"Time","Fp1","AF3","F7","F3","FC1","FC5","T7","C3","CP1","CP5","P7","P3","Pz","PO3","O1","Oz","O2","PO4","P4","P8","CP6","CP2","C4","T8","FC6","FC2","F4","F8","AF4","Fp2","Fz","Cz"
0.0078125,5.860367465e-13,6.726658786e-13,1.317663197e-12,3.608101065e-13,6.661051116e-13,7.123370208e-13,1.260769975e-12,2.94702957e-13,2.951447389e-13,1.453220336e-12,2.848622998e-13,8.76691857e-13,1.619408839e-12,9.597595204e-13,1.261026983e-12,5.669168694e-13,6.749525732e-13,3.585215509e-13,1.923425594e-13,5.235729132e-13,1.325919252e-13,3.18312262e-13,4.263982969e-13,5.605043956e-13,6.476045656e-13,1.31444855e-12,1.593448796e-12,1.240796845e-12,8.418558145e-13,1.002151071e-12,1.834366164e-12,4.817450719e-13
0.015625,5.979372739e-13,6.897303094e-13,1.333656741e-12,3.696145737e-13,6.918509831e-13,7.251079774e-13,1.286614374e-12,3.023283762e-13,3.051505702e-13,1.487763705e-12,2.934912688e-13,8.995495409e-13,1.676085071e-12,9.900989766e-13,1.306817476e-12,5.87093404e-13,6.989432419e-13,3.651432552e-13,1.970101834e-13,5.406842553e-13,1.35469789e-13,3.296195307e-13,4.372283773e-13,5.731703602e-13,6.631677547e-13,1.353037833e-12,1.628800281e-12,1.276979204e-12,8.603394204e-13,1.02595682e-12,1.888007419e-12,5.001098091e-13
0.0234375,6.094905103e-13,7.064305915e-13,1.350186431e-12,3.780068743e-13,7.18105707e-13,7.382452839e-13,1.313017571e-12,3.102536795e-13,3.155042385e-13,1.522463928e-12,3.024097369e-13,9.225845241e-13,1.733702085e-12,1.020797982e-12,1.35325249e-12,6.077177821e-13,7.233912079e-13,3.716203384e-13,2.017029192e-13,5.580516158e-13,1.383287647e-13,3.41274833e-13,4.484364693e-13,5.86593609e-13,6.791861687e-13,1.392222616e-12,1.664564491e-12,1.314235148e-12,8.789265113e-13,1.049721708e-12,1.942560813e-12,5.188347115e-13
0.03125,6.212475154e-13,7.23583713e-13,1.366977026e-12,3.863740315e-13,7.449360559e-13,7.51346974e-13,1.339468615e-12,3.182887938e-13,3.260894752e-13,1.556965295e-12,3.114098591e-13,9.458809155e-13,1.792627425e-12,1.052263146e-12,1.401031151e-12,6.290724097e-13,7.485456717e-13,3.781471496e-13,2.064030339e-13,5.75551801e-13,1.412851519e-13,3.531585635e-13,4.600841097e-13,6.008431648e-13,6.955718062e-13,1.431910508e-12,1.70049555e-12,1.351996657e-12,8.975740763e-13,1.073811253e-12,1.997930173e-12,5.37915402e-13
0.0390625,6.328500673e-13,7.410210417e-13,1.383706762e-12,3.948995351e-13,7.725739186e-13,7.643369887e-13,1.366325556e-12,3.263471112e-13,3.369118369e-13,1.591054912e-12,3.204913757e-13,9.695447204e-13,1.852623137e-12,1.084834931e-12,1.450762959e-12,6.514024234e-13,7.747095654e-13,3.846830417e-13,2.110810496e-13,5.931468128e-13,1.442617884e-13,3.653005247e-13,4.720271889e-13,6.151551928e-13,7.124116437e-13,1.472470275e-12,1.736872549e-12,1.390485619e-12,9.164449998e-13,1.098206901e-12,2.054340662e-12,5.576892607e-13
0.046875,6.438465995e-13,7.578628522e-13,1.400516507e-12,4.032952483e-13,8.009853256e-13,7.774919512e-13,1.393864036e-12,3.346328454e-13,3.482408607e-13,1.625361035e-12,3.299456059e-13,9.935214108e-13,1.913618123e-12,1.118061915e-12,1.501742297e-12,6.74320521e-13,8.017077988e-13,3.910714944e-13,2.157873366e-13,6.111055548e-13,1.471722988e-13,3.779106845e-13,4.841335442e-13,6.292877505e-13,7.297868084e-13,1.51406356e-12,1.773891825e-12,1.430286319e-12,9.355921236e-13,1.122680371e-12,2.111837278e-12,5.783194509e-13
0.0546875,6.544403263e-13,7.740379137e-13,1.417731511e-12,4.115079277e-13,8.29988127e-13,7.908530315e-13,1.421985352e-12,3.432524355e-13,3.60159273e-13,1.659966548e-12,3.39809913e-13,1.017697848e-12,1.975720121e-12,1.151605353e-12,1.55350802e-12,6.976621224e-13,8.293813585e-13,3.973026935e-13,2.205319795e-13,6.2952955e-13,1.501442913e-13,3.910088969e-13,4.965123702e-13,6.439274092e-13,7.474787085e-13,1.556427887e-12,1.811325229e-12,1.470772558e-12,9.549711749e-13,1.147080548e-12,2.170307981e-12,5.99720199e-13
0.0625,6.649332805e-13,7.900901179e-13,1.435331554e-12,4.197262507e-13,8.594208426e-13,8.042922986e-13,1.450346743e-12,3.521503171e-13,3.724987209e-13,1.694295734e-12,3.498664679e-13,1.042120015e-12,2.038929571e-12,1.185814698e-12,1.606789039e-12,7.219701028e-13,8.579748061e-13,4.034283323e-13,2.252596984e-13,6.481609036e-13,1.532293328e-13,4.044734853e-13,5.093693202e-13,6.591645849e-13,7.652958476e-13,1.599272625e-12,1.849003783e-12,1.511341006e-12,9.745250225e-13,1.17144402e-12,2.229714336e-12,6.217776281e-13
0.0703125,6.753570319e-13,8.064048214e-13,1.453311548e-12,4.279301668e-13,8.892554623e-13,8.178214147e-13,1.479109551e-12,3.612084228e-13,3.851347051e-13,1.728455586e-12,3.600742195e-13,1.066653155e-12,2.103126578e-12,1.22061919e-12,1.661693266e-12,7.472225626e-13,8.875391829e-13,4.093657116e-13,2.300193084e-13,6.668485902e-13,1.56444421e-13,4.184213094e-13,5.226470034e-13,6.74803221e-13,7.832535017e-13,1.642361259e-12,1.886872786e-12,1.552523398e-12,9.940081329e-13,1.195954596e-12,2.289855366e-12,6.444381886e-13
0.078125,6.855565807e-13,8.229201423e-13,1.471739547e-12,4.360601212e-13,9.197010915e-13,8.315051946e-13,1.508942041e-12,3.703256237e-13,3.980691076e-13,1.762683673e-12,3.70544172e-13,1.091047371e-12,2.168042438e-12,1.255597535e-12,1.717457031e-12,7.727965617e-13,9.178174382e-13,4.150389283e-13,2.348670806e-13,6.85945088e-13,1.598245764e-13,4.329446688e-13,5.361194709e-13,6.911268113e-13,8.015603925e-13,1.685767018e-12,1.925070257e-12,1.594827779e-12,1.013415761e-12,1.220592739e-12,2.350648187e-12,6.677536728e-13
0.0859375,6.954809755e-13,8.392828832e-13,1.490529151e-12,4.44136859e-13,9.508199643e-13,8.453016478e-13,1.539370367e-12,3.795870515e-13,4.113889165e-13,1.796623916e-12,3.813425715e-13,1.115609988e-12,2.233880974e-12,1.291206425e-12,1.77435953e-12,7.988865669e-13,9.488590524e-13,4.206262599e-13,2.397930191e-13,7.056048374e-13,1.632054353e-13,4.478617162e-13,5.498791636e-13,7.079294608e-13,8.205552197e-13,1.729843311e-12,1.964001477e-12,1.638178486e-12,1.033261302e-12,1.245348662e-12,2.412345051e-12,6.918048176e-13
0.09375,7.051886708e-13,8.553621753e-13,1.509764278e-12,4.520688836e-13,9.823965097e-13,8.590433303e-13,1.569659208e-12,3.890843524e-13,4.250609311e-13,1.830251091e-12,3.924534238e-13,1.140785991e-12,2.301196339e-12,1.327987203e-12,1.833021131e-12,8.259422978e-13,9.807326027e-13,4.262563473e-13,2.448151897e-13,7.252197131e-13,1.66556476e-13,4.631170679e-13,5.642505233e-13,7.248534688e-13,8.402320359e-13,1.774637764e-12,2.003698108e-12,1.682237849e-12,1.053722041e-12,1.270456111e-12,2.475060977e-12,7.165224273e-13
0.1015625,7.145100342e-13,8.712559387e-13,1.529459108e-12,4.597794965e-13,1.014374831e-12,8.726722127e-13,1.600605522e-12,3.987147482e-13,4.388938643e-13,1.86378101e-12,4.037919665e-13,1.166359345e-12,2.369742941e-12,1.365489314e-12,1.892666291e-12,8.535432243e-13,1.012997268e-12,4.317344556e-13,2.498754945e-13,7.444885077e-13,1.700930264e-13,4.788088579e-13,5.791655667e-13,7.42195305e-13,8.601855001e-13,1.819938254e-12,2.043694357e-12,1.726702929e-12,1.074371119e-12,1.295812414e-12,2.538700798e-12,7.41746303e-13
0.109375,7.234194074e-13,8.870763735e-13,1.549234326e-12,4.673200235e-13,1.046806096e-12,8.863638445e-13,1.632142456e-12,4.084911575e-13,4.529886268e-13,1.896864912e-12,4.153587386e-13,1.192037347e-12,2.438879053e-12,1.403421315e-12,1.952798912e-12,8.814784525e-13,1.045616936e-12,4.369905422e-13,2.548733104e-13,7.637974941e-13,1.737120284e-13,4.948630918e-13,5.942274166e-13,7.598577254e-13,8.803011142e-13,1.865696945e-12,2.083821344e-12,1.771858107e-12,1.095077886e-12,1.321187709e-12,2.603161307e-12,7.674845257e-13
0.1171875,7.322406648e-13,9.029192987e-13,1.569007522e-12,4.746387643e-13,1.07961824e-12,9.001354185e-13,1.663191361e-12,4.18584573e-13,4.676984884e-13,1.929328484e-12,4.272912128e-13,1.217927216e-12,2.508364476e-12,1.442039177e-12,2.014215955e-12,9.101709904e-13,1.079172395e-12,4.421951016e-13,2.599050036e-13,7.831284079e-13,1.772150496e-13,5.112814738e-13,6.093899458e-13,7.77550012e-13,9.008178658e-13,1.912051369e-12,2.124431519e-12,1.818034043e-12,1.11611803e-12,1.346929999e-12,2.668400069e-12,7.939212749e-13
0.125,7.408351051e-13,9.184296918e-13,1.58901343e-12,4.815600054e-13,1.11273098e-12,9.137884171e-13,1.695199906e-12,4.289669595e-13,4.83012807e-13,1.961481753e-12,4.396326731e-13,1.243937514e-12,2.578009001e-12,1.480989764e-12,2.076862903e-12,9.394643711e-13,1.113474772e-12,4.472738842e-13,2.650984245e-13,8.022641464e-13,1.8085305e-13,5.283081091e-13,6.249676923e-13,7.957894351e-13,9.218061737e-13,1.959044781e-12,2.165733133e-12,1.864723974e-12,1.137449448e-12,1.373250914e-12,2.734455372e-12,8.210898729e-13
0.1328125,7.488041668e-13,9.330324518e-13,1.609215148e-12,4.881263458e-13,1.14603654e-12,9.273484594e-13,1.729251669e-12,4.395108617e-13,4.987278968e-13,1.993157567e-12,4.523062521e-13,1.269800182e-12,2.647972451e-12,1.519856609e-12,2.140188774e-12,9.691358623e-13,1.148180873e-12,4.520546414e-13,2.703731574e-13,8.214995309e-13,1.848663698e-13,5.460224081e-13,6.41057646e-13,8.149237258e-13,9.43218096e-13,2.006179247e-12,2.207177103e-12,1.911701586e-12,1.158698691e-12,1.399689036e-12,2.800929636e-12,8.488557164e-13
0.140625,7.56507592e-13,9.469388839e-13,1.629650785e-12,4.946540881e-13,1.179512563e-12,9.409242559e-13,1.762826066e-12,4.50214549e-13,5.149530306e-13,2.024019481e-12,4.653178802e-13,1.295560875e-12,2.71863286e-12,1.55908497e-12,2.204809076e-12,9.99718914e-13,1.184012095e-12,4.566723389e-13,2.756792032e-13,8.410866086e-13,1.891007391e-13,5.642782416e-13,6.57458683e-13,8.347095467e-13,9.650853092e-13,2.052769027e-12,2.247966324e-12,1.959649958e-12,1.179699212e-12,1.425933397e-12,2.867014001e-12,8.77292635e-13
0.1484375,7.645468985e-13,9.608020775e-13,1.650280522e-12,5.012035574e-13,1.213204649e-12,9.543600417e-13,1.794946837e-12,4.611032463e-13,5.317891467e-13,2.054243084e-12,4.787134123e-13,1.321332611e-12,2.789662716e-12,1.598953566e-12,2.270833433e-12,1.031222514e-12,1.221029676e-12,4.612692683e-13,2.811344223e-13,8.609967314e-13,1.933506487e-13,5.830333881e-13,6.740995836e-13,8.549836868e-13,9.873626685e-13,2.09879828e-12,2.288212003e-12,2.00861961e-12,1.200622792e-12,1.452135234e-12,2.932505283e-12,9.064837146e-13
0.15625,7.727540672e-13,9.746163988e-13,1.670512137e-12,5.073791552e-13,1.246846956e-12,9.674141223e-13,1.827276386e-12,4.722022044e-13,5.490897402e-13,2.083676609e-12,4.924762741e-13,1.347087967e-12,2.860834895e-12,1.639107449e-12,2.337464954e-12,1.062981579e-12,1.258213694e-12,4.657324795e-13,2.867428245e-13,8.809586106e-13,1.975786918e-13,6.023348956e-13,6.911596843e-13,8.755772868e-13,1.009889215e-12,2.144500049e-12,2.328462875e-12,2.057829719e-12,1.221585675e-12,1.478517747e-12,2.997660634e-12,9.361061765e-13
0.1640625,7.805982705e-13,9.878598483e-13,1.69033768e-12,5.130423489e-13,1.280311819e-12,9.800330855e-13,1.859541415e-12,4.834835305e-13,5.668322906e-13,2.111822962e-12,5.066254457e-13,1.37283941e-12,2.932327081e-12,1.679337734e-12,2.404717307e-12,1.094955987e-12,1.295534199e-12,4.699604654e-13,2.923671592e-13,9.004468406e-13,2.018811797e-13,6.221765598e-13,7.087106144e-13,8.965091225e-13,1.032544072e-12,2.189889479e-12,2.368453433e-12,2.107152685e-12,1.242381699e-12,1.50519836e-12,3.062463532e-12,9.65991222e-13
0.171875,7.882123798e-13,1.000409883e-12,1.71066448e-12,5.18579892e-13,1.313914892e-12,9.92482225e-13,1.891394125e-12,4.948687382e-13,5.851290851e-13,2.139109332e-12,5.211868212e-13,1.398650576e-12,3.003679293e-12,1.719666382e-12,2.472512455e-12,1.127266944e-12,1.33337061e-12,4.740255389e-13,2.980440576e-13,9.196833493e-13,2.06379091e-13,6.425488826e-13,7.266110237e-13,9.179917645e-13,1.055493996e-12,2.235190117e-12,2.407879534e-12,2.157182652e-12,1.262864917e-12,1.532128947e-12,3.126921855e-12,9.964823301e-13
0.1796875,7.963061304e-13,1.012760775e-12,1.731760522e-12,5.240823353e-13,1.347517168e-12,1.005035866e-12,1.92390744e-12,5.065378233e-13,6.039611304e-13,2.166276311e-12,5.360778197e-13,1.424636946e-12,3.074844748e-12,1.760322185e-12,2.540529889e-12,1.159731464e-12,1.371478845e-12,4.780296846e-13,3.039188427e-13,9.39420729e-13,2.111059959e-13,6.6344069e-13,7.448836338e-13,9.400513206e-13,1.079142231e-12,2.280346075e-12,2.447218467e-12,2.208164957e-12,1.283218231e-12,1.559319906e-12,3.190905608e-12,1.027685915e-12
0.1875,8.049194299e-13,1.02509164e-12,1.753299989e-12,5.291475366e-13,1.380756714e-12,1.017507056e-12,1.956548903e-12,5.187091647e-13,6.232292939e-13,2.192880245e-12,5.512635989e-13,1.450772183e-12,3.146506289e-12,1.801539546e-12,2.60943114e-12,1.192535585e-12,1.4100352e-12,4.819545855e-13,3.099643452e-13,9.593271716e-13,2.160616785e-13,6.848409232e-13,7.637138504e-13,9.628810846e-13,1.103357484e-12,2.324879702e-12,2.486532531e-12,2.259486184e-12,1.3034963e-12,1.586810982e-12,3.253953337e-12,1.059356146e-12
0.1953125,8.133586668e-13,1.036917209e-12,1.775289997e-12,5.336766732e-13,1.413868925e-12,1.029690595e-12,1.988875991e-12,5.311304058e-13,6.428262979e-13,2.218144427e-12,5.668119516e-13,1.476714654e-12,3.218180527e-12,1.842852786e-12,2.679043167e-12,1.225668229e-12,1.448989374e-12,4.856862688e-13,3.161418814e-13,9.78733215e-13,2.21163545e-13,7.068182108e-13,7.83029107e-13,9.862520275e-13,1.127411501e-12,2.368934128e-12,2.525226202e-12,2.310335949e-12,1.323489454e-12,1.614299836e-12,3.316115308e-12,1.091426788e-12
0.203125,8.215574952e-13,1.048244962e-12,1.797430199e-12,5.380020877e-13,1.446862516e-12,1.041688615e-12,2.021542288e-12,5.436003494e-13,6.626920553e-13,2.242395768e-12,5.825894375e-13,1.502405357e-12,3.289385635e-12,1.883949186e-12,2.748442777e-12,1.258784526e-12,1.487773249e-12,4.891302386e-13,3.224937838e-13,9.979322305e-13,2.262891105e-13,7.294144246e-13,8.026423898e-13,1.009384397e-12,1.151241003e-12,2.412740635e-12,2.563299718e-12,2.361031551e-12,1.343206851e-12,1.641720512e-12,3.377750033e-12,1.123851412e-12
0.2109375,8.298763074e-13,1.059571835e-12,1.819207342e-12,5.4230225e-13,1.47949187e-12,1.05332478e-12,2.053666268e-12,5.564104475e-13,6.828852895e-13,2.266385011e-12,5.983272613e-13,1.528204741e-12,3.361177876e-12,1.92555001e-12,2.818661241e-12,1.292391403e-12,1.527033793e-12,4.922754226e-13,3.28867807e-13,1.017245223e-12,2.315559226e-13,7.524778199e-13,8.226240439e-13,1.032684858e-12,1.175482066e-12,2.456004743e-12,2.601295263e-12,2.412479677e-12,1.362891328e-12,1.66954494e-12,3.438949747e-12,1.15662289e-12
0.21875,8.381282463e-13,1.07073897e-12,1.840856719e-12,5.464550796e-13,1.512155341e-12,1.06447797e-12,2.085102274e-12,5.696295322e-13,7.033783848e-13,2.290097565e-12,6.141097648e-13,1.554026308e-12,3.433734983e-12,1.967804028e-12,2.890588138e-12,1.327069563e-12,1.567516511e-12,4.952639011e-13,3.351327581e-13,1.036636288e-12,2.37131481e-13,7.758122557e-13,8.430882054e-13,1.056547617e-12,1.200182484e-12,2.498983628e-12,2.639461686e-12,2.464318888e-12,1.382642817e-12,1.697698097e-12,3.500028399e-12,1.189906096e-12
0.2265625,8.462589485e-13,1.081462142e-12,1.862787152e-12,5.503030989e-13,1.544839557e-12,1.07559862e-12,2.117078316e-12,5.829970297e-13,7.240563347e-13,2.313054116e-12,6.302875965e-13,1.579539006e-12,3.505959118e-12,2.009843413e-12,2.962928359e-12,1.362247655e-12,1.608472197e-12,4.982695957e-13,3.415344301e-13,1.056047503e-12,2.429820496e-13,7.994544141e-13,8.640248228e-13,1.079979568e-12,1.225074013e-12,2.541853125e-12,2.677522337e-12,2.515798854e-12,1.402318917e-12,1.725691308e-12,3.560813474e-12,1.223460568e-12
0.234375,8.545341611e-13,1.091874758e-12,1.885023484e-12,5.538254383e-13,1.576769209e-12,1.086737749e-12,2.14886803e-12,5.965917981e-13,7.45037416e-13,2.335163912e-12,6.469287247e-13,1.604908242e-12,3.577826412e-12,2.051502031e-12,3.034940133e-12,1.397283713e-12,1.649294412e-12,5.011746226e-13,3.482313674e-13,1.075133279e-12,2.491489738e-13,8.236171146e-13,8.854706336e-13,1.103628096e-12,1.250366691e-12,2.583718449e-12,2.714776607e-12,2.567508209e-12,1.421621798e-12,1.753706449e-12,3.620187864e-12,1.256954592e-12
0.2421875,8.627573318e-13,1.101901769e-12,1.907430439e-12,5.570584395e-13,1.607971286e-12,1.097422716e-12,2.180084779e-12,6.105682966e-13,7.664082744e-13,2.356575747e-12,6.637878212e-13,1.630118032e-12,3.649555537e-12,2.09301726e-12,3.106849713e-12,1.432170085e-12,1.690062651e-12,5.037380537e-13,3.549725473e-13,1.093951242e-12,2.556357838e-13,8.483321831e-13,9.073612572e-13,1.129157547e-12,1.276006117e-12,2.62434372e-12,2.750906615e-12,2.619875809e-12,1.440390803e-12,1.781937701e-12,3.678006803e-12,1.29070687e-12
0.25,8.708691494e-13,1.111540129e-12,1.929518183e-12,5.599808138e-13,1.638852703e-12,1.107678759e-12,2.211449504e-12,6.247573627e-13,7.878906411e-13,2.377098831e-12,6.807093967e-13,1.654776352e-12,3.720412831e-12,2.134124486e-12,3.17857239e-12,1.467044977e-12,1.730873913e-12,5.060294905e-13,3.616113464e-13,1.112950936e-12,2.621772515e-13,8.733722499e-13,9.294380236e-13,1.155384362e-12,1.301492674e-12,2.664388739e-12,2.786455991e-12,2.672081503e-12,1.458779455e-12,1.810114247e-12,3.735075912e-12,1.324797609e-12
0.2578125,8.792269782e-13,1.120874912e-12,1.951048062e-12,5.626200513e-13,1.669132041e-12,1.117659938e-12,2.241799466e-12,6.390964541e-13,8.094024371e-13,2.396594915e-12,6.977914343e-13,1.679152372e-12,3.790329129e-12,2.174999818e-12,3.250542157e-12,1.502149826e-12,1.772115793e-12,5.082247628e-13,3.683252556e-13,1.13156498e-12,2.687216399e-13,8.986553324e-13,9.517341835e-13,1.180927395e-12,1.326885977e-12,2.703650009e-12,2.821717253e-12,2.723888555e-12,1.476901954e-12,1.83834816e-12,3.791111628e-12,1.358703593e-12
0.265625,8.876566685e-13,1.129571719e-12,1.972502394e-12,5.6494305e-13,1.698623666e-12,1.127220668e-12,2.271106402e-12,6.537275375e-13,8.312583446e-13,2.415362971e-12,7.151564283e-13,1.703718714e-12,3.860125887e-12,2.216086391e-12,3.322978556e-12,1.537517231e-12,1.813721773e-12,5.103298154e-13,3.752602901e-13,1.149103858e-12,2.75479309e-13,9.243785644e-13,9.746691907e-13,1.206737993e-12,1.352619454e-12,2.741754834e-12,2.856243585e-12,2.775879299e-12,1.494721652e-12,1.8667991e-12,3.845475268e-12,1.392406524e-12
0.2734375,8.959340451e-13,1.137747369e-12,1.99381367e-12,5.666957285e-13,1.727262222e-12,1.136477402e-12,2.300744543e-12,6.686831697e-13,8.534561986e-13,2.433409881e-12,7.327265976e-13,1.72815982e-12,3.92981866e-12,2.257079575e-12,3.395247208e-12,1.57278568e-12,1.855151299e-12,5.124161062e-13,3.824068378e-13,1.166199152e-12,2.824548349e-13,9.505951443e-13,9.982473888e-13,1.232892864e-12,1.378624877e-12,2.778971166e-12,2.889879482e-12,2.827888567e-12,1.512303015e-12,1.895262085e-12,3.898313463e-12,1.426143432e-12
0.28125,9.045012502e-13,1.145789468e-12,2.014469252e-12,5.679876912e-13,1.754825476e-12,1.14546477e-12,2.329458325e-12,6.839438366e-13,8.757481385e-13,2.450406943e-12,7.50439179e-13,1.752297561e-12,3.998551624e-12,2.297628387e-12,3.467107822e-12,1.60779005e-12,1.896552607e-12,5.146193041e-13,3.897328566e-13,1.183603797e-12,2.896515086e-13,9.771423318e-13,1.021854145e-12,1.258808925e-12,1.404635987e-12,2.815198581e-12,2.92299481e-12,2.879592201e-12,1.529656085e-12,1.924038732e-12,3.949580829e-12,1.459774306e-12
0.2890625,9.134947353e-13,1.153193629e-12,2.034811709e-12,5.693959743e-13,1.781702822e-12,1.153865151e-12,2.356941907e-12,6.995289405e-13,8.983360684e-13,2.466520101e-12,7.684771827e-13,1.776627536e-12,4.066024223e-12,2.337847316e-12,3.538303572e-12,1.642614048e-12,1.938026374e-12,5.169033034e-13,3.972281807e-13,1.201351319e-12,2.972046565e-13,1.003999761e-12,1.045314335e-12,1.285436892e-12,1.430856583e-12,2.85023632e-12,2.95582617e-12,2.931514055e-12,1.546706991e-12,1.953486886e-12,3.999101809e-12,1.493438375e-12
0.296875,9.22580147e-13,1.159822523e-12,2.055085703e-12,5.708465497e-13,1.808050787e-12,1.161763259e-12,2.384664623e-12,7.154121901e-13,9.21464483e-13,2.481930907e-12,7.869477822e-13,1.80110713e-12,4.132630659e-12,2.37771329e-12,3.608629442e-12,1.67729408e-12,1.979282845e-12,5.191371472e-13,4.048502056e-13,1.219117542e-12,3.050275765e-13,1.031192527e-12,1.069160308e-12,1.313047807e-12,1.457536257e-12,2.884048001e-12,2.988041953e-12,2.983924725e-12,1.563402298e-12,1.983092169e-12,4.046934509e-12,1.5271866e-12
0.3046875,9.318744362e-13,1.16638186e-12,2.074890733e-12,5.71731345e-13,1.833009574e-12,1.16945882e-12,2.411285649e-12,7.314612175e-13,9.447381173e-13,2.496288785e-12,8.056463948e-13,1.824943127e-12,4.197968885e-12,2.416809753e-12,3.678379657e-12,1.711602489e-12,2.020239624e-12,5.211698408e-13,4.125334613e-13,1.236324645e-12,3.129887044e-13,1.058552352e-12,1.093416159e-12,1.340567857e-12,1.484112005e-12,2.915938293e-12,3.018628283e-12,3.03617533e-12,1.579301243e-12,2.012478303e-12,4.092563876e-12,1.560340515e-12
0.3125,9.416052558e-13,1.172662779e-12,2.094549847e-12,5.72247626e-13,1.856520904e-12,1.176965584e-12,2.436466088e-12,7.476004008e-13,9.676923328e-13,2.50971328e-12,8.24363343e-13,1.84784197e-12,4.261281925e-12,2.454610617e-12,3.746822886e-12,1.745070336e-12,2.060489273e-12,5.229021693e-13,4.202953295e-13,1.252883738e-12,3.211601483e-13,1.085971283e-12,1.11754631e-12,1.367738207e-12,1.509921517e-12,2.945693098e-12,3.04701718e-12,3.087754605e-12,1.594061922e-12,2.041895725e-12,4.135733846e-12,1.592781444e-12
0.3203125,9.516101456e-13,1.178205154e-12,2.114538912e-12,5.728665334e-13,1.879411638e-12,1.18444402e-12,2.462034386e-12,7.641774546e-13,9.905050227e-13,2.522951075e-12,8.430836151e-13,1.870474527e-12,4.323781363e-12,2.491546114e-12,3.813968632e-12,1.778054885e-12,2.100138151e-12,5.244701188e-13,4.281920223e-13,1.269175848e-12,3.29566906e-13,1.113574913e-12,1.141794971e-12,1.394896417e-12,1.535673587e-12,2.974485675e-12,3.074253646e-12,3.13892595e-12,1.608448605e-12,2.071430534e-12,4.177308384e-12,1.62527265e-12
0.328125,9.618320889e-13,1.183459422e-12,2.134183618e-12,5.731764868e-13,1.901320965e-12,1.191936087e-12,2.48654519e-12,7.815340099e-13,1.013503313e-12,2.536124739e-12,8.618547013e-13,1.893510875e-12,4.387101603e-12,2.528959408e-12,3.881904572e-12,1.81139583e-12,2.139859415e-12,5.260146069e-13,4.362144589e-13,1.284951686e-12,3.381734543e-13,1.141501338e-12,1.166848403e-12,1.422165387e-12,1.562342673e-12,3.002654876e-12,3.101338836e-12,3.190067747e-12,1.623063655e-12,2.101127888e-12,4.217345964e-12,1.657802348e-12
0.3359375,9.723256622e-13,1.188452552e-12,2.152828541e-12,5.727975141e-13,1.921469512e-12,1.198863126e-12,2.509390553e-12,7.99147485e-13,1.036476106e-12,2.548571738e-12,8.806280289e-13,1.9165171e-12,4.449853076e-12,2.566538012e-12,3.949765215e-12,1.844325443e-12,2.178639952e-12,5.27435326e-13,4.443724593e-13,1.299979507e-12,3.470026182e-13,1.169708392e-12,1.192432696e-12,1.449534397e-12,1.58915172e-12,3.028881735e-12,3.12734241e-12,3.240905732e-12,1.636969233e-12,2.130886142e-12,4.254546951e-12,1.689535791e-12
0.34375,9.830601696e-13,1.192856141e-12,2.170875957e-12,5.721374505e-13,1.940264081e-12,1.204946334e-12,2.533031603e-12,8.164119065e-13,1.059074367e-12,2.559838565e-12,8.9925855e-13,1.938567269e-12,4.509875474e-12,2.602515191e-12,4.014471029e-12,1.87573617e-12,2.215687016e-12,5.287295504e-13,4.526912144e-13,1.314689567e-12,3.560333751e-13,1.197980698e-12,1.217838455e-12,1.476622976e-12,1.614941055e-12,3.052633869e-12,3.151113698e-12,3.290872175e-12,1.649469802e-12,2.16008794e-12,4.288608709e-12,1.720277448e-12
0.3515625,9.942889506e-13,1.197035662e-12,2.188809016e-12,5.714574248e-13,1.958092695e-12,1.210673788e-12,2.556003252e-12,8.337919863e-13,1.08149778e-12,2.570247516e-12,9.178109366e-13,1.959923039e-12,4.56808698e-12,2.637341527e-12,4.07751027e-12,1.906576036e-12,2.25259191e-12,5.300624249e-13,4.611379968e-13,1.329199618e-12,3.652789393e-13,1.226182188e-12,1.243107673e-12,1.503437737e-12,1.640261207e-12,3.074964531e-12,3.173314478e-12,3.340150077e-12,1.661410149e-12,2.188853195e-12,4.320568412e-12,1.750538141e-12
0.359375,1.006131585e-12,1.201048623e-12,2.206317159e-12,5.705765245e-13,1.974538227e-12,1.216251791e-12,2.575887994e-12,8.518255202e-13,1.104129364e-12,2.580390015e-12,9.366163979e-13,1.981526183e-12,4.626211486e-12,2.67278131e-12,4.141675133e-12,1.937704434e-12,2.289698797e-12,5.314080056e-13,4.697455633e-13,1.343444342e-12,3.748315323e-13,1.254440923e-12,1.268596523e-12,1.530780718e-12,1.666113907e-12,3.096513753e-12,3.195084656e-12,3.389384466e-12,1.673444443e-12,2.218173828e-12,4.350853924e-12,1.780537132e-12
0.3671875,1.018091539e-12,1.204440712e-12,2.222881897e-12,5.694855422e-13,1.989506415e-12,1.221339108e-12,2.594829728e-12,8.701038557e-13,1.126778119e-12,2.590177976e-12,9.557130635e-13,2.003107412e-12,4.683333242e-12,2.708134078e-12,4.20525001e-12,1.968236329e-12,2.32570923e-12,5.327221774e-13,4.785866946e-13,1.357527227e-12,3.846513291e-13,1.282839831e-12,1.294242868e-12,1.558547249e-12,1.692170465e-12,3.116722146e-12,3.216265135e-12,3.438328608e-12,1.685147549e-12,2.247927998e-12,4.37903015e-12,1.809949448e-12
0.375,1.030182877e-12,1.207295345e-12,2.238723329e-12,5.683044384e-13,2.003292036e-12,1.225942111e-12,2.613976549e-12,8.882280568e-13,1.148951525e-12,2.599121214e-12,9.747684697e-13,2.023773285e-12,4.737677458e-12,2.741786717e-12,4.266132662e-12,1.997735799e-12,2.361049372e-12,5.341649818e-13,4.876210029e-13,1.371087644e-12,3.945701011e-13,1.311225138e-12,1.319808498e-12,1.585126208e-12,1.717476279e-12,3.135135369e-12,3.236089429e-12,3.48619636e-12,1.696142044e-12,2.277225634e-12,4.404858006e-12,1.838493403e-12
0.3828125,1.043221626e-12,1.209813585e-12,2.254267574e-12,5.670087415e-13,2.015775012e-12,1.23037027e-12,2.63193069e-12,9.064354078e-13,1.170620071e-12,2.607224449e-12,9.936930887e-13,2.043620572e-12,4.789423527e-12,2.774065619e-12,4.324881164e-12,2.026509178e-12,2.396097364e-12,5.357068079e-13,4.967931756e-13,1.383885043e-12,4.045238305e-13,1.339536776e-12,1.345244008e-12,1.609868567e-12,1.741914855e-12,3.151894281e-12,3.254400105e-12,3.533069736e-12,1.706488942e-12,2.306336211e-12,4.428277784e-12,1.86622507e-12
0.390625,1.05720753e-12,1.211959787e-12,2.269218585e-12,5.655473478e-13,2.026692681e-12,1.234415624e-12,2.64868267e-12,9.249002096e-13,1.192030547e-12,2.614607742e-12,1.012598915e-12,2.063166268e-12,4.839739724e-12,2.805738917e-12,4.381991605e-12,2.054193288e-12,2.429741075e-12,5.371076679e-13,5.06092761e-13,1.396314775e-12,4.146767235e-13,1.367858696e-12,1.370697538e-12,1.634614273e-12,1.76620107e-12,3.167005938e-12,3.271407991e-12,3.579341296e-12,1.716250317e-12,2.335879663e-12,4.449033235e-12,1.893175264e-12
0.3984375,1.071414674e-12,1.213956313e-12,2.283337887e-12,5.639506821e-13,2.036067144e-12,1.237696992e-12,2.664513782e-12,9.43441113e-13,1.213024364e-12,2.621209181e-12,1.031319982e-12,2.082382238e-12,4.88885491e-12,2.836732817e-12,4.437667907e-12,2.080755995e-12,2.46216807e-12,5.384399509e-13,5.154932653e-13,1.408531277e-12,4.252777252e-13,1.396132567e-12,1.396370515e-12,1.660797408e-12,1.790561929e-12,3.180399556e-12,3.28709548e-12,3.624695647e-12,1.725406935e-12,2.365373355e-12,4.467032137e-12,1.919263336e-12
0.40625,1.085941821e-12,1.215940111e-12,2.296982763e-12,5.622663759e-13,2.043972402e-12,1.24054749e-12,2.679309539e-12,9.619639908e-13,1.233321169e-12,2.627286773e-12,1.049670657e-12,2.101034601e-12,4.936468214e-12,2.866981764e-12,4.492533866e-12,2.10710446e-12,2.494621735e-12,5.399748085e-13,5.249845425e-13,1.420351144e-12,4.362685027e-13,1.42424677e-12,1.422298023e-12,1.687081601e-12,1.814439238e-12,3.192256241e-12,3.301396553e-12,3.669059706e-12,1.733932713e-12,2.394160478e-12,4.482495597e-12,1.944561252e-12
0.4140625,1.101238623e-12,1.217712581e-12,2.310266241e-12,5.604377675e-13,2.050559839e-12,1.243472032e-12,2.69322405e-12,9.806509397e-13,1.253183183e-12,2.633022236e-12,1.067832179e-12,2.119071272e-12,4.982480835e-12,2.896380279e-12,4.546258561e-12,2.133353978e-12,2.526981128e-12,5.416927591e-13,5.345118249e-13,1.43161472e-12,4.47205877e-13,1.452165061e-12,1.448237385e-12,1.712393759e-12,1.837719646e-12,3.202606384e-12,3.314385576e-12,3.712964468e-12,1.741846447e-12,2.422543396e-12,4.495586175e-12,1.969135918e-12
0.421875,1.117194274e-12,1.219188683e-12,2.322959951e-12,5.584104223e-13,2.05605017e-12,1.246205659e-12,2.705914133e-12,9.995805471e-13,1.272881584e-12,2.638262164e-12,1.08598551e-12,2.136672405e-12,5.026488214e-12,2.924681909e-12,4.597578213e-12,2.158376148e-12,2.558051279e-12,5.434323228e-13,5.439848689e-13,1.44225694e-12,4.578073022e-13,1.47969116e-12,1.473803617e-12,1.737835825e-12,1.860741245e-12,3.211301157e-12,3.326027482e-12,3.75627917e-12,1.749187116e-12,2.451183347e-12,4.506323856e-12,1.992787822e-12
0.4296875,1.133765687e-12,1.220363958e-12,2.334774077e-12,5.563163713e-13,2.060132453e-12,1.248266951e-12,2.717418184e-12,1.018498164e-12,1.29200926e-12,2.643028141e-12,1.103936767e-12,2.154014091e-12,5.068008908e-12,2.951973321e-12,4.646073022e-12,2.181624132e-12,2.587316941e-12,5.451516715e-13,5.534456796e-13,1.452439503e-12,4.682678862e-13,1.506551168e-12,1.498787343e-12,1.763394733e-12,1.883285309e-12,3.218181666e-12,3.336168722e-12,3.798418002e-12,1.755931041e-12,2.480026158e-12,4.51455851e-12,2.015162943e-12
0.4375,1.151060223e-12,1.221215931e-12,2.345530955e-12,5.542247176e-13,2.06223021e-12,1.249772021e-12,2.727886953e-12,1.03729312e-12,1.310269626e-12,2.64722177e-12,1.12144734e-12,2.170907808e-12,5.107369214e-12,2.978320081e-12,4.692660322e-12,2.203733393e-12,2.615562052e-12,5.467541433e-13,5.629776171e-13,1.461865534e-12,4.788930921e-13,1.532887582e-12,1.523384473e-12,1.787208362e-12,1.905057551e-12,3.222991841e-12,3.344779115e-12,3.839412552e-12,1.762066053e-12,2.508515948e-12,4.520028892e-12,2.036136709e-12
0.4453125,1.168869812e-12,1.221907236e-12,2.355758648e-12,5.520658676e-13,2.062642918e-12,1.251036023e-12,2.737022496e-12,1.056171897e-12,1.328042356e-12,2.650824215e-12,1.138576235e-12,2.187241441e-12,5.145353991e-12,3.003679555e-12,4.737737083e-12,2.224919217e-12,2.643048274e-12,5.481463421e-13,5.725690686e-13,1.470032626e-12,4.898011673e-13,1.559054578e-12,1.547941874e-12,1.808829559e-12,1.926287688e-12,3.225885009e-12,3.351943002e-12,3.879434948e-12,1.767595763e-12,2.536635472e-12,4.522965691e-12,2.056048514e-12
0.453125,1.187055976e-12,1.222553406e-12,2.365705743e-12,5.499833862e-13,2.062086029e-12,1.252086612e-12,2.74545848e-12,1.075100278e-12,1.345450424e-12,2.654451407e-12,1.155428932e-12,2.203167407e-12,5.182067285e-12,3.028136072e-12,4.780352026e-12,2.244697658e-12,2.668794897e-12,5.494745123e-13,5.821625139e-13,1.477717277e-12,5.00979828e-13,1.584859344e-12,1.572448401e-12,1.829641284e-12,1.947117751e-12,3.227232232e-12,3.357669016e-12,3.918402967e-12,1.772423694e-12,2.56468412e-12,4.523795492e-12,2.075056862e-12
0.4609375,1.205657167e-12,1.222911243e-12,2.374482133e-12,5.480226099e-13,2.060275868e-12,1.252888786e-12,2.752979906e-12,1.093868781e-12,1.36211403e-12,2.657931443e-12,1.171961674e-12,2.218314408e-12,5.21636609e-12,3.051259488e-12,4.820200918e-12,2.263252652e-12,2.692906557e-12,5.508642826e-13,5.916694864e-13,1.485597162e-12,5.12271356e-13,1.609897119e-12,1.596608236e-12,1.850528232e-12,1.96740345e-12,3.226658424e-12,3.361893025e-12,3.956318632e-12,1.776439604e-12,2.592401765e-12,4.522029787e-12,2.092703198e-12
0.46875,1.224632064e-12,1.222637327e-12,2.382322788e-12,5.457586463e-13,2.056444817e-12,1.253518474e-12,2.758603283e-12,1.112559624e-12,1.378019573e-12,2.660182045e-12,1.188183598e-12,2.232242473e-12,5.24708219e-12,3.072481055e-12,4.857748963e-12,2.280909456e-12,2.716044369e-12,5.522305233e-13,6.011414076e-13,1.492586188e-12,5.234678479e-13,1.63445823e-12,1.620437207e-12,1.870912963e-12,1.987009394e-12,3.224013632e-12,3.3647716e-12,3.993047556e-12,1.779694868e-12,2.619474833e-12,4.517060719e-12,2.109016283e-12
0.4765625,1.244061648e-12,1.221693504e-12,2.390742279e-12,5.430283758e-13,2.050653365e-12,1.254057691e-12,2.763849748e-12,1.131158587e-12,1.393347382e-12,2.66156114e-12,1.204087067e-12,2.245369026e-12,5.274838866e-12,3.092245153e-12,4.892553022e-12,2.2970586e-12,2.737422494e-12,5.535084452e-13,6.107741151e-13,1.498044447e-12,5.345631597e-13,1.65893762e-12,1.644206118e-12,1.890172524e-12,2.005838786e-12,3.2200935e-12,3.366453832e-12,4.02843164e-12,1.782290384e-12,2.646004732e-12,4.509381094e-12,2.124677542e-12
0.484375,1.263988694e-12,1.220325175e-12,2.399350944e-12,5.402367073e-13,2.043435877e-12,1.254548094e-12,2.768983704e-12,1.149312126e-12,1.407824913e-12,2.663205933e-12,1.219448841e-12,2.257891603e-12,5.300717768e-12,3.110929187e-12,4.924327487e-12,2.311247081e-12,2.756748758e-12,5.545807019e-13,6.2045912e-13,1.502722987e-12,5.456158828e-13,1.682928341e-12,1.667714943e-12,1.908880068e-12,2.023817073e-12,3.214780662e-12,3.366344036e-12,4.062470982e-12,1.783987032e-12,2.67187836e-12,4.499335336e-12,2.139396623e-12
0.4921875,1.284235834e-12,1.21871876e-12,2.406818235e-12,5.375300876e-13,2.034956092e-12,1.254944118e-12,2.771433502e-12,1.166978136e-12,1.421226037e-12,2.664858814e-12,1.234176354e-12,2.269368156e-12,5.32427358e-12,3.128014744e-12,4.953810122e-12,2.323957905e-12,2.774821442e-12,5.553399357e-13,6.299463478e-13,1.506865554e-12,5.565833947e-13,1.706019473e-12,1.690476585e-12,1.927118927e-12,2.040803399e-12,3.207291785e-12,3.363912517e-12,4.094810741e-12,1.784475066e-12,2.697033495e-12,4.48656881e-12,2.152343152e-12
0.5,1.304896031e-12,1.216825736e-12,2.413788163e-12,5.347014536e-13,2.025207948e-12,1.255128756e-12,2.772217909e-12,1.184507024e-12,1.433807591e-12,2.665992309e-12,1.248555915e-12,2.280107263e-12,5.34544082e-12,3.143862472e-12,4.98161737e-12,2.335976836e-12,2.791816719e-12,5.56233204e-13,6.393986162e-13,1.510308782e-12,5.675619362e-13,1.728454966e-12,1.712647203e-12,1.944093233e-12,2.056884711e-12,3.198533194e-12,3.360179994e-12,4.1253378e-12,1.784334783e-12,2.722026388e-12,4.471695126e-12,2.163977852e-12
0.5078125,1.326231202e-12,1.214503082e-12,2.421056934e-12,5.318240931e-13,2.014373626e-12,1.255102009e-12,2.773780905e-12,1.201872523e-12,1.445715002e-12,2.666801201e-12,1.262765742e-12,2.290663406e-12,5.365251091e-12,3.159524292e-12,5.007971395e-12,2.347726426e-12,2.808045299e-12,5.578075898e-13,6.489581426e-13,1.513073086e-12,5.785640618e-13,1.75030276e-12,1.734666796e-12,1.960519961e-12,2.072623649e-12,3.189684204e-12,3.356369142e-12,4.154744845e-12,1.784470296e-12,2.747062741e-12,4.455830336e-12,2.175037652e-12
0.515625,1.348137266e-12,1.211724165e-12,2.427883663e-12,5.291020564e-13,2.002532431e-12,1.254946399e-12,2.774887338e-12,1.21863881e-12,1.45668257e-12,2.667345397e-12,1.276577509e-12,2.300577519e-12,5.383150108e-12,3.174427265e-12,5.032118386e-12,2.358596505e-12,2.823576901e-12,5.597375418e-13,6.583562937e-13,1.514790298e-12,5.891726817e-13,1.771227339e-12,1.756230735e-12,1.976703756e-12,2.08820577e-12,3.179868647e-12,3.352028185e-12,4.183324784e-12,1.784520166e-12,2.771519594e-12,4.438582413e-12,2.184995915e-12
0.5234375,1.370446076e-12,1.208574346e-12,2.43398331e-12,5.26442063e-13,1.989385054e-12,1.25462867e-12,2.775096846e-12,1.23487405e-12,1.466662566e-12,2.667665706e-12,1.289891329e-12,2.309546795e-12,5.397865203e-12,3.187446198e-12,5.052742232e-12,2.367707391e-12,2.837295919e-12,5.614706187e-13,6.675473679e-13,1.51551389e-12,5.992744981e-13,1.791275956e-12,1.776852148e-12,1.990434089e-12,2.103264474e-12,3.16808356e-12,3.346495784e-12,4.211087884e-12,1.783702309e-12,2.795138062e-12,4.418925257e-12,2.193366392e-12
0.53125,1.393234502e-12,1.205074028e-12,2.440009151e-12,5.2367956e-13,1.974698911e-12,1.254189671e-12,2.775301704e-12,1.251285539e-12,1.476128986e-12,2.667741161e-12,1.303039652e-12,2.318063732e-12,5.409954938e-12,3.199000278e-12,5.07038214e-12,2.375371286e-12,2.849062891e-12,5.63129469e-13,6.768160727e-13,1.515931945e-12,6.093734973e-13,1.810842652e-12,1.796789606e-12,2.001697208e-12,2.117833324e-12,3.154908055e-12,3.340131634e-12,4.238559781e-12,1.782390055e-12,2.818316746e-12,4.396941773e-12,2.200670966e-12
0.5390625,1.41658739e-12,1.201320264e-12,2.446078336e-12,5.209122908e-13,1.958732099e-12,1.253854632e-12,2.774377498e-12,1.268066237e-12,1.485282393e-12,2.667277608e-12,1.316072205e-12,2.326111976e-12,5.420025492e-12,3.209545913e-12,5.086019496e-12,2.381943457e-12,2.859449707e-12,5.648154284e-13,6.861182099e-13,1.515779761e-12,6.194966364e-13,1.82996216e-12,1.816347321e-12,2.0131758e-12,2.131835238e-12,3.140806462e-12,3.332843618e-12,4.265120605e-12,1.780938079e-12,2.841057754e-12,4.373175401e-12,2.2072466e-12
0.546875,1.440530701e-12,1.197615192e-12,2.451860679e-12,5.183186535e-13,1.9417362e-12,1.253668485e-12,2.772338535e-12,1.284481574e-12,1.493551779e-12,2.666625002e-12,1.328377424e-12,2.333138144e-12,5.427406371e-12,3.218461686e-12,5.098679245e-12,2.386871542e-12,2.867888401e-12,5.662214268e-13,6.951445089e-13,1.514114247e-12,6.290871743e-13,1.848302039e-12,1.835257299e-12,2.024263174e-12,2.144468355e-12,3.125287717e-12,3.323908052e-12,4.289106581e-12,1.778714611e-12,2.86291348e-12,4.347672525e-12,2.2127757e-12
0.5546875,1.464918934e-12,1.193913855e-12,2.457328659e-12,5.157679157e-13,1.923577532e-12,1.253539781e-12,2.770368518e-12,1.300041368e-12,1.500527309e-12,2.666168419e-12,1.339615172e-12,2.338933964e-12,5.431909558e-12,3.225553939e-12,5.108025413e-12,2.390247435e-12,2.874363038e-12,5.673612873e-13,7.038537285e-13,1.511039271e-12,6.381616046e-13,1.865737299e-12,1.853366186e-12,2.032721852e-12,2.155552176e-12,3.108144349e-12,3.313352312e-12,4.310708752e-12,1.775407404e-12,2.88384308e-12,4.32024601e-12,2.217091649e-12
0.5625,1.48937296e-12,1.189775798e-12,2.462625521e-12,5.129814364e-13,1.904265409e-12,1.253514285e-12,2.767781985e-12,1.31505401e-12,1.506579474e-12,2.665252333e-12,1.350178605e-12,2.343531802e-12,5.434026882e-12,3.231261754e-12,5.115222895e-12,2.392714522e-12,2.879629196e-12,5.685864645e-13,7.123974152e-13,1.507641204e-12,6.472086912e-13,1.882392436e-12,1.870810362e-12,2.039784038e-12,2.165836982e-12,3.089781159e-12,3.301689467e-12,4.331135191e-12,1.771399553e-12,2.904141653e-12,4.290814198e-12,2.220395985e-12
0.5703125,1.513884757e-12,1.185292287e-12,2.467775666e-12,5.101155e-13,1.884091654e-12,1.253461108e-12,2.764193673e-12,1.329697894e-12,1.51188396e-12,2.66358529e-12,1.360270555e-12,2.347107801e-12,5.434015482e-12,3.235797183e-12,5.120454573e-12,2.394208988e-12,2.883662893e-12,5.700423964e-13,7.20791739e-13,1.504485345e-12,6.562925427e-13,1.898106599e-12,1.887513196e-12,2.047199835e-12,2.17551389e-12,3.070484665e-12,3.289084529e-12,4.349908248e-12,1.76694158e-12,2.923838265e-12,4.25958403e-12,2.222775587e-12
0.578125,1.539023315e-12,1.180978835e-12,2.472760016e-12,5.07625814e-13,1.863111116e-12,1.253126172e-12,2.759884976e-12,1.343630257e-12,1.515903825e-12,2.661643715e-12,1.369591361e-12,2.349920605e-12,5.431966122e-12,3.239331254e-12,5.123499681e-12,2.394607521e-12,2.886522703e-12,5.716578991e-13,7.290157934e-13,1.500894135e-12,6.651809321e-13,1.912548379e-12,1.903421362e-12,2.053987588e-12,2.184113786e-12,3.050245361e-12,3.275505275e-12,4.366277357e-12,1.762090896e-12,2.942831879e-12,4.226991583e-12,2.223902131e-12
0.5859375,1.564967274e-12,1.176839628e-12,2.477575713e-12,5.055611175e-13,1.841246672e-12,1.252644259e-12,2.754629183e-12,1.356678108e-12,1.518410212e-12,2.659238606e-12,1.378088937e-12,2.351884729e-12,5.427792988e-12,3.24178781e-12,5.124406139e-12,2.393962426e-12,2.888162959e-12,5.732838714e-13,7.371274142e-13,1.496207314e-12,6.737362981e-13,1.925764527e-12,1.91858718e-12,2.058793325e-12,2.191543077e-12,3.028911296e-12,3.260813063e-12,4.380874892e-12,1.756758322e-12,2.961143875e-12,4.193167434e-12,2.223433332e-12
0.59375,1.591122533e-12,1.172642416e-12,2.482090693e-12,5.036452539e-13,1.818691809e-12,1.252239697e-12,2.749090039e-12,1.369046116e-12,1.519932794e-12,2.656076586e-12,1.386053705e-12,2.352854591e-12,5.421375677e-12,3.242713632e-12,5.122603396e-12,2.392047026e-12,2.887983325e-12,5.748313074e-13,7.450202614e-13,1.490867476e-12,6.818087837e-13,1.937870272e-12,1.932655427e-12,2.061600649e-12,2.198104985e-12,3.006240422e-12,3.244798353e-12,4.394196455e-12,1.750799409e-12,2.978676831e-12,4.15792329e-12,2.221681216e-12
0.6015625,1.617249879e-12,1.168480842e-12,2.486402071e-12,5.01842281e-13,1.795522822e-12,1.251964534e-12,2.743346398e-12,1.380876378e-12,1.520840453e-12,2.652780474e-12,1.393614364e-12,2.353040747e-12,5.41264227e-12,3.242227824e-12,5.118055161e-12,2.388901141e-12,2.886326553e-12,5.764049485e-13,7.52550807e-13,1.484998113e-12,6.893349493e-13,1.948783579e-12,1.945445175e-12,2.063055705e-12,2.203996172e-12,2.982312336e-12,3.227608981e-12,4.406000892e-12,1.744453063e-12,2.995288462e-12,4.121339337e-12,2.219176489e-12
0.609375,1.643938389e-12,1.164417599e-12,2.491092777e-12,5.002352763e-13,1.771318972e-12,1.251984235e-12,2.736624505e-12,1.39217272e-12,1.520922018e-12,2.649929307e-12,1.400674692e-12,2.352597023e-12,5.401324713e-12,3.24076568e-12,5.11138236e-12,2.384742901e-12,2.883640561e-12,5.780944048e-13,7.599818035e-13,1.477703436e-12,6.966208686e-13,1.958761013e-12,1.957618365e-12,2.063605666e-12,2.209253553e-12,2.957581803e-12,3.209787209e-12,4.416368544e-12,1.737971574e-12,3.011111483e-12,4.083647928e-12,2.215695402e-12
0.6171875,1.671347183e-12,1.160279405e-12,2.496129877e-12,4.987591245e-13,1.74591433e-12,1.252191424e-12,2.729750993e-12,1.402904318e-12,1.52003345e-12,2.647128289e-12,1.407147258e-12,2.351306779e-12,5.387310013e-12,3.237943294e-12,5.102271416e-12,2.379503388e-12,2.879528238e-12,5.798622952e-13,7.675860456e-13,1.469015351e-12,7.039818048e-13,1.968190535e-12,1.969411864e-12,2.062999993e-12,2.213766973e-12,2.932070473e-12,3.191575647e-12,4.425453495e-12,1.731144399e-12,3.026232427e-12,4.044851938e-12,2.210843627e-12
0.625,1.698746947e-12,1.155866698e-12,2.500699555e-12,4.974522032e-13,1.72003135e-12,1.252184697e-12,2.722787737e-12,1.41289512e-12,1.518338012e-12,2.643554395e-12,1.413075739e-12,2.348798683e-12,5.37050275e-12,3.233240479e-12,5.090191692e-12,2.373234808e-12,2.874278633e-12,5.81714302e-13,7.750757516e-13,1.460171647e-12,7.110429306e-13,1.976903091e-12,1.979980319e-12,2.060870165e-12,2.217245679e-12,2.905600195e-12,3.172609281e-12,4.432996301e-12,1.723847225e-12,3.040338194e-12,4.005177358e-12,2.205072798e-12
0.6328125,1.725878175e-12,1.151155273e-12,2.504986966e-12,4.964584908e-13,1.694247612e-12,1.252155977e-12,2.714469594e-12,1.422071019e-12,1.515847358e-12,2.639246265e-12,1.418451272e-12,2.344980647e-12,5.350803025e-12,3.227106215e-12,5.075617696e-12,2.366164924e-12,2.868161677e-12,5.836334361e-13,7.821119971e-13,1.451517519e-12,7.171604258e-13,1.984594139e-12,1.989077884e-12,2.057418795e-12,2.219718256e-12,2.878824781e-12,3.152846935e-12,4.439147759e-12,1.716331481e-12,3.053142942e-12,3.965169005e-12,2.198838387e-12
0.640625,1.753358241e-12,1.146574822e-12,2.509976302e-12,4.957280571e-13,1.668125313e-12,1.252475066e-12,2.705584653e-12,1.430711816e-12,1.512343273e-12,2.63494179e-12,1.423029783e-12,2.340236555e-12,5.329267372e-12,3.22026704e-12,5.059603354e-12,2.358516019e-12,2.860568454e-12,5.854908215e-13,7.887652759e-13,1.442324721e-12,7.225540848e-13,1.991281651e-12,1.99745788e-12,2.05294682e-12,2.221674709e-12,2.852325654e-12,3.132954689e-12,4.444319963e-12,1.708783279e-12,3.064795452e-12,3.924862522e-12,2.191769691e-12
0.6484375,1.781562632e-12,1.142664998e-12,2.515637208e-12,4.952169025e-13,1.64133679e-12,1.252853891e-12,2.696951891e-12,1.438830822e-12,1.507681059e-12,2.630471313e-12,1.42668788e-12,2.334856143e-12,5.306992351e-12,3.212862582e-12,5.042650798e-12,2.350386741e-12,2.851626418e-12,5.872692017e-13,7.950918789e-13,1.432310449e-12,7.278322561e-13,1.996873535e-12,2.005141359e-12,2.04723264e-12,2.223014665e-12,2.825561817e-12,3.113070073e-12,4.4479191e-12,1.701196473e-12,3.075709926e-12,3.883971715e-12,2.183625711e-12
0.65625,1.810379827e-12,1.139271794e-12,2.521453921e-12,4.950592727e-13,1.614329387e-12,1.253074294e-12,2.687750446e-12,1.4458887e-12,1.501874334e-12,2.625398381e-12,1.429621124e-12,2.328832075e-12,5.283224589e-12,3.205053048e-12,5.02424594e-12,2.341527132e-12,2.841900819e-12,5.892134114e-13,8.009221866e-13,1.421629357e-12,7.326720782e-13,2.001053388e-12,2.011362084e-12,2.039857633e-12,2.223146624e-12,2.798182702e-12,3.092726621e-12,4.44929791e-12,1.693632057e-12,3.086394163e-12,3.842890222e-12,2.174636968e-12
0.6640625,1.839631461e-12,1.135915988e-12,2.527293297e-12,4.952021641e-13,1.58723829e-12,1.253251024e-12,2.677717793e-12,1.451684868e-12,1.495099512e-12,2.62034383e-12,1.431935112e-12,2.322436543e-12,5.257427316e-12,3.197458018e-12,5.004615368e-12,2.332072488e-12,2.83159826e-12,5.915748734e-13,8.061437928e-13,1.410145917e-12,7.365186851e-13,2.003667638e-12,2.016007019e-12,2.031168845e-12,2.222405862e-12,2.770579334e-12,3.072075429e-12,4.449257074e-12,1.686312553e-12,3.097204399e-12,3.802232556e-12,2.164646365e-12
0.671875,1.869024997e-12,1.132759988e-12,2.532733891e-12,4.954660548e-13,1.559793819e-12,1.253177312e-12,2.666456605e-12,1.456580342e-12,1.487558398e-12,2.615279956e-12,1.433610022e-12,2.315774974e-12,5.23028124e-12,3.190011856e-12,4.984817365e-12,2.322545415e-12,2.821062859e-12,5.942155493e-13,8.108683652e-13,1.398028722e-12,7.398454749e-13,2.004840245e-12,2.019470281e-12,2.021839043e-12,2.221230274e-12,2.742690348e-12,3.051334806e-12,4.448309181e-12,1.679305168e-12,3.107846881e-12,3.76189267e-12,2.153403059e-12
0.6796875,1.898520907e-12,1.130173251e-12,2.537565755e-12,4.959709716e-13,1.532133865e-12,1.2527845e-12,2.654043434e-12,1.460685949e-12,1.479194766e-12,2.60921498e-12,1.434722937e-12,2.308300941e-12,5.201287058e-12,3.181626225e-12,4.963765105e-12,2.312426253e-12,2.809742007e-12,5.967680411e-13,8.15307282e-13,1.385806912e-12,7.431466641e-13,2.004807315e-12,2.021775634e-12,2.011297746e-12,2.218938253e-12,2.714219217e-12,3.030154239e-12,4.445626033e-12,1.672325933e-12,3.117647654e-12,3.72144895e-12,2.14119341e-12
0.6875,1.928439121e-12,1.127845684e-12,2.542443686e-12,4.968839244e-13,1.504373974e-12,1.252483687e-12,2.642118963e-12,1.463908517e-12,1.469932572e-12,2.602606883e-12,1.435240669e-12,2.29996639e-12,5.169796456e-12,3.17201909e-12,4.939749371e-12,2.300960421e-12,2.796535395e-12,5.992121834e-13,8.194720093e-13,1.373014835e-12,7.458882953e-13,2.003701438e-12,2.022863864e-12,1.998841143e-12,2.215454824e-12,2.685381094e-12,3.008704315e-12,4.44134867e-12,1.665247564e-12,3.126474583e-12,3.680741623e-12,2.128219648e-12
0.6953125,1.958481933e-12,1.125373931e-12,2.547679857e-12,4.981302418e-13,1.476461336e-12,1.252381765e-12,2.630542189e-12,1.466490057e-12,1.460025126e-12,2.596497742e-12,1.4350906e-12,2.291264829e-12,5.136936499e-12,3.161908765e-12,4.913797848e-12,2.288683358e-12,2.781987115e-12,6.018046455e-13,8.232069786e-13,1.358984071e-12,7.476909991e-13,2.001526835e-12,2.022950551e-12,1.985425633e-12,2.211818717e-12,2.656489529e-12,2.987542235e-12,4.43664719e-12,1.658380524e-12,3.134622375e-12,3.64005754e-12,2.11443375e-12
0.703125,1.987923398e-12,1.123034862e-12,2.552875955e-12,4.996825799e-13,1.448827195e-12,1.25221512e-12,2.618157283e-12,1.468607943e-12,1.44962554e-12,2.590219464e-12,1.434421552e-12,2.28176114e-12,5.103064214e-12,3.151021632e-12,4.887051047e-12,2.276196914e-12,2.767298271e-12,6.046087402e-13,8.265088449e-13,1.344733102e-12,7.490631252e-13,1.99823628e-12,2.022024372e-12,1.971849534e-12,2.208035457e-12,2.627828019e-12,2.966606171e-12,4.43126397e-12,1.651930029e-12,3.142056956e-12,3.600147606e-12,2.100077319e-12
0.7109375,2.016820726e-12,1.121138007e-12,2.5578791e-12,5.015303343e-13,1.421653551e-12,1.251896747e-12,2.60554224e-12,1.469912287e-12,1.438445789e-12,2.582748481e-12,1.433209429e-12,2.270772234e-12,5.067100105e-12,3.138716683e-12,4.859186712e-12,2.263538e-12,2.752564698e-12,6.075138644e-13,8.293800231e-13,1.330938951e-12,7.501886324e-13,1.993644422e-12,2.019673118e-12,1.957416281e-12,2.203280898e-12,2.599449701e-12,2.945677327e-12,4.42402065e-12,1.645705418e-12,3.148452663e-12,3.561131225e-12,2.085215848e-12
0.71875,2.045451899e-12,1.119479985e-12,2.562770336e-12,5.034768479e-13,1.394253176e-12,1.251487064e-12,2.592396543e-12,1.470014581e-12,1.426235487e-12,2.574459904e-12,1.431048385e-12,2.258740555e-12,5.029256073e-12,3.12568734e-12,4.830593278e-12,2.250851358e-12,2.737242215e-12,6.103006991e-13,8.316421197e-13,1.316070479e-12,7.505465433e-13,1.98761144e-12,2.015808989e-12,1.941644143e-12,2.197506875e-12,2.570813378e-12,2.92460672e-12,4.414653105e-12,1.639410215e-12,3.153412877e-12,3.522008905e-12,2.069393528e-12
0.7265625,2.073471623e-12,1.117912255e-12,2.567552051e-12,5.054583132e-13,1.366420125e-12,1.251071316e-12,2.578389531e-12,1.469071806e-12,1.413133282e-12,2.566235783e-12,1.42774209e-12,2.246067934e-12,4.990402792e-12,3.112290268e-12,4.801014797e-12,2.237659718e-12,2.720584162e-12,6.126902228e-13,8.332315628e-13,1.299582635e-12,7.500448682e-13,1.980344375e-12,2.010878472e-12,1.924444236e-12,2.190860584e-12,2.541793473e-12,2.903088852e-12,4.403510398e-12,1.632934243e-12,3.156760218e-12,3.482533111e-12,2.052546701e-12
0.734375,2.100829772e-12,1.116576862e-12,2.572230674e-12,5.076367398e-13,1.338914905e-12,1.250722947e-12,2.56515805e-12,1.467485397e-12,1.399482603e-12,2.55799085e-12,1.423645256e-12,2.232328138e-12,4.950146459e-12,3.097560906e-12,4.769073052e-12,2.223269545e-12,2.702464072e-12,6.148089089e-13,8.342151304e-13,1.283238714e-12,7.490104344e-13,1.972050041e-12,2.004959244e-12,1.905460986e-12,2.183225501e-12,2.513048078e-12,2.881246597e-12,4.390717358e-12,1.626495772e-12,3.159226525e-12,3.443802581e-12,2.035310347e-12
0.7421875,2.128086569e-12,1.115596222e-12,2.576737525e-12,5.100978173e-13,1.312097596e-12,1.250434858e-12,2.552250942e-12,1.465289019e-12,1.385608454e-12,2.548868817e-12,1.419260345e-12,2.217636362e-12,4.907952512e-12,3.081510947e-12,4.735367752e-12,2.208275979e-12,2.683858507e-12,6.171732137e-13,8.345996228e-13,1.267625658e-12,7.472539049e-13,1.962643248e-12,1.997569384e-12,1.885377494e-12,2.17495994e-12,2.484753715e-12,2.859609887e-12,4.376231949e-12,1.620502932e-12,3.161825384e-12,3.40631529e-12,2.018055327e-12
0.75,2.155503477e-12,1.115047627e-12,2.58120243e-12,5.129040952e-13,1.285596905e-12,1.250227594e-12,2.537806307e-12,1.462338078e-12,1.37161673e-12,2.538960403e-12,1.414698538e-12,2.202741619e-12,4.864112775e-12,3.065280722e-12,4.701320196e-12,2.193462873e-12,2.665257003e-12,6.200044061e-13,8.345814878e-13,1.251547231e-12,7.446473739e-13,1.952120253e-12,1.988729245e-12,1.865479868e-12,2.166494789e-12,2.456669567e-12,2.838583993e-12,4.360511726e-12,1.61522404e-12,3.164435955e-12,3.369691074e-12,2.000330349e-12
0.7578125,2.183023552e-12,1.114844214e-12,2.585930474e-12,5.161449237e-13,1.259236384e-12,1.25005532e-12,2.522459926e-12,1.458706271e-12,1.357355971e-12,2.529192715e-12,1.409729706e-12,2.1876588e-12,4.819030033e-12,3.049057565e-12,4.666648445e-12,2.178582743e-12,2.646140672e-12,6.231115405e-13,8.345508654e-13,1.234631468e-12,7.417595925e-13,1.940680484e-12,1.97899419e-12,1.845274324e-12,2.157426204e-12,2.42875363e-12,2.818183607e-12,4.344239124e-12,1.610522914e-12,3.166499635e-12,3.333858923e-12,1.981480293e-12
0.765625,2.210591768e-12,1.114750972e-12,2.590510443e-12,5.197467174e-13,1.233235096e-12,1.249673047e-12,2.506891328e-12,1.454338424e-12,1.342755673e-12,2.519326989e-12,1.404399346e-12,2.171911799e-12,4.772745081e-12,3.032452362e-12,4.630925374e-12,2.163311899e-12,2.626191122e-12,6.262984476e-13,8.345555409e-13,1.217498328e-12,7.385965217e-13,1.928513978e-12,1.968271858e-12,1.823381998e-12,2.147095008e-12,2.400627957e-12,2.797619598e-12,4.326893653e-12,1.60591735e-12,3.168265487e-12,3.298776507e-12,1.961621491e-12
0.7734375,2.237977363e-12,1.114957018e-12,2.594254167e-12,5.236346628e-13,1.20776665e-12,1.249011605e-12,2.491081687e-12,1.449025292e-12,1.327985144e-12,2.508677369e-12,1.399043841e-12,2.155574359e-12,4.725191858e-12,3.015652423e-12,4.594433368e-12,2.147767877e-12,2.605719289e-12,6.294968758e-13,8.342128584e-13,1.200536603e-12,7.343663947e-13,1.915818646e-12,1.956091128e-12,1.800077144e-12,2.135821144e-12,2.372248992e-12,2.776459562e-12,4.307736975e-12,1.601295783e-12,3.169974954e-12,3.26429307e-12,1.941625305e-12
0.78125,2.264995354e-12,1.115939066e-12,2.597772488e-12,5.279007368e-13,1.182841072e-12,1.248328159e-12,2.475695218e-12,1.442986924e-12,1.313102867e-12,2.497797776e-12,1.393561062e-12,2.138976941e-12,4.677046942e-12,2.998940845e-12,4.557777658e-12,2.1323746e-12,2.585573143e-12,6.327003688e-13,8.332719341e-13,1.183675449e-12,7.293501244e-13,1.902631292e-12,1.942956635e-12,1.776508583e-12,2.124528039e-12,2.344692426e-12,2.755963602e-12,4.287608352e-12,1.597167803e-12,3.1711634e-12,3.230758821e-12,1.921965325e-12
0.7890625,2.291589831e-12,1.117584051e-12,2.602107673e-12,5.325256001e-13,1.158467018e-12,1.247594167e-12,2.459967286e-12,1.436458441e-12,1.297921385e-12,2.487051022e-12,1.387481025e-12,2.122134036e-12,4.629362992e-12,2.982321185e-12,4.521782791e-12,2.117581237e-12,2.566257863e-12,6.359192665e-13,8.318581662e-13,1.166576216e-12,7.245600137e-13,1.888570749e-12,1.929710727e-12,1.75288792e-12,2.113198534e-12,2.318383719e-12,2.736892866e-12,4.266847499e-12,1.593666876e-12,3.171433217e-12,3.198448733e-12,1.902177228e-12
0.796875,2.317446715e-12,1.119340332e-12,2.606431647e-12,5.37305895e-13,1.134691295e-12,1.246226063e-12,2.443073129e-12,1.42892066e-12,1.28237161e-12,2.475694728e-12,1.380736328e-12,2.104898835e-12,4.581545205e-12,2.965478005e-12,4.48576389e-12,2.103049229e-12,2.546978307e-12,6.392231633e-13,8.300329174e-13,1.149082738e-12,7.193899374e-13,1.873208507e-12,1.915828989e-12,1.728754363e-12,2.101124522e-12,2.292380469e-12,2.718134257e-12,4.244467444e-12,1.590429527e-12,3.170837776e-12,3.16714375e-12,1.881693239e-12
0.8046875,2.342352127e-12,1.121173662e-12,2.609149902e-12,5.422000866e-13,1.11148186e-12,1.243973187e-12,2.426066641e-12,1.419899673e-12,1.26659723e-12,2.463470074e-12,1.373597199e-12,2.087167677e-12,4.532092724e-12,2.947919315e-12,4.44817338e-12,2.088190837e-12,2.526916285e-12,6.427086254e-13,8.276087792e-13,1.131285811e-12,7.125588638e-13,1.85657307e-12,1.900230905e-12,1.70336184e-12,2.088347772e-12,2.266366509e-12,2.699292272e-12,4.221147918e-12,1.587573118e-12,3.169574497e-12,3.136863352e-12,1.860541743e-12
0.8125,2.366647877e-12,1.12363254e-12,2.610837572e-12,5.473999918e-13,1.088730285e-12,1.241516163e-12,2.408970629e-12,1.41001253e-12,1.250679194e-12,2.450984497e-12,1.366139514e-12,2.069008299e-12,4.481506222e-12,2.929786211e-12,4.409661258e-12,2.073201914e-12,2.506346991e-12,6.462715777e-13,8.246120432e-13,1.113339269e-12,7.047280416e-13,1.838961991e-12,1.883208335e-12,1.676243851e-12,2.075311315e-12,2.240958158e-12,2.681172916e-12,4.198112093e-12,1.585343286e-12,3.167830574e-12,3.107806373e-12,1.839032429e-12
0.8203125,2.390649557e-12,1.126995509e-12,2.613056734e-12,5.529738214e-13,1.066376416e-12,1.239382007e-12,2.391306435e-12,1.400097199e-12,1.234589073e-12,2.438573107e-12,1.358275593e-12,2.050613046e-12,4.431065935e-12,2.911590199e-12,4.371506779e-12,2.058219623e-12,2.485759287e-12,6.497988374e-13,8.212987014e-13,1.095762309e-12,6.972341215e-13,1.820452393e-12,1.86564254e-12,1.648476985e-12,2.06197189e-12,2.216214492e-12,2.663724832e-12,4.173833988e-12,1.583500261e-12,3.165794365e-12,3.079870207e-12,1.8172573e-12
0.828125,2.414251452e-12,1.130950928e-12,2.615343792e-12,5.587856056e-13,1.044470743e-12,1.237153445e-12,2.373794508e-12,1.389858788e-12,1.218205961e-12,2.425888245e-12,1.349932663e-12,2.03192862e-12,4.380347499e-12,2.893411321e-12,4.333483487e-12,2.043225079e-12,2.465572967e-12,6.535739756e-13,8.176644699e-13,1.078720893e-12,6.896604992e-13,1.800926099e-12,1.847384348e-12,1.620989578e-12,2.04813976e-12,2.191816236e-12,2.646528562e-12,4.146618194e-12,1.582022301e-12,3.163611708e-12,3.0530347e-12,1.795109856e-12
0.8359375,2.437321776e-12,1.135378074e-12,2.616599438e-12,5.648863683e-13,1.0231923e-12,1.234506432e-12,2.356158628e-12,1.378506685e-12,1.201352241e-12,2.412562088e-12,1.341073916e-12,2.012794018e-12,4.329275035e-12,2.87560948e-12,4.296094902e-12,2.028975172e-12,2.44613727e-12,6.577791756e-13,8.135963812e-13,1.061355276e-12,6.811601898e-13,1.780486098e-12,1.828063056e-12,1.592457797e-12,2.033716411e-12,2.16784894e-12,2.629723434e-12,4.117523602e-12,1.58115231e-12,3.161074163e-12,3.02745361e-12,1.772616784e-12
0.84375,2.459853455e-12,1.140626329e-12,2.617419044e-12,5.715104531e-13,1.002694965e-12,1.231649529e-12,2.338145441e-12,1.36616887e-12,1.184184952e-12,2.398815117e-12,1.331794172e-12,1.993330205e-12,4.279037692e-12,2.858578288e-12,4.260088673e-12,2.015624093e-12,2.427042586e-12,6.619692107e-13,8.091880587e-13,1.043536319e-12,6.722374047e-13,1.759450643e-12,1.807970317e-12,1.562431701e-12,2.018743667e-12,2.144446147e-12,2.613348881e-12,4.088090589e-12,1.58073562e-12,3.157774595e-12,3.003071674e-12,1.750050648e-12
0.8515625,2.481774742e-12,1.146509148e-12,2.618361406e-12,5.785947362e-13,9.828803408e-13,1.228489713e-12,2.320566844e-12,1.353423649e-12,1.167157663e-12,2.384817488e-12,1.322253344e-12,1.973578258e-12,4.229018638e-12,2.841428141e-12,4.223980936e-12,2.002061981e-12,2.407707482e-12,6.658326691e-13,8.044478316e-13,1.026304975e-12,6.63376756e-13,1.737904769e-12,1.787177038e-12,1.532994471e-12,2.003555966e-12,2.121634157e-12,2.597505285e-12,4.058523975e-12,1.580584385e-12,3.153834347e-12,2.979795554e-12,1.727643614e-12
0.859375,2.502895952e-12,1.152297561e-12,2.618697393e-12,5.858777131e-13,9.635601521e-13,1.224758571e-12,2.302403992e-12,1.340172866e-12,1.150338339e-12,2.370205476e-12,1.312476433e-12,1.953363992e-12,4.177614715e-12,2.82344981e-12,4.186816221e-12,1.988305344e-12,2.38841901e-12,6.697599505e-13,7.992719427e-13,1.009539456e-12,6.540319468e-13,1.715624927e-12,1.765410109e-12,1.504423757e-12,1.988290322e-12,2.099502817e-12,2.582437909e-12,4.028549585e-12,1.580853301e-12,3.149464828e-12,2.957637244e-12,1.70521733e-12
0.8671875,2.522951849e-12,1.1580421e-12,2.618060111e-12,5.932939632e-13,9.447135799e-13,1.220440411e-12,2.282591289e-12,1.326187942e-12,1.133499055e-12,2.354927459e-12,1.302412073e-12,1.93282879e-12,4.125625062e-12,2.805385848e-12,4.149950705e-12,1.975339493e-12,2.369628595e-12,6.740145338e-13,7.937360302e-13,9.923852602e-13,6.440481324e-13,1.692444973e-12,1.742812472e-12,1.474908596e-12,1.972816163e-12,2.077891498e-12,2.568028232e-12,3.997925309e-12,1.581720362e-12,3.144362139e-12,2.93648682e-12,1.682295102e-12
0.875,2.541722563e-12,1.164340562e-12,2.616669964e-12,6.007590772e-13,9.263623566e-13,1.215471951e-12,2.262960895e-12,1.311758109e-12,1.116755549e-12,2.339415738e-12,1.292078045e-12,1.912273175e-12,4.074225294e-12,2.787272466e-12,4.113456703e-12,1.962562321e-12,2.35096822e-12,6.782151396e-13,7.878491716e-13,9.75408642e-13,6.339258964e-13,1.668421179e-12,1.719542068e-12,1.444753559e-12,1.95722973e-12,2.056606892e-12,2.554405279e-12,3.966560592e-12,1.583270896e-12,3.138813195e-12,2.916348925e-12,1.658808482e-12
0.8828125,2.559187821e-12,1.171128177e-12,2.614513225e-12,6.081151295e-13,9.084888286e-13,1.210002618e-12,2.244699783e-12,1.297045963e-12,1.10031692e-12,2.323961844e-12,1.281569204e-12,1.891668e-12,4.022571435e-12,2.768194739e-12,4.076054685e-12,1.949131147e-12,2.3319934e-12,6.821285349e-13,7.81462551e-13,9.59111677e-13,6.234736723e-13,1.643743947e-12,1.695431232e-12,1.41516763e-12,1.941532991e-12,2.035973001e-12,2.541866322e-12,3.934650779e-12,1.585412123e-12,3.133631883e-12,2.897638933e-12,1.63525912e-12
0.890625,2.575626673e-12,1.178119471e-12,2.611863706e-12,6.155467396e-13,8.911524179e-13,1.204496284e-12,2.226363661e-12,1.281912827e-12,1.084084697e-12,2.308494523e-12,1.271030323e-12,1.87081971e-12,3.970374857e-12,2.748555955e-12,4.038557632e-12,1.936154495e-12,2.313343027e-12,6.861601623e-13,7.748006109e-13,9.425513129e-13,6.123919667e-13,1.618698445e-12,1.670740811e-12,1.385711356e-12,1.925586518e-12,2.016234158e-12,2.529900768e-12,3.902372213e-12,1.587839212e-12,3.128417868e-12,2.880620846e-12,1.611848414e-12
0.8984375,2.591505513e-12,1.185530667e-12,2.609027331e-12,6.233682399e-13,8.74459086e-13,1.198902887e-12,2.206829341e-12,1.266389806e-12,1.06804369e-12,2.292434913e-12,1.260573904e-12,1.849686935e-12,3.918743578e-12,2.729369542e-12,4.00241768e-12,1.924530945e-12,2.295853348e-12,6.906475783e-13,7.683399878e-13,9.255474042e-13,6.014392872e-13,1.59356903e-12,1.646087348e-12,1.356274615e-12,1.909697426e-12,1.997191838e-12,2.518261865e-12,3.869675632e-12,1.590489964e-12,3.122524543e-12,2.86502097e-12,1.588350981e-12
0.90625,2.606962297e-12,1.193627326e-12,2.605537586e-12,6.315156425e-13,8.585066774e-13,1.192764931e-12,2.186524125e-12,1.250408818e-12,1.052400958e-12,2.275521431e-12,1.250241002e-12,1.828604971e-12,3.868020631e-12,2.710855659e-12,3.967326987e-12,1.91344408e-12,2.279105122e-12,6.953254993e-13,7.61999857e-13,9.091162735e-13,5.909179993e-13,1.568421894e-12,1.6214284e-12,1.327366344e-12,1.894104404e-12,1.979110807e-12,2.507855601e-12,3.836403775e-12,1.593749776e-12,3.116841034e-12,2.850827625e-12,1.564979422e-12
0.9140625,2.621665792e-12,1.202504443e-12,2.601060086e-12,6.3976824e-13,8.433260927e-13,1.186039708e-12,2.166132452e-12,1.233627871e-12,1.037098223e-12,2.258519334e-12,1.240065935e-12,1.808051901e-12,3.818051174e-12,2.693360377e-12,3.933180139e-12,1.902419945e-12,2.262380068e-12,6.997970246e-13,7.552815433e-13,8.931972668e-13,5.797110199e-13,1.543103402e-12,1.596200243e-12,1.298365299e-12,1.878392412e-12,1.962493447e-12,2.498947313e-12,3.802448925e-12,1.59796957e-12,3.11196711e-12,2.838563468e-12,1.542045865e-12
0.921875,2.635479943e-12,1.212071344e-12,2.596060374e-12,6.481272349e-13,8.287687344e-13,1.178976661e-12,2.145755719e-12,1.216086078e-12,1.021824087e-12,2.241682632e-12,1.22998248e-12,1.787820827e-12,3.768858053e-12,2.676929992e-12,3.90035171e-12,1.891785341e-12,2.245775411e-12,7.040433601e-13,7.481452965e-13,8.770436804e-13,5.674352065e-13,1.517475376e-12,1.570330305e-12,1.268716157e-12,1.862238299e-12,1.946921131e-12,2.490639299e-12,3.767787655e-12,1.602980453e-12,3.106837529e-12,2.828079004e-12,1.519144109e-12
0.9296875,2.6484088e-12,1.221798904e-12,2.590854481e-12,6.566705334e-13,8.146838357e-13,1.171677623e-12,2.125387808e-12,1.198356323e-12,1.006605073e-12,2.224423041e-12,1.219777197e-12,1.767228824e-12,3.7198425e-12,2.660323053e-12,3.867719739e-12,1.881338843e-12,2.229415621e-12,7.082843787e-13,7.409256792e-13,8.609527861e-13,5.551210824e-13,1.49147886e-12,1.544185038e-12,1.238920566e-12,1.845823424e-12,1.9317295e-12,2.482690351e-12,3.732502456e-12,1.608262233e-12,3.100730243e-12,2.818400971e-12,1.495921248e-12
0.9375,2.6599043e-12,1.231379777e-12,2.585186249e-12,6.652903832e-13,8.011129821e-13,1.164045676e-12,2.105303598e-12,1.180785386e-12,9.917867609e-13,2.207005851e-12,1.209394897e-12,1.746206226e-12,3.670554184e-12,2.642726845e-12,3.834359518e-12,1.870884536e-12,2.213312937e-12,7.1260049e-13,7.336646753e-13,8.453421837e-13,5.431215743e-13,1.465095995e-12,1.51780059e-12,1.209341617e-12,1.829309797e-12,1.917029894e-12,2.475526948e-12,3.696910649e-12,1.613596709e-12,3.094048257e-12,2.809284698e-12,1.472679483e-12
0.9453125,2.669604276e-12,1.241332745e-12,2.578885743e-12,6.7377834e-13,7.880768169e-13,1.155967153e-12,2.085416032e-12,1.163129174e-12,9.774284655e-13,2.189786811e-12,1.199045374e-12,1.725123187e-12,3.621415197e-12,2.624768571e-12,3.801178429e-12,1.86076537e-12,2.197693975e-12,7.16844526e-13,7.262234647e-13,8.298428163e-13,5.308872075e-13,1.438425627e-12,1.490966724e-12,1.179950877e-12,1.812673508e-12,1.90305645e-12,2.469039883e-12,3.661254679e-12,1.619209996e-12,3.08704076e-12,2.801401048e-12,1.449597972e-12
0.953125,2.67811996e-12,1.252052465e-12,2.572094363e-12,6.821370312e-13,7.755201749e-13,1.147505506e-12,2.065499245e-12,1.145098242e-12,9.633564835e-13,2.172096281e-12,1.18885176e-12,1.704067682e-12,3.572558983e-12,2.606941433e-12,3.768545854e-12,1.85090161e-12,2.18228163e-12,7.209295331e-13,7.186291506e-13,8.143799344e-13,5.183524563e-13,1.411565366e-12,1.463686742e-12,1.150629428e-12,1.795875656e-12,1.88976761e-12,2.46306315e-12,3.625221833e-12,1.625247314e-12,3.079655074e-12,2.794944834e-12,1.42660239e-12
0.9609375,2.68573894e-12,1.263156674e-12,2.564748969e-12,6.90534322e-13,7.635113791e-13,1.138648212e-12,2.045730057e-12,1.126750016e-12,9.49575749e-13,2.153776194e-12,1.178635044e-12,1.682988406e-12,3.523768508e-12,2.588886683e-12,3.735620958e-12,1.840858071e-12,2.166611453e-12,7.249177891e-13,7.109231497e-13,7.993177482e-13,5.057099849e-13,1.384436883e-12,1.436049546e-12,1.121310175e-12,1.778840685e-12,1.877162621e-12,2.45768196e-12,3.588366745e-12,1.631537449e-12,3.07180641e-12,2.789439214e-12,1.403760272e-12
0.96875,2.691725405e-12,1.274270284e-12,2.555482749e-12,6.990025131e-13,7.521441857e-13,1.128794509e-12,2.025044383e-12,1.107938293e-12,9.358742873e-13,2.135184989e-12,1.168038722e-12,1.661590043e-12,3.475189774e-12,2.570211635e-12,3.702432458e-12,1.830739003e-12,2.150983856e-12,7.287349204e-13,7.03091718e-13,7.846864195e-13,4.930510251e-13,1.357006832e-12,1.407888419e-12,1.093273648e-12,1.761256051e-12,1.864401399e-12,2.451551704e-12,3.550917957e-12,1.637122093e-12,3.063174865e-12,2.784086305e-12,1.380823153e-12
0.9765625,2.695995411e-12,1.285618359e-12,2.545388036e-12,7.073749777e-13,7.413583741e-13,1.118610412e-12,2.004333182e-12,1.088932478e-12,9.22506118e-13,2.116485941e-12,1.15726264e-12,1.640296307e-12,3.42725136e-12,2.551162089e-12,3.669852635e-12,1.820912523e-12,2.136054638e-12,7.324185729e-13,6.951165952e-13,7.702228035e-13,4.801070024e-13,1.329525095e-12,1.379821623e-12,1.066528396e-12,1.744079585e-12,1.852819477e-12,2.446690141e-12,3.513636485e-12,1.64329041e-12,3.054471855e-12,2.779927147e-12,1.358015382e-12
0.984375,2.699560712e-12,1.297285884e-12,2.535422804e-12,7.156698794e-13,7.310477827e-13,1.108208356e-12,1.98462361e-12,1.069581208e-12,9.094267939e-13,2.097096061e-12,1.146641517e-12,1.619035165e-12,3.379710393e-12,2.532090023e-12,3.637824938e-12,1.811430869e-12,2.121618951e-12,7.361427983e-13,6.87294627e-13,7.562347141e-13,4.671784458e-13,1.302393702e-12,1.352048926e-12,1.039353653e-12,1.726764382e-12,1.842448492e-12,2.44259144e-12,3.475879765e-12,1.649841722e-12,3.046039168e-12,2.776920722e-12,1.335699592e-12
0.9921875,2.70268907e-12,1.309291837e-12,2.525852018e-12,7.239872369e-13,7.210368271e-13,1.097605915e-12,1.965510341e-12,1.050074225e-12,8.967969218e-13,2.077453434e-12,1.13648983e-12,1.597900521e-12,3.33258912e-12,2.513012626e-12,3.605971726e-12,1.802142338e-12,2.107355409e-12,7.398964397e-13,6.798529474e-13,7.423766241e-13,4.542968e-13,1.27573102e-12,1.324450509e-12,1.011127765e-12,1.70913367e-12,1.832823124e-12,2.438798362e-12,3.437201981e-12,1.656512391e-12,3.037660007e-12,2.774795158e-12,1.313907991e-12
1,2.705135788e-12,1.321505e-12,2.516556266e-12,7.322490784e-13,7.111856104e-13,1.087068703e-12,1.947140122e-12,1.030874892e-12,8.84727187e-13,2.058081889e-12,1.126588412e-12,1.576859142e-12,3.285546026e-12,2.493440363e-12,3.573856349e-12,1.792712069e-12,2.092927115e-12,7.433044243e-13,6.727058407e-13,7.285773668e-13,4.417243225e-13,1.249296539e-12,1.296892707e-12,9.836147991e-13,1.69160528e-12,1.823243282e-12,2.43505206e-12,3.398253785e-12,1.663018395e-12,3.028846459e-12,2.773065202e-12,1.292092906e-12
1.0078125,2.706821494e-12,1.333875011e-12,2.507292591e-12,7.403413598e-13,7.016434248e-13,1.076633517e-12,1.929531033e-12,1.012002959e-12,8.730915144e-13,2.038665298e-12,1.116576939e-12,1.55572677e-12,3.238300334e-12,2.473336492e-12,3.541411218e-12,1.783000751e-12,2.078508997e-12,7.463232914e-13,6.655221173e-13,7.155135127e-13,4.294991721e-13,1.222862899e-12,1.26956648e-12,9.569586981e-13,1.674401556e-12,1.813826864e-12,2.431546435e-12,3.359642872e-12,1.669424471e-12,3.019431807e-12,2.771450984e-12,1.27024296e-12
1.015625,2.707587462e-12,1.346337198e-12,2.498036007e-12,7.483989478e-13,6.92633362e-13,1.066124249e-12,1.911878277e-12,9.931165024e-13,8.617830916e-13,2.019077949e-12,1.106504027e-12,1.534586165e-12,3.191877444e-12,2.453138187e-12,3.50906415e-12,1.773167297e-12,2.064477262e-12,7.491544642e-13,6.583316059e-13,7.031814109e-13,4.174360727e-13,1.196688291e-12,1.242876356e-12,9.295489568e-13,1.657336446e-12,1.805173018e-12,2.42846962e-12,3.321045296e-12,1.676006822e-12,3.009404974e-12,2.770122752e-12,1.24905508e-12
1.0234375,2.707222284e-12,1.358567963e-12,2.489127456e-12,7.566079228e-13,6.841243403e-13,1.055594161e-12,1.895368519e-12,9.741212854e-13,8.507604188e-13,1.999747867e-12,1.096458784e-12,1.513547835e-12,3.146895861e-12,2.432848162e-12,3.476862167e-12,1.763415107e-12,2.050545416e-12,7.517447639e-13,6.513375262e-13,6.910443774e-13,4.054836911e-13,1.1710408e-12,1.216762156e-12,9.01868966e-13,1.639976913e-12,1.797374487e-12,2.425485505e-12,3.281585897e-12,1.682474517e-12,2.998829894e-12,2.769355434e-12,1.228785604e-12
1.03125,2.705663509e-12,1.370440146e-12,2.480432513e-12,7.647502712e-13,6.760259233e-13,1.044899451e-12,1.880882065e-12,9.54936438e-13,8.398540454e-13,1.980172679e-12,1.086290885e-12,1.492221634e-12,3.101846941e-12,2.41214216e-12,3.444608347e-12,1.753974017e-12,2.036596587e-12,7.540624146e-13,6.443420702e-13,6.790051463e-13,3.934475775e-13,1.145585323e-12,1.190583206e-12,8.752998211e-13,1.622130634e-12,1.790184301e-12,2.422396945e-12,3.241034154e-12,1.688184204e-12,2.987812602e-12,2.769200954e-12,1.208970528e-12
1.0390625,2.703070931e-12,1.382086811e-12,2.471654008e-12,7.725660843e-13,6.683459484e-13,1.034052065e-12,1.866362668e-12,9.355844856e-13,8.290061478e-13,1.959954389e-12,1.075957048e-12,1.470584761e-12,3.05632391e-12,2.391225377e-12,3.412851414e-12,1.745086425e-12,2.023183052e-12,7.563184473e-13,6.372440649e-13,6.671981306e-13,3.814785853e-13,1.120063956e-12,1.164396392e-12,8.499333474e-13,1.604703914e-12,1.783648059e-12,2.419757788e-12,3.200509233e-12,1.693437341e-12,2.976367507e-12,2.769546705e-12,1.189234429e-12
1.046875,2.699636873e-12,1.393709951e-12,2.462859718e-12,7.802887772e-13,6.609962574e-13,1.023345249e-12,1.851185749e-12,9.164073137e-13,8.183692059e-13,1.939962291e-12,1.065630604e-12,1.449365143e-12,3.012312374e-12,2.370484503e-12,3.382263289e-12,1.736896777e-12,2.010531383e-12,7.587028079e-13,6.30284638e-13,6.557855396e-13,3.700462222e-13,1.09477953e-12,1.138965626e-12,8.256301635e-13,1.588406498e-12,1.777971795e-12,2.418054908e-12,3.160704714e-12,1.6992063e-12,2.964659558e-12,2.770302714e-12,1.169686241e-12
1.0546875,2.695257052e-12,1.405698246e-12,2.453867011e-12,7.879992508e-13,6.538297178e-13,1.012324969e-12,1.836392887e-12,8.972370918e-13,8.07812165e-13,1.919877268e-12,1.055433964e-12,1.428543416e-12,2.969942018e-12,2.349630993e-12,3.35266085e-12,1.729267924e-12,1.99852812e-12,7.611315833e-13,6.23495609e-13,6.448394494e-13,3.587986827e-13,1.069929318e-12,1.114176589e-12,8.014169522e-13,1.572005655e-12,1.772979739e-12,2.416691757e-12,3.120433885e-12,1.705283615e-12,2.952988076e-12,2.771490817e-12,1.150520744e-12
1.0625,2.689917912e-12,1.417831189e-12,2.444623525e-12,7.953761626e-13,6.468757372e-13,1.000536025e-12,1.821448614e-12,8.776477619e-13,7.970770466e-13,1.898739603e-12,1.045265807e-12,1.407552661e-12,2.92773559e-12,2.328435217e-12,3.323420622e-12,1.721626433e-12,1.987038489e-12,7.633003173e-13,6.168348188e-13,6.343257716e-13,3.472779852e-13,1.045392403e-12,1.089485447e-12,7.760023354e-13,1.554525234e-12,1.768369468e-12,2.414979916e-12,3.078896771e-12,1.710790108e-12,2.941399234e-12,2.773183382e-12,1.131636124e-12
1.0703125,2.68379548e-12,1.429346487e-12,2.435309511e-12,8.02522059e-13,6.402537257e-13,9.88414984e-13,1.807038867e-12,8.581133403e-13,7.864618818e-13,1.877841948e-12,1.034933634e-12,1.386827873e-12,2.886381168e-12,2.307319545e-12,3.293949772e-12,1.71346321e-12,1.975533314e-12,7.650775653e-13,6.103484412e-13,6.244522689e-13,3.35948299e-13,1.02102573e-12,1.065166635e-12,7.508762439e-13,1.537072102e-12,1.764339708e-12,2.413707912e-12,3.03724279e-12,1.716084308e-12,2.929569828e-12,2.775327076e-12,1.112851227e-12
1.078125,2.676683672e-12,1.440600471e-12,2.425736487e-12,8.095779064e-13,6.339326661e-13,9.761634542e-13,1.794696255e-12,8.391800519e-13,7.764122846e-13,1.858027492e-12,1.024461812e-12,1.366655377e-12,2.846305589e-12,2.286181335e-12,3.264048751e-12,1.704983759e-12,1.963823988e-12,7.665441345e-13,6.038179643e-13,6.151955731e-13,3.250974637e-13,9.966646512e-13,1.041438958e-12,7.28247459e-13,1.520296288e-12,1.761046646e-12,2.4137243e-12,2.996436989e-12,1.721586306e-12,2.916957559e-12,2.77765592e-12,1.094241736e-12
1.0859375,2.668552733e-12,1.45232138e-12,2.416432475e-12,8.160612577e-13,6.277766563e-13,9.637615467e-13,1.782260881e-12,8.20486073e-13,7.668195066e-13,1.837479101e-12,1.014070308e-12,1.34605882e-12,2.805548625e-12,2.264333936e-12,3.234341556e-12,1.696812005e-12,1.952727267e-12,7.677697307e-13,5.97200236e-13,6.059858392e-13,3.145333024e-13,9.723916916e-13,1.017990325e-12,7.071095848e-13,1.503432417e-12,1.757941618e-12,2.414038279e-12,2.956105065e-12,1.726455501e-12,2.90342426e-12,2.779872499e-12,1.076019412e-12
1.09375,2.659719909e-12,1.463905601e-12,2.408272807e-12,8.218565979e-13,6.217700272e-13,9.515757541e-13,1.767471198e-12,8.017267678e-13,7.574148363e-13,1.815292222e-12,1.003823256e-12,1.324529318e-12,2.763489039e-12,2.241708519e-12,3.205102827e-12,1.689149552e-12,1.942639547e-12,7.690236184e-13,5.909790116e-13,5.967935028e-13,3.043775366e-13,9.486351318e-13,9.948869349e-13,6.854784069e-13,1.486353937e-12,1.754647209e-12,2.41356578e-12,2.915787983e-12,1.730385495e-12,2.88934904e-12,2.781842368e-12,1.058351818e-12
1.1015625,2.649581453e-12,1.474615166e-12,2.400480892e-12,8.274476305e-13,6.160345896e-13,9.396075251e-13,1.75231713e-12,7.83158705e-13,7.48203862e-13,1.792571612e-12,9.935764694e-13,1.30259001e-12,2.721338621e-12,2.218340368e-12,3.175175511e-12,1.681496288e-12,1.932803109e-12,7.704816411e-13,5.852365242e-13,5.883522636e-13,2.945775803e-13,9.254954379e-13,9.724166697e-13,6.635244743e-13,1.469425069e-12,1.751665012e-12,2.412706685e-12,2.875420197e-12,1.733986804e-12,2.874461089e-12,2.7835756e-12,1.041317294e-12
1.109375,2.637310057e-12,1.484429816e-12,2.392088561e-12,8.328212345e-13,6.106041746e-13,9.275801435e-13,1.738978096e-12,7.649227537e-13,7.392615841e-13,1.769881517e-12,9.83210487e-13,1.280445568e-12,2.679312816e-12,2.193832809e-12,3.143831061e-12,1.673369382e-12,1.92279234e-12,7.716745487e-13,5.79395309e-13,5.808856844e-13,2.847134088e-13,9.026149521e-13,9.505416498e-13,6.42379299e-13,1.452481274e-12,1.749502783e-12,2.411918436e-12,2.834994867e-12,1.737182427e-12,2.858102161e-12,2.785170679e-12,1.024776492e-12
1.1171875,2.623510465e-12,1.493349845e-12,2.383694552e-12,8.375994002e-13,6.053247017e-13,9.15351825e-13,1.726989768e-12,7.468479022e-13,7.305638536e-13,1.747028185e-12,9.726711025e-13,1.257999083e-12,2.637340814e-12,2.168339209e-12,3.112056284e-12,1.664957295e-12,1.912908678e-12,7.722719546e-13,5.733217003e-13,5.737997503e-13,2.748629848e-13,8.798522468e-13,9.29206539e-13,6.223512744e-13,1.435482699e-12,1.74793083e-12,2.411144011e-12,2.794490077e-12,1.739651101e-12,2.840757371e-12,2.786620096e-12,1.008559773e-12
1.125,2.60929715e-12,1.501877909e-12,2.375946653e-12,8.417461651e-13,6.000758579e-13,9.026572412e-13,1.71529886e-12,7.28768873e-13,7.219875054e-13,1.724021312e-12,9.619414961e-13,1.235554151e-12,2.596085464e-12,2.142599609e-12,3.080691813e-12,1.656567173e-12,1.90301864e-12,7.726459477e-13,5.674891837e-13,5.667778797e-13,2.654474616e-13,8.573774095e-13,9.084131843e-13,6.029028333e-13,1.418631331e-12,1.746465392e-12,2.410483436e-12,2.753853604e-12,1.74160694e-12,2.823236676e-12,2.787691086e-12,9.927478943e-13
1.1328125,2.59518459e-12,1.510834453e-12,2.368752036e-12,8.455274359e-13,5.949568248e-13,8.896706887e-13,1.703347683e-12,7.107727022e-13,7.135507174e-13,1.7011197e-12,9.512227032e-13,1.21365417e-12,2.556001922e-12,2.117302245e-12,3.049728897e-12,1.648130228e-12,1.892765933e-12,7.729922763e-13,5.620275956e-13,5.602086532e-13,2.564547017e-13,8.352889673e-13,8.880486454e-13,5.836784045e-13,1.402075292e-12,1.745049596e-12,2.410067734e-12,2.713300694e-12,1.743307291e-12,2.80574781e-12,2.78848647e-12,9.773278634e-13
1.140625,2.581283845e-12,1.520025609e-12,2.361834693e-12,8.492632039e-13,5.900760025e-13,8.769071733e-13,1.691117253e-12,6.930565068e-13,7.055470622e-13,1.678540268e-12,9.408919913e-13,1.192590191e-12,2.516993212e-12,2.092936011e-12,3.019401728e-12,1.639563503e-12,1.88234315e-12,7.731298008e-13,5.567034053e-13,5.540978069e-13,2.475250208e-13,8.136128453e-13,8.680309876e-13,5.650290827e-13,1.385908868e-12,1.743923194e-12,2.410040103e-12,2.673225407e-12,1.74495472e-12,2.788926218e-12,2.789605484e-12,9.620711525e-13
1.1484375,2.566970025e-12,1.528783573e-12,2.354985248e-12,8.528250064e-13,5.853311945e-13,8.64231137e-13,1.678757033e-12,6.755848033e-13,6.980328777e-13,1.655836116e-12,9.310302727e-13,1.172014501e-12,2.478256598e-12,2.069184881e-12,2.989670385e-12,1.630777956e-12,1.872056507e-12,7.73070549e-13,5.515453515e-13,5.478682778e-13,2.385269184e-13,7.924367009e-13,8.483656827e-13,5.471450701e-13,1.369639099e-12,1.743054624e-12,2.410267598e-12,2.633414783e-12,1.746398679e-12,2.772909795e-12,2.79105286e-12,9.471255444e-13
1.15625,2.551378306e-12,1.537126698e-12,2.34873816e-12,8.554028414e-13,5.804943511e-13,8.515112157e-13,1.665706878e-12,6.583659381e-13,6.907655127e-13,1.632262943e-12,9.213164977e-13,1.151284529e-12,2.439121171e-12,2.045135594e-12,2.959848612e-12,1.621637265e-12,1.861970134e-12,7.728069904e-13,5.466564849e-13,5.418014723e-13,2.29629469e-13,7.719215641e-13,8.291640443e-13,5.29460585e-13,1.352700693e-12,1.741797631e-12,2.40949018e-12,2.593309023e-12,1.746573154e-12,2.755977766e-12,2.791342404e-12,9.330658717e-13
1.1640625,2.534589534e-12,1.545399182e-12,2.342712175e-12,8.574515163e-13,5.757454433e-13,8.384066421e-13,1.652437502e-12,6.413939645e-13,6.838317606e-13,1.608154512e-12,9.118328728e-13,1.130483429e-12,2.400386259e-12,2.020596546e-12,2.92983705e-12,1.612723736e-12,1.852695106e-12,7.727385904e-13,5.422554647e-13,5.371648911e-13,2.212459742e-13,7.52244913e-13,8.104012798e-13,5.121493355e-13,1.335647705e-12,1.740821965e-12,2.408540239e-12,2.552990267e-12,1.746455326e-12,2.737756421e-12,2.791059284e-12,9.198508796e-13
1.171875,2.517237559e-12,1.553107943e-12,2.336997891e-12,8.595516918e-13,5.711883618e-13,8.25232638e-13,1.641227568e-12,6.247917766e-13,6.772672421e-13,1.584506279e-12,9.024729095e-13,1.109760163e-12,2.362358362e-12,1.995495143e-12,2.899159778e-12,1.603625454e-12,1.843484634e-12,7.724384943e-13,5.381652738e-13,5.331435092e-13,2.131865321e-13,7.332313837e-13,7.921974996e-13,4.956328208e-13,1.31870724e-12,1.740225456e-12,2.407468299e-12,2.512977703e-12,1.745831933e-12,2.719174759e-12,2.79043415e-12,9.072220069e-13
1.1796875,2.499751492e-12,1.559697202e-12,2.332511205e-12,8.614981955e-13,5.667812781e-13,8.125003069e-13,1.632207501e-12,6.085836938e-13,6.706766036e-13,1.56165933e-12,8.930585422e-13,1.089010139e-12,2.324350066e-12,1.969733589e-12,2.867615766e-12,1.593830954e-12,1.833699669e-12,7.715988362e-13,5.344112328e-13,5.289231261e-13,2.055374451e-13,7.146392227e-13,7.747550447e-13,4.799009303e-13,1.301542188e-12,1.739839461e-12,2.405889393e-12,2.473253951e-12,1.743920215e-12,2.700625992e-12,2.789504212e-12,8.949820928e-13
1.1875,2.481546748e-12,1.565371597e-12,2.329072799e-12,8.629430017e-13,5.624873551e-13,8.000464252e-13,1.623450456e-12,5.927921258e-13,6.639584629e-13,1.539255549e-12,8.835497134e-13,1.068316049e-12,2.286927763e-12,1.943619335e-12,2.836002549e-12,1.58370448e-12,1.823715024e-12,7.703594428e-13,5.309037998e-13,5.247344985e-13,1.983934409e-13,6.964739332e-13,7.582481696e-13,4.647411432e-13,1.284568184e-12,1.739685251e-12,2.404006837e-12,2.433621936e-12,1.741133153e-12,2.681477873e-12,2.78814372e-12,8.831886546e-13
1.1953125,2.462149849e-12,1.570657829e-12,2.325473891e-12,8.639246445e-13,5.582613317e-13,7.871946896e-13,1.615492211e-12,5.772726992e-13,6.572072167e-13,1.516825986e-12,8.739104662e-13,1.047751346e-12,2.250560284e-12,1.917177331e-12,2.804431436e-12,1.57347877e-12,1.813654504e-12,7.68974848e-13,5.274715254e-13,5.207350729e-13,1.914803383e-13,6.788226818e-13,7.425366984e-13,4.498263903e-13,1.267882459e-12,1.739943121e-12,2.40210438e-12,2.394067151e-12,1.73826387e-12,2.661371419e-12,2.786276897e-12,8.720272662e-13
1.203125,2.441923522e-12,1.575255188e-12,2.321911045e-12,8.643496215e-13,5.539736432e-13,7.741800039e-13,1.608940789e-12,5.617453147e-13,6.501979951e-13,1.493748379e-12,8.639829436e-13,1.027084818e-12,2.213584404e-12,1.88979839e-12,2.772033964e-12,1.562943298e-12,1.803595998e-12,7.673661262e-13,5.240277633e-13,5.169634266e-13,1.845463529e-13,6.615349552e-13,7.272650393e-13,4.346961133e-13,1.250650873e-12,1.740373665e-12,2.399477662e-12,2.354690602e-12,1.734524173e-12,2.640352519e-12,2.783573734e-12,8.613861624e-13
1.2109375,2.421103957e-12,1.578477173e-12,2.319030836e-12,8.640958966e-13,5.49633314e-13,7.616980558e-13,1.601326504e-12,5.462038637e-13,6.430138705e-13,1.469727021e-12,8.538566589e-13,1.006419269e-12,2.175603861e-12,1.861674271e-12,2.739177932e-12,1.552504999e-12,1.794248597e-12,7.654847344e-13,5.205662544e-13,5.136880135e-13,1.777991256e-13,6.444416103e-13,7.124280408e-13,4.197760836e-13,1.233268195e-12,1.740475488e-12,2.395802739e-12,2.315801931e-12,1.72911502e-12,2.618705802e-12,2.779535726e-12,8.509388658e-13
1.21875,2.399655469e-12,1.580480999e-12,2.316679496e-12,8.632939071e-13,5.453895856e-13,7.497011105e-13,1.59220519e-12,5.309594527e-13,6.360136164e-13,1.445341694e-12,8.437582398e-13,9.861083316e-13,2.138391002e-12,1.833641027e-12,2.706598851e-12,1.542322947e-12,1.785499342e-12,7.635385545e-13,5.172198008e-13,5.109687463e-13,1.715486407e-13,6.276567257e-13,6.983539956e-13,4.061295208e-13,1.216800582e-12,1.740211945e-12,2.39177696e-12,2.277446909e-12,1.722623916e-12,2.596659131e-12,2.774093205e-12,8.407888993e-13
1.2265625,2.377760423e-12,1.581742003e-12,2.314923095e-12,8.620592758e-13,5.411754618e-13,7.378010691e-13,1.584129695e-12,5.161574708e-13,6.29062068e-13,1.420976525e-12,8.336129798e-13,9.65975962e-13,2.101788696e-12,1.805636633e-12,2.673698075e-12,1.531609136e-12,1.776443963e-12,7.614529354e-13,5.140935448e-13,5.085318153e-13,1.656664983e-13,6.113375089e-13,6.850075993e-13,3.935440895e-13,1.200782004e-12,1.739877746e-12,2.387681764e-12,2.239226651e-12,1.715491333e-12,2.573986287e-12,2.767551816e-12,8.312214564e-13
1.234375,2.355475802e-12,1.582308319e-12,2.313583726e-12,8.603983683e-13,5.367661385e-13,7.258815032e-13,1.577097833e-12,5.017183462e-13,6.220568773e-13,1.396259694e-12,8.234099531e-13,9.457152255e-13,2.064564575e-12,1.777241724e-12,2.64027335e-12,1.520261364e-12,1.766988279e-12,7.590272946e-13,5.111887695e-13,5.061074893e-13,1.60003196e-13,5.954898053e-13,6.721723117e-13,3.812088276e-13,1.18468437e-12,1.739334255e-12,2.383110687e-12,2.201266461e-12,1.707420584e-12,2.550643553e-12,2.759840579e-12,8.220332275e-13
1.2421875,2.33277111e-12,1.581994607e-12,2.312307381e-12,8.581190758e-13,5.321269171e-13,7.140935315e-13,1.570050509e-12,4.877476745e-13,6.153226561e-13,1.371216893e-12,8.133961226e-13,9.254688687e-13,2.02739859e-12,1.748475602e-12,2.606668641e-12,1.508704207e-12,1.757177003e-12,7.563745125e-13,5.085059957e-13,5.038414102e-13,1.547649281e-13,5.8010047e-13,6.60077612e-13,3.694889453e-13,1.169037943e-12,1.738213989e-12,2.377608529e-12,2.164106476e-12,1.698196588e-12,2.526828947e-12,2.750484216e-12,8.129885452e-13
1.25,2.309598928e-12,1.580463663e-12,2.311563065e-12,8.550191151e-13,5.273506102e-13,7.025243185e-13,1.563732661e-12,4.743086033e-13,6.088315863e-13,1.346120909e-12,8.034780007e-13,9.053228759e-13,1.990610591e-12,1.719118023e-12,2.572147316e-12,1.496483292e-12,1.746804641e-12,7.534768041e-13,5.058629207e-13,5.020466547e-13,1.498397088e-13,5.651418646e-13,6.488613554e-13,3.584070728e-13,1.153633793e-12,1.736604806e-12,2.370910467e-12,2.127542078e-12,1.687766277e-12,2.502247065e-12,2.739390386e-12,8.043262939e-13
1.2578125,2.285720629e-12,1.577913297e-12,2.311434491e-12,8.514854603e-13,5.22488785e-13,6.909899632e-13,1.557402636e-12,4.611031114e-13,6.022358175e-13,1.320783444e-12,7.933594831e-13,8.851776966e-13,1.953476552e-12,1.689031322e-12,2.536696636e-12,1.483564275e-12,1.736762629e-12,7.503122517e-13,5.031241721e-13,5.004009537e-13,1.449094053e-13,5.505777618e-13,6.382173963e-13,3.471316987e-13,1.137690448e-12,1.734674567e-12,2.363082126e-12,2.090991255e-12,1.676152754e-12,2.476959558e-12,2.726920642e-12,7.96249705e-13
1.265625,2.261532455e-12,1.575218772e-12,2.311618375e-12,8.478900779e-13,5.175719371e-13,6.795137894e-13,1.549759033e-12,4.480809112e-13,5.955716838e-13,1.295456679e-12,7.832210746e-13,8.65298452e-13,1.916747864e-12,1.65891172e-12,2.501920254e-12,1.470942838e-12,1.728078336e-12,7.474086871e-13,5.005848012e-13,4.985206753e-13,1.401969376e-13,5.364248846e-13,6.280717769e-13,3.360554797e-13,1.121474249e-12,1.732325558e-12,2.354323005e-12,2.054495457e-12,1.663610071e-12,2.451933994e-12,2.713366136e-12,7.885910049e-13
1.2734375,2.23756585e-12,1.572318588e-12,2.312176738e-12,8.437127597e-13,5.125487544e-13,6.680875958e-13,1.541928686e-12,4.355315856e-13,5.890873211e-13,1.270434674e-12,7.733566475e-13,8.459789358e-13,1.88101575e-12,1.629181575e-12,2.467910908e-12,1.458686675e-12,1.720101541e-12,7.450294082e-13,4.984063485e-13,4.970953143e-13,1.358424138e-13,5.22641723e-13,6.184946654e-13,3.257546646e-13,1.105646242e-12,1.729707968e-12,2.344964212e-12,2.018508107e-12,1.65041684e-12,2.42730303e-12,2.698863497e-12,7.811270595e-13
1.28125,2.212991168e-12,1.568384015e-12,2.31237956e-12,8.385899493e-13,5.073665144e-13,6.562789651e-13,1.534618465e-12,4.233203624e-13,5.827318014e-13,1.245062441e-12,7.635452766e-13,8.268970554e-13,1.845058872e-12,1.599136172e-12,2.432943625e-12,1.446024196e-12,1.711669706e-12,7.42587921e-13,4.96335529e-13,4.96910188e-13,1.315960914e-13,5.091854246e-13,6.093417358e-13,3.156574462e-13,1.090198241e-12,1.727076897e-12,2.335368981e-12,1.983324509e-12,1.636414974e-12,2.401868898e-12,2.683359021e-12,7.73912045e-13
1.2890625,2.187362284e-12,1.563643499e-12,2.312344915e-12,8.330986944e-13,5.021862992e-13,6.444529703e-13,1.527666095e-12,4.112236898e-13,5.762741044e-13,1.219394377e-12,7.535272223e-13,8.077010777e-13,1.808593161e-12,1.568328298e-12,2.396679183e-12,1.432960837e-12,1.702577599e-12,7.396405891e-13,4.942773702e-13,4.973852386e-13,1.275905283e-13,4.961990033e-13,6.007458037e-13,3.060736657e-13,1.074917877e-12,1.72449949e-12,2.325490777e-12,1.949022739e-12,1.621364792e-12,2.375069545e-12,2.666856486e-12,7.673281572e-13
1.296875,2.161953441e-12,1.558661777e-12,2.313977694e-12,8.275919638e-13,4.971635465e-13,6.334434624e-13,1.521639884e-12,3.995656002e-13,5.698755747e-13,1.194511501e-12,7.43682525e-13,7.887185727e-13,1.772688281e-12,1.537608954e-12,2.360424765e-12,1.419857754e-12,1.693161075e-12,7.364747985e-13,4.92388441e-13,4.974551339e-13,1.239260035e-13,4.838916477e-13,5.929350794e-13,2.976856095e-13,1.060057497e-12,1.722350839e-12,2.315778322e-12,1.915707491e-12,1.606121492e-12,2.347744763e-12,2.650061726e-12,7.616025235e-13
1.3046875,2.137236204e-12,1.553044378e-12,2.316833703e-12,8.218050358e-13,4.921650172e-13,6.227058423e-13,1.515611308e-12,3.88586556e-13,5.640483837e-13,1.170435788e-12,7.345930906e-13,7.704897278e-13,1.737519912e-12,1.50785678e-12,2.324850357e-12,1.406708991e-12,1.683847498e-12,7.335638234e-13,4.909108822e-13,4.97233051e-13,1.203222871e-13,4.723439321e-13,5.856609851e-13,2.896250439e-13,1.046019833e-12,1.720748828e-12,2.307190383e-12,1.883316851e-12,1.591853727e-12,2.320903878e-12,2.633634298e-12,7.563806874e-13
1.3125,2.112418109e-12,1.546377755e-12,2.318954827e-12,8.156657238e-13,4.87010927e-13,6.116521934e-13,1.508670282e-12,3.781194254e-13,5.588053281e-13,1.146603994e-12,7.261402467e-13,7.531535686e-13,1.702731111e-12,1.478763243e-12,2.289491199e-12,1.393382366e-12,1.674827115e-12,7.308624823e-13,4.899381499e-13,4.974871468e-13,1.16933828e-13,4.614142345e-13,5.786890482e-13,2.814052473e-13,1.032331205e-12,1.718684036e-12,2.298812847e-12,1.851111569e-12,1.577825896e-12,2.294800431e-12,2.616917859e-12,7.512724747e-13
1.3203125,2.087485459e-12,1.538817764e-12,2.321369006e-12,8.090946286e-13,4.816747832e-13,6.010338233e-13,1.50242124e-12,3.680300213e-13,5.536662015e-13,1.122984969e-12,7.176737859e-13,7.364261314e-13,1.668261681e-12,1.449642865e-12,2.253936969e-12,1.379646262e-12,1.665774499e-12,7.277250225e-13,4.889516925e-13,4.980114891e-13,1.138964108e-13,4.507822447e-13,5.720496671e-13,2.736516588e-13,1.017934676e-12,1.715373077e-12,2.288561173e-12,1.818531618e-12,1.562443449e-12,2.268984484e-12,2.598865288e-12,7.46434262e-13
1.328125,2.062861057e-12,1.530491106e-12,2.325328639e-12,8.017446923e-13,4.761545598e-13,5.910078372e-13,1.496808111e-12,3.581568874e-13,5.484852943e-13,1.099213339e-12,7.089352586e-13,7.198612275e-13,1.633979439e-12,1.420360103e-12,2.218345469e-12,1.365549922e-12,1.656623275e-12,7.239657551e-13,4.874540526e-13,4.982540331e-13,1.107224629e-13,4.402954402e-13,5.656591495e-13,2.661553058e-13,1.00289713e-12,1.711379619e-12,2.276336263e-12,1.786183035e-12,1.545752677e-12,2.242873673e-12,2.579409037e-12,7.421343758e-13
1.3359375,2.038609266e-12,1.521326823e-12,2.329888475e-12,7.938294192e-13,4.705031526e-13,5.809383831e-13,1.489899833e-12,3.483884395e-13,5.432386042e-13,1.075037583e-12,7.000432095e-13,7.032877576e-13,1.599872098e-12,1.390917309e-12,2.18274353e-12,1.351567386e-12,1.647767655e-12,7.202471347e-13,4.857860869e-13,4.987758952e-13,1.074246572e-13,4.300577862e-13,5.595048446e-13,2.58599761e-13,9.88100545e-13,1.707318793e-12,2.263254037e-12,1.754463316e-12,1.528394552e-12,2.216298352e-12,2.558925051e-12,7.382853143e-13
1.34375,2.014472913e-12,1.511169114e-12,2.334709229e-12,7.860167735e-13,4.648754116e-13,5.70997682e-13,1.482423943e-12,3.389789472e-13,5.376468379e-13,1.050996706e-12,6.908685049e-13,6.868054023e-13,1.565852772e-12,1.361162282e-12,2.146711479e-12,1.337631898e-12,1.63893492e-12,7.166513148e-13,4.842504846e-13,5.000627145e-13,1.045714576e-13,4.200967079e-13,5.537190693e-13,2.515734367e-13,9.735117012e-13,1.702971506e-12,2.249626942e-12,1.722838181e-12,1.509999508e-12,2.18923808e-12,2.537446213e-12,7.347628959e-13
1.3515625,1.989676471e-12,1.50010546e-12,2.339738987e-12,7.782943464e-13,4.593076458e-13,5.61551695e-13,1.475626863e-12,3.301146407e-13,5.3180367e-13,1.027260452e-12,6.813407736e-13,6.703541672e-13,1.531625238e-12,1.331107668e-12,2.110098828e-12,1.323264842e-12,1.629464344e-12,7.125596626e-13,4.825656014e-13,5.013634765e-13,1.020417797e-13,4.103997657e-13,5.483269026e-13,2.453153416e-13,9.588253056e-13,1.697988893e-12,2.235432288e-12,1.691505388e-12,1.490358689e-12,2.161408952e-12,2.514766934e-12,7.317052165e-13
1.359375,1.964111163e-12,1.488687143e-12,2.344603179e-12,7.702063e-13,4.536197998e-13,5.525708334e-13,1.468947971e-12,3.216864332e-13,5.26143165e-13,1.003658009e-12,6.718928669e-13,6.539574294e-13,1.497411769e-12,1.300833922e-12,2.073160572e-12,1.308621183e-12,1.619687863e-12,7.081842915e-13,4.807029639e-13,5.022543408e-13,9.941301804e-14,4.010324292e-13,5.434381524e-13,2.394722232e-13,9.445787757e-13,1.692440118e-12,2.220756627e-12,1.661180439e-12,1.470136773e-12,2.132870824e-12,2.490839398e-12,7.290902181e-13
1.3671875,1.93879337e-12,1.477126278e-12,2.350360383e-12,7.617788016e-13,4.476524509e-13,5.441270549e-13,1.462524215e-12,3.137132381e-13,5.207030864e-13,9.804185781e-13,6.628861599e-13,6.379544748e-13,1.463440076e-12,1.270385131e-12,2.036092073e-12,1.29404038e-12,1.610368195e-12,7.041863774e-13,4.789947043e-13,5.03318829e-13,9.686791101e-14,3.919472208e-13,5.391740934e-13,2.336920131e-13,9.309666974e-13,1.686701377e-12,2.205901005e-12,1.631468531e-12,1.449769183e-12,2.104400169e-12,2.46607745e-12,7.264816289e-13
1.375,1.913943318e-12,1.464877935e-12,2.357523283e-12,7.531621398e-13,4.415033854e-13,5.360951577e-13,1.45641558e-12,3.062254163e-13,5.153311492e-13,9.574978017e-13,6.542332674e-13,6.224241341e-13,1.429482994e-12,1.240066606e-12,1.999204963e-12,1.279492778e-12,1.601428534e-12,7.004322834e-13,4.775606195e-13,5.047831608e-13,9.470051758e-14,3.831658029e-13,5.353837319e-13,2.278264095e-13,9.173286008e-13,1.68089063e-12,2.191046255e-12,1.601785034e-12,1.428947954e-12,2.076345222e-12,2.440826348e-12,7.238248638e-13
1.3828125,1.888964657e-12,1.451753159e-12,2.364774755e-12,7.442256805e-13,4.354036597e-13,5.282202207e-13,1.449560922e-12,2.99036233e-13,5.101100868e-13,9.345472919e-13,6.458400786e-13,6.072134123e-13,1.395906517e-12,1.210205312e-12,1.962744065e-12,1.264965121e-12,1.592412163e-12,6.965419903e-13,4.762312302e-13,5.062658853e-13,9.282726114e-14,3.748937196e-13,5.319895342e-13,2.222844588e-13,9.034982407e-13,1.674565082e-12,2.175267067e-12,1.572436974e-12,1.407269976e-12,2.048031423e-12,2.414746314e-12,7.217739867e-13
1.390625,1.86394496e-12,1.438287393e-12,2.371859484e-12,7.350347519e-13,4.293742489e-13,5.205130125e-13,1.442320929e-12,2.920973994e-13,5.051189849e-13,9.116085862e-13,6.376933763e-13,5.924285289e-13,1.363107224e-12,1.180655222e-12,1.926266223e-12,1.25028386e-12,1.5833599e-12,6.925165603e-13,4.747584657e-13,5.076750179e-13,9.107973345e-14,3.670615149e-13,5.290497545e-13,2.174697092e-13,8.898908219e-13,1.667399063e-12,2.157907739e-12,1.543710215e-12,1.384762885e-12,2.019050944e-12,2.387545318e-12,7.205078922e-13
1.3984375,1.839248285e-12,1.424520312e-12,2.379514017e-12,7.256892193e-13,4.232295421e-13,5.129490146e-13,1.43573995e-12,2.855426111e-13,5.003190628e-13,8.888134956e-13,6.296412651e-13,5.780862961e-13,1.330481801e-12,1.151176483e-12,1.889436884e-12,1.235247969e-12,1.574611505e-12,6.883676532e-13,4.731235999e-13,5.094275213e-13,8.932169097e-14,3.594218841e-13,5.263680758e-13,2.129827212e-13,8.764631014e-13,1.65953367e-12,2.139839065e-12,1.515542701e-12,1.361586819e-12,1.989891586e-12,2.359453208e-12,7.194106443e-13
1.40625,1.814884082e-12,1.410001712e-12,2.387508621e-12,7.158919735e-13,4.168869011e-13,5.05565095e-13,1.429253131e-12,2.793157081e-13,4.956938983e-13,8.661572384e-13,6.216230455e-13,5.640530292e-13,1.298018922e-12,1.121983675e-12,1.852890283e-12,1.220240905e-12,1.566108262e-12,6.839355037e-13,4.714482233e-13,5.116910534e-13,8.741786269e-14,3.520544387e-13,5.237760918e-13,2.083167112e-13,8.630023909e-13,1.651111058e-12,2.121368012e-12,1.487899287e-12,1.337786883e-12,1.960875607e-12,2.330549773e-12,7.183071197e-13
1.4140625,1.790651828e-12,1.395053445e-12,2.395426538e-12,7.05687118e-13,4.104515306e-13,4.985465508e-13,1.422496031e-12,2.732366494e-13,4.912521638e-13,8.43938453e-13,6.13794684e-13,5.505556077e-13,1.266791185e-12,1.09344232e-12,1.817101694e-12,1.205506642e-12,1.557267418e-12,6.791275234e-13,4.696487637e-13,5.139035146e-13,8.551274288e-14,3.451153879e-13,5.21452034e-13,2.037062836e-13,8.497984988e-13,1.642449982e-12,2.102167006e-12,1.460712864e-12,1.313716287e-12,1.931950102e-12,2.300988136e-12,7.175624803e-13
1.421875,1.766419454e-12,1.380153189e-12,2.403374478e-12,6.958150372e-13,4.041316305e-13,4.918913865e-13,1.416492844e-12,2.673488948e-13,4.86988106e-13,8.226849023e-13,6.06261509e-13,5.37834925e-13,1.236996902e-12,1.065674639e-12,1.781684443e-12,1.190763334e-12,1.547900094e-12,6.742974751e-13,4.677228689e-13,5.158388009e-13,8.392363206e-14,3.385523027e-13,5.19564839e-13,1.996857972e-13,8.371429821e-13,1.63420002e-12,2.083136446e-12,1.434099676e-12,1.289901557e-12,1.903375852e-12,2.27152189e-12,7.172597863e-13
1.4296875,1.742436327e-12,1.364773992e-12,2.41162491e-12,6.865040518e-13,3.980524477e-13,4.855490375e-13,1.411246064e-12,2.618865425e-13,4.828987156e-13,8.022977896e-13,5.989989448e-13,5.257585818e-13,1.208024239e-12,1.038678792e-12,1.746587783e-12,1.176190415e-12,1.538681782e-12,6.699133042e-13,4.657418281e-13,5.179530255e-13,8.254568277e-14,3.323272342e-13,5.181200657e-13,1.961719047e-13,8.24914605e-13,1.626419345e-12,2.064750458e-12,1.408286539e-12,1.266385335e-12,1.875208765e-12,2.24250094e-12,7.173983372e-13
1.4375,1.718555305e-12,1.348736989e-12,2.420066752e-12,6.77054912e-13,3.919889024e-13,4.793937019e-13,1.405164379e-12,2.569419138e-13,4.790942431e-13,7.819247574e-13,5.919891967e-13,5.142043593e-13,1.179783162e-12,1.012383629e-12,1.712403948e-12,1.162189166e-12,1.530122035e-12,6.65668254e-13,4.63428133e-13,5.198640507e-13,8.102240275e-14,3.264150884e-13,5.171149224e-13,1.926086348e-13,8.130354677e-13,1.61850379e-12,2.046255543e-12,1.383159718e-12,1.243014382e-12,1.84695593e-12,2.213318591e-12,7.180094203e-13
1.4453125,1.694140779e-12,1.33290364e-12,2.427069124e-12,6.670236617e-13,3.855257687e-13,4.733098628e-13,1.397754197e-12,2.524544816e-13,4.758129933e-13,7.613957963e-13,5.853926229e-13,5.031363134e-13,1.152177903e-12,9.866524571e-13,1.679183376e-12,1.148525302e-12,1.521817843e-12,6.610786131e-13,4.607908008e-13,5.209676595e-13,7.949806322e-14,3.207336646e-13,5.162863279e-13,1.889358096e-13,8.01570615e-13,1.610092383e-12,2.027691046e-12,1.358622003e-12,1.219843645e-12,1.818731614e-12,2.183453719e-12,7.185895153e-13
1.453125,1.669829987e-12,1.31714515e-12,2.433433579e-12,6.571960677e-13,3.791826314e-13,4.676859356e-13,1.391214785e-12,2.482956541e-13,4.727436834e-13,7.415232258e-13,5.790977875e-13,4.924796646e-13,1.125115348e-12,9.614607211e-13,1.6465577e-12,1.135449336e-12,1.514149821e-12,6.566411098e-13,4.583905883e-13,5.226498467e-13,7.824379645e-14,3.152481441e-13,5.156308704e-13,1.857871312e-13,7.906459839e-13,1.602176279e-12,2.010291102e-12,1.334853333e-12,1.197132918e-12,1.790695351e-12,2.153890934e-12,7.193650406e-13
1.4609375,1.646442316e-12,1.300576239e-12,2.440228332e-12,6.479707684e-13,3.73423217e-13,4.62687505e-13,1.385720436e-12,2.444801835e-13,4.697515213e-13,7.22488993e-13,5.730560749e-13,4.824151178e-13,1.098716853e-12,9.369148665e-13,1.614141757e-12,1.122457052e-12,1.506480025e-12,6.524618432e-13,4.562819794e-13,5.255262767e-13,7.728288193e-14,3.100090149e-13,5.150584469e-13,1.830368382e-13,7.798710145e-13,1.594330682e-12,1.992932419e-12,1.311962468e-12,1.174607782e-12,1.762638966e-12,2.124920867e-12,7.205372917e-13
1.46875,1.623180952e-12,1.283656157e-12,2.447094158e-12,6.390800311e-13,3.679877438e-13,4.578437879e-13,1.379105092e-12,2.409545694e-13,4.668369713e-13,7.037408232e-13,5.670136574e-13,4.728840611e-13,1.073100418e-12,9.128496018e-13,1.582026099e-12,1.10908146e-12,1.498444813e-12,6.480478044e-13,4.539459365e-13,5.284747109e-13,7.632172116e-14,3.049587424e-13,5.145185646e-13,1.803465846e-13,7.68900927e-13,1.585696557e-12,1.974775833e-12,1.289808796e-12,1.151884244e-12,1.734240093e-12,2.096001988e-12,7.220158657e-13
1.4765625,1.599757267e-12,1.267152645e-12,2.453405901e-12,6.30440231e-13,3.624088919e-13,4.531451627e-13,1.371756625e-12,2.37673004e-13,4.639322081e-13,6.85282938e-13,5.610673466e-13,4.635661762e-13,1.047985566e-12,8.892010157e-13,1.550457859e-12,1.095689188e-12,1.490436361e-12,6.433933279e-13,4.51304889e-13,5.30443322e-13,7.523475829e-14,3.001668201e-13,5.138985513e-13,1.779161623e-13,7.577702958e-13,1.576184343e-12,1.95623914e-12,1.267946038e-12,1.129013086e-12,1.706002746e-12,2.066763503e-12,7.236432854e-13
1.484375,1.576734136e-12,1.250242735e-12,2.459548307e-12,6.22000368e-13,3.566188523e-13,4.488938571e-13,1.364764553e-12,2.347099104e-13,4.609942788e-13,6.67186173e-13,5.554008175e-13,4.544551615e-13,1.023221988e-12,8.661808422e-13,1.519452198e-12,1.082567526e-12,1.482295794e-12,6.386390108e-13,4.485134558e-13,5.316039983e-13,7.414757572e-14,2.957117076e-13,5.131548611e-13,1.75656665e-13,7.466780792e-13,1.565810643e-12,1.936931122e-12,1.246034396e-12,1.106193928e-12,1.678079049e-12,2.037068644e-12,7.254707875e-13
1.4921875,1.553998787e-12,1.232523041e-12,2.465405323e-12,6.133554389e-13,3.506396535e-13,4.448138634e-13,1.356459776e-12,2.321143379e-13,4.58197948e-13,6.491635953e-13,5.498580466e-13,4.456192889e-13,9.986114226e-13,8.437687234e-13,1.488776835e-12,1.069347826e-12,1.473402605e-12,6.334956378e-13,4.454977199e-13,5.323934941e-13,7.318390111e-14,2.915150594e-13,5.124066167e-13,1.733948701e-13,7.356357363e-13,1.554351911e-12,1.916295345e-12,1.22442628e-12,1.083219758e-12,1.649977495e-12,2.006615862e-12,7.274319614e-13
1.5,1.531258604e-12,1.214995892e-12,2.470544891e-12,6.044262237e-13,3.444835909e-13,4.407027147e-13,1.346607536e-12,2.298289159e-13,4.556585367e-13,6.314646533e-13,5.443751008e-13,4.369668584e-13,9.740029427e-13,8.216437894e-13,1.458084188e-12,1.055915095e-12,1.464033679e-12,6.279911127e-13,4.421570098e-13,5.331398592e-13,7.229886787e-14,2.875533627e-13,5.11918543e-13,1.716138585e-13,7.247522003e-13,1.5423968e-12,1.895348575e-12,1.203555156e-12,1.060109335e-12,1.621661261e-12,1.975601181e-12,7.295078019e-13
1.5078125,1.508416606e-12,1.19759015e-12,2.475305447e-12,5.955402351e-13,3.38259418e-13,4.367686026e-13,1.337140106e-12,2.278772394e-13,4.533212956e-13,6.146345081e-13,5.391042133e-13,4.286753041e-13,9.499037956e-13,7.997521635e-13,1.427130998e-12,1.042405453e-12,1.454871133e-12,6.225655059e-13,4.385325658e-13,5.341195751e-13,7.144964709e-14,2.838331238e-13,5.118969719e-13,1.703869347e-13,7.144478364e-13,1.53068444e-12,1.87522866e-12,1.18340977e-12,1.037506761e-12,1.593294995e-12,1.944628347e-12,7.318628448e-13
1.515625,1.485230888e-12,1.179240046e-12,2.479793768e-12,5.867220733e-13,3.319652535e-13,4.330904244e-13,1.327859452e-12,2.263381152e-13,4.512413847e-13,5.986313092e-13,5.340809907e-13,4.209139473e-13,9.266192756e-13,7.783477282e-13,1.396177127e-12,1.028780742e-12,1.445844277e-12,6.173224659e-13,4.347880356e-13,5.351446459e-13,7.063826398e-14,2.8027384e-13,5.122478769e-13,1.6893918e-13,7.047650143e-13,1.518753223e-12,1.855587059e-12,1.164000878e-12,1.015427345e-12,1.564847214e-12,1.913571829e-12,7.344376533e-13
1.5234375,1.461965547e-12,1.160446702e-12,2.483783378e-12,5.779692674e-13,3.256170809e-13,4.297034596e-13,1.318118752e-12,2.250588678e-13,4.495689432e-13,5.829956839e-13,5.293819708e-13,4.13615491e-13,9.038551355e-13,7.576302477e-13,1.365865323e-12,1.015241548e-12,1.436567356e-12,6.120208265e-13,4.309729352e-13,5.359304801e-13,6.976078626e-14,2.768715422e-13,5.127159458e-13,1.671059341e-13,6.951946586e-13,1.506043144e-12,1.835636361e-12,1.145103774e-12,9.932231956e-13,1.536741432e-12,1.88216476e-12,7.371045011e-13
1.53125,1.439070062e-12,1.142573076e-12,2.487637911e-12,5.695410846e-13,3.194031319e-13,4.265202933e-13,1.308449987e-12,2.237943383e-13,4.483631496e-13,5.673168478e-13,5.251791295e-13,4.06994759e-13,8.818105866e-13,7.376673287e-13,1.336429638e-12,1.001979637e-12,1.427149505e-12,6.065664079e-13,4.269823495e-13,5.366191855e-13,6.881314452e-14,2.737212168e-13,5.132332807e-13,1.655054856e-13,6.855314969e-13,1.492854377e-12,1.81536504e-12,1.126137026e-12,9.711022362e-13,1.509405493e-12,1.850961683e-12,7.400035666e-13
1.5390625,1.416254961e-12,1.125458091e-12,2.491377104e-12,5.613767723e-13,3.133311575e-13,4.232325306e-13,1.298171145e-12,2.22604382e-13,4.475699638e-13,5.516074702e-13,5.21473588e-13,4.011565098e-13,8.606643591e-13,7.183542514e-13,1.307560795e-12,9.887777574e-13,1.417852643e-12,6.012087823e-13,4.229421828e-13,5.372288536e-13,6.794578211e-14,2.708979183e-13,5.138790295e-13,1.643703303e-13,6.759535724e-13,1.479443097e-12,1.795131677e-12,1.107223123e-12,9.49591034e-13,1.482342449e-12,1.82023331e-12,7.432579761e-13
1.546875,1.393291041e-12,1.108040191e-12,2.494250693e-12,5.533322913e-13,3.072823398e-13,4.199405132e-13,1.28697861e-12,2.216990432e-13,4.470413122e-13,5.36336639e-13,5.181900211e-13,3.956475836e-13,8.398772352e-13,6.994981696e-13,1.27916618e-12,9.756905661e-13,1.408634941e-12,5.962298967e-13,4.190749049e-13,5.375696527e-13,6.717091388e-14,2.684239364e-13,5.145493615e-13,1.635798197e-13,6.664996825e-13,1.465892749e-12,1.774974217e-12,1.089078231e-12,9.284314557e-13,1.455055267e-12,1.789640119e-12,7.468226936e-13
1.5546875,1.370833179e-12,1.090239455e-12,2.496547494e-12,5.456483537e-13,3.013550845e-13,4.169704829e-13,1.275994255e-12,2.210594973e-13,4.466934467e-13,5.217138294e-13,5.152749334e-13,3.903544662e-13,8.195360444e-13,6.811549708e-13,1.251525303e-12,9.630650158e-13,1.399477705e-12,5.914975408e-13,4.153158442e-13,5.378100325e-13,6.647494293e-14,2.662564749e-13,5.150289382e-13,1.629597437e-13,6.57245972e-13,1.452394784e-12,1.75474013e-12,1.071891387e-12,9.076199258e-13,1.428139389e-12,1.759477985e-12,7.506285923e-13
1.5625,1.349550588e-12,1.072646775e-12,2.499591527e-12,5.382251408e-13,2.955782592e-13,4.14139519e-13,1.265048934e-12,2.205436497e-13,4.465577002e-13,5.074950707e-13,5.126073423e-13,3.856202297e-13,8.002330763e-13,6.635439934e-13,1.224545083e-12,9.506254505e-13,1.390103381e-12,5.865674038e-13,4.115094093e-13,5.378589516e-13,6.585927665e-14,2.643839523e-13,5.153607628e-13,1.620583468e-13,6.482675821e-13,1.438798135e-12,1.734476097e-12,1.055375596e-12,8.875834331e-13,1.40229857e-12,1.730158708e-12,7.546480455e-13
1.5703125,1.328996446e-12,1.055395967e-12,2.503232933e-12,5.306459141e-13,2.897777053e-13,4.112136306e-13,1.254093455e-12,2.201812166e-13,4.465961272e-13,4.936417346e-13,5.101757265e-13,3.813386083e-13,7.816809026e-13,6.46656691e-13,1.197733182e-12,9.378118287e-13,1.379724931e-12,5.811729353e-13,4.075489416e-13,5.371159728e-13,6.519373705e-14,2.628599e-13,5.157542766e-13,1.609218007e-13,6.393621716e-13,1.424905461e-12,1.714390545e-12,1.03920785e-12,8.679939879e-13,1.377213189e-12,1.701217818e-12,7.589511196e-13
1.578125,1.308259884e-12,1.038560981e-12,2.506112553e-12,5.232293087e-13,2.839923933e-13,4.08463557e-13,1.244223708e-12,2.201565258e-13,4.468496307e-13,4.804150223e-13,5.08184439e-13,3.772082924e-13,7.635712966e-13,6.303592842e-13,1.1712848e-12,9.249602651e-13,1.368706252e-12,5.756058772e-13,4.034739104e-13,5.358740718e-13,6.455906345e-14,2.616748595e-13,5.162595339e-13,1.604024582e-13,6.305950516e-13,1.410883242e-12,1.694691228e-12,1.023221532e-12,8.485473211e-13,1.352392679e-12,1.672455023e-12,7.635006132e-13
1.5859375,1.28763317e-12,1.022626962e-12,2.508302818e-12,5.165700709e-13,2.784347327e-13,4.061217341e-13,1.234469598e-12,2.204891668e-13,4.475412156e-13,4.679031652e-13,5.068456417e-13,3.733172721e-13,7.462649953e-13,6.147245408e-13,1.146156793e-12,9.129470808e-13,1.358619989e-12,5.705271476e-13,3.996546913e-13,5.351396809e-13,6.419744772e-14,2.608122174e-13,5.168740461e-13,1.60476061e-13,6.223660111e-13,1.396981166e-12,1.675715788e-12,1.007724075e-12,8.299087052e-13,1.328102841e-12,1.644593406e-12,7.680397145e-13
1.59375,1.267817878e-12,1.007517726e-12,2.510398469e-12,5.105207274e-13,2.731717915e-13,4.03965142e-13,1.223517426e-12,2.209569093e-13,4.487187264e-13,4.559524466e-13,5.062583914e-13,3.699062528e-13,7.298397776e-13,5.999910912e-13,1.122539701e-12,9.017368397e-13,1.349405913e-12,5.660814575e-13,3.962624408e-13,5.348553816e-13,6.399219703e-14,2.60288614e-13,5.176702884e-13,1.601999619e-13,6.145986314e-13,1.383594676e-12,1.657809402e-12,9.931510577e-13,8.124762912e-13,1.304587667e-12,1.618101714e-12,7.725591016e-13
1.6015625,1.248241287e-12,9.924816416e-13,2.511544166e-12,5.046228601e-13,2.681172841e-13,4.017755525e-13,1.212511289e-12,2.215494812e-13,4.503598208e-13,4.444222754e-13,5.064221717e-13,3.67159508e-13,7.141530539e-13,5.862462122e-13,1.099570985e-12,8.905224733e-13,1.339853746e-12,5.61789378e-13,3.929784886e-13,5.343837167e-13,6.372960045e-14,2.600472201e-13,5.186266784e-13,1.597167089e-13,6.069338539e-13,1.370780154e-12,1.640699615e-12,9.794558086e-13,7.958540188e-13,1.281595677e-12,1.592577539e-12,7.773774257e-13
1.609375,1.228533859e-12,9.775561226e-13,2.51147148e-12,4.985782052e-13,2.629901074e-13,3.99677863e-13,1.201733087e-12,2.224933482e-13,4.52604334e-13,4.332991924e-13,5.071489956e-13,3.649983963e-13,6.991732303e-13,5.732167264e-13,1.076842769e-12,8.79067637e-13,1.330304428e-12,5.573802746e-13,3.896088235e-13,5.336176682e-13,6.346242592e-14,2.601015715e-13,5.197087748e-13,1.597535027e-13,5.994452605e-13,1.357695157e-12,1.623645961e-12,9.662967294e-13,7.797602078e-13,1.259097106e-12,1.567225312e-12,7.826120195e-13
1.6171875,1.209309654e-12,9.631965232e-13,2.511288716e-12,4.921996324e-13,2.57508923e-13,3.977346804e-13,1.190380996e-12,2.237129508e-13,4.552791739e-13,4.227111224e-13,5.079282443e-13,3.62998212e-13,6.846343016e-13,5.604602943e-13,1.054540684e-12,8.675216583e-13,1.321087702e-12,5.525522332e-13,3.859894503e-13,5.322117677e-13,6.322088368e-14,2.605077849e-13,5.210188518e-13,1.60028723e-13,5.923495916e-13,1.343871603e-12,1.606370547e-12,9.534549902e-13,7.639917403e-13,1.23711951e-12,1.541507815e-12,7.881396226e-13
1.625,1.19020317e-12,9.488026943e-13,2.51097865e-12,4.858325286e-13,2.519116864e-13,3.958464241e-13,1.179636724e-12,2.251115167e-13,4.579907387e-13,4.128412528e-13,5.082877239e-13,3.608922448e-13,6.702979464e-13,5.477386108e-13,1.032291509e-12,8.556031473e-13,1.311079897e-12,5.467717072e-13,3.817370303e-13,5.299614923e-13,6.293221304e-14,2.610538509e-13,5.224725882e-13,1.602471116e-13,5.854625692e-13,1.329790376e-12,1.588892277e-12,9.409170975e-13,7.482229839e-13,1.215096373e-12,1.51563733e-12,7.93845188e-13
1.6328125,1.170636096e-12,9.339750284e-13,2.510132339e-12,4.800958535e-13,2.466386549e-13,3.942214065e-13,1.170081973e-12,2.269918939e-13,4.607940252e-13,4.036063506e-13,5.085059598e-13,3.586834167e-13,6.559911953e-13,5.351341278e-13,1.009628621e-12,8.432161837e-13,1.300176206e-12,5.405042825e-13,3.770805426e-13,5.278475663e-13,6.26008054e-14,2.615363505e-13,5.236740725e-13,1.607587082e-13,5.783576281e-13,1.315565249e-12,1.571054682e-12,9.286647414e-13,7.325920323e-13,1.192657151e-12,1.49018574e-12,7.995105641e-13
1.640625,1.151403949e-12,9.195851031e-13,2.509525462e-12,4.747904185e-13,2.415115449e-13,3.930463377e-13,1.159971303e-12,2.293450588e-13,4.638308056e-13,3.947156349e-13,5.092457928e-13,3.563875635e-13,6.41552336e-13,5.229549747e-13,9.871223694e-13,8.308659684e-13,1.289499598e-12,5.348102504e-13,3.726989614e-13,5.262282749e-13,6.229326938e-14,2.62098081e-13,5.244731481e-13,1.614748282e-13,5.710749651e-13,1.30102814e-12,1.55334515e-12,9.165653158e-13,7.175871499e-13,1.170486644e-12,1.465246088e-12,8.048629638e-13
1.6484375,1.132685567e-12,9.057796479e-13,2.508947473e-12,4.692201829e-13,2.360719257e-13,3.919804072e-13,1.148737996e-12,2.3172176e-13,4.670132299e-13,3.862300206e-13,5.105230496e-13,3.541717067e-13,6.274001723e-13,5.114673598e-13,9.656464965e-13,8.188990937e-13,1.279136068e-12,5.294765797e-13,3.684664428e-13,5.238144009e-13,6.20018349e-14,2.628621337e-13,5.251838728e-13,1.620298677e-13,5.642555834e-13,1.28652144e-12,1.536679043e-12,9.047132784e-13,7.034331743e-13,1.149312941e-12,1.440599858e-12,8.100121576e-13
1.65625,1.11362378e-12,8.917792189e-13,2.5072762e-12,4.634102835e-13,2.304285974e-13,3.908502084e-13,1.137293501e-12,2.341597845e-13,4.705777506e-13,3.783471212e-13,5.120318598e-13,3.521404753e-13,6.137445322e-13,5.005741866e-13,9.450049402e-13,8.071317052e-13,1.268351228e-12,5.237143216e-13,3.638703315e-13,5.2018317e-13,6.157843281e-14,2.638026447e-13,5.259756451e-13,1.625305719e-13,5.579948611e-13,1.272190648e-12,1.520710811e-12,8.93340171e-13,6.900551331e-13,1.128535933e-12,1.41631178e-12,8.154807408e-13
1.6640625,1.094474971e-12,8.780039141e-13,2.505049428e-12,4.578893446e-13,2.24960119e-13,3.899256953e-13,1.125688849e-12,2.369822977e-13,4.747545072e-13,3.707994648e-13,5.138532697e-13,3.501343124e-13,5.999040043e-13,4.900567017e-13,9.244416345e-13,7.952108019e-13,1.256841699e-12,5.17730032e-13,3.590739119e-13,5.164481987e-13,6.105930967e-14,2.649554685e-13,5.266372748e-13,1.632363879e-13,5.51587373e-13,1.257718303e-12,1.504422334e-12,8.823571508e-13,6.771717155e-13,1.107145594e-12,1.392500208e-12,8.214054303e-13
1.671875,1.075867583e-12,8.652214164e-13,2.503045511e-12,4.527662301e-13,2.196711729e-13,3.891547775e-13,1.113682817e-12,2.400425436e-13,4.791451725e-13,3.633110647e-13,5.159747239e-13,3.482382781e-13,5.860288503e-13,4.800016004e-13,9.041331101e-13,7.831556688e-13,1.244999991e-12,5.119718311e-13,3.543732264e-13,5.129956809e-13,6.074899883e-14,2.662436641e-13,5.271809591e-13,1.642718527e-13,5.449833815e-13,1.242917058e-12,1.487992184e-12,8.716464861e-13,6.64506484e-13,1.085655286e-12,1.369000843e-12,8.271717803e-13
1.6796875,1.057490899e-12,8.528925292e-13,2.500680804e-12,4.477979136e-13,2.144448737e-13,3.8835038e-13,1.101674923e-12,2.430876383e-13,4.834276723e-13,3.56032526e-13,5.181877292e-13,3.466332699e-13,5.731726703e-13,4.704589282e-13,8.846999286e-13,7.713073831e-13,1.233388824e-12,5.06299662e-13,3.496486905e-13,5.093791842e-13,6.064819947e-14,2.675517288e-13,5.279571154e-13,1.656196286e-13,5.387833745e-13,1.227774334e-12,1.472100635e-12,8.612727922e-13,6.521450923e-13,1.065124945e-12,1.345728417e-12,8.325013362e-13
1.6875,1.039228876e-12,8.405868067e-13,2.497818214e-12,4.429497322e-13,2.093735895e-13,3.877003357e-13,1.090260412e-12,2.461312391e-13,4.87799289e-13,3.491365263e-13,5.206441335e-13,3.451144478e-13,5.610892947e-13,4.611764121e-13,8.656859329e-13,7.5944679e-13,1.221652286e-12,5.004395281e-13,3.44863887e-13,5.056362934e-13,6.050948905e-14,2.690147509e-13,5.289364927e-13,1.671108674e-13,5.328912553e-13,1.212411424e-12,1.456594617e-12,8.512927541e-13,6.402937994e-13,1.045018691e-12,1.322899737e-12,8.379699547e-13
1.6953125,1.021348239e-12,8.287927093e-13,2.494817365e-12,4.384370198e-13,2.045181229e-13,3.871755552e-13,1.079608552e-12,2.492502099e-13,4.923588507e-13,3.4268709e-13,5.234592062e-13,3.436359428e-13,5.488574013e-13,4.521252283e-13,8.464271472e-13,7.470323248e-13,1.209099954e-12,4.942558704e-13,3.401346254e-13,5.017827921e-13,6.036447282e-14,2.706692564e-13,5.296551003e-13,1.686978157e-13,5.268918224e-13,1.196908169e-12,1.441030673e-12,8.419386719e-13,6.289213473e-13,1.02460675e-12,1.300629286e-12,8.437346517e-13
1.703125,1.003696785e-12,8.176203212e-13,2.491396365e-12,4.342833698e-13,1.998326854e-13,3.864695046e-13,1.069103271e-12,2.525613459e-13,4.970082497e-13,3.366347156e-13,5.26339011e-13,3.42421227e-13,5.367525743e-13,4.435161952e-13,8.274084416e-13,7.343561987e-13,1.196097681e-12,4.878561594e-13,3.353762049e-13,4.975052852e-13,6.024734817e-14,2.723119359e-13,5.300134429e-13,1.705932023e-13,5.20868056e-13,1.181216815e-12,1.425345555e-12,8.332197237e-13,6.179562794e-13,1.004609336e-12,1.278855357e-12,8.492957144e-13
1.7109375,9.861487699e-13,8.066450487e-13,2.487702767e-12,4.301622998e-13,1.953320325e-13,3.85737881e-13,1.058599381e-12,2.561246976e-13,5.017928307e-13,3.308647787e-13,5.291536149e-13,3.412940145e-13,5.253746144e-13,4.352676572e-13,8.091216032e-13,7.21970146e-13,1.183163715e-12,4.814835668e-13,3.304607352e-13,4.930603513e-13,6.004520551e-14,2.739877532e-13,5.303982514e-13,1.728082502e-13,5.149664421e-13,1.165768143e-12,1.409866269e-12,8.24579227e-13,6.074124961e-13,9.853296807e-13,1.257748241e-12,8.548259893e-13
1.71875,9.688544504e-13,7.957237117e-13,2.484182707e-12,4.259001818e-13,1.909819444e-13,3.852262509e-13,1.048964223e-12,2.598418345e-13,5.067942263e-13,3.256131296e-13,5.320553383e-13,3.399575402e-13,5.145987328e-13,4.27288378e-13,7.913946048e-13,7.098319504e-13,1.17027783e-12,4.7508094e-13,3.254297525e-13,4.888051147e-13,5.983925366e-14,2.75890869e-13,5.310020427e-13,1.748281902e-13,5.092374133e-13,1.151065345e-12,1.395176283e-12,8.159514976e-13,5.973510185e-13,9.661672348e-13,1.237577535e-12,8.608966259e-13
1.7265625,9.518081178e-13,7.851501423e-13,2.480240202e-12,4.217517736e-13,1.866858931e-13,3.847026802e-13,1.040058938e-12,2.636835521e-13,5.119784126e-13,3.210211155e-13,5.351222306e-13,3.384723052e-13,5.04157471e-13,4.198118828e-13,7.743120014e-13,6.979516442e-13,1.157680908e-12,4.686240394e-13,3.204168022e-13,4.843522189e-13,5.971498046e-14,2.779574214e-13,5.316584648e-13,1.763746828e-13,5.03772672e-13,1.13672235e-12,1.381550239e-12,8.07823879e-13,5.879637737e-13,9.473708112e-13,1.218371514e-12,8.672782983e-13
1.734375,9.348981601e-13,7.752300018e-13,2.475441589e-12,4.179074661e-13,1.825454535e-13,3.840975841e-13,1.030773311e-12,2.676924947e-13,5.172762833e-13,3.166257783e-13,5.384090772e-13,3.369514218e-13,4.939757476e-13,4.128746825e-13,7.578465318e-13,6.86359188e-13,1.14531088e-12,4.624084332e-13,3.155314773e-13,4.796013598e-13,5.967197247e-14,2.801006061e-13,5.32309313e-13,1.783075373e-13,4.985259496e-13,1.122350243e-12,1.368700096e-12,8.000961679e-13,5.793928587e-13,9.292147695e-13,1.200127658e-12,8.734840771e-13
1.7421875,9.181789415e-13,7.657796511e-13,2.470524472e-12,4.142459176e-13,1.787426429e-13,3.836931396e-13,1.021122486e-12,2.718497816e-13,5.227166897e-13,3.123164825e-13,5.419637528e-13,3.354494888e-13,4.840852892e-13,4.062374971e-13,7.416603271e-13,6.747367234e-13,1.132637503e-12,4.563294289e-13,3.107001332e-13,4.751170976e-13,5.978191267e-14,2.823557334e-13,5.330704273e-13,1.813516163e-13,4.934432951e-13,1.108219647e-12,1.356259364e-12,7.925016827e-13,5.71485279e-13,9.11187686e-13,1.182803858e-12,8.795170892e-13
1.75,9.018491369e-13,7.566317183e-13,2.465950272e-12,4.107723607e-13,1.752243491e-13,3.834053399e-13,1.011677173e-12,2.76131987e-13,5.284069084e-13,3.083990875e-13,5.457252609e-13,3.339910392e-13,4.745781735e-13,3.999082528e-13,7.261261108e-13,6.632015117e-13,1.119944743e-12,4.500320424e-13,3.0574235e-13,4.708482806e-13,5.996556345e-14,2.846551964e-13,5.338556789e-13,1.847792287e-13,4.884717569e-13,1.094308367e-12,1.344109276e-12,7.851599273e-13,5.640136963e-13,8.935251112e-13,1.166126999e-12,8.854596005e-13
1.7578125,8.858107108e-13,7.481493482e-13,2.461475662e-12,4.077175029e-13,1.718704629e-13,3.829628462e-13,1.002420158e-12,2.804491418e-13,5.343052477e-13,3.045691778e-13,5.496214247e-13,3.324517193e-13,4.654597159e-13,3.939681461e-13,7.115269086e-13,6.521664856e-13,1.107810366e-12,4.438634925e-13,3.007556454e-13,4.665028229e-13,6.012003786e-14,2.869678889e-13,5.345106855e-13,1.881282492e-13,4.835278935e-13,1.080473067e-12,1.332468788e-12,7.780696789e-13,5.570050128e-13,8.766209561e-13,1.150087655e-12,8.914169238e-13
1.765625,8.696656322e-13,7.401829515e-13,2.457043282e-12,4.050329356e-13,1.687160161e-13,3.825089822e-13,9.934954076e-13,2.847402125e-13,5.403179548e-13,3.006532201e-13,5.536893173e-13,3.308447277e-13,4.567262081e-13,3.882884243e-13,6.971951378e-13,6.41517133e-13,1.096215481e-12,4.383899663e-13,2.960799889e-13,4.62558258e-13,6.037905684e-14,2.894296247e-13,5.351912771e-13,1.919125584e-13,4.788096233e-13,1.067096733e-12,1.321622488e-12,7.71310895e-13,5.506320062e-13,8.598629082e-13,1.135083078e-12,8.976341158e-13
1.7734375,8.536799034e-13,7.321461612e-13,2.45260751e-12,4.02327651e-13,1.657492891e-13,3.822492893e-13,9.854258446e-13,2.89161146e-13,5.465959554e-13,2.972199981e-13,5.58147543e-13,3.294150951e-13,4.483091889e-13,3.829207414e-13,6.830252894e-13,6.310804265e-13,1.085164468e-12,4.335032961e-13,2.918341932e-13,4.589666706e-13,6.076710721e-14,2.920549949e-13,5.359528479e-13,1.956238003e-13,4.74353749e-13,1.054332028e-12,1.311418857e-12,7.649667467e-13,5.449206251e-13,8.43419006e-13,1.121218909e-12,9.040134666e-13
1.78125,8.384851922e-13,7.244534923e-13,2.447968395e-12,3.994956127e-13,1.628482536e-13,3.821117437e-13,9.783641308e-13,2.93774963e-13,5.531965644e-13,2.94346438e-13,5.630517757e-13,3.281532931e-13,4.399166821e-13,3.780868473e-13,6.695454828e-13,6.207545809e-13,1.074394988e-12,4.287970414e-13,2.878161195e-13,4.548320547e-13,6.123672758e-14,2.946805725e-13,5.364086927e-13,1.985991615e-13,4.697247683e-13,1.041984881e-12,1.301780471e-12,7.585181343e-13,5.398295726e-13,8.282820006e-13,1.108284445e-12,9.102417398e-13
1.7890625,8.236588945e-13,7.175915881e-13,2.443294215e-12,3.968353556e-13,1.600253848e-13,3.820058827e-13,9.715236215e-13,2.984587826e-13,5.597411636e-13,2.915976975e-13,5.678219157e-13,3.267217008e-13,4.314915324e-13,3.73718171e-13,6.564396325e-13,6.100958539e-13,1.063169085e-12,4.240139131e-13,2.837780053e-13,4.503838292e-13,6.19252721e-14,2.97192624e-13,5.364315216e-13,2.019910939e-13,4.649158344e-13,1.030183571e-12,1.293086891e-12,7.516760813e-13,5.353695401e-13,8.140280049e-13,1.09619219e-12,9.164040146e-13
1.796875,8.084939449e-13,7.110719458e-13,2.438712825e-12,3.943659494e-13,1.573840495e-13,3.818401762e-13,9.640005924e-13,3.032867129e-13,5.659615826e-13,2.890204713e-13,5.719846281e-13,3.248983527e-13,4.232473912e-13,3.696059917e-13,6.432594277e-13,5.990157085e-13,1.05139188e-12,4.190247535e-13,2.796724883e-13,4.465029368e-13,6.271915277e-14,2.996008822e-13,5.363582676e-13,2.065434939e-13,4.602709004e-13,1.018953444e-12,1.285110993e-12,7.449383856e-13,5.313697586e-13,7.997083483e-13,1.084837078e-12,9.227468275e-13
1.8046875,7.933118076e-13,7.048695134e-13,2.433675208e-12,3.917911057e-13,1.548765841e-13,3.814847256e-13,9.564977265e-13,3.08351928e-13,5.721498407e-13,2.867363412e-13,5.761212772e-13,3.227830806e-13,4.150049255e-13,3.65724312e-13,6.30300541e-13,5.879887711e-13,1.039445634e-12,4.140414188e-13,2.757289491e-13,4.427165986e-13,6.328873995e-14,3.020557751e-13,5.361803581e-13,2.111358639e-13,4.556526208e-13,1.007952632e-12,1.277156909e-12,7.386660121e-13,5.276951319e-13,7.856274381e-13,1.074174234e-12,9.292148582e-13
