"Time","Fp1","AF3","F7","F3","FC1","FC5","T7","C3","CP1","CP5","P7","P3","Pz","PO3","O1","Oz","O2","PO4","P4","P8","CP6","CP2","C4","T8","FC6","FC2","F4","F8","AF4","Fp2","Fz","Cz"
0.0078125,1.146624439e-13,1.973252121e-13,6.584318567e-14,1.657938601e-13,1.062990166e-13,7.19947354e-14,2.964380673e-13,2.149565171e-13,4.024959137e-13,7.440027483e-13,1.317663989e-12,1.009358723e-12,1.632147525e-13,1.114604045e-12,7.186980249e-13,1.434220322e-13,1.340862867e-13,4.233142265e-13,2.275312646e-13,8.127696117e-13,1.242404581e-12,3.731025853e-14,1.389967452e-13,6.805121197e-13,3.244743611e-13,9.127554727e-14,1.21539321e-13,4.493219522e-13,1.171646513e-13,1.593946896e-13,1.348298061e-13,1.063370648e-13
0.015625,1.248741123e-13,2.077005435e-13,6.6539773e-14,1.757722457e-13,1.097182489e-13,7.542309765e-14,3.108129522e-13,2.197943274e-13,4.110076963e-13,7.826920756e-13,1.428485237e-12,1.079693785e-12,1.694777115e-13,1.185462437e-12,7.75150362e-13,1.546798775e-13,1.345069034e-13,4.241214418e-13,2.328656931e-13,8.332347597e-13,1.271432277e-12,4.093660239e-14,1.472556113e-13,7.165071325e-13,3.411075802e-13,9.43912225e-14,1.297667787e-13,4.699555214e-13,1.242863669e-13,1.67920467e-13,1.380785708e-13,1.085998793e-13
0.0234375,1.359440465e-13,2.187100636e-13,6.721979215e-14,1.86386283e-13,1.132757556e-13,7.902164974e-14,3.25620252e-13,2.241662619e-13,4.186709762e-13,8.212489869e-13,1.544579664e-12,1.151622283e-12,1.757781565e-13,1.256713542e-12,8.339428455e-13,1.664759837e-13,1.347645554e-13,4.241925817e-13,2.383006678e-13,8.522133207e-13,1.298058093e-12,4.481884423e-14,1.555304538e-13,7.520843394e-13,3.573606968e-13,9.747603615e-14,1.381048046e-13,4.898126589e-13,1.312736126e-13,1.762077411e-13,1.414812927e-13,1.107712176e-13
0.03125,1.47802738e-13,2.304788171e-13,6.789519498e-14,1.977405411e-13,1.170946916e-13,8.292664186e-14,3.408488235e-13,2.281168981e-13,4.254355826e-13,8.595978083e-13,1.66596022e-12,1.224807381e-12,1.818997341e-13,1.327983065e-12,8.946123938e-13,1.788336144e-13,1.350862635e-13,4.233077768e-13,2.437384069e-13,8.695893852e-13,1.322360004e-12,4.895745218e-14,1.638487344e-13,7.870797288e-13,3.734045378e-13,1.005933715e-13,1.465324377e-13,5.091073533e-13,1.382041325e-13,1.84166193e-13,1.452000126e-13,1.129262427e-13
0.0390625,1.603676655e-13,2.431821298e-13,6.868761441e-14,2.100428574e-13,1.21220169e-13,8.710136392e-14,3.561566878e-13,2.316019603e-13,4.314561757e-13,8.980288399e-13,1.792918388e-12,1.299208895e-12,1.877735946e-13,1.399336224e-12,9.573977583e-13,1.918565351e-13,1.355845423e-13,4.213673954e-13,2.490078749e-13,8.850935059e-13,1.34448852e-12,5.33248282e-14,1.72264036e-13,8.217221447e-13,3.893517477e-13,1.038602262e-13,1.55282698e-13,5.27965845e-13,1.452840189e-13,1.920376002e-13,1.493037026e-13,1.151826765e-13
0.046875,1.735721427e-13,2.568185316e-13,6.956452201e-14,2.23289119e-13,1.256162907e-13,9.152348693e-14,3.714455053e-13,2.345668479e-13,4.367002582e-13,9.363097011e-13,1.924942273e-12,1.374443629e-12,1.935106023e-13,1.469800587e-12,1.021394827e-12,2.052244639e-13,1.362774303e-13,4.189501703e-13,2.54391482e-13,8.987085548e-13,1.364476363e-12,5.797980689e-14,1.807090192e-13,8.555486363e-13,4.047881744e-13,1.07280149e-13,1.643215582e-13,5.456201954e-13,1.5245217e-13,1.997824405e-13,1.537713098e-13,1.175567896e-13
0.0546875,1.873717064e-13,2.713129518e-13,7.057523003e-14,2.374188416e-13,1.303042426e-13,9.621339393e-14,3.866253371e-13,2.369312774e-13,4.40724161e-13,9.737468437e-13,2.061452398e-12,1.449521258e-12,1.99035212e-13,1.53805397e-12,1.085574005e-12,2.186255493e-13,1.371182513e-13,4.161565649e-13,2.600519913e-13,9.10428975e-13,1.38207125e-12,6.29833898e-14,1.89099186e-13,8.880483664e-13,4.193057959e-13,1.106940667e-13,1.732536189e-13,5.616005374e-13,1.59354886e-13,2.070241717e-13,1.586000368e-13,1.199591333e-13
0.0625,2.020134942e-13,2.8682371e-13,7.183131502e-14,2.526044613e-13,1.353351833e-13,1.010167183e-13,4.015400121e-13,2.386243674e-13,4.43425661e-13,1.010149886e-12,2.202646061e-12,1.524743873e-12,2.042225897e-13,1.604962383e-12,1.151272785e-12,2.323255379e-13,1.379323817e-13,4.125359878e-13,2.65691914e-13,9.20192608e-13,1.396788683e-12,6.822688777e-14,1.973106971e-13,9.194956598e-13,4.331502536e-13,1.13990688e-13,1.820591283e-13,5.766665024e-13,1.659815054e-13,2.137279463e-13,1.638395912e-13,1.223774305e-13
0.0703125,2.175119163e-13,3.032167486e-13,7.325138002e-14,2.686807177e-13,1.40717605e-13,1.059579845e-13,4.161511992e-13,2.397271121e-13,4.45200561e-13,1.045492069e-12,2.347903438e-12,1.600334098e-12,2.092705517e-13,1.670437813e-12,1.21785256e-12,2.462368737e-13,1.386095749e-13,4.08253177e-13,2.713096563e-13,9.285931734e-13,1.408888575e-12,7.361937551e-14,2.052703226e-13,9.499324243e-13,4.465164317e-13,1.171236269e-13,1.906736044e-13,5.909636475e-13,1.723555677e-13,2.199384175e-13,1.693855248e-13,1.248900659e-13
0.078125,2.337108447e-13,3.202029745e-13,7.479009698e-14,2.853730148e-13,1.464957957e-13,1.112351647e-13,4.303207149e-13,2.402749235e-13,4.461205148e-13,1.079176488e-12,2.495918797e-12,1.674600266e-12,2.142737923e-13,1.732869631e-12,1.283755989e-12,2.602374428e-13,1.394648303e-13,4.034609093e-13,2.770351606e-13,9.353735942e-13,1.418755077e-12,7.922402012e-14,2.130467863e-13,9.785964473e-13,4.590502346e-13,1.202028176e-13,1.989434018e-13,6.037305996e-13,1.782746727e-13,2.254725576e-13,1.752080949e-13,1.27592659e-13
0.0859375,2.508183725e-13,3.379321333e-13,7.648631339e-14,3.028633513e-13,1.527258884e-13,1.168367299e-13,4.44000867e-13,2.402012367e-13,4.459331931e-13,1.110730656e-12,2.646314655e-12,1.746561016e-12,2.191161027e-13,1.792096889e-12,1.349606612e-12,2.745901476e-13,1.410296284e-13,3.980246588e-13,2.827197252e-13,9.392953716e-13,1.426027877e-12,8.502806252e-14,2.206379233e-13,1.004985344e-12,4.705928421e-13,1.234756064e-13,2.071786291e-13,6.148849597e-13,1.838332724e-13,2.303721118e-13,1.815175373e-13,1.305272802e-13
0.09375,2.689437441e-13,3.563686953e-13,7.827931849e-14,3.211356137e-13,1.593574768e-13,1.227639932e-13,4.574040897e-13,2.395571959e-13,4.446835087e-13,1.140216506e-12,2.799012399e-12,1.816370852e-12,2.239528391e-13,1.84773859e-12,1.414647627e-12,2.889494812e-13,1.432053561e-13,3.922084683e-13,2.884346968e-13,9.404383125e-13,1.430625109e-12,9.098076156e-14,2.279892318e-13,1.029344333e-12,4.812134749e-13,1.26914187e-13,2.152969899e-13,6.246156451e-13,1.890232793e-13,2.3474198e-13,1.882274164e-13,1.336875964e-13
0.1015625,2.880147545e-13,3.752675052e-13,8.013900912e-14,3.39942528e-13,1.663344183e-13,1.290902943e-13,4.704786798e-13,2.384207801e-13,4.425588806e-13,1.167392048e-12,2.95312108e-12,1.883419223e-12,2.289688864e-13,1.898979927e-12,1.477778506e-12,3.029589098e-13,1.456224498e-13,3.861287118e-13,2.943161325e-13,9.39583867e-13,1.432819628e-12,9.712648777e-14,2.351052033e-13,1.051765966e-12,4.907730036e-13,1.303486981e-13,2.22858356e-13,6.328422899e-13,1.935125298e-13,2.384335969e-13,1.951389573e-13,1.371372237e-13
0.109375,3.081435345e-13,3.94670353e-13,8.209410006e-14,3.592594079e-13,1.736835622e-13,1.357454466e-13,4.8286403e-13,2.368138982e-13,4.395459041e-13,1.191588651e-12,3.107464332e-12,1.947009801e-12,2.339796033e-13,1.94575013e-12,1.539263964e-12,3.167817837e-13,1.48531078e-13,3.797989412e-13,3.00233287e-13,9.368302423e-13,1.432501549e-12,1.033883552e-13,2.41877853e-13,1.071858357e-12,4.992106971e-13,1.337756993e-13,2.299829391e-13,6.396074852e-13,1.972687317e-13,2.413354085e-13,2.024204738e-13,1.409038645e-13
0.1171875,3.29487196e-13,4.145455225e-13,8.423682173e-14,3.790941807e-13,1.814053107e-13,1.426773177e-13,4.943424606e-13,2.347968337e-13,4.357092511e-13,1.212630375e-12,3.26106047e-12,2.006752814e-12,2.387500166e-13,1.987401242e-12,1.598470072e-12,3.302710275e-13,1.520334266e-13,3.735468201e-13,3.062165039e-13,9.320698968e-13,1.42959319e-12,1.095556438e-13,2.481096002e-13,1.089589942e-12,5.064988762e-13,1.371049714e-13,2.367406706e-13,6.44834339e-13,2.003408297e-13,2.434112915e-13,2.101148752e-13,1.448728301e-13
0.125,3.52091401e-13,4.348381379e-13,8.668236926e-14,3.994742658e-13,1.894334476e-13,1.498778725e-13,5.049421219e-13,2.32368607e-13,4.312487066e-13,1.230708478e-12,3.412414689e-12,2.062234371e-12,2.433465437e-13,2.023545442e-12,1.654833682e-12,3.432487864e-13,1.55859679e-13,3.673885361e-13,3.123832988e-13,9.251966021e-13,1.424302679e-12,1.155312114e-13,2.536974372e-13,1.10518217e-12,5.124698266e-13,1.402045455e-13,2.4288448e-13,6.483401144e-13,2.025824028e-13,2.446195198e-13,2.180244055e-13,1.489639229e-13
0.1328125,3.756581734e-13,4.554243288e-13,8.928787586e-14,4.202104384e-13,1.9771745e-13,1.573318557e-13,5.148260127e-13,2.294561376e-13,4.261139211e-13,1.245617683e-12,3.56010182e-12,2.113151027e-12,2.47966727e-13,2.053922853e-12,1.707493596e-12,3.55577354e-13,1.601162429e-13,3.613123398e-13,3.186850004e-13,9.163697874e-13,1.416723258e-12,1.213707793e-13,2.58665062e-13,1.118345413e-12,5.170777999e-13,1.430683443e-13,2.482854393e-13,6.499782931e-13,2.039466663e-13,2.450245551e-13,2.260849752e-13,1.531711147e-13
0.140625,3.998331252e-13,4.760120762e-13,9.18804709e-14,4.410498226e-13,2.062668059e-13,1.650852804e-13,5.240160657e-13,2.26081327e-13,4.201719104e-13,1.257360646e-12,3.704324086e-12,2.159183202e-12,2.525978191e-13,2.077622033e-12,1.755321178e-12,3.669548281e-13,1.648078939e-13,3.556190191e-13,3.251315199e-13,9.05830585e-13,1.406560288e-12,1.271373407e-13,2.630922244e-13,1.128978652e-12,5.203014735e-13,1.456702947e-13,2.528538647e-13,6.496382868e-13,2.044825504e-13,2.447533718e-13,2.342723069e-13,1.574807318e-13
0.1484375,4.246578391e-13,4.967025969e-13,9.454121762e-14,4.621806823e-13,2.150836794e-13,1.730702006e-13,5.323447749e-13,2.223473968e-13,4.136059791e-13,1.26624178e-12,3.845457574e-12,2.200158063e-12,2.571043959e-13,2.095025392e-12,1.799131742e-12,3.774633292e-13,1.697944642e-13,3.503987433e-13,3.317661295e-13,8.933709702e-13,1.393532539e-12,1.327902467e-13,2.669424545e-13,1.137267079e-12,5.220447445e-13,1.480448289e-13,2.566737007e-13,6.475372339e-13,2.042867556e-13,2.438916363e-13,2.425295228e-13,1.619194784e-13
0.15625,4.499840246e-13,5.174392785e-13,9.728717006e-14,4.834870459e-13,2.241083993e-13,1.811747542e-13,5.397713149e-13,2.183403359e-13,4.066569953e-13,1.271846135e-12,3.982334035e-12,2.235555687e-12,2.61499646e-13,2.10633039e-12,1.838958061e-12,3.871205026e-13,1.752008668e-13,3.45706132e-13,3.38620708e-13,8.789847601e-13,1.37792941e-12,1.382882517e-13,2.700820771e-13,1.142629645e-12,5.222951433e-13,1.502267509e-13,2.598192043e-13,6.439346814e-13,2.034032904e-13,2.42385562e-13,2.50745348e-13,1.665481731e-13
0.1640625,4.754553676e-13,5.377473006e-13,1.000387571e-13,5.045445351e-13,2.332495172e-13,1.894809903e-13,5.462739608e-13,2.14077334e-13,3.993163327e-13,1.273848748e-12,4.113602019e-12,2.264748395e-12,2.65789764e-13,2.110355912e-12,1.873322651e-12,3.956075947e-13,1.809908761e-13,3.41554876e-13,3.456954446e-13,8.627836795e-13,1.360112491e-12,1.436288438e-13,2.724939009e-13,1.144780195e-12,5.211144834e-13,1.520970846e-13,2.621511759e-13,6.389563147e-13,2.017958214e-13,2.40157887e-13,2.588210197e-13,1.713320697e-13
0.171875,5.009631055e-13,5.576581131e-13,1.027814572e-13,5.254162837e-13,2.423906473e-13,1.980264817e-13,5.516855471e-13,2.095275955e-13,3.915122151e-13,1.272618973e-12,4.238396311e-12,2.288046058e-12,2.698555133e-13,2.107132068e-12,1.901697981e-12,4.02790487e-13,1.87105082e-13,3.378927378e-13,3.528254134e-13,8.445729204e-13,1.34019221e-12,1.48689095e-13,2.742165474e-13,1.144492222e-12,5.186537317e-13,1.536065739e-13,2.63752902e-13,6.327987883e-13,1.996191064e-13,2.373728086e-13,2.667411732e-13,1.761151429e-13
0.1796875,5.262041045e-13,5.772016142e-13,1.0552722e-13,5.460304496e-13,2.514590563e-13,2.066577522e-13,5.559182992e-13,2.047564941e-13,3.833141061e-13,1.268102937e-12,4.355607395e-12,2.305385908e-12,2.73694571e-13,2.0968427e-12,1.923626153e-12,4.085324933e-13,1.934602843e-13,3.350653631e-13,3.600080238e-13,8.24649499e-13,1.318323858e-12,1.533754409e-13,2.752131017e-13,1.141852322e-12,5.150051578e-13,1.547854745e-13,2.647546757e-13,6.255038816e-13,1.970256027e-13,2.342252428e-13,2.742949345e-13,1.808515041e-13
0.1875,5.509221893e-13,5.960910818e-13,1.083746897e-13,5.661494443e-13,2.604554195e-13,2.152140825e-13,5.5892173e-13,1.999038933e-13,3.749039007e-13,1.260268023e-12,4.464341742e-12,2.316331494e-12,2.773702749e-13,2.078977796e-12,1.939240773e-12,4.128513908e-13,1.998688716e-13,3.331964542e-13,3.67377247e-13,8.036118488e-13,1.294477512e-12,1.577532347e-13,2.754543611e-13,1.136365477e-12,5.101567418e-13,1.556415263e-13,2.651405545e-13,6.172997512e-13,1.939555454e-13,2.307077266e-13,2.813081349e-13,1.856464439e-13
0.1953125,5.753901821e-13,6.143985236e-13,1.11388631e-13,5.859014453e-13,2.693163865e-13,2.236225953e-13,5.606758181e-13,1.950076319e-13,3.664510811e-13,1.24940776e-12,4.564624541e-12,2.32156362e-12,2.807972034e-13,2.054398552e-12,1.94916054e-12,4.159578704e-13,2.06606427e-13,3.319749102e-13,3.746696398e-13,7.817133568e-13,1.268765052e-12,1.617634935e-13,2.749329502e-13,1.128350141e-12,5.043126808e-13,1.562055299e-13,2.65011885e-13,6.087221037e-13,1.904259741e-13,2.268519782e-13,2.879139889e-13,1.904450416e-13
0.203125,5.998027849e-13,6.320314864e-13,1.144841028e-13,6.051767399e-13,2.779537955e-13,2.319128311e-13,5.613334565e-13,1.900664652e-13,3.580443111e-13,1.235176892e-12,4.65625596e-12,2.321277013e-12,2.83959327e-13,2.024153899e-12,1.952629703e-12,4.176641109e-13,2.137633923e-13,3.314571381e-13,3.8159779e-13,7.591354565e-13,1.241629963e-12,1.652382948e-13,2.736277741e-13,1.118171077e-12,4.976691325e-13,1.56431432e-13,2.644064198e-13,5.9977938e-13,1.865454086e-13,2.228172104e-13,2.940807591e-13,1.951039156e-13
0.2109375,6.240687467e-13,6.486942478e-13,1.175703836e-13,6.236581014e-13,2.863459804e-13,2.400698766e-13,5.608661851e-13,1.85143326e-13,3.497177607e-13,1.217444677e-12,4.737667476e-12,2.314891477e-12,2.870633329e-13,1.988422079e-12,1.949590647e-12,4.17868772e-13,2.210412494e-13,3.317327828e-13,3.882623307e-13,7.358077189e-13,1.212983944e-12,1.681499409e-13,2.715906204e-13,1.105857052e-12,4.901228981e-13,1.56324986e-13,2.633815779e-13,5.902625219e-13,1.824300013e-13,2.187865929e-13,2.996587735e-13,1.996565284e-13
0.21875,6.481307188e-13,6.644423686e-13,1.206384046e-13,6.412904332e-13,2.944262799e-13,2.479484659e-13,5.590696096e-13,1.803061341e-13,3.414582908e-13,1.196683281e-12,4.807689606e-12,2.302625464e-12,2.902333539e-13,1.94754686e-12,1.941166284e-12,4.168718212e-13,2.287085683e-13,3.32687973e-13,3.947042348e-13,7.115357746e-13,1.182628778e-12,1.705144941e-13,2.688880322e-13,1.091722421e-12,4.816377897e-13,1.560018142e-13,2.620916985e-13,5.804385669e-13,1.781899326e-13,2.149208918e-13,3.046101804e-13,2.041133383e-13
0.2265625,6.719116073e-13,6.791282736e-13,1.237886386e-13,6.580011876e-13,3.020927953e-13,2.554678191e-13,5.561250164e-13,1.756342715e-13,3.331957642e-13,1.172865518e-12,4.865912912e-12,2.284290427e-12,2.933725812e-13,1.901364822e-12,1.926970731e-12,4.145987179e-13,2.368799722e-13,3.34516208e-13,4.00909057e-13,6.867060985e-13,1.15092913e-12,1.723227155e-13,2.654531659e-13,1.075841647e-12,4.722943039e-13,1.553866311e-13,2.603638306e-13,5.705814779e-13,1.736960801e-13,2.111862208e-13,3.087340133e-13,2.083281702e-13
0.234375,6.952484966e-13,6.923745098e-13,1.270673836e-13,6.735583464e-13,3.092714639e-13,2.626649111e-13,5.522828433e-13,1.711715799e-13,3.248870512e-13,1.145984383e-12,4.911054e-12,2.258984706e-12,2.963897142e-13,1.849288202e-12,1.905806233e-12,4.107052337e-13,2.451073962e-13,3.374317404e-13,4.070151178e-13,6.618700136e-13,1.1180494e-12,1.736367834e-13,2.612623636e-13,1.057975054e-12,4.621311575e-13,1.54382037e-13,2.579954451e-13,5.607898538e-13,1.687270854e-13,2.074180978e-13,3.118548734e-13,2.121846233e-13
0.2421875,7.181350843e-13,7.040910273e-13,1.304121298e-13,6.877543982e-13,3.15898861e-13,2.695913111e-13,5.474380715e-13,1.668782124e-13,3.166181316e-13,1.116579816e-12,4.943044056e-12,2.226918335e-12,2.992497706e-13,1.791973176e-12,1.878123904e-12,4.053320423e-13,2.533796955e-13,3.413115807e-13,4.13011307e-13,6.37081924e-13,1.083961896e-12,1.744831772e-13,2.564767114e-13,1.038462964e-12,4.513153282e-13,1.531087354e-13,2.552049888e-13,5.511813521e-13,1.633881267e-13,2.037051845e-13,3.140103167e-13,2.156556227e-13
0.25,7.406721564e-13,7.143958591e-13,1.338803375e-13,7.006916453e-13,3.219400211e-13,2.762010348e-13,5.416820602e-13,1.628276285e-13,3.085396766e-13,1.085086949e-12,4.963062388e-12,2.189106285e-12,3.018740028e-13,1.730717322e-12,1.845326287e-12,3.987960258e-13,2.61972475e-13,3.459877833e-13,4.188609569e-13,6.123314038e-13,1.049012185e-12,1.747714309e-13,2.512118436e-13,1.018126835e-12,4.400580619e-13,1.516358097e-13,2.522752828e-13,5.418325187e-13,1.579667983e-13,2.003168626e-13,3.151939755e-13,2.187506185e-13
0.2578125,7.62404962e-13,7.235141779e-13,1.375089601e-13,7.126181176e-13,3.273465483e-13,2.82300955e-13,5.352840911e-13,1.591929505e-13,3.007154152e-13,1.051673297e-12,4.970660311e-12,2.145862998e-12,3.042405188e-13,1.66576277e-12,1.807472141e-12,3.910056662e-13,2.709666488e-13,3.516773405e-13,4.247323952e-13,5.880082554e-13,1.013650776e-12,1.745121641e-13,2.455009993e-13,9.974964675e-13,4.284923106e-13,1.499520574e-13,2.492870132e-13,5.329664358e-13,1.525479929e-13,1.973110095e-13,3.153519338e-13,2.214901174e-13
0.265625,7.828042234e-13,7.315425104e-13,1.412609034e-13,7.235000546e-13,3.321386911e-13,2.87748829e-13,5.281959468e-13,1.559870074e-13,2.931287267e-13,1.016361935e-12,4.965954151e-12,2.097286708e-12,3.063407272e-13,1.59743484e-12,1.764713622e-12,3.820390773e-13,2.803211745e-13,3.586961349e-13,4.305553692e-13,5.644153338e-13,9.780586414e-13,1.738485234e-13,2.394510721e-13,9.766436559e-13,4.168082294e-13,1.481709482e-13,2.462703302e-13,5.249033647e-13,1.470820269e-13,1.946416122e-13,3.145157089e-13,2.239101023e-13
0.2734375,8.021863916e-13,7.383423903e-13,1.452182884e-13,7.332788871e-13,3.364361613e-13,2.92492162e-13,5.204131735e-13,1.531417458e-13,2.857715355e-13,9.793126485e-13,4.94961771e-12,2.04423361e-12,3.079633742e-13,1.52711265e-12,1.718331565e-12,3.723637966e-13,2.900455087e-13,3.667266951e-13,4.359742975e-13,5.414535068e-13,9.42051746e-13,1.72761789e-13,2.33166836e-13,9.555475911e-13,4.051780333e-13,1.464657648e-13,2.433739286e-13,5.177788516e-13,1.416519448e-13,1.923810746e-13,3.128351298e-13,2.260195598e-13
0.28125,8.205592338e-13,7.438587256e-13,1.49401576e-13,7.419091247e-13,3.401642199e-13,2.96495895e-13,5.120355236e-13,1.506546291e-13,2.786535542e-13,9.409289136e-13,4.920294302e-12,1.987077091e-12,3.089697217e-13,1.455019982e-12,1.66793014e-12,3.620126753e-13,3.003819649e-13,3.754743959e-13,4.409504173e-13,5.191670378e-13,9.055691349e-13,1.711095907e-13,2.266856232e-13,9.342910071e-13,3.936554362e-13,1.449154393e-13,2.408132747e-13,5.117174413e-13,1.364329569e-13,1.906158434e-13,3.104023449e-13,2.277079832e-13
0.2890625,8.37279904e-13,7.481807595e-13,1.538264422e-13,7.492868429e-13,3.431708071e-13,2.998599035e-13,5.030152921e-13,1.485165661e-13,2.717886584e-13,9.015325804e-13,4.8779081e-12,1.925504687e-12,3.095232971e-13,1.380556729e-12,1.613227639e-12,3.508939484e-13,3.112832044e-13,3.851654301e-13,4.456564655e-13,4.97688059e-13,8.689219443e-13,1.688748039e-13,2.200200121e-13,9.129057536e-13,3.822715961e-13,1.43528445e-13,2.386721436e-13,5.067654159e-13,1.315239838e-13,1.894337408e-13,3.071394012e-13,2.288785349e-13
0.296875,8.523639177e-13,7.514892288e-13,1.586119466e-13,7.556806565e-13,3.455696796e-13,3.026193533e-13,4.935854716e-13,1.46733173e-13,2.651761306e-13,8.613718278e-13,4.824346215e-12,1.860492908e-12,3.096426404e-13,1.304846267e-12,1.556484355e-12,3.394218147e-13,3.224511764e-13,3.956310002e-13,4.4993373e-13,4.768911209e-13,8.322400587e-13,1.661224561e-13,2.132584212e-13,8.913902215e-13,3.71074562e-13,1.42434717e-13,2.369973478e-13,5.02750147e-13,1.269654294e-13,1.88876397e-13,3.030955286e-13,2.296193522e-13
0.3046875,8.65958878e-13,7.540039513e-13,1.637130098e-13,7.613827772e-13,3.474571476e-13,3.046492354e-13,4.841007849e-13,1.45322901e-13,2.588354522e-13,8.205958332e-13,4.76049544e-12,1.793487467e-12,3.091183174e-13,1.229377303e-12,1.498992157e-12,3.279924796e-13,3.342314651e-13,4.066559854e-13,4.535588525e-13,4.569238534e-13,7.957156394e-13,1.629405735e-13,2.066703918e-13,8.699402373e-13,3.602313339e-13,1.418852405e-13,2.360117031e-13,4.998787822e-13,1.228339713e-13,1.888809035e-13,2.984407272e-13,2.300320934e-13
0.3125,8.778721884e-13,7.558917716e-13,1.690876218e-13,7.663949564e-13,3.487740692e-13,3.060149078e-13,4.74621676e-13,1.442693975e-13,2.528500424e-13,7.793455307e-13,4.68676122e-12,1.724908098e-12,3.078718197e-13,1.154691624e-12,1.440760364e-12,3.16818521e-13,3.471514173e-13,4.183649319e-13,4.565740165e-13,4.381269073e-13,7.598600009e-13,1.593639315e-13,2.004767804e-13,8.488941389e-13,3.501012227e-13,1.420720961e-13,2.360487318e-13,4.986561454e-13,1.192613191e-13,1.895034641e-13,2.932781755e-13,2.300990959e-13
0.3203125,8.8819411e-13,7.573186361e-13,1.748311114e-13,7.708613408e-13,3.496237956e-13,3.06854663e-13,4.652653815e-13,1.436200311e-13,2.472366179e-13,7.380449385e-13,4.603097687e-12,1.655107088e-12,3.05839545e-13,1.081388754e-12,1.38229966e-12,3.059813006e-13,3.61183159e-13,4.305653455e-13,4.589882063e-13,4.204955936e-13,7.248361365e-13,1.552922904e-13,1.946529049e-13,8.284578969e-13,3.409273216e-13,1.431302648e-13,2.373798951e-13,4.989384241e-13,1.163440188e-13,1.908244123e-13,2.877529133e-13,2.29834389e-13
0.328125,8.969034397e-13,7.583674054e-13,1.810010113e-13,7.749007923e-13,3.501515949e-13,3.071637708e-13,4.560836931e-13,1.434547312e-13,2.419342165e-13,6.970811231e-13,4.50976265e-12,1.584432709e-12,3.029044337e-13,1.009900213e-12,1.323741607e-12,2.953882503e-13,3.761939477e-13,4.433845243e-13,4.608140272e-13,4.041707493e-13,6.906621083e-13,1.507104992e-13,1.89192983e-13,8.086824315e-13,3.326503337e-13,1.451610764e-13,2.400598277e-13,5.002705574e-13,1.140815177e-13,1.927509594e-13,2.819088175e-13,2.293171132e-13
0.3359375,9.040520522e-13,7.591085707e-13,1.877326956e-13,7.785388382e-13,3.503448897e-13,3.069849131e-13,4.469199432e-13,1.437929835e-13,2.370311606e-13,6.566230238e-13,4.40832656e-12,1.513096707e-12,2.990551635e-13,9.405509081e-13,1.265692515e-12,2.852359805e-13,3.922323916e-13,4.571012542e-13,4.62200472e-13,3.89507959e-13,6.576600586e-13,1.457201859e-13,1.842410988e-13,7.896578003e-13,3.252026762e-13,1.48240644e-13,2.43930027e-13,5.027106689e-13,1.124379588e-13,1.952502432e-13,2.757208107e-13,2.286033741e-13
0.34375,9.099748801e-13,7.597181449e-13,1.950631805e-13,7.819076664e-13,3.502568884e-13,3.063460768e-13,4.378798378e-13,1.446714414e-13,2.326555126e-13,6.167239047e-13,4.299606331e-12,1.441586267e-12,2.942934652e-13,8.737351009e-13,1.208972085e-12,2.758097557e-13,4.093662543e-13,4.712642541e-13,4.631645514e-13,3.764771305e-13,6.260817667e-13,1.403531692e-13,1.798997014e-13,7.715334549e-13,3.185909254e-13,1.524770021e-13,2.488751497e-13,5.063488176e-13,1.113630428e-13,1.982566209e-13,2.693702346e-13,2.278271163e-13
0.3515625,9.143880232e-13,7.601452244e-13,2.028520707e-13,7.849400205e-13,3.500250949e-13,3.052459246e-13,4.292126372e-13,1.460772023e-13,2.286806792e-13,5.774278859e-13,4.18438087e-12,1.370188714e-12,2.886816163e-13,8.094468256e-13,1.153624425e-12,2.671584751e-13,4.276174265e-13,4.858236756e-13,4.637710931e-13,3.65021715e-13,5.960714865e-13,1.346938538e-13,1.762271792e-13,7.544172709e-13,3.127254069e-13,1.579453672e-13,2.549304322e-13,5.108703811e-13,1.108159293e-13,2.015532801e-13,2.629381151e-13,2.272315182e-13
0.359375,9.169455608e-13,7.60249995e-13,2.1124475e-13,7.875933265e-13,3.49686424e-13,3.038462307e-13,4.210439221e-13,1.478705094e-13,2.249226243e-13,5.391608528e-13,4.064050182e-12,1.299207984e-12,2.823872551e-13,7.480190086e-13,1.10054833e-12,2.596078774e-13,4.471575436e-13,5.010991405e-13,4.642312989e-13,3.553691045e-13,5.677630151e-13,1.288948173e-13,1.734090415e-13,7.383236231e-13,3.075397186e-13,1.647384242e-13,2.621638391e-13,5.160049449e-13,1.108164843e-13,2.051301399e-13,2.563182368e-13,2.269317924e-13
0.3671875,9.179485446e-13,7.60265004e-13,2.205027881e-13,7.901180245e-13,3.492600152e-13,3.023041373e-13,4.134403691e-13,1.499959893e-13,2.214126261e-13,5.022907029e-13,3.938799019e-12,1.228916599e-12,2.754629462e-13,6.897902914e-13,1.050657635e-12,2.535419516e-13,4.684599992e-13,5.168018056e-13,4.645088847e-13,3.475245975e-13,5.411481314e-13,1.230062659e-13,1.716826168e-13,7.231931647e-13,3.031031298e-13,1.730532944e-13,2.706811648e-13,5.217615553e-13,1.113490285e-13,2.090307524e-13,2.496523469e-13,2.268728577e-13
0.375,9.175498109e-13,7.604461965e-13,2.306292544e-13,7.926142041e-13,3.488576192e-13,3.006349666e-13,4.064926256e-13,1.525063233e-13,2.182059379e-13,4.666227413e-13,3.80933508e-12,1.159196788e-12,2.678986557e-13,6.342633805e-13,1.003689303e-12,2.488525875e-13,4.916273387e-13,5.328169765e-13,4.645634862e-13,3.413506638e-13,5.162345987e-13,1.170394441e-13,1.710733135e-13,7.090470242e-13,2.995193412e-13,1.830359328e-13,2.806026314e-13,5.281530042e-13,1.123550752e-13,2.130883357e-13,2.432564937e-13,2.270567747e-13
0.3828125,9.157072332e-13,7.608499791e-13,2.416209379e-13,7.95151867e-13,3.486764963e-13,2.988496926e-13,4.005004437e-13,1.553268727e-13,2.152509082e-13,4.321586099e-13,3.677492757e-12,1.090480774e-12,2.597662213e-13,5.815549026e-13,9.599331772e-13,2.454595469e-13,5.161362269e-13,5.490569569e-13,4.645233429e-13,3.368310496e-13,4.931795894e-13,1.110467359e-13,1.714729264e-13,6.95971195e-13,2.968255936e-13,1.947727389e-13,2.919363736e-13,5.350180753e-13,1.138790914e-13,2.173239552e-13,2.373264255e-13,2.276088677e-13
0.390625,9.125727316e-13,7.617699607e-13,2.536220789e-13,7.981356243e-13,3.48994229e-13,2.970415217e-13,3.956149788e-13,1.583394676e-13,2.125423178e-13,3.992956069e-13,3.544494528e-12,1.023538546e-12,2.511375064e-13,5.326417163e-13,9.202015906e-13,2.436873047e-13,5.419829293e-13,5.65104157e-13,4.643290109e-13,3.337565785e-13,4.721845413e-13,1.051266257e-13,1.72951034e-13,6.839220029e-13,2.949511629e-13,2.083800257e-13,3.045653119e-13,5.422083286e-13,1.15958904e-13,2.218972543e-13,2.319885143e-13,2.287133158e-13
0.3984375,9.082201484e-13,7.636196816e-13,2.667811713e-13,8.019231543e-13,3.500073679e-13,2.953616599e-13,3.915583197e-13,1.615963765e-13,2.100759842e-13,3.681691793e-13,3.411463745e-12,9.586665219e-13,2.420546572e-13,4.87625758e-13,8.849187755e-13,2.437863656e-13,5.697310265e-13,5.810031613e-13,4.639824836e-13,3.320014062e-13,4.532749401e-13,9.936820643e-14,1.756568909e-13,6.727984211e-13,2.93817057e-13,2.239123241e-13,3.183184997e-13,5.496624297e-13,1.184843582e-13,2.266103317e-13,2.27379607e-13,2.305469909e-13
0.40625,9.025377073e-13,7.664107242e-13,2.810613957e-13,8.064533096e-13,3.516920185e-13,2.938638479e-13,3.880721107e-13,1.651615598e-13,2.077751343e-13,3.386023716e-13,3.279083659e-12,8.959506253e-13,2.325676426e-13,4.458119147e-13,8.542652254e-13,2.456909018e-13,5.99269475e-13,5.967511565e-13,4.636070793e-13,3.317910858e-13,4.362743009e-13,9.373727908e-14,1.795555265e-13,6.625337695e-13,2.933380713e-13,2.41392705e-13,3.332204348e-13,5.572604602e-13,1.214141028e-13,2.311697054e-13,2.236015438e-13,2.331931389e-13
0.4140625,8.955449794e-13,7.699689632e-13,2.963940733e-13,8.11541803e-13,3.539928976e-13,2.925612022e-13,3.850829127e-13,1.689410803e-13,2.056863796e-13,3.105248839e-13,3.14791308e-12,8.352773884e-13,2.227955084e-13,4.071141471e-13,8.282424609e-13,2.493604216e-13,6.301866736e-13,6.121200863e-13,4.631614525e-13,3.330910991e-13,4.212284413e-13,8.820714708e-14,1.845891146e-13,6.529950422e-13,2.933635923e-13,2.608785248e-13,3.495098782e-13,5.648014356e-13,1.248493477e-13,2.356434274e-13,2.206815726e-13,2.366787481e-13
0.421875,8.876561828e-13,7.744215206e-13,3.129768955e-13,8.17316231e-13,3.56957653e-13,2.916245851e-13,3.82868663e-13,1.728490411e-13,2.039230539e-13,2.841237923e-13,3.019191218e-12,7.769112383e-13,2.12884403e-13,3.721196267e-13,8.07276137e-13,2.549793776e-13,6.627057837e-13,6.273723102e-13,4.627428179e-13,3.358018986e-13,4.085476218e-13,8.287782907e-14,1.908745519e-13,6.440428979e-13,2.938947498e-13,2.824403941e-13,3.671870952e-13,5.719802113e-13,1.287821097e-13,2.401901732e-13,2.186725206e-13,2.410912671e-13
0.4296875,8.7905862e-13,7.799662899e-13,3.308519349e-13,8.239833367e-13,3.606236223e-13,2.911233355e-13,3.817964441e-13,1.768875354e-13,2.023792157e-13,2.594644949e-13,2.893302627e-12,7.216231983e-13,2.028223998e-13,3.410302339e-13,7.916428925e-13,2.626001547e-13,6.97056477e-13,6.426072211e-13,4.623835272e-13,3.401253251e-13,3.984627616e-13,7.779135752e-14,1.984804693e-13,6.356880485e-13,2.950251198e-13,3.06185072e-13,3.861216511e-13,5.785549232e-13,1.331306919e-13,2.447505623e-13,2.177148698e-13,2.465931788e-13
0.4375,8.694182157e-13,7.865641429e-13,3.499167533e-13,8.314975074e-13,3.650347954e-13,2.909857443e-13,3.81607161e-13,1.810213836e-13,2.008853659e-13,2.364706237e-13,2.770949295e-12,6.695334982e-13,1.925066535e-13,3.13524115e-13,7.804554587e-13,2.718600798e-13,7.328629318e-13,6.57506525e-13,4.618258926e-13,3.45890773e-13,3.907503002e-13,7.28842802e-14,2.072861518e-13,6.279593831e-13,2.966252678e-13,3.320452281e-13,4.06279495e-13,5.845406253e-13,1.378874522e-13,2.491657417e-13,2.1787272e-13,2.53255739e-13
0.4453125,8.590284277e-13,7.941453423e-13,3.704920202e-13,8.398266758e-13,3.703089821e-13,2.913930642e-13,3.821736471e-13,1.851938841e-13,1.99472372e-13,2.152319408e-13,2.65385964e-12,6.204296746e-13,1.819426684e-13,2.894983479e-13,7.735047151e-13,2.82615355e-13,7.696299112e-13,6.719995396e-13,4.611786355e-13,3.528962892e-13,3.852788453e-13,6.815537531e-14,2.171761892e-13,6.205819353e-13,2.985343262e-13,3.597681052e-13,4.274156475e-13,5.899612268e-13,1.430352605e-13,2.532490667e-13,2.191349559e-13,2.609590716e-13
0.453125,8.486528311e-13,8.025315576e-13,3.925867013e-13,8.488276609e-13,3.764918897e-13,2.92516172e-13,3.838013279e-13,1.893660019e-13,1.982429097e-13,1.956837025e-13,2.541782385e-12,5.743113697e-13,1.712497019e-13,2.690351175e-13,7.717607295e-13,2.952799113e-13,8.073242849e-13,6.861464371e-13,4.606844701e-13,3.614512853e-13,3.82199479e-13,6.370833086e-14,2.280656708e-13,6.13154094e-13,3.007425944e-13,3.893934701e-13,4.494539853e-13,5.948063197e-13,1.486077957e-13,2.569208582e-13,2.2157261e-13,2.697239998e-13
0.4609375,8.382179927e-13,8.112393825e-13,4.156801e-13,8.57964697e-13,3.834741766e-13,2.942953437e-13,3.86283381e-13,1.934555247e-13,1.97236075e-13,1.776397629e-13,2.433638275e-12,5.309352491e-13,1.606369752e-13,2.518515181e-13,7.747073474e-13,3.097666332e-13,8.460689882e-13,6.998020483e-13,4.602350161e-13,3.71549325e-13,3.813941574e-13,5.962981108e-14,2.39847592e-13,6.056186556e-13,3.031793111e-13,4.210549692e-13,4.725316431e-13,5.990541199e-13,1.546493242e-13,2.603599376e-13,2.251420063e-13,2.798214963e-13
0.46875,8.27397283e-13,8.198957099e-13,4.398098549e-13,8.668776388e-13,3.911603411e-13,2.968560444e-13,3.895062018e-13,1.974115097e-13,1.964427684e-13,1.611310608e-13,2.33019952e-12,4.901898347e-13,1.50282295e-13,2.374123118e-13,7.810987237e-13,3.255094375e-13,8.854741829e-13,7.127217155e-13,4.598560705e-13,3.830107546e-13,3.827161044e-13,5.589469751e-14,2.525277385e-13,5.980540578e-13,3.057131283e-13,4.545097563e-13,4.96324482e-13,6.025125925e-13,1.610480605e-13,2.637252889e-13,2.296069456e-13,2.913246556e-13
0.4765625,8.16378031e-13,8.284693577e-13,4.651581931e-13,8.756033486e-13,3.995746236e-13,3.003355571e-13,3.936402681e-13,2.012720435e-13,1.958364178e-13,1.461678818e-13,2.232622449e-12,4.522141757e-13,1.402216276e-13,2.255991991e-13,7.914195374e-13,3.426170519e-13,9.251806346e-13,7.249418382e-13,4.596510259e-13,3.959764565e-13,3.863955019e-13,5.248474587e-14,2.661605387e-13,5.904326502e-13,3.083533428e-13,4.895744546e-13,5.207722207e-13,6.051820889e-13,1.677893253e-13,2.6697754e-13,2.349286848e-13,3.041313697e-13
0.484375,8.053352331e-13,8.369362194e-13,4.914959177e-13,8.841116155e-13,4.087277576e-13,3.045863103e-13,3.98346115e-13,2.050106698e-13,1.954051972e-13,1.327392833e-13,2.141298508e-12,4.169404618e-13,1.305627314e-13,2.165953706e-13,8.060493284e-13,3.611343863e-13,9.65222334e-13,7.36572688e-13,4.596079466e-13,4.102484677e-13,3.924334696e-13,4.948558135e-14,2.806421311e-13,5.828086115e-13,3.111755884e-13,5.262487089e-13,5.462599021e-13,6.071641197e-13,1.750033032e-13,2.700496349e-13,2.41230599e-13,3.182674453e-13
0.4921875,7.944120272e-13,8.451309669e-13,5.188653169e-13,8.922528338e-13,4.18555419e-13,3.094762879e-13,4.03586747e-13,2.084822804e-13,1.950786197e-13,1.207378215e-13,2.055981046e-12,3.842310335e-13,1.214893257e-13,2.101041621e-13,8.24025056e-13,3.805545619e-13,1.005206141e-12,7.471971319e-13,4.597364457e-13,4.255323468e-13,4.005607033e-13,4.692607517e-14,2.957430701e-13,5.75007348e-13,3.139663103e-13,5.64389649e-13,5.724519021e-13,6.080833635e-13,1.826618123e-13,2.729425906e-13,2.484768453e-13,3.337654902e-13
0.5,7.838871868e-13,8.528593063e-13,5.473778136e-13,8.998139046e-13,4.290292745e-13,3.150001084e-13,4.096665708e-13,2.115942597e-13,1.947826142e-13,1.098711609e-13,1.976200254e-12,3.540085817e-13,1.129484769e-13,2.05725065e-13,8.448725968e-13,4.008738242e-13,1.044762987e-12,7.563845782e-13,4.597434481e-13,4.418550821e-13,4.106205293e-13,4.473497754e-14,3.112869607e-13,5.665753984e-13,3.163022602e-13,6.039274935e-13,5.988146523e-13,6.075789919e-13,1.906569069e-13,2.757414907e-13,2.566167518e-13,3.506362681e-13
0.5078125,7.737674721e-13,8.599356605e-13,5.768289696e-13,9.06528014e-13,4.400892379e-13,3.212959185e-13,4.16325424e-13,2.144012315e-13,1.946026487e-13,1.001210606e-13,1.902119631e-12,3.262686537e-13,1.048394258e-13,2.033547266e-13,8.685504361e-13,4.220844889e-13,1.083855009e-12,7.641697279e-13,4.59391135e-13,4.590614065e-13,4.224106362e-13,4.289119111e-14,3.271769646e-13,5.575068471e-13,3.181375715e-13,6.446434839e-13,6.25234388e-13,6.058119374e-13,1.988675011e-13,2.784672132e-13,2.655668009e-13,3.68808578e-13
0.515625,7.637143619e-13,8.660914529e-13,6.069476227e-13,9.122481695e-13,4.515474921e-13,3.284447539e-13,4.23381245e-13,2.16953885e-13,1.945477104e-13,9.149011717e-14,1.83372946e-12,3.008975972e-13,9.733420125e-14,2.024616046e-13,8.944248731e-13,4.435660419e-13,1.121698109e-12,7.706131268e-13,4.589092896e-13,4.770406895e-13,4.358680678e-13,4.140894736e-14,3.432162537e-13,5.482379307e-13,3.197242092e-13,6.860168095e-13,6.514295674e-13,6.031369501e-13,2.071176158e-13,2.810437647e-13,2.750863172e-13,3.880678372e-13
0.5234375,7.535601309e-13,8.711134475e-13,6.376242594e-13,9.169679768e-13,4.633256582e-13,3.361691902e-13,4.309816387e-13,2.191496417e-13,1.943940938e-13,8.376810792e-14,1.770426129e-12,2.776399547e-13,9.05851682e-14,2.025161459e-13,9.214731699e-13,4.649570529e-13,1.157749858e-12,7.757453508e-13,4.5833965e-13,4.958411954e-13,4.510005122e-13,4.027384704e-14,3.591957162e-13,5.390110443e-13,3.210733373e-13,7.278533449e-13,6.771772536e-13,5.997257941e-13,2.153027162e-13,2.834403467e-13,2.851097449e-13,4.083168404e-13
0.53125,7.436270703e-13,8.752099151e-13,6.69264626e-13,9.208788742e-13,4.755175283e-13,3.443592614e-13,4.392073941e-13,2.208757001e-13,1.940427883e-13,7.702220654e-14,1.712219225e-12,2.566250764e-13,8.4531823e-14,2.038502044e-13,9.493885207e-13,4.864073261e-13,1.192701004e-12,7.796684404e-13,4.576295331e-13,5.153195985e-13,4.67674605e-13,3.948694253e-14,3.751117642e-13,5.297158885e-13,3.220408806e-13,7.700499131e-13,7.024013565e-13,5.953564781e-13,2.233400819e-13,2.854678781e-13,2.957167506e-13,4.294415642e-13
0.5390625,7.340748815e-13,8.785809765e-13,7.021447751e-13,9.24085756e-13,4.880575259e-13,3.53166143e-13,4.481072241e-13,2.221695212e-13,1.935819381e-13,7.126115002e-14,1.659131707e-12,2.380082162e-13,7.918820795e-14,2.066460239e-13,9.790678174e-13,5.081262049e-13,1.226509631e-12,7.824964548e-13,4.569681158e-13,5.354652039e-13,4.859028254e-13,3.907850004e-14,3.908871628e-13,5.20143589e-13,3.225484786e-13,8.122936989e-13,7.269309558e-13,5.899086876e-13,2.31203932e-13,2.869563408e-13,3.06781735e-13,4.513439697e-13
0.546875,7.244543401e-13,8.808353151e-13,7.358973193e-13,9.261629366e-13,5.007206419e-13,3.624823052e-13,4.573295373e-13,2.230843343e-13,1.930145048e-13,6.623929063e-14,1.610381644e-12,2.214906234e-13,7.472012955e-14,2.101813442e-13,1.009813075e-12,5.295802663e-13,1.257855232e-12,7.841733992e-13,4.562584242e-13,5.561783091e-13,5.053718863e-13,3.908845656e-14,4.062323717e-13,5.102753936e-13,3.22530488e-13,8.54425347e-13,7.505375793e-13,5.836128377e-13,2.388878507e-13,2.880718595e-13,3.180705236e-13,4.742271677e-13
0.5546875,7.146981636e-13,8.813109579e-13,7.700333835e-13,9.264512923e-13,5.133733424e-13,3.7216194e-13,4.668384511e-13,2.236332982e-13,1.922820265e-13,6.199531286e-14,1.565467952e-12,2.069916354e-13,7.119494006e-14,2.139725356e-13,1.039177257e-12,5.49806789e-13,1.286256441e-12,7.842027359e-13,4.551951115e-13,5.770689388e-13,5.252723121e-13,3.942687983e-14,4.208333359e-13,5.003824844e-13,3.217981325e-13,8.96043273e-13,7.727218229e-13,5.763251629e-13,2.462136617e-13,2.888610392e-13,3.295424265e-13,4.978767944e-13
0.5625,7.047441236e-13,8.806156752e-13,8.046800043e-13,9.255463347e-13,5.259705488e-13,3.82191775e-13,4.759318905e-13,2.236729978e-13,1.912881935e-13,5.83601348e-14,1.524182197e-12,1.944906317e-13,6.84675812e-14,2.182632743e-13,1.067244633e-12,5.689407683e-13,1.311910097e-12,7.822333066e-13,4.537653534e-13,5.9805234e-13,5.459291289e-13,4.003513013e-14,4.347075225e-13,4.900659242e-13,3.205289892e-13,9.367647938e-13,7.932163783e-13,5.679222995e-13,2.529606161e-13,2.890433612e-13,3.410889847e-13,5.217895731e-13
0.5703125,6.945756221e-13,8.787925582e-13,8.395054048e-13,9.234808069e-13,5.384464094e-13,3.92265873e-13,4.846674409e-13,2.231858595e-13,1.899930379e-13,5.515317611e-14,1.485724372e-12,1.835314527e-13,6.642520984e-14,2.22893002e-13,1.094991369e-12,5.873680845e-13,1.334857405e-12,7.789290005e-13,4.52141983e-13,6.192385594e-13,5.674214743e-13,4.088021975e-14,4.476787713e-13,4.794005839e-13,3.186456411e-13,9.765355003e-13,8.124173627e-13,5.588969624e-13,2.593884058e-13,2.887245961e-13,3.527811937e-13,5.458786194e-13
0.578125,6.843818093e-13,8.757806536e-13,8.749968684e-13,9.201912275e-13,5.507088411e-13,4.02493707e-13,4.930585041e-13,2.22120316e-13,1.884412892e-13,5.248866281e-14,1.449665792e-12,1.739672817e-13,6.515120046e-14,2.273827226e-13,1.12105639e-12,6.044552423e-13,1.354859174e-12,7.745196303e-13,4.504908205e-13,6.403381395e-13,5.893206427e-13,4.20324725e-14,4.596807659e-13,4.684956727e-13,3.16155491e-13,1.015180203e-12,8.301996136e-13,5.492416318e-13,2.655935866e-13,2.879039927e-13,3.645026541e-13,5.701179695e-13
0.5859375,6.745649799e-13,8.716951602e-13,9.11476781e-13,9.157625676e-13,5.626006238e-13,4.131061989e-13,5.010297763e-13,2.205716541e-13,1.867460063e-13,5.037788882e-14,1.415958077e-12,1.658606391e-13,6.47138045e-14,2.318476845e-13,1.144851178e-12,6.198805592e-13,1.371539355e-12,7.688641398e-13,4.488112891e-13,6.611570048e-13,6.11921419e-13,4.342418815e-14,4.707044998e-13,4.572456317e-13,3.131022849e-13,1.052398633e-12,8.465018686e-13,5.387290693e-13,2.715269757e-13,2.865869727e-13,3.761381243e-13,5.941558326e-13
0.59375,6.649062148e-13,8.66319577e-13,9.488288212e-13,9.099014373e-13,5.738883149e-13,4.23791541e-13,5.088115059e-13,2.18620387e-13,1.848969332e-13,4.876318019e-14,1.383736268e-12,1.587895891e-13,6.504463273e-14,2.363161889e-13,1.166501504e-12,6.340437223e-13,1.385361282e-12,7.623538722e-13,4.47284403e-13,6.818597629e-13,6.354609587e-13,4.49553372e-14,4.806525336e-13,4.458056055e-13,3.097218362e-13,1.088404025e-12,8.621129942e-13,5.279394715e-13,2.774259001e-13,2.852180715e-13,3.877114467e-13,6.179251672e-13
0.6015625,6.549948627e-13,8.591786952e-13,9.866069476e-13,9.021061114e-13,5.843644831e-13,4.343027704e-13,5.165907548e-13,2.161750378e-13,1.827881151e-13,4.756582024e-14,1.352174453e-12,1.525449252e-13,6.606094709e-14,2.404114559e-13,1.185073387e-12,6.467535655e-13,1.396494451e-12,7.549776042e-13,4.460889017e-13,7.022799508e-13,6.594730716e-13,4.664915045e-14,4.89195489e-13,4.343227608e-13,3.060016388e-13,1.123083619e-12,8.769367316e-13,5.170041005e-13,2.834025157e-13,2.839822848e-13,3.991974509e-13,6.41286169e-13
0.609375,6.452505152e-13,8.504631723e-13,1.024381877e-12,8.926329753e-13,5.941131622e-13,4.447376154e-13,5.242736412e-13,2.13254093e-13,1.803526501e-13,4.655941443e-14,1.321637582e-12,1.4729958e-13,6.774860411e-14,2.444533642e-13,1.20160406e-12,6.579333742e-13,1.404314146e-12,7.465880218e-13,4.450107694e-13,7.22087922e-13,6.836508762e-13,4.855298837e-14,4.960917121e-13,4.224679547e-13,3.014858886e-13,1.156068263e-12,8.901313258e-13,5.053455991e-13,2.892718862e-13,2.825785718e-13,4.106074242e-13,6.640868307e-13
0.6171875,6.355864806e-13,8.404714608e-13,1.062600825e-12,8.818106418e-13,6.032328783e-13,4.551348712e-13,5.315887767e-13,2.099793253e-13,1.77717087e-13,4.578634844e-14,1.29232212e-12,1.428478007e-13,7.014856089e-14,2.484773239e-13,1.216579025e-12,6.675897381e-13,1.408827277e-12,7.373246952e-13,4.43936657e-13,7.411881897e-13,7.078665875e-13,5.068834237e-14,5.015861895e-13,4.098972624e-13,2.963585635e-13,1.18732413e-12,9.017006722e-13,4.930838684e-13,2.949024063e-13,2.810043536e-13,4.218003613e-13,6.864125088e-13
0.625,6.257699316e-13,8.282262472e-13,1.100714177e-12,8.686349688e-13,6.114296155e-13,4.651231418e-13,5.390072609e-13,2.064101796e-13,1.751413212e-13,4.54290728e-14,1.26313471e-12,1.387843465e-13,7.319770111e-14,2.516028597e-13,1.226907291e-12,6.746690207e-13,1.409340751e-12,7.267313294e-13,4.43062761e-13,7.595444243e-13,7.319623565e-13,5.296116938e-14,5.053971667e-13,3.971953968e-13,2.906307457e-13,1.216197353e-12,9.118114343e-13,4.805779346e-13,3.004533163e-13,2.795374742e-13,4.326816138e-13,7.077482961e-13
0.6328125,6.160771301e-13,8.13790273e-13,1.138488112e-12,8.532580027e-13,6.18547715e-13,4.746884747e-13,5.466358874e-13,2.025299779e-13,1.725573443e-13,4.538317543e-14,1.233478725e-12,1.353533225e-13,7.679245151e-14,2.540571748e-13,1.232473562e-12,6.790653642e-13,1.405594263e-12,7.14755193e-13,4.422236867e-13,7.771698635e-13,7.558575178e-13,5.529626185e-14,5.074650984e-13,3.844912114e-13,2.843063688e-13,1.242515896e-12,9.202746365e-13,4.676425475e-13,3.058451987e-13,2.780475945e-13,4.431862582e-13,7.278657495e-13
0.640625,6.071652004e-13,7.976809259e-13,1.176045892e-12,8.361735026e-13,6.247754068e-13,4.840666743e-13,5.548312166e-13,1.983876437e-13,1.698474219e-13,4.554408423e-14,1.20385931e-12,1.324274121e-13,8.102209819e-14,2.568668329e-13,1.236667865e-12,6.822356538e-13,1.398869778e-12,7.025842443e-13,4.415908728e-13,7.940995831e-13,7.790678219e-13,5.773101466e-14,5.080169712e-13,3.716969254e-13,2.774922956e-13,1.266901451e-12,9.275830054e-13,4.544725793e-13,3.114050544e-13,2.767119502e-13,4.535728164e-13,7.469160576e-13
0.6484375,5.986380635e-13,7.798021438e-13,1.21288676e-12,8.173148906e-13,6.300492178e-13,4.929948729e-13,5.636154059e-13,1.94022406e-13,1.670593694e-13,4.59402131e-14,1.174305404e-12,1.296811117e-13,8.59269846e-14,2.597729066e-13,1.238948863e-12,6.84254865e-13,1.39017549e-12,6.908301013e-13,4.414243053e-13,8.099399122e-13,8.011329514e-13,6.025623968e-14,5.070987158e-13,3.589249068e-13,2.70482026e-13,1.289193688e-12,9.339119975e-13,4.415308379e-13,3.172080784e-13,2.757651014e-13,4.63788537e-13,7.646632851e-13
0.65625,5.900821687e-13,7.601813993e-13,1.248549036e-12,7.967949733e-13,6.34159712e-13,5.01144915e-13,5.725707763e-13,1.894330853e-13,1.642146524e-13,4.657548494e-14,1.14412821e-12,1.27217662e-13,9.14019135e-14,2.621873015e-13,1.236943005e-12,6.838726036e-13,1.377999603e-12,6.785421753e-13,4.412116703e-13,8.242831371e-13,8.220575923e-13,6.281208123e-14,5.044310014e-13,3.464105893e-13,2.630984881e-13,1.308503537e-12,9.383525098e-13,4.28559861e-13,3.22606143e-13,2.749367333e-13,4.735203493e-13,7.809017746e-13
0.6640625,5.819460323e-13,7.389075098e-13,1.283532072e-12,7.746492143e-13,6.371327964e-13,5.086859833e-13,5.818749431e-13,1.845782985e-13,1.612957394e-13,4.746036331e-14,1.113071942e-12,1.249819463e-13,9.742068871e-14,2.64247357e-13,1.23123643e-12,6.812690728e-13,1.3614403e-12,6.651925294e-13,4.406835983e-13,8.3726245e-13,8.417080032e-13,6.541117242e-14,5.001152468e-13,3.341701827e-13,2.5510385e-13,1.324830778e-12,9.404591725e-13,4.152323605e-13,3.272862154e-13,2.738816106e-13,4.827244084e-13,7.957337152e-13
0.671875,5.739594274e-13,7.156346973e-13,1.317149598e-12,7.505088301e-13,6.389223025e-13,5.154820246e-13,5.914804639e-13,1.794233498e-13,1.584004569e-13,4.859411507e-14,1.081073986e-12,1.226467449e-13,1.038944963e-13,2.659223224e-13,1.222085737e-12,6.769496471e-13,1.342079902e-12,6.514341843e-13,4.401922501e-13,8.489580722e-13,8.598445001e-13,6.801994834e-14,4.946568255e-13,3.220617804e-13,2.46797994e-13,1.338712153e-12,9.409238409e-13,4.019348074e-13,3.316523959e-13,2.728105661e-13,4.914311238e-13,8.089584117e-13
0.6796875,5.659050034e-13,6.909740726e-13,1.349113647e-12,7.250303968e-13,6.395193311e-13,5.214923791e-13,6.007790227e-13,1.740849811e-13,1.555386767e-13,4.988896208e-14,1.04802588e-12,1.205198522e-13,1.107417798e-13,2.671944974e-13,1.208742732e-12,6.702192119e-13,1.320132168e-12,6.375627073e-13,4.395834065e-13,8.591000429e-13,8.764253342e-13,7.061708399e-14,4.882973174e-13,3.101680121e-13,2.384454102e-13,1.349997269e-12,9.398072948e-13,3.888694609e-13,3.356827105e-13,2.717704227e-13,4.99395442e-13,8.204399888e-13
0.6875,5.58767655e-13,6.66308569e-13,1.381016702e-12,6.994803085e-13,6.392080849e-13,5.271899145e-13,6.102484695e-13,1.687167866e-13,1.525631169e-13,5.129651852e-14,1.014232821e-12,1.19092276e-13,1.180990609e-13,2.683796775e-13,1.192177342e-12,6.612291618e-13,1.294472281e-12,6.236048054e-13,4.388432873e-13,8.677570283e-13,8.913125196e-13,7.326236278e-14,4.806258183e-13,2.985117754e-13,2.297191292e-13,1.358323878e-12,9.364485568e-13,3.755593577e-13,3.39128961e-13,2.703039991e-13,5.067989696e-13,8.303240415e-13
0.6953125,5.523078131e-13,6.415985531e-13,1.413270105e-12,6.737596859e-13,6.37913463e-13,5.325770154e-13,6.197077727e-13,1.63304412e-13,1.49463993e-13,5.276322579e-14,9.79740262e-13,1.181222949e-13,1.259862782e-13,2.700528437e-13,1.173105174e-12,6.5105899e-13,1.267248947e-12,6.101104712e-13,4.38408027e-13,8.749551922e-13,9.046414028e-13,7.613196706e-14,4.720529861e-13,2.869321518e-13,2.207404678e-13,1.364195167e-12,9.310550131e-13,3.618428633e-13,3.420088109e-13,2.684051688e-13,5.136013677e-13,8.38951357e-13
0.703125,5.458563957e-13,6.164263567e-13,1.444769737e-12,6.474906854e-13,6.355388613e-13,5.372537086e-13,6.287614704e-13,1.577463355e-13,1.463868429e-13,5.432747187e-14,9.448217832e-13,1.172692601e-13,1.342322799e-13,2.724978224e-13,1.1515199e-12,6.395550749e-13,1.238577454e-12,5.971206173e-13,4.381765923e-13,8.804249453e-13,9.162353442e-13,7.909935615e-14,4.62909216e-13,2.75365224e-13,2.117557001e-13,1.367920721e-12,9.242367847e-13,3.48345059e-13,3.445583001e-13,2.665199245e-13,5.199199404e-13,8.461390423e-13
0.7109375,5.399579505e-13,5.911051647e-13,1.475985356e-12,6.210921617e-13,6.323960907e-13,5.415736046e-13,6.380553418e-13,1.521314553e-13,1.433298651e-13,5.61065679e-14,9.097949377e-13,1.164863108e-13,1.427713918e-13,2.7570507e-13,1.128380365e-12,6.266155392e-13,1.206983595e-12,5.843668591e-13,4.378354064e-13,8.841978132e-13,9.260264026e-13,8.211311706e-14,4.534032021e-13,2.643070055e-13,2.030591045e-13,1.369579648e-12,9.158661214e-13,3.355343704e-13,3.466194612e-13,2.645334871e-13,5.257096429e-13,8.518179715e-13
0.71875,5.344984065e-13,5.657734697e-13,1.506816166e-12,5.946892144e-13,6.284405677e-13,5.458583492e-13,6.480653713e-13,1.465344842e-13,1.402774764e-13,5.816702801e-14,8.743328193e-13,1.156038328e-13,1.516554092e-13,2.791894013e-13,1.10343179e-12,6.12466702e-13,1.173079289e-12,5.718057659e-13,4.376508255e-13,8.862344974e-13,9.343886156e-13,8.524071158e-14,4.434062932e-13,2.539158479e-13,1.946087826e-13,1.369340195e-12,9.060348497e-13,3.232169443e-13,3.482303865e-13,2.624358372e-13,5.31054673e-13,8.561313999e-13
0.7265625,5.289059644e-13,5.402082857e-13,1.536923309e-12,5.679454557e-13,6.233088116e-13,5.500278811e-13,6.582773442e-13,1.409395542e-13,1.37351589e-13,6.045358033e-14,8.383108397e-13,1.147346631e-13,1.608522338e-13,2.827747951e-13,1.075337459e-12,5.965988593e-13,1.137981169e-12,5.594141983e-13,4.377919699e-13,8.861590814e-13,9.414442684e-13,8.85135855e-14,4.328595043e-13,2.436014832e-13,1.861842252e-13,1.367140501e-12,8.948383404e-13,3.111372776e-13,3.494888297e-13,2.603403971e-13,5.358520265e-13,8.591794878e-13
0.734375,5.235472827e-13,5.145223326e-13,1.566495424e-12,5.409634709e-13,6.171455039e-13,5.540049157e-13,6.685556336e-13,1.353715585e-13,1.346801101e-13,6.290057055e-14,8.025852923e-13,1.141430906e-13,1.70249758e-13,2.867874258e-13,1.044801888e-12,5.791263999e-13,1.10170525e-12,5.47119652e-13,4.381983519e-13,8.841158539e-13,9.471006704e-13,9.188797022e-14,4.219181804e-13,2.329731982e-13,1.778378198e-13,1.362783441e-12,8.820839543e-13,2.993154461e-13,3.503715155e-13,2.580361692e-13,5.400111362e-13,8.607767897e-13
0.7421875,5.185253404e-13,4.890166863e-13,1.594937952e-12,5.140860579e-13,6.103625591e-13,5.577920815e-13,6.789566362e-13,1.299309557e-13,1.324035278e-13,6.542777296e-14,7.67503214e-13,1.1347816e-13,1.79845978e-13,2.91099643e-13,1.013212371e-12,5.608130699e-13,1.063966156e-12,5.347773868e-13,4.388700663e-13,8.804069595e-13,9.512596282e-13,9.537299794e-14,4.107253788e-13,2.224563532e-13,1.69762603e-13,1.356569999e-12,8.681833541e-13,2.877905677e-13,3.509638077e-13,2.556473561e-13,5.438382792e-13,8.610536307e-13
0.75,5.135411753e-13,4.640911303e-13,1.622081489e-12,4.877187624e-13,6.031264049e-13,5.615663522e-13,6.896177222e-13,1.247396193e-13,1.305956539e-13,6.795685375e-14,7.325311572e-13,1.124635113e-13,1.896920207e-13,2.957761907e-13,9.804926971e-13,5.415226352e-13,1.024760668e-12,5.225644794e-13,4.397280172e-13,8.748294473e-13,9.535871309e-13,9.905216904e-14,3.993688543e-13,2.125117104e-13,1.61979541e-13,1.348918069e-12,8.534949349e-13,2.765683662e-13,3.512771618e-13,2.534812665e-13,5.47583616e-13,8.604028616e-13
0.7578125,5.086225122e-13,4.400945541e-13,1.648091353e-12,4.622605687e-13,5.954235806e-13,5.652484068e-13,7.011400729e-13,1.197796554e-13,1.291543375e-13,7.053041847e-14,6.977327187e-13,1.114887602e-13,1.997133787e-13,3.015008679e-13,9.462823916e-13,5.210572078e-13,9.852246171e-13,5.112522507e-13,4.408378515e-13,8.673067216e-13,9.540196296e-13,1.029130922e-13,3.87929724e-13,2.030725795e-13,1.544551822e-13,1.339755241e-12,8.378205112e-13,2.657681798e-13,3.512667506e-13,2.514655404e-13,5.512151551e-13,8.586242049e-13
0.765625,5.038802068e-13,4.168746356e-13,1.672360264e-12,4.375805148e-13,5.872268376e-13,5.685687109e-13,7.133783643e-13,1.149230615e-13,1.280423973e-13,7.320745005e-14,6.637164257e-13,1.108276917e-13,2.099000091e-13,3.083138658e-13,9.110667361e-13,4.999420955e-13,9.461260832e-13,5.010674748e-13,4.423502742e-13,8.580209491e-13,9.526920473e-13,1.068699994e-13,3.765336624e-13,1.940679317e-13,1.472021818e-13,1.328871753e-12,8.212697867e-13,2.554343966e-13,3.51047698e-13,2.496139346e-13,5.546831812e-13,8.554488956e-13
0.7734375,4.997179118e-13,3.939109077e-13,1.695075782e-12,4.131528386e-13,5.784619947e-13,5.71824352e-13,7.255833131e-13,1.101976682e-13,1.273019023e-13,7.595786546e-14,6.306292612e-13,1.103853553e-13,2.203929496e-13,3.161285528e-13,8.761926815e-13,4.787663415e-13,9.06926733e-13,4.912029657e-13,4.441782859e-13,8.470735431e-13,9.49678174e-13,1.109811712e-13,3.656035151e-13,1.857545801e-13,1.401997674e-13,1.316299696e-12,8.038670985e-13,2.453221419e-13,3.505072418e-13,2.47945056e-13,5.576315959e-13,8.512424271e-13
0.78125,4.962392917e-13,3.716058932e-13,1.717127503e-12,3.894099792e-13,5.692300266e-13,5.753387029e-13,7.375229918e-13,1.055848099e-13,1.268440509e-13,7.89136783e-14,5.987598085e-13,1.100067298e-13,2.312828197e-13,3.247694104e-13,8.424985641e-13,4.576561315e-13,8.665868018e-13,4.811153763e-13,4.463029824e-13,8.346716119e-13,9.451838624e-13,1.152946111e-13,3.549773708e-13,1.776260756e-13,1.333984386e-13,1.302194285e-12,7.85476681e-13,2.354310987e-13,3.495960919e-13,2.463215088e-13,5.601757776e-13,8.461545272e-13
0.7890625,4.934061473e-13,3.501735055e-13,1.7393177e-12,3.665883961e-13,5.596849947e-13,5.791428996e-13,7.49431244e-13,1.010640295e-13,1.267001161e-13,8.20523881e-14,5.680227028e-13,1.094365162e-13,2.426375325e-13,3.337590529e-13,8.08722674e-13,4.362528279e-13,8.261010738e-13,4.713012975e-13,4.484334075e-13,8.205977211e-13,9.394471013e-13,1.198882713e-13,3.447259625e-13,1.698474031e-13,1.270280588e-13,1.286931729e-12,7.662622542e-13,2.262578248e-13,3.48336247e-13,2.447494384e-13,5.624295531e-13,8.404228424e-13
0.796875,4.914994688e-13,3.297688534e-13,1.761936611e-12,3.448765758e-13,5.499489768e-13,5.832968671e-13,7.62030332e-13,9.668460651e-14,1.270727976e-13,8.522984885e-14,5.380152082e-13,1.087781144e-13,2.545320931e-13,3.429133892e-13,7.737816166e-13,4.141399477e-13,7.856500269e-13,4.620694585e-13,4.502241871e-13,8.045817239e-13,9.323101174e-13,1.248814227e-13,3.349498531e-13,1.626414643e-13,1.212088184e-13,1.270477199e-12,7.461927336e-13,2.178825876e-13,3.467142441e-13,2.43153777e-13,5.644260698e-13,8.34142057e-13
0.8046875,4.905652478e-13,3.106078433e-13,1.783913684e-12,3.244873686e-13,5.400421993e-13,5.877159015e-13,7.755618008e-13,9.257912704e-14,1.278997528e-13,8.85297724e-14,5.090109884e-13,1.085116086e-13,2.669782087e-13,3.52868213e-13,7.390540077e-13,3.917470913e-13,7.453840434e-13,4.536115178e-13,4.520466575e-13,7.872280936e-13,9.238254958e-13,1.302976756e-13,3.257906735e-13,1.557234167e-13,1.157840041e-13,1.252679024e-12,7.252341673e-13,2.098723311e-13,3.446256694e-13,2.414069148e-13,5.660196703e-13,8.272660371e-13
0.8125,4.906056088e-13,2.928324705e-13,1.804985902e-12,3.054852775e-13,5.298826276e-13,5.923917688e-13,7.890802066e-13,8.875956375e-14,1.290780226e-13,9.199106226e-14,4.816326446e-13,1.086876517e-13,2.80012045e-13,3.636295768e-13,7.058996364e-13,3.697802997e-13,7.062339969e-13,4.462554489e-13,4.543382765e-13,7.690647904e-13,9.141724636e-13,1.359968478e-13,3.173526995e-13,1.490185519e-13,1.107351271e-13,1.233744156e-12,7.037430537e-13,2.022836236e-13,3.420832991e-13,2.396166288e-13,5.670775331e-13,8.198777134e-13
0.8203125,4.919111407e-13,2.763281837e-13,1.826169751e-12,2.877332002e-13,5.195704165e-13,5.975554268e-13,8.022782229e-13,8.514665243e-14,1.308220395e-13,9.546562656e-14,4.556905239e-13,1.088534047e-13,2.936142909e-13,3.743443442e-13,6.742280492e-13,3.486119912e-13,6.685121149e-13,4.399895812e-13,4.56913553e-13,7.500609193e-13,9.033101109e-13,1.419620917e-13,3.096378062e-13,1.428778926e-13,1.061659641e-13,1.213942126e-12,6.817696766e-13,1.95403425e-13,3.390725925e-13,2.377173296e-13,5.674709096e-13,8.121958347e-13
0.828125,4.942007319e-13,2.609188463e-13,1.846668326e-12,2.711224435e-13,5.093768299e-13,6.031100098e-13,8.154126437e-13,8.170337544e-14,1.331921997e-13,9.899169579e-14,4.308799619e-13,1.087423602e-13,3.075805424e-13,3.848039731e-13,6.439649479e-13,3.283810623e-13,6.323408382e-13,4.346957779e-13,4.595356117e-13,7.304400853e-13,8.912713559e-13,1.482869323e-13,3.026208846e-13,1.373397664e-13,1.020551115e-13,1.19364091e-12,6.59539379e-13,1.891078027e-13,3.357244951e-13,2.35659094e-13,5.673096879e-13,8.043312727e-13
0.8359375,4.970739342e-13,2.463800167e-13,1.866094231e-12,2.554782896e-13,4.992448807e-13,6.090963357e-13,8.282895572e-13,7.840728495e-14,1.360165496e-13,1.026095842e-13,4.073454948e-13,1.08392355e-13,3.218253771e-13,3.95242117e-13,6.149486206e-13,3.087958082e-13,5.97599403e-13,4.303505072e-13,4.620886089e-13,7.102934846e-13,8.781825371e-13,1.550752707e-13,2.964385746e-13,1.322353502e-13,9.847294179e-14,1.173394494e-12,6.376735736e-13,1.833878461e-13,3.322988959e-13,2.336402249e-13,5.668317563e-13,7.963661281e-13
0.84375,5.006004381e-13,2.323835393e-13,1.885823853e-12,2.404677668e-13,4.889059177e-13,6.160665176e-13,8.417766326e-13,7.519560088e-14,1.392848968e-13,1.062727093e-13,3.85279926e-13,1.0792112e-13,3.365565286e-13,4.054693766e-13,5.868855756e-13,2.89665154e-13,5.634892311e-13,4.26308135e-13,4.646270298e-13,6.894054551e-13,8.644404759e-13,1.624681796e-13,2.912479202e-13,1.274887e-13,9.555667978e-14,1.153298721e-12,6.161386581e-13,1.784134246e-13,3.287019948e-13,2.316421959e-13,5.659670052e-13,7.883369118e-13
0.8515625,5.046412965e-13,2.189291165e-13,1.904944842e-12,2.260714956e-13,4.783233507e-13,6.241704711e-13,8.567391245e-13,7.206769103e-14,1.429654127e-13,1.101231759e-13,3.648090822e-13,1.074752809e-13,3.5177724e-13,4.153355867e-13,5.601247587e-13,2.712077451e-13,5.298398883e-13,4.217226891e-13,4.674436397e-13,6.677928053e-13,8.50521975e-13,1.703500738e-13,2.869944335e-13,1.229664299e-13,9.325978833e-14,1.132932864e-12,5.946482202e-13,1.740179102e-13,3.247524865e-13,2.29608768e-13,5.645156348e-13,7.800713409e-13
0.859375,5.091019575e-13,2.064595159e-13,1.921890663e-12,2.127616649e-13,4.67562146e-13,6.33190297e-13,8.7205286e-13,6.910839988e-14,1.469297884e-13,1.141296434e-13,3.456545678e-13,1.071182928e-13,3.671008337e-13,4.247698424e-13,5.346616105e-13,2.533633618e-13,4.972890858e-13,4.170385087e-13,4.705436461e-13,6.454840827e-13,8.362468458e-13,1.78447807e-13,2.835636097e-13,1.186197169e-13,9.148467739e-14,1.112040159e-12,5.731857781e-13,1.699537963e-13,3.204941522e-13,2.275719566e-13,5.623892941e-13,7.713627932e-13
0.8671875,5.139083115e-13,1.951670021e-13,1.937188996e-12,2.007371654e-13,4.567787237e-13,6.430729409e-13,8.868272112e-13,6.632315123e-14,1.512467945e-13,1.180092928e-13,3.272524221e-13,1.067948946e-13,3.82330833e-13,4.334933399e-13,5.098445936e-13,2.359977219e-13,4.662712916e-13,4.134142283e-13,4.737736923e-13,6.227060402e-13,8.213243646e-13,1.868074584e-13,2.808459345e-13,1.145987807e-13,9.016466548e-14,1.090774286e-12,5.516328914e-13,1.662227853e-13,3.158750181e-13,2.254277017e-13,5.596751672e-13,7.622145507e-13
0.875,5.185386105e-13,1.848816957e-13,1.950636719e-12,1.897633545e-13,4.462944285e-13,6.536287412e-13,9.01300227e-13,6.369752705e-14,1.559928028e-13,1.217978546e-13,3.096336649e-13,1.064759497e-13,3.975261494e-13,4.418047163e-13,4.859538703e-13,2.193318688e-13,4.368201595e-13,4.109566487e-13,4.770581852e-13,5.999744567e-13,8.059260996e-13,1.955132432e-13,2.787498237e-13,1.110059995e-13,8.930098697e-14,1.069562462e-12,5.302079301e-13,1.629775126e-13,3.108741123e-13,2.23262046e-13,5.566638442e-13,7.528440554e-13
0.8828125,5.228928977e-13,1.756029109e-13,1.961729051e-12,1.798585761e-13,4.360880578e-13,6.647428273e-13,9.155591807e-13,6.129780498e-14,1.610308131e-13,1.257013114e-13,2.934079017e-13,1.062409234e-13,4.12560968e-13,4.503594568e-13,4.638152397e-13,2.036370184e-13,4.089111655e-13,4.09063007e-13,4.800812093e-13,5.773908041e-13,7.901315986e-13,2.044354027e-13,2.773815822e-13,1.077129332e-13,8.907244873e-14,1.048637327e-12,5.092908783e-13,1.60409176e-13,3.056183088e-13,2.211676576e-13,5.533694942e-13,7.433862731e-13
0.890625,5.272155268e-13,1.672933126e-13,1.971243326e-12,1.710572521e-13,4.257921368e-13,6.765893321e-13,9.299738279e-13,5.909529134e-14,1.662501901e-13,1.296612958e-13,2.788894087e-13,1.062051866e-13,4.273161237e-13,4.589275712e-13,4.433050448e-13,1.890226068e-13,3.827003248e-13,4.075935505e-13,4.827396197e-13,5.548850067e-13,7.740011721e-13,2.135484954e-13,2.768590068e-13,1.046027865e-13,8.960543275e-14,1.027746935e-12,4.888037398e-13,1.585753794e-13,3.00122756e-13,2.189937398e-13,5.494911219e-13,7.337242684e-13
0.8984375,5.313565191e-13,1.597198042e-13,1.979215789e-12,1.631094106e-13,4.153005349e-13,6.890803894e-13,9.444996359e-13,5.700135688e-14,1.715941339e-13,1.335137209e-13,2.657646805e-13,1.063699347e-13,4.418092903e-13,4.67008051e-13,4.240622719e-13,1.752443712e-13,3.580246928e-13,4.066451715e-13,4.852427574e-13,5.325761084e-13,7.577242342e-13,2.227996588e-13,2.770789078e-13,1.018126768e-13,9.087592521e-14,1.006702137e-12,4.687981029e-13,1.574058874e-13,2.944276511e-13,2.168172219e-13,5.44959267e-13,7.238302704e-13
0.90625,5.354036855e-13,1.528090566e-13,1.985191558e-12,1.559152521e-13,4.045903778e-13,7.019046452e-13,9.581828497e-13,5.505476859e-14,1.76939856e-13,1.372095639e-13,2.535753506e-13,1.066221402e-13,4.55967982e-13,4.745331638e-13,4.058493682e-13,1.619217623e-13,3.343292932e-13,4.061817489e-13,4.874748812e-13,5.103966633e-13,7.412313679e-13,2.32028453e-13,2.77800888e-13,9.9354553e-14,9.280325568e-14,9.854634697e-13,4.493287076e-13,1.568243527e-13,2.884985394e-13,2.146510056e-13,5.396706261e-13,7.137303422e-13
0.9140625,5.395211461e-13,1.464806043e-13,1.989142489e-12,1.493901583e-13,3.93497617e-13,7.148150701e-13,9.709581192e-13,5.33087217e-14,1.823234431e-13,1.408004548e-13,2.421308223e-13,1.068751673e-13,4.699213198e-13,4.812740852e-13,3.878730322e-13,1.489814075e-13,3.114255315e-13,4.060982431e-13,4.892962381e-13,4.882281164e-13,7.243999167e-13,2.413354611e-13,2.787530925e-13,9.700349499e-14,9.511557976e-14,9.637808942e-13,4.299577951e-13,1.566035384e-13,2.820600522e-13,2.121821602e-13,5.333322093e-13,7.032182203e-13
0.921875,5.434149879e-13,1.407099745e-13,1.990756215e-12,1.434843437e-13,3.821693277e-13,7.275708047e-13,9.833901339e-13,5.172655939e-14,1.879720226e-13,1.443478078e-13,2.315227116e-13,1.071295693e-13,4.838808063e-13,4.87208842e-13,3.703424414e-13,1.36551396e-13,2.894736302e-13,4.061744695e-13,4.908113066e-13,4.660529916e-13,7.073075735e-13,2.508625361e-13,2.799056912e-13,9.481811076e-14,9.764059087e-14,9.416796704e-13,4.106767e-13,1.564795378e-13,2.751545292e-13,2.09450069e-13,5.260574837e-13,6.922755159e-13
0.9296875,5.470011629e-13,1.35822645e-13,1.990199857e-12,1.385134512e-13,3.709515748e-13,7.402047885e-13,9.955506086e-13,5.027507329e-14,1.939444459e-13,1.47932686e-13,2.219923332e-13,1.074818184e-13,4.975145313e-13,4.926319724e-13,3.546984711e-13,1.24992315e-13,2.689267903e-13,4.065047552e-13,4.921903802e-13,4.43963086e-13,6.901686885e-13,2.604757479e-13,2.814502487e-13,9.298785304e-14,1.005680253e-13,9.195072972e-13,3.920727107e-13,1.564573228e-13,2.681623785e-13,2.0677695e-13,5.182086615e-13,6.811178784e-13
0.9375,5.503371254e-13,1.319189484e-13,1.987942322e-12,1.346034532e-13,3.59898883e-13,7.529086001e-13,1.007395863e-12,4.896904054e-14,2.000874315e-13,1.515822038e-13,2.135278552e-13,1.080692589e-13,5.104011519e-13,4.974950608e-13,3.408689723e-13,1.146016148e-13,2.503298235e-13,4.075939826e-13,4.936322102e-13,4.223719322e-13,6.731663306e-13,2.700722059e-13,2.833154198e-13,9.133849831e-14,1.03944028e-13,8.972967751e-13,3.742731782e-13,1.56631326e-13,2.611681495e-13,2.042621484e-13,5.098418411e-13,6.69680751e-13
0.9453125,5.533062651e-13,1.287200092e-13,1.983936568e-12,1.315134373e-13,3.488931735e-13,7.654684207e-13,1.018445802e-12,4.782033331e-14,2.062896709e-13,1.550861716e-13,2.060291395e-13,1.089668096e-13,5.225355693e-13,5.019423504e-13,3.279766359e-13,1.051093121e-13,2.33430406e-13,4.09558166e-13,4.949093381e-13,4.015602637e-13,6.561423321e-13,2.796859625e-13,2.852400007e-13,8.963578378e-14,1.076501599e-13,8.749987981e-13,3.569727189e-13,1.571174318e-13,2.540232734e-13,2.018777282e-13,5.008001283e-13,6.579313605e-13
0.953125,5.560938182e-13,1.261455744e-13,1.978541768e-12,1.291416136e-13,3.379088049e-13,7.77608242e-13,1.028233155e-12,4.681080555e-14,2.125189043e-13,1.583824924e-13,1.998328397e-13,1.100633392e-13,5.340129459e-13,5.059679706e-13,3.162171594e-13,9.632427726e-14,2.177004413e-13,4.12155635e-13,4.95703583e-13,3.813603388e-13,6.390156633e-13,2.893133909e-13,2.87143143e-13,8.79668654e-14,1.117314893e-13,8.526740363e-13,3.401154896e-13,1.580582069e-13,2.467328736e-13,1.995537121e-13,4.909280906e-13,6.461662848e-13
0.9609375,5.5889338e-13,1.24200419e-13,1.971957309e-12,1.274208687e-13,3.269405605e-13,7.894996277e-13,1.037154461e-12,4.592070104e-14,2.187386759e-13,1.61774789e-13,1.950340922e-13,1.110760836e-13,5.450533229e-13,5.086123626e-13,3.051176036e-13,8.834245964e-14,2.031201191e-13,4.152114877e-13,4.963383527e-13,3.616200369e-13,6.221798204e-13,2.989271532e-13,2.890877372e-13,8.649667343e-14,1.16085498e-13,8.301334544e-13,3.238080782e-13,1.591630868e-13,2.394145325e-13,1.972576201e-13,4.801635311e-13,6.344108214e-13
0.96875,5.615303465e-13,1.226940763e-13,1.963485952e-12,1.261671762e-13,3.158340658e-13,8.012105025e-13,1.04525625e-12,4.509190162e-14,2.249249465e-13,1.652732913e-13,1.912360595e-13,1.119966218e-13,5.557511368e-13,5.096244667e-13,2.936866981e-13,8.093915348e-14,1.89541124e-13,4.183452783e-13,4.970169466e-13,3.422448128e-13,6.058586029e-13,3.085006125e-13,2.911157352e-13,8.521848414e-14,1.205240061e-13,8.071647834e-13,3.079817335e-13,1.599496893e-13,2.320348844e-13,1.950640353e-13,4.685627513e-13,6.222277377e-13
0.9765625,5.639022616e-13,1.214822603e-13,1.953075527e-12,1.253020212e-13,3.04438148e-13,8.124278583e-13,1.052092064e-12,4.423882877e-14,2.311090126e-13,1.686318173e-13,1.884318743e-13,1.131551907e-13,5.656885521e-13,5.098672092e-13,2.82224881e-13,7.394540439e-14,1.766575051e-13,4.212738464e-13,4.974613543e-13,3.231475776e-13,5.899416975e-13,3.180041037e-13,2.930569646e-13,8.409587043e-14,1.250404522e-13,7.837697356e-13,2.925410014e-13,1.603459623e-13,2.244741175e-13,1.929927697e-13,4.561854259e-13,6.092942988e-13
0.984375,5.659236014e-13,1.206185626e-13,1.941139646e-12,1.248795334e-13,2.928812892e-13,8.230629973e-13,1.057652224e-12,4.338467815e-14,2.373007838e-13,1.718809225e-13,1.866614357e-13,1.146099108e-13,5.744938128e-13,5.093833901e-13,2.710473474e-13,6.746091645e-14,1.643591659e-13,4.240752995e-13,4.974672407e-13,3.04520485e-13,5.74438611e-13,3.273178113e-13,2.946624105e-13,8.311009592e-14,1.295584724e-13,7.599537585e-13,2.775679212e-13,1.60349106e-13,2.168439043e-13,1.910257109e-13,4.430907943e-13,5.956347229e-13
0.9921875,5.671451598e-13,1.201588593e-13,1.926814766e-12,1.248860658e-13,2.815041943e-13,8.329753614e-13,1.061538314e-12,4.261529042e-14,2.433578913e-13,1.750143023e-13,1.85686223e-13,1.162646701e-13,5.819482483e-13,5.078552936e-13,2.601027067e-13,6.150872983e-14,1.52636309e-13,4.266864169e-13,4.968901734e-13,2.866568291e-13,5.594992653e-13,3.361868693e-13,2.959199149e-13,8.223351747e-14,1.340918424e-13,7.35840173e-13,2.631783851e-13,1.600343692e-13,2.09309324e-13,1.892453213e-13,4.295466116e-13,5.814284444e-13
1,5.67131769e-13,1.200399925e-13,1.90879425e-12,1.252049776e-13,2.706411333e-13,8.414162631e-13,1.063243164e-12,4.195639066e-14,2.490507375e-13,1.779832186e-13,1.857042971e-13,1.18276068e-13,5.878045917e-13,5.05762142e-13,2.500772321e-13,5.626898511e-14,1.418382257e-13,4.291207184e-13,4.958783701e-13,2.696989067e-13,5.45233516e-13,3.444982553e-13,2.968333812e-13,8.158743328e-14,1.387939604e-13,7.11763923e-13,2.494524338e-13,1.597417597e-13,2.019153829e-13,1.878205698e-13,4.160289396e-13,5.66932638e-13
1.0078125,5.662186451e-13,1.202426247e-13,1.887343105e-12,1.258372467e-13,2.602779679e-13,8.481467279e-13,1.063586812e-12,4.142457527e-14,2.542435233e-13,1.80991926e-13,1.869339675e-13,1.206383967e-13,5.922517773e-13,5.03236527e-13,2.409466382e-13,5.187394358e-14,1.322702255e-13,4.316603431e-13,4.948688998e-13,2.536636883e-13,5.314961943e-13,3.523301186e-13,2.973313366e-13,8.117066293e-14,1.435109836e-13,6.878139369e-13,2.364234889e-13,1.593909555e-13,1.947198626e-13,1.868245942e-13,4.026297803e-13,5.522062696e-13
1.015625,5.651291454e-13,1.207655649e-13,1.863647669e-12,1.268215178e-13,2.501306686e-13,8.539083263e-13,1.063510259e-12,4.103986865e-14,2.589784708e-13,1.840640976e-13,1.893290358e-13,1.23154573e-13,5.955702178e-13,4.997099764e-13,2.313989393e-13,4.797872202e-14,1.236051953e-13,4.344118038e-13,4.940403526e-13,2.385064558e-13,5.181693588e-13,3.59683732e-13,2.974203884e-13,8.073100526e-14,1.48039333e-13,6.637007963e-13,2.239718465e-13,1.586504213e-13,1.875556014e-13,1.861180124e-13,3.889897303e-13,5.370500506e-13
1.0234375,5.635411092e-13,1.215616568e-13,1.837555351e-12,1.280875169e-13,2.403593194e-13,8.587625231e-13,1.062671965e-12,4.080213256e-14,2.634155753e-13,1.870424889e-13,1.933056612e-13,1.258738006e-13,5.975445078e-13,4.950708446e-13,2.212118638e-13,4.428061676e-14,1.155621969e-13,4.374150585e-13,4.933507333e-13,2.242264308e-13,5.054556412e-13,3.66476291e-13,2.969301585e-13,8.041038761e-14,1.523222881e-13,6.394505076e-13,2.120557722e-13,1.574971056e-13,1.803070157e-13,1.855966987e-13,3.753095265e-13,5.215891599e-13
1.03125,5.604733381e-13,1.227548229e-13,1.807997917e-12,1.296922485e-13,2.312338417e-13,8.618901763e-13,1.060839675e-12,4.072841481e-14,2.675906621e-13,1.899879296e-13,1.991515104e-13,1.288895015e-13,5.977810499e-13,4.898064191e-13,2.114146821e-13,4.085259058e-14,1.082464125e-13,4.406442078e-13,4.924331427e-13,2.107052579e-13,4.932542555e-13,3.725626349e-13,2.957107138e-13,8.062763498e-14,1.562409749e-13,6.155088949e-13,2.008270701e-13,1.558813199e-13,1.733330654e-13,1.853025007e-13,3.62194255e-13,5.060159783e-13
1.0390625,5.559866787e-13,1.244288897e-13,1.775007129e-12,1.316799718e-13,2.224813836e-13,8.63114359e-13,1.058596604e-12,4.082468525e-14,2.713548087e-13,1.928823956e-13,2.064533618e-13,1.32154416e-13,5.960925618e-13,4.842739367e-13,2.020360447e-13,3.777004472e-14,1.015669122e-13,4.437810845e-13,4.907991599e-13,1.976281378e-13,4.812792677e-13,3.777498693e-13,2.940177059e-13,8.13808393e-14,1.599372696e-13,5.918569175e-13,1.90273783e-13,1.538986367e-13,1.667173327e-13,1.852512056e-13,3.495394266e-13,4.899892116e-13
1.046875,5.505516887e-13,1.262939666e-13,1.739279654e-12,1.337806069e-13,2.140069065e-13,8.627214017e-13,1.055999743e-12,4.103171849e-14,2.746611679e-13,1.955216425e-13,2.150033533e-13,1.356476912e-13,5.927235168e-13,4.783162367e-13,1.92404971e-13,3.500540276e-14,9.528922091e-14,4.463602769e-13,4.884925073e-13,1.848952459e-13,4.69604879e-13,3.819778574e-13,2.919213083e-13,8.242040199e-14,1.635744204e-13,5.681693846e-13,1.802892547e-13,1.51781422e-13,1.602218546e-13,1.85524189e-13,3.370859232e-13,4.73419475e-13
1.0546875,5.439617334e-13,1.280921559e-13,1.701104991e-12,1.357741724e-13,2.060617566e-13,8.606366306e-13,1.052745719e-12,4.126842309e-14,2.775795765e-13,1.978702214e-13,2.249847533e-13,1.393830476e-13,5.878892042e-13,4.716146379e-13,1.826815961e-13,3.263759946e-14,8.956703777e-14,4.480444104e-13,4.856618081e-13,1.727735836e-13,4.581661487e-13,3.852563995e-13,2.890519248e-13,8.358172725e-14,1.668212127e-13,5.446976721e-13,1.710175481e-13,1.492755951e-13,1.540673026e-13,1.863051626e-13,3.251488257e-13,4.567233954e-13
1.0625,5.362430079e-13,1.299264068e-13,1.660530622e-12,1.377526846e-13,1.986560857e-13,8.568255894e-13,1.048981723e-12,4.154548774e-14,2.80066634e-13,2.000266799e-13,2.364807781e-13,1.433870823e-13,5.812788652e-13,4.642638986e-13,1.731357955e-13,3.072800349e-14,8.467100506e-14,4.492708936e-13,4.822928938e-13,1.615899379e-13,4.469895298e-13,3.875154415e-13,2.852587844e-13,8.493291314e-14,1.69471086e-13,5.217808501e-13,1.626400352e-13,1.461090781e-13,1.484888451e-13,1.876355842e-13,3.139522098e-13,4.399421554e-13
1.0703125,5.276569762e-13,1.319111848e-13,1.617477178e-12,1.397709044e-13,1.918412474e-13,8.5127927e-13,1.044497009e-12,4.194669997e-14,2.820256656e-13,2.020121244e-13,2.49492287e-13,1.476715992e-13,5.728209445e-13,4.56569278e-13,1.637012982e-13,2.912678716e-14,8.042688668e-14,4.507338284e-13,4.783308804e-13,1.514194774e-13,4.363763923e-13,3.88694434e-13,2.8070213e-13,8.673544744e-14,1.716880206e-13,4.994157411e-13,1.551196744e-13,1.424686329e-13,1.433753426e-13,1.893836364e-13,3.03449488e-13,4.230674001e-13
1.078125,5.180037286e-13,1.339831158e-13,1.572344461e-12,1.417412679e-13,1.858119126e-13,8.437728038e-13,1.039197793e-12,4.248155865e-14,2.834179661e-13,2.038143092e-13,2.64032506e-13,1.522312127e-13,5.628575919e-13,4.486473209e-13,1.547154265e-13,2.779741632e-14,7.662964205e-14,4.519776692e-13,4.735107658e-13,1.421355964e-13,4.260362705e-13,3.889098287e-13,2.755599565e-13,8.894422031e-14,1.735213727e-13,4.779222542e-13,1.483905192e-13,1.386636112e-13,1.386865665e-13,1.91523065e-13,2.93701039e-13,4.065649342e-13
1.0859375,5.074472469e-13,1.361779392e-13,1.525964038e-12,1.437494894e-13,1.80597542e-13,8.346099473e-13,1.033948302e-12,4.31059315e-14,2.84286282e-13,2.055198356e-13,2.802513128e-13,1.570718912e-13,5.516266359e-13,4.404482359e-13,1.462218727e-13,2.68281674e-14,7.339197098e-14,4.524353091e-13,4.680784588e-13,1.336747126e-13,4.157506015e-13,3.884509606e-13,2.700217141e-13,9.136930953e-14,1.749881662e-13,4.575234015e-13,1.423626869e-13,1.349143813e-13,1.343650512e-13,1.941777799e-13,2.84755464e-13,3.90635217e-13
1.09375,4.964669413e-13,1.38604603e-13,1.478428815e-12,1.459298741e-13,1.761198088e-13,8.245813458e-13,1.028807845e-12,4.381194781e-14,2.847756466e-13,2.072232929e-13,2.98193614e-13,1.620818847e-13,5.395367088e-13,4.318375896e-13,1.377527212e-13,2.605427449e-14,7.067215585e-14,4.525334175e-13,4.62551319e-13,1.258432222e-13,4.058257033e-13,3.874154679e-13,2.641383017e-13,9.418911455e-14,1.760689756e-13,4.376817266e-13,1.367529141e-13,1.310812875e-13,1.302950737e-13,1.972276848e-13,2.765642584e-13,3.749989831e-13
1.1015625,4.848216103e-13,1.411857336e-13,1.429738289e-12,1.481677035e-13,1.723171193e-13,8.13821329e-13,1.022794279e-12,4.460540036e-14,2.849222044e-13,2.088558163e-13,3.175766739e-13,1.67174311e-13,5.267973669e-13,4.23057136e-13,1.295385635e-13,2.542180095e-14,6.839308096e-14,4.523746194e-13,4.566081415e-13,1.183914669e-13,3.959596158e-13,3.856796451e-13,2.578207415e-13,9.757687474e-14,1.766303687e-13,4.182044569e-13,1.314754635e-13,1.268943712e-13,1.265448561e-13,2.004782281e-13,2.691702158e-13,3.596161187e-13
1.109375,4.723149084e-13,1.438434039e-13,1.380535442e-12,1.503516394e-13,1.692583657e-13,8.019333205e-13,1.015841303e-12,4.552498838e-14,2.845808233e-13,2.103569355e-13,3.384648724e-13,1.72564027e-13,5.130259418e-13,4.146303224e-13,1.219943218e-13,2.510174573e-14,6.663385411e-14,4.514927134e-13,4.501460304e-13,1.115341081e-13,3.859549926e-13,3.833557836e-13,2.511036175e-13,1.014965159e-13,1.767440455e-13,3.996820208e-13,1.267952191e-13,1.224998986e-13,1.232298102e-13,2.041478684e-13,2.627809521e-13,3.447924518e-13
1.1171875,4.595406067e-13,1.465586581e-13,1.33116599e-12,1.524420615e-13,1.6699216e-13,7.890076773e-13,1.008486419e-12,4.662478765e-14,2.83738501e-13,2.118100681e-13,3.612521762e-13,1.784392397e-13,4.981241637e-13,4.062986944e-13,1.147592116e-13,2.500326161e-14,6.521782879e-14,4.496075899e-13,4.437873044e-13,1.055254115e-13,3.765685484e-13,3.805746892e-13,2.44093137e-13,1.060003427e-13,1.765347341e-13,3.823262453e-13,1.227132849e-13,1.180616472e-13,1.202857044e-13,2.083317157e-13,2.574764808e-13,3.307142475e-13
1.125,4.467913618e-13,1.4917718e-13,1.281651567e-12,1.543042847e-13,1.654772505e-13,7.753180661e-13,1.000845629e-12,4.787224057e-14,2.825568587e-13,2.132285392e-13,3.858426591e-13,1.846610079e-13,4.823804501e-13,3.975975951e-13,1.076197634e-13,2.503320441e-14,6.397161239e-14,4.464827775e-13,4.376394823e-13,1.002625343e-13,3.68118056e-13,3.771714638e-13,2.368821215e-13,1.110844603e-13,1.759417469e-13,3.66002773e-13,1.191275701e-13,1.135002262e-13,1.176064378e-13,2.128486654e-13,2.531703868e-13,3.174282612e-13
1.1328125,4.336926738e-13,1.516337775e-13,1.231975702e-12,1.55913788e-13,1.647791979e-13,7.605339444e-13,9.928762292e-13,4.91785863e-14,2.811786801e-13,2.145281763e-13,4.117865163e-13,1.910057109e-13,4.658417109e-13,3.890684819e-13,1.009825832e-13,2.522977939e-14,6.301254222e-14,4.421077027e-13,4.3146219e-13,9.571863971e-14,3.601017807e-13,3.731389963e-13,2.295548986e-13,1.165891649e-13,1.749388725e-13,3.509216587e-13,1.162609651e-13,1.089127126e-13,1.153381931e-13,2.179393222e-13,2.500586994e-13,3.050546722e-13
1.140625,4.202195529e-13,1.540014127e-13,1.182197141e-12,1.573104333e-13,1.648055447e-13,7.444482369e-13,9.846979909e-13,5.052901146e-14,2.797337797e-13,2.156813665e-13,4.387855851e-13,1.973142938e-13,4.485711748e-13,3.809679609e-13,9.504779146e-14,2.54656619e-14,6.234098538e-14,4.367417162e-13,4.252414954e-13,9.180876185e-14,3.521783138e-13,3.686880878e-13,2.220538404e-13,1.225348449e-13,1.73512586e-13,3.37156332e-13,1.1402368e-13,1.044971042e-13,1.135811942e-13,2.23815487e-13,2.483425762e-13,2.936573608e-13
1.1484375,4.067060443e-13,1.562744373e-13,1.132939987e-12,1.584719195e-13,1.653910902e-13,7.277561068e-13,9.767807661e-13,5.20015071e-14,2.782210169e-13,2.166589236e-13,4.670099013e-13,2.035982799e-13,4.308768105e-13,3.726151677e-13,8.958579765e-14,2.576308102e-14,6.181603003e-14,4.305759359e-13,4.191060009e-13,8.82847357e-14,3.443856759e-13,3.638746746e-13,2.143661531e-13,1.291174188e-13,1.716182964e-13,3.244877473e-13,1.120751773e-13,1.002408029e-13,1.121269583e-13,2.303017832e-13,2.478178916e-13,2.831434365e-13
1.15625,3.930560133e-13,1.584397308e-13,1.084578741e-12,1.594660845e-13,1.665753814e-13,7.109423903e-13,9.693466863e-13,5.362664952e-14,2.764399127e-13,2.173739972e-13,4.96892653e-13,2.100536124e-13,4.128544512e-13,3.641183482e-13,8.442619052e-14,2.628878751e-14,6.144578313e-14,4.23716373e-13,4.131741979e-13,8.512355372e-14,3.368037747e-13,3.586517892e-13,2.066883549e-13,1.362736164e-13,1.693559042e-13,3.128759209e-13,1.104629921e-13,9.607406493e-14,1.10911235e-13,2.373561762e-13,2.482582415e-13,2.734095656e-13
1.1640625,3.792081688e-13,1.604707725e-13,1.03705405e-12,1.603100064e-13,1.682394358e-13,6.936434007e-13,9.621440344e-13,5.535253232e-14,2.743247808e-13,2.178597838e-13,5.282762382e-13,2.166638028e-13,3.943459322e-13,3.561505421e-13,7.960220159e-14,2.705560433e-14,6.145991648e-14,4.160175999e-13,4.071470995e-13,8.236670575e-14,3.293161152e-13,3.530065534e-13,1.990238275e-13,1.43828649e-13,1.668237309e-13,3.023165268e-13,1.0917444e-13,9.206852332e-14,1.098694654e-13,2.446945167e-13,2.494622861e-13,2.64504913e-13
1.171875,3.657200792e-13,1.623204135e-13,9.908771621e-13,1.608948297e-13,1.703688019e-13,6.758642604e-13,9.55559408e-13,5.720963612e-14,2.720286643e-13,2.183311525e-13,5.606308359e-13,2.23221927e-13,3.755375989e-13,3.484081799e-13,7.506434522e-14,2.809180593e-14,6.194805956e-14,4.074149479e-13,4.009331488e-13,8.001118885e-14,3.219631091e-13,3.469929969e-13,1.911627822e-13,1.519190644e-13,1.639287292e-13,2.928183672e-13,1.081522932e-13,8.821801585e-14,1.087872355e-13,2.519152903e-13,2.513842543e-13,2.566029219e-13
1.1796875,3.528930412e-13,1.639503602e-13,9.461085164e-13,1.6112377e-13,1.732120926e-13,6.580325164e-13,9.499344984e-13,5.928951269e-14,2.696699045e-13,2.18854897e-13,5.935619339e-13,2.296841524e-13,3.56828144e-13,3.404308696e-13,7.068072141e-14,2.933937033e-14,6.254069238e-14,3.981389212e-13,3.950632309e-13,7.816221886e-14,3.150845718e-13,3.406770511e-13,1.831222801e-13,1.605687862e-13,1.605678126e-13,2.845594057e-13,1.07636751e-13,8.439645881e-14,1.078817317e-13,2.59336328e-13,2.543748387e-13,2.497206595e-13
1.1875,3.403572582e-13,1.65309178e-13,9.01957264e-13,1.609837761e-13,1.766566372e-13,6.399423802e-13,9.444914739e-13,6.156848969e-14,2.67308105e-13,2.192131699e-13,6.266151464e-13,2.360157347e-13,3.382408176e-13,3.325307251e-13,6.657117274e-14,3.067802853e-14,6.31536487e-14,3.879310871e-13,3.893844401e-13,7.681983581e-14,3.085826377e-13,3.340541941e-13,1.750158994e-13,1.695702297e-13,1.568106758e-13,2.775893517e-13,1.075705752e-13,8.066867384e-14,1.073132777e-13,2.67231559e-13,2.584470379e-13,2.4383177e-13
1.1953125,3.278419034e-13,1.665380452e-13,8.58624259e-13,1.606700374e-13,1.805218107e-13,6.21430549e-13,9.393152009e-13,6.397758807e-14,2.648560846e-13,2.192950514e-13,6.598825994e-13,2.422393275e-13,3.19830202e-13,3.250385624e-13,6.302012989e-14,3.219143154e-14,6.419290699e-14,3.763995091e-13,3.832472131e-13,7.585675924e-14,3.019780591e-13,3.272283052e-13,1.668514334e-13,1.790839372e-13,1.528387561e-13,2.718990194e-13,1.077985413e-13,7.711813638e-14,1.067778358e-13,2.753153886e-13,2.632822922e-13,2.391345108e-13
1.203125,3.153956098e-13,1.677700445e-13,8.17227322e-13,1.603050686e-13,1.848111865e-13,6.032215743e-13,9.358372787e-13,6.65826985e-14,2.620050428e-13,2.192936525e-13,6.937746123e-13,2.486113634e-13,3.019082877e-13,3.180480071e-13,6.009967562e-14,3.387293871e-14,6.55709494e-14,3.64014975e-13,3.769337369e-13,7.521315757e-14,2.952424171e-13,3.204299965e-13,1.587795865e-13,1.892252174e-13,1.488215169e-13,2.675332352e-13,1.084901403e-13,7.371127337e-14,1.06324608e-13,2.836124824e-13,2.689311899e-13,2.355913359e-13
1.2109375,3.031197279e-13,1.688603281e-13,7.781179852e-13,1.597387973e-13,1.893751826e-13,5.859619448e-13,9.340737621e-13,6.953389802e-14,2.586602626e-13,2.194014442e-13,7.279000722e-13,2.551566276e-13,2.845070513e-13,3.116263093e-13,5.772294725e-14,3.56074039e-14,6.692412132e-14,3.514218364e-13,3.710719855e-13,7.490275957e-14,2.887458159e-13,3.137240985e-13,1.510019234e-13,1.996937862e-13,1.448204075e-13,2.642640616e-13,1.095271104e-13,7.057837727e-14,1.061231176e-13,2.923213266e-13,2.753701168e-13,2.328625449e-13
1.21875,2.910919059e-13,1.697880719e-13,7.408319397e-13,1.589291587e-13,1.941633996e-13,5.694786079e-13,9.328127228e-13,7.283318786e-14,2.550480077e-13,2.195485336e-13,7.617951778e-13,2.615999995e-13,2.675120351e-13,3.055859112e-13,5.582566556e-14,3.74698267e-14,6.84110084e-14,3.386830841e-13,3.655759437e-13,7.500670739e-14,2.826255038e-13,3.069528176e-13,1.434527119e-13,2.10540542e-13,1.407384536e-13,2.618700678e-13,1.106828507e-13,6.780807989e-14,1.059441694e-13,3.012022327e-13,2.82351883e-13,2.308911122e-13
1.2265625,2.793986227e-13,1.706182871e-13,7.05265481e-13,1.579269133e-13,1.990972651e-13,5.534232739e-13,9.321684937e-13,7.634939602e-14,2.512013303e-13,2.197161497e-13,7.953812342e-13,2.679180931e-13,2.509185771e-13,2.997475485e-13,5.426690273e-14,3.954973442e-14,7.029433397e-14,3.25813681e-13,3.600889434e-13,7.555978959e-14,2.766774921e-13,2.999788719e-13,1.360378276e-13,2.219656897e-13,1.364876357e-13,2.604225476e-13,1.120428861e-13,6.532316415e-14,1.056835307e-13,3.099135426e-13,2.897372254e-13,2.296881857e-13
1.234375,2.681717249e-13,1.712860102e-13,6.717085564e-13,1.567623978e-13,2.039678742e-13,5.377781239e-13,9.328678975e-13,8.011870201e-14,2.470463711e-13,2.203014573e-13,8.284320303e-13,2.742919164e-13,2.346820634e-13,2.942968392e-13,5.295516859e-14,4.186509185e-14,7.247949935e-14,3.129868881e-13,3.547351883e-13,7.640791327e-14,2.709145304e-13,2.929451032e-13,1.289250373e-13,2.337237818e-13,1.321929425e-13,2.598565511e-13,1.135197337e-13,6.32156138e-14,1.053294275e-13,3.183947327e-13,2.972856482e-13,2.291356236e-13
1.2421875,2.572571297e-13,1.719142376e-13,6.398516311e-13,1.555731261e-13,2.089584161e-13,5.225645115e-13,9.346420856e-13,8.431684171e-14,2.428231398e-13,2.215710786e-13,8.608303985e-13,2.806115768e-13,2.188308364e-13,2.894475403e-13,5.213397672e-14,4.439089687e-14,7.476152036e-14,3.000030645e-13,3.498940654e-13,7.741802446e-14,2.656076875e-13,2.861086145e-13,1.222834625e-13,2.459138302e-13,1.280179147e-13,2.600422198e-13,1.149710583e-13,6.161891982e-14,1.047936654e-13,3.268188447e-13,3.049551542e-13,2.293755128e-13
1.25,2.463076299e-13,1.725951249e-13,6.091981402e-13,1.543361615e-13,2.142400873e-13,5.076611572e-13,9.369870768e-13,8.896983848e-14,2.387003241e-13,2.233340185e-13,8.921505368e-13,2.865144996e-13,2.034899465e-13,2.852294012e-13,5.200473227e-14,4.704488761e-14,7.719466689e-14,2.864596146e-13,3.455945058e-13,7.876970747e-14,2.605735591e-13,2.794397715e-13,1.160751772e-13,2.589754206e-13,1.239421383e-13,2.610631288e-13,1.165210988e-13,6.047707392e-14,1.042390472e-13,3.353188027e-13,3.129999737e-13,2.304971895e-13
1.2578125,2.354710936e-13,1.732110237e-13,5.798804876e-13,1.529420246e-13,2.195982875e-13,4.930273693e-13,9.396042642e-13,9.39644428e-14,2.343956043e-13,2.255220925e-13,9.217456097e-13,2.91966537e-13,1.888017515e-13,2.816269703e-13,5.245893648e-14,4.98822288e-14,7.993565883e-14,2.725479507e-13,3.418051496e-13,8.066721045e-14,2.554088321e-13,2.728196375e-13,1.102360511e-13,2.725528894e-13,1.19913972e-13,2.628692854e-13,1.182185459e-13,5.967845553e-14,1.038484537e-13,3.438501548e-13,3.213809274e-13,2.32203446e-13
1.265625,2.250697802e-13,1.738249431e-13,5.521504849e-13,1.515159966e-13,2.249470645e-13,4.787839462e-13,9.423973326e-13,9.920914021e-14,2.29658106e-13,2.280738014e-13,9.497957796e-13,2.972405417e-13,1.749234141e-13,2.786072424e-13,5.339121144e-14,5.293016654e-14,8.27632549e-14,2.588615475e-13,3.386954585e-13,8.298801325e-14,2.501766132e-13,2.663460185e-13,1.047569669e-13,2.861094446e-13,1.159756512e-13,2.652245646e-13,1.199601745e-13,5.917892879e-14,1.035615867e-13,3.523609323e-13,3.29883964e-13,2.343195161e-13
1.2734375,2.151298442e-13,1.745140197e-13,5.262076008e-13,1.501166273e-13,2.303008459e-13,4.651033036e-13,9.45918193e-13,1.047508578e-13,2.246564179e-13,2.308106734e-13,9.764192289e-13,3.022400717e-13,1.618991696e-13,2.761161453e-13,5.464146298e-14,5.603419646e-14,8.547941707e-14,2.455755092e-13,3.361590387e-13,8.568466273e-14,2.450534878e-13,2.600889477e-13,9.962309973e-14,3.000354934e-13,1.121376874e-13,2.680273745e-13,1.216297205e-13,5.90019844e-14,1.032725634e-13,3.608507067e-13,3.383499217e-13,2.369882599e-13
1.28125,2.057537121e-13,1.752079336e-13,5.0215743e-13,1.486978556e-13,2.355842655e-13,4.519632631e-13,9.502097904e-13,1.107342222e-13,2.197019707e-13,2.339592762e-13,1.001260127e-12,3.066649585e-13,1.49746224e-13,2.742184324e-13,5.617480297e-14,5.927105344e-14,8.833333824e-14,2.324241919e-13,3.339624232e-13,8.886356011e-14,2.399846294e-13,2.540202665e-13,9.483626085e-14,3.147382725e-13,1.083980908e-13,2.713241304e-13,1.232168981e-13,5.917715749e-14,1.029821343e-13,3.694286649e-13,3.466399812e-13,2.403037776e-13
1.2890625,1.970370956e-13,1.759582751e-13,4.797616922e-13,1.473701949e-13,2.407597359e-13,4.39028153e-13,9.543109188e-13,1.171367454e-13,2.150122872e-13,2.375410917e-13,1.024279378e-12,3.104424017e-13,1.385259607e-13,2.731536822e-13,5.841716283e-14,6.28785627e-14,9.141861345e-14,2.192855083e-13,3.321559485e-13,9.238531959e-14,2.348546655e-13,2.482309562e-13,9.037320674e-14,3.299537338e-13,1.048129606e-13,2.751769371e-13,1.248330997e-13,5.974801321e-14,1.027981986e-13,3.782407088e-13,3.547247377e-13,2.441831885e-13
1.296875,1.889970075e-13,1.768060128e-13,4.590162703e-13,1.461476224e-13,2.457581194e-13,4.261735762e-13,9.582213463e-13,1.238565393e-13,2.107359838e-13,2.410489288e-13,1.044932566e-12,3.134163296e-13,1.281548368e-13,2.728861587e-13,6.141599258e-14,6.677319859e-14,9.458033314e-14,2.064796219e-13,3.308101243e-13,9.62218581e-14,2.296215048e-13,2.428691338e-13,8.618307116e-14,3.456121235e-13,1.013649603e-13,2.795876519e-13,1.264061627e-13,6.07110344e-14,1.026908089e-13,3.870457736e-13,3.624096551e-13,2.485591349e-13
1.3046875,1.817393855e-13,1.777907541e-13,4.400238693e-13,1.449755026e-13,2.506144578e-13,4.137262202e-13,9.626995113e-13,1.310202739e-13,2.068678662e-13,2.444909021e-13,1.062601062e-12,3.155126443e-13,1.184996696e-13,2.729859653e-13,6.469339201e-14,7.079467017e-14,9.795272546e-14,1.942654628e-13,3.29837417e-13,1.005743994e-13,2.244882472e-13,2.379769849e-13,8.234011132e-14,3.619988938e-13,9.804928884e-14,2.845965827e-13,1.278236807e-13,6.191795401e-14,1.024886629e-13,3.95478317e-13,3.695630721e-13,2.535086095e-13
1.3125,1.750399315e-13,1.792055614e-13,4.223901935e-13,1.441035075e-13,2.555635802e-13,4.017699941e-13,9.671878875e-13,1.387460764e-13,2.033235762e-13,2.483344579e-13,1.077817334e-12,3.169548937e-13,1.095913134e-13,2.735921469e-13,6.841767098e-14,7.510657659e-14,1.018287506e-13,1.824578688e-13,3.291711079e-13,1.053893346e-13,2.196514269e-13,2.335054485e-13,7.899223434e-14,3.791703198e-13,9.50339282e-14,2.903085614e-13,1.292440243e-13,6.333297251e-14,1.023105233e-13,4.037483784e-13,3.765745718e-13,2.590650348e-13
1.3203125,1.686400673e-13,1.811390878e-13,4.058048939e-13,1.436875643e-13,2.606563819e-13,3.900105381e-13,9.706762653e-13,1.469125074e-13,2.00214602e-13,2.527691307e-13,1.090712001e-12,3.176639224e-13,1.015099316e-13,2.75411364e-13,7.294905003e-14,7.988197436e-14,1.062541655e-13,1.709698925e-13,3.288866036e-13,1.105480365e-13,2.148913113e-13,2.294078992e-13,7.615185205e-14,3.971625699e-13,9.237799516e-14,2.965570755e-13,1.306603997e-13,6.508674086e-14,1.023657114e-13,4.122012301e-13,3.834851469e-13,2.650572174e-13
1.328125,1.628655454e-13,1.831817133e-13,3.903376986e-13,1.434132538e-13,2.656637702e-13,3.784242513e-13,9.733897362e-13,1.554537161e-13,1.97596614e-13,2.577639387e-13,1.100584256e-12,3.174445161e-13,9.419745875e-14,2.786039487e-13,7.805962415e-14,8.504057254e-14,1.110120945e-13,1.598583996e-13,3.289340171e-13,1.160482684e-13,2.099781737e-13,2.25615999e-13,7.374933453e-14,4.162984915e-13,9.000914604e-14,3.02980015e-13,1.318171716e-13,6.716818944e-14,1.024827615e-13,4.206225203e-13,3.8964303e-13,2.712940623e-13
1.3359375,1.579231635e-13,1.851558112e-13,3.759748135e-13,1.431085418e-13,2.70447785e-13,3.672061239e-13,9.758604054e-13,1.644694556e-13,1.952112935e-13,2.633383008e-13,1.107471502e-12,3.165969901e-13,8.750575833e-14,2.829828961e-13,8.368387029e-14,9.052368419e-14,1.159966706e-13,1.490598132e-13,3.290618566e-13,1.218584884e-13,2.051045126e-13,2.220232935e-13,7.176980147e-14,4.366135443e-13,8.802989636e-14,3.095174371e-13,1.32791885e-13,6.955103637e-14,1.025384565e-13,4.287980604e-13,3.948798895e-13,2.776665924e-13
1.34375,1.53470874e-13,1.87350055e-13,3.625337691e-13,1.429619151e-13,2.750520421e-13,3.563626506e-13,9.777858337e-13,1.739840194e-13,1.930206024e-13,2.697142154e-13,1.111696099e-12,3.152846631e-13,8.132186125e-14,2.883456672e-13,8.987760688e-14,9.640005498e-14,1.213851728e-13,1.388349304e-13,3.294495132e-13,1.279759564e-13,2.004980851e-13,2.187158956e-13,7.018572521e-14,4.57506948e-13,8.644245588e-14,3.16270891e-13,1.337939797e-13,7.23404463e-14,1.027121622e-13,4.369651435e-13,3.995736264e-13,2.841097938e-13
1.3515625,1.492292427e-13,1.898595101e-13,3.498305208e-13,1.430162053e-13,2.794948088e-13,3.457982339e-13,9.786465754e-13,1.83920694e-13,1.913180296e-13,2.769160879e-13,1.113307762e-12,3.132417749e-13,7.556111333e-14,2.942940295e-13,9.66459903e-14,1.027975912e-13,1.272467823e-13,1.294228288e-13,3.304348403e-13,1.343683194e-13,1.960859603e-13,2.159402679e-13,6.892570011e-14,4.787488004e-13,8.50495029e-14,3.232102289e-13,1.3472529e-13,7.549364204e-14,1.029564232e-13,4.450644841e-13,4.037378015e-13,2.9071987e-13
1.359375,1.451882785e-13,1.926035272e-13,3.377819356e-13,1.432789722e-13,2.838254906e-13,3.35342576e-13,9.785993195e-13,1.942722972e-13,1.901403239e-13,2.846620819e-13,1.112756749e-12,3.106598282e-13,7.021811553e-14,3.010209118e-13,1.04419213e-13,1.098937122e-13,1.335345193e-13,1.206154155e-13,3.31726207e-13,1.411508241e-13,1.917587778e-13,2.137008061e-13,6.797429388e-14,5.008389608e-13,8.392179954e-14,3.303857492e-13,1.355915452e-13,7.886783381e-14,1.03141745e-13,4.526032314e-13,4.07281834e-13,2.976293288e-13
1.3671875,1.413748026e-13,1.956285485e-13,3.263497205e-13,1.438480255e-13,2.882011047e-13,3.247900068e-13,9.783157794e-13,2.050183176e-13,1.893552771e-13,2.929525316e-13,1.110408912e-12,3.078899539e-13,6.539182383e-14,3.090051267e-13,1.131476963e-13,1.176541631e-13,1.404630211e-13,1.124972652e-13,3.331732254e-13,1.485191651e-13,1.875609109e-13,2.11844149e-13,6.737178903e-14,5.237013091e-13,8.324162341e-14,3.378476894e-13,1.365709579e-13,8.254371345e-14,1.034732649e-13,4.596079056e-13,4.103798653e-13,3.047218458e-13
1.375,1.378452516e-13,1.988339339e-13,3.154460139e-13,1.445885589e-13,2.92643018e-13,3.141931292e-13,9.779778078e-13,2.160023881e-13,1.889762885e-13,3.018752662e-13,1.106082258e-12,3.044820136e-13,6.118649538e-14,3.179537167e-13,1.22135201e-13,1.258445117e-13,1.48202916e-13,1.052043147e-13,3.351118507e-13,1.562234269e-13,1.835397921e-13,2.103956315e-13,6.714856883e-14,5.469265178e-13,8.297439055e-14,3.45353462e-13,1.375637076e-13,8.664111598e-14,1.04039336e-13,4.665481935e-13,4.129204056e-13,3.118527446e-13
1.3828125,1.347804282e-13,2.020800591e-13,3.048901311e-13,1.453744668e-13,2.970081696e-13,3.037049149e-13,9.769786877e-13,2.272095383e-13,1.889990683e-13,3.114985334e-13,1.099931902e-12,3.001793966e-13,5.770677461e-14,3.276152849e-13,1.313151456e-13,1.343577266e-13,1.564649634e-13,9.836029594e-14,3.373958373e-13,1.640865788e-13,1.797833363e-13,2.094111409e-13,6.731963171e-14,5.708315621e-13,8.308750527e-14,3.526284672e-13,1.384684102e-13,9.099764027e-14,1.046806355e-13,4.73486247e-13,4.145569611e-13,3.190770861e-13
1.390625,1.322246367e-13,2.054991673e-13,2.944892221e-13,1.463576872e-13,3.012276936e-13,2.932740775e-13,9.749729624e-13,2.387784469e-13,1.893812725e-13,3.219978195e-13,1.092504128e-12,2.956795614e-13,5.490994917e-14,3.380755334e-13,1.40921381e-13,1.430914954e-13,1.648102204e-13,9.193007538e-14,3.395934845e-13,1.723021449e-13,1.764197825e-13,2.088379782e-13,6.787666309e-14,5.952323381e-13,8.354305091e-14,3.596579635e-13,1.393649396e-13,9.548274158e-14,1.054241224e-13,4.80272354e-13,4.153722212e-13,3.263567778e-13
1.3984375,1.299673363e-13,2.092774126e-13,2.842825108e-13,1.477199071e-13,3.053129452e-13,2.828191853e-13,9.723633579e-13,2.505796901e-13,1.90098316e-13,3.330630956e-13,1.083595991e-12,2.912139158e-13,5.254669196e-14,3.492554039e-13,1.50966272e-13,1.519577837e-13,1.731472281e-13,8.625625707e-14,3.416188362e-13,1.805901087e-13,1.733022624e-13,2.086358385e-13,6.878542188e-14,6.19481929e-13,8.42268847e-14,3.664896931e-13,1.401668143e-13,1.002746483e-13,1.063653679e-13,4.869876291e-13,4.156675723e-13,3.334603095e-13
1.40625,1.281281956e-13,2.134624103e-13,2.744088333e-13,1.495047243e-13,3.092642143e-13,2.7238298e-13,9.696977906e-13,2.624199611e-13,1.91171971e-13,3.44248996e-13,1.072621791e-12,2.863100858e-13,5.055682642e-14,3.61233751e-13,1.614182883e-13,1.611006976e-13,1.818205711e-13,8.123797924e-14,3.43568615e-13,1.885388107e-13,1.701563861e-13,2.088170576e-13,6.998268482e-14,6.443451773e-13,8.513425648e-14,3.730595272e-13,1.408651553e-13,1.054396768e-13,1.074653871e-13,4.937164796e-13,4.154243941e-13,3.403141408e-13
1.4140625,1.270836902e-13,2.179398691e-13,2.649170891e-13,1.515831669e-13,3.13122989e-13,2.621737895e-13,9.672479168e-13,2.74385412e-13,1.927523027e-13,3.554948004e-13,1.060065153e-12,2.809741254e-13,4.905965286e-14,3.736087498e-13,1.720039495e-13,1.705613726e-13,1.911113931e-13,7.666361977e-14,3.456009973e-13,1.96316996e-13,1.669892392e-13,2.095162732e-13,7.139040829e-14,6.707481372e-13,8.624762862e-14,3.793774103e-13,1.416468061e-13,1.107294595e-13,1.0863439e-13,5.003419381e-13,4.144772388e-13,3.471419291e-13
1.421875,1.267923141e-13,2.226124914e-13,2.558146958e-13,1.538929583e-13,3.170255277e-13,2.524701439e-13,9.647465471e-13,2.864870057e-13,1.949396641e-13,3.668320758e-13,1.04684319e-12,2.753746965e-13,4.796281077e-14,3.856381852e-13,1.827720396e-13,1.802364152e-13,2.009869917e-13,7.264779064e-14,3.477369524e-13,2.041519452e-13,1.639184571e-13,2.109102023e-13,7.304885065e-14,6.981950453e-13,8.745497621e-14,3.856172833e-13,1.424686454e-13,1.159781243e-13,1.097687248e-13,5.065957838e-13,4.128014031e-13,3.540986978e-13
1.4296875,1.271309749e-13,2.275697582e-13,2.46894254e-13,1.565396137e-13,3.210594812e-13,2.432025387e-13,9.619336661e-13,2.985430123e-13,1.977247926e-13,3.785080324e-13,1.033185307e-12,2.694251999e-13,4.712106185e-14,3.976787567e-13,1.939415893e-13,1.902185147e-13,2.115659107e-13,6.926148705e-14,3.498230568e-13,2.11981647e-13,1.610055586e-13,2.129158617e-13,7.50933019e-14,7.261275473e-13,8.87978428e-14,3.917827556e-13,1.432561115e-13,1.212855418e-13,1.108947896e-13,5.12357165e-13,4.104423419e-13,3.609817064e-13
1.4375,1.280964096e-13,2.32791785e-13,2.380563532e-13,1.594508632e-13,3.251630726e-13,2.340508469e-13,9.594557649e-13,3.104255017e-13,2.010615976e-13,3.903693873e-13,1.019315034e-12,2.633255925e-13,4.654274304e-14,4.101110526e-13,2.051110143e-13,2.004608148e-13,2.228451126e-13,6.632588283e-14,3.516845498e-13,2.195350943e-13,1.583676523e-13,2.152881018e-13,7.751334278e-14,7.543991522e-13,9.042124118e-14,3.97700299e-13,1.44148507e-13,1.268006513e-13,1.121360059e-13,5.17786171e-13,4.075477958e-13,3.676309982e-13
1.4453125,1.294404553e-13,2.382729948e-13,2.296141397e-13,1.626300422e-13,3.293780301e-13,2.250228756e-13,9.576799919e-13,3.221225392e-13,2.048264237e-13,4.018236315e-13,1.005412663e-12,2.573323884e-13,4.618444855e-14,4.224552791e-13,2.163760033e-13,2.107426182e-13,2.34395999e-13,6.377208022e-14,3.530807485e-13,2.267134246e-13,1.560523265e-13,2.179235746e-13,8.024272955e-14,7.828647279e-13,9.231082477e-14,4.035044964e-13,1.451812936e-13,1.325044391e-13,1.13497355e-13,5.228993964e-13,4.04457434e-13,3.742588165e-13
1.453125,1.310928013e-13,2.442435771e-13,2.215990199e-13,1.66298694e-13,3.338167672e-13,2.163073895e-13,9.557986206e-13,3.337775281e-13,2.090192228e-13,4.132205854e-13,9.909420792e-13,2.513082577e-13,4.591795297e-14,4.347899976e-13,2.282293703e-13,2.212506288e-13,2.464537283e-13,6.180603329e-14,3.541082938e-13,2.338016364e-13,1.539888206e-13,2.207825953e-13,8.33516393e-14,8.117814503e-13,9.437541324e-14,4.09327819e-13,1.463073519e-13,1.383412536e-13,1.149947953e-13,5.276700195e-13,4.012786416e-13,3.808961657e-13
1.4609375,1.332566444e-13,2.505548085e-13,2.137262839e-13,1.702461128e-13,3.382586307e-13,2.078348509e-13,9.535553544e-13,3.454030822e-13,2.1367425e-13,4.249910423e-13,9.75374623e-13,2.450747363e-13,4.574152432e-14,4.474476325e-13,2.400154832e-13,2.321224062e-13,2.595501126e-13,6.045656293e-14,3.551143504e-13,2.406878505e-13,1.521514909e-13,2.238036126e-13,8.684714787e-14,8.412016727e-13,9.665654559e-14,4.147565986e-13,1.475818144e-13,1.444429318e-13,1.166992157e-13,5.324125105e-13,3.97606512e-13,3.870988122e-13
1.46875,1.358864095e-13,2.568106471e-13,2.06021628e-13,1.741640775e-13,3.424389474e-13,1.995655911e-13,9.516112449e-13,3.566774437e-13,2.185548884e-13,4.366166948e-13,9.588217135e-13,2.387661653e-13,4.574641432e-14,4.601636557e-13,2.511568567e-13,2.429922443e-13,2.731262333e-13,5.953500393e-14,3.559886683e-13,2.470223073e-13,1.505145662e-13,2.269891867e-13,9.062526335e-14,8.705291424e-13,9.920323922e-14,4.195632529e-13,1.490575611e-13,1.508937933e-13,1.185364734e-13,5.37243694e-13,3.932509858e-13,3.925809069e-13
1.4765625,1.388438506e-13,2.630579759e-13,1.986922503e-13,1.782662175e-13,3.465078711e-13,1.91759461e-13,9.501939344e-13,3.674000094e-13,2.235311211e-13,4.478326733e-13,9.419485904e-13,2.326371167e-13,4.591581023e-14,4.727363688e-13,2.619906691e-13,2.537855432e-13,2.868035309e-13,5.899429117e-14,3.565397255e-13,2.529374417e-13,1.489749653e-13,2.303801169e-13,9.464680952e-14,8.994887758e-13,1.019175229e-13,4.241113734e-13,1.507889037e-13,1.575709368e-13,1.204177091e-13,5.419314457e-13,3.885970663e-13,3.975450782e-13
1.484375,1.419494489e-13,2.693716915e-13,1.918900631e-13,1.826451527e-13,3.506705524e-13,1.845467832e-13,9.493988602e-13,3.77592677e-13,2.287601555e-13,4.586799762e-13,9.255189791e-13,2.266742799e-13,4.620099301e-14,4.848387779e-13,2.722216263e-13,2.645732053e-13,3.010519161e-13,5.875500137e-14,3.566574426e-13,2.583752959e-13,1.475305926e-13,2.340101853e-13,9.887137626e-14,9.283328124e-13,1.046823805e-13,4.285100778e-13,1.528515477e-13,1.64275971e-13,1.223588364e-13,5.463979381e-13,3.838355195e-13,4.022840088e-13
1.4921875,1.449444441e-13,2.756602573e-13,1.856306836e-13,1.870859569e-13,3.548932372e-13,1.777990455e-13,9.494301784e-13,3.872168288e-13,2.342879228e-13,4.689718437e-13,9.096245391e-13,2.207483487e-13,4.661529378e-14,4.960249666e-13,2.816649278e-13,2.750515995e-13,3.157569293e-13,5.874338145e-14,3.559479438e-13,2.63211742e-13,1.463521907e-13,2.378586194e-13,1.032813778e-13,9.570302329e-13,1.074298187e-13,4.325661372e-13,1.552214422e-13,1.708078507e-13,1.24273032e-13,5.504879527e-13,3.787810175e-13,4.068143149e-13
1.5,1.479723852e-13,2.819663452e-13,1.797248723e-13,1.915760928e-13,3.59011152e-13,1.71448222e-13,9.498247956e-13,3.96206332e-13,2.399649201e-13,4.786348694e-13,8.940260963e-13,2.150115226e-13,4.711741939e-14,5.067972594e-13,2.913111002e-13,2.854520979e-13,3.307624469e-13,5.905840438e-14,3.544445372e-13,2.676984205e-13,1.455128596e-13,2.418628019e-13,1.079509424e-13,9.850777417e-13,1.102223331e-13,4.362597114e-13,1.578195443e-13,1.7739786e-13,1.260560936e-13,5.540833127e-13,3.733922828e-13,4.10925372e-13
1.5078125,1.513192739e-13,2.88222857e-13,1.739471754e-13,1.961622598e-13,3.628063054e-13,1.653465806e-13,9.502261368e-13,4.044326635e-13,2.456322663e-13,4.876632163e-13,8.787446973e-13,2.096323842e-13,4.767727967e-14,5.178840712e-13,3.010928261e-13,2.961680638e-13,3.464059144e-13,5.968107474e-14,3.526446656e-13,2.716408337e-13,1.449479321e-13,2.460469539e-13,1.128538817e-13,1.012378065e-12,1.133041374e-13,4.394445176e-13,1.606204492e-13,1.845787422e-13,1.277789476e-13,5.575767782e-13,3.677281132e-13,4.144961739e-13
1.515625,1.548049571e-13,2.943802663e-13,1.68256545e-13,2.00832871e-13,3.662882899e-13,1.594197933e-13,9.511050925e-13,4.117635089e-13,2.513556194e-13,4.959352962e-13,8.636663372e-13,2.045200808e-13,4.833469348e-14,5.287720782e-13,3.0955188e-13,3.06615783e-13,3.625830051e-13,6.060661866e-14,3.506479816e-13,2.748617437e-13,1.446875977e-13,2.503709959e-13,1.178678165e-13,1.03938356e-12,1.166692613e-13,4.419173789e-13,1.635576884e-13,1.920876311e-13,1.293929164e-13,5.611010399e-13,3.61789341e-13,4.175627967e-13
1.5234375,1.581713085e-13,3.004467381e-13,1.628571162e-13,2.055433624e-13,3.696116639e-13,1.539876053e-13,9.523488528e-13,4.182127833e-13,2.572550399e-13,5.031090624e-13,8.485767765e-13,1.996373368e-13,4.908102778e-14,5.38521457e-13,3.16454633e-13,3.163702507e-13,3.79013974e-13,6.188555461e-14,3.483599391e-13,2.776319847e-13,1.446970807e-13,2.546332904e-13,1.228970733e-13,1.065938797e-12,1.199684336e-13,4.43748152e-13,1.665624034e-13,1.992536427e-13,1.306992985e-13,5.642415815e-13,3.556254291e-13,4.200978043e-13
1.53125,1.615537233e-13,3.061400173e-13,1.577660072e-13,2.100998327e-13,3.726348257e-13,1.490219889e-13,9.533310588e-13,4.23797604e-13,2.631049222e-13,5.091470824e-13,8.334154616e-13,1.950573021e-13,4.98827213e-14,5.469905161e-13,3.224052093e-13,3.256452627e-13,3.951928264e-13,6.341422368e-14,3.457596387e-13,2.797755786e-13,1.448317532e-13,2.588830835e-13,1.278382764e-13,1.091738834e-12,1.230785861e-13,4.449548937e-13,1.697271868e-13,2.061959419e-13,1.317354972e-13,5.670302591e-13,3.492779759e-13,4.220709681e-13
1.5390625,1.652235793e-13,3.115218042e-13,1.528145193e-13,2.145333407e-13,3.752909331e-13,1.441072887e-13,9.547660086e-13,4.285695885e-13,2.687893899e-13,5.14546909e-13,8.18422253e-13,1.907320627e-13,5.068067895e-14,5.543268764e-13,3.273224766e-13,3.343568536e-13,4.107441926e-13,6.533129507e-14,3.427845085e-13,2.813251223e-13,1.451731317e-13,2.634054751e-13,1.327052073e-13,1.117167622e-12,1.261058821e-13,4.455567981e-13,1.730673321e-13,2.132082019e-13,1.325434139e-13,5.697090089e-13,3.427571121e-13,4.235994566e-13
1.546875,1.691772416e-13,3.170135895e-13,1.483129784e-13,2.190978089e-13,3.778432511e-13,1.394451361e-13,9.574544073e-13,4.32537579e-13,2.745032698e-13,5.191086662e-13,8.042794352e-13,1.866775201e-13,5.136604144e-14,5.606188601e-13,3.313564898e-13,3.426421672e-13,4.266570438e-13,6.777857329e-14,3.39437013e-13,2.827522876e-13,1.458132193e-13,2.681856296e-13,1.376292057e-13,1.141844542e-12,1.290549391e-13,4.458381641e-13,1.764585546e-13,2.201384096e-13,1.329054894e-13,5.718379201e-13,3.361038457e-13,4.247786853e-13
1.5546875,1.732351811e-13,3.223593535e-13,1.445699686e-13,2.236781304e-13,3.802499966e-13,1.354059423e-13,9.606492049e-13,4.354114071e-13,2.800857115e-13,5.223245778e-13,7.910138794e-13,1.830962855e-13,5.187707536e-14,5.662922903e-13,3.34855408e-13,3.508825363e-13,4.434132639e-13,7.045410484e-14,3.356550952e-13,2.837682086e-13,1.466617797e-13,2.730112358e-13,1.426466344e-13,1.164855593e-12,1.319369183e-13,4.458633337e-13,1.800269036e-13,2.26942718e-13,1.327738163e-13,5.729798676e-13,3.293267225e-13,4.255051347e-13
1.5625,1.774415498e-13,3.272113561e-13,1.415388426e-13,2.280879027e-13,3.821631527e-13,1.318743485e-13,9.641893926e-13,4.370237086e-13,2.852959636e-13,5.245483259e-13,7.77698404e-13,1.800369769e-13,5.222504417e-14,5.714939066e-13,3.374202566e-13,3.588144034e-13,4.60019892e-13,7.327515758e-14,3.31357508e-13,2.839811091e-13,1.478623196e-13,2.778574561e-13,1.477649755e-13,1.186597428e-12,1.347915305e-13,4.452389969e-13,1.838852622e-13,2.336952713e-13,1.323417603e-13,5.735277002e-13,3.223672943e-13,4.25534201e-13
1.5703125,1.818579246e-13,3.318602339e-13,1.394341823e-13,2.324624149e-13,3.834782576e-13,1.287957036e-13,9.687771807e-13,4.376245238e-13,2.903350188e-13,5.260042457e-13,7.642348092e-13,1.773945725e-13,5.246917247e-14,5.754506978e-13,3.384533768e-13,3.660752312e-13,4.764914925e-13,7.638288524e-14,3.266029033e-13,2.835381999e-13,1.495973075e-13,2.827573894e-13,1.52966654e-13,1.207549649e-12,1.376115527e-13,4.436360995e-13,1.877648651e-13,2.403788878e-13,1.316471914e-13,5.739053279e-13,3.151869266e-13,4.247340234e-13
1.578125,1.862885497e-13,3.364108827e-13,1.381714523e-13,2.368492712e-13,3.84361572e-13,1.261496987e-13,9.738371034e-13,4.373763972e-13,2.953003226e-13,5.264969643e-13,7.514398386e-13,1.752398289e-13,5.261613342e-14,5.775647973e-13,3.378784051e-13,3.726859253e-13,4.933064923e-13,7.969427987e-14,3.214679805e-13,2.823554543e-13,1.516039865e-13,2.876327558e-13,1.58091368e-13,1.227089793e-12,1.403892409e-13,4.412061926e-13,1.91570123e-13,2.470247364e-13,1.305854484e-13,5.73803555e-13,3.078949518e-13,4.232477721e-13
1.5859375,1.907038056e-13,3.406746348e-13,1.373264503e-13,2.411807267e-13,3.850225055e-13,1.237630717e-13,9.786662756e-13,4.361230773e-13,2.999460299e-13,5.259802916e-13,7.394438463e-13,1.736409909e-13,5.257087176e-14,5.785192074e-13,3.362115813e-13,3.787616113e-13,5.099953738e-13,8.328250219e-14,3.160420381e-13,2.803112714e-13,1.536032058e-13,2.923559452e-13,1.630774246e-13,1.244826826e-12,1.430784268e-13,4.383747663e-13,1.955818524e-13,2.53636796e-13,1.291396284e-13,5.729779453e-13,3.007041331e-13,4.212250693e-13
1.59375,1.952821475e-13,3.445718082e-13,1.371416063e-13,2.454029232e-13,3.853626252e-13,1.216618092e-13,9.834119043e-13,4.336968672e-13,3.041355671e-13,5.24357249e-13,7.276567367e-13,1.724276296e-13,5.227990965e-14,5.794125564e-13,3.338355924e-13,3.844988759e-13,5.265502421e-13,8.720875159e-14,3.102679315e-13,2.775664644e-13,1.5575555e-13,2.968146918e-13,1.680328666e-13,1.260772504e-12,1.456317881e-13,4.352497306e-13,1.999406137e-13,2.602405643e-13,1.274334648e-13,5.717646642e-13,2.936904228e-13,4.185808615e-13
1.6015625,1.999669774e-13,3.479312236e-13,1.376975856e-13,2.493098028e-13,3.850302879e-13,1.19845921e-13,9.877886568e-13,4.30134159e-13,3.080394524e-13,5.216630662e-13,7.155717872e-13,1.714547943e-13,5.175749403e-14,5.804434974e-13,3.305531919e-13,3.899139303e-13,5.432248828e-13,9.130306423e-14,3.040735578e-13,2.742806572e-13,1.583407518e-13,3.009974926e-13,1.729656967e-13,1.27459e-12,1.480773761e-13,4.316382729e-13,2.04579732e-13,2.669652171e-13,1.25628092e-13,5.702844873e-13,2.867860475e-13,4.152661972e-13
1.609375,2.045096913e-13,3.506893736e-13,1.384430187e-13,2.527956662e-13,3.84019164e-13,1.181561675e-13,9.917048761e-13,4.255481392e-13,3.118222527e-13,5.178144603e-13,7.031317053e-13,1.707944661e-13,5.109311835e-14,5.812419852e-13,3.263276786e-13,3.947877935e-13,5.597845691e-13,9.569012738e-14,2.977540239e-13,2.705753832e-13,1.614144216e-13,3.050475073e-13,1.778403358e-13,1.28612601e-12,1.505198303e-13,4.27587926e-13,2.094434045e-13,2.738490657e-13,1.237577924e-13,5.684168627e-13,2.799963652e-13,4.114755925e-13
1.6171875,2.086539376e-13,3.529506032e-13,1.392988968e-13,2.55926861e-13,3.825117798e-13,1.166329221e-13,9.955227554e-13,4.200277173e-13,3.152922652e-13,5.126999129e-13,6.906040255e-13,1.705796995e-13,5.040008133e-14,5.817383359e-13,3.210659419e-13,3.990367898e-13,5.761810665e-13,1.005540602e-13,2.914288398e-13,2.66388853e-13,1.64926691e-13,3.091119204e-13,1.826810114e-13,1.295851219e-12,1.53070923e-13,4.232012906e-13,2.145082922e-13,2.808733843e-13,1.21703123e-13,5.663697633e-13,2.733824774e-13,4.073390373e-13
1.625,2.122679921e-13,3.546877117e-13,1.404425578e-13,2.586558293e-13,3.804210707e-13,1.15382161e-13,9.989698036e-13,4.137544047e-13,3.182560471e-13,5.068893404e-13,6.779245859e-13,1.707562182e-13,4.961739667e-14,5.820227162e-13,3.145876561e-13,4.026541587e-13,5.922295727e-13,1.057382717e-13,2.849418538e-13,2.616475705e-13,1.688834643e-13,3.131164066e-13,1.873980381e-13,1.303946154e-12,1.556632983e-13,4.18317427e-13,2.196938778e-13,2.880652973e-13,1.193426738e-13,5.640913967e-13,2.669393521e-13,4.027013446e-13
1.6328125,2.154680391e-13,3.558937742e-13,1.418181031e-13,2.609797453e-13,3.776695069e-13,1.143143591e-13,1.001817726e-12,4.067656704e-13,3.20804107e-13,5.005370563e-13,6.649109998e-13,1.71104609e-13,4.870608957e-14,5.820980661e-13,3.074645826e-13,4.055867883e-13,6.07507034e-13,1.111568068e-13,2.785058234e-13,2.565316656e-13,1.732435825e-13,3.168656743e-13,1.918319056e-13,1.309733813e-12,1.581483968e-13,4.128685824e-13,2.248502911e-13,2.953505576e-13,1.167200661e-13,5.611128094e-13,2.60666673e-13,3.974188954e-13
1.640625,2.183744408e-13,3.565613596e-13,1.434507222e-13,2.629609587e-13,3.743104147e-13,1.133018207e-13,1.003909458e-12,3.989180306e-13,3.228737425e-13,4.930970341e-13,6.519324509e-13,1.716487155e-13,4.777937509e-14,5.820908622e-13,2.999552105e-13,4.078207329e-13,6.219702785e-13,1.169284033e-13,2.722402534e-13,2.511721743e-13,1.779469556e-13,3.203415173e-13,1.959535632e-13,1.312897462e-12,1.605240863e-13,4.069488279e-13,2.299885758e-13,3.026076018e-13,1.140053674e-13,5.574789645e-13,2.546013469e-13,3.915726122e-13
1.6484375,2.209524671e-13,3.566993434e-13,1.452964289e-13,2.645554355e-13,3.704193589e-13,1.12378785e-13,1.004487139e-12,3.904711113e-13,3.243810172e-13,4.847160976e-13,6.391549906e-13,1.726119209e-13,4.682834635e-14,5.821948517e-13,2.916370117e-13,4.094295356e-13,6.359216838e-13,1.231306586e-13,2.65988711e-13,2.457189292e-13,1.83150866e-13,3.236200066e-13,1.998435457e-13,1.314024e-12,1.628088375e-13,4.006080711e-13,2.351910801e-13,3.09859839e-13,1.112825415e-13,5.536043909e-13,2.487699716e-13,3.852580467e-13
1.65625,2.231778346e-13,3.565870903e-13,1.473420045e-13,2.658528043e-13,3.661714482e-13,1.116864619e-13,1.0033697e-12,3.817597142e-13,3.2558936e-13,4.757917485e-13,6.260882245e-13,1.738865844e-13,4.580530213e-14,5.824350184e-13,2.826163709e-13,4.10514677e-13,6.49552618e-13,1.297626378e-13,2.600347768e-13,2.404354289e-13,1.890587391e-13,3.266722834e-13,2.035534283e-13,1.313483867e-12,1.650205076e-13,3.93910267e-13,2.403024658e-13,3.171702146e-13,1.085114239e-13,5.495621546e-13,2.432801147e-13,3.784887678e-13
1.6640625,2.251338048e-13,3.563895392e-13,1.497712074e-13,2.670465101e-13,3.616178496e-13,1.112204999e-13,1.001044972e-12,3.725304457e-13,3.265949847e-13,4.662714953e-13,6.124265163e-13,1.752219624e-13,4.472503091e-14,5.827338135e-13,2.729800279e-13,4.109963849e-13,6.622137258e-13,1.367940634e-13,2.547173859e-13,2.352414287e-13,1.955806906e-13,3.295139675e-13,2.070182861e-13,1.311348396e-12,1.67219457e-13,3.867783062e-13,2.451933075e-13,3.245564228e-13,1.056796572e-13,5.453836844e-13,2.38291199e-13,3.713043818e-13
1.671875,2.269433628e-13,3.560655408e-13,1.525941899e-13,2.682059e-13,3.567149529e-13,1.108277197e-13,9.976660662e-13,3.626168936e-13,3.271642756e-13,4.560390438e-13,5.981458824e-13,1.766274596e-13,4.357325674e-14,5.831418745e-13,2.627068179e-13,4.107624421e-13,6.733180299e-13,1.442223362e-13,2.49895136e-13,2.299195322e-13,2.026087541e-13,3.322728526e-13,2.101809618e-13,1.30790037e-12,1.693924447e-13,3.790595869e-13,2.498586115e-13,3.320800999e-13,1.028447398e-13,5.412658004e-13,2.338636107e-13,3.637928528e-13
1.6796875,2.28537639e-13,3.55803406e-13,1.558085757e-13,2.694450586e-13,3.517041626e-13,1.104675585e-13,9.933576969e-13,3.523133512e-13,3.272503514e-13,4.450209578e-13,5.834615908e-13,1.780850166e-13,4.240726985e-14,5.839261065e-13,2.522887908e-13,4.100541713e-13,6.83527446e-13,1.520243276e-13,2.454447504e-13,2.247034833e-13,2.102989441e-13,3.350164312e-13,2.131302155e-13,1.303467025e-12,1.715808828e-13,3.709813866e-13,2.542036465e-13,3.397230077e-13,1.000369933e-13,5.370787834e-13,2.300557557e-13,3.560716154e-13
1.6875,2.297244194e-13,3.556396887e-13,1.595652238e-13,2.70813184e-13,3.467295956e-13,1.101841508e-13,9.880798509e-13,3.417057477e-13,3.269530994e-13,4.334377613e-13,5.690846418e-13,1.795014348e-13,4.121193702e-14,5.853016675e-13,2.417973708e-13,4.091959237e-13,6.930604621e-13,1.599976623e-13,2.413780784e-13,2.198658325e-13,2.186561326e-13,3.376505969e-13,2.158844781e-13,1.298269391e-12,1.738076071e-13,3.628201508e-13,2.582791285e-13,3.473055298e-13,9.721602582e-14,5.323740663e-13,2.268586291e-13,3.481630371e-13
1.6953125,2.30484283e-13,3.553202484e-13,1.638417728e-13,2.721337348e-13,3.415253228e-13,1.099671549e-13,9.816030043e-13,3.307439395e-13,3.262218231e-13,4.215807535e-13,5.552778413e-13,1.809069237e-13,3.987036903e-14,5.870231549e-13,2.310767789e-13,4.080427553e-13,7.012839545e-13,1.679448503e-13,2.374873447e-13,2.15174959e-13,2.275483475e-13,3.39945707e-13,2.183220116e-13,1.291843771e-12,1.758807881e-13,3.544137834e-13,2.621119261e-13,3.54717141e-13,9.434255407e-14,5.269620753e-13,2.240571471e-13,3.399590385e-13
1.703125,2.307866604e-13,3.550653639e-13,1.685679236e-13,2.734995178e-13,3.361033457e-13,1.098733206e-13,9.742536839e-13,3.196665764e-13,3.24930562e-13,4.094009475e-13,5.415906779e-13,1.822331237e-13,3.848073951e-14,5.887598353e-13,2.206150868e-13,4.062740393e-13,7.083045683e-13,1.760173706e-13,2.336866916e-13,2.105072053e-13,2.373138989e-13,3.417661987e-13,2.204808997e-13,1.283268412e-12,1.777949622e-13,3.456893739e-13,2.654070436e-13,3.619745188e-13,9.141728826e-14,5.209501691e-13,2.216848241e-13,3.315190227e-13
1.7109375,2.306093918e-13,3.552518163e-13,1.737150873e-13,2.752047797e-13,3.308219153e-13,1.100001421e-13,9.662528085e-13,3.086536565e-13,3.230550898e-13,3.969661336e-13,5.280143633e-13,1.834821357e-13,3.715534096e-14,5.910147639e-13,2.107866354e-13,4.041667905e-13,7.143118086e-13,1.843236113e-13,2.303326724e-13,2.061998691e-13,2.482262388e-13,3.432037718e-13,2.22509305e-13,1.272607592e-12,1.79840545e-13,3.369271503e-13,2.68212329e-13,3.69114709e-13,8.848709265e-14,5.144212746e-13,2.200635444e-13,3.230968075e-13
1.71875,2.301685143e-13,3.555456582e-13,1.789876723e-13,2.770405633e-13,3.257068317e-13,1.102508338e-13,9.573981614e-13,2.976215602e-13,3.207808799e-13,3.844401843e-13,5.148026906e-13,1.849502267e-13,3.578180814e-14,5.945492619e-13,2.015015384e-13,4.022574761e-13,7.193137782e-13,1.925415735e-13,2.275868688e-13,2.02275415e-13,2.598132537e-13,3.443600096e-13,2.24439126e-13,1.260755256e-12,1.821672915e-13,3.282743796e-13,2.709944729e-13,3.762789578e-13,8.567709965e-14,5.075318412e-13,2.191855512e-13,3.148310859e-13
1.7265625,2.294173019e-13,3.55689303e-13,1.841689638e-13,2.787871802e-13,3.207668245e-13,1.104726578e-13,9.479186712e-13,2.866039121e-13,3.18339036e-13,3.718701945e-13,5.018299554e-13,1.866182302e-13,3.432371437e-14,5.990835204e-13,1.926927407e-13,4.004312263e-13,7.237873765e-13,2.00676578e-13,2.253367788e-13,1.985790529e-13,2.718309692e-13,3.453001448e-13,2.262486794e-13,1.248194184e-12,1.847359003e-13,3.197593408e-13,2.737929345e-13,3.836123264e-13,8.309274195e-14,5.00438591e-13,2.189698261e-13,3.067365873e-13
1.734375,2.280266794e-13,3.560798648e-13,1.89545424e-13,2.807279033e-13,3.162742661e-13,1.10715098e-13,9.379674935e-13,2.758183766e-13,3.15696799e-13,3.593456595e-13,4.889877786e-13,1.881144423e-13,3.291135429e-14,6.038683503e-13,1.84410825e-13,3.98332893e-13,7.276510895e-13,2.092428998e-13,2.238438792e-13,1.954259717e-13,2.84664053e-13,3.460683525e-13,2.278221176e-13,1.234598583e-12,1.87382598e-13,3.114123866e-13,2.76319314e-13,3.909239244e-13,8.072405634e-14,4.930358509e-13,2.195996892e-13,2.988009082e-13
1.7421875,2.260478541e-13,3.566620176e-13,1.95145112e-13,2.827566685e-13,3.121248962e-13,1.110393122e-13,9.273092133e-13,2.653727115e-13,3.127429105e-13,3.467698898e-13,4.763413663e-13,1.894918338e-13,3.161040462e-14,6.087294546e-13,1.767461084e-13,3.960168725e-13,7.303937737e-13,2.182766158e-13,2.23179582e-13,1.929383859e-13,2.983392962e-13,3.465079029e-13,2.290271364e-13,1.219493454e-12,1.899376038e-13,3.030944458e-13,2.785213289e-13,3.979322203e-13,7.854808887e-14,4.85336062e-13,2.210356876e-13,2.910251072e-13
1.75,2.236693814e-13,3.570591853e-13,2.00392536e-13,2.845163345e-13,3.08110307e-13,1.113440214e-13,9.159915912e-13,2.552995289e-13,3.095652185e-13,3.341341873e-13,4.642635222e-13,1.910368792e-13,3.036647625e-14,6.138546829e-13,1.698215858e-13,3.936029422e-13,7.320174446e-13,2.273945203e-13,2.229234131e-13,1.909656238e-13,3.126789983e-13,3.464729015e-13,2.300417912e-13,1.203225563e-12,1.925210344e-13,2.94839772e-13,2.804966617e-13,4.047384472e-13,7.658041608e-14,4.775362307e-13,2.231455239e-13,2.835068183e-13
1.7578125,2.209247354e-13,3.574662301e-13,2.052198321e-13,2.862185252e-13,3.044022575e-13,1.115300174e-13,9.039237536e-13,2.456144372e-13,3.061431565e-13,3.217659282e-13,4.531746893e-13,1.927058423e-13,2.914935145e-14,6.195458667e-13,1.637196701e-13,3.911306537e-13,7.324910521e-13,2.364141465e-13,2.230226281e-13,1.896720367e-13,3.278672914e-13,3.459967797e-13,2.31085135e-13,1.186066899e-12,1.953038984e-13,2.868850461e-13,2.82343514e-13,4.114341329e-13,7.486221475e-14,4.695269861e-13,2.259803344e-13,2.762476032e-13
1.765625,2.179419185e-13,3.577934318e-13,2.10047545e-13,2.878196255e-13,3.009622487e-13,1.115910656e-13,8.90928325e-13,2.361775334e-13,3.023417837e-13,3.096636136e-13,4.425977835e-13,1.943918977e-13,2.796227076e-14,6.260173852e-13,1.58127817e-13,3.884903607e-13,7.317308326e-13,2.452538148e-13,2.23437714e-13,1.889931142e-13,3.438617173e-13,3.450058948e-13,2.319704117e-13,1.167702507e-12,1.9818746e-13,2.791038757e-13,2.84096114e-13,4.177723133e-13,7.345497542e-14,4.612519004e-13,2.294324642e-13,2.691382971e-13
1.7734375,2.146857965e-13,3.578738323e-13,2.14762173e-13,2.890958183e-13,2.977768038e-13,1.116122329e-13,8.772745639e-13,2.269805906e-13,2.983471547e-13,2.975935008e-13,4.318631594e-13,1.959491138e-13,2.674003415e-14,6.328880695e-13,1.526815397e-13,3.853656013e-13,7.298591163e-13,2.540221499e-13,2.239705375e-13,1.888476716e-13,3.603202013e-13,3.434526164e-13,2.32459246e-13,1.148903294e-12,2.01022354e-13,2.713692399e-13,2.855329473e-13,4.236526481e-13,7.231773396e-14,4.529740505e-13,2.33519379e-13,2.623105159e-13
1.78125,2.109828833e-13,3.585104579e-13,2.192258505e-13,2.906589289e-13,2.952700996e-13,1.117177053e-13,8.626382671e-13,2.183145847e-13,2.943439858e-13,2.856644326e-13,4.211544931e-13,1.970138619e-13,2.549480759e-14,6.393954638e-13,1.477770416e-13,3.818788228e-13,7.268873858e-13,2.629672141e-13,2.251294657e-13,1.897114207e-13,3.773221967e-13,3.414706271e-13,2.325954329e-13,1.130574988e-12,2.037627116e-13,2.639112385e-13,2.863181865e-13,4.29204929e-13,7.133975788e-14,4.446304689e-13,2.385100492e-13,2.558915379e-13
1.7890625,2.070150429e-13,3.599715597e-13,2.235150929e-13,2.928037511e-13,2.933727184e-13,1.119124183e-13,8.463098828e-13,2.102878299e-13,2.901984943e-13,2.74004747e-13,4.105920761e-13,1.975237511e-13,2.433606555e-14,6.454326583e-13,1.437821704e-13,3.783338315e-13,7.227887261e-13,2.720313595e-13,2.273204876e-13,1.915571434e-13,3.952077983e-13,3.390602003e-13,2.323762935e-13,1.112110761e-12,2.064373349e-13,2.566755943e-13,2.864115249e-13,4.344585579e-13,7.051015332e-14,4.359807202e-13,2.44315039e-13,2.496793874e-13
1.796875,2.029788338e-13,3.615674926e-13,2.27237731e-13,2.950665269e-13,2.91711643e-13,1.12119009e-13,8.287637638e-13,2.027778816e-13,2.859627019e-13,2.625329465e-13,4.000868747e-13,1.977125835e-13,2.323512175e-14,6.515860584e-13,1.402306099e-13,3.744247571e-13,7.174510773e-13,2.810065581e-13,2.302058017e-13,1.938241502e-13,4.138662714e-13,3.36181061e-13,2.31659021e-13,1.093274142e-12,2.090463566e-13,2.495009688e-13,2.859382611e-13,4.392936161e-13,6.982665655e-14,4.271912135e-13,2.508145235e-13,2.436276948e-13
1.8046875,1.987731827e-13,3.63448342e-13,2.302389785e-13,2.976080326e-13,2.906462859e-13,1.12266217e-13,8.106901009e-13,1.957573372e-13,2.818376273e-13,2.513055159e-13,3.900796604e-13,1.974937945e-13,2.213776091e-14,6.576589494e-13,1.368259673e-13,3.700527507e-13,7.108198686e-13,2.89800546e-13,2.336345237e-13,1.965458345e-13,4.328929614e-13,3.328908111e-13,2.304639772e-13,1.074699084e-12,2.114338543e-13,2.426852868e-13,2.847718421e-13,4.434874186e-13,6.925172659e-14,4.183987795e-13,2.583135906e-13,2.379916841e-13
