"Time","Fp1","AF3","F7","F3","FC1","FC5","T7","C3","CP1","CP5","P7","P3","Pz","PO3","O1","Oz","O2","PO4","P4","P8","CP6","CP2","C4","T8","FC6","FC2","F4","F8","AF4","Fp2","Fz","Cz"
0.0078125,2.023807921e-14,3.557418033e-14,1.552554967e-13,1.517878387e-13,1.527090921e-13,9.523809759e-14,4.16906284e-13,7.632408751e-14,4.108165037e-14,1.159180495e-13,4.41903944e-14,4.950844672e-14,3.44926139e-14,5.976627805e-14,1.256906163e-13,1.166732968e-13,1.844098566e-13,3.868795878e-14,9.704196279e-15,1.083085275e-13,6.584294463e-14,1.76953006e-14,1.270287733e-14,5.126523877e-13,4.094206138e-14,1.689200771e-13,1.137487689e-13,1.027650178e-13,9.67846498e-14,9.759791858e-14,2.426297717e-13,9.796352054e-14
0.015625,2.361403126e-14,4.45586988e-14,1.598436031e-13,1.619708396e-13,1.595984075e-13,1.023015138e-13,4.630083444e-13,8.23301579e-14,4.755651893e-14,1.336857817e-13,5.211368207e-14,5.452563827e-14,3.951046855e-14,7.237314592e-14,1.441382192e-13,1.316486485e-13,1.948504351e-13,4.195018396e-14,9.19391045e-15,1.258591287e-13,7.934925866e-14,2.07855332e-14,1.329199697e-14,5.385313768e-13,4.754723011e-14,1.779855399e-13,1.242118705e-13,1.15366576e-13,1.011619428e-13,1.123807273e-13,2.536162235e-13,1.018951009e-13
0.0234375,2.87033993e-14,5.538979754e-14,1.650609935e-13,1.701725378e-13,1.627916827e-13,1.094427893e-13,5.102726565e-13,8.664306976e-14,5.35147608e-14,1.499892543e-13,6.020916709e-14,5.983599745e-14,4.456960054e-14,8.633536278e-14,1.620513352e-13,1.458201135e-13,2.019974279e-13,4.49532816e-14,8.559033836e-15,1.426355154e-13,9.37911515e-14,2.376515012e-14,1.375293278e-14,5.468977201e-13,5.349599324e-14,1.846182683e-13,1.348183663e-13,1.273492143e-13,1.042362743e-13,1.27034275e-13,2.600223838e-13,1.041379177e-13
0.03125,3.593057143e-14,6.676233284e-14,1.714943045e-13,1.776024698e-13,1.630675424e-13,1.162555762e-13,5.605901709e-13,8.890299574e-14,5.835130169e-14,1.639761328e-13,6.787742208e-14,6.544905495e-14,4.924390862e-14,1.012214324e-13,1.782070636e-13,1.581143401e-13,2.056769661e-13,4.739792793e-14,7.856204743e-15,1.581673454e-13,1.093129997e-13,2.618732359e-14,1.397120103e-14,5.418294906e-13,5.860312802e-14,1.899023861e-13,1.466214509e-13,1.394535331e-13,1.064622353e-13,1.406831456e-13,2.630126648e-13,1.051479383e-13
0.0390625,4.632474198e-14,7.838549371e-14,1.807958445e-13,1.854649943e-13,1.616590314e-13,1.228060594e-13,6.178254739e-13,8.892121966e-14,6.186879972e-14,1.761638911e-13,7.506980006e-14,7.225355982e-14,5.4254247e-14,1.173284844e-13,1.920914596e-13,1.680007464e-13,2.069434373e-13,4.888592887e-14,7.017164434e-15,1.708999351e-13,1.259746626e-13,2.784607562e-14,1.426737723e-14,5.263023071e-13,6.332463026e-14,1.951273379e-13,1.606430455e-13,1.53365114e-13,1.082967696e-13,1.527363156e-13,2.641391906e-13,1.053164912e-13
0.046875,6.050407882e-14,8.975476491e-14,1.948062868e-13,1.953264294e-13,1.596888323e-13,1.297116296e-13,6.853714531e-13,8.747350079e-14,6.397068534e-14,1.888820211e-13,8.117217557e-14,8.144660216e-14,5.991008893e-14,1.34553808e-13,2.025862769e-13,1.749563567e-13,2.068018275e-13,4.940323146e-14,6.188019076e-15,1.799366409e-13,1.444004976e-13,2.865830106e-14,1.469537478e-14,5.111259401e-13,6.796888005e-14,2.015111774e-13,1.779258219e-13,1.70581887e-13,1.103584069e-13,1.63065389e-13,2.649439727e-13,1.049154007e-13
0.0546875,7.886303582e-14,1.000075079e-13,2.134284958e-13,2.074771735e-13,1.578069216e-13,1.37087933e-13,7.653394777e-13,8.492415722e-14,6.481254567e-14,2.043467525e-13,8.60551056e-14,9.41127528e-14,6.660869429e-14,1.532786487e-13,2.091305816e-13,1.789327111e-13,2.059785441e-13,4.924602866e-14,5.602151356e-15,1.832352524e-13,1.631397936e-13,2.877419351e-14,1.529228792e-14,4.995750334e-13,7.302073067e-14,2.097250764e-13,1.992639016e-13,1.918237154e-13,1.133331961e-13,1.717059387e-13,2.661287484e-13,1.039750327e-13
0.0625,1.019656012e-13,1.077532451e-13,2.357570811e-13,2.233498322e-13,1.567577822e-13,1.447264612e-13,8.631550953e-13,8.19403615e-14,6.458991724e-14,2.265809875e-13,8.956738256e-14,1.115920113e-13,7.581715518e-14,1.735569972e-13,2.10876306e-13,1.792824862e-13,2.058437731e-13,4.806011707e-14,5.501958931e-15,1.82769525e-13,1.831753628e-13,2.812432575e-14,1.6010242e-14,4.980744343e-13,7.839166574e-14,2.199245069e-13,2.252776578e-13,2.159742362e-13,1.180717699e-13,1.785178092e-13,2.681219419e-13,1.020032171e-13
0.0703125,1.299790975e-13,1.135244988e-13,2.591396506e-13,2.440251971e-13,1.57404948e-13,1.516629971e-13,9.818468093e-13,7.918821788e-14,6.365095576e-14,2.584505996e-13,9.151668022e-14,1.347329801e-13,8.831177114e-14,1.951423467e-13,2.089134604e-13,1.769700242e-13,2.081206847e-13,4.59960316e-14,5.832503769e-15,1.794513663e-13,2.055125281e-13,2.688536224e-14,1.70146373e-14,5.126798312e-13,8.459087057e-14,2.320318162e-13,2.551701153e-13,2.417552627e-13,1.254161641e-13,1.848711175e-13,2.712984453e-13,9.869033565e-14
0.078125,1.618979739e-13,1.169586311e-13,2.821415167e-13,2.692681891e-13,1.607774787e-13,1.566777996e-13,1.123141271e-12,7.641997212e-14,6.204203707e-14,3.017543492e-13,9.171537467e-14,1.635266031e-13,1.042589076e-13,2.167410173e-13,2.022512725e-13,1.716710868e-13,2.126949817e-13,4.310849742e-14,6.563148669e-15,1.748066613e-13,2.292927555e-13,2.527461976e-14,1.841259223e-14,5.410903687e-13,9.025832865e-14,2.452643111e-13,2.866180729e-13,2.654307979e-13,1.352765522e-13,1.918172874e-13,2.75412195e-13,9.425375047e-14
0.0859375,1.960015483e-13,1.188152231e-13,3.02790983e-13,2.979569577e-13,1.673649074e-13,1.595546214e-13,1.291174579e-12,7.377402662e-14,5.985338687e-14,3.574697154e-13,9.022207888e-14,1.963584552e-13,1.244012564e-13,2.37668749e-13,1.923299404e-13,1.645738531e-13,2.206644835e-13,3.982469107e-14,7.61935654e-15,1.693037789e-13,2.544781188e-13,2.34381739e-14,2.027558641e-14,5.831288126e-13,9.519315425e-14,2.591091443e-13,3.167743931e-13,2.835395182e-13,1.479148383e-13,1.996889231e-13,2.80609475e-13,8.962288936e-14
0.09375,2.298839188e-13,1.202653932e-13,3.1627632e-13,3.297658287e-13,1.774893749e-13,1.595683849e-13,1.486365226e-12,7.109247455e-14,5.70735234e-14,4.217543181e-13,8.698338366e-14,2.311366564e-13,1.479652961e-13,2.56146856e-13,1.794074544e-13,1.557092866e-13,2.308548357e-13,3.618515716e-14,9.023013765e-15,1.63690978e-13,2.797819375e-13,2.154890962e-14,2.261411407e-14,6.356112674e-13,9.855774069e-14,2.738902884e-13,3.441306691e-13,2.930116121e-13,1.637648201e-13,2.096254263e-13,2.884506111e-13,8.455625716e-14
0.1015625,2.607384391e-13,1.218960555e-13,3.211270958e-13,3.610003864e-13,1.900613925e-13,1.575966801e-13,1.697896904e-12,6.854112687e-14,5.377329471e-14,4.913204313e-13,8.220009188e-14,2.650696037e-13,1.738274999e-13,2.706583916e-13,1.642506276e-13,1.456215937e-13,2.437995627e-13,3.241823979e-14,1.058018484e-14,1.585383219e-13,3.030186598e-13,1.970225142e-14,2.565392203e-14,6.894234935e-13,9.995783774e-14,2.881948698e-13,3.658829536e-13,2.922453322e-13,1.810017455e-13,2.207259966e-13,2.97743408e-13,7.937655901e-14
0.109375,2.86125904e-13,1.250928159e-13,3.185157306e-13,3.882532528e-13,2.028115843e-13,1.546236001e-13,1.906614718e-12,6.584730938e-14,4.975755063e-14,5.590501609e-13,7.598911183e-14,2.940769e-13,2.000390018e-13,2.790406479e-13,1.481399162e-13,1.355620105e-13,2.583037535e-13,2.909095347e-14,1.221326552e-14,1.536260847e-13,3.23768566e-13,1.802583831e-14,2.968033946e-14,7.443732835e-13,1.00157256e-13,2.998605262e-13,3.791148302e-13,2.814534743e-13,1.973542456e-13,2.316420692e-13,3.052765096e-13,7.456758132e-14
0.1171875,3.039927816e-13,1.307418741e-13,3.094875964e-13,4.072365768e-13,2.127247059e-13,1.515032948e-13,2.081589615e-12,6.273530234e-14,4.546474631e-14,6.135248461e-13,6.970892487e-14,3.144168287e-13,2.230077458e-13,2.807664176e-13,1.317489606e-13,1.254792909e-13,2.712000243e-13,2.664137366e-14,1.392493373e-14,1.473748832e-13,3.394646834e-13,1.675734341e-14,3.500504403e-14,7.87620706e-13,9.994725553e-14,3.046700955e-13,3.794884833e-13,2.624267662e-13,2.096567839e-13,2.413093972e-13,3.062413678e-13,7.057405396e-14
0.125,3.128053886e-13,1.392797036e-13,2.938209053e-13,4.16691442e-13,2.188335283e-13,1.488461943e-13,2.20184929e-12,5.950280844e-14,4.139454667e-14,6.478904033e-13,6.39636954e-14,3.240524871e-13,2.413970935e-13,2.754141737e-13,1.154569315e-13,1.152664673e-13,2.805691112e-13,2.536861068e-14,1.56251562e-14,1.403662339e-13,3.513631946e-13,1.591781847e-14,4.168192431e-14,8.226183074e-13,1.000560281e-13,3.007911121e-13,3.658901837e-13,2.378701893e-13,2.160357029e-13,2.486872632e-13,2.993782293e-13,6.734966922e-14
0.1328125,3.114139556e-13,1.500379048e-13,2.705000548e-13,4.169845829e-13,2.21202993e-13,1.465538085e-13,2.262283033e-12,5.618206188e-14,3.748045356e-14,6.602676017e-13,5.904257396e-14,3.223156457e-13,2.544490673e-13,2.637253936e-13,1.008909194e-13,1.061515989e-13,2.855475266e-13,2.583836757e-14,1.727317841e-14,1.325348907e-13,3.601817349e-13,1.546169196e-14,4.949659941e-14,8.422669486e-13,1.009443169e-13,2.901640191e-13,3.411239596e-13,2.103557455e-13,2.161388904e-13,2.525062825e-13,2.867400612e-13,6.480047796e-14
0.140625,3.022338545e-13,1.629811384e-13,2.44135627e-13,4.104406272e-13,2.196354407e-13,1.463579136e-13,2.260625364e-12,5.357220874e-14,3.376259707e-14,6.517554583e-13,5.530216435e-14,3.102996558e-13,2.632190808e-13,2.470299354e-13,8.813062351e-14,9.806458499e-14,2.84274129e-13,2.827994636e-14,1.893095495e-14,1.236112248e-13,3.675666128e-13,1.541763635e-14,5.856918438e-14,8.478839315e-13,1.044406006e-13,2.755696108e-13,3.109260636e-13,1.834167648e-13,2.104815226e-13,2.534953612e-13,2.698130584e-13,6.297517179e-14
0.1484375,2.879819031e-13,1.769710188e-13,2.175913953e-13,3.996147031e-13,2.142294325e-13,1.481136936e-13,2.192344382e-12,5.208710132e-14,3.06930016e-14,6.214800276e-13,5.333446828e-14,2.887580401e-13,2.667004075e-13,2.26809022e-13,7.782332071e-14,9.149401591e-14,2.770264712e-13,3.316523599e-14,2.067606764e-14,1.142641896e-13,3.74330409e-13,1.568925392e-14,6.779044028e-14,8.403673529e-13,1.102789571e-13,2.556949795e-13,2.761747198e-13,1.592492141e-13,1.992050033e-13,2.512714352e-13,2.479672494e-13,6.157471814e-14
0.15625,2.707941688e-13,1.906488581e-13,1.935600728e-13,3.87835329e-13,2.062302781e-13,1.527214843e-13,2.066276538e-12,5.24197965e-14,2.823888493e-14,5.747255963e-13,5.285126207e-14,2.605013084e-13,2.647328344e-13,2.036313972e-13,6.974911596e-14,8.679040366e-14,2.66046059e-13,4.065171541e-14,2.267176249e-14,1.059599739e-13,3.807582738e-13,1.624671557e-14,7.63196435e-14,8.266628845e-13,1.172031911e-13,2.308865163e-13,2.384761043e-13,1.378102049e-13,1.836291113e-13,2.449922245e-13,2.224309988e-13,6.033917707e-14
0.1640625,2.545176575e-13,2.039044082e-13,1.753066232e-13,3.777895781e-13,1.969578823e-13,1.600300677e-13,1.895166421e-12,5.543013176e-14,2.665371703e-14,5.182608514e-13,5.358293197e-14,2.289940156e-13,2.586414977e-13,1.793213116e-13,6.359123378e-14,8.328565709e-14,2.528387462e-13,5.085013826e-14,2.506747958e-14,9.837191795e-14,3.855817876e-13,1.703254526e-14,8.342251996e-14,8.156003437e-13,1.253613537e-13,2.036465514e-13,2.012156996e-13,1.205048994e-13,1.664698403e-13,2.360824662e-13,1.956727662e-13,5.919804461e-14
0.171875,2.400448258e-13,2.163493267e-13,1.624896166e-13,3.701561576e-13,1.882043324e-13,1.669284647e-13,1.703372774e-12,6.064690399e-14,2.573514002e-14,4.587335011e-13,5.496433455e-14,1.963675398e-13,2.50859926e-13,1.55088324e-13,5.933767804e-14,8.08032995e-14,2.394680831e-13,6.363028794e-14,2.78802624e-14,9.177534301e-14,3.875290242e-13,1.769530047e-14,8.856774175e-14,8.216483932e-13,1.344493858e-13,1.779046867e-13,1.6771763e-13,1.075285605e-13,1.502904766e-13,2.249600524e-13,1.713352513e-13,5.888116231e-14
0.1796875,2.299654376e-13,2.278082201e-13,1.571539827e-13,3.652721822e-13,1.801204762e-13,1.716931849e-13,1.509238471e-12,6.860602781e-14,2.560147149e-14,4.038341456e-13,5.667930622e-14,1.64675092e-13,2.435731495e-13,1.318377733e-13,5.672393495e-14,7.900117829e-14,2.295187404e-13,7.898186545e-14,3.167743535e-14,8.613484746e-14,3.848897015e-13,1.802974183e-14,9.007592001e-14,8.556473518e-13,1.437446253e-13,1.549330048e-13,1.397719618e-13,9.938704104e-14,1.36325766e-13,2.136424548e-13,1.511921494e-13,5.93492848e-14
0.1875,2.247491596e-13,2.392980527e-13,1.596305502e-13,3.610062305e-13,1.720232061e-13,1.726116478e-13,1.319749615e-12,7.864543411e-14,2.614475868e-14,3.568192083e-13,5.841640415e-14,1.352722377e-13,2.388019186e-13,1.101214417e-13,5.526206717e-14,7.759383776e-14,2.248837158e-13,9.602265454e-14,3.681563392e-14,8.182343169e-14,3.794114477e-13,1.836010248e-14,8.834005094e-14,9.293299457e-13,1.53447981e-13,1.330890081e-13,1.158607898e-13,9.532006671e-14,1.244151613e-13,2.035622547e-13,1.340257671e-13,6.057804405e-14
0.1953125,2.240106704e-13,2.525362443e-13,1.702238649e-13,3.5612332e-13,1.640831114e-13,1.708630293e-13,1.138522626e-12,8.993137529e-14,2.686171122e-14,3.209897378e-13,5.953020152e-14,1.0949231e-13,2.393334364e-13,9.076884143e-14,5.488323555e-14,7.606662722e-14,2.24671417e-13,1.134218419e-13,4.31826599e-14,7.902707751e-14,3.722006868e-13,1.862239715e-14,8.506665321e-14,1.050813913e-12,1.651158939e-13,1.135282022e-13,9.602748195e-14,9.502731674e-14,1.152526187e-13,1.941416325e-13,1.201878156e-13,6.234450044e-14
0.203125,2.274420723e-13,2.677628045e-13,1.884804577e-13,3.495369963e-13,1.557191192e-13,1.659117468e-13,9.733270621e-13,1.01389794e-13,2.790618647e-14,2.975370692e-13,6.045595164e-14,8.850384144e-14,2.467031531e-13,7.586645183e-14,5.58980013e-14,7.390888019e-14,2.277479386e-13,1.296580653e-13,5.053468138e-14,7.965081158e-14,3.652489194e-13,1.853394124e-14,8.000420477e-14,1.216690264e-12,1.78803889e-13,9.834985428e-14,8.195594524e-14,9.793781115e-14,1.097901698e-13,1.865705155e-13,1.107717493e-13,6.550321591e-14
0.2109375,2.358406232e-13,2.855089861e-13,2.153104483e-13,3.425830935e-13,1.473441062e-13,1.580865729e-13,8.305027141e-13,1.115796278e-13,2.912538858e-14,2.854149435e-13,6.158551439e-14,7.2278616e-14,2.600828794e-13,6.487722982e-14,5.726983784e-14,7.035964978e-14,2.316168065e-13,1.42639898e-13,5.968682143e-14,8.564535571e-14,3.640861692e-13,1.851773642e-14,7.342342201e-14,1.427834817e-12,1.936937924e-13,8.642406141e-14,7.176125725e-14,1.029401412e-13,1.065601542e-13,1.821511394e-13,1.064906617e-13,6.978645598e-14
0.21875,2.453613263e-13,3.0353261e-13,2.465940978e-13,3.346079765e-13,1.384458816e-13,1.481097533e-13,7.125089968e-13,1.193119367e-13,3.063301161e-14,2.814036849e-13,6.376003331e-14,6.08148192e-14,2.777023074e-13,5.831499123e-14,6.081333007e-14,6.624357441e-14,2.343363009e-13,1.506714302e-13,6.950879141e-14,9.880810384e-14,3.724871451e-13,1.883216029e-14,6.71991446e-14,1.663818908e-12,2.107339045e-13,7.717038073e-14,6.480112628e-14,1.086783363e-13,1.052423019e-13,1.794459683e-13,1.059959694e-13,7.462218861e-14
0.2265625,2.560227101e-13,3.197458931e-13,2.800243811e-13,3.269601902e-13,1.292625779e-13,1.383527245e-13,6.221569072e-13,1.242261013e-13,3.297740483e-14,2.824931522e-13,6.884868825e-14,5.496491364e-14,2.975860122e-13,5.646353196e-14,6.734488382e-14,6.313377299e-14,2.352504949e-13,1.552430651e-13,7.965986347e-14,1.215806249e-13,3.910150776e-13,1.96731315e-14,6.184679605e-14,1.903912197e-12,2.29041601e-13,7.137589418e-14,6.205771684e-14,1.139129817e-13,1.05991527e-13,1.795073116e-13,1.087793208e-13,7.996539418e-14
0.234375,2.672479957e-13,3.338087545e-13,3.146995609e-13,3.213393833e-13,1.203428833e-13,1.295766935e-13,5.566813014e-13,1.249737828e-13,3.624917799e-14,2.818885352e-13,7.737548631e-14,5.269234908e-14,3.121314445e-13,5.713478213e-14,7.536796007e-14,6.052435863e-14,2.328927008e-13,1.563695829e-13,8.973285042e-14,1.552236077e-13,4.170511842e-13,2.137264516e-14,5.716716289e-14,2.108791363e-12,2.43566548e-13,6.814634015e-14,6.159424689e-14,1.171504602e-13,1.068510405e-13,1.817255588e-13,1.128679572e-13,8.622172821e-14
0.2421875,2.777900368e-13,3.412117399e-13,3.501991374e-13,3.177441301e-13,1.123267913e-13,1.230446562e-13,5.183158745e-13,1.230204965e-13,4.12621229e-14,2.794225655e-13,8.987972012e-14,5.40570639e-14,3.176333974e-13,6.006075595e-14,8.508206656e-14,5.891229473e-14,2.274387177e-13,1.539177144e-13,9.860496558e-14,1.987558964e-13,4.476458648e-13,2.428114414e-14,5.389323892e-14,2.257775484e-12,2.53823988e-13,6.798356156e-14,6.424767549e-14,1.193413676e-13,1.07324527e-13,1.861797536e-13,1.178211248e-13,9.337022786e-14
0.25,2.825973584e-13,3.421247825e-13,3.797126769e-13,3.124984369e-13,1.055539961e-13,1.168903585e-13,5.077067591e-13,1.193614069e-13,4.883426859e-14,2.719715584e-13,1.064079039e-13,5.920877345e-14,3.114459542e-13,6.463892572e-14,9.6876168e-14,5.882024635e-14,2.194656202e-13,1.469627921e-13,1.043322147e-13,2.490090866e-13,4.736530347e-13,2.825436719e-14,5.164096282e-14,2.319764667e-12,2.567698462e-13,7.017257101e-14,6.924884837e-14,1.18765957e-13,1.067904264e-13,1.923083873e-13,1.227979206e-13,1.016589294e-13
0.2578125,2.8487123e-13,3.386685508e-13,4.044635102e-13,3.027038607e-13,9.961230019e-14,1.107191978e-13,5.16923484e-13,1.159692066e-13,5.877238179e-14,2.631308347e-13,1.252142182e-13,6.737929118e-14,2.959078849e-13,6.979543558e-14,1.099843614e-13,5.953236551e-14,2.101055963e-13,1.371004434e-13,1.068964674e-13,3.042618242e-13,4.889832921e-13,3.320928748e-14,4.988469642e-14,2.286392171e-12,2.523385849e-13,7.459516957e-14,7.671524319e-14,1.171096626e-13,1.058417206e-13,2.000997515e-13,1.269532336e-13,1.111226353e-13
0.265625,2.859718806e-13,3.328511277e-13,4.239894694e-13,2.890266424e-13,9.438494967e-14,1.050862363e-13,5.417870674e-13,1.139041996e-13,7.108276348e-14,2.533075594e-13,1.455043725e-13,7.812384718e-14,2.702875494e-13,7.416321126e-14,1.241972513e-13,6.103578474e-14,2.015523489e-13,1.26513134e-13,1.068234266e-13,3.608005322e-13,4.899689902e-13,3.912818569e-14,4.822590252e-14,2.155084582e-12,2.398346883e-13,8.186081594e-14,8.683561927e-14,1.141241192e-13,1.059975084e-13,2.118755442e-13,1.309104638e-13,1.207551393e-13
0.2734375,2.883315965e-13,3.266099671e-13,4.40469973e-13,2.694822797e-13,8.913349609e-14,9.926549468e-14,5.720029428e-13,1.144881516e-13,8.529852533e-14,2.4381619e-13,1.657561518e-13,9.09090383e-14,2.380482746e-13,7.857624746e-14,1.391965798e-13,6.349848678e-14,1.945806117e-13,1.160478437e-13,1.037080789e-13,4.134178348e-13,4.72067299e-13,4.601282695e-14,4.696532308e-14,1.945457048e-12,2.210512114e-13,9.152399697e-14,9.870505123e-14,1.105630276e-13,1.068970686e-13,2.286467902e-13,1.340151708e-13,1.309325282e-13
0.28125,2.955286496e-13,3.212328254e-13,4.59013349e-13,2.455407091e-13,8.437533971e-14,9.397862246e-14,6.111223932e-13,1.183187561e-13,1.010106386e-13,2.374646314e-13,1.845493467e-13,1.044408082e-13,2.030550621e-13,8.311934415e-14,1.561660343e-13,6.698934792e-14,1.88709775e-13,1.058451678e-13,9.850226968e-14,4.593259781e-13,4.392850644e-13,5.39653395e-14,4.62718465e-14,1.697864076e-12,1.986762635e-13,1.042944717e-13,1.126965421e-13,1.077054927e-13,1.088106615e-13,2.509434912e-13,1.368654959e-13,1.421973414e-13
0.2890625,3.078043044e-13,3.190120488e-13,4.830519412e-13,2.157690843e-13,7.893062562e-14,9.10085933e-14,6.472521931e-13,1.244277176e-13,1.169355611e-13,2.332367049e-13,2.002068579e-13,1.167045584e-13,1.698747708e-13,8.880197441e-14,1.759455246e-13,7.209561371e-14,1.854540907e-13,9.59587327e-14,9.191575361e-14,4.93438867e-13,3.938231434e-13,6.254110875e-14,4.648340207e-14,1.432525654e-12,1.770731665e-13,1.196164805e-13,1.289956851e-13,1.066997642e-13,1.111044168e-13,2.765763237e-13,1.383343388e-13,1.54132878e-13
0.296875,3.245605044e-13,3.208239681e-13,5.105163317e-13,1.838790888e-13,7.329831988e-14,8.937155414e-14,6.798945664e-13,1.329663164e-13,1.321757502e-13,2.335985161e-13,2.111020931e-13,1.257249056e-13,1.422004724e-13,9.447529766e-14,1.959694918e-13,7.834469915e-14,1.845081772e-13,8.691360178e-14,8.439444385e-14,5.167803263e-13,3.392858992e-13,7.107409081e-14,4.718656095e-14,1.186657123e-12,1.582796388e-13,1.381059803e-13,1.477441345e-13,1.079444295e-13,1.1498361e-13,3.028530116e-13,1.400905138e-13,1.660530088e-13
0.3046875,3.486391694e-13,3.257299619e-13,5.439276453e-13,1.534797854e-13,6.837944199e-14,8.943515459e-14,7.040131448e-13,1.423840391e-13,1.456287154e-13,2.367672998e-13,2.181972882e-13,1.320523638e-13,1.193484651e-13,1.007699706e-13,2.140363417e-13,8.567314832e-14,1.848247953e-13,8.071984641e-14,7.780849448e-14,5.284542701e-13,2.816804566e-13,7.942294236e-14,4.816033153e-14,9.758500883e-13,1.424768967e-13,1.596097204e-13,1.681355702e-13,1.108116908e-13,1.207411611e-13,3.289133402e-13,1.436495445e-13,1.775755571e-13
0.3125,3.798444784e-13,3.344176961e-13,5.8362366e-13,1.25378645e-13,6.369175998e-14,9.147317042e-14,7.194171312e-13,1.521962837e-13,1.573819028e-13,2.431234357e-13,2.227473293e-13,1.369768738e-13,1.044410317e-13,1.089513327e-13,2.306729657e-13,9.433953839e-14,1.857505423e-13,7.738792152e-14,7.296856758e-14,5.273816041e-13,2.262683627e-13,8.714321546e-14,4.964888586e-14,8.192977285e-13,1.314609853e-13,1.825012965e-13,1.887660922e-13,1.15423109e-13,1.272344882e-13,3.555721263e-13,1.474202075e-13,1.874309717e-13
0.3203125,4.147580031e-13,3.471375787e-13,6.249563854e-13,1.016947964e-13,5.926132928e-14,9.490518614e-14,7.273383271e-13,1.610420724e-13,1.669562431e-13,2.509077122e-13,2.239657681e-13,1.407722598e-13,9.616004259e-14,1.182015271e-13,2.441683522e-13,1.032937965e-13,1.854608041e-13,7.588148525e-14,6.964169322e-14,5.166383508e-13,1.781590732e-13,9.328497347e-14,5.139716433e-14,7.207750386e-13,1.237167505e-13,2.055973895e-13,2.069450147e-13,1.207084212e-13,1.336226072e-13,3.792780431e-13,1.508170346e-13,1.943231198e-13
0.328125,4.441063661e-13,3.606509157e-13,6.568266297e-13,8.154139463e-14,5.495417928e-14,9.832538161e-14,7.206843312e-13,1.672675961e-13,1.723783403e-13,2.559836341e-13,2.20999135e-13,1.421775404e-13,9.29644638e-14,1.276304054e-13,2.527823253e-13,1.1224492e-13,1.832792847e-13,7.656728504e-14,6.72226354e-14,5.018152807e-13,1.393599092e-13,9.676832172e-14,5.27831685e-14,6.72919926e-13,1.194075139e-13,2.261339067e-13,2.211633014e-13,1.258952366e-13,1.382144341e-13,3.951087772e-13,1.526203496e-13,1.968543376e-13
0.3359375,4.647515986e-13,3.729705744e-13,6.75535933e-13,6.529202199e-14,5.0814773e-14,1.017236378e-13,7.066391168e-13,1.70662306e-13,1.72059089e-13,2.606747874e-13,2.139598559e-13,1.421769894e-13,9.456924464e-14,1.365986485e-13,2.546775636e-13,1.203328433e-13,1.786123489e-13,7.900828609e-14,6.535016456e-14,4.817254718e-13,1.101771711e-13,9.697627883e-14,5.340485298e-14,6.687714237e-13,1.170407333e-13,2.421301981e-13,2.301540074e-13,1.308605969e-13,1.414869136e-13,3.998516074e-13,1.526268465e-13,1.940563301e-13
0.34375,4.721923863e-13,3.829973755e-13,6.754980303e-13,5.24989692e-14,4.700904766e-14,1.047462197e-13,6.828958399e-13,1.712066068e-13,1.668198308e-13,2.636359228e-13,2.041456518e-13,1.412490431e-13,9.920054969e-14,1.441467876e-13,2.500793424e-13,1.275672912e-13,1.716999775e-13,8.286636709e-14,6.392001521e-14,4.585680382e-13,9.057541993e-14,9.447177743e-14,5.299258241e-14,6.932343626e-13,1.158087948e-13,2.51822095e-13,2.330307858e-13,1.351011539e-13,1.428656475e-13,3.925706782e-13,1.509338933e-13,1.859188325e-13
0.3515625,4.651323738e-13,3.911236535e-13,6.580829654e-13,4.233152799e-14,4.343566546e-14,1.078205111e-13,6.515754845e-13,1.687789485e-13,1.577222002e-13,2.654497675e-13,1.916544355e-13,1.395634326e-13,1.056493817e-13,1.49454552e-13,2.385654649e-13,1.317760061e-13,1.609852931e-13,8.62318432e-14,6.237850056e-14,4.325565064e-13,7.885087649e-14,9.021072424e-14,5.161453728e-14,7.337277762e-13,1.146227622e-13,2.543040104e-13,2.293451912e-13,1.38017566e-13,1.418001855e-13,3.752798076e-13,1.466276543e-13,1.737360965e-13
0.359375,4.42954306e-13,3.966848083e-13,6.254777328e-13,3.38915521e-14,4.032829076e-14,1.109582857e-13,6.203343056e-13,1.644745495e-13,1.468336646e-13,2.673991729e-13,1.78281641e-13,1.375189473e-13,1.127160246e-13,1.522243657e-13,2.22095422e-13,1.335737675e-13,1.495590287e-13,8.959938511e-14,6.008992526e-14,4.060791406e-13,7.187829738e-14,8.515453432e-14,4.948936795e-14,7.791079219e-13,1.130550954e-13,2.49543197e-13,2.191062084e-13,1.38784291e-13,1.386950019e-13,3.488497203e-13,1.396397698e-13,1.59616997e-13
0.3671875,4.091675346e-13,4.007057164e-13,5.827523942e-13,2.747866253e-14,3.788989535e-14,1.136039191e-13,5.851648522e-13,1.578249428e-13,1.355534768e-13,2.690457585e-13,1.644016176e-13,1.350678507e-13,1.198470965e-13,1.520382379e-13,2.020752532e-13,1.328395319e-13,1.372195471e-13,9.2554963e-14,5.741188531e-14,3.81635496e-13,6.989384721e-14,8.003299749e-14,4.709176434e-14,8.276992971e-13,1.102217613e-13,2.389843092e-13,2.04639305e-13,1.390776642e-13,1.337716396e-13,3.164974869e-13,1.315102333e-13,1.446299942e-13
0.375,3.674691241e-13,4.032157933e-13,5.32578001e-13,2.314839805e-14,3.587154916e-14,1.16229161e-13,5.465161602e-13,1.488977779e-13,1.24343786e-13,2.676630326e-13,1.503240584e-13,1.316688556e-13,1.266982381e-13,1.496488291e-13,1.812997076e-13,1.30097601e-13,1.259017124e-13,9.627622194e-14,5.458225656e-14,3.58036558e-13,6.951344594e-14,7.555406241e-14,4.519921089e-14,8.746568801e-13,1.069232431e-13,2.250463471e-13,1.887424273e-13,1.393070239e-13,1.292934475e-13,2.790210446e-13,1.240237475e-13,1.298424983e-13
0.3828125,3.259313175e-13,4.023785251e-13,4.835049211e-13,2.075667807e-14,3.422693155e-14,1.198408003e-13,5.083769496e-13,1.377975581e-13,1.145324194e-13,2.625909345e-13,1.388294249e-13,1.279300969e-13,1.34311056e-13,1.473745297e-13,1.632181994e-13,1.260369494e-13,1.166192351e-13,1.021940538e-13,5.257420085e-14,3.368403032e-13,7.253455629e-14,7.222917671e-14,4.364503622e-14,9.28275588e-13,1.035451796e-13,2.085061535e-13,1.733964109e-13,1.389119917e-13,1.251172963e-13,2.424020098e-13,1.171912886e-13,1.162983138e-13
0.390625,2.880157939e-13,3.982639803e-13,4.407573343e-13,2.080910953e-14,3.351664593e-14,1.261711691e-13,4.745944177e-13,1.253453992e-13,1.070684171e-13,2.541716703e-13,1.314802499e-13,1.238691727e-13,1.411105259e-13,1.457049682e-13,1.492990161e-13,1.216199751e-13,1.11090624e-13,1.110073166e-13,5.185368943e-14,3.187044926e-13,7.607933142e-14,7.070111531e-14,4.270001803e-14,9.82699267e-13,9.969733725e-14,1.897506749e-13,1.585205242e-13,1.36264896e-13,1.21690062e-13,2.087990797e-13,1.104144246e-13,1.052108688e-13
0.3984375,2.558276914e-13,3.909261432e-13,4.046359661e-13,2.355820359e-14,3.469963923e-14,1.340553981e-13,4.427912015e-13,1.130362969e-13,1.023446851e-13,2.437863133e-13,1.283192855e-13,1.201746599e-13,1.484597846e-13,1.45283572e-13,1.394558462e-13,1.180628431e-13,1.104920211e-13,1.228479209e-13,5.25446953e-14,3.04719037e-13,8.228741692e-14,7.008006672e-14,4.275618653e-14,1.053556848e-12,9.68941298e-14,1.713673756e-13,1.450143051e-13,1.321159214e-13,1.197000057e-13,1.797575593e-13,1.050045529e-13,9.62305911e-14
0.40625,2.300719195e-13,3.811700502e-13,3.744892367e-13,2.99864556e-14,3.828027067e-14,1.4324525e-13,4.115544446e-13,9.99507635e-14,9.936622817e-14,2.298812016e-13,1.282157018e-13,1.166967447e-13,1.546832154e-13,1.469761687e-13,1.342459739e-13,1.166951066e-13,1.140677791e-13,1.36834467e-13,5.445943398e-14,2.970871423e-13,9.006810947e-14,7.004659336e-14,4.362509508e-14,1.123144611e-12,9.404423834e-14,1.550977858e-13,1.337732768e-13,1.26046111e-13,1.193362165e-13,1.557676111e-13,1.02093303e-13,8.874640939e-14
0.4140625,2.104758389e-13,3.697851422e-13,3.484080985e-13,4.058682154e-14,4.444734722e-14,1.542897022e-13,3.808256452e-13,8.692646759e-14,9.746219506e-14,2.127069089e-13,1.31114924e-13,1.134801558e-13,1.587265728e-13,1.509623033e-13,1.341553462e-13,1.187846614e-13,1.220229403e-13,1.539528851e-13,5.78184102e-14,2.947370674e-13,1.006221242e-13,7.044149872e-14,4.5517194e-14,1.198377449e-12,9.249787129e-14,1.429243958e-13,1.265100972e-13,1.179134911e-13,1.201913232e-13,1.362502767e-13,1.028362558e-13,8.221419422e-14
0.421875,1.976376231e-13,3.57790874e-13,3.268631911e-13,5.511375576e-14,5.348818906e-14,1.678128389e-13,3.574017576e-13,7.469252431e-14,9.660338511e-14,1.951589889e-13,1.375317825e-13,1.114131462e-13,1.614004858e-13,1.573704683e-13,1.381096215e-13,1.239137341e-13,1.342049904e-13,1.743508983e-13,6.310294686e-14,2.983051579e-13,1.138821812e-13,7.15904381e-14,4.791200078e-14,1.265183729e-12,9.300445641e-14,1.323945876e-13,1.236487889e-13,1.094213611e-13,1.211761323e-13,1.229100785e-13,1.048985725e-13,7.736262609e-14
0.4296875,1.904638873e-13,3.453670473e-13,3.076565864e-13,7.464896753e-14,6.591149221e-14,1.838752589e-13,3.386100684e-13,6.432361012e-14,9.596302132e-14,1.795370401e-13,1.460484823e-13,1.108329271e-13,1.647683835e-13,1.658206546e-13,1.452857229e-13,1.32145789e-13,1.503529547e-13,1.96909238e-13,7.019653102e-14,3.070414173e-13,1.292306336e-13,7.266978356e-14,5.138565633e-14,1.320967802e-12,9.746230943e-14,1.221271729e-13,1.242010158e-13,1.023440637e-13,1.214842726e-13,1.154200099e-13,1.060772583e-13,7.372303549e-14
0.4375,1.871658975e-13,3.331049119e-13,2.89456259e-13,9.877067164e-14,8.175887897e-14,2.01295314e-13,3.211898941e-13,5.649460488e-14,9.578055179e-14,1.672102394e-13,1.556542246e-13,1.128648786e-13,1.695000406e-13,1.764720951e-13,1.555279506e-13,1.439929343e-13,1.699865651e-13,2.213324096e-13,7.877940541e-14,3.205931964e-13,1.476438047e-13,7.318570714e-14,5.555812593e-14,1.362086473e-12,1.063687152e-13,1.133548201e-13,1.280640331e-13,9.820440387e-14,1.213764061e-13,1.139912311e-13,1.07202736e-13,7.080194382e-14
0.4453125,1.85546288e-13,3.203012841e-13,2.714778439e-13,1.266988538e-13,1.005625525e-13,2.173891088e-13,3.081800977e-13,5.048502228e-14,9.582780816e-14,1.572291536e-13,1.644339396e-13,1.168912183e-13,1.723541434e-13,1.875601353e-13,1.674696793e-13,1.587263185e-13,1.920268703e-13,2.454280317e-13,8.745842417e-14,3.371297422e-13,1.660065108e-13,7.28922073e-14,5.916342536e-14,1.384346147e-12,1.184210046e-13,1.066595066e-13,1.355495413e-13,9.669140671e-14,1.207467008e-13,1.172875655e-13,1.088526873e-13,6.87475229e-14
0.453125,1.841950051e-13,3.075468099e-13,2.525968963e-13,1.567791058e-13,1.206395131e-13,2.293108142e-13,3.012360659e-13,4.577250187e-14,9.602787005e-14,1.479228402e-13,1.722886079e-13,1.221109279e-13,1.747531807e-13,1.986915005e-13,1.812608301e-13,1.764981289e-13,2.183054161e-13,2.694556514e-13,9.577887323e-14,3.558745875e-13,1.885439996e-13,7.204637963e-14,6.273028227e-14,1.40971675e-12,1.355793214e-13,1.014853258e-13,1.482321718e-13,9.792592888e-14,1.191741724e-13,1.24070136e-13,1.105897339e-13,6.773106348e-14
0.4609375,1.839506687e-13,2.940387409e-13,2.354327715e-13,1.867503824e-13,1.392786565e-13,2.389764368e-13,3.028313352e-13,4.275145516e-14,9.601283117e-14,1.395128408e-13,1.782106445e-13,1.274843587e-13,1.764285052e-13,2.085473234e-13,1.951940513e-13,1.954024719e-13,2.468637242e-13,2.924465003e-13,1.037490385e-13,3.738049046e-13,2.129476342e-13,7.108155417e-14,6.712486106e-14,1.431899173e-12,1.580708656e-13,9.6981515e-14,1.651449896e-13,1.018989756e-13,1.16038043e-13,1.336537063e-13,1.097943311e-13,6.766441443e-14
0.46875,1.848864223e-13,2.801436897e-13,2.207168098e-13,2.141790152e-13,1.547068766e-13,2.468252326e-13,3.189855863e-13,4.180600273e-14,9.628000331e-14,1.332654779e-13,1.81588264e-13,1.33411767e-13,1.7847911e-13,2.16951968e-13,2.086398251e-13,2.134419101e-13,2.754179408e-13,3.115018752e-13,1.100854506e-13,3.894872662e-13,2.389879104e-13,6.971918694e-14,7.268364636e-14,1.461432014e-12,1.837273381e-13,9.318063982e-14,1.828239013e-13,1.071134894e-13,1.117936438e-13,1.446303869e-13,1.064767787e-13,6.870871058e-14
0.4765625,1.87431604e-13,2.654296467e-13,2.077016493e-13,2.378742464e-13,1.65916456e-13,2.507688199e-13,3.499387763e-13,4.189249419e-14,9.705986469e-14,1.284175399e-13,1.822268592e-13,1.39276545e-13,1.818476497e-13,2.23072252e-13,2.202079333e-13,2.299676553e-13,3.03282065e-13,3.251731721e-13,1.135746376e-13,3.989335294e-13,2.648729707e-13,6.811730074e-14,7.993360052e-14,1.504722938e-12,2.103858381e-13,9.091712686e-14,1.996594374e-13,1.129930764e-13,1.067110193e-13,1.54002672e-13,1.023445837e-13,7.119767368e-14
0.484375,1.920258881e-13,2.525199502e-13,1.978059107e-13,2.561715444e-13,1.720992054e-13,2.506144346e-13,3.950781335e-13,4.288262076e-14,9.813331224e-14,1.25316394e-13,1.799892655e-13,1.446600593e-13,1.866895277e-13,2.265232588e-13,2.302202448e-13,2.444509399e-13,3.290766683e-13,3.320968132e-13,1.141940454e-13,4.018321095e-13,2.895388239e-13,6.658223605e-14,8.932251682e-14,1.553304918e-12,2.367908341e-13,9.131925725e-14,2.15063168e-13,1.198329215e-13,1.014033961e-13,1.628374964e-13,9.775749756e-14,7.52363576e-14
0.4921875,1.988368001e-13,2.408011764e-13,1.904370269e-13,2.698284427e-13,1.733238991e-13,2.464022467e-13,4.541824748e-13,4.492981812e-14,9.971217149e-14,1.232162629e-13,1.748427143e-13,1.495968742e-13,1.928107141e-13,2.267418281e-13,2.364405006e-13,2.539199765e-13,3.486797998e-13,3.297312844e-13,1.111658066e-13,3.980024412e-13,3.129413598e-13,6.529218212e-14,1.005774779e-13,1.606754272e-12,2.616119394e-13,9.491740836e-14,2.273545569e-13,1.267267286e-13,9.669156278e-14,1.685771045e-13,9.360286326e-14,8.042296438e-14
0.5,2.08711734e-13,2.31478234e-13,1.861759391e-13,2.786466326e-13,1.692331714e-13,2.395179865e-13,5.210929772e-13,4.705767977e-14,1.007984954e-13,1.204583311e-13,1.667274776e-13,1.519715063e-13,1.97104672e-13,2.224716182e-13,2.383239013e-13,2.584086838e-13,3.62553724e-13,3.194567522e-13,1.057061052e-13,3.878852675e-13,3.333169897e-13,6.451624574e-14,1.121706117e-13,1.647256297e-12,2.805829009e-13,1.000749652e-13,2.341536713e-13,1.315630116e-13,9.23092929e-14,1.709255887e-13,8.936111914e-14,8.580438887e-14
0.5078125,2.2165723e-13,2.249091097e-13,1.852749741e-13,2.814819639e-13,1.603199464e-13,2.310527488e-13,5.907150258e-13,4.900253906e-14,1.011886596e-13,1.173562397e-13,1.564733914e-13,1.51881165e-13,1.985306997e-13,2.147483465e-13,2.366259359e-13,2.581871234e-13,3.692715981e-13,3.015992023e-13,9.770330785e-14,3.70975453e-13,3.463303797e-13,6.397577409e-14,1.227444378e-13,1.679729954e-12,2.898542505e-13,1.053626757e-13,2.323734872e-13,1.323332163e-13,8.767177004e-14,1.698618767e-13,8.497155003e-14,9.170551485e-14
0.515625,2.365085022e-13,2.191026809e-13,1.874075608e-13,2.784042096e-13,1.480043679e-13,2.200840149e-13,6.517977203e-13,5.054272567e-14,1.011209194e-13,1.138198243e-13,1.455907803e-13,1.499588217e-13,1.959753575e-13,2.040035953e-13,2.331466181e-13,2.5579918e-13,3.722065118e-13,2.784028613e-13,8.750097551e-14,3.485086393e-13,3.529162061e-13,6.365992714e-14,1.312546504e-13,1.695773263e-12,2.890765219e-13,1.109128475e-13,2.233582309e-13,1.299997764e-13,8.318700793e-14,1.668112601e-13,8.077994046e-14,9.805630366e-14
0.5234375,2.525882153e-13,2.151795279e-13,1.928559499e-13,2.708632949e-13,1.346430636e-13,2.087020437e-13,6.999023784e-13,5.15940257e-14,1.004501312e-13,1.104808398e-13,1.345748941e-13,1.461472701e-13,1.88311266e-13,1.905175336e-13,2.282384903e-13,2.519512015e-13,3.707862615e-13,2.514026865e-13,7.677556876e-14,3.21462528e-13,3.524935388e-13,6.395529743e-14,1.371731896e-13,1.696160762e-12,2.81192816e-13,1.153408836e-13,2.071819942e-13,1.260371821e-13,7.830835115e-14,1.62494857e-13,7.676294694e-14,1.052038758e-13
0.53125,2.684131868e-13,2.116803067e-13,1.992491524e-13,2.604499144e-13,1.217692798e-13,1.965916659e-13,7.297002798e-13,5.237520878e-14,9.901791264e-14,1.078214651e-13,1.243320888e-13,1.409660821e-13,1.749262432e-13,1.75371699e-13,2.236628859e-13,2.488970193e-13,3.686802145e-13,2.243936724e-13,6.705315051e-14,2.953732277e-13,3.474241556e-13,6.440501445e-14,1.389412803e-13,1.66991429e-12,2.670189397e-13,1.185612628e-13,1.852643599e-13,1.217172603e-13,7.290556312e-14,1.584235998e-13,7.374372099e-14,1.12333285e-13
0.5390625,2.833501592e-13,2.097836891e-13,2.050955954e-13,2.470964241e-13,1.104449991e-13,1.829609376e-13,7.377672645e-13,5.279804024e-14,9.726799646e-14,1.049527191e-13,1.14915636e-13,1.344825356e-13,1.568395044e-13,1.594696081e-13,2.213063447e-13,2.483051975e-13,3.690694388e-13,1.998236184e-13,5.885913418e-14,2.732559687e-13,3.378677796e-13,6.542386877e-14,1.367291207e-13,1.620917963e-12,2.475896574e-13,1.20272062e-13,1.609842053e-13,1.170368173e-13,6.739553186e-14,1.570909554e-13,7.15467539e-14,1.194771864e-13
0.546875,2.949779933e-13,2.070564932e-13,2.103838737e-13,2.309121121e-13,1.004793902e-13,1.681713478e-13,7.245182699e-13,5.271078288e-14,9.493032223e-14,1.027879515e-13,1.061511988e-13,1.270617376e-13,1.3822333e-13,1.439837189e-13,2.225855658e-13,2.517264089e-13,3.735002577e-13,1.790361574e-13,5.223733985e-14,2.558790404e-13,3.235048322e-13,6.708163392e-14,1.321428537e-13,1.547836889e-12,2.249661057e-13,1.20789183e-13,1.367348879e-13,1.127296114e-13,6.209550914e-14,1.572176953e-13,7.005912358e-14,1.267590794e-13
0.5546875,3.017095448e-13,2.025843022e-13,2.129676959e-13,2.124298499e-13,9.165351684e-14,1.525441174e-13,6.942035133e-13,5.244128416e-14,9.204927497e-14,1.008676749e-13,9.827813449e-14,1.196448128e-13,1.209212662e-13,1.302388376e-13,2.286235033e-13,2.601061994e-13,3.819297204e-13,1.632449275e-13,4.718137437e-14,2.434367595e-13,3.073744159e-13,6.850101042e-14,1.259027484e-13,1.464216082e-12,2.036151747e-13,1.208024278e-13,1.149222189e-13,1.10259173e-13,5.715112051e-14,1.585557058e-13,6.814869511e-14,1.335005717e-13
0.5625,3.037366671e-13,1.976950493e-13,2.120574733e-13,1.922852008e-13,8.413544425e-14,1.361513511e-13,6.545673597e-13,5.221385294e-14,8.913720679e-14,9.830408678e-14,9.131337833e-14,1.125076817e-13,1.050511276e-13,1.185884805e-13,2.382669257e-13,2.720535915e-13,3.94174214e-13,1.523081426e-13,4.380484305e-14,2.349706577e-13,2.902697191e-13,6.969299267e-14,1.178330864e-13,1.377813049e-12,1.841558107e-13,1.195810118e-13,9.570738652e-14,1.096668869e-13,5.174545557e-14,1.607159801e-13,6.528612198e-14,1.395154633e-13
0.5703125,3.014116518e-13,1.930825371e-13,2.077495934e-13,1.715133081e-13,7.83185646e-14,1.194810998e-13,6.140152082e-13,5.213355049e-14,8.640093332e-14,9.567324177e-14,8.536907565e-14,1.063603448e-13,9.187517747e-14,1.094991786e-13,2.515099269e-13,2.875949667e-13,4.114904732e-13,1.461128234e-13,4.202727648e-14,2.307002902e-13,2.718964549e-13,7.068749175e-14,1.089040571e-13,1.291782319e-12,1.673397668e-13,1.180266796e-13,8.155844845e-14,1.114746627e-13,4.672124222e-14,1.63454245e-13,6.3245263e-14,1.449473395e-13
0.578125,2.942513316e-13,1.873279704e-13,2.016117083e-13,1.510217834e-13,7.414558297e-14,1.038506527e-13,5.833027329e-13,5.193259262e-14,8.454025799e-14,9.237751134e-14,8.077053435e-14,1.008211015e-13,8.242801621e-14,1.019902321e-13,2.644660754e-13,3.028820204e-13,4.286893691e-13,1.43201743e-13,4.153926243e-14,2.315053745e-13,2.52161375e-13,7.215599319e-14,1.003897224e-13,1.215578454e-12,1.53876688e-13,1.165501347e-13,7.278212199e-14,1.140615013e-13,4.264992774e-14,1.647344322e-13,6.160338351e-14,1.501700958e-13
0.5859375,2.821082373e-13,1.797760362e-13,1.959830655e-13,1.31184838e-13,7.060264227e-14,9.057918873e-14,5.657911129e-13,5.131111301e-14,8.374136578e-14,8.807711246e-14,7.707658204e-14,9.553355434e-14,7.550260771e-14,9.515591753e-14,2.750791676e-13,3.160301265e-13,4.451501937e-13,1.429300167e-13,4.203060046e-14,2.366356261e-13,2.333543283e-13,7.398863439e-14,9.283706677e-14,1.151533697e-12,1.439776915e-13,1.147586678e-13,6.714023512e-14,1.161118513e-13,3.942323048e-14,1.632110338e-13,5.906199122e-14,1.545378646e-13
0.59375,2.620082398e-13,1.709685006e-13,1.900396857e-13,1.124670394e-13,6.676025166e-14,7.998030215e-14,5.565784138e-13,5.021748303e-14,8.39855771e-14,8.349337076e-14,7.435123392e-14,9.087271724e-14,6.996246878e-14,8.910266622e-14,2.840951791e-13,3.270377304e-13,4.600585165e-13,1.444001437e-13,4.276926847e-14,2.427296433e-13,2.146196189e-13,7.573620326e-14,8.543500472e-14,1.10497682e-12,1.372495552e-13,1.123177118e-13,6.418030079e-14,1.175448165e-13,3.680252622e-14,1.59515728e-13,5.497129789e-14,1.569371353e-13
0.6015625,2.371017778e-13,1.627569406e-13,1.832711075e-13,9.576889837e-14,6.296819523e-14,7.170569102e-14,5.526148684e-13,4.875792103e-14,8.606751054e-14,7.837116301e-14,7.348642488e-14,8.80000335e-14,6.653637924e-14,8.508870214e-14,2.923477654e-13,3.350191147e-13,4.723285591e-13,1.468937629e-13,4.363007458e-14,2.516866009e-13,1.96633778e-13,7.779408909e-14,7.820054783e-14,1.074754536e-12,1.335573315e-13,1.091587791e-13,6.427773159e-14,1.190097682e-13,3.514769853e-14,1.569303981e-13,5.084237555e-14,1.580100355e-13
0.609375,2.092766222e-13,1.549547996e-13,1.768044658e-13,8.167778964e-14,5.932818796e-14,6.591161128e-14,5.474094801e-13,4.698666272e-14,8.987827344e-14,7.285410617e-14,7.423370554e-14,8.70920741e-14,6.487489204e-14,8.309654014e-14,3.009662941e-13,3.40650602e-13,4.844048988e-13,1.507389188e-13,4.476029793e-14,2.630092483e-13,1.803109608e-13,7.998926946e-14,7.116254214e-14,1.064980398e-12,1.317799511e-13,1.05278839e-13,6.604905909e-14,1.184332233e-13,3.471352903e-14,1.574953789e-13,4.701646867e-14,1.579180011e-13
0.6171875,1.797056389e-13,1.47623156e-13,1.69701805e-13,7.05539704e-14,5.61779855e-14,6.154054195e-14,5.414801184e-13,4.492671714e-14,9.480638146e-14,6.695999978e-14,7.625395971e-14,8.790710855e-14,6.372910547e-14,8.314895467e-14,3.105236887e-13,3.438622029e-13,4.953996589e-13,1.55180658e-13,4.61067936e-14,2.760420425e-13,1.658925539e-13,8.199430868e-14,6.406547943e-14,1.070458688e-12,1.309594872e-13,1.00619949e-13,6.743488058e-14,1.159379472e-13,3.511414919e-14,1.609833924e-13,4.333823998e-14,1.561224869e-13
0.625,1.506580344e-13,1.413847962e-13,1.641021835e-13,6.271425318e-14,5.277220871e-14,5.977330509e-14,5.344725775e-13,4.27300548e-14,1.010942043e-13,6.127143565e-14,7.950432338e-14,9.132993397e-14,6.206044014e-14,8.479906314e-14,3.196558798e-13,3.432225773e-13,5.042443408e-13,1.592542609e-13,4.778987998e-14,2.920157748e-13,1.538917015e-13,8.412238688e-14,5.734705947e-14,1.087740686e-12,1.310365168e-13,9.504702007e-14,6.874639286e-14,1.121980777e-13,3.68373631e-14,1.682073848e-13,3.926696327e-14,1.518391427e-13
0.6328125,1.224790494e-13,1.359621295e-13,1.590123375e-13,5.633783066e-14,4.863873977e-14,5.976754117e-14,5.261070361e-13,4.073277979e-14,1.08648752e-13,5.637847741e-14,8.333826807e-14,9.74260571e-14,5.967563241e-14,8.691568057e-14,3.279630558e-13,3.386375579e-13,5.112431117e-13,1.624928972e-13,4.928080415e-14,3.10801194e-13,1.45137128e-13,8.619463164e-14,5.087851305e-14,1.112737874e-12,1.313413914e-13,8.931003124e-14,6.938850437e-14,1.079661247e-13,3.935435496e-14,1.787388838e-13,3.507278659e-14,1.453956415e-13
0.640625,9.844468934e-14,1.315516163e-13,1.545759718e-13,5.156605941e-14,4.444653813e-14,6.149877688e-14,5.187751208e-13,3.887148376e-14,1.162564249e-13,5.275280448e-14,8.613900607e-14,1.053797367e-13,5.731397547e-14,8.945078019e-14,3.368299308e-13,3.309135858e-13,5.159377429e-13,1.642760881e-13,5.061888035e-14,3.338087612e-13,1.391847894e-13,8.782383268e-14,4.51013601e-14,1.135670361e-12,1.315092632e-13,8.361890812e-14,6.898391863e-14,1.031025264e-13,4.155211448e-14,1.897751996e-13,3.118614285e-14,1.37656847e-13
0.6484375,7.969250151e-14,1.264489406e-13,1.517091207e-13,4.758033913e-14,4.017709727e-14,6.43949649e-14,5.176127227e-13,3.722065129e-14,1.224917616e-13,5.09896975e-14,8.745102744e-14,1.135829516e-13,5.592492956e-14,9.298005277e-14,3.488657956e-13,3.222683823e-13,5.219534292e-13,1.661269554e-13,5.222407666e-14,3.594103719e-13,1.367502664e-13,8.862110689e-14,4.001944114e-14,1.1521649e-12,1.304750855e-13,7.785200906e-14,6.635619978e-14,9.673881787e-14,4.249963951e-14,1.98908386e-13,2.747819037e-14,1.284150604e-13
0.65625,6.662796888e-14,1.218291888e-13,1.51039882e-13,4.465563946e-14,3.635002561e-14,6.787365272e-14,5.259326847e-13,3.613204485e-14,1.274608033e-13,5.104023594e-14,8.801767751e-14,1.224285918e-13,5.526241529e-14,9.872125401e-14,3.645383549e-13,3.130322435e-13,5.24951649e-13,1.66921783e-13,5.41218042e-14,3.861288818e-13,1.382200032e-13,8.871843084e-14,3.588557911e-14,1.158161061e-12,1.29150675e-13,7.290836836e-14,6.316041804e-14,9.037461564e-14,4.250326856e-14,2.063502981e-13,2.472397397e-14,1.180512204e-13
0.6640625,5.89854387e-14,1.175102105e-13,1.519752728e-13,4.241314937e-14,3.269116523e-14,7.187373354e-14,5.449602762e-13,3.60980175e-14,1.317686877e-13,5.364493462e-14,8.784008921e-14,1.320996827e-13,5.527672829e-14,1.062623499e-13,3.809249998e-13,3.016107808e-13,5.229553901e-13,1.664893175e-13,5.613795741e-14,4.150196261e-13,1.433567665e-13,8.831126984e-14,3.24919172e-14,1.144889407e-12,1.270636986e-13,6.882129128e-14,6.001756566e-14,8.434485776e-14,4.201490981e-14,2.112296915e-13,2.283963515e-14,1.074893008e-13
0.671875,5.632963609e-14,1.132561595e-13,1.53986102e-13,3.983584013e-14,2.9283848e-14,7.597052508e-14,5.752216531e-13,3.763350924e-14,1.354228608e-13,5.89130623e-14,8.657065387e-14,1.422171195e-13,5.667037995e-14,1.146237324e-13,3.955416163e-13,2.87093788e-13,5.134471351e-13,1.631733298e-13,5.693487486e-14,4.431801137e-13,1.532653147e-13,8.671660194e-14,2.994212381e-14,1.111079589e-12,1.248933911e-13,6.548511603e-14,5.76678314e-14,7.803814028e-14,4.107231841e-14,2.1166362e-13,2.114398846e-14,9.737262755e-14
0.6796875,5.612241326e-14,1.091976052e-13,1.571098786e-13,3.776901473e-14,2.650713831e-14,8.027689962e-14,6.132347216e-13,4.081332058e-14,1.371750311e-13,6.859595377e-14,8.389848957e-14,1.50777827e-13,5.932506816e-14,1.2194978e-13,4.049377772e-13,2.700406764e-13,4.955566729e-13,1.572088342e-13,5.658622338e-14,4.675093079e-13,1.676460479e-13,8.363064243e-14,2.843321844e-14,1.053210668e-12,1.225102809e-13,6.288508109e-14,5.606783847e-14,7.20582147e-14,3.943541768e-14,2.039101603e-13,1.956117586e-14,8.778887831e-14
0.6875,5.686021216e-14,1.053509238e-13,1.611893103e-13,3.642391747e-14,2.416449746e-14,8.460088013e-14,6.468918081e-13,4.556820712e-14,1.35931671e-13,8.288078382e-14,7.991282439e-14,1.559278499e-13,6.339106533e-14,1.280677082e-13,4.093728643e-13,2.519610703e-13,4.708850491e-13,1.493668969e-13,5.53611302e-14,4.828892118e-13,1.858824419e-13,7.895879003e-14,2.757816504e-14,9.776771219e-13,1.210538208e-13,6.044504213e-14,5.559475209e-14,6.716032186e-14,3.695393759e-14,1.8909034e-13,1.82257771e-14,7.862593106e-14
0.6953125,5.759710941e-14,1.029128901e-13,1.669548758e-13,3.587176327e-14,2.208185585e-14,8.979331143e-14,6.6974578e-13,5.182610916e-14,1.318416897e-13,1.021330908e-13,7.511530661e-14,1.575388935e-13,6.904545725e-14,1.320751979e-13,4.050437264e-13,2.315901285e-13,4.37431749e-13,1.402897269e-13,5.402730441e-14,4.884218663e-13,2.07746375e-13,7.35830764e-14,2.75231971e-14,8.921546405e-13,1.211253497e-13,5.785233582e-14,5.623836611e-14,6.454786326e-14,3.431798491e-14,1.697877203e-13,1.708893837e-14,7.053679682e-14
0.703125,5.851024312e-14,1.018247481e-13,1.729022532e-13,3.686906261e-14,2.041567485e-14,9.472996058e-14,6.769139418e-13,5.927909123e-14,1.258917217e-13,1.264797445e-13,7.03639608e-14,1.553493629e-13,7.532962302e-14,1.32870843e-13,3.891039058e-13,2.092871192e-13,3.974949794e-13,1.309055904e-13,5.23381757e-14,4.830309257e-13,2.299882137e-13,6.809525468e-14,2.804740329e-14,8.035052611e-13,1.225461182e-13,5.493821125e-14,5.691641509e-14,6.454884496e-14,3.16658929e-14,1.491956862e-13,1.612120365e-14,6.372295484e-14
0.7109375,5.788529125e-14,1.026116259e-13,1.760186058e-13,3.909639403e-14,1.915577281e-14,9.877818099e-14,6.599419032e-13,6.814501526e-14,1.191320787e-13,1.551645793e-13,6.583971378e-14,1.502048705e-13,8.104204221e-14,1.29076332e-13,3.599072805e-13,1.849873405e-13,3.546024146e-13,1.221055305e-13,4.944188111e-14,4.67120875e-13,2.512036979e-13,6.217014266e-14,2.820979546e-14,7.25489898e-13,1.255003686e-13,5.155736853e-14,5.773088165e-14,6.70789677e-14,2.946157593e-14,1.286363267e-13,1.547011639e-14,5.796135568e-14
0.71875,5.570481854e-14,1.043116445e-13,1.753157192e-13,4.301503891e-14,1.811199869e-14,1.00914161e-13,6.196235266e-13,7.700247021e-14,1.113642487e-13,1.857564552e-13,6.163994955e-14,1.411067672e-13,8.58747333e-14,1.215247974e-13,3.227286148e-13,1.616981283e-13,3.133527553e-13,1.140929628e-13,4.591571487e-14,4.396215819e-13,2.699179904e-13,5.67835159e-14,2.826607835e-14,6.578358641e-13,1.278486698e-13,4.742449301e-14,5.740537216e-14,7.006004132e-14,2.769210575e-14,1.099064169e-13,1.517309833e-14,5.326953937e-14
0.7265625,5.301921254e-14,1.06449124e-13,1.704975538e-13,4.785261582e-14,1.717242561e-14,1.003911183e-13,5.544549014e-13,8.528642066e-14,1.027851285e-13,2.175610495e-13,5.740563671e-14,1.296032189e-13,9.092390468e-14,1.11640647e-13,2.797778117e-13,1.3912956e-13,2.731305359e-13,1.068868985e-13,4.209978312e-14,4.031327406e-13,2.843351091e-13,5.195579635e-14,2.846166672e-14,6.078848308e-13,1.289304865e-13,4.261873857e-14,5.563459606e-14,7.318870397e-14,2.620405068e-14,9.377387617e-14,1.479533996e-14,4.977608568e-14
0.734375,5.033546523e-14,1.07475318e-13,1.616957966e-13,5.371666572e-14,1.624549936e-14,9.686541797e-14,4.754291951e-13,9.246546713e-14,9.371533417e-14,2.484433496e-13,5.313550893e-14,1.168683953e-13,9.515110396e-14,1.003968085e-13,2.339308695e-13,1.177468691e-13,2.362589017e-13,1.005441006e-13,3.835854121e-14,3.60755345e-13,2.929802017e-13,4.74835031e-14,2.835807951e-14,5.715084384e-13,1.27613255e-13,3.765740522e-14,5.256400934e-14,7.508233749e-14,2.498742643e-14,8.103729513e-14,1.454492835e-14,4.701214197e-14
0.7421875,4.850375618e-14,1.070877041e-13,1.495715046e-13,5.968451414e-14,1.519703296e-14,8.948750437e-14,3.909624444e-13,9.764177999e-14,8.448878245e-14,2.774524975e-13,4.924653905e-14,1.039686978e-13,9.806961853e-14,8.878477107e-14,1.878221029e-13,9.775541391e-14,2.031158885e-13,9.504386405e-14,3.415773415e-14,3.155681731e-13,2.918126151e-13,4.33908658e-14,2.747474229e-14,5.446756273e-13,1.23471352e-13,3.262638147e-14,4.816143262e-14,7.599330423e-14,2.381843381e-14,7.177416751e-14,1.423442254e-14,4.481739459e-14
0.75,4.73883404e-14,1.049832545e-13,1.34892274e-13,6.499675548e-14,1.40007956e-14,7.888687698e-14,3.125656577e-13,1.004245435e-13,7.622579929e-14,3.013921174e-13,4.612953045e-14,9.165881905e-14,9.822184261e-14,7.713577788e-14,1.430981646e-13,7.963664653e-14,1.751338099e-13,9.001584008e-14,2.941421521e-14,2.685816896e-13,2.808197743e-13,3.970985177e-14,2.584210237e-14,5.220076045e-13,1.158602355e-13,2.84082604e-14,4.356756551e-14,7.449053236e-14,2.290427942e-14,6.576041822e-14,1.420208899e-14,4.341547907e-14
0.7578125,4.733074203e-14,1.016608549e-13,1.19464165e-13,6.945144765e-14,1.270797146e-14,6.642918552e-14,2.476201023e-13,1.005788237e-13,6.916690669e-14,3.184895278e-13,4.357075772e-14,8.06463374e-14,9.715876318e-14,6.749002542e-14,1.047714516e-13,6.514490927e-14,1.538686142e-13,8.518695284e-14,2.473528581e-14,2.239142264e-13,2.640591204e-13,3.652029641e-14,2.451446411e-14,4.980314789e-13,1.079832055e-13,2.498423695e-14,3.915130436e-14,7.301596862e-14,2.232182069e-14,6.2261107e-14,1.420498654e-14,4.256890886e-14
0.765625,4.751349891e-14,9.819682668e-14,1.049206934e-13,7.247815746e-14,1.14097079e-14,5.402680555e-14,1.997456411e-13,9.910899036e-14,6.339112262e-14,3.285273441e-13,4.125513671e-14,7.154858838e-14,9.597873455e-14,6.017673241e-14,7.409235031e-14,5.384980401e-14,1.37917433e-13,8.022142171e-14,2.064243879e-14,1.831350971e-13,2.440889827e-13,3.359421459e-14,2.373910027e-14,4.680650721e-13,1.021352292e-13,2.247340284e-14,3.62223296e-14,7.304688659e-14,2.213369064e-14,6.078924874e-14,1.430353383e-14,4.21438917e-14
0.7734375,4.730132208e-14,9.401147352e-14,9.219221491e-14,7.368420859e-14,1.037595233e-14,4.251643969e-14,1.692207196e-13,9.692532915e-14,5.889863337e-14,3.304617735e-13,3.927634578e-14,6.484363397e-14,9.469922955e-14,5.546430311e-14,5.177378156e-14,4.597121272e-14,1.270064007e-13,7.523244738e-14,1.718978304e-14,1.483133931e-13,2.196002484e-13,3.052525457e-14,2.320059277e-14,4.314860818e-13,9.944022436e-14,2.065396849e-14,3.492298356e-14,7.551362909e-14,2.243724154e-14,6.036358802e-14,1.440549048e-14,4.201139315e-14
0.78125,4.572664207e-14,9.060189298e-14,8.171227067e-14,7.351753798e-14,9.890832688e-15,3.299725842e-14,1.52989588e-13,9.522507573e-14,5.583998529e-14,3.275699988e-13,3.734848572e-14,6.089539714e-14,9.389108577e-14,5.303351266e-14,3.66620034e-14,4.106979763e-14,1.206838518e-13,7.065191009e-14,1.461213818e-14,1.181589581e-13,1.939238767e-13,2.715277143e-14,2.34855309e-14,3.902681518e-13,1.027913864e-13,1.918980439e-14,3.571349566e-14,8.268362512e-14,2.373193906e-14,6.139289938e-14,1.447888436e-14,4.23905305e-14
0.7890625,4.337068291e-14,8.900938074e-14,7.513813942e-14,7.42246893e-14,1.035010707e-14,2.634618156e-14,1.477020984e-13,9.417902331e-14,5.416529121e-14,3.196182075e-13,3.543001358e-14,5.918849082e-14,9.234012609e-14,5.178959426e-14,2.684526139e-14,3.855834176e-14,1.184173085e-13,6.696169367e-14,1.345364671e-14,9.295615031e-14,1.699993635e-13,2.393498198e-14,2.517825328e-14,3.462047687e-13,1.134751738e-13,1.836494739e-14,3.806669141e-14,9.582281182e-14,2.592872901e-14,6.353728495e-14,1.49413478e-14,4.350773905e-14
0.796875,4.014101082e-14,8.963921528e-14,7.243139512e-14,7.616451192e-14,1.191858809e-14,2.327898051e-14,1.479302436e-13,9.32943254e-14,5.354169066e-14,3.066517157e-13,3.347610849e-14,5.920792147e-14,8.954639184e-14,5.128577581e-14,2.175454825e-14,3.835741725e-14,1.203526983e-13,6.491309492e-14,1.351990804e-14,7.305618242e-14,1.491295616e-13,2.049533883e-14,2.757996618e-14,3.027032022e-13,1.299987432e-13,1.78019408e-14,4.134609127e-14,1.13870985e-13,2.918059842e-14,6.632785507e-14,1.581533971e-14,4.518669718e-14
0.8046875,3.739584005e-14,9.310358113e-14,7.369710958e-14,8.013470914e-14,1.464273089e-14,2.382345594e-14,1.51290876e-13,9.239151963e-14,5.34754257e-14,2.911170783e-13,3.1701551e-14,6.070876933e-14,8.69360204e-14,5.173599668e-14,2.134445138e-14,4.021698236e-14,1.252967794e-13,6.438713042e-14,1.481789728e-14,5.764118511e-14,1.325955853e-13,1.733499293e-14,3.067708615e-14,2.631061144e-13,1.485360601e-13,1.752229278e-14,4.461336694e-14,1.321169863e-13,3.357866914e-14,6.93995901e-14,1.703247038e-14,4.685043338e-14
0.8125,3.611825858e-14,9.857562463e-14,7.862929873e-14,8.702857699e-14,1.901366978e-14,2.733644166e-14,1.522107387e-13,9.157283159e-14,5.385746838e-14,2.737814441e-13,3.035005806e-14,6.381877715e-14,8.537129805e-14,5.370017635e-14,2.492827702e-14,4.27579089e-14,1.311261033e-13,6.488868246e-14,1.697562499e-14,4.657023542e-14,1.190921505e-13,1.45375165e-14,3.374007121e-14,2.306815805e-13,1.669844736e-13,1.763773447e-14,4.748573664e-14,1.498861435e-13,3.933662658e-14,7.317634379e-14,1.911755685e-14,4.880526131e-14
0.8203125,3.731194584e-14,1.062341542e-13,8.67515296e-14,9.726084756e-14,2.537970892e-14,3.417531059e-14,1.500523355e-13,9.151504626e-14,5.494936893e-14,2.586426935e-13,2.928511072e-14,6.940132827e-14,8.618304126e-14,5.735426142e-14,3.197004265e-14,4.657583492e-14,1.399668904e-13,6.765133512e-14,1.989707197e-14,3.961201124e-14,1.093614168e-13,1.18303424e-14,3.67430902e-14,2.073523181e-13,1.842143231e-13,1.816553282e-14,4.974139652e-14,1.666515404e-13,4.653295498e-14,7.808701386e-14,2.21604736e-14,5.099029272e-14
0.828125,4.106759803e-14,1.161177408e-13,9.712621027e-14,1.102268521e-13,3.363909705e-14,4.338989707e-14,1.465059415e-13,9.146100572e-14,5.65456391e-14,2.476393222e-13,2.882167209e-14,7.676795157e-14,8.957530844e-14,6.262674292e-14,4.172225366e-14,5.162898752e-14,1.486887562e-13,7.165405652e-14,2.307275652e-14,3.8212443e-14,1.028555426e-13,9.506940431e-15,3.926457103e-14,1.941692919e-13,1.965315001e-13,1.913996795e-14,5.080371994e-14,1.802405273e-13,5.460321473e-14,8.309543353e-14,2.659549362e-14,5.316920138e-14
0.8359375,4.697491809e-14,1.264400972e-13,1.087208889e-13,1.253622056e-13,4.302388331e-14,5.485233544e-14,1.420865205e-13,9.162121978e-14,5.84381743e-14,2.428433786e-13,2.910511459e-14,8.504998434e-14,9.595104469e-14,6.93588423e-14,5.237145899e-14,5.766270678e-14,1.562401309e-13,7.660008584e-14,2.656370088e-14,4.062015645e-14,9.885156661e-14,8.288920329e-15,4.24089487e-14,1.905440148e-13,2.02742629e-13,2.060977735e-14,5.136549147e-14,1.880516549e-13,6.301838331e-14,8.738080683e-14,3.260126598e-14,5.459226935e-14
0.84375,5.522742794e-14,1.366421923e-13,1.20465101e-13,1.406559493e-13,5.285432115e-14,6.760826129e-14,1.383176326e-13,9.134032079e-14,6.014229467e-14,2.431271725e-13,2.975385731e-14,9.394155689e-14,1.051133908e-13,7.788592381e-14,6.438400613e-14,6.466918022e-14,1.635469922e-13,8.199622791e-14,2.997105203e-14,4.699684079e-14,9.737315923e-14,8.264040499e-15,4.565329418e-14,1.949923046e-13,2.011509614e-13,2.282985086e-14,5.145536256e-14,1.881719716e-13,7.148924764e-14,9.020619479e-14,4.03028882e-14,5.511897401e-14
0.8515625,6.472256433e-14,1.454646154e-13,1.299326934e-13,1.548984919e-13,6.266870803e-14,8.050344663e-14,1.356908169e-13,9.04164437e-14,6.154068589e-14,2.474237813e-13,3.074089724e-14,1.01995208e-13,1.164234645e-13,8.778705429e-14,7.747727533e-14,7.299100304e-14,1.718438008e-13,8.784555774e-14,3.296471873e-14,5.638164977e-14,9.691688721e-14,9.249207833e-15,4.822177809e-14,2.089166625e-13,1.913697022e-13,2.577387179e-14,5.092188353e-14,1.807399447e-13,7.938879307e-14,9.200199583e-14,4.967828833e-14,5.539117256e-14
0.859375,7.653817424e-14,1.516104372e-13,1.374817884e-13,1.669856673e-13,7.206588153e-14,9.30790575e-14,1.371527613e-13,8.887334306e-14,6.279037485e-14,2.528450549e-13,3.241433304e-14,1.086709867e-13,1.286539018e-13,9.876297419e-14,9.210881782e-14,8.339414983e-14,1.827908861e-13,9.434430193e-14,3.568996962e-14,6.870922897e-14,9.753903837e-14,1.132841954e-14,5.072305509e-14,2.32897638e-13,1.775066855e-13,2.892425667e-14,5.039604518e-14,1.694284115e-13,8.573088168e-14,9.277057791e-14,6.019663042e-14,5.555822465e-14
0.8671875,8.974659129e-14,1.536902895e-13,1.44867924e-13,1.759833593e-13,7.986122481e-14,1.061453091e-13,1.473774515e-13,8.760278895e-14,6.363689097e-14,2.587784419e-13,3.504086362e-14,1.124018087e-13,1.405992816e-13,1.090774433e-13,1.072230438e-13,9.637193216e-14,1.958399957e-13,1.012564676e-13,3.869453577e-14,8.290783541e-14,9.830417338e-14,1.506144198e-14,5.417059959e-14,2.652489711e-13,1.626165479e-13,3.280147116e-14,5.078480079e-14,1.561862582e-13,9.001022914e-14,9.161207728e-14,7.085869601e-14,5.476227715e-14
0.875,1.035598097e-13,1.501744069e-13,1.531060817e-13,1.812474619e-13,8.543674792e-14,1.190770264e-13,1.687004685e-13,8.671014132e-14,6.398424774e-14,2.638960987e-13,3.830289441e-14,1.130575521e-13,1.529655985e-13,1.180818748e-13,1.217646655e-13,1.10342604e-13,2.101833388e-13,1.083585976e-13,4.235744579e-14,9.833043379e-14,9.95741064e-14,2.091114936e-14,5.908059472e-14,3.08228005e-13,1.481165508e-13,3.800679684e-14,5.233063491e-14,1.40471677e-13,9.243889563e-14,8.82887645e-14,8.055993642e-14,5.342226663e-14
0.8828125,1.159081295e-13,1.413528824e-13,1.584712954e-13,1.814887404e-13,8.830879357e-14,1.295224532e-13,2.009648184e-13,8.524798179e-14,6.364800987e-14,2.671900139e-13,4.190322695e-14,1.105102407e-13,1.660976934e-13,1.247136485e-13,1.35109267e-13,1.246737007e-13,2.243542156e-13,1.143282113e-13,4.573957347e-14,1.138257676e-13,1.004117577e-13,2.863802829e-14,6.475688918e-14,3.606356034e-13,1.34543115e-13,4.479866115e-14,5.539544907e-14,1.239399852e-13,9.348122924e-14,8.285820257e-14,8.912181555e-14,5.287183982e-14
0.890625,1.281465716e-13,1.291723254e-13,1.609285493e-13,1.776384485e-13,8.906357539e-14,1.356237256e-13,2.402476722e-13,8.168979072e-14,6.209223399e-14,2.645934148e-13,4.567579563e-14,1.04681307e-13,1.803402556e-13,1.292825026e-13,1.471469498e-13,1.380610316e-13,2.36661161e-13,1.190680158e-13,4.880837268e-14,1.290685187e-13,1.019070774e-13,3.785038724e-14,7.139807315e-14,4.274051295e-13,1.249111184e-13,5.249527811e-14,5.979910536e-14,1.097470809e-13,9.391349639e-14,7.67825973e-14,9.649057739e-14,5.370080804e-14
0.8984375,1.405077744e-13,1.15340171e-13,1.644275393e-13,1.703766685e-13,8.758276268e-14,1.391446248e-13,2.910736697e-13,7.743567336e-14,5.950197633e-14,2.601603739e-13,5.007614744e-14,9.682938033e-14,1.965642023e-13,1.322686777e-13,1.578054795e-13,1.502395906e-13,2.467890658e-13,1.236603544e-13,5.211095788e-14,1.449256381e-13,1.035905593e-13,4.877704981e-14,7.926176264e-14,5.014300312e-13,1.196518613e-13,6.191661633e-14,6.595057458e-14,9.850807842e-14,9.456656718e-14,7.079814796e-14,1.016929659e-13,5.583987683e-14
0.90625,1.52151317e-13,1.008132078e-13,1.687757591e-13,1.6093364e-13,8.387780678e-14,1.397409063e-13,3.54741202e-13,7.181752682e-14,5.544965659e-14,2.536730961e-13,5.460231373e-14,8.696407153e-14,2.136872007e-13,1.32224001e-13,1.644276164e-13,1.584932303e-13,2.518958622e-13,1.272679446e-13,5.605941597e-14,1.610848608e-13,1.058507005e-13,6.180099078e-14,8.856155954e-14,5.81598385e-13,1.187492798e-13,7.3572291e-14,7.368154225e-14,9.122455998e-14,9.546650256e-14,6.507467e-14,1.042266966e-13,5.94093003e-14
0.9140625,1.593166585e-13,8.834825027e-14,1.706332859e-13,1.479274379e-13,7.880480963e-14,1.36767513e-13,4.220619623e-13,6.525422081e-14,5.002730192e-14,2.473992203e-13,5.81097854e-14,7.648159909e-14,2.31696155e-13,1.288808155e-13,1.673233688e-13,1.630645692e-13,2.522496908e-13,1.298197169e-13,5.960553393e-14,1.781931005e-13,1.081111466e-13,7.456876731e-14,9.756520694e-14,6.63455172e-13,1.198560759e-13,8.582094581e-14,8.160155525e-14,8.734683577e-14,9.601242306e-14,6.009849858e-14,1.045231281e-13,6.408163277e-14
0.921875,1.634965687e-13,7.979678891e-14,1.700319823e-13,1.340450349e-13,7.36430954e-14,1.302106466e-13,4.859888846e-13,5.780282985e-14,4.383600737e-14,2.430483491e-13,6.022759337e-14,6.660178966e-14,2.498212926e-13,1.225197206e-13,1.667932842e-13,1.640691427e-13,2.472629903e-13,1.300025933e-13,6.19076987e-14,1.950365315e-13,1.095178875e-13,8.589420106e-14,1.056270778e-13,7.422807518e-13,1.223824777e-13,9.716471142e-14,8.947809494e-14,8.677437507e-14,9.630389967e-14,5.721055462e-14,1.038741991e-13,6.978504789e-14
0.9296875,1.663290926e-13,7.56488366e-14,1.685968295e-13,1.200209369e-13,6.858226796e-14,1.210261731e-13,5.3770892e-13,4.971316466e-14,3.759504244e-14,2.390011703e-13,6.079802474e-14,5.774326326e-14,2.66310689e-13,1.139097229e-13,1.645825623e-13,1.617944875e-13,2.395660986e-13,1.282053888e-13,6.307449324e-14,2.118318995e-13,1.101258671e-13,9.550387036e-14,1.122974303e-13,8.081787833e-13,1.243479984e-13,1.068150204e-13,9.654590624e-14,8.782449914e-14,9.57874121e-14,5.726150561e-14,1.02472142e-13,7.643788326e-14
0.9375,1.684996759e-13,7.833640312e-14,1.683069034e-13,1.06468574e-13,6.400515447e-14,1.11493085e-13,5.771690186e-13,4.204723476e-14,3.189970936e-14,2.369014398e-13,6.022692999e-14,5.103930366e-14,2.809091222e-13,1.044065877e-13,1.619106659e-13,1.57381572e-13,2.318825359e-13,1.257407531e-13,6.362173286e-14,2.304599336e-13,1.10111444e-13,1.038502669e-13,1.177339346e-13,8.579819344e-13,1.25460462e-13,1.144484415e-13,1.025020476e-13,8.982148484e-14,9.471982814e-14,6.006807087e-14,1.008899777e-13,8.424682802e-14
0.9453125,1.691375509e-13,8.836083872e-14,1.695929022e-13,9.386361608e-14,6.011825744e-14,1.023611968e-13,5.913066738e-13,3.490581789e-14,2.685603591e-14,2.333024603e-13,5.831292764e-14,4.629345222e-14,2.901222635e-13,9.529897179e-14,1.605634172e-13,1.5200568e-13,2.256743552e-13,1.220917218e-13,6.26654742e-14,2.491320959e-13,1.079933833e-13,1.092027689e-13,1.20414511e-13,8.867229471e-13,1.249231716e-13,1.195890839e-13,1.078808132e-13,9.293164962e-14,9.344784037e-14,6.494900088e-14,9.909422141e-14,9.212684201e-14
0.953125,1.692886394e-13,1.069896105e-13,1.720992707e-13,8.320116904e-14,5.660841253e-14,9.452058586e-14,5.788759341e-13,2.853988739e-14,2.253192617e-14,2.270382666e-13,5.44252573e-14,4.330243384e-14,2.925030034e-13,8.648123931e-14,1.614110382e-13,1.47029801e-13,2.220519171e-13,1.166375683e-13,6.020386082e-14,2.654471345e-13,1.048397522e-13,1.10953378e-13,1.208757042e-13,8.976282964e-13,1.231181898e-13,1.213858265e-13,1.117905069e-13,9.702514624e-14,9.108631026e-14,7.267094478e-14,9.65403059e-14,9.900307335e-14
0.9609375,1.718259383e-13,1.353748759e-13,1.769445319e-13,7.440300758e-14,5.337612547e-14,8.956916774e-14,5.371968002e-13,2.31604299e-14,1.921157269e-14,2.167017681e-13,4.914719455e-14,4.197344567e-14,2.859284412e-13,7.804598816e-14,1.629149839e-13,1.422812689e-13,2.194662715e-13,1.099196332e-13,5.701714612e-14,2.780450452e-13,1.010718714e-13,1.097583653e-13,1.189872299e-13,8.893592637e-13,1.193494738e-13,1.189313447e-13,1.13722842e-13,1.022374418e-13,8.697357315e-14,8.477540265e-14,9.314167185e-14,1.054111696e-13
0.96875,1.769425465e-13,1.736742081e-13,1.849344729e-13,6.744324734e-14,5.051530432e-14,8.779423835e-14,4.791409134e-13,1.873745868e-14,1.686912438e-14,2.006847789e-13,4.364527432e-14,4.155523611e-14,2.711957797e-13,7.053836675e-14,1.652516243e-13,1.38720287e-13,2.180015846e-13,1.035113635e-13,5.434779101e-14,2.867157699e-13,9.63618783e-14,1.075283982e-13,1.15524212e-13,8.647495834e-13,1.144554418e-13,1.133000663e-13,1.143657021e-13,1.084658271e-13,8.155461909e-14,1.005399343e-13,8.943765738e-14,1.128543289e-13
0.9765625,1.851449632e-13,2.190527074e-13,1.968017922e-13,6.140633349e-14,4.7884286e-14,8.998314766e-14,4.103999132e-13,1.557241731e-14,1.544376368e-14,1.8138729e-13,3.845102121e-14,4.21787148e-14,2.526525868e-13,6.473678773e-14,1.673037168e-13,1.360404216e-13,2.157264373e-13,9.737640843e-14,5.258738065e-14,2.899420838e-13,9.223415679e-14,1.059956743e-13,1.123454506e-13,8.342378633e-13,1.083506894e-13,1.069266734e-13,1.147352974e-13,1.146945145e-13,7.603690725e-14,1.186931203e-13,8.608841431e-14,1.231602011e-13
0.984375,1.951580155e-13,2.710661456e-13,2.108659942e-13,5.641623547e-14,4.573106965e-14,9.554668307e-14,3.432130984e-13,1.358567091e-14,1.473069662e-14,1.624343718e-13,3.33743077e-14,4.360521824e-14,2.335725728e-13,6.029902762e-14,1.680178848e-13,1.336098148e-13,2.111420366e-13,9.142925228e-14,5.193050318e-14,2.879044618e-13,8.831368558e-14,1.056803602e-13,1.099687676e-13,8.054966413e-13,1.018860676e-13,1.012981821e-13,1.152138442e-13,1.201885553e-13,7.10038123e-14,1.382966896e-13,8.371145557e-14,1.370474637e-13
0.9921875,2.058784181e-13,3.266458379e-13,2.255158868e-13,5.214421261e-14,4.410073316e-14,1.035649712e-13,2.821231651e-13,1.277424166e-14,1.456201193e-14,1.455900097e-13,2.886388561e-14,4.546658969e-14,2.157157305e-13,5.699452463e-14,1.665591765e-13,1.312432414e-13,2.031984799e-13,8.589440467e-14,5.268119197e-14,2.788071344e-13,8.526869944e-14,1.075297834e-13,1.083850864e-13,7.789383585e-13,9.43569027e-14,9.607879027e-14,1.150594992e-13,1.242325943e-13,6.615069178e-14,1.582854187e-13,8.207608308e-14,1.547845414e-13
1,2.154008374e-13,3.84343536e-13,2.385710044e-13,4.930286815e-14,4.315919459e-14,1.124182504e-13,2.308011862e-13,1.289512204e-14,1.49898741e-14,1.306759531e-13,2.544356459e-14,4.767397665e-14,1.998754596e-13,5.5668696e-14,1.642841465e-13,1.295746376e-13,1.936672439e-13,8.145420093e-14,5.465925381e-14,2.628446963e-13,8.310234639e-14,1.111034437e-13,1.069209792e-13,7.599046802e-13,8.742418786e-14,9.051970497e-14,1.13715499e-13,1.289728238e-13,6.117843998e-14,1.777910136e-13,8.111193393e-14,1.748707043e-13
1.0078125,2.210400756e-13,4.338841379e-13,2.472379879e-13,4.746448219e-14,4.296033033e-14,1.205719279e-13,1.943416074e-13,1.389721564e-14,1.591418869e-14,1.204674037e-13,2.306145876e-14,5.027042156e-14,1.875387434e-13,5.546571953e-14,1.597550258e-13,1.277756543e-13,1.822952185e-13,7.837131351e-14,5.695193997e-14,2.417994494e-13,8.194341339e-14,1.151060117e-13,1.047574719e-13,7.450700544e-13,8.249689945e-14,8.539676544e-14,1.122013775e-13,1.349598453e-13,5.667379078e-14,1.934157924e-13,8.076388869e-14,1.964778198e-13
1.015625,2.231956223e-13,4.739729434e-13,2.515549783e-13,4.726872135e-14,4.352412013e-14,1.274555227e-13,1.711013782e-13,1.574527752e-14,1.699604072e-14,1.138073479e-13,2.156587359e-14,5.276504353e-14,1.794938571e-13,5.574985182e-14,1.5481562e-13,1.26083039e-13,1.69680612e-13,7.593789553e-14,5.921746584e-14,2.185853221e-13,8.260937217e-14,1.188167617e-13,1.022264829e-13,7.400460118e-13,8.046285995e-14,8.003829682e-14,1.097271291e-13,1.437640632e-13,5.238147713e-14,2.052146128e-13,8.053565928e-14,2.169267324e-13
1.0234375,2.203631048e-13,4.978000489e-13,2.50273693e-13,4.960070468e-14,4.534167378e-14,1.31891862e-13,1.612422587e-13,1.823014965e-14,1.793918444e-14,1.103455252e-13,2.061032173e-14,5.493484494e-14,1.758340331e-13,5.721368426e-14,1.525338111e-13,1.260662543e-13,1.591337111e-13,7.361836794e-14,6.035629569e-14,1.941252772e-13,8.495651308e-14,1.210674233e-13,9.853438559e-14,7.384523809e-13,8.209431117e-14,7.419153613e-14,1.062432528e-13,1.560662742e-13,4.84345463e-14,2.121623103e-13,8.060511036e-14,2.351891977e-13
1.03125,2.125366837e-13,5.045674195e-13,2.444092335e-13,5.394254793e-14,4.76673269e-14,1.337641394e-13,1.638287676e-13,2.151144247e-14,1.889858003e-14,1.092849881e-13,2.019590659e-14,5.63977793e-14,1.757598073e-13,5.912524598e-14,1.525729976e-13,1.276868308e-13,1.506842778e-13,7.167380244e-14,6.008986692e-14,1.697209863e-13,8.893823591e-14,1.211468279e-13,9.39693812e-14,7.393514672e-13,8.868510347e-14,6.751113657e-14,1.024768299e-13,1.723985566e-13,4.465593068e-14,2.127282711e-13,7.992863964e-14,2.491317009e-13
1.0390625,1.996466013e-13,4.923546732e-13,2.343150556e-13,6.082993382e-14,5.052832932e-14,1.343049225e-13,1.782712978e-13,2.562948557e-14,1.949308463e-14,1.107122024e-13,1.99000934e-14,5.697427724e-14,1.783983499e-13,6.099975817e-14,1.548617128e-13,1.315016239e-13,1.446219422e-13,6.972532015e-14,5.791350112e-14,1.477640157e-13,9.506908492e-14,1.182395668e-13,8.898595951e-14,7.429461211e-13,1.001877236e-13,6.043299764e-14,9.910417858e-14,1.914741013e-13,4.099439726e-14,2.06804561e-13,7.836512305e-14,2.572113997e-13
1.046875,1.839380997e-13,4.616738143e-13,2.218601684e-13,7.028418031e-14,5.388708111e-14,1.348166264e-13,2.030067722e-13,3.019901676e-14,1.967921527e-14,1.13937295e-13,1.988544035e-14,5.592142425e-14,1.823684197e-13,6.243758221e-14,1.599217999e-13,1.38889678e-13,1.423068783e-13,6.780673479e-14,5.405674342e-14,1.293654776e-13,1.039788821e-13,1.119401771e-13,8.420706329e-14,7.501283038e-13,1.15662373e-13,5.25313845e-14,9.664685737e-14,2.111697064e-13,3.729609856e-14,1.951215462e-13,7.526428462e-14,2.58534893e-13
1.0546875,1.683399973e-13,4.19041201e-13,2.095323851e-13,8.156615551e-14,5.743603783e-14,1.363137825e-13,2.37448105e-13,3.456291009e-14,1.938965465e-14,1.196775323e-13,2.030595831e-14,5.379044947e-14,1.871192048e-13,6.378928372e-14,1.684551476e-13,1.511868903e-13,1.442277156e-13,6.600429275e-14,4.900549839e-14,1.151675418e-13,1.163379035e-13,1.0253425e-13,8.082889032e-14,7.650961537e-13,1.346206582e-13,4.484879823e-14,9.624071419e-14,2.290445381e-13,3.388408423e-14,1.801163996e-13,7.156473628e-14,2.517295064e-13
1.0625,1.549017965e-13,3.709347291e-13,1.995451835e-13,9.456441292e-14,6.167377373e-14,1.402525503e-13,2.782728542e-13,3.898547831e-14,1.87616947e-14,1.279388936e-13,2.125440904e-14,5.112875418e-14,1.914957996e-13,6.569943572e-14,1.803338343e-13,1.685522274e-13,1.508447705e-13,6.439408258e-14,4.381348792e-14,1.058444515e-13,1.337211752e-13,9.117656009e-14,8.054977859e-14,7.884219344e-13,1.555013657e-13,3.832642874e-14,9.879698013e-14,2.43999245e-13,3.096776031e-14,1.640886377e-13,6.777466204e-14,2.391458076e-13
1.0703125,1.458131662e-13,3.236074706e-13,1.942796675e-13,1.08397576e-13,6.58952689e-14,1.465157464e-13,3.217968641e-13,4.297418581e-14,1.818142308e-14,1.371184049e-13,2.315784769e-14,4.85432464e-14,1.948317181e-13,6.902956582e-14,1.962577906e-13,1.913616338e-13,1.613100422e-13,6.314770307e-14,3.981552939e-14,1.025174104e-13,1.571677521e-13,7.936063705e-14,8.411757933e-14,8.287070895e-13,1.761848396e-13,3.330766169e-14,1.041649729e-13,2.53431328e-13,2.873924438e-14,1.49620861e-13,6.424141494e-14,2.225236813e-13
1.078125,1.412556114e-13,2.802625625e-13,1.938630652e-13,1.221904224e-13,6.984573899e-14,1.550475825e-13,3.613663846e-13,4.604956106e-14,1.767369245e-14,1.472207514e-13,2.609981267e-14,4.632430546e-14,1.961532694e-13,7.382883477e-14,2.160609417e-13,2.194929186e-13,1.754417162e-13,6.319536892e-14,3.7510665e-14,1.052999429e-13,1.871545711e-13,6.782629275e-14,9.095374349e-14,8.858066712e-13,1.949709328e-13,2.965406858e-14,1.120256158e-13,2.557499085e-13,2.749046874e-14,1.367416295e-13,6.162722853e-14,2.027269144e-13
1.0859375,1.416976569e-13,2.434196528e-13,1.981781143e-13,1.343026342e-13,7.295609106e-14,1.649421135e-13,3.871462276e-13,4.7648762e-14,1.739065647e-14,1.550022436e-13,3.027649511e-14,4.458510412e-14,1.943766707e-13,8.057461996e-14,2.384122545e-13,2.51086349e-13,1.916082941e-13,6.507189246e-14,3.788892842e-14,1.134976481e-13,2.230822684e-13,5.753773739e-14,1.011389877e-13,9.680827656e-13,2.098223431e-13,2.761225888e-14,1.212600503e-13,2.490035216e-13,2.729977538e-14,1.259778301e-13,5.995748987e-14,1.814608573e-13
1.09375,1.481605536e-13,2.17053114e-13,2.074185143e-13,1.451136039e-13,7.597969213e-14,1.757143912e-13,3.971744208e-13,4.824021153e-14,1.75917143e-14,1.605559626e-13,3.631637942e-14,4.366243285e-14,1.909584369e-13,8.996524629e-14,2.634562334e-13,2.857566232e-13,2.10402603e-13,7.06447598e-14,4.214889283e-14,1.271598643e-13,2.639300379e-13,4.96747979e-14,1.141734475e-13,1.070716411e-12,2.210823773e-13,2.718985702e-14,1.307077447e-13,2.355422067e-13,2.845572348e-14,1.185351768e-13,5.997837601e-14,1.611097457e-13
1.1015625,1.603072226e-13,2.010828544e-13,2.197772878e-13,1.538448155e-13,7.84180138e-14,1.866171663e-13,3.863906361e-13,4.83737095e-14,1.820087374e-14,1.601171252e-13,4.473577378e-14,4.34273796e-14,1.853638382e-13,1.027356386e-13,2.890916808e-13,3.211461725e-13,2.287550305e-13,8.092428225e-14,5.100359385e-14,1.455639776e-13,3.072500292e-13,4.459915162e-14,1.288894847e-13,1.191376834e-12,2.266543521e-13,2.828879132e-14,1.389055604e-13,2.164746146e-13,3.124743632e-14,1.149147174e-13,6.181902519e-14,1.418115876e-13
1.109375,1.753330482e-13,1.912763691e-13,2.31990193e-13,1.593435869e-13,7.993624369e-14,1.94978529e-13,3.637978825e-13,4.822138115e-14,1.931607343e-14,1.556766101e-13,5.583850758e-14,4.390904374e-14,1.789490179e-13,1.193274924e-13,3.14539307e-13,3.563377064e-13,2.476047717e-13,9.715981673e-14,6.356422002e-14,1.655686401e-13,3.47542679e-13,4.259635822e-14,1.422901506e-13,1.311773687e-12,2.26435333e-13,3.067099865e-14,1.446575875e-13,1.924578958e-13,3.575881695e-14,1.151346516e-13,6.501744142e-14,1.254884559e-13
1.1171875,1.906731096e-13,1.855453377e-13,2.412393349e-13,1.619362497e-13,8.045822492e-14,2.018891311e-13,3.306902142e-13,4.847799055e-14,2.092432205e-14,1.474053735e-13,6.995324727e-14,4.488663281e-14,1.726830682e-13,1.408591468e-13,3.400948442e-13,3.905872634e-13,2.661974187e-13,1.203665744e-13,7.95295117e-14,1.842480099e-13,3.806982173e-13,4.341584496e-14,1.53511501e-13,1.421014986e-12,2.20419078e-13,3.434192546e-14,1.481335233e-13,1.655911759e-13,4.231162019e-14,1.18534467e-13,6.963975003e-14,1.119937875e-13
1.125,2.064194774e-13,1.809133275e-13,2.463467964e-13,1.623207744e-13,8.116984658e-14,2.075404755e-13,2.965820639e-13,4.945927642e-14,2.287060386e-14,1.364836099e-13,8.7371437e-14,4.603595336e-14,1.664714033e-13,1.674232681e-13,3.666757908e-13,4.246655432e-13,2.86357719e-13,1.512851312e-13,9.878440106e-14,2.007592626e-13,4.046686899e-13,4.656800876e-14,1.616366729e-13,1.499538885e-12,2.115335223e-13,3.936919115e-14,1.501194782e-13,1.410000328e-13,5.100089747e-14,1.247308842e-13,7.591266855e-14,1.017670522e-13
1.1328125,2.214735467e-13,1.785792966e-13,2.462750581e-13,1.604660765e-13,8.259477284e-14,2.116784463e-13,2.661823439e-13,5.145528552e-14,2.50464734e-14,1.244307791e-13,1.07489075e-13,4.736979584e-14,1.620382902e-13,1.988661065e-13,3.914871303e-13,4.54753336e-13,3.051653912e-13,1.883943654e-13,1.20203663e-13,2.124648896e-13,4.165387582e-13,5.158021729e-14,1.662017908e-13,1.54548613e-12,2.003845075e-13,4.572841679e-14,1.509849723e-13,1.179452475e-13,6.184035383e-14,1.341833141e-13,8.319674901e-14,9.481843271e-14
1.140625,2.328846139e-13,1.764881183e-13,2.400975283e-13,1.55369239e-13,8.442019001e-14,2.132636826e-13,2.436693949e-13,5.448504042e-14,2.720277274e-14,1.125588389e-13,1.296551176e-13,4.909807626e-14,1.583190526e-13,2.34939525e-13,4.170252336e-13,4.814096479e-13,3.232306491e-13,2.287520638e-13,1.416191665e-13,2.186496841e-13,4.146751681e-13,5.717604704e-14,1.654205989e-13,1.55040077e-12,1.88186637e-13,5.308369758e-14,1.531464864e-13,9.756867398e-14,7.450713791e-14,1.465495126e-13,9.067412078e-14,9.089778126e-14
1.1484375,2.391159187e-13,1.743845094e-13,2.272331339e-13,1.473048437e-13,8.589033327e-14,2.114114027e-13,2.302281484e-13,5.796333474e-14,2.9609603e-14,1.025274701e-13,1.530240458e-13,5.15758758e-14,1.552195735e-13,2.738972124e-13,4.42319299e-13,5.043220422e-13,3.40818425e-13,2.693764022e-13,1.609745792e-13,2.168522411e-13,3.98667809e-13,6.275681933e-14,1.599786491e-13,1.519298392e-12,1.766038075e-13,6.187348726e-14,1.584594956e-13,8.154740208e-14,8.821319392e-14,1.61496374e-13,9.765353303e-14,8.892256383e-14
1.15625,2.402292725e-13,1.713534631e-13,2.093151204e-13,1.369744188e-13,8.764372849e-14,2.076160279e-13,2.224198225e-13,6.214184579e-14,3.190813558e-14,9.576239929e-14,1.755754272e-13,5.481443105e-14,1.536471829e-13,3.1503274e-13,4.67638976e-13,5.223618929e-13,3.571855022e-13,3.073910337e-13,1.766330422e-13,2.105168621e-13,3.709609762e-13,6.723239056e-14,1.498736201e-13,1.452986203e-12,1.656123157e-13,7.228730459e-14,1.671425743e-13,7.045819497e-14,1.027047945e-13,1.775080453e-13,1.050862105e-13,8.854997522e-14
1.1640625,2.388614862e-13,1.704065446e-13,1.904512255e-13,1.252301655e-13,8.922430695e-14,2.022138093e-13,2.19982895e-13,6.672570327e-14,3.392117135e-14,9.185903147e-14,1.954654065e-13,5.924662777e-14,1.521104923e-13,3.552015635e-13,4.91535796e-13,5.337418801e-13,3.725114336e-13,3.396657616e-13,1.881501736e-13,2.013588145e-13,3.342732629e-13,7.06749084e-14,1.365388521e-13,1.357887261e-12,1.556245081e-13,8.343473094e-14,1.792075168e-13,6.335864913e-14,1.173650834e-13,1.940317967e-13,1.123112713e-13,8.912697603e-14
1.171875,2.323338571e-13,1.707493247e-13,1.68963971e-13,1.122823668e-13,9.02157488e-14,1.932259348e-13,2.172396662e-13,7.143049881e-14,3.567705115e-14,9.030910303e-14,2.102796527e-13,6.538074047e-14,1.492155781e-13,3.912928525e-13,5.095118606e-13,5.33088594e-13,3.846257544e-13,3.616249823e-13,1.931970939e-13,1.90860449e-13,2.915133256e-13,7.191707396e-14,1.21048357e-13,1.242813996e-12,1.465331129e-13,9.470180528e-14,1.941688631e-13,6.025278032e-14,1.309842052e-13,2.094449096e-13,1.180084077e-13,8.941305035e-14
1.1796875,2.191722456e-13,1.72133591e-13,1.462773813e-13,9.837383537e-14,8.965991024e-14,1.815134734e-13,2.132955259e-13,7.610590507e-14,3.722761193e-14,9.031736418e-14,2.183942331e-13,7.206659893e-14,1.457329837e-13,4.202213153e-13,5.2107736e-13,5.207249505e-13,3.93823986e-13,3.713643844e-13,1.904181709e-13,1.797781458e-13,2.456294309e-13,7.061394361e-14,1.043453244e-13,1.113934931e-12,1.38426113e-13,1.047164964e-13,2.089446619e-13,5.993935873e-14,1.414372561e-13,2.198997471e-13,1.203470743e-13,9.016418632e-14
1.1875,2.032892401e-13,1.748078372e-13,1.255786515e-13,8.572700328e-14,8.698234529e-14,1.685305561e-13,2.064702392e-13,8.02170545e-14,3.845721309e-14,9.066644732e-14,2.189331576e-13,7.891983349e-14,1.434374841e-13,4.405874201e-13,5.276820765e-13,4.990872834e-13,3.998888521e-13,3.681516599e-13,1.80494522e-13,1.703564945e-13,1.99896158e-13,6.714135636e-14,8.770185978e-14,9.813690013e-13,1.311785947e-13,1.12855688e-13,2.21376942e-13,6.21358213e-14,1.477918913e-13,2.247984362e-13,1.196382945e-13,9.013855948e-14
1.1953125,1.881641846e-13,1.780128691e-13,1.08699528e-13,7.636538874e-14,8.274152674e-14,1.567632499e-13,1.986754736e-13,8.409890684e-14,3.940011784e-14,9.263702191e-14,2.125823996e-13,8.663100451e-14,1.429455951e-13,4.531587531e-13,5.335161784e-13,4.731868758e-13,4.05201926e-13,3.537854892e-13,1.653315249e-13,1.642514237e-13,1.573946313e-13,6.226831175e-14,7.207138561e-14,8.502877859e-13,1.231388266e-13,1.186345e-13,2.303169689e-13,6.458206986e-14,1.513780848e-13,2.252563209e-13,1.173545644e-13,9.034213581e-14
1.203125,1.73548732e-13,1.811543075e-13,9.564148145e-14,7.028731712e-14,7.771977736e-14,1.476528229e-13,1.915857652e-13,8.806022023e-14,4.001208029e-14,9.585846958e-14,2.008906484e-13,9.496897452e-14,1.437817257e-13,4.597948201e-13,5.417316824e-13,4.477258277e-13,4.124407189e-13,3.320593417e-13,1.470994962e-13,1.597595999e-13,1.212428661e-13,5.676746216e-14,5.872713009e-14,7.277908692e-13,1.14018709e-13,1.21627939e-13,2.352338118e-13,6.725936762e-14,1.52781009e-13,2.220544151e-13,1.144058714e-13,8.995448815e-14
1.2109375,1.585298255e-13,1.824146995e-13,8.62963973e-14,6.856748595e-14,7.281438771e-14,1.426384065e-13,1.866170262e-13,9.274516809e-14,4.042285153e-14,1.000339211e-13,1.847184909e-13,1.030011476e-13,1.465189674e-13,4.626142807e-13,5.533961577e-13,4.254527383e-13,4.223819151e-13,3.047327104e-13,1.262551046e-13,1.552879105e-13,9.1767578e-14,5.016008852e-14,4.757889447e-14,6.222808875e-13,1.041390303e-13,1.216940289e-13,2.343972104e-13,6.940494426e-14,1.512673929e-13,2.138001876e-13,1.103094042e-13,8.985898734e-14
1.21875,1.461337765e-13,1.824572986e-13,8.154066545e-14,7.196004993e-14,6.831931608e-14,1.427055077e-13,1.840116832e-13,9.757196323e-14,4.090027144e-14,1.046750882e-13,1.660595501e-13,1.10044176e-13,1.528844314e-13,4.624405509e-13,5.679319737e-13,4.080066884e-13,4.325234576e-13,2.738428844e-13,1.050519765e-13,1.51142741e-13,6.994168656e-14,4.357989875e-14,3.926452429e-14,5.404928704e-13,9.397256225e-14,1.183396276e-13,2.259435783e-13,7.068324092e-14,1.457555999e-13,2.000628576e-13,1.051419118e-13,9.068009655e-14
1.2265625,1.381548305e-13,1.815979921e-13,8.071778903e-14,7.944453695e-14,6.503898674e-14,1.464624465e-13,1.842794761e-13,1.023388061e-13,4.14003366e-14,1.081803555e-13,1.468798535e-13,1.161748985e-13,1.628238713e-13,4.607346588e-13,5.858677886e-13,3.974571774e-13,4.408276171e-13,2.418243762e-13,8.547791143e-14,1.478667576e-13,5.589978168e-14,3.775339225e-14,3.365401931e-14,4.822854489e-13,8.398079947e-14,1.131464619e-13,2.119142563e-13,7.091291724e-14,1.375899476e-13,1.831668442e-13,1.004851631e-13,9.244144029e-14
1.234375,1.336234291e-13,1.814822783e-13,8.220503018e-14,8.875906442e-14,6.326455671e-14,1.524787043e-13,1.850075603e-13,1.067984435e-13,4.202793758e-14,1.121990609e-13,1.284461244e-13,1.217482402e-13,1.755333548e-13,4.586520829e-13,6.071986889e-13,3.934757267e-13,4.47170001e-13,2.101264302e-13,6.829048715e-14,1.442499451e-13,4.805276375e-14,3.245273755e-14,3.012705187e-14,4.522153142e-13,7.47332128e-14,1.081422155e-13,1.951447423e-13,6.90055412e-14,1.287924336e-13,1.655079329e-13,9.739908021e-14,9.573595836e-14
1.2421875,1.321958998e-13,1.801749386e-13,8.490353504e-14,9.884677781e-14,6.286392777e-14,1.586173637e-13,1.879417507e-13,1.098629438e-13,4.281602405e-14,1.15331727e-13,1.122869396e-13,1.265635136e-13,1.900408945e-13,4.563873427e-13,6.30303072e-13,3.939654475e-13,4.522341513e-13,1.811775534e-13,5.413898705e-14,1.38962721e-13,4.563470661e-14,2.793773592e-14,2.850879616e-14,4.462955862e-13,6.676123065e-14,1.044545155e-13,1.778271695e-13,6.607138848e-14,1.205565684e-13,1.500381351e-13,9.668547482e-14,1.00154613e-13
1.25,1.329299303e-13,1.766916146e-13,8.75491296e-14,1.087440588e-13,6.345080123e-14,1.629641082e-13,1.894369402e-13,1.10797075e-13,4.321542282e-14,1.169303022e-13,9.890299274e-14,1.296913692e-13,2.066915649e-13,4.542249115e-13,6.536990353e-13,3.970095231e-13,4.558647711e-13,1.561867049e-13,4.330982423e-14,1.331527211e-13,4.700582547e-14,2.41698208e-14,2.843467959e-14,4.698253361e-13,6.003381858e-14,1.016538956e-13,1.596718522e-13,6.112419836e-14,1.125455777e-13,1.372821347e-13,9.795518572e-14,1.0546037e-13
1.2578125,1.359278597e-13,1.716802738e-13,8.985087213e-14,1.172480371e-13,6.448494862e-14,1.640532013e-13,1.918563754e-13,1.089290099e-13,4.328243722e-14,1.164186077e-13,8.846700958e-14,1.310824706e-13,2.252966256e-13,4.508875129e-13,6.711268084e-13,3.96911516e-13,4.536480605e-13,1.350049119e-13,3.568467847e-14,1.276920075e-13,5.134928278e-14,2.118774924e-14,2.983341563e-14,5.198721912e-13,5.566113241e-14,1.002255728e-13,1.427063031e-13,5.563508533e-14,1.053041099e-13,1.271971608e-13,1.009187019e-13,1.10908746e-13
1.265625,1.395661355e-13,1.663914488e-13,9.042197064e-14,1.219703722e-13,6.420322053e-14,1.608508049e-13,1.942840209e-13,1.048087835e-13,4.318417639e-14,1.14803288e-13,8.086056066e-14,1.310004598e-13,2.443777885e-13,4.435216409e-13,6.799315199e-13,3.913897428e-13,4.440212042e-13,1.16756518e-13,3.023718662e-14,1.224104473e-13,5.652036701e-14,1.884536473e-14,3.262461959e-14,5.947384301e-13,5.385040296e-14,9.988009977e-14,1.279539388e-13,4.941948024e-14,9.861598621e-14,1.197365621e-13,1.03435672e-13,1.144059028e-13
1.2734375,1.421300948e-13,1.609976649e-13,8.940757254e-14,1.228363729e-13,6.228659124e-14,1.537553366e-13,1.944280464e-13,9.843230856e-14,4.31866514e-14,1.133498727e-13,7.540664687e-14,1.293917595e-13,2.613901458e-13,4.301012968e-13,6.74346373e-13,3.763346508e-13,4.230458075e-13,1.004892525e-13,2.610070587e-14,1.187614545e-13,6.243434122e-14,1.686241608e-14,3.689048797e-14,6.899663588e-13,5.473059401e-14,9.968164001e-14,1.159458366e-13,4.371963239e-14,9.245018026e-14,1.139805251e-13,1.042440472e-13,1.15831338e-13
1.28125,1.442824619e-13,1.559132114e-13,8.733823971e-14,1.198660264e-13,5.833607075e-14,1.430397844e-13,1.927822736e-13,8.923166519e-14,4.282347184e-14,1.123681726e-13,7.131358191e-14,1.269353931e-13,2.764960004e-13,4.123748303e-13,6.580561658e-13,3.537949078e-13,3.945732749e-13,8.656135911e-14,2.31851689e-14,1.152623064e-13,6.788122318e-14,1.541377993e-14,4.247126897e-14,7.958538231e-13,5.802246339e-14,9.937048892e-14,1.067446142e-13,3.911342163e-14,8.735238445e-14,1.100245024e-13,1.033171997e-13,1.140702741e-13
1.2890625,1.457283648e-13,1.519949642e-13,8.56400451e-14,1.150551075e-13,5.338182924e-14,1.316873931e-13,1.87096464e-13,7.842843583e-14,4.21524996e-14,1.130396485e-13,6.837474502e-14,1.244588757e-13,2.912119806e-13,3.930640267e-13,6.339264255e-13,3.268504479e-13,3.601976239e-13,7.530723886e-14,2.149631616e-14,1.127223175e-13,7.35422663e-14,1.445249071e-14,4.979564698e-14,9.1152575e-13,6.401066137e-14,9.881973204e-14,1.00389472e-13,3.542278948e-14,8.37207848e-14,1.083307499e-13,1.016864083e-13,1.097070931e-13
1.296875,1.453571075e-13,1.49378297e-13,8.513548958e-14,1.087599256e-13,4.775457678e-14,1.207838227e-13,1.781092241e-13,6.75172823e-14,4.165496564e-14,1.156113484e-13,6.649252701e-14,1.221353704e-13,3.026077748e-13,3.721048867e-13,6.013928981e-13,2.961478803e-13,3.203743347e-13,6.633094477e-14,2.118443401e-14,1.092255933e-13,7.966349955e-14,1.395227949e-14,5.879543652e-14,1.025861974e-12,7.26292262e-14,9.775813076e-14,9.718211239e-14,3.348534827e-14,8.089317929e-14,1.078797741e-13,9.888401312e-14,1.024088018e-13
1.3046875,1.415115349e-13,1.478044961e-13,8.499216468e-14,1.021857868e-13,4.196701281e-14,1.123855316e-13,1.669312428e-13,5.764926726e-14,4.162800693e-14,1.199885273e-13,6.565642618e-14,1.192668652e-13,3.08741609e-13,3.479935112e-13,5.621547447e-13,2.655514793e-13,2.792501501e-13,5.992798232e-14,2.181026548e-14,1.051804257e-13,8.530798219e-14,1.391958235e-14,6.895868864e-14,1.132123391e-12,8.281403401e-14,9.660190863e-14,9.59489384e-14,3.339478194e-14,7.83074493e-14,1.066403042e-13,9.485437585e-14,9.313620889e-14
1.3125,1.346634314e-13,1.466514677e-13,8.683710379e-14,9.567362724e-14,3.655114416e-14,1.072299845e-13,1.551171937e-13,4.943882166e-14,4.227088796e-14,1.260368189e-13,6.557349958e-14,1.153900842e-13,3.085657872e-13,3.19924594e-13,5.160319692e-13,2.359149342e-13,2.382562e-13,5.57401277e-14,2.381468052e-14,1.006492059e-13,9.336213335e-14,1.447945699e-14,8.103786504e-14,1.225336048e-12,9.447364714e-14,9.526009519e-14,9.584048679e-14,3.479327979e-14,7.5381188e-14,1.037107835e-13,8.974109801e-14,8.323164792e-14
1.3203125,1.248349695e-13,1.459088202e-13,9.03740332e-14,8.965327377e-14,3.163805769e-14,1.052580951e-13,1.438032693e-13,4.315045246e-14,4.345526926e-14,1.333681233e-13,6.540221696e-14,1.108877699e-13,3.018261388e-13,2.871973102e-13,4.641737641e-13,2.076168437e-13,1.991633553e-13,5.315342773e-14,2.719904488e-14,9.611118108e-14,1.032723748e-13,1.568954354e-14,9.393948102e-14,1.294639871e-12,1.054617234e-13,9.335109389e-14,9.617037613e-14,3.765592074e-14,7.200293127e-14,9.834560843e-14,8.338903335e-14,7.32451784e-14
1.328125,1.145801151e-13,1.456131657e-13,9.652600514e-14,8.518468867e-14,2.757124655e-14,1.061083121e-13,1.351439385e-13,3.894426e-14,4.479082036e-14,1.403933527e-13,6.498571848e-14,1.063482823e-13,2.904687572e-13,2.54862697e-13,4.13682029e-13,1.840548553e-13,1.657558691e-13,5.257354429e-14,3.22141621e-14,9.34623899e-14,1.162248237e-13,1.753433257e-14,1.067371053e-13,1.341836152e-12,1.143476409e-13,9.087076854e-14,9.616202243e-14,4.118167717e-14,6.899151202e-14,9.16811652e-14,7.681169698e-14,6.512305867e-14
1.3359375,1.04604906e-13,1.456996143e-13,1.065134069e-13,8.157709872e-14,2.437405741e-14,1.09292788e-13,1.302798499e-13,3.695935417e-14,4.597843727e-14,1.465407428e-13,6.435748043e-14,1.018045242e-13,2.75899951e-13,2.235737124e-13,3.647723344e-13,1.640363617e-13,1.382271454e-13,5.341374876e-14,3.880893166e-14,9.346145543e-14,1.330208249e-13,2.015791312e-14,1.182727201e-13,1.373279309e-12,1.207816238e-13,8.802253989e-14,9.558695469e-14,4.468068795e-14,6.645570399e-14,8.349674765e-14,7.050031997e-14,6.010017179e-14
1.34375,9.651629116e-14,1.451653245e-13,1.201250487e-13,7.791178381e-14,2.1691109e-14,1.133340009e-13,1.323644354e-13,3.628140091e-14,4.654494665e-14,1.503958736e-13,6.340475739e-14,9.741765314e-14,2.604275732e-13,1.958133459e-13,3.206960269e-13,1.480812985e-13,1.174882486e-13,5.546492968e-14,4.670038054e-14,9.640399581e-14,1.545501749e-13,2.367980428e-14,1.283998626e-13,1.395444703e-12,1.24172617e-13,8.513663811e-14,9.437072723e-14,4.813272112e-14,6.420974569e-14,7.479085958e-14,6.476658337e-14,5.912437135e-14
1.3515625,9.141676409e-14,1.448044492e-13,1.386253526e-13,7.429834238e-14,1.965386201e-14,1.183982546e-13,1.413665145e-13,3.678611681e-14,4.64170115e-14,1.528844982e-13,6.189206797e-14,9.36723099e-14,2.453322224e-13,1.728461954e-13,2.823435317e-13,1.355699652e-13,1.022190585e-13,5.835591834e-14,5.571637194e-14,1.022231742e-13,1.807815803e-13,2.841952059e-14,1.362136136e-13,1.415033972e-12,1.245287396e-13,8.237787249e-14,9.146792642e-14,5.079882534e-14,6.231862814e-14,6.59104986e-14,5.958740774e-14,6.216550776e-14
1.359375,8.945524267e-14,1.444550133e-13,1.601285523e-13,7.068993844e-14,1.803776476e-14,1.244548974e-13,1.575250993e-13,3.833270427e-14,4.563952432e-14,1.549283101e-13,6.00038753e-14,9.129672923e-14,2.346065343e-13,1.554412894e-13,2.504833484e-13,1.253852778e-13,9.142005046e-14,6.179352657e-14,6.584301937e-14,1.107068802e-13,2.134854596e-13,3.489602725e-14,1.424993876e-13,1.436913591e-12,1.228608681e-13,7.975748475e-14,8.697552121e-14,5.28009622e-14,6.123666273e-14,5.709454634e-14,5.520640598e-14,6.906407711e-14
1.3671875,9.178937887e-14,1.441338827e-13,1.851256114e-13,6.737467774e-14,1.677112978e-14,1.319953006e-13,1.800355361e-13,4.064188392e-14,4.445884178e-14,1.56655755e-13,5.845805406e-14,9.053913942e-14,2.301457031e-13,1.458521692e-13,2.284807976e-13,1.188566727e-13,8.541784149e-14,6.647164402e-14,7.700419579e-14,1.224936833e-13,2.530773639e-13,4.32933914e-14,1.467669228e-13,1.463572335e-12,1.20377643e-13,7.772081922e-14,8.254932809e-14,5.507989166e-14,6.15303603e-14,4.958854929e-14,5.189233185e-14,7.968955433e-14
1.375,9.75155173e-14,1.443120798e-13,2.120394355e-13,6.34959658e-14,1.589654097e-14,1.405234482e-13,2.103552287e-13,4.380042954e-14,4.318881851e-14,1.581869846e-13,5.817448714e-14,9.071060836e-14,2.299127126e-13,1.411425437e-13,2.125947869e-13,1.145217362e-13,8.208158355e-14,7.237462332e-14,8.895764467e-14,1.360219484e-13,2.98130092e-13,5.377075691e-14,1.495821913e-13,1.48843632e-12,1.173933044e-13,7.593082807e-14,7.804504254e-14,5.734634509e-14,6.29586474e-14,4.363856006e-14,4.929164597e-14,9.287282896e-14
1.3828125,1.057849125e-13,1.446084264e-13,2.394163717e-13,5.971213082e-14,1.541241e-14,1.506033236e-13,2.438056649e-13,4.755716367e-14,4.185444933e-14,1.593977809e-13,5.919106665e-14,9.192252115e-14,2.341940618e-13,1.410132044e-13,2.024962058e-13,1.112957424e-13,8.048232743e-14,7.907119091e-14,1.010956926e-13,1.511296244e-13,3.476773549e-13,6.619904788e-14,1.522257982e-13,1.505133488e-12,1.150073698e-13,7.36579735e-14,7.376669876e-14,5.979471131e-14,6.524348046e-14,3.912219999e-14,4.646078528e-14,1.074646883e-13
1.390625,1.164770253e-13,1.470970673e-13,2.634831696e-13,5.66385002e-14,1.537886415e-14,1.61986128e-13,2.795976292e-13,5.177498608e-14,4.070326361e-14,1.594400215e-13,6.136663867e-14,9.361411158e-14,2.39858029e-13,1.434029184e-13,1.974519757e-13,1.099967395e-13,8.062867306e-14,8.646111367e-14,1.138582697e-13,1.680266697e-13,3.992451168e-13,8.027608159e-14,1.548299628e-13,1.509904192e-12,1.129777238e-13,7.012851807e-14,6.916461055e-14,6.242949399e-14,6.819748323e-14,3.558529193e-14,4.25829348e-14,1.219916183e-13
1.3984375,1.275631027e-13,1.505738391e-13,2.826693895e-13,5.490464008e-14,1.590011929e-14,1.744943207e-13,3.13284581e-13,5.645172092e-14,4.002677703e-14,1.584283572e-13,6.500272733e-14,9.567591084e-14,2.459519995e-13,1.462981441e-13,1.954135384e-13,1.100966698e-13,8.221608867e-14,9.464626995e-14,1.268198739e-13,1.846979321e-13,4.486094789e-13,9.479467464e-14,1.571117714e-13,1.49481919e-12,1.104573726e-13,6.531463351e-14,6.495403833e-14,6.436512409e-14,7.268248569e-14,3.418732546e-14,3.813047796e-14,1.339173143e-13
1.40625,1.358766653e-13,1.54794731e-13,2.945100567e-13,5.380571041e-14,1.70725646e-14,1.867977627e-13,3.44981549e-13,6.150532691e-14,3.926731082e-14,1.560024559e-13,6.962393657e-14,9.806502699e-14,2.516435979e-13,1.504607732e-13,1.970092281e-13,1.119909578e-13,8.482511817e-14,1.031740603e-13,1.390007572e-13,2.002542695e-13,4.901260438e-13,1.082937803e-13,1.594120561e-13,1.46055692e-12,1.077445601e-13,6.059482039e-14,6.218379351e-14,6.640889899e-14,7.873278482e-14,3.436907029e-14,3.437425638e-14,1.420253405e-13
1.4140625,1.402853008e-13,1.601969133e-13,2.987785512e-13,5.380302499e-14,1.859754523e-14,1.983578761e-13,3.677299008e-13,6.703089106e-14,3.835261851e-14,1.518086764e-13,7.46902228e-14,1.006778146e-13,2.539523112e-13,1.53564234e-13,2.008287359e-13,1.160616245e-13,8.871592786e-14,1.115620351e-13,1.49768025e-13,2.137987696e-13,5.205301896e-13,1.194850576e-13,1.614491911e-13,1.399391651e-12,1.051181747e-13,5.615809978e-14,6.099570239e-14,6.849948949e-14,8.602294762e-14,3.518267354e-14,3.117213461e-14,1.446489879e-13
1.421875,1.412811591e-13,1.668988849e-13,2.952131223e-13,5.414584523e-14,2.045929382e-14,2.072046901e-13,3.793066784e-13,7.266137401e-14,3.776881439e-14,1.456581079e-13,8.038265383e-14,1.03855475e-13,2.535681567e-13,1.552325241e-13,2.072300426e-13,1.227806489e-13,9.385094193e-14,1.19839209e-13,1.584205781e-13,2.238120508e-13,5.346903592e-13,1.279780858e-13,1.615784835e-13,1.324707388e-12,1.025531743e-13,5.214411779e-14,6.151699539e-14,7.046538099e-14,9.488538458e-14,3.769835436e-14,2.846038685e-14,1.425972084e-13
1.4296875,1.39335784e-13,1.741618916e-13,2.861776113e-13,5.500908976e-14,2.255514804e-14,2.131701108e-13,3.792143988e-13,7.825099312e-14,3.767535313e-14,1.382127573e-13,8.675432268e-14,1.083331239e-13,2.51122223e-13,1.567247379e-13,2.176611515e-13,1.3258828e-13,1.004527742e-13,1.28060906e-13,1.645986219e-13,2.318456304e-13,5.309935777e-13,1.328810207e-13,1.591052521e-13,1.245970024e-12,1.000176811e-13,4.952525518e-14,6.395970326e-14,7.209366473e-14,1.052332097e-13,4.286783902e-14,2.689899269e-14,1.354065179e-13
1.4375,1.331537058e-13,1.814159379e-13,2.728012373e-13,5.574760319e-14,2.483392182e-14,2.136308577e-13,3.698270906e-13,8.385244547e-14,3.775597503e-14,1.292033277e-13,9.245646302e-14,1.14224889e-13,2.48515368e-13,1.59355894e-13,2.33933654e-13,1.452676518e-13,1.081689473e-13,1.348077658e-13,1.672436595e-13,2.371628847e-13,5.10393774e-13,1.335770925e-13,1.539639351e-13,1.167421515e-12,9.706427377e-14,4.897896011e-14,6.696484679e-14,7.376220438e-14,1.15328895e-13,5.023990584e-14,2.671817389e-14,1.242691954e-13
1.4453125,1.225622237e-13,1.874440582e-13,2.544458243e-13,5.596471582e-14,2.698071869e-14,2.082669632e-13,3.537172891e-13,8.91650989e-14,3.797218315e-14,1.197626386e-13,9.607940388e-14,1.21663877e-13,2.482832508e-13,1.650930187e-13,2.574622992e-13,1.606331163e-13,1.167051189e-13,1.38772365e-13,1.654536029e-13,2.406859953e-13,4.756311573e-13,1.298499475e-13,1.462712541e-13,1.105759284e-12,9.432081457e-14,5.142622316e-14,7.017358462e-14,7.497265692e-14,1.240697048e-13,5.947309749e-14,2.853549382e-14,1.104322939e-13
1.453125,1.110624337e-13,1.939815441e-13,2.330751697e-13,5.60445223e-14,2.909734734e-14,1.981486844e-13,3.391275107e-13,9.415563067e-14,3.879352915e-14,1.111611678e-13,9.744862742e-14,1.314753066e-13,2.527563087e-13,1.757329097e-13,2.908503605e-13,1.78980063e-13,1.266635341e-13,1.398229508e-13,1.611344821e-13,2.451632214e-13,4.330399513e-13,1.230518354e-13,1.369180531e-13,1.070759293e-12,9.225283643e-14,5.713418666e-14,7.396357422e-14,7.597364776e-14,1.319919728e-13,7.144924224e-14,3.291188962e-14,9.527615016e-14
1.4609375,1.010569031e-13,2.03134876e-13,2.121890825e-13,5.616207165e-14,3.108440414e-14,1.846924363e-13,3.293588652e-13,9.785654517e-14,4.076711876e-14,1.02445531e-13,9.770690801e-14,1.428290659e-13,2.631289036e-13,1.924243495e-13,3.335856222e-13,1.997555159e-13,1.37903235e-13,1.382593293e-13,1.548122452e-13,2.501920232e-13,3.881461065e-13,1.147729247e-13,1.271661951e-13,1.068920664e-12,9.065033136e-14,6.559310035e-14,7.726203901e-14,7.658901638e-14,1.377847758e-13,8.610417028e-14,3.93730618e-14,8.152415815e-14
1.46875,9.279243427e-14,2.148674338e-13,1.940480253e-13,5.655112161e-14,3.298938193e-14,1.696530965e-13,3.255903658e-13,9.984797032e-14,4.353609456e-14,9.441236724e-14,9.70824919e-14,1.545496679e-13,2.789341905e-13,2.148800274e-13,3.830885891e-13,2.208553315e-13,1.494453984e-13,1.343029995e-13,1.46497291e-13,2.553538643e-13,3.451549315e-13,1.056654147e-13,1.180393329e-13,1.09955567e-12,8.931906222e-14,7.598210706e-14,7.936386322e-14,7.713824844e-14,1.400185584e-13,1.025547769e-13,4.709494079e-14,6.951907748e-14
1.4765625,8.597567576e-14,2.299499996e-13,1.784447329e-13,5.682300034e-14,3.46761208e-14,1.532909879e-13,3.247100037e-13,1.000012827e-13,4.635803054e-14,8.715182839e-14,9.4833082e-14,1.657029159e-13,3.000092018e-13,2.425336941e-13,4.351909598e-13,2.400910834e-13,1.599911457e-13,1.284133451e-13,1.372587176e-13,2.591848197e-13,3.080776723e-13,9.667111828e-14,1.112166946e-13,1.161726374e-12,8.866909757e-14,8.789611979e-14,8.080784977e-14,7.765535438e-14,1.382708514e-13,1.194582853e-13,5.557173527e-14,5.961978021e-14
1.484375,8.060929164e-14,2.485722892e-13,1.648647536e-13,5.725291705e-14,3.600834698e-14,1.368160162e-13,3.233016695e-13,9.810906099e-14,4.958977245e-14,8.066607851e-14,9.130196272e-14,1.760166301e-13,3.251384924e-13,2.724063853e-13,4.848253615e-13,2.555046013e-13,1.693732509e-13,1.212139327e-13,1.272914972e-13,2.616799142e-13,2.779496805e-13,8.832428433e-14,1.057831097e-13,1.242791278e-12,8.896033043e-14,1.008584686e-13,8.267850447e-14,7.866835648e-14,1.339606322e-13,1.376454101e-13,6.540225667e-14,5.236164421e-14
1.4921875,7.759398439e-14,2.695689855e-13,1.531462486e-13,5.797282559e-14,3.709533795e-14,1.212198849e-13,3.177933291e-13,9.421230327e-14,5.297957579e-14,7.400513133e-14,8.720692691e-14,1.848675303e-13,3.523782862e-13,3.02145336e-13,5.281072985e-13,2.661440656e-13,1.766028082e-13,1.136050446e-13,1.17063003e-13,2.617587755e-13,2.561723806e-13,8.104590215e-14,1.020237678e-13,1.334879849e-12,8.994254809e-14,1.128172614e-13,8.517347928e-14,7.977068923e-14,1.272885686e-13,1.556495552e-13,7.536127981e-14,4.756897339e-14
1.5,7.666766043e-14,2.914567345e-13,1.452780528e-13,5.836130894e-14,3.784626805e-14,1.071782778e-13,3.113225843e-13,8.777071107e-14,5.612756907e-14,6.758914554e-14,8.345399048e-14,1.908547882e-13,3.774453153e-13,3.277631187e-13,5.576032126e-13,2.687784546e-13,1.809329419e-13,1.064213761e-13,1.070545152e-13,2.568559039e-13,2.423415021e-13,7.554485007e-14,9.94163481e-14,1.419561831e-12,9.102200799e-14,1.224256674e-13,8.811668564e-14,8.100929166e-14,1.190379319e-13,1.725635419e-13,8.473782492e-14,4.526803875e-14
1.5078125,7.613227845e-14,3.109032182e-13,1.420979055e-13,5.857324431e-14,3.82692932e-14,9.506738194e-14,3.017182193e-13,7.914240757e-14,5.817645085e-14,6.179605248e-14,7.987261456e-14,1.930485413e-13,3.98950682e-13,3.472540832e-13,5.718883648e-13,2.63849629e-13,1.820371805e-13,9.971797697e-14,9.715501252e-14,2.469660719e-13,2.346401264e-13,7.173876724e-14,9.740017041e-14,1.489867088e-12,9.230119887e-14,1.304240565e-13,9.26634117e-14,8.320320216e-14,1.100695418e-13,1.866182346e-13,9.363020783e-14,4.504862418e-14
1.515625,7.523724018e-14,3.263174935e-13,1.449937765e-13,5.882380173e-14,3.865527923e-14,8.541749158e-14,2.926681279e-13,6.942970784e-14,5.862279979e-14,5.715742065e-14,7.615448514e-14,1.903824918e-13,4.141612462e-13,3.561513374e-13,5.681902273e-13,2.521933223e-13,1.794436388e-13,9.356011076e-14,8.821212622e-14,2.332267452e-13,2.316006222e-13,6.984606303e-14,9.589180805e-14,1.529980857e-12,9.31096348e-14,1.371208472e-13,9.867705981e-14,8.614475742e-14,1.010383454e-13,1.964330071e-13,1.021779776e-13,4.670177431e-14
1.5234375,7.455242426e-14,3.357155818e-13,1.534648159e-13,5.900167908e-14,3.947620758e-14,7.855005516e-14,2.844600336e-13,5.973221017e-14,5.795150764e-14,5.467836871e-14,7.28107692e-14,1.841036853e-13,4.232398382e-13,3.550683442e-13,5.500308774e-13,2.353263299e-13,1.740379874e-13,8.774425141e-14,8.008549762e-14,2.155526366e-13,2.303949029e-13,6.951456589e-14,9.404579505e-14,1.540879485e-12,9.296020248e-14,1.424788062e-13,1.054199949e-13,9.034425221e-14,9.293217108e-14,2.027233374e-13,1.105868568e-13,4.946045497e-14
1.53125,7.461829079e-14,3.38984271e-13,1.657093857e-13,5.955455966e-14,4.102629122e-14,7.421934217e-14,2.809305616e-13,5.113011458e-14,5.685541247e-14,5.434671727e-14,7.065909043e-14,1.766227425e-13,4.268415519e-13,3.477799912e-13,5.228962868e-13,2.159820022e-13,1.67776597e-13,8.266801587e-14,7.270561134e-14,1.962982297e-13,2.293605655e-13,6.994667787e-14,9.090761648e-14,1.516284326e-12,9.164544905e-14,1.464676956e-13,1.13504891e-13,9.548344363e-14,8.701671015e-14,2.064716881e-13,1.190086115e-13,5.268525286e-14
1.5390625,7.406989893e-14,3.35782378e-13,1.803136015e-13,6.082676726e-14,4.409683584e-14,7.166374765e-14,2.833615068e-13,4.414822697e-14,5.502570315e-14,5.650027664e-14,6.923230631e-14,1.679901292e-13,4.257599571e-13,3.365389215e-13,4.900900182e-13,1.95330238e-13,1.614133234e-13,7.77275608e-14,6.540326677e-14,1.766811377e-13,2.263188715e-13,7.024922924e-14,8.622865376e-14,1.469606103e-12,8.96876479e-14,1.499869584e-13,1.222300346e-13,1.007048018e-13,8.24425393e-14,2.07855331e-13,1.27721443e-13,5.626738757e-14
1.546875,7.251174755e-14,3.265262632e-13,1.957894258e-13,6.304254553e-14,4.851548838e-14,7.024198114e-14,2.902080985e-13,3.887795771e-14,5.279957856e-14,6.137775229e-14,6.790493768e-14,1.589576426e-13,4.206988625e-13,3.222481419e-13,4.54697274e-13,1.744663835e-13,1.548961004e-13,7.211051421e-14,5.826026841e-14,1.576193794e-13,2.214333011e-13,6.991096632e-14,8.082681065e-14,1.398514454e-12,8.748924224e-14,1.529405943e-13,1.303550303e-13,1.06248502e-13,7.834725902e-14,2.061269799e-13,1.355567445e-13,5.995629202e-14
1.5546875,7.016908963e-14,3.14344921e-13,2.106442009e-13,6.637714693e-14,5.43443088e-14,6.992659444e-14,3.007310081e-13,3.563611536e-14,5.042317129e-14,6.89398693e-14,6.673470034e-14,1.510151441e-13,4.159188327e-13,3.086565806e-13,4.241789567e-13,1.565340156e-13,1.504001868e-13,6.617793261e-14,5.151722351e-14,1.408619746e-13,2.150095314e-13,6.871047996e-14,7.54101744e-14,1.315429962e-12,8.618695289e-14,1.552015469e-13,1.370650776e-13,1.12299502e-13,7.469097387e-14,2.021824397e-13,1.419498329e-13,6.359985501e-14
1.5625,6.813645051e-14,3.020240783e-13,2.227347166e-13,7.108845516e-14,6.128431422e-14,6.930560778e-14,3.091533046e-13,3.435188801e-14,4.808311443e-14,7.887630104e-14,6.573393708e-14,1.449884033e-13,4.109547948e-13,2.975740109e-13,3.989627339e-13,1.414797522e-13,1.479714589e-13,6.021346289e-14,4.493550285e-14,1.263778449e-13,2.056215021e-13,6.609237085e-14,6.985066905e-14,1.226023748e-12,8.586721889e-14,1.562255308e-13,1.420866899e-13,1.177499378e-13,7.179819873e-14,1.970467538e-13,1.463031855e-13,6.696222224e-14
1.5703125,6.650982331e-14,2.896566584e-13,2.297262362e-13,7.746756233e-14,6.899181119e-14,6.801915165e-14,3.123539961e-13,3.483168464e-14,4.568734813e-14,9.04000607e-14,6.445686912e-14,1.410174104e-13,4.056244524e-13,2.895087528e-13,3.797048294e-13,1.296667915e-13,1.475521023e-13,5.442864154e-14,3.839634125e-14,1.15165044e-13,1.937285611e-13,6.171438246e-14,6.403391788e-14,1.132618763e-12,8.653839737e-14,1.564606264e-13,1.455444367e-13,1.225393989e-13,6.890733973e-14,1.918246895e-13,1.486007213e-13,7.057158342e-14
1.578125,6.554679849e-14,2.783959576e-13,2.321911686e-13,8.518675991e-14,7.697777605e-14,6.590971623e-14,3.091684253e-13,3.677040212e-14,4.31739212e-14,1.028619158e-13,6.285455692e-14,1.386875024e-13,4.000770908e-13,2.844587944e-13,3.66319549e-13,1.21066011e-13,1.499592675e-13,4.923652718e-14,3.248361135e-14,1.067735138e-13,1.811433948e-13,5.651222111e-14,5.881242616e-14,1.041820446e-12,8.802298658e-14,1.558197355e-13,1.475773403e-13,1.250830396e-13,6.589379994e-14,1.863476952e-13,1.479615918e-13,7.460254358e-14
1.5859375,6.596402239e-14,2.695187193e-13,2.295446669e-13,9.378168825e-14,8.406378564e-14,6.239079891e-14,3.009536861e-13,3.997656139e-14,4.082368032e-14,1.150820632e-13,6.110232072e-14,1.379297797e-13,3.928712513e-13,2.801139231e-13,3.560871189e-13,1.146687126e-13,1.542688292e-13,4.459736418e-14,2.698241703e-14,1.00888852e-13,1.66914341e-13,5.075832347e-14,5.442383195e-14,9.498875939e-13,9.101218914e-14,1.539515573e-13,1.488094789e-13,1.267931877e-13,6.299442057e-14,1.815482328e-13,1.442540214e-13,7.970480903e-14
1.59375,6.808523857e-14,2.619400819e-13,2.243854427e-13,1.016761706e-13,8.980260991e-14,5.837980911e-14,2.911091192e-13,4.482544852e-14,3.90199969e-14,1.252037457e-13,5.96729189e-14,1.377600524e-13,3.82109285e-13,2.745877401e-13,3.490091873e-13,1.109060642e-13,1.604178536e-13,4.088364083e-14,2.264265334e-14,9.782633796e-14,1.540778693e-13,4.560536962e-14,5.138148995e-14,8.600667039e-13,9.477242912e-14,1.513145174e-13,1.493103626e-13,1.275790727e-13,6.028582401e-14,1.780629174e-13,1.377458928e-13,8.618580635e-14
1.6015625,7.244094575e-14,2.558154404e-13,2.179276766e-13,1.077351146e-13,9.305995356e-14,5.395143724e-14,2.805038023e-13,5.086819722e-14,3.778060739e-14,1.320650347e-13,5.896157247e-14,1.372272434e-13,3.663611591e-13,2.663231178e-13,3.43049431e-13,1.089131618e-13,1.673158156e-13,3.863326772e-14,1.979078469e-14,9.701221648e-14,1.434710002e-13,4.184792839e-14,4.997858697e-14,7.72776793e-13,9.905825436e-14,1.489304978e-13,1.501971966e-13,1.274188972e-13,5.867134483e-14,1.761903796e-13,1.290208878e-13,9.498399779e-14
1.609375,7.829238766e-14,2.490745508e-13,2.114345347e-13,1.113915128e-13,9.407887412e-14,4.899413017e-14,2.743371017e-13,5.768332951e-14,3.71204346e-14,1.343034646e-13,5.892685843e-14,1.357300491e-13,3.450667854e-13,2.549947994e-13,3.364824663e-13,1.081557302e-13,1.745470049e-13,3.777718595e-14,1.85099813e-14,1.003598166e-13,1.368962511e-13,3.977682958e-14,4.97250658e-14,6.945886805e-13,1.039230073e-13,1.46979838e-13,1.516977705e-13,1.267625031e-13,5.750487126e-14,1.752438836e-13,1.187854502e-13,1.067163077e-13
1.6171875,8.532680556e-14,2.407289312e-13,2.081944177e-13,1.12487879e-13,9.284706115e-14,4.432128193e-14,2.74751267e-13,6.524915235e-14,3.734553541e-14,1.317206908e-13,5.952520709e-14,1.329629484e-13,3.185133307e-13,2.395351039e-13,3.285285814e-13,1.083785646e-13,1.808041374e-13,3.824498416e-14,1.917253648e-14,1.097311532e-13,1.377202053e-13,3.97765268e-14,5.062051264e-14,6.178471528e-13,1.087173146e-13,1.450812623e-13,1.528682897e-13,1.265526996e-13,5.627100604e-14,1.751700352e-13,1.072055186e-13,1.220986773e-13
1.625,9.19872307e-14,2.289850407e-13,2.095785619e-13,1.102358911e-13,9.033550862e-14,4.105927333e-14,2.846581054e-13,7.331813624e-14,3.846457221e-14,1.255818904e-13,6.081547651e-14,1.293673224e-13,2.893439213e-13,2.205991593e-13,3.185305799e-13,1.091505746e-13,1.84173176e-13,3.988913177e-14,2.166303307e-14,1.254208637e-13,1.467485079e-13,4.165132114e-14,5.263426407e-14,5.486186808e-13,1.135303713e-13,1.439233e-13,1.538423611e-13,1.27303881e-13,5.505722553e-14,1.748659729e-13,9.548677655e-14,1.410337455e-13
1.6328125,9.651914295e-14,2.14296135e-13,2.145412226e-13,1.041325382e-13,8.735063492e-14,3.954067423e-14,3.059964849e-13,8.176522134e-14,4.058775834e-14,1.157832889e-13,6.28179189e-14,1.243870464e-13,2.571868942e-13,1.983233446e-13,3.056293448e-13,1.098023292e-13,1.836798116e-13,4.222633575e-14,2.558212399e-14,1.49936353e-13,1.643823614e-13,4.447874435e-14,5.594367945e-14,4.823085766e-13,1.179358319e-13,1.446927123e-13,1.549944021e-13,1.288696406e-13,5.456767164e-14,1.740233171e-13,8.519929634e-14,1.634730554e-13
1.640625,9.816126873e-14,1.966970295e-13,2.238787128e-13,9.600430162e-14,8.518734633e-14,4.047618025e-14,3.35680246e-13,9.063283373e-14,4.401579154e-14,1.035024594e-13,6.570634934e-14,1.188648176e-13,2.24481419e-13,1.749000959e-13,2.921475219e-13,1.115320074e-13,1.804868639e-13,4.568742141e-14,3.110525241e-14,1.839210496e-13,1.914299989e-13,4.809221518e-14,6.03586773e-14,4.212183764e-13,1.219752629e-13,1.47415396e-13,1.573263637e-13,1.316620463e-13,5.510438493e-14,1.720706173e-13,7.763563357e-14,1.884329492e-13
1.6484375,9.695383636e-14,1.768938572e-13,2.356761888e-13,8.721525959e-14,8.441319206e-14,4.432216139e-14,3.73562552e-13,9.947529842e-14,4.885911179e-14,9.05258876e-14,6.907209398e-14,1.131865184e-13,1.934552257e-13,1.519029039e-13,2.767736604e-13,1.132922267e-13,1.738551116e-13,4.971110467e-14,3.774698003e-14,2.267530898e-13,2.253951696e-13,5.211597903e-14,6.524416814e-14,3.667106568e-13,1.255470439e-13,1.515225974e-13,1.608168762e-13,1.351845968e-13,5.579744325e-14,1.686379665e-13,7.225001626e-14,2.145979398e-13
1.65625,9.200832458e-14,1.555537025e-13,2.477061298e-13,7.897050312e-14,8.509198443e-14,5.07014944e-14,4.115403603e-13,1.077754199e-13,5.525117529e-14,7.816982535e-14,7.272668867e-14,1.077560134e-13,1.659305314e-13,1.306037718e-13,2.607439075e-13,1.149659628e-13,1.638302431e-13,5.327012405e-14,4.480569383e-14,2.757088266e-13,2.633355642e-13,5.583905099e-14,7.027125941e-14,3.22077708e-13,1.286052494e-13,1.568291014e-13,1.6407927e-13,1.394452873e-13,5.613727029e-14,1.630460654e-13,6.858557684e-14,2.414933739e-13
1.6640625,8.329366079e-14,1.331303461e-13,2.571486904e-13,7.210827829e-14,8.783786714e-14,5.91193261e-14,4.466955613e-13,1.155908046e-13,6.293840496e-14,6.794003121e-14,7.576430889e-14,1.031186109e-13,1.4294931e-13,1.123078689e-13,2.44002776e-13,1.157665754e-13,1.493385191e-13,5.546520448e-14,5.17403293e-14,3.292939268e-13,3.027955741e-13,5.84793322e-14,7.5976006e-14,2.87670746e-13,1.310554122e-13,1.637746867e-13,1.670462753e-13,1.434884437e-13,5.634237855e-14,1.544159987e-13,6.674647504e-14,2.678760155e-13
1.671875,7.167952206e-14,1.120586846e-13,2.621003928e-13,6.736940237e-14,9.168609641e-14,6.874300145e-14,4.728856866e-13,1.216290494e-13,7.115010485e-14,6.058351171e-14,7.797932857e-14,9.922392441e-14,1.248884531e-13,9.777078862e-14,2.262002644e-13,1.150967572e-13,1.324839864e-13,5.686438379e-14,5.887881277e-14,3.841352647e-13,3.403399869e-13,6.007083321e-14,8.177853915e-14,2.648324108e-13,1.326194659e-13,1.720579341e-13,1.705380089e-13,1.455758321e-13,5.728281739e-14,1.436172807e-13,6.673337368e-14,2.911767773e-13
1.6796875,5.905703307e-14,9.342408032e-14,2.611184355e-13,6.502043799e-14,9.595542813e-14,7.830093587e-14,4.864602309e-13,1.252401026e-13,7.984688502e-14,5.711820164e-14,7.934184526e-14,9.729431955e-14,1.133727392e-13,8.854980336e-14,2.089462258e-13,1.131987436e-13,1.151527763e-13,5.774352777e-14,6.609950813e-14,4.326455735e-13,3.716573812e-13,6.09496433e-14,8.744319085e-14,2.576351736e-13,1.343519447e-13,1.801575439e-13,1.750859829e-13,1.465647996e-13,5.880555539e-14,1.320989921e-13,6.788023652e-14,3.106130095e-13
1.6875,4.729309971e-14,7.897390513e-14,2.543939056e-13,6.441406856e-14,9.990137782e-14,8.686895137e-14,4.872124361e-13,1.264196956e-13,8.884732946e-14,5.865547804e-14,8.033776134e-14,9.846287822e-14,1.087562034e-13,8.558363952e-14,1.933140361e-13,1.110646332e-13,9.940715935e-14,5.848764229e-14,7.270240328e-14,4.69183297e-13,3.939992405e-13,6.169100687e-14,9.304442346e-14,2.637325944e-13,1.370701402e-13,1.871834692e-13,1.806984232e-13,1.469614617e-13,5.985138717e-14,1.221451317e-13,6.919480445e-14,3.259782786e-13
1.6953125,3.689276143e-14,6.88260403e-14,2.432640485e-13,6.526897908e-14,1.02651113e-13,9.371682e-14,4.759522045e-13,1.252318893e-13,9.690060817e-14,6.532187061e-14,8.043346504e-14,1.018117753e-13,1.119122934e-13,8.843543163e-14,1.807181164e-13,1.088247132e-13,8.620261685e-14,5.821217379e-14,7.774328106e-14,4.88730472e-13,4.063028872e-13,6.244910063e-14,9.945732222e-14,2.86769934e-13,1.411538342e-13,1.924327757e-13,1.849542708e-13,1.45124488e-13,6.032966054e-14,1.133175281e-13,6.965479027e-14,3.364319913e-13
1.703125,2.812665928e-14,6.330193716e-14,2.295857614e-13,6.714709145e-14,1.049179539e-13,9.899934384e-14,4.589266488e-13,1.223027416e-13,1.027822293e-13,7.699358679e-14,7.910708791e-14,1.068724265e-13,1.228749592e-13,9.694795765e-14,1.715769364e-13,1.065343765e-13,7.593723267e-14,5.746036384e-14,8.20044848e-14,4.93448907e-13,4.121243778e-13,6.316635864e-14,1.068934241e-13,3.255632137e-13,1.472455589e-13,1.986928824e-13,1.904031186e-13,1.41602803e-13,6.197488535e-14,1.057657372e-13,7.146078629e-14,3.419632191e-13
1.7109375,2.268971408e-14,6.184820813e-14,2.148609454e-13,6.926746416e-14,1.06512284e-13,1.021196597e-13,4.398843316e-13,1.190341753e-13,1.062258252e-13,9.408969282e-14,7.690236151e-14,1.149500319e-13,1.436821774e-13,1.119930126e-13,1.705226424e-13,1.073994129e-13,7.140530523e-14,5.733816074e-14,8.600055665e-14,4.831089087e-13,4.146412617e-13,6.363482772e-14,1.157110709e-13,3.811638063e-13,1.568264009e-13,2.056213755e-13,1.984815794e-13,1.361911702e-13,6.513760363e-14,1.026577367e-13,7.455335306e-14,3.407057454e-13
1.71875,2.047058826e-14,6.344140576e-14,1.990638917e-13,7.163297684e-14,1.074312481e-13,1.042784708e-13,4.235824123e-13,1.154593234e-13,1.073546368e-13,1.15234464e-13,7.457406102e-14,1.262071651e-13,1.748808228e-13,1.341468711e-13,1.79734311e-13,1.128172458e-13,7.213954785e-14,5.783025625e-14,8.896239899e-14,4.600181534e-13,4.172792466e-13,6.416156992e-14,1.263474253e-13,4.552012239e-13,1.702427726e-13,2.131987571e-13,2.091337535e-13,1.300124727e-13,6.949610408e-14,1.034492245e-13,7.872817052e-14,3.330798238e-13
1.7265625,2.027485504e-14,6.768013081e-14,1.821194755e-13,7.420897832e-14,1.08069953e-13,1.062939722e-13,4.138563228e-13,1.128310692e-13,1.067850674e-13,1.383705524e-13,7.279578033e-14,1.386849066e-13,2.141868999e-13,1.610905726e-13,1.995164928e-13,1.232249074e-13,7.79012648e-14,5.845816892e-14,9.037963492e-14,4.282004382e-13,4.23535528e-13,6.5129251e-14,1.384479931e-13,5.43654395e-13,1.87155181e-13,2.197884324e-13,2.204494166e-13,1.238252602e-13,7.383863787e-14,1.067492649e-13,8.335597939e-14,3.200793921e-13
1.734375,2.205503627e-14,7.253922402e-14,1.645276588e-13,7.631444594e-14,1.082792035e-13,1.084653646e-13,4.124331291e-13,1.122520706e-13,1.035206673e-13,1.621698733e-13,7.04021958e-14,1.507318862e-13,2.596775463e-13,1.911509048e-13,2.309028027e-13,1.398029347e-13,8.808793106e-14,5.905897293e-14,9.185487375e-14,3.936544329e-13,4.385107979e-13,6.637451252e-14,1.525046171e-13,6.440912083e-13,2.067363913e-13,2.248107918e-13,2.309720751e-13,1.179951245e-13,7.836369611e-14,1.108545221e-13,8.797662046e-14,3.011758468e-13
1.7421875,2.616892848e-14,7.608368402e-14,1.469872597e-13,7.822878961e-14,1.084239306e-13,1.115877415e-13,4.250122191e-13,1.133281671e-13,9.768228993e-14,1.840650178e-13,6.766387268e-14,1.60949391e-13,3.07087462e-13,2.207665651e-13,2.726488264e-13,1.631379094e-13,1.038076501e-13,5.983021026e-14,9.318931784e-14,3.609786228e-13,4.591920601e-13,6.750774327e-14,1.666862715e-13,7.493437817e-13,2.273535881e-13,2.28168145e-13,2.402234612e-13,1.123142938e-13,8.360371776e-14,1.16182193e-13,9.331962554e-14,2.76779577e-13
1.75,3.254978595e-14,7.768095925e-14,1.29449051e-13,8.009042693e-14,1.08175115e-13,1.151650569e-13,4.498181173e-13,1.156602732e-13,9.121559336e-14,2.024872455e-13,6.54429405e-14,1.70295008e-13,3.546813008e-13,2.503407347e-13,3.257123363e-13,1.936748991e-13,1.239159123e-13,6.118521423e-14,9.415096787e-14,3.357872126e-13,4.851688773e-13,6.806010727e-14,1.797953683e-13,8.588482373e-13,2.483094414e-13,2.294627945e-13,2.480722711e-13,1.074372595e-13,8.900893755e-14,1.226862482e-13,9.83815173e-14,2.482991475e-13
1.7578125,3.928764529e-14,7.742640011e-14,1.114527127e-13,8.153555711e-14,1.074402664e-13,1.183441749e-13,4.851862536e-13,1.188024511e-13,8.468965302e-14,2.150868977e-13,6.372576932e-14,1.766117908e-13,3.963464994e-13,2.758138114e-13,3.859266042e-13,2.300870994e-13,1.47812694e-13,6.246635791e-14,9.380259215e-14,3.204194908e-13,5.116512553e-13,6.785385135e-14,1.903810498e-13,9.604886766e-13,2.670038876e-13,2.276063686e-13,2.528803512e-13,1.034356226e-13,9.375805853e-14,1.276251065e-13,1.020576376e-13,2.17416277e-13
1.765625,4.694438563e-14,7.569929877e-14,9.43142166e-14,8.30978791e-14,1.067914028e-13,1.21575183e-13,5.279403722e-13,1.217039136e-13,7.792283911e-14,2.220366648e-13,6.184581487e-14,1.784648991e-13,4.285638431e-13,2.955521061e-13,4.503073834e-13,2.715674561e-13,1.748541673e-13,6.377771901e-14,9.262229529e-14,3.148172427e-13,5.347003741e-13,6.69866322e-14,1.976450342e-13,1.054540252e-12,2.816716053e-13,2.23041999e-13,2.541851687e-13,1.003526583e-13,9.732262215e-14,1.298799307e-13,1.046912494e-13,1.863286225e-13
1.7734375,5.521912292e-14,7.243439778e-14,7.948619636e-14,8.48018968e-14,1.057099338e-13,1.253628745e-13,5.778211955e-13,1.238197231e-13,7.161030036e-14,2.232416382e-13,5.923642968e-14,1.749604648e-13,4.464221527e-13,3.063424217e-13,5.127820327e-13,3.154919624e-13,2.039566459e-13,6.484169574e-14,9.042335754e-14,3.162693171e-13,5.502180419e-13,6.573678813e-14,2.014612266e-13,1.130746652e-12,2.908666202e-13,2.15366193e-13,2.512548818e-13,9.844504446e-14,9.888060091e-14,1.28832406e-13,1.057098275e-13,1.573170881e-13
1.78125,6.432370973e-14,6.840611807e-14,6.726414094e-14,8.633646965e-14,1.047742585e-13,1.295599453e-13,6.320276605e-13,1.248735477e-13,6.672546111e-14,2.190402919e-13,5.645341341e-14,1.670421792e-13,4.496546271e-13,3.086338408e-13,5.715956447e-13,3.604140487e-13,2.362120139e-13,6.625628049e-14,8.732842433e-14,3.23015801e-13,5.550124558e-13,6.424894997e-14,2.020689467e-13,1.190673574e-12,2.950630496e-13,2.050978973e-13,2.446738196e-13,9.795760226e-14,9.942298448e-14,1.25565533e-13,1.054795107e-13,1.312921782e-13
1.7890625,7.281040221e-14,6.440393675e-14,5.757925049e-14,8.79778107e-14,1.047375651e-13,1.337208448e-13,6.822553882e-13,1.247396938e-13,6.322399954e-14,2.115780231e-13,5.365506461e-14,1.566498272e-13,4.39299968e-13,3.050868448e-13,6.240703729e-13,4.043606093e-13,2.692910565e-13,6.839115984e-14,8.369448669e-14,3.311427989e-13,5.481681076e-13,6.27863197e-14,1.997797831e-13,1.225043108e-12,2.928549748e-13,1.93474097e-13,2.345570849e-13,9.83999369e-14,9.927609917e-14,1.212389031e-13,1.050898598e-13,1.098244706e-13
1.796875,8.031694276e-14,6.027146988e-14,5.03097452e-14,8.972021596e-14,1.052614232e-13,1.372278858e-13,7.22752e-13,1.241407741e-13,6.088496271e-14,2.016930525e-13,5.114204684e-14,1.447833904e-13,4.191921404e-13,2.978951797e-13,6.708922636e-13,4.478486631e-13,3.034483961e-13,7.124320495e-14,7.930321076e-14,3.363125044e-13,5.328954192e-13,6.118529763e-14,1.959772941e-13,1.242014743e-12,2.874859263e-13,1.803426297e-13,2.215916099e-13,1.007293112e-13,9.880655589e-14,1.174599453e-13,1.042440119e-13,9.17740164e-14
1.8046875,8.595343374e-14,5.708797259e-14,4.557510091e-14,9.150196408e-14,1.067217738e-13,1.399435994e-13,7.483913195e-13,1.240601273e-13,5.920735802e-14,1.914643639e-13,4.873719579e-14,1.326649506e-13,3.929928125e-13,2.893039424e-13,7.095220433e-13,4.881320271e-13,3.356150822e-13,7.484288596e-14,7.480371466e-14,3.369301049e-13,5.134159817e-13,5.938379304e-14,1.923257158e-13,1.239088909e-12,2.80388252e-13,1.664094225e-13,2.064399656e-13,1.046914289e-13,9.751092208e-14,1.143616876e-13,1.02819948e-13,7.736292434e-14
