"Time","Fp1","AF3","F7","F3","FC1","FC5","T7","C3","CP1","CP5","P7","P3","Pz","PO3","O1","Oz","O2","PO4","P4","P8","CP6","CP2","C4","T8","FC6","FC2","F4","F8","AF4","Fp2","Fz","Cz"
0.0078125,2.668549471e-14,1.549387212e-13,1.733319466e-13,4.942800853e-14,1.103908735e-14,4.788231886e-14,4.106253479e-14,2.095082638e-14,4.889486661e-15,1.741653349e-14,1.264141374e-14,8.812267413e-15,8.344477189e-15,4.158118636e-14,8.640575018e-14,5.857230313e-14,5.104487128e-14,2.020884567e-14,2.080596548e-14,1.897090621e-13,5.199051714e-15,1.451097686e-14,3.640272662e-14,1.652547105e-14,2.817575669e-14,2.292548579e-14,2.660254901e-14,7.345128891e-14,1.401902737e-14,9.104659591e-15,2.894841131e-14,2.313236929e-14
0.015625,3.225179543e-14,1.719783697e-13,1.81179787e-13,5.286790046e-14,1.168617162e-14,5.210286721e-14,4.278757098e-14,2.168223551e-14,5.034231474e-15,1.82776204e-14,1.475913363e-14,9.877215628e-15,8.953587379e-15,4.573990656e-14,9.483024504e-14,6.299586637e-14,5.362486105e-14,2.262196651e-14,2.290807736e-14,2.001690099e-13,5.308971825e-15,1.536090706e-14,3.759061239e-14,1.872094551e-14,3.015729574e-14,2.468394816e-14,2.831710883e-14,8.14528758e-14,1.524745034e-14,9.451485318e-15,3.076694143e-14,2.401101297e-14
0.0234375,3.854538889e-14,1.906580556e-13,1.88581685e-13,5.613473964e-14,1.229802595e-14,5.632963107e-14,4.43731417e-14,2.24365429e-14,5.246562373e-15,1.901930167e-14,1.723866775e-14,1.111461788e-14,9.638884454e-15,5.02107198e-14,1.036057475e-13,6.760421905e-14,5.65571103e-14,2.524372459e-14,2.525634512e-14,2.096682e-13,5.391582228e-15,1.635743722e-14,3.856116259e-14,2.109766885e-14,3.214880727e-14,2.656549479e-14,3.001443609e-14,8.98267751e-14,1.654835221e-14,9.80737255e-15,3.273910222e-14,2.485692787e-14
0.03125,4.581814946e-14,2.115429044e-13,1.956721345e-13,5.927263411e-14,1.2904584e-14,6.050703098e-14,4.581615933e-14,2.32967627e-14,5.610087106e-15,1.967265527e-14,2.017596439e-14,1.268004782e-14,1.051698048e-14,5.523324339e-14,1.126929281e-13,7.215845962e-14,5.994740647e-14,2.810648207e-14,2.794855482e-14,2.17816422e-13,5.456494439e-15,1.758227006e-14,3.927305956e-14,2.376010838e-14,3.412844066e-14,2.855976871e-14,3.177069963e-14,9.874736678e-14,1.793734205e-14,1.016546143e-14,3.499673481e-14,2.572934124e-14
0.0390625,5.416222115e-14,2.34851411e-13,2.02512641e-13,6.229622313e-14,1.35179661e-14,6.469055895e-14,4.70617198e-14,2.424809196e-14,6.106292929e-15,2.028733799e-14,2.37369556e-14,1.462444881e-14,1.160512677e-14,6.089436633e-14,1.222638456e-13,7.646308835e-14,6.345699073e-14,3.119912591e-14,3.10606745e-14,2.247006314e-13,5.53058856e-15,1.912297997e-14,3.965458493e-14,2.676038517e-14,3.60976553e-14,3.064855382e-14,3.364641807e-14,1.083101927e-13,1.948944244e-14,1.054334782e-14,3.757196217e-14,2.665373427e-14
0.046875,6.331334823e-14,2.602327709e-13,2.089667397e-13,6.510209258e-14,1.410984236e-14,6.889325984e-14,4.814406514e-14,2.51869869e-14,6.676547499e-15,2.085377069e-14,2.80224718e-14,1.688961458e-14,1.285711571e-14,6.726028161e-14,1.327059954e-13,8.079981942e-14,6.699897274e-14,3.443746846e-14,3.448264235e-14,2.302992008e-13,5.596993226e-15,2.096072373e-14,3.969093334e-14,3.004620612e-14,3.798125316e-14,3.280413809e-14,3.563730121e-14,1.182698921e-13,2.120924581e-14,1.091474779e-14,4.039360432e-14,2.753162409e-14
0.0546875,7.312332223e-14,2.876257102e-13,2.15570772e-13,6.771448133e-14,1.474736672e-14,7.30942869e-14,4.931222701e-14,2.612676102e-14,7.358882742e-15,2.134539914e-14,3.299074569e-14,1.954418917e-14,1.430311594e-14,7.456207614e-14,1.441247041e-13,8.547017724e-14,7.051262101e-14,3.775361952e-14,3.806770532e-14,2.338919534e-13,5.652134884e-15,2.312637856e-14,3.947979587e-14,3.370603186e-14,3.968071829e-14,3.504459358e-14,3.771912606e-14,1.285485082e-13,2.299511806e-14,1.128343245e-14,4.343583611e-14,2.834462264e-14
0.0625,8.374845612e-14,3.171148507e-13,2.226968485e-13,7.031641326e-14,1.552652612e-14,7.747189134e-14,5.056833748e-14,2.718385819e-14,8.203548902e-15,2.184732141e-14,3.871922365e-14,2.266255855e-14,1.599576596e-14,8.28469779e-14,1.564881665e-13,9.031844043e-14,7.370826084e-14,4.137422253e-14,4.199435302e-14,2.354841463e-13,5.731921266e-15,2.567749801e-14,3.905795401e-14,3.780019901e-14,4.127733669e-14,3.740152233e-14,3.980860609e-14,1.393624078e-13,2.488423204e-14,1.172238301e-14,4.677943273e-14,2.912676788e-14
0.0703125,9.538656656e-14,3.487571189e-13,2.306584565e-13,7.296888606e-14,1.639728675e-14,8.220885201e-14,5.181107785e-14,2.839959042e-14,9.201313852e-15,2.236683964e-14,4.5388712e-14,2.631802551e-14,1.797227666e-14,9.232777701e-14,1.700935574e-13,9.568728421e-14,7.700317945e-14,4.565828005e-14,4.643858937e-14,2.359002313e-13,5.82488034e-15,2.864581039e-14,3.840811376e-14,4.213425034e-14,4.289994188e-14,3.983959887e-14,4.217004028e-14,1.507674697e-13,2.699571709e-14,1.227125469e-14,5.048138132e-14,2.982929781e-14
0.078125,1.078548357e-13,3.820232393e-13,2.397521782e-13,7.543054072e-14,1.726801135e-14,8.729584482e-14,5.310130575e-14,2.964852189e-14,1.033454462e-14,2.286164769e-14,5.314786294e-14,3.065200878e-14,2.030094598e-14,1.031979428e-13,1.850459131e-13,1.022402309e-13,8.101400239e-14,5.069246951e-14,5.12761755e-14,2.350309168e-13,5.900904023e-15,3.199921342e-14,3.750765084e-14,4.656518809e-14,4.448314165e-14,4.239566253e-14,4.516763178e-14,1.627297974e-13,2.937714844e-14,1.296898534e-14,5.449936885e-14,3.044413858e-14
0.0859375,1.20898162e-13,4.161952403e-13,2.501043161e-13,7.751369447e-14,1.815623359e-14,9.28233103e-14,5.449069382e-14,3.087805213e-14,1.168158007e-14,2.337190557e-14,6.222901781e-14,3.578305861e-14,2.303904066e-14,1.154653007e-13,2.013440717e-13,1.101068518e-13,8.578752117e-14,5.64906954e-14,5.645562261e-14,2.325285853e-13,6.003198343e-15,3.573733552e-14,3.639672795e-14,5.126939727e-14,4.599318013e-14,4.516374155e-14,4.869508961e-14,1.753967527e-13,3.213152819e-14,1.385341678e-14,5.89321043e-14,3.103527749e-14
0.09375,1.344636394e-13,4.514460396e-13,2.621976938e-13,7.93875949e-14,1.912119354e-14,9.893683992e-14,5.60665411e-14,3.221048767e-14,1.332737964e-14,2.386974536e-14,7.284607238e-14,4.193521286e-14,2.62824022e-14,1.29588124e-13,2.192332277e-13,1.19492529e-13,9.155691882e-14,6.323312755e-14,6.207918486e-14,2.287272011e-13,6.15760701e-15,3.995568844e-14,3.525416345e-14,5.627510412e-14,4.751824463e-14,4.812071049e-14,5.279794748e-14,1.891203939e-13,3.532391468e-14,1.494918859e-14,6.403867422e-14,3.159225478e-14
0.1015625,1.485256242e-13,4.877242602e-13,2.76262283e-13,8.126874432e-14,2.024141947e-14,1.058099832e-13,5.779995747e-14,3.372271519e-14,1.52691888e-14,2.43828387e-14,8.520209699e-14,4.936434104e-14,3.015024732e-14,1.459236027e-13,2.388935453e-13,1.306171681e-13,9.855985699e-14,7.102450421e-14,6.818040586e-14,2.237880626e-13,6.32006094e-15,4.467416799e-14,3.407586927e-14,6.145970135e-14,4.900879935e-14,5.122801271e-14,5.784211814e-14,2.042185603e-13,3.89739413e-14,1.63304453e-14,6.98947164e-14,3.201808514e-14
0.109375,1.628154448e-13,5.242885584e-13,2.9286194e-13,8.322045892e-14,2.159707737e-14,1.136623979e-13,5.965940708e-14,3.535225366e-14,1.748114094e-14,2.496726707e-14,9.968728153e-14,5.824240061e-14,3.470183187e-14,1.64705207e-13,2.606463217e-13,1.435964363e-13,1.066651883e-13,7.995770239e-14,7.472184143e-14,2.177422436e-13,6.46825297e-15,4.989366261e-14,3.281789412e-14,6.675959575e-14,5.038940272e-14,5.455587529e-14,6.402782201e-14,2.207827758e-13,4.320424298e-14,1.805733477e-14,7.643310896e-14,3.226464236e-14
0.1171875,1.769988079e-13,5.607125281e-13,3.125314447e-13,8.532731453e-14,2.326819224e-14,1.227193349e-13,6.182014593e-14,3.707281422e-14,2.002330014e-14,2.563774491e-14,1.166326023e-13,6.877658885e-14,4.011832014e-14,1.865131372e-13,2.84922556e-13,1.588423569e-13,1.16002369e-13,9.028191493e-14,8.169310538e-14,2.106140212e-13,6.60904716e-15,5.554099205e-14,3.166414562e-14,7.206256427e-14,5.174394673e-14,5.814746416e-14,7.141087397e-14,2.391253108e-13,4.803868791e-14,2.018801713e-14,8.365566332e-14,3.2405745e-14
0.125,1.910528886e-13,5.966953077e-13,3.350865411e-13,8.778733238e-14,2.537827439e-14,1.333380314e-13,6.434561054e-14,3.902111963e-14,2.300009473e-14,2.653744815e-14,1.361707879e-13,8.11431688e-14,4.656414545e-14,2.116376237e-13,3.12111204e-13,1.766890516e-13,1.26596586e-13,1.0218699e-13,8.915317011e-14,2.026391825e-13,6.747002534e-15,6.149940688e-14,3.066726535e-14,7.741406071e-14,5.310964619e-14,6.195950852e-14,8.004548215e-14,2.597779693e-13,5.344060756e-14,2.280345211e-14,9.156770321e-14,3.241049838e-14
0.1328125,2.04742276e-13,6.31701721e-13,3.612480205e-13,9.075741123e-14,2.797937723e-14,1.45767743e-13,6.734057594e-14,4.116918406e-14,2.636951137e-14,2.766055922e-14,1.584272453e-13,9.565519864e-14,5.413813158e-14,2.405488485e-13,3.425436954e-13,1.975222666e-13,1.386132024e-13,1.159889178e-13,9.714816617e-14,1.944425867e-13,6.873539278e-15,6.780928093e-14,2.983763312e-14,8.277651461e-14,5.448549872e-14,6.601679988e-14,9.020639498e-14,2.830039475e-13,5.95261272e-14,2.594058238e-14,1.002333266e-13,3.208424009e-14
0.140625,2.178044091e-13,6.650504531e-13,3.916387814e-13,9.43637921e-14,3.109257894e-14,1.603539596e-13,7.097583926e-14,4.332739999e-14,3.012775469e-14,2.883297652e-14,1.83625926e-13,1.12745169e-13,6.312839673e-14,2.738855827e-13,3.763392434e-13,2.217394459e-13,1.526517163e-13,1.320424703e-13,1.05637411e-13,1.860302133e-13,6.977985886e-15,7.449750819e-14,2.928221984e-14,8.807831972e-14,5.596217413e-14,7.04176407e-14,1.022005224e-13,3.092009348e-13,6.638701832e-14,2.967423949e-14,1.097544994e-13,3.149261022e-14
0.1484375,2.302564236e-13,6.962601993e-13,4.265649801e-13,9.898852319e-14,3.49063564e-14,1.774521589e-13,7.532190456e-14,4.556384628e-14,3.447992619e-14,3.008179956e-14,2.120192915e-13,1.327236036e-13,7.383275762e-14,3.120958129e-13,4.139386625e-13,2.495260908e-13,1.68563459e-13,1.505934015e-13,1.14623789e-13,1.772766276e-13,7.074600162e-15,8.161405421e-14,2.898887511e-14,9.34853323e-14,5.767167055e-14,7.523980632e-14,1.161436969e-13,3.388501476e-13,7.414417071e-14,3.417368577e-14,1.201369654e-13,3.079147028e-14
0.15625,2.421609709e-13,7.257493229e-13,4.667855609e-13,1.050462838e-13,3.959791934e-14,1.971805128e-13,8.056404214e-14,4.798095107e-14,3.9623686e-14,3.150953411e-14,2.436206632e-13,1.561041933e-13,8.666794351e-14,3.562406658e-13,4.558946111e-13,2.813226773e-13,1.863551759e-13,1.72269605e-13,1.242431176e-13,1.686853364e-13,7.161118806e-15,8.928242111e-14,2.89527448e-14,9.890337094e-14,5.974525039e-14,8.052789776e-14,1.321927666e-13,3.721460654e-13,8.299028079e-14,3.956688831e-14,1.314425232e-13,2.984787311e-14
0.1640625,2.536710734e-13,7.537835728e-13,5.124685219e-13,1.126568448e-13,4.511019547e-14,2.199641747e-13,8.681860482e-14,5.046864437e-14,4.564352151e-14,3.308882049e-14,2.784386696e-13,1.834788311e-13,1.021015973e-13,4.073124296e-13,5.025462196e-13,3.176438078e-13,2.067223695e-13,1.977116853e-13,1.346498014e-13,1.606511475e-13,7.207700814e-15,9.748243955e-14,2.932640431e-14,1.042416869e-13,6.229012193e-14,8.631942055e-14,1.506795325e-13,4.097581601e-13,9.2907109e-14,4.594312834e-14,1.436925101e-13,2.867584832e-14
0.171875,2.646940687e-13,7.798011383e-13,5.644590156e-13,1.220101873e-13,5.151257861e-14,2.460638943e-13,9.423936484e-14,5.30005481e-14,5.26114689e-14,3.476554151e-14,3.166228459e-13,2.151831043e-13,1.203960452e-13,4.660115841e-13,5.542730906e-13,3.587309947e-13,2.300664705e-13,2.272948156e-13,1.459189441e-13,1.533372066e-13,7.216747412e-15,1.06115759e-13,3.023327116e-14,1.096012765e-13,6.548914609e-14,9.275371204e-14,1.720262451e-13,4.523707555e-13,1.039453339e-13,5.34153817e-14,1.568146504e-13,2.752924609e-14
0.1796875,2.75299264e-13,8.039076577e-13,6.235855826e-13,1.334597551e-13,5.903863206e-14,2.754987245e-13,1.030659336e-13,5.56710374e-14,6.069885152e-14,3.65544872e-14,3.581881193e-13,2.514896113e-13,1.418908707e-13,5.328955091e-13,6.110028663e-13,4.045187463e-13,2.567762541e-13,2.613639817e-13,1.580734154e-13,1.468771609e-13,7.225994741e-15,1.150832646e-13,3.156606313e-14,1.148425856e-13,6.947128001e-14,9.995484443e-14,1.962297652e-13,4.999275683e-13,1.163149061e-13,6.203520094e-14,1.70942212e-13,2.646239706e-14
0.1875,2.855683105e-13,8.263661452e-13,6.897052895e-13,1.47193596e-13,6.759018781e-14,3.084229609e-13,1.133869494e-13,5.843285845e-14,7.008893118e-14,3.847368983e-14,4.029674445e-13,2.92734866e-13,1.668716907e-13,6.081926404e-13,6.725855805e-13,4.548472196e-13,2.869625003e-13,3.001908477e-13,1.712246577e-13,1.415120635e-13,7.247696878e-15,1.243533105e-13,3.326337664e-14,1.199733021e-13,7.431511178e-14,1.078944927e-13,2.230523183e-13,5.524690852e-13,1.300587948e-13,7.191919834e-14,1.861602759e-13,2.535853949e-14
0.1953125,2.952900859e-13,8.470950846e-13,7.630075426e-13,1.633618957e-13,7.714679567e-14,3.447527492e-13,1.253628984e-13,6.119179558e-14,8.089648184e-14,4.052414813e-14,4.506290964e-13,3.394386043e-13,1.956623814e-13,6.928580587e-13,7.390848251e-13,5.096888367e-13,3.207792964e-13,3.442031343e-13,1.854978581e-13,1.374383235e-13,7.265263627e-15,1.341155287e-13,3.542976714e-14,1.249978205e-13,8.019399295e-14,1.166649373e-13,2.526169288e-13,6.099848097e-13,1.452844818e-13,8.321050101e-14,2.024210704e-13,2.422969163e-14
0.203125,3.046871156e-13,8.664503509e-13,8.433070372e-13,1.822493063e-13,8.809295764e-14,3.845212324e-13,1.390283617e-13,6.397941095e-14,9.326261131e-14,4.272345108e-14,5.012548426e-13,3.921156944e-13,2.287635485e-13,7.876169403e-13,8.104096875e-13,5.689108036e-13,3.585078365e-13,3.939159275e-13,2.010252539e-13,1.347227776e-13,7.285328977e-15,1.44447742e-13,3.808046144e-14,1.297442149e-13,8.711634211e-14,1.264997615e-13,2.851016304e-13,6.72342789e-13,1.621327899e-13,9.599846264e-14,2.198827916e-13,2.317166898e-14
0.2109375,3.138556785e-13,8.847261855e-13,9.305134598e-13,2.040862968e-13,1.004742102e-13,4.276115368e-13,1.543299727e-13,6.672295062e-14,1.074241627e-13,4.503514628e-14,5.548012568e-13,4.510511844e-13,2.665696223e-13,8.923800294e-13,8.863577171e-13,6.320707255e-13,3.997336254e-13,4.497097369e-13,2.180559701e-13,1.335499977e-13,7.310836749e-15,1.550148354e-13,4.121317709e-14,1.34376877e-13,9.523828792e-14,1.374375655e-13,3.205079213e-13,7.396458872e-13,1.80623926e-13,1.104807063e-13,2.385390553e-13,2.21608511e-14
0.21875,3.228600962e-13,9.023416944e-13,1.02435688e-12,2.289335016e-13,1.139975543e-13,4.734257875e-13,1.713194289e-13,6.927762369e-14,1.235802023e-13,4.741187576e-14,6.101865997e-13,5.162863713e-13,3.095064543e-13,1.007196527e-12,9.661649709e-13,6.983083601e-13,4.441531779e-13,5.115839604e-13,2.366222864e-13,1.338594982e-13,7.324008412e-15,1.655422355e-13,4.477905471e-14,1.388930818e-13,1.048757083e-13,1.493774525e-13,3.586063607e-13,8.114607627e-13,2.008015775e-13,1.266544926e-13,2.581937669e-13,2.120521497e-14
0.2265625,3.321974807e-13,9.197658557e-13,1.123623198e-12,2.568440644e-13,1.286989519e-13,5.214661552e-13,1.898825501e-13,7.171539735e-14,1.417265983e-13,4.992785116e-14,6.665174835e-13,5.875288481e-13,3.57749715e-13,1.131567043e-12,1.048919586e-12,7.668644504e-13,4.919143055e-13,5.794817497e-13,2.567053365e-13,1.356117461e-13,7.338810178e-15,1.76264734e-13,4.872116724e-14,1.430837393e-13,1.159377991e-13,1.623736247e-13,3.990185363e-13,8.86772732e-13,2.227505008e-13,1.443907638e-13,2.790932063e-13,2.039595676e-14
0.234375,3.422212997e-13,9.374283216e-13,1.227451439e-12,2.878915567e-13,1.447931309e-13,5.712507084e-13,2.098112525e-13,7.404466182e-14,1.619191894e-13,5.263850575e-14,7.233052837e-13,6.644829908e-13,4.110789335e-13,1.264640934e-12,1.133766237e-12,8.371269057e-13,5.42933913e-13,6.534283171e-13,2.784691046e-13,1.390191832e-13,7.381288722e-15,1.877488878e-13,5.313296107e-14,1.469710934e-13,1.283422266e-13,1.765795653e-13,4.414499653e-13,9.64405182e-13,2.466517468e-13,1.637461028e-13,3.016779846e-13,1.982067733e-14
0.2421875,3.532992646e-13,9.5611499e-13,1.334948851e-12,3.218014441e-13,1.621803704e-13,6.220090459e-13,2.308386357e-13,7.615810196e-14,1.844374362e-13,5.549733673e-14,7.797484436e-13,7.468934787e-13,4.693061943e-13,1.405488802e-12,1.21949301e-12,9.080415739e-13,5.963116572e-13,7.326675743e-13,3.018483125e-13,1.438555541e-13,7.444891234e-15,2.00276162e-13,5.798275687e-14,1.504948323e-13,1.421698294e-13,1.920238591e-13,4.857465604e-13,1.043316441e-12,2.724453134e-13,1.846867233e-13,3.258736002e-13,1.962592728e-14
0.25,3.657108417e-13,9.758744427e-13,1.445108923e-12,3.578298223e-13,1.804207387e-13,6.726828933e-13,2.528385835e-13,7.81216905e-14,2.09428464e-13,5.855490905e-14,8.34855805e-13,8.341903526e-13,5.322365614e-13,1.552643332e-12,1.304989408e-12,9.784693519e-13,6.507626868e-13,8.163370809e-13,3.266496088e-13,1.495806807e-13,7.512555085e-15,2.137103802e-13,6.304817372e-14,1.538814976e-13,1.574105205e-13,2.085552783e-13,5.315132932e-13,1.122619469e-12,2.997845174e-13,2.071283166e-13,3.511157336e-13,1.98449201e-14
0.2578125,3.7943849e-13,9.961774592e-13,1.556463879e-12,3.954303408e-13,1.992448399e-13,7.224061245e-13,2.756974545e-13,7.98661467e-14,2.366801752e-13,6.185945206e-14,8.874245632e-13,9.256496289e-13,5.994753864e-13,1.704483875e-12,1.388667172e-12,1.046916334e-12,7.056095949e-13,9.038930372e-13,3.526601993e-13,1.559473032e-13,7.583585586e-15,2.28146085e-13,6.821483821e-14,1.574301006e-13,1.739799719e-13,2.2602971e-13,5.777258334e-13,1.200900545e-12,3.284973974e-13,2.308949856e-13,3.771648464e-13,2.041308324e-14
0.265625,3.943983799e-13,1.016962947e-12,1.666405302e-12,4.34695421e-13,2.188787029e-13,7.706564342e-13,2.9888018e-13,8.133351795e-14,2.658586682e-13,6.539756379e-14,9.366044359e-13,1.020440637e-12,6.703911722e-13,1.859286156e-12,1.468738698e-12,1.111905956e-12,7.604507527e-13,9.945824589e-13,3.796784101e-13,1.630157401e-13,7.669857818e-15,2.437884248e-13,7.348296575e-14,1.608925091e-13,1.915622579e-13,2.445577673e-13,6.235998104e-13,1.276373773e-12,3.584889501e-13,2.556837888e-13,4.043850795e-13,2.135645153e-14
0.2734375,4.10497969e-13,1.038299894e-12,1.773019292e-12,4.752555105e-13,2.392528943e-13,8.166106762e-13,3.218909716e-13,8.273508746e-14,2.968253934e-13,6.927096759e-14,9.81699942e-13,1.117473969e-12,7.443359965e-13,2.014792028e-12,1.544050751e-12,1.172817637e-12,8.141551883e-13,1.087454428e-12,4.075850998e-13,1.705819199e-13,7.785949873e-15,2.605859641e-13,7.873095708e-14,1.64192547e-13,2.099954757e-13,2.641206062e-13,6.686788062e-13,1.347492343e-12,3.895970518e-13,2.813197087e-13,4.327430838e-13,2.272278115e-14
0.28125,4.276059938e-13,1.059955158e-12,1.875060707e-12,5.157866084e-13,2.59628469e-13,8.5914099e-13,3.444451227e-13,8.402830767e-14,3.295313161e-13,7.350245056e-14,1.021381464e-12,1.215638087e-12,8.206421284e-13,2.168275369e-12,1.61294237e-12,1.228310257e-12,8.64518146e-13,1.180688866e-12,4.359767953e-13,1.781303585e-13,7.950070106e-15,2.786367167e-13,8.384897411e-14,1.674310986e-13,2.292631793e-13,2.842384758e-13,7.119909915e-13,1.412879605e-12,4.21510302e-13,3.075563758e-13,4.616649483e-13,2.454950073e-14
0.2890625,4.455677044e-13,1.081609878e-12,1.970407043e-12,5.555988244e-13,2.79730281e-13,8.974142556e-13,3.662313516e-13,8.514576518e-14,3.637220175e-13,7.802944762e-14,1.054468936e-12,1.313689772e-12,8.98193764e-13,2.317339777e-12,1.673924253e-12,1.276690466e-12,9.102606791e-13,1.272549944e-12,4.644290096e-13,1.855349475e-13,8.174042695e-15,2.98161599e-13,8.893676342e-14,1.70577253e-13,2.488825112e-13,3.045586693e-13,7.526113185e-13,1.470944121e-12,4.537380147e-13,3.340697294e-13,4.909931952e-13,2.683308921e-14
0.296875,4.642550398e-13,1.102803463e-12,2.056787638e-12,5.944360703e-13,2.996126185e-13,9.308134619e-13,3.867915388e-13,8.625607913e-14,3.988984761e-13,8.287249142e-14,1.080400198e-12,1.409958456e-12,9.754725069e-13,2.459370801e-12,1.726055486e-12,1.317306627e-12,9.51101799e-13,1.362019544e-12,4.925994576e-13,1.927501638e-13,8.43008564e-15,3.189445313e-13,9.403454257e-14,1.737006509e-13,2.683507558e-13,3.249273589e-13,7.898142413e-13,1.520030195e-12,4.857940319e-13,3.605501894e-13,5.205483235e-13,2.955533522e-14
0.3046875,4.831660313e-13,1.122344728e-12,2.132586366e-12,6.310328079e-13,3.185568072e-13,9.584797789e-13,4.054978944e-13,8.730280412e-14,4.345876023e-13,8.803878842e-14,1.09884871e-12,1.503000748e-12,1.051132442e-12,2.591005783e-12,1.767331597e-12,1.348860379e-12,9.850996825e-13,1.447217277e-12,5.197532115e-13,1.991518972e-13,8.6906495e-15,3.403198057e-13,9.900971137e-14,1.768112241e-13,2.875049305e-13,3.449477994e-13,8.226707842e-13,1.559386737e-12,5.171844953e-13,3.865728658e-13,5.495300531e-13,3.272431684e-14
0.3125,5.017487448e-13,1.139281617e-12,2.197022562e-12,6.64150081e-13,3.358639455e-13,9.795274906e-13,4.221026626e-13,8.827737338e-14,4.704038634e-13,9.358201045e-14,1.109793872e-12,1.591669446e-12,1.124139504e-12,2.70975436e-12,1.796746625e-12,1.370157107e-12,1.010805722e-12,1.526357308e-12,5.4535466e-13,2.043543244e-13,8.991712874e-15,3.620736319e-13,1.038118335e-13,1.801275338e-13,3.060376689e-13,3.642847425e-13,8.504471285e-13,1.588909482e-12,5.474876255e-13,4.118279071e-13,5.774644791e-13,3.634579227e-14
0.3203125,5.197918444e-13,1.153646764e-12,2.249680522e-12,6.935967456e-13,3.517117787e-13,9.935411449e-13,4.364325646e-13,8.9406122e-14,5.056507242e-13,9.950527742e-14,1.113527951e-12,1.674326258e-12,1.193137375e-12,2.813980921e-12,1.81521178e-12,1.381960964e-12,1.029285438e-12,1.598626952e-12,5.693297705e-13,2.087534871e-13,9.358942445e-15,3.844623572e-13,1.084894903e-13,1.837681573e-13,3.234124572e-13,3.828916349e-13,8.731223439e-13,1.607927263e-12,5.764315474e-13,4.360409381e-13,6.044965854e-13,4.043770004e-14
0.328125,5.365692874e-13,1.165357968e-12,2.288122044e-12,7.195378086e-13,3.665880393e-13,1.0007721e-12,4.474476691e-13,9.076897776e-14,5.392642473e-13,1.056646136e-13,1.110515707e-12,1.749094049e-12,1.256244345e-12,2.900956352e-12,1.822439e-12,1.384989065e-12,1.041778544e-12,1.662960395e-12,5.914166554e-13,2.126220935e-13,9.760507666e-15,4.070239437e-13,1.130380656e-13,1.873232117e-13,3.389762645e-13,4.008285705e-13,8.914243818e-13,1.615761161e-12,6.037361436e-13,4.585635101e-13,6.306000343e-13,4.48797211e-14
0.3359375,5.515959902e-13,1.173354459e-12,2.312994305e-12,7.411029187e-13,3.798651291e-13,1.001024203e-12,4.55442876e-13,9.199205124e-14,5.709393268e-13,1.11995664e-13,1.101029238e-12,1.815157043e-12,1.312459983e-12,2.969450994e-12,1.81857631e-12,1.3794437e-12,1.047664633e-12,1.718051321e-12,6.110044902e-13,2.15496091e-13,1.025185657e-14,4.291146748e-13,1.173188544e-13,1.90858692e-13,3.526885699e-13,4.17683637e-13,9.053068167e-13,1.613814796e-12,6.286458413e-13,4.792210498e-13,6.549687578e-13,4.980005091e-14
0.34375,5.647976934e-13,1.176923785e-12,2.325034001e-12,7.570070854e-13,3.909846126e-13,9.937675875e-13,4.605950076e-13,9.324059475e-14,6.002711527e-13,1.184038947e-13,1.085655762e-12,1.871520265e-12,1.360753412e-12,3.018298764e-12,1.803557882e-12,1.365147062e-12,1.046335649e-12,1.76276577e-12,6.276815088e-13,2.17200618e-13,1.082739622e-14,4.509478e-13,1.212449632e-13,1.94672045e-13,3.644631837e-13,4.329378548e-13,9.140764437e-13,1.601948138e-12,6.505860768e-13,4.979589416e-13,6.767695611e-13,5.520010172e-14
0.3515625,5.757841052e-13,1.175808123e-12,2.322834284e-12,7.677672596e-13,4.003008754e-13,9.795706399e-13,4.623046486e-13,9.465779787e-14,6.265623123e-13,1.248235469e-13,1.06472066e-12,1.917556518e-12,1.400280722e-12,3.0465167e-12,1.777470812e-12,1.342369356e-12,1.037751515e-12,1.796740207e-12,6.412791526e-13,2.17913281e-13,1.144448554e-14,4.726236059e-13,1.248585843e-13,1.987892601e-13,3.737485547e-13,4.465383007e-13,9.178846566e-13,1.579745616e-12,6.695066014e-13,5.145675318e-13,6.962286319e-13,6.084878818e-14
0.359375,5.841969535e-13,1.17026929e-12,2.305547656e-12,7.739953485e-13,4.079578433e-13,9.588764385e-13,4.602688221e-13,9.624247783e-14,6.493111339e-13,1.312565408e-13,1.038409231e-12,1.952856075e-12,1.430001081e-12,3.053353186e-12,1.740737385e-12,1.312090655e-12,1.022630573e-12,1.819940269e-12,6.51762784e-13,2.180192639e-13,1.213508182e-14,4.934765822e-13,1.282547069e-13,2.029710843e-13,3.801442179e-13,4.587291506e-13,9.174187983e-13,1.548108552e-12,6.853501199e-13,5.289176586e-13,7.137032907e-13,6.669065696e-14
0.3671875,5.901859158e-13,1.160204592e-12,2.275148257e-12,7.75128795e-13,4.136626272e-13,9.320353505e-13,4.551568459e-13,9.8106216e-14,6.685431304e-13,1.376182084e-13,1.007141077e-12,1.977306169e-12,1.450136363e-12,3.040126255e-12,1.69428288e-12,1.275211864e-12,1.000861308e-12,1.832011473e-12,6.590028208e-13,2.175804351e-13,1.296946487e-14,5.131038608e-13,1.313910116e-13,2.069766623e-13,3.842604081e-13,4.692387227e-13,9.127915022e-13,1.508062252e-12,6.975495503e-13,5.408566416e-13,7.285866908e-13,7.291924016e-14
0.375,5.933739318e-13,1.146032377e-12,2.231325861e-12,7.713022181e-13,4.177876311e-13,9.000139829e-13,4.468599348e-13,1.001531676e-13,6.834626939e-13,1.437083773e-13,9.720997331e-13,1.990420555e-12,1.460659618e-12,3.007424478e-12,1.639859173e-12,1.232676077e-12,9.725690621e-13,1.833160117e-12,6.63085504e-13,2.166936269e-13,1.389149103e-14,5.316570261e-13,1.342767472e-13,2.110422178e-13,3.85740647e-13,4.776788589e-13,9.04041748e-13,1.459961494e-12,7.05931435e-13,5.499509138e-13,7.405413196e-13,7.926394224e-14
0.3828125,5.9331661e-13,1.128007916e-12,2.174033861e-12,7.634162769e-13,4.205729841e-13,8.63407138e-13,4.355444548e-13,1.02240627e-13,6.934122765e-13,1.494185279e-13,9.335796395e-13,1.991832038e-12,1.46101988e-12,2.955824917e-12,1.579552373e-12,1.185545986e-12,9.386813074e-13,1.823784526e-12,6.640981418e-13,2.15484844e-13,1.487861808e-14,5.491895947e-13,1.371132965e-13,2.154706197e-13,3.840551255e-13,4.840065802e-13,8.910712144e-13,1.404822827e-12,7.1032438e-13,5.560579942e-13,7.496932662e-13,8.56122843e-14
0.390625,5.899458207e-13,1.10646606e-12,2.104673383e-12,7.516142879e-13,4.216276488e-13,8.228428341e-13,4.215114519e-13,1.044248318e-13,6.983942955e-13,1.545627262e-13,8.92237508e-13,1.981516735e-12,1.451168905e-12,2.88621559e-12,1.513949611e-12,1.134294956e-12,9.000866593e-13,1.803867633e-12,6.619522229e-13,2.14038947e-13,1.595393741e-14,5.653468493e-13,1.399573585e-13,2.201460446e-13,3.795031151e-13,4.880921303e-13,8.740470396e-13,1.344549706e-12,7.103680259e-13,5.591149164e-13,7.557017716e-13,9.190118444e-14
0.3984375,5.837635541e-13,1.082013953e-12,2.026153399e-12,7.360427247e-13,4.210337534e-13,7.793239701e-13,4.05359753e-13,1.067027948e-13,6.988993793e-13,1.591586357e-13,8.492320953e-13,1.961083216e-12,1.432690039e-12,2.8012672e-12,1.444430748e-12,1.079670263e-12,8.57413941e-13,1.774756118e-12,6.570431279e-13,2.123053064e-13,1.712537582e-14,5.800605062e-13,1.425885202e-13,2.253348954e-13,3.726011291e-13,4.89786387e-13,8.533733378e-13,1.280938088e-12,7.063598469e-13,5.59239705e-13,7.585289381e-13,9.803313731e-14
0.40625,5.749435417e-13,1.054967079e-12,1.941118556e-12,7.171325754e-13,4.191864587e-13,7.334061646e-13,3.87480807e-13,1.088867406e-13,6.948907741e-13,1.632433951e-13,8.056646906e-13,1.931676481e-12,1.406209943e-12,2.703596178e-12,1.372938732e-12,1.02304207e-12,8.116342445e-13,1.737493445e-12,6.497453038e-13,2.103912749e-13,1.839330244e-14,5.93622495e-13,1.44861911e-13,2.31080813e-13,3.63431102e-13,4.892464192e-13,8.299280985e-13,1.215013072e-12,6.989909876e-13,5.567130923e-13,7.588297998e-13,1.039268365e-13
0.4140625,5.633154613e-13,1.025320276e-12,1.850075741e-12,6.955942855e-13,4.1616156e-13,6.859026769e-13,3.67800596e-13,1.107447086e-13,6.860637289e-13,1.665811017e-13,7.623338377e-13,1.893176475e-12,1.371468515e-12,2.594474173e-12,1.299880932e-12,9.652753982e-13,7.64106542e-13,1.692599926e-12,6.400771396e-13,2.085441444e-13,1.977723546e-14,6.060840138e-13,1.469954027e-13,2.368207359e-13,3.520413365e-13,4.866936014e-13,8.048131401e-13,1.147742626e-12,6.88487447e-13,5.516275144e-13,7.570195175e-13,1.094733736e-13
0.421875,5.492547945e-13,9.937594295e-13,1.754238946e-12,6.724005975e-13,4.121928421e-13,6.376370526e-13,3.466920208e-13,1.121508571e-13,6.725918714e-13,1.69179695e-13,7.195116997e-13,1.846283621e-12,1.329641922e-12,2.475929178e-12,1.226087786e-12,9.069994944e-13,7.160941537e-13,1.64197274e-12,6.285799078e-13,2.069533249e-13,2.12580679e-14,6.174493846e-13,1.492941679e-13,2.423728064e-13,3.38807921e-13,4.822510508e-13,7.781109259e-13,1.079549433e-12,6.752029681e-13,5.439547397e-13,7.534942079e-13,1.145814744e-13
0.4296875,5.338217174e-13,9.61355143e-13,1.656731209e-12,6.484486878e-13,4.076940389e-13,5.893751064e-13,3.252438672e-13,1.13320326e-13,6.555787701e-13,1.710243365e-13,6.777300629e-13,1.793221413e-12,1.283046345e-12,2.352022546e-12,1.153435537e-12,8.492300591e-13,6.682046489e-13,1.587106289e-12,6.157246581e-13,2.054719169e-13,2.291732041e-14,6.283580797e-13,1.515062035e-13,2.481728452e-13,3.243965984e-13,4.760750643e-13,7.500208417e-13,1.011803763e-12,6.597642461e-13,5.342750027e-13,7.489119975e-13,1.194590637e-13
0.4375,5.173926433e-13,9.28613433e-13,1.557986084e-12,6.240968933e-13,4.02712014e-13,5.417844902e-13,3.036005914e-13,1.140665601e-13,6.353959386e-13,1.720209735e-13,6.376316144e-13,1.735004476e-12,1.232340094e-12,2.22434654e-12,1.081930787e-12,7.922889818e-13,6.21063929e-13,1.528224987e-12,6.014622915e-13,2.0390208e-13,2.476104888e-14,6.396540953e-13,1.533419954e-13,2.542911437e-13,3.088886198e-13,4.683858017e-13,7.212418328e-13,9.45257554e-13,6.425687393e-13,5.230453617e-13,7.435179672e-13,1.239303423e-13
0.4453125,5.00127383e-13,8.953457577e-13,1.458416833e-12,5.996139e-13,3.974000571e-13,4.952807997e-13,2.817685287e-13,1.14351951e-13,6.118668082e-13,1.721772846e-13,5.993160664e-13,1.671606104e-12,1.177918813e-12,2.093544618e-12,1.011662367e-12,7.36249334e-13,5.751182295e-13,1.466428476e-12,5.860326314e-13,2.025775768e-13,2.67750947e-14,6.516825394e-13,1.549594523e-13,2.601278834e-13,2.926548848e-13,4.592230804e-13,6.913956342e-13,8.794948363e-13,6.237168876e-13,5.101770918e-13,7.374046529e-13,1.2797752e-13
0.453125,4.822984016e-13,8.627793956e-13,1.359618877e-12,5.761139344e-13,3.921716157e-13,4.506299176e-13,2.601980632e-13,1.141990716e-13,5.8523195e-13,1.714833386e-13,5.629980742e-13,1.603762942e-12,1.121268308e-12,1.962148059e-12,9.443996208e-13,6.82179961e-13,5.314025451e-13,1.4033982e-12,5.699357911e-13,2.017834384e-13,2.89616266e-14,6.645792536e-13,1.564792951e-13,2.655974981e-13,2.759943609e-13,4.487476638e-13,6.603675228e-13,8.153230462e-13,6.03581842e-13,4.957425997e-13,7.309956121e-13,1.316181894e-13
0.4609375,4.639895521e-13,8.31971748e-13,1.262875765e-12,5.541967422e-13,3.87087594e-13,4.083942129e-13,2.393909491e-13,1.134818756e-13,5.566422127e-13,1.701561527e-13,5.287510273e-13,1.533527861e-12,1.064095459e-12,1.832736165e-12,8.805703146e-13,6.306728333e-13,4.90795576e-13,1.340157708e-12,5.534230866e-13,2.013602778e-13,3.132747622e-14,6.783889365e-13,1.576397963e-13,2.709139173e-13,2.591756608e-13,4.373418256e-13,6.289726905e-13,7.538348319e-13,5.827133715e-13,4.802113248e-13,7.246026993e-13,1.348652384e-13
0.46875,4.453874706e-13,8.024951463e-13,1.169165937e-12,5.33157049e-13,3.819392404e-13,3.687420107e-13,2.19395659e-13,1.123630308e-13,5.268959036e-13,1.68485266e-13,4.967137636e-13,1.462340729e-12,1.006801469e-12,1.705799549e-12,8.196404516e-13,5.815289279e-13,4.530902228e-13,1.276985622e-12,5.366167965e-13,2.013339859e-13,3.388287435e-14,6.932068583e-13,1.582283378e-13,2.756769342e-13,2.425441442e-13,4.250920111e-13,5.974824618e-13,6.955232128e-13,5.615923161e-13,4.639888037e-13,7.183256545e-13,1.378114354e-13
0.4765625,4.272457468e-13,7.748813302e-13,1.078959282e-12,5.132025339e-13,3.768560117e-13,3.318693611e-13,2.003643257e-13,1.108810544e-13,4.96080884e-13,1.665033034e-13,4.669071609e-13,1.390480824e-12,9.498860447e-13,1.582227178e-12,7.622121083e-13,5.350026602e-13,4.186594783e-13,1.214520806e-12,5.199290762e-13,2.01795591e-13,3.665502306e-14,7.097762026e-13,1.583839516e-13,2.79913719e-13,2.262374338e-13,4.121968391e-13,5.658535684e-13,6.406208669e-13,5.40589361e-13,4.473467017e-13,7.1252121e-13,1.402978666e-13
0.484375,4.09990212e-13,7.498317204e-13,9.927958007e-13,4.95136071e-13,3.719322912e-13,2.977717676e-13,1.826160795e-13,1.09006237e-13,4.646549936e-13,1.641321103e-13,4.388559264e-13,1.318193418e-12,8.946712139e-13,1.463760554e-12,7.087118285e-13,4.91427058e-13,3.880392599e-13,1.153836196e-12,5.036012514e-13,2.025555889e-13,3.959966686e-14,7.283035204e-13,1.582395996e-13,2.838373885e-13,2.104654e-13,3.989841288e-13,5.345563069e-13,5.888725172e-13,5.199326792e-13,4.303024689e-13,7.074303627e-13,1.422776208e-13
0.4921875,3.934552347e-13,7.269119129e-13,9.115374978e-13,4.788284633e-13,3.668917452e-13,2.666759757e-13,1.662319751e-13,1.072004952e-13,4.337186112e-13,1.614068083e-13,4.123040543e-13,1.246789673e-12,8.419101902e-13,1.351171435e-12,6.586029598e-13,4.505422856e-13,3.612643138e-13,1.095217871e-12,4.872082323e-13,2.033643906e-13,4.25624961e-14,7.480835058e-13,1.577053832e-13,2.873334048e-13,1.955704166e-13,3.852188785e-13,5.040861589e-13,5.406454708e-13,4.99763369e-13,4.129471729e-13,7.026198119e-13,1.437598489e-13
0.5,3.773716995e-13,7.05720714e-13,8.348852745e-13,4.63764595e-13,3.619083623e-13,2.385338798e-13,1.510421448e-13,1.051448743e-13,4.034253628e-13,1.586737744e-13,3.874262938e-13,1.177244262e-12,7.915575017e-13,1.244296427e-12,6.114720716e-13,4.119675875e-13,3.379139057e-13,1.038751863e-12,4.709450357e-13,2.042064169e-13,4.554443872e-14,7.68834642e-13,1.5680718e-13,2.900925185e-13,1.816236132e-13,3.711198179e-13,4.745584217e-13,4.960478493e-13,4.804197501e-13,3.953582755e-13,6.979972207e-13,1.448003125e-13
0.5078125,3.621986126e-13,6.858085192e-13,7.625243793e-13,4.501788588e-13,3.572575501e-13,2.131127391e-13,1.370193937e-13,1.027626262e-13,3.736440934e-13,1.558988828e-13,3.641171149e-13,1.10981496e-12,7.443716413e-13,1.14397465e-12,5.674760417e-13,3.756114569e-13,3.17286963e-13,9.853203481e-13,4.554959306e-13,2.05074947e-13,4.856419947e-14,7.905747551e-13,1.554136749e-13,2.920091099e-13,1.687111287e-13,3.571395566e-13,4.459887206e-13,4.547103341e-13,4.621016358e-13,3.779390641e-13,6.940884731e-13,1.453199842e-13
0.515625,3.48121332e-13,6.676817377e-13,6.940403618e-13,4.386417159e-13,3.52521313e-13,1.906945751e-13,1.240242451e-13,1.00223145e-13,3.445636627e-13,1.530721964e-13,3.422966874e-13,1.044427358e-12,7.004144355e-13,1.050189484e-12,5.265393819e-13,3.416079948e-13,2.995819489e-13,9.350105921e-13,4.407260015e-13,2.059316834e-13,5.157861266e-14,8.126904045e-13,1.534465871e-13,2.93126666e-13,1.566625411e-13,3.433047659e-13,4.185981754e-13,4.165636136e-13,4.449243728e-13,3.608663911e-13,6.908402529e-13,1.450924064e-13
0.5234375,3.351669108e-13,6.518957718e-13,6.29812945e-13,4.288028107e-13,3.473362261e-13,1.712468105e-13,1.121399863e-13,9.761757563e-14,3.168543133e-13,1.504232474e-13,3.217980847e-13,9.817622411e-13,6.597844315e-13,9.628356027e-13,4.881897927e-13,3.098475298e-13,2.854597428e-13,8.876700318e-13,4.26337092e-13,2.065991334e-13,5.454650874e-14,8.347470396e-13,1.511563043e-13,2.937022548e-13,1.45704717e-13,3.29604312e-13,3.923843635e-13,3.814045619e-13,4.288912855e-13,3.441812956e-13,6.879044984e-13,1.4407749e-13
0.53125,3.234143349e-13,6.378250024e-13,5.702408842e-13,4.196172182e-13,3.417574948e-13,1.54265228e-13,1.01465328e-13,9.506910313e-14,2.907563297e-13,1.479646764e-13,3.023851829e-13,9.223065364e-13,6.22833326e-13,8.822775085e-13,4.522067281e-13,2.802235481e-13,2.746010283e-13,8.435898914e-13,4.124549038e-13,2.069150754e-13,5.740667623e-14,8.563874183e-13,1.48533741e-13,2.935894485e-13,1.359485014e-13,3.161483955e-13,3.674213141e-13,3.489275748e-13,4.140289328e-13,3.280398577e-13,6.851892282e-13,1.423395833e-13
0.5390625,3.12332195e-13,6.25113677e-13,5.145262945e-13,4.107577151e-13,3.359127416e-13,1.395160775e-13,9.194699338e-14,9.253997955e-14,2.660850108e-13,1.455150275e-13,2.839237967e-13,8.659462658e-13,5.891684021e-13,8.081601066e-13,4.186196948e-13,2.528096959e-13,2.666919464e-13,8.022915459e-13,3.989423038e-13,2.067429283e-13,6.013535472e-14,8.767240337e-13,1.454312792e-13,2.925497507e-13,1.271155499e-13,3.031089521e-13,3.440354945e-13,3.189986495e-13,4.001242509e-13,3.123551561e-13,6.823437528e-13,1.399927665e-13
0.546875,3.013881585e-13,6.131873731e-13,4.626896631e-13,4.023451133e-13,3.297897095e-13,1.27028502e-13,8.352002686e-14,9.008977749e-14,2.429972795e-13,1.430587904e-13,2.663212309e-13,8.1261544e-13,5.583381786e-13,7.399280592e-13,3.874557425e-13,2.275586558e-13,2.618208338e-13,7.633905903e-13,3.855629853e-13,2.060778741e-13,6.272929851e-14,8.947428112e-13,1.420695757e-13,2.908579358e-13,1.193432205e-13,2.905589773e-13,3.221258032e-13,2.915037082e-13,3.868227648e-13,2.970876263e-13,6.788688475e-13,1.374316267e-13
0.5546875,2.912031401e-13,6.010707367e-13,4.154390821e-13,3.939543464e-13,3.231216082e-13,1.165827066e-13,7.621613104e-14,8.789847033e-14,2.219881351e-13,1.408180126e-13,2.497832196e-13,7.628616127e-13,5.305859274e-13,6.775529373e-13,3.582507567e-13,2.042570974e-13,2.599455255e-13,7.273868853e-13,3.724999716e-13,2.050454528e-13,6.513143658e-14,9.100668661e-13,1.386038607e-13,2.889773204e-13,1.127767444e-13,2.78337806e-13,3.01596738e-13,2.668338087e-13,3.743252963e-13,2.826659465e-13,6.745892133e-13,1.345056669e-13
0.5625,2.823011919e-13,5.882602416e-13,3.72538697e-13,3.852727615e-13,3.156816446e-13,1.076803661e-13,7.015571935e-14,8.593981852e-14,2.032991521e-13,1.387932304e-13,2.342831677e-13,7.172361139e-13,5.059210312e-13,6.209691028e-13,3.305104468e-13,1.828695957e-13,2.608703068e-13,6.939209426e-13,3.597821088e-13,2.033078778e-13,6.727290901e-14,9.231900806e-13,1.351143894e-13,2.870844032e-13,1.071640964e-13,2.663782771e-13,2.827488587e-13,2.450788256e-13,3.626385317e-13,2.693245041e-13,6.691997165e-13,1.306842294e-13
0.5703125,2.741374259e-13,5.743145948e-13,3.337214458e-13,3.767372048e-13,3.075485062e-13,1.001551008e-13,6.518035847e-14,8.425217911e-14,1.866053097e-13,1.367831454e-13,2.194529241e-13,6.752756051e-13,4.837214388e-13,5.696707673e-13,3.046257649e-13,1.637138212e-13,2.63622205e-13,6.622755385e-13,3.471227674e-13,2.007690113e-13,6.910567892e-14,9.339960378e-13,1.317212944e-13,2.850842956e-13,1.023948098e-13,2.547481708e-13,2.656981685e-13,2.255620759e-13,3.51280303e-13,2.56922635e-13,6.625248257e-13,1.262753076e-13
0.578125,2.663873049e-13,5.590833535e-13,2.985310997e-13,3.682112274e-13,2.987883643e-13,9.399411889e-14,6.104047201e-14,8.289335172e-14,1.714779526e-13,1.348381714e-13,2.052313087e-13,6.36230805e-13,4.63349711e-13,5.22770108e-13,2.807267506e-13,1.468969572e-13,2.667138227e-13,6.326049153e-13,3.344063446e-13,1.980126232e-13,7.061467788e-14,9.410166757e-13,1.281524905e-13,2.830257955e-13,9.840860741e-14,2.434503033e-13,2.503966106e-13,2.079402049e-13,3.401590139e-13,2.453036219e-13,6.546409823e-13,1.215895692e-13
0.5859375,2.590840154e-13,5.426410047e-13,2.665111455e-13,3.592934366e-13,2.895350258e-13,8.903154755e-14,5.777353307e-14,8.184930317e-14,1.577820827e-13,1.328529412e-13,1.914809616e-13,5.998156982e-13,4.444821693e-13,4.798045444e-13,2.583656718e-13,1.321958537e-13,2.70010343e-13,6.048589145e-13,3.215738654e-13,1.950144223e-13,7.175920551e-14,9.435690012e-13,1.241792098e-13,2.811472865e-13,9.504041735e-14,2.324981361e-13,2.367203094e-13,1.919879463e-13,3.290712496e-13,2.343377776e-13,6.452560256e-13,1.163608838e-13
0.59375,2.520633989e-13,5.249350715e-13,2.381172734e-13,3.503415329e-13,2.800183105e-13,8.508653612e-14,5.534624583e-14,8.104390081e-14,1.455588474e-13,1.305430211e-13,1.78211419e-13,5.661862303e-13,4.272261688e-13,4.40927682e-13,2.377421794e-13,1.195672904e-13,2.737587349e-13,5.786479755e-13,3.086274256e-13,1.914531292e-13,7.251572321e-14,9.420451383e-13,1.201647637e-13,2.798076925e-13,9.223320003e-14,2.219330463e-13,2.245893691e-13,1.777025241e-13,3.178116245e-13,2.23963697e-13,6.345305608e-13,1.107127589e-13
0.6015625,2.455522716e-13,5.064981394e-13,2.130244559e-13,3.415857245e-13,2.703035426e-13,8.212772725e-14,5.366516769e-14,8.040486961e-14,1.349514221e-13,1.281112154e-13,1.656997039e-13,5.357977556e-13,4.118719219e-13,4.061196784e-13,2.191179641e-13,1.090368746e-13,2.769182816e-13,5.541423771e-13,2.958466288e-13,1.875310295e-13,7.298981554e-14,9.359409112e-13,1.164111719e-13,2.792557597e-13,8.987663848e-14,2.11775051e-13,2.142766929e-13,1.655207155e-13,3.068064173e-13,2.141837988e-13,6.230247205e-13,1.048430855e-13
0.609375,2.396707178e-13,4.876344982e-13,1.905854792e-13,3.331811021e-13,2.604388763e-13,8.026547419e-14,5.270841901e-14,8.002030437e-14,1.258182589e-13,1.257225445e-13,1.537599561e-13,5.081271479e-13,3.982508212e-13,3.75095915e-13,2.022272573e-13,1.005541994e-13,2.792458063e-13,5.316792793e-13,2.834157572e-13,1.83486159e-13,7.320796425e-14,9.245613981e-13,1.127201492e-13,2.792957968e-13,8.787031809e-14,2.020105137e-13,2.059238318e-13,1.551058684e-13,2.961386166e-13,2.050169005e-13,6.10613684e-13,9.857841323e-14
0.6171875,2.33927291e-13,4.676371045e-13,1.710802576e-13,3.250806984e-13,2.50334744e-13,7.932144939e-14,5.235493662e-14,7.978209545e-14,1.178453943e-13,1.23103808e-13,1.422377861e-13,4.821009851e-13,3.857836746e-13,3.473616624e-13,1.869735321e-13,9.41170978e-14,2.815593277e-13,5.10828398e-13,2.711189146e-13,1.794029735e-13,7.310746296e-14,9.083829521e-13,1.089622713e-13,2.797504702e-13,8.619333818e-14,1.926295486e-13,1.993327443e-13,1.457928983e-13,2.856024784e-13,1.963643082e-13,5.971979056e-13,9.20932474e-14
0.625,2.279732369e-13,4.463619335e-13,1.53979873e-13,3.170727353e-13,2.40109823e-13,7.919592341e-14,5.249985434e-14,7.955324676e-14,1.110925138e-13,1.201757075e-13,1.311901186e-13,4.57819621e-13,3.740384434e-13,3.223379674e-13,1.733330872e-13,8.960175717e-14,2.836212567e-13,4.905623228e-13,2.586336618e-13,1.751857596e-13,7.282126644e-14,8.875196726e-13,1.053700927e-13,2.805865339e-13,8.465861084e-14,1.83699466e-13,1.943427401e-13,1.37540497e-13,2.75189022e-13,1.879720717e-13,5.830911785e-13,8.593738302e-14
0.6328125,2.214572942e-13,4.240408477e-13,1.384023412e-13,3.092813397e-13,2.301153024e-13,7.984934029e-14,5.314991897e-14,7.945937017e-14,1.053890679e-13,1.17006621e-13,1.206603182e-13,4.351227758e-13,3.625619393e-13,2.993913212e-13,1.609515633e-13,8.674867668e-14,2.849459435e-13,4.702339634e-13,2.458906846e-13,1.708149344e-13,7.256219012e-14,8.611499735e-13,1.021197685e-13,2.816796077e-13,8.311132879e-14,1.75257625e-13,1.908721876e-13,1.302524107e-13,2.648400528e-13,1.796692293e-13,5.68552147e-13,8.014858089e-14
0.640625,2.143049085e-13,4.005371371e-13,1.243364336e-13,3.014547896e-13,2.202780136e-13,8.085318474e-14,5.451697166e-14,7.954906738e-14,1.003058569e-13,1.136424888e-13,1.109207017e-13,4.12961673e-13,3.507172499e-13,2.777928652e-13,1.495567142e-13,8.557405905e-14,2.862429078e-13,4.49834345e-13,2.329853282e-13,1.665547985e-13,7.240704186e-14,8.300570978e-13,9.910836845e-14,2.831861462e-13,8.146124006e-14,1.672491652e-13,1.890169319e-13,1.237207571e-13,2.546826063e-13,1.714580045e-13,5.536862693e-13,7.442192094e-14
0.6484375,2.071659171e-13,3.762276866e-13,1.118743122e-13,2.937042286e-13,2.107515347e-13,8.220760526e-14,5.660371739e-14,7.978618909e-14,9.581772993e-14,1.101999056e-13,1.019403553e-13,3.912251308e-13,3.382696314e-13,2.57586722e-13,1.394484599e-13,8.637087672e-14,2.878551746e-13,4.296083961e-13,2.200889223e-13,1.627763401e-13,7.233113341e-14,7.9592232e-13,9.619161497e-14,2.852755681e-13,7.947210023e-14,1.597743896e-13,1.890807781e-13,1.179567421e-13,2.447745308e-13,1.634338924e-13,5.385985625e-13,6.904578044e-14
0.65625,2.002927551e-13,3.516707564e-13,1.009925167e-13,2.865941862e-13,2.019515373e-13,8.411293071e-14,5.895522515e-14,7.996696927e-14,9.186115177e-14,1.066958979e-13,9.3541615e-14,3.700960074e-13,3.253894937e-13,2.391680632e-13,1.310404801e-13,8.905749181e-14,2.884995199e-13,4.098458362e-13,2.075327239e-13,1.598901145e-13,7.235507521e-14,7.590293556e-13,9.333380168e-14,2.876893084e-13,7.711129137e-14,1.531055599e-13,1.911943313e-13,1.127297262e-13,2.352937572e-13,1.556380492e-13,5.238480209e-13,6.43470024e-14
0.6640625,1.936113414e-13,3.275694178e-13,9.14886051e-14,2.801863905e-13,1.939363813e-13,8.637405717e-14,6.149873452e-14,7.981955944e-14,8.837871952e-14,1.031650472e-13,8.578471155e-14,3.492684922e-13,3.122481307e-13,2.222842764e-13,1.241458038e-13,9.326233034e-14,2.876991063e-13,3.906402237e-13,1.954447925e-13,1.579739793e-13,7.262003666e-14,7.203251529e-13,9.051525685e-14,2.904294293e-13,7.454198985e-14,1.473365368e-13,1.951650862e-13,1.077006085e-13,2.266409966e-13,1.479833265e-13,5.100505552e-13,6.020461839e-14
0.671875,1.873990642e-13,3.045735096e-13,8.329681809e-14,2.743515392e-13,1.866330911e-13,8.877570812e-14,6.449275685e-14,7.947938548e-14,8.569935262e-14,9.971007517e-14,7.847539185e-14,3.28977577e-13,2.990572469e-13,2.068031306e-13,1.18428164e-13,9.889305579e-14,2.865024629e-13,3.717712995e-13,1.836607321e-13,1.567875045e-13,7.314194787e-14,6.81239182e-13,8.775313558e-14,2.938177231e-13,7.174641265e-14,1.423373161e-13,2.00901308e-13,1.029950589e-13,2.187027908e-13,1.405495156e-13,4.971479571e-13,5.670735253e-14
0.6796875,1.8171677e-13,2.82491142e-13,7.67353889e-14,2.686308103e-13,1.798401293e-13,9.111059498e-14,6.78973851e-14,7.900258782e-14,8.384900613e-14,9.631501665e-14,7.158506512e-14,3.095663874e-13,2.857213431e-13,1.927665717e-13,1.139722771e-13,1.059612974e-13,2.851243194e-13,3.531134974e-13,1.721189981e-13,1.561719408e-13,7.373883667e-14,6.414489495e-13,8.518693829e-14,2.976903026e-13,6.869964595e-14,1.37837302e-13,2.083027173e-13,9.88930568e-14,2.111674271e-13,1.335090111e-13,4.845818098e-13,5.395637536e-14
0.6875,1.763572766e-13,2.611992348e-13,7.162117158e-14,2.63101148e-13,1.735854693e-13,9.363654875e-14,7.146912592e-14,7.810050679e-14,8.231811012e-14,9.300191265e-14,6.533973651e-14,2.908253713e-13,2.719050281e-13,1.801069998e-13,1.109969133e-13,1.146215558e-13,2.834671339e-13,3.350105356e-13,1.608740221e-13,1.562269398e-13,7.437622279e-14,6.004612538e-13,8.286101094e-14,3.015364679e-13,6.545338112e-14,1.336644365e-13,2.171559809e-13,9.531055108e-14,2.040521671e-13,1.267517201e-13,4.721323261e-13,5.175875449e-14
0.6953125,1.711443382e-13,2.409400621e-13,6.724210578e-14,2.58511243e-13,1.682229589e-13,9.680291043e-14,7.479940039e-14,7.697660977e-14,8.102039798e-14,8.999796607e-14,5.967450685e-14,2.726226401e-13,2.579724732e-13,1.689490504e-13,1.096327343e-13,1.250841658e-13,2.823405968e-13,3.17804449e-13,1.500770475e-13,1.571324916e-13,7.514594716e-14,5.591127826e-13,8.060756059e-14,3.052282678e-13,6.212316677e-14,1.300932796e-13,2.276254265e-13,9.205803008e-14,1.976601593e-13,1.202631437e-13,4.604311837e-13,5.00423491e-14
0.703125,1.661957489e-13,2.220972639e-13,6.315358498e-14,2.546358693e-13,1.638082595e-13,1.003519192e-13,7.759242088e-14,7.595422413e-14,8.037401694e-14,8.743802463e-14,5.456113841e-14,2.551139188e-13,2.446155693e-13,1.591648314e-13,1.097915809e-13,1.369184845e-13,2.819801975e-13,3.01180279e-13,1.39893257e-13,1.585828924e-13,7.59579803e-14,5.18738112e-13,7.836920575e-14,3.089690057e-13,5.881741486e-14,1.272602276e-13,2.396239459e-13,8.907116571e-14,1.92007322e-13,1.141890532e-13,4.497877727e-13,4.894300306e-14
0.7109375,1.618350164e-13,2.052255639e-13,5.956660169e-14,2.508821955e-13,1.600802254e-13,1.038823354e-13,7.985176421e-14,7.471151504e-14,8.024329776e-14,8.527188602e-14,4.992786044e-14,2.385109593e-13,2.318850168e-13,1.506905235e-13,1.11205282e-13,1.494642578e-13,2.814182484e-13,2.849134857e-13,1.303503461e-13,1.600599009e-13,7.666222187e-14,4.79524241e-13,7.62696706e-14,3.121794723e-13,5.547531411e-14,1.248437681e-13,2.527574179e-13,8.62504142e-14,1.868602616e-13,1.084680951e-13,4.396391829e-13,4.841444478e-14
0.71875,1.578883748e-13,1.904211569e-13,5.674542885e-14,2.47236385e-13,1.568977624e-13,1.073050544e-13,8.166773559e-14,7.301850723e-14,8.03382543e-14,8.348093977e-14,4.5607342e-14,2.228120586e-13,2.196380247e-13,1.436138346e-13,1.138129878e-13,1.627055546e-13,2.803015137e-13,2.694550006e-13,1.214773911e-13,1.617564877e-13,7.735675513e-14,4.412543735e-13,7.440878939e-14,3.142291606e-13,5.220324993e-14,1.228229944e-13,2.672149239e-13,8.365274841e-14,1.824429995e-13,1.030915412e-13,4.299888425e-13,4.833683255e-14
0.7265625,1.542125985e-13,1.775078929e-13,5.439277739e-14,2.43799919e-13,1.543043016e-13,1.105557508e-13,8.316684988e-14,7.110162305e-14,8.085298867e-14,8.208887489e-14,4.185061481e-14,2.07802738e-13,2.079376431e-13,1.374198156e-13,1.174201086e-13,1.76575359e-13,2.792088045e-13,2.546760359e-13,1.132644444e-13,1.639783147e-13,7.819335269e-14,4.04853234e-13,7.291941414e-14,3.157569762e-13,4.908330224e-14,1.213003778e-13,2.830997869e-13,8.134604683e-14,1.787273708e-13,9.817217463e-14,4.211725019e-13,4.882100161e-14
0.734375,1.511395843e-13,1.66530243e-13,5.244486826e-14,2.406672529e-13,1.52154396e-13,1.13442478e-13,8.428508215e-14,6.91267124e-14,8.173792412e-14,8.126728738e-14,3.882619195e-14,1.937399266e-13,1.968233769e-13,1.319401132e-13,1.213819014e-13,1.902017221e-13,2.779339952e-13,2.401508743e-13,1.05648632e-13,1.660656417e-13,7.901585696e-14,3.706221385e-13,7.186542623e-14,3.168229189e-13,4.593843865e-14,1.199889471e-13,2.998768159e-13,7.922734391e-14,1.754538918e-13,9.380637751e-14,4.128231463e-13,4.970559249e-14
0.7421875,1.485868203e-13,1.576501443e-13,5.104602163e-14,2.380441515e-13,1.504369333e-13,1.158636343e-13,8.487141943e-14,6.694074627e-14,8.279705713e-14,8.112537815e-14,3.62568502e-14,1.810978015e-13,1.864637905e-13,1.278761326e-13,1.256343123e-13,2.03471738e-13,2.765565648e-13,2.266712783e-13,9.868012671e-14,1.678471729e-13,7.973489297e-14,3.379501931e-13,7.108360011e-14,3.170201946e-13,4.286711424e-14,1.189710507e-13,3.17523116e-13,7.739392031e-14,1.730468697e-13,9.000274027e-14,4.051862784e-13,5.08137179e-14
0.75,1.461564005e-13,1.50790454e-13,5.00031028e-14,2.362467738e-13,1.495229396e-13,1.181676171e-13,8.49883657e-14,6.453939481e-14,8.406947363e-14,8.157335968e-14,3.401381304e-14,1.695064002e-13,1.769240264e-13,1.253083361e-13,1.30724591e-13,2.174554382e-13,2.765674214e-13,2.147279964e-13,9.234005951e-14,1.701382787e-13,8.053960426e-14,3.07086639e-13,7.05145579e-14,3.170192845e-13,3.999669376e-14,1.187027425e-13,3.365910083e-13,7.576309359e-14,1.718328424e-13,8.663575533e-14,3.991216204e-13,5.237320535e-14
0.7578125,1.437210198e-13,1.455839398e-13,4.914258905e-14,2.35274368e-13,1.49412743e-13,1.204648123e-13,8.473912019e-14,6.238061699e-14,8.560632134e-14,8.266614907e-14,3.203290654e-14,1.582382647e-13,1.678284687e-13,1.23248737e-13,1.363522417e-13,2.320043874e-13,2.784083431e-13,2.032953451e-13,8.641509465e-14,1.727950197e-13,8.140822319e-14,2.78667288e-13,7.030140914e-14,3.169451758e-13,3.722325359e-14,1.189374678e-13,3.56245999e-13,7.392562021e-14,1.713384396e-13,8.36492061e-14,3.943391112e-13,5.424972607e-14
0.765625,1.41470629e-13,1.419185666e-13,4.841950162e-14,2.346797407e-13,1.498852193e-13,1.223402332e-13,8.428822842e-14,6.062448781e-14,8.756059644e-14,8.448719319e-14,3.02630349e-14,1.473588881e-13,1.589332781e-13,1.211337051e-13,1.418862681e-13,2.461378047e-13,2.811918201e-13,1.91792614e-13,8.078939535e-14,1.751942301e-13,8.220876388e-14,2.527695973e-13,7.049197166e-14,3.16590056e-13,3.457115613e-14,1.192441254e-13,3.753630516e-13,7.193344533e-14,1.708844262e-13,8.114266684e-14,3.90204053e-13,5.621958562e-14
0.7734375,1.397046542e-13,1.397390584e-13,4.805407884e-14,2.343965995e-13,1.509786371e-13,1.238529152e-13,8.377420027e-14,5.917691909e-14,8.991272975e-14,8.711306301e-14,2.884791206e-14,1.375752515e-13,1.504141124e-13,1.195844537e-13,1.475140183e-13,2.595550549e-13,2.844861408e-13,1.80777423e-13,7.554852422e-14,1.773478149e-13,8.296300976e-14,2.292884274e-13,7.110546507e-14,3.165695723e-13,3.213372733e-14,1.198109504e-13,3.945318439e-13,7.031378361e-14,1.704331473e-13,7.928609162e-14,3.867492887e-13,5.8324975e-14
0.78125,1.381065165e-13,1.38729717e-13,4.801289583e-14,2.34829657e-13,1.525889067e-13,1.252047387e-13,8.311643704e-14,5.806687995e-14,9.229694496e-14,9.05590106e-14,2.76806506e-14,1.292519589e-13,1.425424241e-13,1.189288288e-13,1.532015316e-13,2.713976376e-13,2.874439518e-13,1.705932947e-13,7.086114325e-14,1.793092202e-13,8.372043223e-14,2.080250071e-13,7.225935269e-14,3.169034453e-13,2.998058133e-14,1.205892412e-13,4.136122487e-13,6.924176173e-14,1.704783432e-13,7.795544206e-14,3.841468547e-13,6.024709338e-14
0.7890625,1.362546837e-13,1.387085379e-13,4.790563114e-14,2.359049917e-13,1.545851369e-13,1.261316409e-13,8.229278734e-14,5.717586323e-14,9.470787054e-14,9.46387956e-14,2.66841942e-14,1.220625786e-13,1.354986373e-13,1.18518075e-13,1.583957611e-13,2.807792579e-13,2.8887746e-13,1.609230886e-13,6.679008698e-14,1.808059489e-13,8.448707263e-14,1.88556056e-13,7.391751641e-14,3.171747033e-13,2.812617162e-14,1.211291504e-13,4.314249488e-13,6.83466676e-14,1.707573823e-13,7.694002135e-14,3.823021064e-13,6.18184161e-14
0.796875,1.345202544e-13,1.396008757e-13,4.790963992e-14,2.370110711e-13,1.568471845e-13,1.264163173e-13,8.133835354e-14,5.670597766e-14,9.742393141e-14,9.941705939e-14,2.609098876e-14,1.157650806e-13,1.291911663e-13,1.180593619e-13,1.628534106e-13,2.877556678e-13,2.888342072e-13,1.514425927e-13,6.312960752e-14,1.814620511e-13,8.511033711e-14,1.710341754e-13,7.583597147e-14,3.175983208e-13,2.652159365e-14,1.214507322e-13,4.47958412e-13,6.751968684e-14,1.706731834e-13,7.6452436e-14,3.807020526e-13,6.321414609e-14
0.8046875,1.329059729e-13,1.41469212e-13,4.810516346e-14,2.379841763e-13,1.591293396e-13,1.258899495e-13,8.033996986e-14,5.674714323e-14,1.000946321e-13,1.049300789e-13,2.583971061e-14,1.103358465e-13,1.233193627e-13,1.177442283e-13,1.663264412e-13,2.921473546e-13,2.875659788e-13,1.422056774e-13,5.975138598e-14,1.813649122e-13,8.559730192e-14,1.555056391e-13,7.803073057e-14,3.183883271e-13,2.510751068e-14,1.218644607e-13,4.633024982e-13,6.687091802e-14,1.707014187e-13,7.639868702e-14,3.795501824e-13,6.424484399e-14
0.8125,1.308295923e-13,1.441790001e-13,4.813029362e-14,2.391551056e-13,1.616437732e-13,1.245427355e-13,7.961882241e-14,5.672336475e-14,1.022696979e-13,1.106873151e-13,2.564479388e-14,1.05332996e-13,1.176560133e-13,1.174109204e-13,1.687698487e-13,2.942242019e-13,2.850717554e-13,1.33249059e-13,5.667835987e-14,1.808954845e-13,8.620488121e-14,1.412652731e-13,8.072402025e-14,3.194479932e-13,2.38267482e-14,1.223051164e-13,4.770920343e-13,6.617726586e-14,1.709208941e-13,7.63162991e-14,3.794185858e-13,6.487802183e-14
0.8203125,1.284745853e-13,1.469001388e-13,4.813903703e-14,2.403758934e-13,1.644782812e-13,1.224900739e-13,7.931288826e-14,5.66010132e-14,1.043117548e-13,1.163760725e-13,2.545842962e-14,1.006384294e-13,1.123926506e-13,1.167874172e-13,1.70313747e-13,2.946371009e-13,2.81801873e-13,1.244120638e-13,5.37453101e-14,1.799916939e-13,8.683611116e-14,1.283581027e-13,8.371665823e-14,3.208452438e-13,2.275078822e-14,1.224394806e-13,4.888101216e-13,6.5386617e-14,1.704723501e-13,7.628475697e-14,3.794206605e-13,6.536147403e-14
0.828125,1.263482915e-13,1.494985748e-13,4.837260914e-14,2.414678557e-13,1.672306264e-13,1.197857355e-13,7.931943451e-14,5.683808489e-14,1.065970442e-13,1.221855164e-13,2.537562655e-14,9.686300149e-14,1.080443089e-13,1.159491234e-13,1.705604382e-13,2.930128791e-13,2.777000752e-13,1.158136758e-13,5.09399922e-14,1.783815103e-13,8.725455547e-14,1.171166902e-13,8.671800363e-14,3.22979452e-13,2.196887021e-14,1.222964049e-13,4.979346147e-13,6.468801049e-14,1.694984224e-13,7.658286892e-14,3.792854704e-13,6.552265317e-14
0.8359375,1.243530559e-13,1.527020648e-13,4.877217499e-14,2.429728615e-13,1.70181879e-13,1.167310287e-13,7.975167653e-14,5.745785144e-14,1.089896491e-13,1.282037222e-13,2.546561238e-14,9.414945217e-14,1.046680146e-13,1.151761066e-13,1.696579469e-13,2.895561974e-13,2.728908307e-13,1.078805023e-13,4.852814953e-14,1.764443108e-13,8.760104482e-14,1.072900892e-13,8.987115443e-14,3.258503637e-13,2.149436678e-14,1.222786931e-13,5.054011845e-13,6.414969623e-14,1.685765999e-13,7.712372121e-14,3.804756085e-13,6.540017808e-14
0.84375,1.224119405e-13,1.562482307e-13,4.946822699e-14,2.451356694e-13,1.737003018e-13,1.133944403e-13,8.074339217e-14,5.843338662e-14,1.116064386e-13,1.342295241e-13,2.579882599e-14,9.221208051e-14,1.02149938e-13,1.145080301e-13,1.680667731e-13,2.849169962e-13,2.682688837e-13,1.006127047e-13,4.648604101e-14,1.746262223e-13,8.806363451e-14,9.888712327e-14,9.321974581e-14,3.293502214e-13,2.136872737e-14,1.223376277e-13,5.11572834e-13,6.375710518e-14,1.675604304e-13,7.776637093e-14,3.830365104e-13,6.550062091e-14
0.8515625,1.20942985e-13,1.596690357e-13,5.041830093e-14,2.475353858e-13,1.773870625e-13,1.097652998e-13,8.230080981e-14,5.97981015e-14,1.147407447e-13,1.400462759e-13,2.626871933e-14,9.102163024e-14,1.006600427e-13,1.139227852e-13,1.655708474e-13,2.7890619e-13,2.638328438e-13,9.380456846e-14,4.463381017e-14,1.726507762e-13,8.856062279e-14,9.195860932e-14,9.651251485e-14,3.339835001e-13,2.155771673e-14,1.222034467e-13,5.151585e-13,6.350538268e-14,1.6618683e-13,7.852885726e-14,3.858855102e-13,6.58790988e-14
0.859375,1.199520054e-13,1.631519176e-13,5.153264409e-14,2.496564401e-13,1.810092426e-13,1.061399483e-13,8.454519656e-14,6.156319188e-14,1.181258118e-13,1.45572485e-13,2.665977176e-14,9.035419238e-14,9.96988583e-14,1.137754446e-13,1.626315246e-13,2.72044373e-13,2.592871769e-13,8.772575152e-14,4.299638095e-14,1.704892364e-13,8.897738558e-14,8.619747023e-14,9.968130529e-14,3.392369243e-13,2.197021176e-14,1.221771009e-13,5.166182231e-13,6.354407853e-14,1.6443714e-13,7.92747496e-14,3.890126756e-13,6.633402648e-14
0.8671875,1.188459271e-13,1.663650063e-13,5.292067192e-14,2.509971629e-13,1.845283077e-13,1.025276727e-13,8.757646755e-14,6.410315651e-14,1.214663195e-13,1.508861806e-13,2.695955235e-14,8.991950016e-14,9.858078178e-14,1.140208554e-13,1.596273587e-13,2.646017745e-13,2.54479199e-13,8.217458932e-14,4.143714946e-14,1.681444399e-13,8.941295685e-14,8.130296394e-14,1.029084978e-13,3.444031812e-13,2.256780083e-14,1.222913921e-13,5.165408785e-13,6.398881891e-14,1.623277157e-13,7.976049633e-14,3.921863553e-13,6.694109322e-14
0.875,1.177541748e-13,1.689709066e-13,5.448143878e-14,2.513415056e-13,1.876979559e-13,9.878296643e-14,9.131565039e-14,6.762396158e-14,1.249768054e-13,1.560788501e-13,2.713617362e-14,8.987663477e-14,9.7604984e-14,1.140446816e-13,1.557539913e-13,2.556155026e-13,2.483757934e-13,7.65080815e-14,3.980494293e-14,1.653278186e-13,8.994479425e-14,7.718473048e-14,1.063397131e-13,3.501846145e-13,2.331485946e-14,1.219697774e-13,5.140993268e-13,6.489601388e-14,1.596523983e-13,8.006260961e-14,3.945556498e-13,6.767298688e-14
0.8828125,1.172026015e-13,1.711722197e-13,5.632508697e-14,2.508310797e-13,1.90479173e-13,9.473917616e-14,9.567639915e-14,7.168802897e-14,1.2880918e-13,1.609268919e-13,2.717511709e-14,9.045865326e-14,9.724388006e-14,1.139251661e-13,1.507865926e-13,2.450310924e-13,2.404363307e-13,7.097014031e-14,3.830288736e-14,1.623853142e-13,9.047257766e-14,7.386201787e-14,1.098170853e-13,3.563921406e-13,2.424615613e-14,1.212125451e-13,5.095002021e-13,6.627488648e-14,1.563442145e-13,8.030293478e-14,3.960469286e-13,6.84409897e-14
0.890625,1.171550619e-13,1.728723497e-13,5.8650712e-14,2.495818082e-13,1.928265159e-13,9.041309115e-14,1.006375715e-13,7.625107483e-14,1.331334874e-13,1.651013612e-13,2.727194826e-14,9.183669921e-14,9.770154694e-14,1.142399618e-13,1.451412663e-13,2.334959872e-13,2.310806876e-13,6.595416759e-14,3.697372669e-14,1.594536311e-13,9.0936303e-14,7.131995818e-14,1.131170112e-13,3.622176226e-13,2.544563755e-14,1.203464834e-13,5.030793086e-13,6.821090313e-14,1.526148109e-13,8.045652012e-14,3.968761798e-13,6.94854632e-14
0.8984375,1.179072251e-13,1.738688493e-13,6.154940204e-14,2.473034912e-13,1.944487561e-13,8.60356998e-14,1.062768009e-13,8.180866254e-14,1.382303901e-13,1.686579475e-13,2.751328327e-14,9.414065769e-14,9.909204225e-14,1.151222076e-13,1.388403673e-13,2.210043656e-13,2.203508873e-13,6.125931566e-14,3.56363351e-14,1.561306348e-13,9.128325957e-14,6.964108956e-14,1.163280657e-13,3.679770646e-13,2.690321486e-14,1.191404499e-13,4.948130141e-13,7.102983108e-14,1.48425994e-13,8.060593796e-14,3.967299386e-13,7.095789797e-14
0.90625,1.198555883e-13,1.742336552e-13,6.529016504e-14,2.438466077e-13,1.955329562e-13,8.149653291e-14,1.127377259e-13,8.838672373e-14,1.440620876e-13,1.717057727e-13,2.784500971e-14,9.725446728e-14,1.012626252e-13,1.165157522e-13,1.317521254e-13,2.074839934e-13,2.083455286e-13,5.674755218e-14,3.431586198e-14,1.526422854e-13,9.151569094e-14,6.889104016e-14,1.195043415e-13,3.741131022e-13,2.862583426e-14,1.175496648e-13,4.850243021e-13,7.459516571e-14,1.436278251e-13,8.075117276e-14,3.955064092e-13,7.273850352e-14
0.9140625,1.226899086e-13,1.741412143e-13,7.004482012e-14,2.397476988e-13,1.965191422e-13,7.685023933e-14,1.199253732e-13,9.593110365e-14,1.506903126e-13,1.741824018e-13,2.821228361e-14,1.012410371e-13,1.041931187e-13,1.185520627e-13,1.241253599e-13,1.935638042e-13,1.958490197e-13,5.250362752e-14,3.312694938e-14,1.494659933e-13,9.173190689e-14,6.882021446e-14,1.224675687e-13,3.803925433e-13,3.065323885e-14,1.159633713e-13,4.740832832e-13,7.876137353e-14,1.383744412e-13,8.090720561e-14,3.936466965e-13,7.498546489e-14
0.921875,1.26411006e-13,1.737425838e-13,7.585214411e-14,2.350669386e-13,1.971419056e-13,7.238590425e-14,1.277091292e-13,1.045333762e-13,1.581713466e-13,1.759582405e-13,2.854326357e-14,1.062435794e-13,1.079202462e-13,1.214625751e-13,1.164610311e-13,1.798120024e-13,1.83615884e-13,4.858235836e-14,3.198725862e-14,1.464807495e-13,9.179699174e-14,6.92725524e-14,1.250465381e-13,3.863948676e-13,3.291377587e-14,1.142975371e-13,4.623069211e-13,8.386499745e-14,1.327263351e-13,8.115962259e-14,3.910318581e-13,7.786521534e-14
0.9296875,1.313782403e-13,1.730080789e-13,8.259974513e-14,2.293966546e-13,1.971428999e-13,6.818339337e-14,1.361018713e-13,1.140918923e-13,1.663481276e-13,1.768857162e-13,2.887102504e-14,1.121260697e-13,1.124170084e-13,1.252768468e-13,1.087502973e-13,1.662896641e-13,1.719167097e-13,4.499035847e-14,3.076376488e-14,1.435285291e-13,9.157752256e-14,7.043182803e-14,1.271446544e-13,3.92534188e-13,3.537232997e-14,1.123126489e-13,4.496573833e-13,8.998203612e-14,1.26398285e-13,8.141853543e-14,3.870085977e-13,8.125027974e-14
0.9375,1.373551985e-13,1.720435389e-13,9.056475871e-14,2.230461939e-13,1.967981349e-13,6.428828061e-14,1.44830126e-13,1.24934481e-13,1.756198523e-13,1.773651304e-13,2.925980873e-14,1.190837027e-13,1.178896582e-13,1.29977419e-13,1.010383138e-13,1.536122746e-13,1.608414644e-13,4.184409139e-14,2.958438811e-14,1.407154439e-13,9.114957663e-14,7.223781831e-14,1.28964545e-13,3.987924402e-13,3.802345799e-14,1.10060759e-13,4.363781204e-13,9.728010689e-14,1.195547584e-13,8.181232375e-14,3.814054596e-13,8.529025103e-14
0.9453125,1.440294642e-13,1.711556326e-13,1.001665368e-13,2.163798871e-13,1.958887823e-13,6.068682319e-14,1.538205021e-13,1.374723788e-13,1.862843113e-13,1.778516847e-13,2.959284821e-14,1.273170767e-13,1.242469288e-13,1.357310368e-13,9.373422719e-14,1.421716711e-13,1.50170176e-13,3.91670827e-14,2.850303794e-14,1.376957613e-13,9.044659656e-14,7.446801147e-14,1.307939755e-13,4.039884537e-13,4.076292415e-14,1.073751904e-13,4.225754518e-13,1.058708816e-13,1.126880351e-13,8.248587149e-14,3.743233519e-13,9.007547397e-14
0.953125,1.516033616e-13,1.703489899e-13,1.11294439e-13,2.093668676e-13,1.940046718e-13,5.744367925e-14,1.634342873e-13,1.515818094e-13,1.980527021e-13,1.782447899e-13,2.979623882e-14,1.366987202e-13,1.3145724e-13,1.42565785e-13,8.679189621e-14,1.313950423e-13,1.395926264e-13,3.687886961e-14,2.747333139e-14,1.343450806e-13,8.946592004e-14,7.717094529e-14,1.324907389e-13,4.081005209e-13,4.36220081e-14,1.042393527e-13,4.08273766e-13,1.156166306e-13,1.057719169e-13,8.334813526e-14,3.659742711e-13,9.529420235e-14
0.9609375,1.602382842e-13,1.697045404e-13,1.242040823e-13,2.022374525e-13,1.915788802e-13,5.4549105e-14,1.735871089e-13,1.670672629e-13,2.110792807e-13,1.785708554e-13,3.00538033e-14,1.473884175e-13,1.399268386e-13,1.504902263e-13,8.013634357e-14,1.213496437e-13,1.295594821e-13,3.507517744e-14,2.663713152e-14,1.312488471e-13,8.837407913e-14,8.040288433e-14,1.338739522e-13,4.117435859e-13,4.669151587e-14,1.00972365e-13,3.94276148e-13,1.265435688e-13,9.870739714e-14,8.453546115e-14,3.565703645e-13,1.009292913e-13
0.96875,1.698927981e-13,1.696091627e-13,1.389786564e-13,1.953658957e-13,1.890073523e-13,5.196209011e-14,1.840036922e-13,1.839651948e-13,2.256178294e-13,1.788636794e-13,3.051252062e-14,1.593137385e-13,1.494471512e-13,1.594181153e-13,7.398838242e-14,1.126473111e-13,1.205870617e-13,3.378109197e-14,2.599044825e-14,1.284208809e-13,8.719030191e-14,8.412612037e-14,1.350348681e-13,4.147668079e-13,4.990348238e-14,9.759078132e-14,3.807663872e-13,1.383864944e-13,9.170704206e-14,8.616355617e-14,3.460669445e-13,1.07165681e-13
0.9765625,1.806579814e-13,1.69924192e-13,1.552038135e-13,1.886037375e-13,1.858781194e-13,4.990177773e-14,1.947015807e-13,2.026221304e-13,2.41647553e-13,1.792078984e-13,3.103045735e-14,1.722239518e-13,1.597475994e-13,1.690574697e-13,6.860683904e-14,1.053411933e-13,1.125652883e-13,3.290777961e-14,2.547571816e-14,1.255811547e-13,8.587732485e-14,8.848021606e-14,1.361726052e-13,4.169114726e-13,5.319191754e-14,9.404156065e-14,3.677208728e-13,1.510325668e-13,8.487317916e-14,8.827263699e-14,3.344163763e-13,1.140856637e-13
0.984375,1.924739654e-13,1.702987037e-13,1.728452842e-13,1.817169441e-13,1.819727102e-13,4.821951846e-14,2.056615113e-13,2.229907059e-13,2.591738727e-13,1.79955454e-13,3.143204036e-14,1.863225829e-13,1.712079466e-13,1.795583514e-13,6.396459389e-14,9.910469567e-14,1.053083195e-13,3.232796608e-14,2.506625092e-14,1.229942354e-13,8.443675812e-14,9.382884052e-14,1.375253115e-13,4.180552007e-13,5.649017423e-14,9.038054584e-14,3.554558643e-13,1.645162576e-13,7.805870192e-14,9.089716115e-14,3.215284647e-13,1.216381131e-13
0.9921875,2.050414156e-13,1.71039723e-13,1.917383556e-13,1.753462888e-13,1.778041238e-13,4.663721949e-14,2.167988926e-13,2.444771571e-13,2.777046055e-13,1.812119729e-13,3.178423723e-14,2.012998055e-13,1.836559672e-13,1.909229081e-13,5.979866804e-14,9.383226717e-14,9.874711642e-14,3.197669135e-14,2.47299932e-14,1.208842879e-13,8.293253678e-14,1.001802169e-13,1.390389433e-13,4.187221319e-13,5.97372398e-14,8.662897918e-14,3.438316069e-13,1.783896003e-13,7.135123915e-14,9.394192813e-14,3.078194012e-13,1.29416983e-13
1,2.180034925e-13,1.726296388e-13,2.113965548e-13,1.70192049e-13,1.737462071e-13,4.533786935e-14,2.277929216e-13,2.668816233e-13,2.966712954e-13,1.830577619e-13,3.217006796e-14,2.163668e-13,1.964795952e-13,2.024266163e-13,5.633934263e-14,8.972392739e-14,9.288227578e-14,3.197846323e-14,2.458927883e-14,1.190951966e-13,8.142836529e-14,1.070701757e-13,1.405932942e-13,4.188909823e-13,6.288342721e-14,8.289611309e-14,3.331359226e-13,1.923744382e-13,6.507029993e-14,9.742112158e-14,2.939656224e-13,1.37154231e-13
1.0078125,2.310057874e-13,1.753566226e-13,2.314949561e-13,1.66327911e-13,1.69534089e-13,4.444528323e-14,2.381368492e-13,2.902094072e-13,3.162281174e-13,1.856133974e-13,3.248305783e-14,2.316610457e-13,2.098216414e-13,2.139154508e-13,5.370569866e-14,8.665501116e-14,8.742812087e-14,3.229378192e-14,2.462023374e-14,1.172290215e-13,7.980003812e-14,1.14413272e-13,1.424196022e-13,4.173633862e-13,6.573382439e-14,7.910648879e-14,3.237494108e-13,2.065536006e-13,5.920236635e-14,1.013717105e-13,2.79686016e-13,1.448062243e-13
1.015625,2.438996927e-13,1.792702298e-13,2.525523339e-13,1.638497252e-13,1.650293182e-13,4.393313275e-14,2.478265427e-13,3.143937069e-13,3.365933378e-13,1.888685841e-13,3.260630977e-14,2.476819654e-13,2.240452059e-13,2.259440933e-13,5.191133208e-14,8.470784388e-14,8.21735584e-14,3.292716678e-14,2.486290292e-14,1.152297197e-13,7.79692034e-14,1.222598392e-13,1.445637894e-13,4.142666831e-13,6.825741719e-14,7.509147876e-14,3.156800079e-13,2.212349192e-13,5.375032629e-14,1.059576267e-13,2.647867183e-13,1.522236443e-13
1.0234375,2.562844538e-13,1.840627944e-13,2.75039139e-13,1.627884884e-13,1.605296716e-13,4.377226119e-14,2.569851698e-13,3.393181087e-13,3.574012314e-13,1.927584398e-13,3.260440128e-14,2.640163058e-13,2.387287785e-13,2.38333242e-13,5.126541029e-14,8.422282717e-14,7.755495829e-14,3.397469093e-14,2.542507733e-14,1.133759726e-13,7.601702999e-14,1.299812916e-13,1.468004425e-13,4.102154887e-13,7.064631736e-14,7.08995393e-14,3.088030606e-13,2.364491015e-13,4.880488673e-14,1.111884034e-13,2.496587311e-13,1.594166056e-13
1.03125,2.676508211e-13,1.896120992e-13,2.980028109e-13,1.630703708e-13,1.559621594e-13,4.397632936e-14,2.650567923e-13,3.645693934e-13,3.780379771e-13,1.971473268e-13,3.262761868e-14,2.800269076e-13,2.531852785e-13,2.501705585e-13,5.141218885e-14,8.473832245e-14,7.378642276e-14,3.52301887e-14,2.612925406e-14,1.113060082e-13,7.386372506e-14,1.370293095e-13,1.490866804e-13,4.044038579e-13,7.274609956e-14,6.654669086e-14,3.025934774e-13,2.515344312e-13,4.422237486e-14,1.167317132e-13,2.341833266e-13,1.662048595e-13
1.0390625,2.78189029e-13,1.960592195e-13,3.207807083e-13,1.648407326e-13,1.512311666e-13,4.46683922e-14,2.717366603e-13,3.895468918e-13,3.982043495e-13,2.020519122e-13,3.267232491e-14,2.956253829e-13,2.673230434e-13,2.611942445e-13,5.218230725e-14,8.599107208e-14,7.079709243e-14,3.662400132e-14,2.702526616e-14,1.088053404e-13,7.144415645e-14,1.437502749e-13,1.514377911e-13,3.963296845e-13,7.430798644e-14,6.2097918e-14,2.9720843e-13,2.662149675e-13,4.012056112e-14,1.226273e-13,2.18524074e-13,1.722699294e-13
1.046875,2.882026791e-13,2.034852468e-13,3.434884459e-13,1.683201399e-13,1.469880823e-13,4.578294984e-14,2.775595502e-13,4.137039075e-13,4.178417107e-13,2.075218864e-13,3.271217481e-14,3.10698573e-13,2.812830286e-13,2.718073287e-13,5.390892651e-14,8.831115282e-14,6.869818151e-14,3.82810056e-14,2.83025102e-14,1.066502911e-13,6.902393691e-14,1.505160755e-13,1.538078726e-13,3.867583965e-13,7.559917164e-14,5.784744929e-14,2.933096952e-13,2.804679515e-13,3.676069925e-14,1.289276922e-13,2.037008056e-13,1.777779269e-13
1.0546875,2.974420699e-13,2.117939195e-13,3.659286528e-13,1.734480871e-13,1.435464967e-13,4.72464926e-14,2.826130125e-13,4.369554476e-13,4.366063011e-13,2.134647016e-13,3.28547583e-14,3.248434353e-13,2.946499867e-13,2.816842341e-13,5.629873702e-14,9.139386482e-14,6.732790285e-14,4.012368058e-14,2.982202707e-14,1.05097029e-13,6.675083893e-14,1.571409739e-13,1.561488842e-13,3.760751722e-13,7.687060192e-14,5.397180564e-14,2.907897356e-13,2.93848115e-13,3.403049493e-14,1.353594131e-13,1.901996027e-13,1.827771804e-13
1.0625,3.055216236e-13,2.206415833e-13,3.8789937e-13,1.799763893e-13,1.406700664e-13,4.915084394e-14,2.865249691e-13,4.590933726e-13,4.539524812e-13,2.196351915e-13,3.316681773e-14,3.377099055e-13,3.067470734e-13,2.901986611e-13,5.912377366e-14,9.477266676e-14,6.632366833e-14,4.19381413e-14,3.140901749e-14,1.037590346e-13,6.448797077e-14,1.636238778e-13,1.584604872e-13,3.63827449e-13,7.788080372e-14,5.046919823e-14,2.893660287e-13,3.062058237e-13,3.171964325e-14,1.416951493e-13,1.77709551e-13,1.87006479e-13
1.0703125,3.123987295e-13,2.299293453e-13,4.086039212e-13,1.882556484e-13,1.387851586e-13,5.152466766e-14,2.893874015e-13,4.793017048e-13,4.696082498e-13,2.257104728e-13,3.361382814e-14,3.492033498e-13,3.175551924e-13,2.975089011e-13,6.241169501e-14,9.853234891e-14,6.570725815e-14,4.36352529e-14,3.306628549e-14,1.029369073e-13,6.232140018e-14,1.700473749e-13,1.607650719e-13,3.504160816e-13,7.849027093e-14,4.744952261e-14,2.891058801e-13,3.175649586e-13,2.983790206e-14,1.477021724e-13,1.663976301e-13,1.90487579e-13
1.078125,3.179027828e-13,2.396143435e-13,4.274417321e-13,1.985547045e-13,1.382042705e-13,5.439079409e-14,2.911907765e-13,4.971806006e-13,4.833525348e-13,2.315610025e-13,3.409295387e-14,3.595121322e-13,3.273191247e-13,3.037375587e-13,6.601755874e-14,1.026196957e-13,6.553939457e-14,4.538586363e-14,3.488152213e-14,1.028457215e-13,6.037609531e-14,1.760710907e-13,1.629274021e-13,3.363026699e-13,7.883698834e-14,4.493597609e-14,2.900425231e-13,3.279030358e-13,2.841170964e-14,1.533641325e-13,1.566054079e-13,1.930445974e-13
1.0859375,3.216243429e-13,2.493209439e-13,4.450224256e-13,2.1023479e-13,1.385654326e-13,5.768057661e-14,2.916312259e-13,5.123695953e-13,4.944617522e-13,2.36981076e-13,3.452964934e-14,3.684060271e-13,3.354753456e-13,3.086734725e-13,7.008843123e-14,1.068142902e-13,6.537260148e-14,4.727670735e-14,3.689906981e-14,1.031002203e-13,5.851453914e-14,1.815831576e-13,1.647925061e-13,3.212367316e-13,7.89089621e-14,4.279263217e-14,2.92079317e-13,3.370519306e-13,2.730549975e-14,1.586714557e-13,1.47979034e-13,1.941113175e-13
1.09375,3.235161543e-13,2.590491359e-13,4.607109625e-13,2.231500125e-13,1.400263303e-13,6.136719851e-14,2.903547272e-13,5.245176055e-13,5.02478812e-13,2.417870136e-13,3.498621106e-14,3.753361427e-13,3.414336725e-13,3.120803851e-13,7.462232681e-14,1.110930562e-13,6.515090255e-14,4.918743587e-14,3.908714271e-14,1.03837984e-13,5.671504126e-14,1.86601638e-13,1.663774439e-13,3.050660987e-13,7.854833789e-14,4.101799319e-14,2.953702991e-13,3.446921015e-13,2.648814929e-14,1.633245507e-13,1.404317388e-13,1.93595842e-13
1.1015625,3.236343666e-13,2.691296996e-13,4.732095276e-13,2.37763417e-13,1.428194047e-13,6.559833411e-14,2.87011268e-13,5.342633037e-13,5.081452982e-13,2.461907456e-13,3.545515705e-14,3.809755648e-13,3.456809921e-13,3.138185682e-13,7.908634416e-14,1.15054962e-13,6.506142999e-14,5.112711535e-14,4.145408207e-14,1.052817022e-13,5.503381447e-14,1.908721026e-13,1.67738757e-13,2.875787981e-13,7.762862353e-14,3.95597082e-14,3.000346278e-13,3.51314551e-13,2.607037527e-14,1.673507086e-13,1.34276983e-13,1.917209025e-13
1.109375,3.222264258e-13,2.794668641e-13,4.830131274e-13,2.539441269e-13,1.467192102e-13,7.035488957e-14,2.819367948e-13,5.412797826e-13,5.116468662e-13,2.500743813e-13,3.587986215e-14,3.85944144e-13,3.484381117e-13,3.143005857e-13,8.343615969e-14,1.184964494e-13,6.487872848e-14,5.325984729e-14,4.40908825e-14,1.071909999e-13,5.34189321e-14,1.943968938e-13,1.688082225e-13,2.69486927e-13,7.62328189e-14,3.83281278e-14,3.058059661e-13,3.571703256e-13,2.599880888e-14,1.708517995e-13,1.294622929e-13,1.883348886e-13
1.1171875,3.193495312e-13,2.89434533e-13,4.902292933e-13,2.713277557e-13,1.519144124e-13,7.554567812e-14,2.754398179e-13,5.443139669e-13,5.117809683e-13,2.529430627e-13,3.642412458e-14,3.89117451e-13,3.488521936e-13,3.134388778e-13,8.785034415e-14,1.21875232e-13,6.501527791e-14,5.565922865e-14,4.703922863e-14,1.097909313e-13,5.194260684e-14,1.968801319e-13,1.693939027e-13,2.512249352e-13,7.45238166e-14,3.743465352e-14,3.123553699e-13,3.615949722e-13,2.617072843e-14,1.734083576e-13,1.260890954e-13,1.833745487e-13
1.125,3.14729234e-13,2.98617619e-13,4.941820504e-13,2.89712243e-13,1.585523819e-13,8.111866532e-14,2.673437014e-13,5.440404119e-13,5.085015195e-13,2.547988132e-13,3.715256697e-14,3.900395194e-13,3.466300053e-13,3.105425211e-13,9.187788949e-14,1.2504726e-13,6.576417201e-14,5.817002578e-14,5.021816064e-14,1.134303858e-13,5.07524128e-14,1.980416883e-13,1.694992474e-13,2.324438146e-13,7.243934862e-14,3.699343878e-14,3.191814296e-13,3.645682244e-13,2.660791268e-14,1.748218953e-13,1.244398166e-13,1.772732191e-13
1.1328125,3.090944254e-13,3.074946466e-13,4.953195309e-13,3.089769584e-13,1.66269811e-13,8.714084884e-14,2.581998669e-13,5.416086984e-13,5.031064986e-13,2.55917663e-13,3.797454471e-14,3.89701288e-13,3.425177452e-13,3.060591778e-13,9.532535091e-14,1.27576238e-13,6.663952422e-14,6.061884796e-14,5.358613851e-14,1.179695037e-13,4.987078613e-14,1.985970709e-13,1.692694487e-13,2.138741907e-13,7.000164299e-14,3.69782778e-14,3.261517099e-13,3.665776727e-13,2.723599191e-14,1.754035455e-13,1.244207976e-13,1.704801104e-13
1.140625,3.033677586e-13,3.163970589e-13,4.942328605e-13,3.290658882e-13,1.748788653e-13,9.379381345e-14,2.486736898e-13,5.369963861e-13,4.962878096e-13,2.564014997e-13,3.899833213e-14,3.886211792e-13,3.372737216e-13,3.008034751e-13,9.836354357e-14,1.29541891e-13,6.755748078e-14,6.316059713e-14,5.726973295e-14,1.232816766e-13,4.928162025e-14,1.989062901e-13,1.685540448e-13,1.959488402e-13,6.742521843e-14,3.720696232e-14,3.33232268e-13,3.680654673e-13,2.792856821e-14,1.75321636e-13,1.257047372e-13,1.632155431e-13
1.1484375,2.975381992e-13,3.246837725e-13,4.911018875e-13,3.495640075e-13,1.843222486e-13,1.007881675e-13,2.388783587e-13,5.3013943e-13,4.879646097e-13,2.56136562e-13,4.031668509e-14,3.866260793e-13,3.310307858e-13,2.94662756e-13,1.008883446e-13,1.308593833e-13,6.850691009e-14,6.596756648e-14,6.130442637e-14,1.294759634e-13,4.910111267e-14,1.986023817e-13,1.672627249e-13,1.788917558e-13,6.483840137e-14,3.75987524e-14,3.393958082e-13,3.690638676e-13,2.869830107e-14,1.744508771e-13,1.280672501e-13,1.557124534e-13
1.15625,2.91373966e-13,3.32158337e-13,4.857692333e-13,3.701964983e-13,1.94395967e-13,1.077587742e-13,2.289226763e-13,5.210169764e-13,4.778657254e-13,2.55006468e-13,4.196776527e-14,3.834415985e-13,3.235701765e-13,2.875195792e-13,1.027949843e-13,1.312607595e-13,6.928953057e-14,6.888420571e-14,6.561085506e-14,1.36774483e-13,4.944463318e-14,1.974616804e-13,1.65639027e-13,1.632211847e-13,6.224360609e-14,3.831539288e-14,3.441952923e-13,3.691850569e-13,2.961650668e-14,1.727087528e-13,1.315807779e-13,1.48050106e-13
1.1640625,2.851432314e-13,3.394860511e-13,4.778879244e-13,3.913030498e-13,2.049239697e-13,1.14861911e-13,2.187366799e-13,5.098958803e-13,4.663083287e-13,2.533559737e-13,4.396507519e-14,3.793632575e-13,3.152638633e-13,2.798216433e-13,1.041395961e-13,1.307735426e-13,6.981523166e-14,7.194880104e-14,7.030033087e-14,1.450413992e-13,5.020684848e-14,1.958960136e-13,1.637907161e-13,1.488025429e-13,5.953834146e-14,3.931183377e-14,3.481297129e-13,3.684948679e-13,3.075079928e-14,1.703263788e-13,1.361951357e-13,1.400019574e-13
1.171875,2.793346339e-13,3.467585553e-13,4.676142093e-13,4.13025958e-13,2.158777804e-13,1.222577471e-13,2.082291648e-13,4.971785705e-13,4.538415956e-13,2.514097196e-13,4.620059622e-14,3.749619264e-13,3.065917417e-13,2.718308444e-13,1.049412595e-13,1.295060457e-13,7.003050393e-14,7.533936408e-14,7.53685863e-14,1.539908401e-13,5.126959095e-14,1.946359705e-13,1.617083679e-13,1.352045354e-13,5.67826765e-14,4.038048956e-14,3.510075252e-13,3.670026037e-13,3.204182094e-14,1.673988318e-13,1.41565391e-13,1.315523246e-13
1.1796875,2.738713732e-13,3.538243174e-13,4.553381037e-13,4.355760261e-13,2.272365396e-13,1.299752499e-13,1.976387367e-13,4.829272772e-13,4.406295217e-13,2.488785572e-13,4.876854696e-14,3.701655259e-13,2.974375667e-13,2.636173277e-13,1.052034804e-13,1.27660285e-13,7.009605647e-14,7.901250866e-14,8.07297711e-14,1.636851277e-13,5.26368851e-14,1.93371188e-13,1.594406414e-13,1.219868032e-13,5.408947023e-14,4.151553654e-14,3.526064827e-13,3.646357173e-13,3.340206201e-14,1.637404247e-13,1.475749909e-13,1.228757736e-13
1.1875,2.68880641e-13,3.609382452e-13,4.416834349e-13,4.589843848e-13,2.386498278e-13,1.378308642e-13,1.874659562e-13,4.675596092e-13,4.271704424e-13,2.457226492e-13,5.180421649e-14,3.648968866e-13,2.878286133e-13,2.556273594e-13,1.04980194e-13,1.25510008e-13,7.021740247e-14,8.294326975e-14,8.64870086e-14,1.738191085e-13,5.430144332e-14,1.91950234e-13,1.569671286e-13,1.095666647e-13,5.129316164e-14,4.273581636e-14,3.529253543e-13,3.615854954e-13,3.487389156e-14,1.595041045e-13,1.540685831e-13,1.140508873e-13
1.1953125,2.644621028e-13,3.678016244e-13,4.269855037e-13,4.823308162e-13,2.496520942e-13,1.454506313e-13,1.780070014e-13,4.512388068e-13,4.136799126e-13,2.421233253e-13,5.513599194e-14,3.593160586e-13,2.779267969e-13,2.479998866e-13,1.040975604e-13,1.228676392e-13,7.044080561e-14,8.692553073e-14,9.2475157e-14,1.840362472e-13,5.626247683e-14,1.908215171e-13,1.543524624e-13,9.838280653e-14,4.834318022e-14,4.396958236e-14,3.515014612e-13,3.577815947e-13,3.640841232e-14,1.548789998e-13,1.60745382e-13,1.052921099e-13
1.203125,2.601609963e-13,3.741457182e-13,4.112256455e-13,5.054709827e-13,2.601740105e-13,1.528606496e-13,1.692109461e-13,4.338651434e-13,3.99797229e-13,2.380920772e-13,5.858431147e-14,3.532638863e-13,2.677306103e-13,2.40509797e-13,1.026047547e-13,1.197331956e-13,7.091767057e-14,9.078673489e-14,9.849419057e-14,1.946767412e-13,5.852408988e-14,1.894414478e-13,1.517093881e-13,8.822069616e-14,4.535914698e-14,4.516224694e-14,3.481978533e-13,3.53230705e-13,3.796971383e-14,1.498080409e-13,1.676998539e-13,9.670251245e-14
1.2109375,2.563254507e-13,3.806200667e-13,3.951468809e-13,5.291950772e-13,2.703755462e-13,1.60300972e-13,1.612698176e-13,4.162069519e-13,3.859224737e-13,2.337638397e-13,6.220299293e-14,3.468103233e-13,2.576285576e-13,2.335258831e-13,1.009219638e-13,1.167601651e-13,7.21656324e-14,9.471759562e-14,1.046673532e-13,2.059605422e-13,6.107855023e-14,1.876804579e-13,1.490064098e-13,7.942808011e-14,4.235306557e-14,4.629161705e-14,3.435608395e-13,3.481967118e-13,3.968938062e-14,1.44448228e-13,1.751257819e-13,8.83216289e-14
1.21875,2.533222332e-13,3.87749593e-13,3.793481416e-13,5.535203646e-13,2.802554228e-13,1.67819589e-13,1.543539891e-13,3.987583892e-13,3.72931919e-13,2.294801979e-13,6.61798114e-14,3.406173755e-13,2.483188955e-13,2.277170262e-13,9.907431391e-14,1.140933179e-13,7.426660549e-14,9.874426986e-14,1.110287988e-13,2.175457505e-13,6.390332674e-14,1.860399304e-13,1.462776666e-13,7.213010841e-14,3.935947706e-14,4.729897701e-14,3.381146362e-13,3.430906133e-13,4.164196189e-14,1.390731133e-13,1.829327213e-13,8.046577605e-14
1.2265625,2.508131503e-13,3.953962939e-13,3.639871814e-13,5.780848116e-13,2.895899749e-13,1.753096659e-13,1.484613138e-13,3.813017858e-13,3.612425267e-13,2.252905176e-13,7.056037056e-14,3.351177071e-13,2.400149132e-13,2.233711132e-13,9.706891342e-14,1.114131271e-13,7.680017223e-14,1.027409856e-13,1.173891994e-13,2.287915626e-13,6.691415126e-14,1.844321927e-13,1.436523937e-13,6.60222647e-14,3.645318974e-14,4.804192887e-14,3.315329775e-13,3.380956396e-13,4.375103836e-14,1.337909999e-13,1.907448199e-13,7.329837136e-14
1.234375,2.485880717e-13,4.031462299e-13,3.495255616e-13,6.025324508e-13,2.979599255e-13,1.824983789e-13,1.438067395e-13,3.642188671e-13,3.508459567e-13,2.209857083e-13,7.506889107e-14,3.299355881e-13,2.323643202e-13,2.203326261e-13,9.50701116e-14,1.088289817e-13,7.994458067e-14,1.066884256e-13,1.234719253e-13,2.393537806e-13,7.00308868e-14,1.829075405e-13,1.411675469e-13,6.110487148e-14,3.374087384e-14,4.851222796e-14,3.231950161e-13,3.328408347e-13,4.581779492e-14,1.286276003e-13,1.980666366e-13,6.693505015e-14
1.2421875,2.463277053e-13,4.108500138e-13,3.357849017e-13,6.260667756e-13,3.049297017e-13,1.890072387e-13,1.402627584e-13,3.480955635e-13,3.414659183e-13,2.168158431e-13,7.946862288e-14,3.244812459e-13,2.250027238e-13,2.180374458e-13,9.295565702e-14,1.064366471e-13,8.374568375e-14,1.104991158e-13,1.291506181e-13,2.493833402e-13,7.320558397e-14,1.815871652e-13,1.387349231e-13,5.721206153e-14,3.124978701e-14,4.887384677e-14,3.136752125e-13,3.272355502e-13,4.777049678e-14,1.236689562e-13,2.048384673e-13,6.150220714e-14
1.25,2.439012581e-13,4.188334362e-13,3.222246454e-13,6.481318047e-13,3.10490161e-13,1.947264349e-13,1.372450063e-13,3.327632827e-13,3.327933574e-13,2.13112654e-13,8.392102037e-14,3.187503439e-13,2.178753533e-13,2.159362125e-13,9.064537934e-14,1.039301886e-13,8.799800837e-14,1.140734054e-13,1.344927521e-13,2.586424996e-13,7.634171144e-14,1.805515306e-13,1.362304547e-13,5.403539324e-14,2.883766802e-14,4.913147286e-14,3.036825283e-13,3.215464375e-13,4.978739954e-14,1.189625213e-13,2.112547145e-13,5.665337838e-14
1.2578125,2.41380824e-13,4.271916624e-13,3.093302739e-13,6.68982844e-13,3.147101286e-13,1.999234755e-13,1.347254133e-13,3.178910541e-13,3.248488769e-13,2.096521639e-13,8.851285511e-14,3.131049533e-13,2.113493445e-13,2.144132222e-13,8.840283499e-14,1.013100964e-13,9.288474676e-14,1.17391801e-13,1.394198025e-13,2.666685492e-13,7.928305953e-14,1.799194779e-13,1.337399483e-13,5.15557454e-14,2.649045806e-14,4.916754408e-14,2.932048742e-13,3.160160934e-13,5.190974353e-14,1.144264662e-13,2.170693249e-13,5.213237173e-14
1.265625,2.385185776e-13,4.356232064e-13,2.980521998e-13,6.880326781e-13,3.169607277e-13,2.043303856e-13,1.33152164e-13,3.038397185e-13,3.179936085e-13,2.063394707e-13,9.295122964e-14,3.076513846e-13,2.056301566e-13,2.140916991e-13,8.644162751e-14,9.888309235e-14,9.808642957e-14,1.202309594e-13,1.436045361e-13,2.732537966e-13,8.189914597e-14,1.794502674e-13,1.313467757e-13,4.981141137e-14,2.430882009e-14,4.896130775e-14,2.824096022e-13,3.107960652e-13,5.401381395e-14,1.101277342e-13,2.218484221e-13,4.807447206e-14
1.2734375,2.35187405e-13,4.439723154e-13,2.88449542e-13,7.038031696e-13,3.169508879e-13,2.074062632e-13,1.323732062e-13,2.909907737e-13,3.123111163e-13,2.034093719e-13,9.720541035e-14,3.023564069e-13,2.002809131e-13,2.145165354e-13,8.453647857e-14,9.644477714e-14,1.033211292e-13,1.222018642e-13,1.467450191e-13,2.781663382e-13,8.415339079e-14,1.793867301e-13,1.287970795e-13,4.875535858e-14,2.226500176e-14,4.85808636e-14,2.71138654e-13,3.055833131e-13,5.605016263e-14,1.062834633e-13,2.255431089e-13,4.448866876e-14
1.28125,2.313413855e-13,4.522982032e-13,2.800862945e-13,7.166854926e-13,3.154468873e-13,2.095828295e-13,1.320545245e-13,2.791912792e-13,3.076490749e-13,2.008352589e-13,1.015405612e-13,2.97371606e-13,1.951709982e-13,2.153075977e-13,8.266639514e-14,9.379965463e-14,1.089275824e-13,1.233463629e-13,1.488197497e-13,2.815256277e-13,8.605407119e-14,1.802950941e-13,1.260027767e-13,4.829559503e-14,2.030760961e-14,4.810004691e-14,2.59367304e-13,3.002241479e-13,5.796503104e-14,1.029157934e-13,2.284022614e-13,4.138317276e-14
1.2890625,2.270121735e-13,4.606654161e-13,2.731018246e-13,7.275113904e-13,3.126599493e-13,2.11155287e-13,1.32258021e-13,2.685988174e-13,3.042535978e-13,1.984513729e-13,1.05856931e-13,2.927465695e-13,1.906608189e-13,2.165906419e-13,8.110470348e-14,9.130519167e-14,1.151586993e-13,1.239743426e-13,1.499215307e-13,2.838532031e-13,8.757108915e-14,1.817924183e-13,1.232232973e-13,4.836298786e-14,1.846652044e-14,4.752305618e-14,2.47740332e-13,2.949611165e-13,5.977142092e-14,9.988399562e-14,2.306071501e-13,3.886092146e-14
1.296875,2.222854247e-13,4.688012564e-13,2.67493133e-13,7.35419276e-13,3.082178963e-13,2.117485264e-13,1.326637471e-13,2.592820249e-13,3.020109995e-13,1.962139094e-13,1.099846045e-13,2.882263906e-13,1.865334104e-13,2.179206985e-13,7.972722038e-14,8.926964564e-14,1.222832147e-13,1.241104209e-13,1.499845031e-13,2.855934741e-13,8.865296972e-14,1.831529381e-13,1.204238072e-13,4.915080978e-14,1.676786648e-14,4.690751858e-14,2.367811639e-13,2.899081093e-13,6.150099417e-14,9.71358623e-14,2.321614781e-13,3.695192835e-14
1.3046875,2.167451346e-13,4.764013475e-13,2.628080218e-13,7.402432218e-13,3.023631345e-13,2.116151302e-13,1.327663066e-13,2.507798675e-13,3.002329535e-13,1.940403338e-13,1.141043955e-13,2.837388956e-13,1.823093795e-13,2.18946846e-13,7.846056037e-14,8.787968764e-14,1.304535981e-13,1.238368828e-13,1.489411397e-13,2.86554255e-13,8.917335539e-14,1.838270919e-13,1.173087528e-13,5.041891008e-14,1.520697432e-14,4.62750689e-14,2.269651973e-13,2.854335381e-13,6.299830628e-14,9.469831747e-14,2.330380478e-13,3.560434858e-14
1.3125,2.102714332e-13,4.836399617e-13,2.590628266e-13,7.421977981e-13,2.951866956e-13,2.109021642e-13,1.325649686e-13,2.433932593e-13,2.989633694e-13,1.918374851e-13,1.182497462e-13,2.794458135e-13,1.779995919e-13,2.195930414e-13,7.732143978e-14,8.715755344e-14,1.395760512e-13,1.231421585e-13,1.467093677e-13,2.859380435e-13,8.894332115e-14,1.833710363e-13,1.139407726e-13,5.17963338e-14,1.381546033e-14,4.55010391e-14,2.182886298e-13,2.818345717e-13,6.416277633e-14,9.254212928e-14,2.332529547e-13,3.469504528e-14
1.3203125,2.029945595e-13,4.903229338e-13,2.56017106e-13,7.406096925e-13,2.865153499e-13,2.091118432e-13,1.320509185e-13,2.377021541e-13,2.984971588e-13,1.896583426e-13,1.223990661e-13,2.750842013e-13,1.735555702e-13,2.193560105e-13,7.605331086e-14,8.67834858e-14,1.495505218e-13,1.216901436e-13,1.431536218e-13,2.840517078e-13,8.803882394e-14,1.817987758e-13,1.105226708e-13,5.36569405e-14,1.258115046e-14,4.468108366e-14,2.106068109e-13,2.787527682e-13,6.500110885e-14,9.058136041e-14,2.327966802e-13,3.426581909e-14
1.328125,1.946970083e-13,4.962619361e-13,2.530524598e-13,7.357981633e-13,2.768786045e-13,2.0626862e-13,1.310736403e-13,2.333825004e-13,2.984678576e-13,1.875976647e-13,1.269688045e-13,2.704259955e-13,1.687281568e-13,2.180396045e-13,7.468161839e-14,8.664262278e-14,1.605378739e-13,1.198177726e-13,1.385890039e-13,2.822209342e-13,8.671928052e-14,1.793006175e-13,1.068458036e-13,5.600657271e-14,1.139739473e-14,4.403948164e-14,2.041737934e-13,2.758891363e-13,6.558639206e-14,8.88126069e-14,2.320059622e-13,3.439626729e-14
1.3359375,1.859696367e-13,5.023958491e-13,2.50577226e-13,7.284612036e-13,2.669886406e-13,2.028189284e-13,1.296248503e-13,2.30026427e-13,2.987269128e-13,1.857742455e-13,1.320373488e-13,2.661355015e-13,1.637380978e-13,2.16056138e-13,7.351018512e-14,8.705178381e-14,1.727740359e-13,1.181175762e-13,1.33478208e-13,2.807105166e-13,8.49894476e-14,1.763755513e-13,1.027485188e-13,5.849615966e-14,1.026463941e-14,4.364562075e-14,1.99140848e-13,2.734608617e-13,6.623207386e-14,8.740293163e-14,2.316397244e-13,3.486920362e-14
1.34375,1.775464864e-13,5.09266493e-13,2.489778584e-13,7.189497005e-13,2.571148099e-13,1.990770786e-13,1.275936272e-13,2.275733021e-13,2.995719986e-13,1.843250686e-13,1.372644277e-13,2.628509334e-13,1.590403303e-13,2.136518902e-13,7.270389476e-14,8.822547953e-14,1.858072656e-13,1.165827472e-13,1.278784045e-13,2.792448222e-13,8.276064166e-14,1.734079368e-13,9.848906918e-14,6.111138733e-14,9.281020337e-15,4.3522793e-14,1.958241724e-13,2.718349446e-13,6.710891585e-14,8.645816919e-14,2.32066159e-13,3.549022462e-14
1.3515625,1.692831612e-13,5.165233658e-13,2.476853674e-13,7.081977127e-13,2.475618659e-13,1.952198859e-13,1.249958836e-13,2.26089209e-13,3.011459118e-13,1.831160859e-13,1.430252452e-13,2.603778534e-13,1.545756944e-13,2.107484663e-13,7.21593272e-14,8.997537518e-14,1.991650482e-13,1.153319018e-13,1.219357245e-13,2.781391179e-13,8.019737793e-14,1.69926342e-13,9.410185108e-14,6.393153669e-14,8.417056335e-15,4.360448439e-14,1.940445283e-13,2.710248081e-13,6.816400061e-14,8.58425859e-14,2.334546829e-13,3.640077217e-14
1.359375,1.610071695e-13,5.242398887e-13,2.467844521e-13,6.968577304e-13,2.387380065e-13,1.914262298e-13,1.219528025e-13,2.256629337e-13,3.033989106e-13,1.819306285e-13,1.496211987e-13,2.585587537e-13,1.501027477e-13,2.073487087e-13,7.181961597e-14,9.224991602e-14,2.128332074e-13,1.145602226e-13,1.159197014e-13,2.775074801e-13,7.746275576e-14,1.661626177e-13,8.942530364e-14,6.696094607e-14,7.589474656e-15,4.386783458e-14,1.93382646e-13,2.709404113e-13,6.951854353e-14,8.549270361e-14,2.362577037e-13,3.781316115e-14
1.3671875,1.529607777e-13,5.32834555e-13,2.466302616e-13,6.852178052e-13,2.307136549e-13,1.879465776e-13,1.183484533e-13,2.261208605e-13,3.062493108e-13,1.808308695e-13,1.565538928e-13,2.576266342e-13,1.458677156e-13,2.037229147e-13,7.199203333e-14,9.528467866e-14,2.267288262e-13,1.145623234e-13,1.100341006e-13,2.773858033e-13,7.443678496e-14,1.631748354e-13,8.471437455e-14,6.978710797e-14,6.832705402e-15,4.443780365e-14,1.941164716e-13,2.718001199e-13,7.131388006e-14,8.548791092e-14,2.406602115e-13,3.963241349e-14
1.375,1.455614694e-13,5.424835038e-13,2.467199604e-13,6.734751781e-13,2.235587762e-13,1.846339527e-13,1.143569121e-13,2.272874999e-13,3.096209885e-13,1.797948003e-13,1.638783874e-13,2.576035133e-13,1.421407472e-13,2.000189924e-13,7.259272938e-14,9.899266331e-14,2.407176542e-13,1.157404334e-13,1.045433075e-13,2.783199524e-13,7.116396748e-14,1.610989341e-13,8.016293137e-14,7.247095139e-14,6.190712704e-15,4.536530583e-14,1.959907522e-13,2.734970047e-13,7.359890577e-14,8.573688999e-14,2.467174666e-13,4.164752373e-14
1.3828125,1.385769589e-13,5.526774149e-13,2.468503104e-13,6.616353833e-13,2.175213396e-13,1.812820303e-13,1.101829184e-13,2.290632492e-13,3.133884349e-13,1.786385382e-13,1.719943328e-13,2.583233285e-13,1.387412243e-13,1.961114705e-13,7.325744701e-14,1.031720861e-13,2.543589712e-13,1.179202437e-13,9.954066677e-14,2.806150547e-13,6.792108921e-14,1.59575986e-13,7.550372629e-14,7.553067685e-14,5.635320375e-15,4.66732413e-14,1.986058126e-13,2.756546405e-13,7.635464875e-14,8.613968695e-14,2.546711211e-13,4.391677114e-14
1.390625,1.318055034e-13,5.630471907e-13,2.472168839e-13,6.501208334e-13,2.125940057e-13,1.781337905e-13,1.05701114e-13,2.313359238e-13,3.174735519e-13,1.773838945e-13,1.807474539e-13,2.596951086e-13,1.354657959e-13,1.919277001e-13,7.404284136e-14,1.077617826e-13,2.675362322e-13,1.210430568e-13,9.507721477e-14,2.841046892e-13,6.468222836e-14,1.585539541e-13,7.0706899e-14,7.866459785e-14,5.16509472e-15,4.842662944e-14,2.021907386e-13,2.783462283e-13,7.954901249e-14,8.675289973e-14,2.646419542e-13,4.649600919e-14
1.3984375,1.256452161e-13,5.737244707e-13,2.476512463e-13,6.393002018e-13,2.088581386e-13,1.753194169e-13,1.010629011e-13,2.34222764e-13,3.218522688e-13,1.760311105e-13,1.902595555e-13,2.615262042e-13,1.323069332e-13,1.872629838e-13,7.49403334e-14,1.125946853e-13,2.804831117e-13,1.251861555e-13,9.125207845e-14,2.884571724e-13,6.142104769e-14,1.581835591e-13,6.608255883e-14,8.162611109e-14,4.789818478e-15,5.056291023e-14,2.063061648e-13,2.815725764e-13,8.312149626e-14,8.753321253e-14,2.763473537e-13,4.928411431e-14
1.40625,1.199242652e-13,5.842362953e-13,2.479109501e-13,6.293226122e-13,2.065820879e-13,1.727979416e-13,9.647021784e-14,2.376928871e-13,3.263844755e-13,1.744587153e-13,2.009063716e-13,2.636643732e-13,1.293163313e-13,1.819260336e-13,7.592641918e-14,1.17606215e-13,2.926199178e-13,1.302476238e-13,8.819350972e-14,2.932922154e-13,5.834689026e-14,1.587072832e-13,6.165010166e-14,8.460677154e-14,4.490907889e-15,5.29519797e-14,2.102183724e-13,2.848726817e-13,8.694103411e-14,8.836269164e-14,2.894811928e-13,5.225212154e-14
1.4140625,1.147128933e-13,5.94518031e-13,2.47925177e-13,6.205552295e-13,2.057746416e-13,1.706294113e-13,9.196305554e-14,2.415330362e-13,3.310356435e-13,1.727987453e-13,2.126298939e-13,2.663873209e-13,1.266313339e-13,1.763290549e-13,7.706557904e-14,1.227992771e-13,3.037037567e-13,1.366146382e-13,8.618084424e-14,2.984766759e-13,5.552207855e-14,1.60785276e-13,5.72824763e-14,8.759040658e-14,4.256934142e-15,5.56552966e-14,2.139496282e-13,2.879483758e-13,9.122023904e-14,8.929297812e-14,3.043679095e-13,5.540588585e-14
1.421875,1.10409435e-13,6.046356348e-13,2.480119397e-13,6.13096223e-13,2.062591129e-13,1.68793571e-13,8.764739068e-14,2.457046137e-13,3.358483695e-13,1.711509286e-13,2.2541821e-13,2.698151992e-13,1.242735569e-13,1.708150088e-13,7.813886104e-14,1.280017627e-13,3.140222927e-13,1.443667283e-13,8.515562597e-14,3.039120292e-13,5.286768136e-14,1.654094693e-13,5.304202246e-14,9.045602032e-14,4.068607719e-15,5.868273337e-14,2.173409997e-13,2.907068744e-13,9.607928703e-14,9.043952568e-14,3.208408946e-13,5.867684077e-14
1.4296875,1.066250898e-13,6.134420489e-13,2.484212494e-13,6.06435487e-13,2.076078335e-13,1.670169801e-13,8.368220794e-14,2.502183936e-13,3.405928184e-13,1.69270894e-13,2.394071574e-13,2.733744971e-13,1.219282006e-13,1.650301805e-13,7.883603493e-14,1.328271039e-13,3.228259295e-13,1.528098288e-13,8.481491188e-14,3.091454123e-13,5.034448539e-14,1.727834582e-13,4.890879591e-14,9.279325193e-14,3.918511882e-15,6.163755894e-14,2.19529396e-13,2.927843669e-13,1.010929635e-13,9.170597847e-14,3.378910897e-13,6.189232096e-14
1.4375,1.0326519e-13,6.206520478e-13,2.490145977e-13,6.004717776e-13,2.095815603e-13,1.650820532e-13,8.025352721e-14,2.552841063e-13,3.45228977e-13,1.671717281e-13,2.544306859e-13,2.769149568e-13,1.194742181e-13,1.589148968e-13,7.898290352e-14,1.368877424e-13,3.29310485e-13,1.614964151e-13,8.523837415e-14,3.135035052e-13,4.80884407e-14,1.831283033e-13,4.487678147e-14,9.448255073e-14,3.826665932e-15,6.426181243e-14,2.200928539e-13,2.94014206e-13,1.061505646e-13,9.299899238e-14,3.553139002e-13,6.511050418e-14
1.4453125,1.006072171e-13,6.269107302e-13,2.49875842e-13,5.963233603e-13,2.126420875e-13,1.633109941e-13,7.73958178e-14,2.607329773e-13,3.500888536e-13,1.651164021e-13,2.702543509e-13,2.80970178e-13,1.173464969e-13,1.531582106e-13,7.883011255e-14,1.405251623e-13,3.339051921e-13,1.708111028e-13,8.667326598e-14,3.168854727e-13,4.626257956e-14,1.974758215e-13,4.12427999e-14,9.601061207e-14,3.773838275e-15,6.690174115e-14,2.195420025e-13,2.946572136e-13,1.115387395e-13,9.445279486e-14,3.734937896e-13,6.865540923e-14
1.453125,9.870195606e-14,6.321673165e-13,2.512044686e-13,5.941674681e-13,2.168455941e-13,1.618799987e-13,7.519738142e-14,2.659675151e-13,3.551447072e-13,1.630546461e-13,2.866192579e-13,2.855690179e-13,1.15763968e-13,1.480690884e-13,7.860985126e-14,1.441923174e-13,3.372831153e-13,1.8117377e-13,8.908562291e-14,3.195796863e-13,4.482948394e-14,2.164244836e-13,3.810702749e-14,9.751895191e-14,3.784542121e-15,6.976489013e-14,2.180206025e-13,2.945202438e-13,1.173081949e-13,9.615246952e-14,3.923998261e-13,7.244777218e-14
1.4609375,9.769819329e-14,6.360995909e-13,2.531625357e-13,5.924087379e-13,2.213496509e-13,1.602579767e-13,7.375290244e-14,2.714748192e-13,3.600850639e-13,1.609834437e-13,3.033357198e-13,2.904550224e-13,1.142651275e-13,1.430736651e-13,7.789191722e-14,1.472449657e-13,3.389146228e-13,1.917116831e-13,9.205949041e-14,3.210743416e-13,4.371326859e-14,2.404148523e-13,3.520675455e-14,9.892352817e-14,3.964374079e-15,7.246692612e-14,2.148964262e-13,2.934076601e-13,1.230953454e-13,9.820246445e-14,4.114209893e-13,7.629732897e-14
1.46875,9.733319105e-14,6.3802486e-13,2.556657152e-13,5.904877404e-13,2.256881139e-13,1.582023537e-13,7.297374078e-14,2.779180775e-13,3.64899541e-13,1.589659919e-13,3.204515845e-13,2.955290846e-13,1.125780633e-13,1.379407314e-13,7.653268906e-14,1.491074397e-13,3.380182514e-13,2.016171233e-13,9.536206243e-14,3.209137501e-13,4.289009979e-14,2.698884147e-13,3.252946305e-14,1.002534487e-13,4.294442403e-15,7.488455777e-14,2.102723154e-13,2.916791087e-13,1.285881206e-13,1.006412108e-13,4.299041122e-13,8.039517423e-14
1.4765625,9.751722415e-14,6.380588549e-13,2.586106671e-13,5.890669801e-13,2.301010825e-13,1.560319842e-13,7.299103454e-14,2.850312759e-13,3.69943203e-13,1.56894523e-13,3.374586362e-13,3.010232776e-13,1.11266433e-13,1.334502769e-13,7.499417985e-14,1.501780034e-13,3.352129376e-13,2.116038768e-13,9.929305507e-14,3.194538432e-13,4.238143928e-14,3.049824635e-13,3.027887641e-14,1.013850563e-13,4.740788111e-15,7.735262767e-14,2.04956306e-13,2.893328725e-13,1.341028185e-13,1.033022625e-13,4.481006784e-13,8.473555151e-14
1.484375,9.878779045e-14,6.369787107e-13,2.62486298e-13,5.880492445e-13,2.344433413e-13,1.53787455e-13,7.39323674e-14,2.930146489e-13,3.756770677e-13,1.549725851e-13,3.538809722e-13,3.0759616e-13,1.107202375e-13,1.299164583e-13,7.324971035e-14,1.506641083e-13,3.309828399e-13,2.218277748e-13,1.037501802e-13,3.167580358e-13,4.214718307e-14,3.464098792e-13,2.84554391e-14,1.022311842e-13,5.388609317e-15,7.966999909e-14,1.988703579e-13,2.863417025e-13,1.396166943e-13,1.063845756e-13,4.657513135e-13,8.914367152e-14
1.4921875,1.011755547e-13,6.338232168e-13,2.67429907e-13,5.865657679e-13,2.380400136e-13,1.512268654e-13,7.571622441e-14,3.022730132e-13,3.820611532e-13,1.533842334e-13,3.701402094e-13,3.151152546e-13,1.104067644e-13,1.268587631e-13,7.086827133e-14,1.50262135e-13,3.250641636e-13,2.310629677e-13,1.079705391e-13,3.125409593e-13,4.206215361e-14,3.951999816e-13,2.689848923e-14,1.03066179e-13,6.236531529e-15,8.137899996e-14,1.914586318e-13,2.829719476e-13,1.444477664e-13,1.10159267e-13,4.81453255e-13,9.367157466e-14
1.5,1.044885744e-13,6.283029324e-13,2.73247507e-13,5.842567862e-13,2.408750436e-13,1.484168072e-13,7.831497753e-14,3.128144133e-13,3.888973684e-13,1.520701165e-13,3.86269385e-13,3.234425935e-13,1.101801642e-13,1.245535883e-13,6.795891715e-14,1.489573066e-13,3.176202643e-13,2.387818298e-13,1.117268671e-13,3.069203421e-13,4.216971633e-14,4.52023981e-13,2.554104712e-14,1.042444976e-13,7.246791504e-15,8.274324618e-14,1.831305398e-13,2.793876583e-13,1.486227822e-13,1.145176708e-13,4.951696554e-13,9.842688612e-14
1.5078125,1.085870004e-13,6.219475281e-13,2.79850667e-13,5.81801115e-13,2.435073726e-13,1.457691771e-13,8.166916423e-14,3.247773118e-13,3.969099529e-13,1.512494285e-13,4.019473178e-13,3.336481595e-13,1.108472445e-13,1.235555238e-13,6.492679795e-14,1.471069048e-13,3.08680953e-13,2.455673457e-13,1.154269471e-13,3.003366581e-13,4.252146801e-14,5.171710725e-13,2.451740866e-14,1.055628573e-13,8.488665561e-15,8.397110549e-14,1.744821769e-13,2.760947956e-13,1.52465096e-13,1.194202625e-13,5.074675122e-13,1.035752601e-13
1.515625,1.135722459e-13,6.148464141e-13,2.870271235e-13,5.791183457e-13,2.45642228e-13,1.433487613e-13,8.57881635e-14,3.383278293e-13,4.068745094e-13,1.511268284e-13,4.171169629e-13,3.463013821e-13,1.126761773e-13,1.238958734e-13,6.171654017e-14,1.447574945e-13,2.983909045e-13,2.514494369e-13,1.189479811e-13,2.930202707e-13,4.300746631e-14,5.907852957e-13,2.388680487e-14,1.069207443e-13,1.005060857e-14,8.466338867e-14,1.654356167e-13,2.734753939e-13,1.558199954e-13,1.249866679e-13,5.174948108e-13,1.091135633e-13
1.5234375,1.198387154e-13,6.062379176e-13,2.948816689e-13,5.749473297e-13,2.465955473e-13,1.407152686e-13,9.066318207e-14,3.540747881e-13,4.186097376e-13,1.518076848e-13,4.315310306e-13,3.61053721e-13,1.150563542e-13,1.254656642e-13,5.810795834e-14,1.415197103e-13,2.866553631e-13,2.555335249e-13,1.217656126e-13,2.84868083e-13,4.359681243e-14,6.731431625e-13,2.355707151e-14,1.086827199e-13,1.192692817e-14,8.47534353e-14,1.560474291e-13,2.712507239e-13,1.585742424e-13,1.313435977e-13,5.246987847e-13,1.148622775e-13
1.53125,1.270886914e-13,5.966163947e-13,3.030939796e-13,5.692185055e-13,2.467649429e-13,1.377800284e-13,9.607912685e-14,3.724249686e-13,4.321314357e-13,1.533829333e-13,4.449818114e-13,3.777807097e-13,1.181178171e-13,1.281637648e-13,5.429305294e-14,1.376175976e-13,2.731859791e-13,2.577835748e-13,1.239698968e-13,2.758021529e-13,4.431341822e-14,7.644983265e-13,2.349678836e-14,1.106685375e-13,1.416761022e-14,8.456166626e-14,1.466804241e-13,2.693667955e-13,1.607225562e-13,1.384341239e-13,5.296429819e-13,1.211049324e-13
1.5390625,1.352388779e-13,5.871733178e-13,3.114557648e-13,5.627695314e-13,2.468472509e-13,1.348417035e-13,1.020448277e-13,3.928761681e-13,4.480290866e-13,1.557656527e-13,4.572019691e-13,3.971226863e-13,1.228373396e-13,1.325854973e-13,5.064835887e-14,1.339173411e-13,2.591542398e-13,2.591098815e-13,1.258386331e-13,2.663538468e-13,4.513934264e-14,8.647972289e-13,2.367529671e-14,1.128664636e-13,1.689352494e-14,8.408066028e-14,1.379962662e-13,2.685855208e-13,1.623715601e-13,1.46278506e-13,5.328470173e-13,1.282234494e-13
1.546875,1.445485377e-13,5.781249753e-13,3.207625139e-13,5.558522824e-13,2.467008807e-13,1.320536817e-13,1.087821478e-13,4.155199314e-13,4.665762444e-13,1.589788196e-13,4.682932575e-13,4.197318064e-13,1.292757293e-13,1.391916492e-13,4.722858115e-14,1.305262964e-13,2.451890363e-13,2.591946189e-13,1.270606954e-13,2.574970316e-13,4.61031571e-14,9.734629914e-13,2.412922191e-14,1.159473235e-13,2.008483552e-14,8.309762589e-14,1.304609388e-13,2.694984134e-13,1.633311727e-13,1.551080226e-13,5.341086847e-13,1.362772245e-13
1.5546875,1.547180181e-13,5.689813016e-13,3.308876808e-13,5.48515835e-13,2.463180951e-13,1.294996845e-13,1.161920016e-13,4.407040085e-13,4.874743638e-13,1.630993886e-13,4.787648136e-13,4.451229331e-13,1.368684744e-13,1.474702932e-13,4.404893892e-14,1.271057475e-13,2.309352543e-13,2.574842756e-13,1.274667615e-13,2.499248632e-13,4.727488176e-14,1.090025395e-12,2.490583428e-14,1.199223719e-13,2.37899626e-14,8.181777128e-14,1.240244669e-13,2.718520053e-13,1.632669008e-13,1.647300918e-13,5.333936178e-13,1.453969792e-13
1.5625,1.655188328e-13,5.598199476e-13,3.406246298e-13,5.406431957e-13,2.46181646e-13,1.270368034e-13,1.238627425e-13,4.678782442e-13,5.100918535e-13,1.682099566e-13,4.886209866e-13,4.727062184e-13,1.457372223e-13,1.57235123e-13,4.126528445e-14,1.237347508e-13,2.169405398e-13,2.547411471e-13,1.273099072e-13,2.440934239e-13,4.864104961e-14,1.214230286e-12,2.588254358e-14,1.243894283e-13,2.811052762e-14,8.056964992e-14,1.188940908e-13,2.754257608e-13,1.625541674e-13,1.748220235e-13,5.31647659e-13,1.554014702e-13
1.5703125,1.765728901e-13,5.504494484e-13,3.496107857e-13,5.320766566e-13,2.462457945e-13,1.243824359e-13,1.316397736e-13,4.96753599e-13,5.344621217e-13,1.743124967e-13,4.980987377e-13,5.026232912e-13,1.564115056e-13,1.688061488e-13,3.881429598e-14,1.204562077e-13,2.031872321e-13,2.511447103e-13,1.26487349e-13,2.399300884e-13,5.01384274e-14,1.345296412e-12,2.703110644e-14,1.295933918e-13,3.308260319e-14,7.921442367e-14,1.152050781e-13,2.805183682e-13,1.614112549e-13,1.853065626e-13,5.29084214e-13,1.661535786e-13
1.578125,1.874963767e-13,5.410545287e-13,3.582178302e-13,5.231225515e-13,2.466139047e-13,1.215180872e-13,1.397553647e-13,5.274273796e-13,5.611001677e-13,1.811858171e-13,5.071142028e-13,5.350405283e-13,1.689777396e-13,1.824512571e-13,3.684966466e-14,1.173755492e-13,1.896166522e-13,2.46477942e-13,1.250129055e-13,2.374181076e-13,5.192222942e-14,1.481878009e-12,2.83629117e-14,1.360255886e-13,3.870343076e-14,7.780020336e-14,1.131534619e-13,2.877162345e-13,1.596966599e-13,1.960669721e-13,5.257214068e-13,1.782209674e-13
1.5859375,1.980172775e-13,5.32103366e-13,3.660005468e-13,5.143932914e-13,2.479632531e-13,1.185613892e-13,1.480632364e-13,5.591353489e-13,5.890577025e-13,1.88789043e-13,5.151167306e-13,5.692487696e-13,1.827044481e-13,1.97646737e-13,3.545803901e-14,1.147805719e-13,1.769858478e-13,2.410846274e-13,1.231377328e-13,2.375568824e-13,5.412217166e-14,1.621584585e-12,2.980592463e-14,1.436236108e-13,4.487171657e-14,7.655596525e-14,1.127795832e-13,2.971145506e-13,1.57468337e-13,2.068905573e-13,5.223276398e-13,1.914634752e-13
1.59375,2.074535535e-13,5.22713675e-13,3.72278392e-13,5.059434664e-13,2.502160469e-13,1.157204666e-13,1.562419252e-13,5.907750031e-13,6.168533151e-13,1.970447158e-13,5.226002038e-13,6.039674699e-13,1.975107801e-13,2.135806748e-13,3.435744598e-14,1.126516031e-13,1.650755874e-13,2.345104245e-13,1.205063724e-13,2.407994377e-13,5.657388368e-14,1.76176333e-12,3.140661065e-14,1.521233362e-13,5.165314356e-14,7.528961322e-14,1.136858268e-13,3.083548316e-13,1.546364055e-13,2.173999463e-13,5.186091812e-13,2.051281042e-13
1.6015625,2.154375251e-13,5.126629883e-13,3.773923661e-13,4.968828234e-13,2.529639832e-13,1.129667703e-13,1.644052426e-13,6.222255402e-13,6.444925469e-13,2.05688828e-13,5.297815436e-13,6.387465771e-13,2.139411094e-13,2.30326201e-13,3.373007325e-14,1.108121136e-13,1.535197676e-13,2.262410205e-13,1.16953919e-13,2.4689866e-13,5.928934235e-14,1.900495646e-12,3.312219733e-14,1.617568836e-13,5.907666729e-14,7.38990917e-14,1.160549925e-13,3.21495317e-13,1.512736088e-13,2.273619627e-13,5.141886985e-13,2.193301061e-13
1.609375,2.219829491e-13,5.026445885e-13,3.818224292e-13,4.870758997e-13,2.564889818e-13,1.099518301e-13,1.725099638e-13,6.535845649e-13,6.719626107e-13,2.14567435e-13,5.363430929e-13,6.732560933e-13,2.313156229e-13,2.47750779e-13,3.369847643e-14,1.093469746e-13,1.424987311e-13,2.166703618e-13,1.128453443e-13,2.56089036e-13,6.242846466e-14,2.035222176e-12,3.485925059e-14,1.728502467e-13,6.70647795e-14,7.247654225e-14,1.197485959e-13,3.364955179e-13,1.47486206e-13,2.36791725e-13,5.094556213e-13,2.342576138e-13
1.6171875,2.271986859e-13,4.92891391e-13,3.85537676e-13,4.777126686e-13,2.613678618e-13,1.067270634e-13,1.805501421e-13,6.839300582e-13,6.98339924e-13,2.23617421e-13,5.4218459e-13,7.066922912e-13,2.493265695e-13,2.65657966e-13,3.410125749e-14,1.083885645e-13,1.322494252e-13,2.064166447e-13,1.08330629e-13,2.689509596e-13,6.601540874e-14,2.163607107e-12,3.67608838e-14,1.855573565e-13,7.554604841e-14,7.12112096e-14,1.243209395e-13,3.530585348e-13,1.434045302e-13,2.456573548e-13,5.05026571e-13,2.498393136e-13
1.625,2.312201043e-13,4.838725558e-13,3.881716192e-13,4.694955346e-13,2.679928132e-13,1.035046491e-13,1.884935914e-13,7.121471349e-13,7.228628884e-13,2.329281346e-13,5.467690605e-13,7.38512257e-13,2.683864278e-13,2.839914844e-13,3.500350864e-14,1.081842884e-13,1.236520439e-13,1.9607338e-13,1.03573433e-13,2.866770092e-13,7.007968149e-14,2.284883537e-12,3.892344952e-14,1.999598015e-13,8.424694574e-14,7.031736283e-14,1.298961266e-13,3.710395021e-13,1.393901405e-13,2.538922527e-13,5.017558622e-13,2.66034944e-13
1.6328125,2.337709987e-13,4.755809693e-13,3.895819679e-13,4.62223415e-13,2.762624399e-13,1.002598143e-13,1.958523863e-13,7.37634197e-13,7.447092239e-13,2.422993625e-13,5.498835077e-13,7.67811363e-13,2.880041939e-13,3.02110356e-13,3.638597142e-14,1.090750095e-13,1.168474136e-13,1.857431866e-13,9.862794876e-14,3.095714394e-13,7.450431481e-14,2.397291726e-12,4.125937958e-14,2.15827569e-13,9.326159298e-14,6.972410373e-14,1.363086804e-13,3.903352275e-13,1.355022289e-13,2.61238827e-13,4.996023811e-13,2.824744903e-13
1.640625,2.347914462e-13,4.675409268e-13,3.900998922e-13,4.555266348e-13,2.85913666e-13,9.704986358e-14,2.027328599e-13,7.601209439e-13,7.635266504e-13,2.513608643e-13,5.514268817e-13,7.936040508e-13,3.081626936e-13,3.197293203e-13,3.825138213e-14,1.108679536e-13,1.113509035e-13,1.753743259e-13,9.340446829e-14,3.367584929e-13,7.916488778e-14,2.497821622e-12,4.367279497e-14,2.328981109e-13,1.026719767e-13,6.947821213e-14,1.43252566e-13,4.10875447e-13,1.319452861e-13,2.674682879e-13,4.98385751e-13,2.992152404e-13
1.6484375,2.345083322e-13,4.595354271e-13,3.898275013e-13,4.492628165e-13,2.966695524e-13,9.381024395e-14,2.094805742e-13,7.793367944e-13,7.79460715e-13,2.601342748e-13,5.514960118e-13,8.156167827e-13,3.289374564e-13,3.366584639e-13,4.064723933e-14,1.133530409e-13,1.075628287e-13,1.652135505e-13,8.802296935e-14,3.682063871e-13,8.41545775e-14,2.585954594e-12,4.606352485e-14,2.514185945e-13,1.120225758e-13,6.96497912e-14,1.504969264e-13,4.32389275e-13,1.28826374e-13,2.726264748e-13,4.981696507e-13,3.160734021e-13
1.65625,2.326081572e-13,4.512006996e-13,3.884366023e-13,4.436118765e-13,3.083100899e-13,9.043050016e-14,2.157562538e-13,7.944539836e-13,7.911547176e-13,2.683349759e-13,5.508649497e-13,8.330064015e-13,3.490686731e-13,3.521963169e-13,4.335489655e-14,1.16378082e-13,1.05599643e-13,1.554422965e-13,8.258740805e-14,4.037100681e-13,8.945128659e-14,2.662009587e-12,4.840174035e-14,2.7127809e-13,1.212925116e-13,7.018630851e-14,1.576695959e-13,4.538307793e-13,1.259394364e-13,2.764082218e-13,4.986374851e-13,3.318169045e-13
1.6640625,2.29016992e-13,4.421704235e-13,3.860913608e-13,4.386624929e-13,3.21108677e-13,8.725820165e-14,2.213846612e-13,8.052363398e-13,7.975558655e-13,2.755081225e-13,5.492830714e-13,8.446240734e-13,3.678961777e-13,3.657199906e-13,4.613744292e-14,1.199997471e-13,1.059440191e-13,1.463085369e-13,7.719475102e-14,4.432285973e-13,9.49646708e-14,2.722723769e-12,5.071011708e-14,2.914904147e-13,1.305564964e-13,7.111932573e-14,1.646602524e-13,4.74214724e-13,1.234682449e-13,2.784760457e-13,4.998039026e-13,3.462850025e-13
1.671875,2.238129266e-13,4.318574797e-13,3.840863745e-13,4.341490763e-13,3.347185023e-13,8.464897981e-14,2.267369884e-13,8.122751842e-13,7.996049918e-13,2.816510113e-13,5.46523532e-13,8.507825947e-13,3.858195117e-13,3.768946618e-13,4.916856204e-14,1.247586563e-13,1.089884159e-13,1.376303134e-13,7.183042857e-14,4.869645081e-13,1.007104455e-13,2.765028222e-12,5.291899091e-14,3.120408696e-13,1.39451149e-13,7.227916787e-14,1.713629347e-13,4.937345519e-13,1.213181427e-13,2.791195956e-13,5.011064539e-13,3.599351739e-13
1.6796875,2.166070427e-13,4.201957273e-13,3.831065907e-13,4.297383636e-13,3.483949717e-13,8.253900662e-14,2.31985076e-13,8.15128459e-13,7.97144882e-13,2.866893154e-13,5.4310049e-13,8.520089901e-13,4.024262226e-13,3.856372725e-13,5.246008379e-14,1.301411683e-13,1.138563095e-13,1.292185487e-13,6.648804179e-14,5.337800997e-13,1.065780812e-13,2.788566296e-12,5.505600762e-14,3.33466099e-13,1.478647607e-13,7.379896928e-14,1.77427621e-13,5.121422008e-13,1.194613483e-13,2.784814871e-13,5.022199318e-13,3.721134368e-13
1.6875,2.078961239e-13,4.08062713e-13,3.826165969e-13,4.256727328e-13,3.625531889e-13,8.105116512e-14,2.368895697e-13,8.132179352e-13,7.892291337e-13,2.904956388e-13,5.385638377e-13,8.480018304e-13,4.167758027e-13,3.919432922e-13,5.565143031e-14,1.358208411e-13,1.210363048e-13,1.217804877e-13,6.146601308e-14,5.83743906e-13,1.124030055e-13,2.791768591e-12,5.727922261e-14,3.549359511e-13,1.557099484e-13,7.597997161e-14,1.827351227e-13,5.286653669e-13,1.183171669e-13,2.764639076e-13,5.039767871e-13,3.825036223e-13
1.6953125,1.983035996e-13,3.955662594e-13,3.826400272e-13,4.224557261e-13,3.772706228e-13,8.052095789e-14,2.41190318e-13,8.068061348e-13,7.760902367e-13,2.929971233e-13,5.328661695e-13,8.384711979e-13,4.288861693e-13,3.956619162e-13,5.884473867e-14,1.424292861e-13,1.313442925e-13,1.15756152e-13,5.693485799e-14,6.3707147e-13,1.180413859e-13,2.772682545e-12,5.957186354e-14,3.755163456e-13,1.627563841e-13,7.856049374e-14,1.872883753e-13,5.431038787e-13,1.180079183e-13,2.731266414e-13,5.060290266e-13,3.909205613e-13
1.703125,1.878022824e-13,3.826348015e-13,3.835580554e-13,4.199444856e-13,3.918612867e-13,8.107753822e-14,2.44779617e-13,7.960192217e-13,7.582173929e-13,2.940959239e-13,5.264650106e-13,8.236130314e-13,4.396939502e-13,3.97068673e-13,6.213900578e-14,1.495197314e-13,1.442882318e-13,1.110960649e-13,5.275259084e-14,6.923791006e-13,1.233256794e-13,2.731393858e-12,6.181774794e-14,3.954261423e-13,1.689944319e-13,8.141835081e-14,1.91063968e-13,5.551041364e-13,1.186890631e-13,2.685669495e-13,5.075053728e-13,3.969576596e-13
1.7109375,1.768938037e-13,3.695822453e-13,3.848600465e-13,4.179634861e-13,4.061857094e-13,8.282187578e-14,2.4791188e-13,7.810898685e-13,7.361849638e-13,2.938009511e-13,5.191660275e-13,8.042504877e-13,4.492702269e-13,3.969823975e-13,6.529090418e-14,1.567776364e-13,1.597313521e-13,1.077093773e-13,4.875050893e-14,7.495512365e-13,1.282755263e-13,2.670203592e-12,6.401566455e-14,4.151598342e-13,1.743455883e-13,8.454251642e-14,1.938695738e-13,5.644087889e-13,1.202676171e-13,2.630713925e-13,5.081947152e-13,4.009811864e-13
1.71875,1.656797739e-13,3.560082415e-13,3.858396968e-13,4.162905762e-13,4.195840584e-13,8.573731291e-14,2.503785666e-13,7.623197774e-13,7.100602092e-13,2.918072122e-13,5.110616751e-13,7.808078224e-13,4.566168284e-13,3.953050865e-13,6.832745172e-14,1.645360162e-13,1.771647017e-13,1.055618144e-13,4.510261305e-14,8.068719786e-13,1.326535639e-13,2.591952731e-12,6.614895425e-14,4.339799586e-13,1.786716877e-13,8.763514648e-14,1.955422535e-13,5.706862051e-13,1.225463765e-13,2.567273194e-13,5.073862208e-13,4.023890621e-13
1.7265625,1.542160677e-13,3.419292616e-13,3.867921833e-13,4.144835291e-13,4.315380943e-13,8.994352188e-14,2.515651297e-13,7.400307201e-13,6.798366862e-13,2.879925652e-13,5.022433375e-13,7.532807398e-13,4.617687892e-13,3.916601839e-13,7.141607792e-14,1.725852596e-13,1.961247071e-13,1.051770197e-13,4.210468962e-14,8.615296374e-13,1.360781491e-13,2.49776581e-12,6.807659153e-14,4.507907057e-13,1.819000996e-13,9.074715693e-14,1.966219676e-13,5.736729495e-13,1.258000909e-13,2.495361511e-13,5.048501109e-13,4.004272552e-13
1.734375,1.431951961e-13,3.277698125e-13,3.877314002e-13,4.133852346e-13,4.429722592e-13,9.587206441e-14,2.518607726e-13,7.152532529e-13,6.468191876e-13,2.827704095e-13,4.929897276e-13,7.220112161e-13,4.652071825e-13,3.863265706e-13,7.451746267e-14,1.810285947e-13,2.172214515e-13,1.066508852e-13,3.971379269e-14,9.150287613e-13,1.3888676e-13,2.390388822e-12,6.9754208e-14,4.658438944e-13,1.84042362e-13,9.395783368e-14,1.971942024e-13,5.736823269e-13,1.299174742e-13,2.417146918e-13,5.011154763e-13,3.963161555e-13
1.7421875,1.327015341e-13,3.133653016e-13,3.884757729e-13,4.140047485e-13,4.540324223e-13,1.037314261e-13,2.514657354e-13,6.889871484e-13,6.120547079e-13,2.760952507e-13,4.838404871e-13,6.880396808e-13,4.663684878e-13,3.793404177e-13,7.754791012e-14,1.901550058e-13,2.400308763e-13,1.093812375e-13,3.783347221e-14,9.672405369e-13,1.411923625e-13,2.274400345e-12,7.130353494e-14,4.794268125e-13,1.853232183e-13,9.691338863e-14,1.969973613e-13,5.710960759e-13,1.345184313e-13,2.333868599e-13,4.959882133e-13,3.90346147e-13
1.75,1.228235281e-13,2.987651671e-13,3.896220458e-13,4.159531148e-13,4.638886598e-13,1.135180857e-13,2.499161905e-13,6.613225376e-13,5.753107249e-13,2.679140476e-13,4.745942217e-13,6.525231508e-13,4.644764672e-13,3.70688206e-13,8.047989422e-14,1.993725419e-13,2.630566386e-13,1.132078073e-13,3.633269649e-14,1.013480891e-12,1.424489337e-13,2.152146002e-12,7.269139424e-14,4.909615702e-13,1.857684819e-13,9.96107389e-14,1.962605341e-13,5.660554145e-13,1.396345069e-13,2.248333633e-13,4.892829825e-13,3.814775598e-13
1.7578125,1.137006062e-13,2.841448576e-13,3.906156152e-13,4.189272927e-13,4.727148657e-13,1.250754668e-13,2.471806893e-13,6.326388099e-13,5.367398825e-13,2.585613473e-13,4.651565742e-13,6.150422776e-13,4.594542543e-13,3.600004179e-13,8.312947148e-14,2.081481717e-13,2.861444889e-13,1.183525641e-13,3.517873217e-14,1.052512411e-12,1.426630935e-13,2.024537118e-12,7.375074332e-14,4.996677635e-13,1.853743142e-13,1.02384704e-13,1.950088958e-13,5.586325369e-13,1.454416137e-13,2.160333447e-13,4.813198993e-13,3.703859544e-13
1.765625,1.052024509e-13,2.697805677e-13,3.911148887e-13,4.230198892e-13,4.808688077e-13,1.384187658e-13,2.434523687e-13,6.043213924e-13,4.978872464e-13,2.479838134e-13,4.55692879e-13,5.760314721e-13,4.517861741e-13,3.475582793e-13,8.573522202e-14,2.169778872e-13,3.098553529e-13,1.250008276e-13,3.46156976e-14,1.085756453e-12,1.420864216e-13,1.892806382e-12,7.453761608e-14,5.055974917e-13,1.843594799e-13,1.05050114e-13,1.9394245e-13,5.499269952e-13,1.518054333e-13,2.069024404e-13,4.720230277e-13,3.581387449e-13
1.7734375,9.765309583e-14,2.561426215e-13,3.920084782e-13,4.282829116e-13,4.88090177e-13,1.538358535e-13,2.389101019e-13,5.770270494e-13,4.597019057e-13,2.361505782e-13,4.463737806e-13,5.374543035e-13,4.412970971e-13,3.34567567e-13,8.878264525e-14,2.262040679e-13,3.335062257e-13,1.330633495e-13,3.462337893e-14,1.111851206e-12,1.404711843e-13,1.759228975e-12,7.52431797e-14,5.095030342e-13,1.827044973e-13,1.072177798e-13,1.936289487e-13,5.407028266e-13,1.582632849e-13,1.979366154e-13,4.610959779e-13,3.442473178e-13
1.78125,9.11748381e-14,2.432250245e-13,3.931137226e-13,4.349944796e-13,4.944461605e-13,1.712988266e-13,2.334648048e-13,5.507829649e-13,4.21940633e-13,2.233697939e-13,4.377904281e-13,4.995430873e-13,4.280953703e-13,3.210169059e-13,9.216796158e-14,2.354588331e-13,3.562089889e-13,1.423710736e-13,3.506077445e-14,1.12890618e-12,1.377463141e-13,1.62548087e-12,7.575430522e-14,5.113228299e-13,1.803838328e-13,1.088265474e-13,1.936753152e-13,5.305729904e-13,1.646865788e-13,1.892142055e-13,4.48299837e-13,3.285645154e-13
1.7890625,8.554501552e-14,2.308981112e-13,3.941051044e-13,4.432360648e-13,5.001584243e-13,1.906116362e-13,2.273038167e-13,5.265086626e-13,3.853622654e-13,2.099589462e-13,4.302085659e-13,4.623384961e-13,4.137016739e-13,3.070903297e-13,9.600666688e-14,2.444955963e-13,3.77967867e-13,1.527628054e-13,3.593651473e-14,1.137457648e-12,1.343771844e-13,1.492067677e-12,7.578456811e-14,5.108094617e-13,1.775588879e-13,1.098669051e-13,1.941288443e-13,5.19708315e-13,1.711671566e-13,1.807027161e-13,4.333826802e-13,3.120691412e-13
1.796875,8.060978018e-14,2.190500581e-13,3.946604286e-13,4.526202723e-13,5.050839497e-13,2.11422161e-13,2.205130643e-13,5.048114495e-13,3.506684922e-13,1.960948473e-13,4.238707993e-13,4.264072806e-13,3.98701798e-13,2.934467447e-13,1.005679727e-13,2.535621211e-13,3.988840395e-13,1.637998956e-13,3.716943809e-14,1.138589012e-12,1.305117957e-13,1.36090105e-12,7.545522081e-14,5.083304537e-13,1.743830819e-13,1.101948615e-13,1.950374264e-13,5.083948627e-13,1.773047394e-13,1.726536695e-13,4.160433712e-13,2.95293425e-13
1.8046875,7.629142929e-14,2.075499137e-13,3.942732059e-13,4.628997947e-13,5.09360927e-13,2.335476022e-13,2.126428177e-13,4.852301312e-13,3.175908465e-13,1.817926968e-13,4.191648778e-13,3.918333392e-13,3.827911211e-13,2.80221175e-13,1.057389476e-13,2.63093344e-13,4.184905032e-13,1.753253213e-13,3.875367691e-14,1.131222343e-12,1.259105883e-13,1.235001776e-12,7.492885734e-14,5.045140384e-13,1.710770105e-13,1.096963512e-13,1.965615542e-13,4.973513424e-13,1.82778729e-13,1.650075787e-13,3.964195116e-13,2.784481783e-13
