"Time","Fp1","AF3","F7","F3","FC1","FC5","T7","C3","CP1","CP5","P7","P3","Pz","PO3","O1","Oz","O2","PO4","P4","P8","CP6","CP2","C4","T8","FC6","FC2","F4","F8","AF4","Fp2","Fz","Cz"
0.0078125,1.304776992e-13,5.728252462e-14,1.761984168e-13,1.741459962e-14,5.113200192e-14,8.519700629e-15,3.499209117e-14,3.250824296e-14,8.796191399e-14,9.802603914e-15,1.971542891e-14,6.43232118e-14,5.367774629e-14,7.676164201e-14,1.320622159e-14,5.213345463e-15,3.208019776e-14,1.85055748e-14,1.878374796e-14,1.279925093e-13,2.833449604e-14,1.103415143e-13,6.88265675e-14,7.905687577e-14,4.94179398e-14,2.149300749e-14,9.286638478e-15,1.744302438e-14,2.927013174e-14,1.960642344e-14,2.412739676e-14,9.610656171e-14
0.015625,1.496429758e-13,7.084053627e-14,1.886076211e-13,2.298756118e-14,6.057273625e-14,1.034555589e-14,3.557561256e-14,3.37053858e-14,9.827336436e-14,1.121707028e-14,2.424733006e-14,7.77338293e-14,6.550796877e-14,9.140294543e-14,1.669880653e-14,7.047989364e-15,3.485215427e-14,2.445515785e-14,2.269963104e-14,1.425250547e-13,2.970258341e-14,1.220781803e-13,7.588762155e-14,8.637184275e-14,5.560678453e-14,2.401355216e-14,1.142883399e-14,2.018586737e-14,3.693931855e-14,2.139393015e-14,3.171219457e-14,1.007130038e-13
0.0234375,1.684084527e-13,8.620294877e-14,1.959004967e-13,2.996996183e-14,7.065861895e-14,1.24413828e-14,3.504020145e-14,3.372006439e-14,1.072423769e-13,1.26825544e-14,2.921192978e-14,9.25081166e-14,7.847891551e-14,1.076377927e-13,2.15146814e-14,9.725043309e-15,3.783486237e-14,3.1552195e-14,2.700208732e-14,1.575746669e-13,3.048416426e-14,1.315587998e-13,8.182411447e-14,9.341428142e-14,6.08825994e-14,2.672944789e-14,1.408030012e-14,2.316614144e-14,4.533420221e-14,2.302612713e-14,4.077806361e-14,1.029047319e-13
0.03125,1.861060745e-13,1.033665189e-13,1.977576191e-13,3.841621733e-14,8.122729766e-14,1.476005068e-14,3.35408527e-14,3.269648353e-14,1.148924049e-13,1.417190544e-14,3.485946487e-14,1.082485336e-13,9.228417202e-14,1.25309771e-13,2.797627005e-14,1.366750771e-14,4.1761711e-14,3.98427054e-14,3.158948287e-14,1.73232782e-13,3.079193543e-14,1.38205936e-13,8.66242962e-14,1.001906739e-13,6.489411921e-14,2.991872036e-14,1.742635099e-14,2.659853521e-14,5.412281324e-14,2.467936007e-14,5.12744159e-14,1.033831161e-13
0.0390625,2.016828731e-13,1.222766113e-13,1.953561451e-13,4.820037756e-14,9.182771036e-14,1.713464036e-14,3.165774258e-14,3.070922189e-14,1.21251958e-13,1.568763297e-14,4.100440153e-14,1.247976906e-13,1.064581535e-13,1.446202821e-13,3.635701547e-14,1.923034109e-14,4.705411992e-14,4.889156673e-14,3.631912636e-14,1.89341767e-13,3.082684543e-14,1.413229162e-13,8.986947379e-14,1.068237724e-13,6.745624454e-14,3.367604645e-14,2.151855939e-14,3.041482235e-14,6.27686424e-14,2.64562384e-14,6.298215008e-14,1.022226088e-13
0.046875,2.145743133e-13,1.425909997e-13,1.890369187e-13,5.909185036e-14,1.019057963e-13,1.942578297e-14,2.953547455e-14,2.804323633e-14,1.261903031e-13,1.718235077e-14,4.721636248e-14,1.413461919e-13,1.202839337e-13,1.646553792e-13,4.660028952e-14,2.675321821e-14,5.444927453e-14,5.802091055e-14,4.075387838e-14,2.060134051e-13,3.063454171e-14,1.410768806e-13,9.208273938e-14,1.134405318e-13,6.847204489e-14,3.812853571e-14,2.64601895e-14,3.470447286e-14,7.090916531e-14,2.829255731e-14,7.549191381e-14,1.000947019e-13
0.0546875,2.247623341e-13,1.643503473e-13,1.803187533e-13,7.118298696e-14,1.11581015e-13,2.189798317e-14,2.755082134e-14,2.513871062e-14,1.30069023e-13,1.854561513e-14,5.374345841e-14,1.573123229e-13,1.338539812e-13,1.854446628e-13,5.864245968e-14,3.687416514e-14,6.427943128e-14,6.727305844e-14,4.46462412e-14,2.23095674e-13,3.033555732e-14,1.377040644e-13,9.356845046e-14,1.202945237e-13,6.831960984e-14,4.344347826e-14,3.25826958e-14,3.978373012e-14,7.819889662e-14,3.007415628e-14,8.848407062e-14,9.766672221e-14
0.0625,2.322353497e-13,1.877066805e-13,1.709760837e-13,8.453606086e-14,1.209223795e-13,2.505195889e-14,2.626899213e-14,2.249466354e-14,1.334170348e-13,1.98717063e-14,6.059748676e-14,1.728523159e-13,1.475902349e-13,2.073054297e-13,7.268359811e-14,4.989133251e-14,7.700702106e-14,7.732512407e-14,4.816769721e-14,2.394076418e-13,3.012935937e-14,1.30918201e-13,9.382702515e-14,1.273673031e-13,6.763192659e-14,4.97595544e-14,3.999224939e-14,4.587241793e-14,8.428625726e-14,3.169183033e-14,1.018275209e-13,9.50864451e-14
0.0703125,2.369315306e-13,2.122860161e-13,1.620435272e-13,9.884312267e-14,1.293466538e-13,2.897484919e-14,2.559475324e-14,2.032744877e-14,1.364681432e-13,2.133535316e-14,6.752477387e-14,1.8729698e-13,1.610637789e-13,2.287974821e-13,8.785753577e-14,6.541563616e-14,9.308338741e-14,8.751058569e-14,5.111779886e-14,2.539874959e-13,3.002026776e-14,1.215981008e-13,9.354419622e-14,1.343846136e-13,6.672353315e-14,5.685691086e-14,4.857866886e-14,5.290144125e-14,8.888596939e-14,3.295053933e-14,1.151700515e-13,9.26973447e-14
0.078125,2.389188061e-13,2.353472029e-13,1.54195022e-13,1.136396214e-13,1.364494071e-13,3.374805216e-14,2.557912505e-14,1.889807389e-14,1.392165049e-13,2.302669256e-14,7.442475068e-14,1.995709255e-13,1.731000811e-13,2.481062902e-13,1.03196031e-13,8.33903489e-14,1.123303605e-13,9.728447818e-14,5.298243872e-14,2.659536514e-13,2.990584896e-14,1.105182098e-13,9.326683849e-14,1.410014291e-13,6.601769298e-14,6.443565827e-14,5.843897392e-14,6.059829529e-14,9.16266341e-14,3.376764397e-14,1.276912747e-13,9.045229024e-14
0.0859375,2.384814161e-13,2.541668335e-13,1.476302142e-13,1.290121167e-13,1.420697067e-13,3.977109015e-14,2.605082525e-14,1.82632423e-14,1.419978259e-13,2.498743158e-14,8.11471658e-14,2.098941167e-13,1.832192426e-13,2.638131069e-13,1.171171996e-13,1.02678176e-13,1.336544718e-13,1.062656713e-13,5.352318204e-14,2.743932174e-13,2.965484039e-14,9.804221344e-14,9.293639957e-14,1.467414287e-13,6.585495131e-14,7.211330622e-14,6.938548553e-14,6.880194533e-14,9.209301477e-14,3.408846264e-14,1.386927785e-13,8.828169765e-14
0.09375,2.363163051e-13,2.684340177e-13,1.423303963e-13,1.44587852e-13,1.458150219e-13,4.708560998e-14,2.691447368e-14,1.851107458e-14,1.452071525e-13,2.723707742e-14,8.796144546e-14,2.186842004e-13,1.913085297e-13,2.753228461e-13,1.289438213e-13,1.225580823e-13,1.566483879e-13,1.146088601e-13,5.300042578e-14,2.786659429e-13,2.927674005e-14,8.491182345e-14,9.278174006e-14,1.51258879e-13,6.628404875e-14,7.947496139e-14,8.116055897e-14,7.729792705e-14,9.078901943e-14,3.394814721e-14,1.479514313e-13,8.622603683e-14
0.1015625,2.331991708e-13,2.79503982e-13,1.380027803e-13,1.595670845e-13,1.470569141e-13,5.565075929e-14,2.82742273e-14,1.966471027e-14,1.490394821e-13,2.991209179e-14,9.531013834e-14,2.258576259e-13,1.97743934e-13,2.826274626e-13,1.388700353e-13,1.425555468e-13,1.804260304e-13,1.228230607e-13,5.171632373e-14,2.787759114e-13,2.871042276e-14,7.157975066e-14,9.272255128e-14,1.538590686e-13,6.753654298e-14,8.575152036e-14,9.280776884e-14,8.595589374e-14,8.78627437e-14,3.334625811e-14,1.547224846e-13,8.417427475e-14
0.109375,2.300279114e-13,2.870605965e-13,1.345210953e-13,1.733255609e-13,1.453098287e-13,6.556064232e-14,3.021890624e-14,2.172285874e-14,1.54204368e-13,3.270202975e-14,1.033995607e-13,2.321982709e-13,2.035596409e-13,2.865579516e-13,1.471459822e-13,1.62033003e-13,2.04334672e-13,1.31396581e-13,4.983334683e-14,2.756218406e-13,2.782445244e-14,5.902578458e-14,9.280878538e-14,1.544248753e-13,6.961867471e-14,9.0403572e-14,1.035470629e-13,9.536848569e-14,8.336811765e-14,3.25131751e-14,1.585341943e-13,8.237043121e-14
0.1171875,2.268746973e-13,2.900737304e-13,1.311823371e-13,1.85031506e-13,1.405640705e-13,7.65822851e-14,3.278106223e-14,2.441912221e-14,1.60472969e-13,3.511869142e-14,1.115309977e-13,2.374071679e-13,2.082418625e-13,2.866522628e-13,1.527268409e-13,1.795285504e-13,2.271576919e-13,1.398653431e-13,4.740527757e-14,2.702700408e-13,2.679974894e-14,4.786557212e-14,9.319490592e-14,1.531377918e-13,7.220177352e-14,9.343562066e-14,1.129935879e-13,1.054814047e-13,7.75998098e-14,3.159327417e-14,1.595908913e-13,8.110694357e-14
0.125,2.227448565e-13,2.879704377e-13,1.277416833e-13,1.937928799e-13,1.332532665e-13,8.764686502e-14,3.574062546e-14,2.751003672e-14,1.668250569e-13,3.693315006e-14,1.200299913e-13,2.403106406e-13,2.106512344e-13,2.81625446e-13,1.547336549e-13,1.934845155e-13,2.476636962e-13,1.475821909e-13,4.461904935e-14,2.632007467e-13,2.573000544e-14,3.819145422e-14,9.435056729e-14,1.496943753e-13,7.468453128e-14,9.467296413e-14,1.203205732e-13,1.15552394e-13,7.097511907e-14,3.069343681e-14,1.579216227e-13,8.05514411e-14
0.1328125,2.18100798e-13,2.823806488e-13,1.24949397e-13,1.984277388e-13,1.233314618e-13,9.804534587e-14,3.935446284e-14,3.080185125e-14,1.726695935e-13,3.797796601e-14,1.296098851e-13,2.400944659e-13,2.107104986e-13,2.729356101e-13,1.54523756e-13,2.043812442e-13,2.656571264e-13,1.548616474e-13,4.173863692e-14,2.547632735e-13,2.450611741e-14,3.044976204e-14,9.672417472e-14,1.444390069e-13,7.700345518e-14,9.387147585e-14,1.247918025e-13,1.256145382e-13,6.381889373e-14,2.992781756e-14,1.530615448e-13,8.111013684e-14
0.140625,2.130396891e-13,2.76334628e-13,1.222425078e-13,1.989117777e-13,1.113219472e-13,1.078911196e-13,4.366813881e-14,3.415380306e-14,1.772592154e-13,3.786461637e-14,1.402698774e-13,2.361108851e-13,2.089713026e-13,2.619130858e-13,1.529252902e-13,2.127224858e-13,2.818737557e-13,1.626156809e-13,3.915482346e-14,2.45972908e-13,2.313569611e-14,2.49000738e-14,1.008626126e-13,1.376134056e-13,7.929935443e-14,9.114103434e-14,1.266426204e-13,1.364622094e-13,5.661097369e-14,2.916279139e-14,1.457638459e-13,8.304858411e-14
0.1484375,2.07124062e-13,2.715239716e-13,1.216668452e-13,1.959783331e-13,9.789169065e-14,1.172985282e-13,4.967724158e-14,3.715688461e-14,1.806548361e-13,3.692015839e-14,1.518402672e-13,2.296221672e-13,2.073260723e-13,2.520870109e-13,1.515414199e-13,2.203715881e-13,2.970152483e-13,1.718889303e-13,3.698340872e-14,2.36945012e-13,2.174008447e-14,2.167776508e-14,1.07501311e-13,1.300244037e-13,8.16128927e-14,8.670818301e-14,1.269085695e-13,1.486850072e-13,4.998641115e-14,2.861217536e-14,1.370139184e-13,8.628246525e-14
0.15625,2.006320503e-13,2.687862985e-13,1.22980849e-13,1.900969358e-13,8.41577236e-14,1.26115462e-13,5.747724158e-14,4.006940707e-14,1.831273102e-13,3.548414643e-14,1.640145253e-13,2.217394352e-13,2.063468842e-13,2.448707356e-13,1.510831409e-13,2.284121036e-13,3.120218938e-13,1.830274e-13,3.548360535e-14,2.279706006e-13,2.052676402e-14,2.092840597e-14,1.171338612e-13,1.223191301e-13,8.380442218e-14,8.118709797e-14,1.26200532e-13,1.623339916e-13,4.408725827e-14,2.841385536e-14,1.27255294e-13,9.116886874e-14
0.1640625,1.937150469e-13,2.683494163e-13,1.255084192e-13,1.822547067e-13,7.082510843e-14,1.349187523e-13,6.705718537e-14,4.256859612e-14,1.837088948e-13,3.378995928e-14,1.768850492e-13,2.129010524e-13,2.053609918e-13,2.408194138e-13,1.521735876e-13,2.384439973e-13,3.28719919e-13,1.960291321e-13,3.474826898e-14,2.199169686e-13,1.955245477e-14,2.296052536e-14,1.302692836e-13,1.148873341e-13,8.608749887e-14,7.527949676e-14,1.257988206e-13,1.778034329e-13,3.899786458e-14,2.845689607e-14,1.172600949e-13,9.73965667e-14
0.171875,1.86594441e-13,2.68630662e-13,1.286632969e-13,1.736860544e-13,5.859694197e-14,1.436581471e-13,7.828683684e-14,4.47929601e-14,1.821192094e-13,3.237444658e-14,1.901801928e-13,2.036259863e-13,2.041600886e-13,2.404821011e-13,1.548377879e-13,2.513058171e-13,3.480295537e-13,2.111699842e-13,3.480808713e-14,2.126544542e-13,1.896757334e-14,2.778854724e-14,1.469238738e-13,1.080338465e-13,8.841411725e-14,6.962881442e-14,1.266518285e-13,1.950506744e-13,3.521889183e-14,2.869761451e-14,1.082046823e-13,1.04962833e-13
0.1796875,1.788310008e-13,2.687811479e-13,1.326246819e-13,1.661171504e-13,4.836014413e-14,1.527757166e-13,9.174397267e-14,4.633746632e-14,1.786007874e-13,3.159330427e-14,2.035812606e-13,1.961387745e-13,2.036032514e-13,2.459345944e-13,1.606718649e-13,2.688130451e-13,3.703435935e-13,2.295083798e-13,3.590065592e-14,2.064758373e-13,1.895699224e-14,3.494298137e-14,1.671014335e-13,1.017606269e-13,9.06716487e-14,6.510277771e-14,1.291998942e-13,2.137457812e-13,3.310735678e-14,2.922259618e-14,1.010211447e-13,1.126508266e-13
0.1875,1.69950742e-13,2.679305813e-13,1.387273617e-13,1.601405593e-13,4.054544044e-14,1.626526831e-13,1.073465285e-13,4.727849142e-14,1.733931278e-13,3.138040336e-14,2.164100201e-13,1.923171915e-13,2.042070734e-13,2.58338339e-13,1.698418442e-13,2.911864378e-13,3.948115355e-13,2.507539021e-13,3.79882498e-14,2.011611732e-13,1.948968023e-14,4.451047361e-14,1.904237907e-13,9.625898912e-14,9.300223424e-14,6.2009534e-14,1.340237031e-13,2.341194215e-13,3.256097249e-14,3.020337685e-14,9.61290982e-14,1.192877029e-13
0.1953125,1.6056273e-13,2.651424628e-13,1.450010368e-13,1.556478056e-13,3.471033057e-14,1.729468076e-13,1.238506089e-13,4.807825928e-14,1.675127524e-13,3.203393491e-14,2.281066833e-13,1.921742469e-13,2.056257222e-13,2.75042669e-13,1.806115447e-13,3.153050739e-13,4.190629553e-13,2.726562351e-13,4.08446563e-14,1.967592642e-13,2.062282265e-14,5.643163812e-14,2.153654065e-13,9.096004522e-14,9.542927577e-14,6.022807007e-14,1.405964845e-13,2.555532503e-13,3.374442192e-14,3.149544567e-14,9.335237511e-14,1.24515184e-13
0.203125,1.512065326e-13,2.598481075e-13,1.50725286e-13,1.52697275e-13,3.092441399e-14,1.830631941e-13,1.397093677e-13,4.898188079e-14,1.607829366e-13,3.37322862e-14,2.377874642e-13,1.94414311e-13,2.069273793e-13,2.935594766e-13,1.919270619e-13,3.392313357e-13,4.421794622e-13,2.938118445e-13,4.456600511e-14,1.94421522e-13,2.230167209e-14,7.029739855e-14,2.402976335e-13,8.504984382e-14,9.776770835e-14,5.965749579e-14,1.485942387e-13,2.764069205e-13,3.662271063e-14,3.270531184e-14,9.304933212e-14,1.277203738e-13
0.2109375,1.414039594e-13,2.512017408e-13,1.579909613e-13,1.507681682e-13,2.880884243e-14,1.929329177e-13,1.547694555e-13,4.977509458e-14,1.534897315e-13,3.59945501e-14,2.442326512e-13,1.994849285e-13,2.083562142e-13,3.150593729e-13,2.045554221e-13,3.629616936e-13,4.635263367e-13,3.137433214e-13,4.922308619e-14,1.93127091e-13,2.450846317e-14,8.531015482e-14,2.632847026e-13,7.86749396e-14,1.000326418e-13,6.041029102e-14,1.579154379e-13,2.966897198e-13,4.161542549e-14,3.404161871e-14,9.526286952e-14,1.281940437e-13
0.21875,1.314665754e-13,2.419739087e-13,1.669521719e-13,1.508592638e-13,2.784808571e-14,2.026536327e-13,1.678370455e-13,5.046813097e-14,1.468993903e-13,3.886594675e-14,2.46082387e-13,2.069821165e-13,2.106922023e-13,3.366291591e-13,2.16538731e-13,3.837851029e-13,4.803806273e-13,3.30173539e-13,5.432651457e-14,1.922413438e-13,2.719177163e-14,1.007138553e-13,2.821531866e-13,7.225280906e-14,1.020474324e-13,6.174679114e-14,1.674693707e-13,3.156352328e-13,4.872759577e-14,3.544090874e-14,9.973533654e-14,1.252170883e-13
0.2265625,1.218922207e-13,2.341369114e-13,1.777770373e-13,1.53314938e-13,2.829362669e-14,2.1199819e-13,1.777599157e-13,5.101318103e-14,1.403489095e-13,4.225019063e-14,2.428748369e-13,2.155162041e-13,2.134379137e-13,3.570108108e-13,2.269663137e-13,4.002665152e-13,4.930190264e-13,3.427358656e-13,6.030060566e-14,1.924846969e-13,3.014190224e-14,1.155904117e-13,2.949836713e-13,6.654722006e-14,1.036086704e-13,6.366802392e-14,1.778750998e-13,3.326108165e-13,5.740281123e-14,3.675975527e-14,1.06645716e-13,1.190227234e-13
0.234375,1.128059137e-13,2.276473569e-13,1.917895938e-13,1.572625546e-13,2.992985813e-14,2.20456345e-13,1.842521599e-13,5.156443292e-14,1.339160355e-13,4.606123853e-14,2.339078687e-13,2.248776858e-13,2.166367858e-13,3.768332899e-13,2.364962899e-13,4.117009072e-13,5.010346834e-13,3.510696884e-13,6.724284339e-14,1.927919914e-13,3.316897929e-14,1.290915522e-13,3.006601902e-13,6.18176847e-14,1.046690687e-13,6.596579812e-14,1.888777009e-13,3.472238768e-13,6.716333287e-14,3.803260199e-14,1.152981777e-13,1.106928982e-13
0.2421875,1.045803627e-13,2.233027193e-13,2.086088306e-13,1.627634618e-13,3.238730992e-14,2.278286488e-13,1.8718969e-13,5.262385277e-14,1.279958613e-13,5.068050215e-14,2.197118684e-13,2.34149087e-13,2.204326577e-13,3.953068143e-13,2.449598409e-13,4.16959082e-13,5.030377008e-13,3.540667509e-13,7.498603808e-14,1.931399451e-13,3.616516541e-14,1.405381913e-13,2.989991561e-13,5.809927678e-14,1.051446472e-13,6.808676548e-14,2.000863538e-13,3.588728287e-13,7.741617306e-14,3.920740386e-14,1.25025054e-13,1.012118342e-13
0.25,9.839499856e-14,2.216251039e-13,2.268746524e-13,1.703562164e-13,3.551144997e-14,2.338954809e-13,1.863248813e-13,5.417219079e-14,1.229974893e-13,5.653244833e-14,2.022406551e-13,2.431526906e-13,2.249933448e-13,4.12522394e-13,2.51664824e-13,4.146365405e-13,4.970148735e-13,3.509084117e-13,8.37203837e-14,1.930508926e-13,3.89421576e-14,1.505242367e-13,2.894017481e-13,5.539655026e-14,1.046557395e-13,6.965540048e-14,2.124893522e-13,3.673419631e-13,8.831836711e-14,4.034723551e-14,1.361850012e-13,9.087032173e-14
0.2578125,9.393159839e-14,2.223199032e-13,2.465074607e-13,1.799968644e-13,3.941971712e-14,2.379103542e-13,1.819107629e-13,5.601311872e-14,1.187748101e-13,6.330131553e-14,1.823728681e-13,2.516854502e-13,2.299454125e-13,4.283764515e-13,2.559593969e-13,4.043677534e-13,4.837426193e-13,3.425010606e-13,9.339740448e-14,1.924522334e-13,4.137297228e-14,1.586120323e-13,2.721375478e-13,5.408698699e-14,1.033189539e-13,7.035029253e-14,2.255516854e-13,3.721156112e-13,9.996217568e-14,4.15165985e-14,1.487278687e-13,7.993151727e-14
0.265625,9.067044356e-14,2.250662823e-13,2.652418005e-13,1.908737954e-13,4.440680631e-14,2.392922162e-13,1.749561681e-13,5.814660686e-14,1.146743936e-13,7.090892837e-14,1.619862999e-13,2.590010157e-13,2.34585954e-13,4.428146563e-13,2.584594103e-13,3.907444881e-13,4.678741328e-13,3.313616243e-13,1.038250382e-13,1.918896063e-13,4.359079104e-14,1.650499189e-13,2.503537536e-13,5.485576354e-14,1.011240546e-13,7.103681869e-14,2.39684403e-13,3.725462555e-13,1.119891703e-13,4.249109225e-14,1.618953693e-13,7.006335517e-14
0.2734375,8.895295869e-14,2.289595275e-13,2.820857262e-13,2.025700678e-13,5.015627338e-14,2.378207461e-13,1.666857776e-13,6.094197172e-14,1.107806627e-13,7.946992922e-14,1.441591776e-13,2.6502204e-13,2.391680999e-13,4.563659179e-13,2.592779853e-13,3.749711827e-13,4.495251586e-13,3.183183715e-13,1.146720655e-13,1.916420676e-13,4.580100436e-14,1.706275806e-13,2.258533031e-13,5.665747248e-14,9.838698302e-14,7.149048331e-14,2.546753162e-13,3.690875695e-13,1.24447633e-13,4.340260182e-14,1.752405024e-13,6.177367726e-14
0.28125,8.859991545e-14,2.334616187e-13,2.969317133e-13,2.153194068e-13,5.683739541e-14,2.342040619e-13,1.572002788e-13,6.42664205e-14,1.073908158e-13,8.856407948e-14,1.306052541e-13,2.698147741e-13,2.433046295e-13,4.690089761e-13,2.584968012e-13,3.580923537e-13,4.302281898e-13,3.049985554e-13,1.258712429e-13,1.92733011e-13,4.780159201e-14,1.762431192e-13,2.006724996e-13,5.902102013e-14,9.538185253e-14,7.151141318e-14,2.696540803e-13,3.61837004e-13,1.376542294e-13,4.442895442e-14,1.884139078e-13,5.526836599e-14
0.2890625,8.983857635e-14,2.375563258e-13,3.070254344e-13,2.279796114e-13,6.428245044e-14,2.284964232e-13,1.46853743e-13,6.851209819e-14,1.036211598e-13,9.776617749e-14,1.228025353e-13,2.723485552e-13,2.463267094e-13,4.80069252e-13,2.567323731e-13,3.414119576e-13,4.110696633e-13,2.928035315e-13,1.372855248e-13,1.949638643e-13,4.946470633e-14,1.817044692e-13,1.771834034e-13,6.041064007e-14,9.199615837e-14,7.135923818e-14,2.844998524e-13,3.516882245e-13,1.515799431e-13,4.554703864e-14,2.009682171e-13,5.042553683e-14
0.296875,9.264926968e-14,2.414257867e-13,3.110778681e-13,2.407205123e-13,7.243230543e-14,2.210268801e-13,1.356861983e-13,7.401364988e-14,1.002157691e-13,1.070723262e-13,1.205291032e-13,2.737942703e-13,2.487564453e-13,4.891162442e-13,2.534061287e-13,3.258256451e-13,3.940347375e-13,2.821074062e-13,1.491862468e-13,1.987583692e-13,5.102966109e-14,1.868917181e-13,1.563752117e-13,6.055961771e-14,8.826097591e-14,7.123979456e-14,2.987044641e-13,3.390651287e-13,1.668434666e-13,4.689856797e-14,2.134912337e-13,4.723584625e-14
0.3046875,9.713587207e-14,2.454675909e-13,3.079836099e-13,2.536432826e-13,8.178404885e-14,2.12923047e-13,1.239375017e-13,8.085481435e-14,9.807565464e-14,1.158216865e-13,1.234464887e-13,2.755515625e-13,2.512634903e-13,4.962476951e-13,2.485037981e-13,3.128597525e-13,3.809396489e-13,2.738618948e-13,1.617190282e-13,2.041451221e-13,5.263221708e-14,1.929583883e-13,1.393499131e-13,5.964424092e-14,8.449142121e-14,7.123261532e-14,3.109868799e-13,3.24170333e-13,1.836638122e-13,4.842737257e-14,2.259618005e-13,4.565511555e-14
0.3125,1.03075773e-13,2.486477858e-13,2.976655321e-13,2.657516738e-13,9.180715898e-14,2.05037917e-13,1.122740091e-13,8.978694106e-14,9.707741654e-14,1.238191404e-13,1.312156046e-13,2.775012614e-13,2.532880597e-13,5.008911589e-13,2.429164369e-13,3.023332894e-13,3.700169093e-13,2.671477261e-13,1.74259058e-13,2.114127533e-13,5.452832168e-14,2.000131622e-13,1.262311566e-13,5.778709401e-14,8.06439488e-14,7.122635093e-14,3.207500394e-13,3.07766613e-13,2.013821896e-13,5.009953773e-14,2.374417447e-13,4.521295788e-14
0.3203125,1.100439068e-13,2.511017847e-13,2.817261458e-13,2.765357674e-13,1.022448076e-13,1.981831501e-13,1.010684229e-13,1.015504552e-13,9.752531805e-14,1.310349192e-13,1.425010578e-13,2.799496995e-13,2.541631332e-13,5.01747481e-13,2.370549429e-13,2.951038324e-13,3.610678934e-13,2.614490996e-13,1.870969787e-13,2.214888824e-13,5.72722575e-14,2.072830887e-13,1.166401936e-13,5.503971487e-14,7.69100495e-14,7.168983619e-14,3.27750968e-13,2.897495653e-13,2.201315244e-13,5.188201507e-14,2.480159958e-13,4.603571944e-14
0.328125,1.177252261e-13,2.529628676e-13,2.619286725e-13,2.86478253e-13,1.137751996e-13,1.929964446e-13,9.080118027e-14,1.158610908e-13,9.943997837e-14,1.381973577e-13,1.566953232e-13,2.838280284e-13,2.53999474e-13,4.991520255e-13,2.320244347e-13,2.924391974e-13,3.540895425e-13,2.575781038e-13,2.009838101e-13,2.352622271e-13,6.147973216e-14,2.144322328e-13,1.107980971e-13,5.193344076e-14,7.37042418e-14,7.291527801e-14,3.313687849e-13,2.712058085e-13,2.396907979e-13,5.378967922e-14,2.578973699e-13,4.759431364e-14
0.3359375,1.265269777e-13,2.543181318e-13,2.41084568e-13,2.951174611e-13,1.264367557e-13,1.901158192e-13,8.211054679e-14,1.328743278e-13,1.029843797e-13,1.452253833e-13,1.729391362e-13,2.897982528e-13,2.531067271e-13,4.93833058e-13,2.289490154e-13,2.944629585e-13,3.490813979e-13,2.55559206e-13,2.156425189e-13,2.523745344e-13,6.706094528e-14,2.214414948e-13,1.078978904e-13,4.956487741e-14,7.109296943e-14,7.508633504e-14,3.313713963e-13,2.529667167e-13,2.587974278e-13,5.592860609e-14,2.670243413e-13,4.962107585e-14
0.34375,1.355672121e-13,2.551982613e-13,2.199125396e-13,3.016040785e-13,1.394680804e-13,1.8930424e-13,7.539683048e-14,1.518430657e-13,1.078316388e-13,1.522284265e-13,1.906920408e-13,2.964400561e-13,2.511575558e-13,4.854803194e-13,2.283366086e-13,3.002575437e-13,3.456420916e-13,2.544073894e-13,2.303347414e-13,2.731954134e-13,7.427395946e-14,2.279738151e-13,1.071945077e-13,4.875187242e-14,6.952696311e-14,7.83473432e-14,3.283396923e-13,2.352965016e-13,2.764360553e-13,5.784192095e-14,2.75617183e-13,5.240420097e-14
0.3515625,1.432654332e-13,2.54970339e-13,1.995721326e-13,3.058208848e-13,1.524748844e-13,1.901468266e-13,7.102284419e-14,1.719793849e-13,1.133923288e-13,1.597760544e-13,2.081841304e-13,3.026263639e-13,2.475705558e-13,4.735717611e-13,2.304317343e-13,3.090844916e-13,3.431178503e-13,2.532083442e-13,2.440215886e-13,2.973585123e-13,8.302439085e-14,2.327523088e-13,1.086108188e-13,5.00650167e-14,6.898662775e-14,8.26594355e-14,3.228989437e-13,2.187915773e-13,2.912116826e-13,5.930222835e-14,2.835626609e-13,5.548283969e-14
0.359375,1.487830985e-13,2.547562726e-13,1.804524078e-13,3.074653208e-13,1.64879575e-13,1.923708198e-13,6.929323912e-14,1.916066264e-13,1.18703622e-13,1.678579519e-13,2.238139901e-13,3.067163695e-13,2.42185001e-13,4.583255129e-13,2.340141299e-13,3.186726517e-13,3.394618355e-13,2.513326686e-13,2.560181903e-13,3.238803363e-13,9.303190024e-14,2.349495825e-13,1.116625236e-13,5.406437447e-14,6.931425849e-14,8.804935054e-14,3.16567321e-13,2.036224538e-13,3.021230359e-13,5.993828694e-14,2.908196956e-13,5.898785317e-14
0.3671875,1.520342764e-13,2.565780874e-13,1.624021829e-13,3.061837887e-13,1.756573757e-13,1.94969345e-13,7.003845469e-14,2.093484944e-13,1.231944564e-13,1.760907025e-13,2.373891218e-13,3.07451922e-13,2.343240476e-13,4.396304721e-13,2.378154396e-13,3.259753571e-13,3.305180536e-13,2.478329814e-13,2.655539894e-13,3.522686743e-13,1.040007233e-13,2.344451703e-13,1.15689174e-13,6.065679803e-14,7.009268126e-14,9.42579595e-14,3.108050705e-13,1.903169221e-13,3.083093988e-13,5.976947008e-14,2.974936767e-13,6.300229312e-14
0.375,1.522591173e-13,2.601630811e-13,1.470913003e-13,3.013277488e-13,1.83578836e-13,1.973277475e-13,7.264805268e-14,2.240974268e-13,1.263589101e-13,1.840556454e-13,2.493323507e-13,3.045493372e-13,2.230563761e-13,4.170060252e-13,2.404542267e-13,3.285037873e-13,3.151999542e-13,2.420839545e-13,2.713911219e-13,3.811107471e-13,1.150191146e-13,2.303810356e-13,1.199012849e-13,6.914810605e-14,7.121161867e-14,1.007723603e-13,3.067239473e-13,1.794733981e-13,3.088766147e-13,5.887923648e-14,3.025790782e-13,6.705957626e-14
0.3828125,1.489658323e-13,2.63440665e-13,1.33619427e-13,2.931842155e-13,1.880900299e-13,1.983959715e-13,7.646330204e-14,2.340866707e-13,1.27284172e-13,1.914629166e-13,2.593210821e-13,2.966928614e-13,2.079967276e-13,3.911102268e-13,2.417716943e-13,3.269792247e-13,2.971698493e-13,2.33371807e-13,2.723520838e-13,4.073377102e-13,1.251913688e-13,2.221234261e-13,1.2573824e-13,7.743995951e-14,7.220968076e-14,1.071824863e-13,3.053974519e-13,1.718283643e-13,3.032685885e-13,5.698464829e-14,3.055110128e-13,7.172475968e-14
0.390625,1.416136174e-13,2.64287574e-13,1.220274689e-13,2.823942124e-13,1.887795861e-13,1.969664476e-13,8.137449946e-14,2.382428081e-13,1.258754582e-13,1.975362923e-13,2.673568932e-13,2.839761206e-13,1.89725158e-13,3.617723584e-13,2.395905448e-13,3.175975063e-13,2.746261019e-13,2.204830566e-13,2.677641422e-13,4.283494184e-13,1.341410628e-13,2.077659008e-13,1.332741038e-13,8.463062717e-14,7.233790685e-14,1.12824042e-13,3.063450403e-13,1.676760325e-13,2.921087213e-13,5.424578829e-14,3.061184305e-13,7.681303717e-14
0.3984375,1.317337842e-13,2.647995811e-13,1.127123979e-13,2.704707743e-13,1.855664283e-13,1.920655052e-13,8.665552832e-14,2.376338535e-13,1.237574624e-13,2.027579695e-13,2.735140793e-13,2.683212582e-13,1.702204918e-13,3.295929999e-13,2.327960635e-13,3.001152313e-13,2.48889356e-13,2.043538151e-13,2.581466326e-13,4.434989342e-13,1.413268987e-13,1.883720438e-13,1.428213626e-13,8.985959497e-14,7.134539384e-14,1.169774943e-13,3.089920744e-13,1.663757005e-13,2.772271152e-13,5.135512152e-14,3.043941526e-13,8.238007589e-14
0.40625,1.21366911e-13,2.653345061e-13,1.061502873e-13,2.590597685e-13,1.794600404e-13,1.83428306e-13,9.202121135e-14,2.336872858e-13,1.221846822e-13,2.077057614e-13,2.775690777e-13,2.517089644e-13,1.510593998e-13,2.968296735e-13,2.224609636e-13,2.766388479e-13,2.202648988e-13,1.862532272e-13,2.452599743e-13,4.513957176e-13,1.46691389e-13,1.667143011e-13,1.557825282e-13,9.211370967e-14,6.912408906e-14,1.187571131e-13,3.126723853e-13,1.679293604e-13,2.61367017e-13,4.908643492e-14,3.013019235e-13,8.890252429e-14
0.4140625,1.1141584e-13,2.653605997e-13,1.024900021e-13,2.485502158e-13,1.71665752e-13,1.716388974e-13,9.744549551e-14,2.278323313e-13,1.224560047e-13,2.120510602e-13,2.787299788e-13,2.359585832e-13,1.33441708e-13,2.645887948e-13,2.096797688e-13,2.49573561e-13,1.905246905e-13,1.672289924e-13,2.301557851e-13,4.512223825e-13,1.502267083e-13,1.439543351e-13,1.718624712e-13,9.077660092e-14,6.570848934e-14,1.175425614e-13,3.150839672e-13,1.715052944e-13,2.456516047e-13,4.74992679e-14,2.970407475e-13,9.701584353e-14
0.421875,1.02764878e-13,2.636502737e-13,1.004404646e-13,2.395014006e-13,1.635477109e-13,1.573492622e-13,1.025369753e-13,2.220405698e-13,1.255945128e-13,2.163430974e-13,2.762227941e-13,2.213880573e-13,1.177966977e-13,2.324879916e-13,1.952915661e-13,2.222296919e-13,1.626147745e-13,1.474857662e-13,2.134276288e-13,4.439589887e-13,1.521729984e-13,1.223684078e-13,1.904671038e-13,8.625444707e-14,6.123086224e-14,1.131493273e-13,3.150772679e-13,1.757687026e-13,2.30913505e-13,4.677848504e-14,2.921356759e-13,1.07193779e-13
0.4296875,9.574063046e-14,2.59692307e-13,9.999622617e-14,2.315424962e-13,1.561434635e-13,1.410613584e-13,1.072346885e-13,2.173278736e-13,1.315384862e-13,2.205995216e-13,2.701023428e-13,2.080332773e-13,1.042607711e-13,2.011882455e-13,1.803061274e-13,1.968492866e-13,1.378523577e-13,1.276675179e-13,1.965333526e-13,4.312352094e-13,1.531935744e-13,1.034610616e-13,2.105215208e-13,8.010799901e-14,5.587516157e-14,1.062180711e-13,3.127311145e-13,1.790091903e-13,2.183224847e-13,4.700378729e-14,2.878847705e-13,1.201669194e-13
0.4375,8.98306121e-14,2.546918776e-13,1.010097475e-13,2.244211727e-13,1.507724577e-13,1.22714278e-13,1.112511169e-13,2.137288528e-13,1.39033624e-13,2.235413036e-13,2.59151439e-13,1.957998061e-13,9.280600313e-14,1.714138969e-13,1.644229624e-13,1.740898431e-13,1.155343016e-13,1.090618039e-13,1.806361555e-13,4.142077303e-13,1.536974794e-13,8.799548266e-14,2.305896389e-13,7.318250914e-14,4.987070074e-14,9.766445778e-14,3.077468151e-13,1.800274299e-13,2.078939924e-13,4.786849164e-14,2.85625489e-13,1.364076526e-13
0.4453125,8.423926051e-14,2.493611739e-13,1.021899005e-13,2.183916808e-13,1.484064543e-13,1.036591032e-13,1.143300934e-13,2.094482324e-13,1.460732577e-13,2.238922477e-13,2.445250392e-13,1.838216547e-13,8.328861231e-14,1.446321165e-13,1.483741724e-13,1.542359386e-13,9.699035618e-14,9.265436072e-14,1.667560282e-13,3.953571536e-13,1.54049613e-13,7.551202956e-14,2.494366225e-13,6.634708924e-14,4.379009628e-14,8.86713375e-14,3.015419842e-13,1.779199625e-13,1.99225068e-13,4.844734584e-14,2.855324229e-13,1.549524795e-13
0.453125,7.82073686e-14,2.4386006e-13,1.041464705e-13,2.123218529e-13,1.491404893e-13,8.529747016e-14,1.157772803e-13,2.041572701e-13,1.520403311e-13,2.203249837e-13,2.269927558e-13,1.719059901e-13,7.516106955e-14,1.217192724e-13,1.331881518e-13,1.381681536e-13,8.384304141e-14,7.886902698e-14,1.551818741e-13,3.764034716e-13,1.540936342e-13,6.588732008e-14,2.644930419e-13,6.108435132e-14,3.809499132e-14,8.034062211e-14,2.963568159e-13,1.733547051e-13,1.913973771e-13,4.823336955e-14,2.867913608e-13,1.753444228e-13
0.4609375,7.210293799e-14,2.37579605e-13,1.068466025e-13,2.052143118e-13,1.517570609e-13,6.838335087e-14,1.150579988e-13,1.965339226e-13,1.549247313e-13,2.128118334e-13,2.074573756e-13,1.594126348e-13,6.740340063e-14,1.023156591e-13,1.188974543e-13,1.254259918e-13,7.552845155e-14,6.790578545e-14,1.456042926e-13,3.566330331e-13,1.531025979e-13,5.933535205e-14,2.739703646e-13,5.780622773e-14,3.293089035e-14,7.316170883e-14,2.920378737e-13,1.65853158e-13,1.831711171e-13,4.69771291e-14,2.888542213e-13,1.955597032e-13
0.46875,6.618771226e-14,2.287001341e-13,1.093788235e-13,1.959025196e-13,1.563545316e-13,5.342261648e-14,1.120767259e-13,1.859057717e-13,1.527883079e-13,2.013186562e-13,1.863934511e-13,1.453563794e-13,5.91679205e-14,8.704728398e-14,1.059537871e-13,1.155762884e-13,7.160749479e-14,6.001947544e-14,1.376296243e-13,3.363198178e-13,1.508248057e-13,5.506741038e-14,2.775982112e-13,5.776454831e-14,2.85656523e-14,6.828380359e-14,2.889362629e-13,1.543583897e-13,1.738940387e-13,4.435165431e-14,2.909669703e-13,2.147858364e-13
0.4765625,6.028953294e-14,2.157778964e-13,1.124021807e-13,1.828977985e-13,1.605622012e-13,4.06249833e-14,1.07518166e-13,1.716455472e-13,1.455181835e-13,1.8605689e-13,1.665906355e-13,1.304511075e-13,5.11934755e-14,7.596095506e-14,9.351036602e-14,1.077358171e-13,7.030982376e-14,5.429346889e-14,1.300570044e-13,3.147871137e-13,1.470727922e-13,5.219442719e-14,2.755336786e-13,6.027636311e-14,2.526687883e-14,6.559282374e-14,2.862653428e-13,1.409069492e-13,1.627953969e-13,4.051311294e-14,2.899472457e-13,2.300436129e-13
0.484375,5.457109311e-14,1.994464899e-13,1.177669634e-13,1.671740817e-13,1.629199317e-13,3.012995151e-14,1.015290286e-13,1.54169783e-13,1.344274966e-13,1.678533711e-13,1.504476056e-13,1.156933294e-13,4.395676678e-14,6.790219374e-14,8.036753862e-14,9.949277347e-14,6.96113829e-14,4.918035194e-14,1.21901639e-13,2.920569336e-13,1.41615632e-13,5.017395198e-14,2.676504463e-13,6.564381254e-14,2.308935064e-14,6.416968906e-14,2.826630038e-13,1.276627332e-13,1.498598716e-13,3.599165401e-14,2.841290796e-13,2.399076362e-13
0.4921875,4.910405303e-14,1.815780961e-13,1.244230518e-13,1.501016262e-13,1.63047492e-13,2.199189203e-14,9.453278821e-14,1.349760243e-13,1.204251541e-13,1.481294911e-13,1.389358923e-13,1.011439572e-13,3.732715296e-14,6.20244892e-14,6.762705931e-14,9.105093042e-14,7.001511088e-14,4.481822066e-14,1.129529126e-13,2.693696214e-13,1.346745941e-13,4.86334378e-14,2.549611282e-13,7.382660117e-14,2.182550121e-14,6.394664412e-14,2.773064697e-13,1.150445785e-13,1.360950366e-13,3.099238364e-14,2.743162771e-13,2.439383331e-13
0.5,4.429265017e-14,1.631549204e-13,1.315248767e-13,1.326525793e-13,1.610263745e-13,1.608545041e-14,8.68202411e-14,1.153597233e-13,1.049001956e-13,1.28159401e-13,1.313695867e-13,8.767423836e-14,3.173171285e-14,5.806128817e-14,5.580965362e-14,8.332614582e-14,7.316892866e-14,4.148365364e-14,1.034726963e-13,2.470319451e-13,1.263617614e-13,4.765698305e-14,2.387909493e-13,8.433986404e-14,2.15142234e-14,6.432426552e-14,2.684639396e-13,1.037397171e-13,1.215598052e-13,2.603625823e-14,2.600065e-13,2.417911591e-13
0.5078125,4.018166624e-14,1.452847887e-13,1.397572211e-13,1.154991056e-13,1.560151305e-13,1.22856692e-14,7.896743299e-14,9.698504155e-14,8.931032966e-14,1.088505031e-13,1.272528517e-13,7.586240241e-14,2.690337081e-14,5.482287088e-14,4.526966174e-14,7.661807652e-14,7.976255919e-14,3.861646699e-14,9.291001457e-14,2.251925191e-13,1.165694982e-13,4.784624073e-14,2.200689878e-13,9.651433561e-14,2.203777045e-14,6.437671274e-14,2.552992009e-13,9.438475036e-14,1.071688503e-13,2.167127808e-14,2.419677381e-13,2.336866126e-13
0.515625,3.689716751e-14,1.286999983e-13,1.464087805e-13,1.005429449e-13,1.49505647e-13,1.032699894e-14,7.151222561e-14,8.015093044e-14,7.384631797e-14,9.087902135e-14,1.259816943e-13,6.516947851e-14,2.262491342e-14,5.218091982e-14,3.62626294e-14,7.007310524e-14,8.862462661e-14,3.652590114e-14,8.216300489e-14,2.050970255e-13,1.062595748e-13,4.899581685e-14,2.004618622e-13,1.099491366e-13,2.25870414e-14,6.395305177e-14,2.374913525e-13,8.659547317e-14,9.339222858e-14,1.773698624e-14,2.225129234e-13,2.20038284e-13
0.5234375,3.32627986e-14,1.133199556e-13,1.503358019e-13,8.753848103e-14,1.419831106e-13,9.323427449e-15,6.450418731e-14,6.638628387e-14,5.993736005e-14,7.48979145e-14,1.255048463e-13,5.528614548e-14,1.899066155e-14,4.958998105e-14,2.895867864e-14,6.478031767e-14,1.009080552e-13,3.554483609e-14,7.140516746e-14,1.880955002e-13,9.568784862e-14,5.127751316e-14,1.812556771e-13,1.228456416e-13,2.319266832e-14,6.31464344e-14,2.155397723e-13,8.033261071e-14,8.008025485e-14,1.452320201e-14,2.016442745e-13,2.029236558e-13
0.53125,2.94868645e-14,9.974520516e-14,1.516765152e-13,7.665553915e-14,1.333639931e-13,9.54329076e-15,5.835653672e-14,5.610934569e-14,4.870582021e-14,6.121585602e-14,1.247581262e-13,4.686525044e-14,1.597319506e-14,4.648112887e-14,2.31638257e-14,6.090814813e-14,1.174082821e-13,3.513923639e-14,6.06064941e-14,1.738744895e-13,8.509506239e-14,5.507238023e-14,1.643033465e-13,1.348862049e-13,2.415629999e-14,6.155922183e-14,1.905439726e-13,7.600878097e-14,6.781972159e-14,1.222805588e-14,1.806275124e-13,1.834765988e-13
0.5390625,2.574682112e-14,8.86572556e-14,1.510731939e-13,6.832448054e-14,1.253557643e-13,1.110571462e-14,5.343964741e-14,4.878080618e-14,4.070874077e-14,4.950491789e-14,1.231140293e-13,4.042234392e-14,1.357758644e-14,4.379244689e-14,1.885877153e-14,5.788783097e-14,1.391670162e-13,3.543215884e-14,5.079617179e-14,1.634121706e-13,7.533951367e-14,6.055335954e-14,1.503292567e-13,1.44297989e-13,2.507612193e-14,5.961564396e-14,1.659314545e-13,7.353923293e-14,5.66851937e-14,1.076544139e-14,1.612276523e-13,1.636002969e-13
0.546875,2.267885425e-14,7.958561983e-14,1.479196406e-13,6.212801395e-14,1.179103772e-13,1.328718185e-14,4.973314305e-14,4.475826316e-14,3.625533592e-14,4.000272552e-14,1.20304111e-13,3.578368349e-14,1.190176205e-14,4.133142384e-14,1.565676093e-14,5.492346718e-14,1.655149542e-13,3.556218596e-14,4.178570408e-14,1.560115263e-13,6.639081591e-14,6.802897175e-14,1.388193864e-13,1.509466474e-13,2.569601529e-14,5.732388594e-14,1.424631698e-13,7.238944694e-14,4.68530884e-14,1.009299932e-14,1.435099594e-13,1.44300605e-13
0.5546875,2.043520037e-14,7.183397401e-14,1.424170389e-13,5.802428243e-14,1.12130387e-13,1.550350823e-14,4.683213714e-14,4.390484912e-14,3.554380913e-14,3.233119491e-14,1.160038425e-13,3.259474525e-14,1.086715133e-14,3.881131479e-14,1.342184233e-14,5.164543663e-14,1.944128155e-13,3.520366625e-14,3.401934225e-14,1.517803647e-13,5.864363761e-14,7.730115416e-14,1.294507432e-13,1.536835769e-13,2.570789214e-14,5.526586372e-14,1.206784026e-13,7.228058459e-14,3.890577278e-14,1.008055381e-14,1.283883438e-13,1.275781475e-13
0.5625,1.87304094e-14,6.537816881e-14,1.355311662e-13,5.592799804e-14,1.088799435e-13,1.743293376e-14,4.503674523e-14,4.592157884e-14,3.879485652e-14,2.60076492e-14,1.102566511e-13,3.068543794e-14,1.059816154e-14,3.66355854e-14,1.240937629e-14,4.965912666e-14,2.263846794e-13,3.48943501e-14,2.757787672e-14,1.518534907e-13,5.251113975e-14,8.778565401e-14,1.218766349e-13,1.545502604e-13,2.547027333e-14,5.376598628e-14,1.017672244e-13,7.245337795e-14,3.252478805e-14,1.055611328e-14,1.160355734e-13,1.151463422e-13
0.5703125,1.774132475e-14,5.997857706e-14,1.289067505e-13,5.60473955e-14,1.082514942e-13,1.94742884e-14,4.454198122e-14,5.036228649e-14,4.542712095e-14,2.095286005e-14,1.038135903e-13,3.046597105e-14,1.098855282e-14,3.543102596e-14,1.218597499e-14,4.833154953e-14,2.61520279e-13,3.500142534e-14,2.253486006e-14,1.554432577e-13,4.801653678e-14,9.925496561e-14,1.153699108e-13,1.530141378e-13,2.503916429e-14,5.287531228e-14,8.644956083e-14,7.297851973e-14,2.767510341e-14,1.136808821e-14,1.06716318e-13,1.069762761e-13
0.578125,1.776501168e-14,5.595217084e-14,1.241906455e-13,5.819732318e-14,1.110524217e-13,2.140006226e-14,4.510629516e-14,5.640933366e-14,5.429792486e-14,1.698231917e-14,9.786427205e-14,3.12176431e-14,1.167319917e-14,3.509769826e-14,1.228489728e-14,4.651253502e-14,3.006129685e-13,3.53725995e-14,1.919645406e-14,1.619672224e-13,4.532951271e-14,1.123599228e-13,1.095536936e-13,1.497219883e-13,2.472445321e-14,5.281693451e-14,7.492334502e-14,7.35703171e-14,2.482573631e-14,1.242004042e-14,1.006177962e-13,1.033366154e-13
0.5859375,1.810404016e-14,5.271225574e-14,1.220213381e-13,6.171722705e-14,1.162602349e-13,2.283809339e-14,4.675647857e-14,6.435207155e-14,6.581790171e-14,1.339875249e-14,9.258661448e-14,3.272917072e-14,1.269621432e-14,3.475803986e-14,1.274585827e-14,4.431677429e-14,3.410200316e-13,3.515235209e-14,1.672264157e-14,1.707392191e-13,4.403911951e-14,1.256626169e-13,1.031606461e-13,1.459116942e-13,2.449496418e-14,5.294603788e-14,6.556284055e-14,7.43044422e-14,2.344236801e-14,1.370502068e-14,9.638741999e-14,1.03772777e-13
0.59375,1.91291738e-14,5.070919023e-14,1.21410096e-13,6.678173602e-14,1.236891772e-13,2.39477791e-14,4.925373096e-14,7.358295224e-14,7.869175845e-14,1.060160045e-14,8.728041171e-14,3.491877966e-14,1.38621067e-14,3.419816897e-14,1.337532365e-14,4.247431243e-14,3.788624532e-13,3.457655944e-14,1.488573034e-14,1.809921208e-13,4.388456796e-14,1.389763206e-13,9.581754354e-14,1.421998015e-13,2.437822157e-14,5.332946473e-14,5.844217966e-14,7.488496485e-14,2.329960609e-14,1.517119954e-14,9.439069433e-14,1.066929424e-13
0.6015625,2.05338693e-14,5.048081984e-14,1.215221951e-13,7.343398524e-14,1.33274305e-13,2.515976293e-14,5.263336004e-14,8.283891617e-14,9.16097067e-14,8.662571112e-15,8.228590203e-14,3.739549897e-14,1.518311994e-14,3.405577294e-14,1.426504088e-14,4.128015713e-14,4.112770298e-13,3.415422823e-14,1.396089882e-14,1.920805073e-13,4.507067663e-14,1.524992208e-13,8.80410759e-14,1.397343834e-13,2.451209444e-14,5.402275757e-14,5.406965028e-14,7.487139639e-14,2.466535085e-14,1.673414506e-14,9.496342147e-14,1.111615036e-13
0.609375,2.235345039e-14,5.212262737e-14,1.21659508e-13,8.167173962e-14,1.440865251e-13,2.681137019e-14,5.660002396e-14,9.106383943e-14,1.027705923e-13,7.552983598e-15,7.781022219e-14,3.970327787e-14,1.641327617e-14,3.417164192e-14,1.52970771e-14,4.053379683e-14,4.365746562e-13,3.426347856e-14,1.355778761e-14,2.02278102e-13,4.701849208e-14,1.659817193e-13,7.918760003e-14,1.386363373e-13,2.499045247e-14,5.472067984e-14,5.176579769e-14,7.443809702e-14,2.716452915e-14,1.819664201e-14,9.766287414e-14,1.152235717e-13
0.6171875,2.418313544e-14,5.550074792e-14,1.212247063e-13,9.221149251e-14,1.569423739e-13,2.899169601e-14,6.074993335e-14,9.73633255e-14,1.119433122e-13,7.570463745e-15,7.344818087e-14,4.189645705e-14,1.74279603e-14,3.437232224e-14,1.633859106e-14,4.027457799e-14,4.557008048e-13,3.517886439e-14,1.363114556e-14,2.12394334e-13,4.958927652e-14,1.789461331e-13,7.044438953e-14,1.384410047e-13,2.590785e-14,5.574225381e-14,5.142209867e-14,7.372080494e-14,3.050599037e-14,1.953049508e-14,1.028064159e-13,1.187763025e-13
0.625,2.568800688e-14,6.028054214e-14,1.201231558e-13,1.056285916e-13,1.714444217e-13,3.181484332e-14,6.490613287e-14,1.018354541e-13,1.187005121e-13,8.474391438e-15,6.865808428e-14,4.362311453e-14,1.798602895e-14,3.405169897e-14,1.731344398e-14,4.11751153e-14,4.663026976e-13,3.65449023e-14,1.404029401e-14,2.219847951e-13,5.274762903e-14,1.911312589e-13,6.214109329e-14,1.400886492e-13,2.755534657e-14,5.70856716e-14,5.337519451e-14,7.285458935e-14,3.451324167e-14,2.063322659e-14,1.107948521e-13,1.210480731e-13
0.6328125,2.67970224e-14,6.62987735e-14,1.18212939e-13,1.221524386e-13,1.867484218e-13,3.522380088e-14,6.841181804e-14,1.040820087e-13,1.220916652e-13,1.024619311e-14,6.392511998e-14,4.437479532e-14,1.800119406e-14,3.328046853e-14,1.789968105e-14,4.221859228e-14,4.659746537e-13,3.790574238e-14,1.469584887e-14,2.291099981e-13,5.614380093e-14,2.038075049e-13,5.452439602e-14,1.429834269e-13,3.011189641e-14,5.861756218e-14,5.747080981e-14,7.16049949e-14,3.931189062e-14,2.135736788e-14,1.215012969e-13,1.211463388e-13
0.640625,2.772837269e-14,7.432749058e-14,1.155942722e-13,1.422306009e-13,2.035680783e-13,3.906756832e-14,7.112490045e-14,1.040391091e-13,1.226579735e-13,1.295053448e-14,5.914448839e-14,4.509940074e-14,1.783890738e-14,3.268158501e-14,1.810018129e-14,4.353224819e-14,4.544055307e-13,3.938888609e-14,1.591682705e-14,2.342088279e-13,5.987232724e-14,2.17925641e-13,4.824584584e-14,1.462275948e-13,3.368904611e-14,6.118141259e-14,6.444238411e-14,7.068279335e-14,4.501077388e-14,2.189238552e-14,1.359441757e-13,1.204186231e-13
0.6484375,2.877298051e-14,8.422107745e-14,1.12732791e-13,1.647513017e-13,2.204848139e-13,4.300115691e-14,7.344785656e-14,1.01546305e-13,1.204883048e-13,1.62879551e-14,5.417705352e-14,4.594618385e-14,1.78099844e-14,3.265468261e-14,1.841442469e-14,4.546468137e-14,4.331935483e-13,4.08893183e-14,1.768107054e-14,2.374519875e-13,6.379060802e-14,2.327343281e-13,4.293631674e-14,1.497606067e-13,3.851841375e-14,6.471139362e-14,7.472170048e-14,7.070334385e-14,5.105593518e-14,2.216371612e-14,1.531186544e-13,1.183585562e-13
0.65625,2.969605363e-14,9.48036679e-14,1.088624202e-13,1.882642527e-13,2.364968258e-13,4.676483909e-14,7.519108673e-14,9.722136294e-14,1.160886624e-13,1.988492364e-14,4.92706971e-14,4.587639055e-14,1.787532999e-14,3.28077703e-14,1.896200589e-14,4.858130574e-14,4.067272151e-13,4.243031121e-14,1.987129394e-14,2.38610239e-13,6.764319334e-14,2.484942947e-13,3.880714683e-14,1.522353843e-13,4.441038557e-14,6.880072705e-14,8.804591361e-14,7.12285214e-14,5.709016627e-14,2.204863476e-14,1.715682812e-13,1.157505799e-13
0.6640625,3.056868684e-14,1.059960977e-13,1.030583737e-13,2.110424677e-13,2.504959984e-13,5.040159171e-14,7.5999064e-14,9.168346529e-14,1.099381231e-13,2.362194556e-14,4.454989891e-14,4.481862437e-14,1.796502855e-14,3.266882487e-14,1.981595465e-14,5.32453123e-14,3.777599754e-13,4.371821765e-14,2.237412384e-14,2.382845776e-13,7.135837651e-14,2.647300443e-13,3.606622743e-14,1.526420838e-13,5.066596104e-14,7.338052236e-14,1.044035278e-13,7.17925824e-14,6.299901405e-14,2.128052762e-14,1.907646899e-13,1.125418887e-13
0.671875,3.115785554e-14,1.174666058e-13,9.658182057e-14,2.326753208e-13,2.619456142e-13,5.400950108e-14,7.57212774e-14,8.495670857e-14,1.024113086e-13,2.726702277e-14,4.037208963e-14,4.341025632e-14,1.820711506e-14,3.236153734e-14,2.092732302e-14,5.957153917e-14,3.477421995e-13,4.492343209e-14,2.527044318e-14,2.370618227e-13,7.462316324e-14,2.803759479e-13,3.397526261e-14,1.510199745e-13,5.66544019e-14,7.844959993e-14,1.243256818e-13,7.266952344e-14,6.863373348e-14,2.002215187e-14,2.103189411e-13,1.086460709e-13
0.6796875,3.201719151e-14,1.286095376e-13,9.103470405e-14,2.509803796e-13,2.700793276e-13,5.710333422e-14,7.517151188e-14,7.796989961e-14,9.513060321e-14,3.064513973e-14,3.660081624e-14,4.231220185e-14,1.895199769e-14,3.272116231e-14,2.272942981e-14,6.735590778e-14,3.187138886e-13,4.604721613e-14,2.861884453e-14,2.348616613e-13,7.735930441e-14,2.94616265e-13,3.241448175e-14,1.488487552e-13,6.211598438e-14,8.39117494e-14,1.475328455e-13,7.474929886e-14,7.381883334e-14,1.86858667e-14,2.294105446e-13,1.048453364e-13
0.6875,3.294894043e-14,1.390250521e-13,8.722000012e-14,2.642890581e-13,2.738570626e-13,5.962683607e-14,7.465826794e-14,7.123694028e-14,8.867491201e-14,3.363942583e-14,3.323956527e-14,4.135775666e-14,2.064633441e-14,3.403175851e-14,2.567361007e-14,7.650675737e-14,2.906045484e-13,4.648684831e-14,3.211259338e-14,2.329501198e-13,7.974961276e-14,3.0445265e-13,3.119618281e-14,1.479532928e-13,6.650322084e-14,8.9657286e-14,1.737524272e-13,7.798994865e-14,7.80069521e-14,1.714338816e-14,2.462693804e-13,1.009908537e-13
0.6953125,3.377029172e-14,1.478557632e-13,8.717879799e-14,2.70697052e-13,2.730857651e-13,6.162944516e-14,7.430839409e-14,6.520994204e-14,8.31733339e-14,3.640380197e-14,3.046111702e-14,4.074944196e-14,2.343318217e-14,3.600393673e-14,2.982073814e-14,8.688664777e-14,2.627318749e-13,4.614181069e-14,3.534557266e-14,2.309812035e-13,8.141179338e-14,3.076778395e-13,3.036361397e-14,1.481909245e-13,6.962701813e-14,9.515165181e-14,2.017986233e-13,8.164594322e-14,8.109965265e-14,1.552942917e-14,2.59177423e-13,9.690434438e-14
0.703125,3.42454383e-14,1.545271894e-13,9.10034222e-14,2.706087613e-13,2.682698311e-13,6.340192116e-14,7.409258967e-14,5.979382306e-14,7.821515725e-14,3.872783543e-14,2.826731477e-14,4.065826995e-14,2.680044498e-14,3.863096588e-14,3.540204449e-14,9.806545619e-14,2.352417695e-13,4.517536295e-14,3.808977479e-14,2.283258797e-13,8.201253477e-14,3.0382855e-13,2.950241161e-14,1.501358483e-13,7.058384669e-14,9.962958028e-14,2.295015892e-13,8.48593767e-14,8.306954878e-14,1.395611006e-14,2.676605721e-13,9.223540188e-14
0.7109375,3.464342051e-14,1.59233806e-13,9.864780657e-14,2.650606669e-13,2.596889622e-13,6.545417104e-14,7.437051112e-14,5.501624839e-14,7.350969869e-14,4.076364428e-14,2.65369279e-14,4.159038452e-14,3.032388138e-14,4.282654872e-14,4.297295759e-14,1.101833004e-13,2.099983145e-13,4.430159902e-14,4.052442827e-14,2.239727182e-13,8.121626136e-14,2.935654031e-13,2.846369029e-14,1.529685253e-13,6.942741308e-14,1.029493143e-13,2.558916744e-13,8.765205301e-14,8.393804546e-14,1.260667834e-14,2.718194954e-13,8.622926771e-14
0.71875,3.539543863e-14,1.62574502e-13,1.097263988e-13,2.557242874e-13,2.49631071e-13,6.767160329e-14,7.565934033e-14,5.096730635e-14,6.961245388e-14,4.30833679e-14,2.501322559e-14,4.394943127e-14,3.434732231e-14,4.867185701e-14,5.203167014e-14,1.228836115e-13,1.880015743e-13,4.390151079e-14,4.291521251e-14,2.193852505e-13,7.956989834e-14,2.778845876e-13,2.738900063e-14,1.558364256e-13,6.686210849e-14,1.051572519e-13,2.79642909e-13,9.059643423e-14,8.402384702e-14,1.175284228e-14,2.725638491e-13,8.010159207e-14
0.7265625,3.653449998e-14,1.645263752e-13,1.240634386e-13,2.440367309e-13,2.392721081e-13,7.012118516e-14,7.764316224e-14,4.764393931e-14,6.628177634e-14,4.546895739e-14,2.361616857e-14,4.766627175e-14,3.896971743e-14,5.595246287e-14,6.254905902e-14,1.362861746e-13,1.689326656e-13,4.418512777e-14,4.522160805e-14,2.15178189e-13,7.717282898e-14,2.571380208e-13,2.633673714e-14,1.590007666e-13,6.354788872e-14,1.062245664e-13,2.990664204e-13,9.301041269e-14,8.319269055e-14,1.149867637e-14,2.695851496e-13,7.436394122e-14
0.734375,3.8170686e-14,1.643387139e-13,1.408260113e-13,2.296026161e-13,2.281851254e-13,7.258496288e-14,8.006171438e-14,4.494695729e-14,6.289166853e-14,4.76123939e-14,2.23277343e-14,5.249461426e-14,4.392463949e-14,6.518252086e-14,7.47145008e-14,1.508653114e-13,1.527858184e-13,4.516445316e-14,4.731438907e-14,2.104880207e-13,7.370294702e-14,2.321450557e-13,2.57124225e-14,1.608484929e-13,5.980140177e-14,1.06097828e-13,3.13696748e-13,9.428808159e-14,8.155650966e-14,1.184263243e-14,2.6202989e-13,6.866643558e-14
0.7421875,4.019619555e-14,1.617808744e-13,1.576057623e-13,2.125956018e-13,2.160927316e-13,7.454923222e-14,8.311333846e-14,4.278315214e-14,5.926665317e-14,4.955735007e-14,2.084747488e-14,5.787959312e-14,4.849419384e-14,7.590981219e-14,8.76017286e-14,1.659868924e-13,1.39354818e-13,4.660373287e-14,4.908250681e-14,2.052046557e-13,6.920160384e-14,2.050695708e-13,2.512111137e-14,1.605378407e-13,5.559774889e-14,1.043076654e-13,3.229022938e-13,9.353408689e-14,7.952269626e-14,1.281371113e-14,2.500511531e-13,6.272698022e-14
0.75,4.291068553e-14,1.577667649e-13,1.7184831e-13,1.950494266e-13,2.042309577e-13,7.605947848e-14,8.607033066e-14,4.141298558e-14,5.567129573e-14,5.135357758e-14,1.92553199e-14,6.342134188e-14,5.221870895e-14,8.725861169e-14,1.002576e-13,1.811279607e-13,1.288026073e-13,4.853558843e-14,5.073386602e-14,2.003157449e-13,6.40864248e-14,1.782682478e-13,2.50050394e-14,1.575341471e-13,5.098968046e-14,1.012711239e-13,3.277146968e-13,9.102014914e-14,7.763548538e-14,1.439696463e-14,2.355345699e-13,5.717672281e-14
0.7578125,4.631170949e-14,1.534382323e-13,1.8230568e-13,1.784890746e-13,1.930730449e-13,7.700128114e-14,8.860921455e-14,4.074510808e-14,5.238933537e-14,5.305496921e-14,1.766774009e-14,6.915461559e-14,5.549850183e-14,9.871509004e-14,1.123422037e-13,1.963716134e-13,1.208708798e-13,5.128672057e-14,5.238424392e-14,1.958171942e-13,5.858378166e-14,1.52370829e-13,2.571352429e-14,1.531004285e-13,4.598699026e-14,9.743576008e-14,3.287134001e-13,8.742415013e-14,7.575027368e-14,1.664765785e-14,2.193117907e-13,5.22764207e-14
0.765625,5.017204488e-14,1.491505132e-13,1.891741945e-13,1.633565265e-13,1.828603095e-13,7.743390017e-14,9.064603766e-14,4.078069613e-14,4.968341721e-14,5.426881972e-14,1.608990447e-14,7.512148937e-14,5.865649144e-14,1.097058446e-13,1.231782211e-13,2.109306771e-13,1.174494377e-13,5.492324746e-14,5.381024484e-14,1.919293422e-13,5.288786626e-14,1.282988213e-13,2.725436623e-14,1.492799145e-13,4.115320475e-14,9.328757516e-14,3.266817876e-13,8.357166314e-14,7.391634018e-14,1.936780054e-14,2.024367055e-13,4.83346423e-14
0.7734375,5.418406261e-14,1.4420409e-13,1.926550555e-13,1.491264288e-13,1.724484497e-13,7.692684367e-14,9.206587489e-14,4.141450784e-14,4.754423418e-14,5.521827294e-14,1.451201995e-14,8.137240296e-14,6.149071986e-14,1.194807142e-13,1.311393321e-13,2.218936108e-13,1.14451027e-13,5.851997384e-14,5.488716722e-14,1.882593672e-13,4.743416169e-14,1.071942071e-13,2.971859571e-14,1.474117075e-13,3.666120239e-14,8.902420279e-14,3.225989639e-13,7.977000674e-14,7.24314647e-14,2.252860425e-14,1.859767681e-13,4.454925579e-14
0.78125,5.816200124e-14,1.384854628e-13,1.924497149e-13,1.356019939e-13,1.6080193e-13,7.514928963e-14,9.260837009e-14,4.252883875e-14,4.615582301e-14,5.601750507e-14,1.29834163e-14,8.710249053e-14,6.371651451e-14,1.268875111e-13,1.348195787e-13,2.273789404e-13,1.097130095e-13,6.132823939e-14,5.521295733e-14,1.844539945e-13,4.234905521e-14,8.961377487e-14,3.296452167e-14,1.490344431e-13,3.257787847e-14,8.430213185e-14,3.156141562e-13,7.54739291e-14,7.111751018e-14,2.583566744e-14,1.698628023e-13,4.062442242e-14
0.7890625,6.064721378e-14,1.313714985e-13,1.891871482e-13,1.229338932e-13,1.484327327e-13,7.238076391e-14,9.182741058e-14,4.423970467e-14,4.530093179e-14,5.668136921e-14,1.180575019e-14,9.174224153e-14,6.486174249e-14,1.307128967e-13,1.349801101e-13,2.279491684e-13,1.040078415e-13,6.307582729e-14,5.429350611e-14,1.813357687e-13,3.773056066e-14,7.50254455e-14,3.670842235e-14,1.54320686e-13,2.908878606e-14,7.957579454e-14,3.054612822e-13,7.090767811e-14,6.944356132e-14,2.889090674e-14,1.543972908e-13,3.707930122e-14
0.796875,6.123092994e-14,1.229054885e-13,1.845778229e-13,1.10986301e-13,1.352525083e-13,6.861801865e-14,8.984222242e-14,4.590908399e-14,4.452219484e-14,5.727466134e-14,1.096260048e-14,9.540537979e-14,6.492148703e-14,1.308721564e-13,1.319300461e-13,2.232192586e-13,9.739694784e-14,6.346196022e-14,5.220369969e-14,1.784661807e-13,3.377957649e-14,6.24991609e-14,4.0773359e-14,1.636407869e-13,2.639960135e-14,7.508328076e-14,2.923312778e-13,6.624833637e-14,6.739519792e-14,3.164088506e-14,1.398452639e-13,3.36622443e-14
0.8046875,5.972670111e-14,1.125625333e-13,1.78710775e-13,9.972987644e-14,1.212906035e-13,6.415601151e-14,8.626272251e-14,4.731609479e-14,4.33748168e-14,5.720567222e-14,1.009049942e-14,9.707789469e-14,6.336469987e-14,1.271071628e-13,1.257394384e-13,2.131865437e-13,9.014220332e-14,6.198566387e-14,4.883465496e-14,1.75231202e-13,3.044182397e-14,5.117435544e-14,4.460280105e-14,1.761473204e-13,2.464461587e-14,7.058670694e-14,2.760005407e-13,6.159009034e-14,6.45554751e-14,3.377593405e-14,1.258761284e-13,3.013464131e-14
0.8125,5.652010152e-14,1.010028375e-13,1.71244699e-13,8.952680569e-14,1.066480608e-13,5.94816555e-14,8.089592641e-14,4.859688542e-14,4.182227171e-14,5.660038884e-14,9.222625628e-15,9.679130579e-14,6.010392251e-14,1.199216723e-13,1.163464401e-13,1.983115702e-13,8.300561839e-14,5.870970287e-14,4.429332259e-14,1.715850046e-13,2.761217556e-14,4.098567259e-14,4.804144248e-14,1.893374531e-13,2.368402913e-14,6.625008587e-14,2.569479637e-13,5.704722146e-14,6.103253695e-14,3.501513707e-14,1.128120775e-13,2.658903419e-14
0.8203125,5.233603584e-14,8.926248245e-14,1.620280062e-13,8.104752858e-14,9.242184754e-14,5.527332407e-14,7.424333353e-14,4.931126371e-14,3.97905259e-14,5.553506639e-14,8.62800738e-15,9.465380069e-14,5.551126594e-14,1.108210839e-13,1.051849399e-13,1.80686491e-13,7.602203341e-14,5.424400301e-14,3.92821536e-14,1.67431288e-13,2.539818967e-14,3.287318869e-14,5.068072904e-14,2.008953237e-13,2.328362888e-14,6.21866365e-14,2.353516197e-13,5.233013575e-14,5.709777356e-14,3.546984142e-14,1.007316337e-13,2.328517105e-14
0.828125,4.731959626e-14,7.79242817e-14,1.52285989e-13,7.505461374e-14,7.959620086e-14,5.200699526e-14,6.696069039e-14,4.954668787e-14,3.72642867e-14,5.393580505e-14,8.270401919e-15,9.08998014e-14,5.000490642e-14,1.011576572e-13,9.392474105e-14,1.631656799e-13,7.01875601e-14,4.961857298e-14,3.42050634e-14,1.616721693e-13,2.353202648e-14,2.638674471e-14,5.234033485e-14,2.084064591e-13,2.356104436e-14,5.820804325e-14,2.116765588e-13,4.757438133e-14,5.275249706e-14,3.528718992e-14,8.944935387e-14,2.037143574e-14
0.8359375,4.2036607e-14,6.719400193e-14,1.433405086e-13,7.147437187e-14,6.793136671e-14,5.010040282e-14,6.033727039e-14,4.972318833e-14,3.447018315e-14,5.220030158e-14,8.018999828e-15,8.617805223e-14,4.422954357e-14,9.210365207e-14,8.366532032e-14,1.469465042e-13,6.590192546e-14,4.533327434e-14,2.921120029e-14,1.534302873e-13,2.189144876e-14,2.073437894e-14,5.268860211e-14,2.11130498e-13,2.427102875e-14,5.404756363e-14,1.872653781e-13,4.367865861e-14,4.797019829e-14,3.472746546e-14,7.867144577e-14,1.769012961e-14
0.84375,3.691358141e-14,5.715600984e-14,1.366695827e-13,7.038500388e-14,5.796702659e-14,4.94601615e-14,5.495135634e-14,4.990183965e-14,3.135829115e-14,5.033840563e-14,7.845245468e-15,8.054764585e-14,3.847907891e-14,8.483625418e-14,7.509352701e-14,1.335947616e-13,6.359665913e-14,4.17814588e-14,2.465956093e-14,1.427537971e-13,2.029682158e-14,1.675995357e-14,5.186681225e-14,2.069906609e-13,2.540174923e-14,4.966676638e-14,1.627684099e-13,4.050733597e-14,4.299030831e-14,3.3878061e-14,6.799496269e-14,1.54436157e-14
0.8515625,3.218037109e-14,4.827839425e-14,1.325667849e-13,7.119255264e-14,4.980308353e-14,4.975779023e-14,5.153735997e-14,5.023979103e-14,2.828940605e-14,4.87845868e-14,7.750372177e-15,7.472389074e-14,3.308034335e-14,7.959461478e-14,6.876971669e-14,1.239390821e-13,6.322847349e-14,3.947807745e-14,2.076638005e-14,1.304247006e-13,1.892405343e-14,1.405823141e-14,4.9883581e-14,1.973396188e-13,2.669023771e-14,4.541361661e-14,1.390577989e-13,3.825110824e-14,3.830361102e-14,3.29151003e-14,5.807186614e-14,1.368602894e-14
0.859375,2.79815431e-14,4.050054256e-14,1.305115254e-13,7.29476969e-14,4.307492245e-14,5.040059353e-14,5.029139769e-14,5.119125761e-14,2.564442546e-14,4.77795686e-14,7.828167376e-15,6.89904634e-14,2.847618068e-14,7.64280521e-14,6.502733925e-14,1.176400743e-13,6.361313277e-14,3.827684449e-14,1.761505815e-14,1.168304979e-13,1.77661292e-14,1.264193802e-14,4.684675746e-14,1.825010046e-13,2.795527237e-14,4.132801802e-14,1.167156512e-13,3.683659064e-14,3.373842914e-14,3.190943598e-14,4.881470418e-14,1.24899811e-14
0.8671875,2.455519076e-14,3.425923294e-14,1.304548998e-13,7.474956517e-14,3.79311539e-14,5.103877249e-14,5.111407787e-14,5.254951091e-14,2.346473516e-14,4.772533462e-14,8.130909433e-15,6.384880218e-14,2.508628154e-14,7.531563565e-14,6.470182826e-14,1.153646275e-13,6.428909829e-14,3.813901956e-14,1.516034847e-14,1.025487516e-13,1.686333078e-14,1.28000555e-14,4.318239768e-14,1.647801468e-13,2.894765473e-14,3.746735934e-14,9.704458519e-14,3.594690842e-14,2.97837991e-14,3.068696982e-14,4.086533115e-14,1.191289727e-14
0.875,2.206132087e-14,2.931901593e-14,1.329814551e-13,7.619489324e-14,3.41407103e-14,5.13217988e-14,5.385790006e-14,5.376590041e-14,2.189796918e-14,4.874791942e-14,8.619824152e-15,5.943656871e-14,2.277316913e-14,7.530945555e-14,6.713595332e-14,1.161693912e-13,6.578901548e-14,3.852219118e-14,1.34140875e-14,8.907376272e-14,1.64892775e-14,1.437044439e-14,3.889923173e-14,1.472780146e-13,2.953568248e-14,3.416699701e-14,8.011685666e-14,3.536158621e-14,2.686794806e-14,2.943946113e-14,3.497917083e-14,1.196397792e-14
0.8828125,2.050291079e-14,2.537406085e-14,1.373051134e-13,7.640841646e-14,3.135290055e-14,5.126634657e-14,5.758494843e-14,5.420297656e-14,2.088683094e-14,5.033835948e-14,9.308605894e-15,5.556448248e-14,2.122416724e-14,7.547230743e-14,7.186082391e-14,1.194689125e-13,6.947540749e-14,3.882227961e-14,1.216571416e-14,7.696150852e-14,1.647068695e-14,1.714493675e-14,3.477818596e-14,1.309890578e-13,2.980951014e-14,3.132798551e-14,6.540729466e-14,3.513903291e-14,2.496443119e-14,2.807101242e-14,3.068250082e-14,1.259672515e-14
0.890625,2.016272815e-14,2.248314362e-14,1.42994923e-13,7.536838205e-14,2.9709517e-14,5.034836295e-14,6.173458817e-14,5.421120271e-14,2.060870114e-14,5.267528347e-14,1.005711089e-14,5.283581528e-14,2.048874163e-14,7.535262188e-14,7.812066614e-14,1.250591883e-13,7.615337939e-14,3.928313983e-14,1.156138707e-14,6.750862699e-14,1.690299802e-14,2.124418861e-14,3.099811531e-14,1.175089336e-13,2.992784e-14,2.924956638e-14,5.331058614e-14,3.561318386e-14,2.431383037e-14,2.70088279e-14,2.864657887e-14,1.385537763e-14
0.8984375,2.14091554e-14,2.044144811e-14,1.466789124e-13,7.31438685e-14,2.896400033e-14,4.832939648e-14,6.477315164e-14,5.367739249e-14,2.128444388e-14,5.546548282e-14,1.071740014e-14,5.09926225e-14,2.03038823e-14,7.37135255e-14,8.357774873e-14,1.311154771e-13,8.513903249e-14,3.904594339e-14,1.164400339e-14,6.102452025e-14,1.78083839e-14,2.636457971e-14,2.753213228e-14,1.077012386e-13,2.973577448e-14,2.812108846e-14,4.361260521e-14,3.603771906e-14,2.491460981e-14,2.629854922e-14,2.873778005e-14,1.565913786e-14
0.90625,2.418205254e-14,1.904427148e-14,1.467704504e-13,7.000906577e-14,2.875174455e-14,4.539087974e-14,6.60292113e-14,5.254441051e-14,2.265547517e-14,5.817116226e-14,1.133117457e-14,4.989535883e-14,2.026301737e-14,7.048245757e-14,8.752513059e-14,1.368839381e-13,9.615652958e-14,3.786984693e-14,1.239643349e-14,5.735382214e-14,1.892118967e-14,3.248565453e-14,2.476448497e-14,1.007871621e-13,2.89941139e-14,2.781052312e-14,3.588718446e-14,3.615483974e-14,2.6920563e-14,2.593553518e-14,3.057904782e-14,1.813568038e-14
0.9140625,2.86837198e-14,1.839017784e-14,1.424410876e-13,6.660265464e-14,2.918068028e-14,4.151380149e-14,6.571985752e-14,5.108153872e-14,2.477499235e-14,6.060264725e-14,1.186320017e-14,4.940912864e-14,2.028736713e-14,6.579763279e-14,8.935055715e-14,1.423800415e-13,1.093637788e-13,3.610159618e-14,1.388479131e-14,5.614390582e-14,2.022076914e-14,3.991241113e-14,2.285193281e-14,9.596609328e-14,2.769679317e-14,2.848238022e-14,2.995708568e-14,3.608061609e-14,3.010380027e-14,2.604126771e-14,3.412936762e-14,2.149859002e-14
0.921875,3.487837036e-14,1.807654275e-14,1.339755722e-13,6.289475067e-14,3.016277016e-14,3.698682108e-14,6.39283423e-14,4.98759251e-14,2.782314431e-14,6.276440504e-14,1.238149741e-14,4.993108005e-14,2.050060976e-14,6.002150034e-14,8.891261566e-14,1.470216173e-13,1.235963353e-13,3.385689308e-14,1.595915105e-14,5.699822773e-14,2.161804838e-14,4.86495256e-14,2.187650849e-14,9.313731266e-14,2.61465756e-14,2.995456472e-14,2.515976518e-14,3.62016603e-14,3.418216695e-14,2.669133418e-14,3.882577349e-14,2.583175448e-14
0.9296875,4.295124791e-14,1.81507648e-14,1.227802541e-13,5.993118563e-14,3.115309478e-14,3.223389965e-14,6.118628238e-14,4.991867328e-14,3.196733329e-14,6.480027487e-14,1.295251644e-14,5.160837619e-14,2.09619374e-14,5.451338751e-14,8.736282402e-14,1.518580652e-13,1.390417305e-13,3.156753364e-14,1.85830123e-14,5.930538704e-14,2.287773568e-14,5.898687978e-14,2.211921772e-14,9.020668314e-14,2.448995627e-14,3.186813301e-14,2.117119851e-14,3.710250441e-14,3.894668754e-14,2.804100989e-14,4.409407388e-14,3.12468558e-14
0.9375,5.225175236e-14,1.856807516e-14,1.095051942e-13,5.79523198e-14,3.27075518e-14,2.733199492e-14,5.778827927e-14,5.194778417e-14,3.700512159e-14,6.685268155e-14,1.367092333e-14,5.415926121e-14,2.152142875e-14,4.963678838e-14,8.512417967e-14,1.565900884e-13,1.553101287e-13,2.9890588e-14,2.160258036e-14,6.232475341e-14,2.39997465e-14,7.043853972e-14,2.364428447e-14,8.695022167e-14,2.273826731e-14,3.431626197e-14,1.849104064e-14,3.948104788e-14,4.377964079e-14,2.997671874e-14,4.950004605e-14,3.80912956e-14
0.9453125,6.219496265e-14,1.937131165e-14,9.517874721e-14,5.779649745e-14,3.471110952e-14,2.296047806e-14,5.40195957e-14,5.679911825e-14,4.312467846e-14,6.93697819e-14,1.461797272e-14,5.777617964e-14,2.236953275e-14,4.615267237e-14,8.411804942e-14,1.617575855e-13,1.708334138e-13,2.893313316e-14,2.513875743e-14,6.627727406e-14,2.499886822e-14,8.223537538e-14,2.629502566e-14,8.349160115e-14,2.077864167e-14,3.739115887e-14,1.673024138e-14,4.333303011e-14,4.842230583e-14,3.243026066e-14,5.4816247e-14,4.680007832e-14
0.953125,7.207787909e-14,2.072623529e-14,8.18484609e-14,5.940041382e-14,3.723803285e-14,1.924864206e-14,5.026653537e-14,6.485584102e-14,5.031303376e-14,7.250331274e-14,1.589873362e-14,6.214793177e-14,2.355297506e-14,4.463704916e-14,8.578753466e-14,1.680832373e-13,1.852031766e-13,2.934352428e-14,2.90717928e-14,7.132253612e-14,2.576684993e-14,9.335022363e-14,3.037603773e-14,7.935128143e-14,1.870801875e-14,4.085160545e-14,1.588017001e-14,4.878736407e-14,5.243084485e-14,3.538171939e-14,5.936720123e-14,5.807456496e-14
0.9609375,8.14406486e-14,2.28136577e-14,7.136354307e-14,6.223181795e-14,4.0641948e-14,1.621717339e-14,4.683198083e-14,7.590516811e-14,5.830323882e-14,7.629895737e-14,1.760635456e-14,6.679010546e-14,2.526485421e-14,4.517962585e-14,9.104033106e-14,1.749232398e-13,1.961812436e-13,3.131432203e-14,3.315520111e-14,7.707272706e-14,2.629418899e-14,1.030296242e-13,3.570498907e-14,7.526340104e-14,1.685671108e-14,4.471761872e-14,1.627817155e-14,5.55088047e-14,5.553776607e-14,3.867539046e-14,6.304365399e-14,7.156607335e-14
0.96875,8.978634732e-14,2.581574958e-14,6.543525047e-14,6.59522122e-14,4.551179642e-14,1.405106645e-14,4.447461261e-14,8.91791359e-14,6.632770664e-14,8.050311618e-14,1.989262596e-14,7.117155101e-14,2.744804379e-14,4.857688758e-14,1.013085549e-13,1.834972209e-13,2.041948482e-13,3.555668635e-14,3.753613931e-14,8.316722048e-14,2.683956945e-14,1.103631291e-13,4.205045451e-14,7.2433179e-14,1.538567707e-14,4.951669365e-14,1.802655498e-14,6.341550493e-14,5.829594564e-14,4.189300186e-14,6.658100129e-14,8.719756063e-14
0.9765625,9.557811826e-14,2.977715462e-14,6.438932427e-14,7.033043288e-14,5.194744824e-14,1.263027129e-14,4.274090263e-14,1.037969908e-13,7.356659711e-14,8.463992536e-14,2.268713279e-14,7.471071597e-14,2.964589331e-14,5.4194675e-14,1.15725291e-13,1.928381581e-13,2.084741151e-13,4.25841811e-14,4.234072446e-14,8.986597533e-14,2.768914884e-14,1.141288191e-13,4.920768426e-14,7.067630737e-14,1.431776791e-14,5.547355457e-14,2.132335463e-14,7.210971352e-14,6.091924258e-14,4.453085452e-14,7.063862959e-14,1.042323615e-13
0.984375,9.831564215e-14,3.51604861e-14,6.78114406e-14,7.483675348e-14,5.980217337e-14,1.195292593e-14,4.190391199e-14,1.195788912e-13,8.033517721e-14,8.839558065e-14,2.589245929e-14,7.78660244e-14,3.240883647e-14,6.227933462e-14,1.336910376e-13,2.030850704e-13,2.102527798e-13,5.278143771e-14,4.77044092e-14,9.75064454e-14,2.887137716e-14,1.13761288e-13,5.667956914e-14,7.108673651e-14,1.367212334e-14,6.272495625e-14,2.629788345e-14,8.122590344e-14,6.374724163e-14,4.664206873e-14,7.529744091e-14,1.225952283e-13
0.9921875,9.880428176e-14,4.264552689e-14,7.638365716e-14,7.866877372e-14,6.918923816e-14,1.216916633e-14,4.226810441e-14,1.352121394e-13,8.616108576e-14,9.139648862e-14,2.945503007e-14,8.068520354e-14,3.595822286e-14,7.382264926e-14,1.558645301e-13,2.148206157e-13,2.09951806e-13,6.756113635e-14,5.434011619e-14,1.056764551e-13,3.043072889e-14,1.097532913e-13,6.399076257e-14,7.346694874e-14,1.375612816e-14,7.180686485e-14,3.409770692e-14,8.957421709e-14,6.787574622e-14,4.845094851e-14,8.163023008e-14,1.412553321e-13
1,9.787897242e-14,5.236581721e-14,8.923600879e-14,8.151527024e-14,7.981628336e-14,1.326785801e-14,4.356276903e-14,1.492441633e-13,9.00839114e-14,9.337818485e-14,3.319134265e-14,8.318905629e-14,4.003400335e-14,8.870068738e-14,1.807437075e-13,2.271951155e-13,2.078684576e-13,8.752418744e-14,6.29201274e-14,1.142440438e-13,3.242935358e-14,1.035009735e-13,6.993491033e-14,7.754304742e-14,1.472345204e-14,8.243737144e-14,4.481961309e-14,9.656156463e-14,7.444117686e-14,4.999377818e-14,9.018513286e-14,1.583504847e-13
1.0078125,9.64829694e-14,6.447537484e-14,1.052367568e-13,8.36826027e-14,9.065929204e-14,1.522785682e-14,4.544193288e-14,1.603421553e-13,9.216445679e-14,9.466688067e-14,3.669680673e-14,8.622185999e-14,4.507497353e-14,1.065970471e-13,2.061991847e-13,2.392888641e-13,2.047252938e-13,1.130836331e-13,7.39263435e-14,1.221503961e-13,3.472385981e-14,9.609790314e-14,7.418799272e-14,8.331663467e-14,1.65214746e-14,9.410075314e-14,5.811780917e-14,1.026903447e-13,8.423958892e-14,5.152451633e-14,1.010081613e-13,1.724958303e-13
1.015625,9.556564299e-14,7.945091756e-14,1.229931227e-13,8.582993295e-14,1.01868512e-13,1.822840858e-14,4.792241038e-14,1.688020947e-13,9.26807615e-14,9.569436721e-14,3.98152532e-14,9.070028662e-14,5.188150073e-14,1.276149194e-13,2.300672022e-13,2.511448572e-13,2.024508327e-13,1.444886371e-13,8.786173285e-14,1.291268652e-13,3.725016425e-14,8.821277607e-14,7.659414112e-14,9.078954918e-14,1.92000537e-14,1.066139286e-13,7.329619164e-14,1.082986095e-13,9.751299124e-14,5.33632132e-14,1.142723134e-13,1.828992651e-13
1.0234375,9.543295584e-14,9.691312499e-14,1.414704656e-13,8.782040984e-14,1.127017171e-13,2.245952574e-14,5.050724521e-14,1.736721693e-13,9.168025969e-14,9.675978471e-14,4.252679178e-14,9.699721615e-14,6.013288216e-14,1.509633075e-13,2.510386634e-13,2.615063085e-13,2.012999922e-13,1.80976824e-13,1.042260454e-13,1.352851299e-13,3.983005798e-14,8.013290665e-14,7.734309284e-14,9.934306363e-14,2.255540868e-14,1.189240728e-13,9.061529887e-14,1.133750184e-13,1.136111903e-13,5.567082083e-14,1.289919441e-13,1.890019934e-13
1.03125,9.702757424e-14,1.160445365e-13,1.596457037e-13,9.052119541e-14,1.225848182e-13,2.78011535e-14,5.323031945e-14,1.751983332e-13,8.948780517e-14,9.821616468e-14,4.429516615e-14,1.055808875e-13,7.023108934e-14,1.761205054e-13,2.67704826e-13,2.68434637e-13,2.014319473e-13,2.210472787e-13,1.224385937e-13,1.403171774e-13,4.230253484e-14,7.288485243e-14,7.636842157e-14,1.089427813e-13,2.635867103e-14,1.304900024e-13,1.090641963e-13,1.179060535e-13,1.321692953e-13,5.87437703e-14,1.445348563e-13,1.902611033e-13
1.0390625,1.002539831e-13,1.34948413e-13,1.771342456e-13,9.368302395e-14,1.30086391e-13,3.405115982e-14,5.571689432e-14,1.734540423e-13,8.642286608e-14,1.002791154e-13,4.476799882e-14,1.16576392e-13,8.232568332e-14,2.019123146e-13,2.786573496e-13,2.704038062e-13,2.009901744e-13,2.62056375e-13,1.413326647e-13,1.43863786e-13,4.410165836e-14,6.728897806e-14,7.46030401e-14,1.187758107e-13,3.048375579e-14,1.397095489e-13,1.269597633e-13,1.225038217e-13,1.51734029e-13,6.245861472e-14,1.584455805e-13,1.861497624e-13
1.046875,1.046575774e-13,1.527168001e-13,1.93117209e-13,9.777606439e-14,1.351181529e-13,4.102316235e-14,5.761456873e-14,1.687926521e-13,8.28021107e-14,1.030569608e-13,4.373487626e-14,1.290830049e-13,9.574377513e-14,2.26762967e-13,2.829942172e-13,2.674572166e-13,1.992496515e-13,3.012683414e-13,1.596212759e-13,1.450538076e-13,4.507914706e-14,6.330403233e-14,7.272961074e-14,1.27776352e-13,3.481743026e-14,1.460121337e-13,1.427723036e-13,1.269665838e-13,1.712337224e-13,6.66390949e-14,1.695487326e-13,1.768517511e-13
1.0546875,1.096465124e-13,1.675868227e-13,2.079336743e-13,1.030591597e-13,1.384056435e-13,4.864057207e-14,5.907099463e-14,1.625359299e-13,7.929842931e-14,1.058125385e-13,4.198790155e-14,1.418018829e-13,1.100092788e-13,2.502131909e-13,2.823662545e-13,2.619276374e-13,1.973627538e-13,3.372545992e-13,1.760932013e-13,1.453756009e-13,4.534436112e-14,6.088515558e-14,7.116921778e-14,1.35984746e-13,3.935468917e-14,1.497524913e-13,1.550453161e-13,1.310729344e-13,1.891976752e-13,7.105357339e-14,1.774786371e-13,1.644377144e-13
1.0625,1.136171084e-13,1.772166953e-13,2.20509955e-13,1.077902642e-13,1.391855276e-13,5.608717806e-14,5.982902038e-14,1.552178383e-13,7.585579764e-14,1.075080594e-13,3.957169598e-14,1.52985554e-13,1.236851663e-13,2.698411396e-13,2.760778713e-13,2.523888824e-13,1.945715845e-13,3.665876794e-13,1.882752586e-13,1.45011305e-13,4.475088999e-14,5.932336299e-14,7.084888656e-14,1.428534487e-13,4.400298178e-14,1.509501686e-13,1.62842225e-13,1.341305838e-13,2.036980088e-13,7.484349378e-14,1.81342338e-13,1.506101975e-13
1.0703125,1.162541271e-13,1.804693563e-13,2.304999778e-13,1.11330688e-13,1.374457536e-13,6.275307779e-14,6.042476667e-14,1.48152272e-13,7.281027687e-14,1.079604223e-13,3.650554742e-14,1.618187002e-13,1.364734948e-13,2.852040739e-13,2.658876857e-13,2.394034434e-13,1.907816067e-13,3.875723008e-13,1.954104859e-13,1.445231264e-13,4.340117855e-14,5.818037099e-14,7.193466813e-14,1.484686581e-13,4.895908542e-14,1.505839677e-13,1.663207168e-13,1.355022173e-13,2.134450696e-13,7.773307832e-14,1.810347891e-13,1.363844226e-13
1.078125,1.170045839e-13,1.776965804e-13,2.392168951e-13,1.129141959e-13,1.329453933e-13,6.7855641e-14,6.090857895e-14,1.414198869e-13,7.043240367e-14,1.066375566e-13,3.314698509e-14,1.676716829e-13,1.486033535e-13,2.967474488e-13,2.539655292e-13,2.250476472e-13,1.861324062e-13,3.998999757e-13,1.975954129e-13,1.443837451e-13,4.123503952e-14,5.735684356e-14,7.478395514e-14,1.524586272e-13,5.445431878e-14,1.492843942e-13,1.658987854e-13,1.343266397e-13,2.186566928e-13,7.943229156e-14,1.773629645e-13,1.226690358e-13
1.0859375,1.160276861e-13,1.694705047e-13,2.451157141e-13,1.115430689e-13,1.257999098e-13,7.112297933e-14,6.097821806e-14,1.344922477e-13,6.82846885e-14,1.032255309e-13,2.997802892e-14,1.695025284e-13,1.598493051e-13,3.039763096e-13,2.407008479e-13,2.096172984e-13,1.79280191e-13,4.02477551e-13,1.947048105e-13,1.432726133e-13,3.833949506e-14,5.668661579e-14,7.887861863e-14,1.547762723e-13,6.045182639e-14,1.470203269e-13,1.609532921e-13,1.295447481e-13,2.196504079e-13,7.972478959e-14,1.707364623e-13,1.093836713e-13
1.09375,1.138482165e-13,1.576946551e-13,2.475403402e-13,1.07952946e-13,1.169386091e-13,7.287870155e-14,6.092468243e-14,1.277981959e-13,6.62949455e-14,9.765165616e-14,2.73012656e-14,1.67055065e-13,1.705900922e-13,3.075974866e-13,2.290619695e-13,1.95779518e-13,1.71797855e-13,3.969082844e-13,1.876941128e-13,1.415240177e-13,3.505805093e-14,5.6080385e-14,8.363815833e-14,1.560146515e-13,6.677657159e-14,1.445127869e-13,1.516810124e-13,1.208286537e-13,2.168622318e-13,7.861895117e-14,1.625233081e-13,9.75407315e-14
1.1015625,1.109180146e-13,1.441063751e-13,2.452369179e-13,1.022003873e-13,1.067706557e-13,7.257338494e-14,6.022882176e-14,1.211236269e-13,6.454216745e-14,9.02525538e-14,2.529306983e-14,1.607124776e-13,1.813415348e-13,3.071347242e-13,2.188410725e-13,1.832412684e-13,1.647687035e-13,3.841644767e-13,1.774899759e-13,1.396929474e-13,3.157519688e-14,5.559055661e-14,8.851346635e-14,1.55860472e-13,7.310288323e-14,1.424151346e-13,1.40189873e-13,1.089933567e-13,2.106333284e-13,7.623635287e-14,1.538715569e-13,8.751934649e-14
1.109375,1.076800056e-13,1.306322597e-13,2.371465551e-13,9.513371767e-14,9.618508074e-14,7.027329692e-14,5.865293669e-14,1.137858992e-13,6.298409824e-14,8.154529322e-14,2.374961511e-14,1.521000299e-13,1.92705343e-13,3.028156451e-13,2.099542206e-13,1.716375998e-13,1.578828786e-13,3.651799157e-13,1.651227812e-13,1.371670427e-13,2.816532686e-14,5.541645896e-14,9.245541682e-14,1.545904574e-13,7.863404817e-14,1.414539644e-13,1.276911946e-13,9.555514412e-14,2.012995492e-13,7.265938127e-14,1.457014362e-13,7.912421611e-14
1.1171875,1.047220595e-13,1.19640926e-13,2.240472137e-13,8.791271433e-14,8.611192704e-14,6.651371991e-14,5.632378633e-14,1.060289393e-13,6.217091486e-14,7.24066366e-14,2.273979318e-14,1.429486512e-13,2.063509404e-13,2.962776155e-13,2.027037386e-13,1.61419988e-13,1.513926336e-13,3.421044227e-13,1.526454968e-13,1.340981319e-13,2.493826369e-14,5.550618197e-14,9.439413531e-14,1.531255189e-13,8.294356799e-14,1.419826563e-13,1.156750469e-13,8.185838963e-14,1.903931631e-13,6.844482892e-14,1.391950785e-13,7.170510837e-14
1.125,1.019534111e-13,1.11784887e-13,2.059069599e-13,8.114277481e-14,7.68490018e-14,6.207390302e-14,5.335568169e-14,9.765967631e-14,6.166143825e-14,6.346438879e-14,2.224579845e-14,1.333392309e-13,2.209581055e-13,2.876011235e-13,1.970766642e-13,1.520688068e-13,1.449955824e-13,3.168999329e-13,1.408283064e-13,1.303558384e-13,2.199425873e-14,5.534660588e-14,9.395581513e-14,1.516243342e-13,8.513865035e-14,1.433204505e-13,1.045950447e-13,6.898624678e-14,1.780930511e-13,6.35873548e-14,1.336716162e-13,6.481981049e-14
1.1328125,9.971163574e-14,1.076297777e-13,1.844477898e-13,7.614079178e-14,6.931457934e-14,5.76039164e-14,5.010096833e-14,8.896844818e-14,6.132490671e-14,5.49441006e-14,2.217968922e-14,1.240778109e-13,2.368860358e-13,2.778226177e-13,1.931653729e-13,1.441308031e-13,1.39257353e-13,2.915730778e-13,1.306541083e-13,1.266628824e-13,1.945650526e-14,5.465146115e-14,9.055714737e-14,1.498155784e-13,8.516816599e-14,1.4533217e-13,9.464844032e-14,5.728478211e-14,1.651952209e-13,5.851320402e-14,1.293919753e-13,5.805566486e-14
1.140625,9.891334043e-14,1.070268245e-13,1.619923216e-13,7.401462507e-14,6.443077762e-14,5.374664059e-14,4.70369119e-14,8.022143188e-14,6.112225055e-14,4.695679576e-14,2.248175016e-14,1.154827896e-13,2.538684449e-13,2.682218147e-13,1.921025058e-13,1.392962507e-13,1.371239948e-13,2.690666731e-13,1.231821745e-13,1.249145001e-13,1.740445285e-14,5.405101278e-14,8.453067712e-14,1.495393255e-13,8.308186454e-14,1.485037762e-13,8.67546892e-14,4.7255716e-14,1.522451893e-13,5.372939513e-14,1.269698393e-13,5.244176423e-14
1.1484375,9.920422667e-14,1.085453792e-13,1.398318351e-13,7.445918747e-14,6.207318159e-14,5.045074968e-14,4.398644927e-14,7.129976165e-14,6.036623602e-14,3.968733667e-14,2.298924297e-14,1.072344739e-13,2.690716415e-13,2.577859213e-13,1.932395754e-13,1.371933015e-13,1.390004329e-13,2.505014605e-13,1.18270299e-13,1.257924524e-13,1.579135957e-14,5.31803278e-14,7.641807114e-14,1.502661873e-13,7.877997774e-14,1.52502856e-13,8.113098864e-14,3.885996223e-14,1.395789504e-13,4.934044877e-14,1.261603493e-13,4.755605615e-14
1.15625,1.001529092e-13,1.113413874e-13,1.194842313e-13,7.76974558e-14,6.199809931e-14,4.807865598e-14,4.106482723e-14,6.309726287e-14,5.918229847e-14,3.33567256e-14,2.377147147e-14,9.942723881e-14,2.803917969e-13,2.467159847e-13,1.957348443e-13,1.377958264e-13,1.453883066e-13,2.359516346e-13,1.156492224e-13,1.30254462e-13,1.470151461e-14,5.19425019e-14,6.645067164e-14,1.515020266e-13,7.228661787e-14,1.569449395e-13,7.785236046e-14,3.243750332e-14,1.274704211e-13,4.565724634e-14,1.26587208e-13,4.378999193e-14
1.1640625,1.008992443e-13,1.150598252e-13,1.02821298e-13,8.405760245e-14,6.435297878e-14,4.698541917e-14,3.824454047e-14,5.585172118e-14,5.686574178e-14,2.796735597e-14,2.496496296e-14,9.151140459e-14,2.847925114e-13,2.345360125e-13,1.999879659e-13,1.421723924e-13,1.579350893e-13,2.273671176e-13,1.157741515e-13,1.402792991e-13,1.421843744e-14,5.001970879e-14,5.613843147e-14,1.513744622e-13,6.439374321e-14,1.618517635e-13,7.6961481e-14,2.799463127e-14,1.165463101e-13,4.26493082e-14,1.285392837e-13,4.1322073e-14
1.171875,1.019954358e-13,1.19011068e-13,9.01756988e-14,9.358720108e-14,6.880918181e-14,4.710882608e-14,3.564727777e-14,4.983313084e-14,5.393931056e-14,2.3477355e-14,2.64164887e-14,8.390172669e-14,2.827175575e-13,2.220113589e-13,2.048115917e-13,1.495861917e-13,1.759718524e-13,2.243296526e-13,1.182610738e-13,1.549989424e-13,1.418536222e-14,4.790256572e-14,4.614447614e-14,1.489485078e-13,5.599574617e-14,1.66017517e-13,7.758600572e-14,2.526039736e-14,1.069923956e-13,4.057047834e-14,1.317073061e-13,4.009415105e-14
1.1796875,1.039083537e-13,1.226923907e-13,8.223222025e-14,1.064538698e-13,7.556547879e-14,4.882853718e-14,3.361505108e-14,4.568709749e-14,5.085244018e-14,1.981166506e-14,2.818555622e-14,7.665378894e-14,2.748385695e-13,2.104027348e-13,2.117620435e-13,1.61332206e-13,1.997153034e-13,2.269983076e-13,1.230284613e-13,1.75046721e-13,1.467044481e-14,4.606936402e-14,3.730278513e-14,1.452360062e-13,4.786274314e-14,1.69527155e-13,7.979109981e-14,2.38474501e-14,9.896652712e-14,3.945422261e-14,1.360033424e-13,4.086412969e-14
1.1875,1.061910771e-13,1.25536897e-13,7.854210652e-14,1.225390927e-13,8.442283981e-14,5.256683093e-14,3.2231232e-14,4.328333933e-14,4.772967456e-14,1.688340147e-14,3.042535057e-14,7.000779456e-14,2.611779194e-13,1.98765702e-13,2.197909274e-13,1.775004682e-13,2.296370171e-13,2.343117565e-13,1.293163879e-13,2.013345589e-13,1.577071014e-14,4.447837642e-14,3.008344297e-14,1.395035813e-13,4.016025192e-14,1.718077915e-13,8.314882946e-14,2.356750659e-14,9.216668515e-14,3.90957407e-14,1.410071095e-13,4.366706204e-14
1.1953125,1.085233858e-13,1.279641379e-13,7.875323321e-14,1.419066165e-13,9.536253656e-14,5.846943003e-14,3.16492073e-14,4.244685195e-14,4.533017654e-14,1.469315549e-14,3.304774306e-14,6.442779409e-14,2.429579457e-13,1.88006473e-13,2.284394681e-13,1.974789806e-13,2.63618183e-13,2.450964941e-13,1.36992121e-13,2.317653399e-13,1.747584341e-14,4.307179779e-14,2.435659522e-14,1.310258688e-13,3.332580171e-14,1.728547569e-13,8.713605841e-14,2.432050134e-14,8.688152642e-14,3.95194299e-14,1.471807557e-13,4.862889398e-14
1.203125,1.116022922e-13,1.309294342e-13,8.219382521e-14,1.64572696e-13,1.082066635e-13,6.654012176e-14,3.193008028e-14,4.300236586e-14,4.392661264e-14,1.304997223e-14,3.584673248e-14,6.021548987e-14,2.230951192e-13,1.7969953e-13,2.375542076e-13,2.203306753e-13,2.99562404e-13,2.591948553e-13,1.463739783e-13,2.642559751e-13,1.969105168e-14,4.20135209e-14,2.03207469e-14,1.202700334e-13,2.772719438e-14,1.726800007e-13,9.077901861e-14,2.580773046e-14,8.362608838e-14,4.050366039e-14,1.55051928e-13,5.53064784e-14
1.2109375,1.154384248e-13,1.331936899e-13,8.805330135e-14,1.891747e-13,1.214631743e-13,7.687957825e-14,3.321799729e-14,4.447763734e-14,4.400920615e-14,1.172534352e-14,3.915081258e-14,5.75719616e-14,2.042655071e-13,1.7353207e-13,2.455765747e-13,2.439261031e-13,3.344572664e-13,2.73777066e-13,1.560443156e-13,2.963401194e-13,2.215983898e-14,4.164413341e-14,1.777432864e-14,1.087050161e-13,2.347777822e-14,1.700591468e-13,9.35620929e-14,2.815672692e-14,8.174193105e-14,4.16148495e-14,1.631109941e-13,6.280032281e-14
1.21875,1.207342857e-13,1.35580775e-13,9.584543812e-14,2.143862953e-13,1.344982046e-13,8.910282101e-14,3.590741502e-14,4.625346377e-14,4.566737768e-14,1.075342944e-14,4.324003221e-14,5.69562308e-14,1.900287264e-13,1.713689523e-13,2.527394628e-13,2.665395362e-13,3.655456537e-13,2.891422601e-13,1.659882889e-13,3.252726395e-13,2.47478641e-14,4.219528688e-14,1.63302038e-14,9.74691056e-14,2.078322392e-14,1.652693277e-13,9.549968052e-14,3.140145182e-14,8.129709191e-14,4.281323734e-14,1.712638746e-13,7.029175221e-14
1.2265625,1.273320759e-13,1.377711199e-13,1.051053069e-13,2.389939576e-13,1.469337769e-13,1.023125119e-13,4.006799157e-14,4.81710331e-14,4.909515044e-14,9.998159662e-15,4.81191298e-14,5.876816675e-14,1.82346872e-13,1.727942936e-13,2.57910038e-13,2.85884344e-13,3.901617619e-13,3.031973281e-13,1.757902709e-13,3.490237815e-13,2.752907289e-14,4.437363216e-14,1.561229629e-14,8.833047755e-14,1.932894174e-14,1.58232585e-13,9.628909742e-14,3.552482029e-14,8.223642572e-14,4.408635212e-14,1.790231782e-13,7.7078617e-14
1.234375,1.345831759e-13,1.395088338e-13,1.146245764e-13,2.613411021e-13,1.574684303e-13,1.156649108e-13,4.565474125e-14,4.993132402e-14,5.403936529e-14,9.339269189e-15,5.393942931e-14,6.269529481e-14,1.813301019e-13,1.768466566e-13,2.594381325e-13,2.99457513e-13,4.062482242e-13,3.130914548e-13,1.840319473e-13,3.668070781e-13,3.052523121e-14,4.880368797e-14,1.546481368e-14,8.228863066e-14,1.878980576e-14,1.489918186e-13,9.631243885e-14,4.051411444e-14,8.368607945e-14,4.484349728e-14,1.852767919e-13,8.272712435e-14
1.2421875,1.418927197e-13,1.412723914e-13,1.237177058e-13,2.80748132e-13,1.659629449e-13,1.283676883e-13,5.248808553e-14,5.124314581e-14,6.001359806e-14,8.833337858e-15,6.091499273e-14,6.896769739e-14,1.875443459e-13,1.83875829e-13,2.581720314e-13,3.065567629e-13,4.12042411e-13,3.192912167e-13,1.910559023e-13,3.788104294e-13,3.3616039e-14,5.539482539e-14,1.572129851e-14,8.052263264e-14,1.873991036e-14,1.385262009e-13,9.598336246e-14,4.644242017e-14,8.577233704e-14,4.526436165e-14,1.906108471e-13,8.650319732e-14
1.25,1.478661623e-13,1.422372781e-13,1.313405624e-13,2.953709527e-13,1.71434832e-13,1.393014006e-13,5.986795413e-14,5.148435647e-14,6.629600648e-14,8.432489372e-15,6.869228905e-14,7.647028386e-14,1.992205383e-13,1.914107277e-13,2.534753761e-13,3.055274669e-13,4.064422087e-13,3.198942802e-13,1.955622738e-13,3.862454665e-13,3.674463581e-14,6.401006297e-14,1.635922667e-14,8.325894509e-14,1.864825537e-14,1.270882313e-13,9.564480057e-14,5.235186147e-14,8.800837264e-14,4.501395041e-14,1.948097229e-13,8.774460109e-14
1.2578125,1.514179331e-13,1.425292815e-13,1.366081843e-13,3.045045952e-13,1.737054092e-13,1.478364753e-13,6.789628756e-14,5.042857586e-14,7.28942527e-14,8.163582996e-15,7.672264818e-14,8.536382622e-14,2.156278123e-13,1.986283093e-13,2.454994914e-13,2.957271531e-13,3.891753089e-13,3.145260283e-13,1.970084697e-13,3.923331597e-13,4.014427155e-14,7.478944231e-14,1.733635438e-14,9.032906768e-14,1.824950343e-14,1.158014152e-13,9.526608205e-14,5.825801125e-14,8.984572663e-14,4.416572923e-14,1.978526651e-13,8.709985509e-14
1.265625,1.517912923e-13,1.417194996e-13,1.414483399e-13,3.07408457e-13,1.724236238e-13,1.534186326e-13,7.647405874e-14,4.814563309e-14,7.985576161e-14,7.906757525e-15,8.460480163e-14,9.580955012e-14,2.356826642e-13,2.056175317e-13,2.353777968e-13,2.786487992e-13,3.616406925e-13,3.035139527e-13,1.955431356e-13,3.973130112e-13,4.369838617e-14,8.696412678e-14,1.851949678e-14,1.013414842e-13,1.772081677e-14,1.050191684e-13,9.459206648e-14,6.401079621e-14,9.124981395e-14,4.298004622e-14,1.991735178e-13,8.469351817e-14
1.2734375,1.489769376e-13,1.39999575e-13,1.447228695e-13,3.042125154e-13,1.679105464e-13,1.561398886e-13,8.477494965e-14,4.499332334e-14,8.655840041e-14,7.473130161e-15,9.205920463e-14,1.06236164e-13,2.555290755e-13,2.100823993e-13,2.23771283e-13,2.561459886e-13,3.277552264e-13,2.873826647e-13,1.915141472e-13,4.036700419e-13,4.74300728e-14,1.000265141e-13,1.990533667e-14,1.158457314e-13,1.660163616e-14,9.507195326e-14,9.345214697e-14,6.937027383e-14,9.181186059e-14,4.10934694e-14,1.981011327e-13,8.171437912e-14
1.28125,1.423706899e-13,1.379169269e-13,1.459481991e-13,2.968348148e-13,1.617216748e-13,1.562827347e-13,9.197316426e-14,4.123408929e-14,9.205545862e-14,6.859735621e-15,9.804615944e-14,1.155861438e-13,2.730015519e-13,2.121614659e-13,2.11970187e-13,2.308282047e-13,2.909302192e-13,2.683992654e-13,1.856887587e-13,4.12512627e-13,5.12673832e-14,1.129125168e-13,2.14873405e-14,1.320032212e-13,1.488065857e-14,8.684455085e-14,9.157901506e-14,7.341112069e-14,9.170773463e-14,3.850413373e-14,1.956633066e-13,7.864054769e-14
1.2890625,1.334782682e-13,1.367604187e-13,1.452965817e-13,2.872392697e-13,1.554240053e-13,1.550134149e-13,9.748019245e-14,3.726651207e-14,9.666979056e-14,6.258786093e-15,1.026430208e-13,1.241750129e-13,2.878180921e-13,2.124755002e-13,2.021940396e-13,2.056348728e-13,2.540686002e-13,2.488054798e-13,1.792578534e-13,4.238221746e-13,5.494944087e-14,1.256280753e-13,2.300926269e-14,1.495191932e-13,1.285335022e-14,8.046678498e-14,8.940247339e-14,7.62659659e-14,9.143807183e-14,3.575593501e-14,1.934317583e-13,7.592786081e-14
1.296875,1.245146509e-13,1.371033955e-13,1.437494913e-13,2.769188079e-13,1.499412193e-13,1.534661492e-13,1.01570968e-13,3.324361682e-14,1.000577903e-13,5.615582958e-15,1.055955759e-13,1.313856214e-13,2.989248857e-13,2.120232334e-13,1.955384393e-13,1.833852861e-13,2.198144676e-13,2.306761609e-13,1.730294814e-13,4.364992619e-13,5.82756564e-14,1.3739481e-13,2.416600296e-14,1.686320996e-13,1.09361949e-14,7.550426157e-14,8.729566173e-14,7.799736967e-14,9.102762813e-14,3.306123825e-14,1.916743641e-13,7.37143743e-14
1.3046875,1.16920599e-13,1.390866414e-13,1.422483258e-13,2.671040827e-13,1.456788927e-13,1.522729693e-13,1.040391021e-13,2.928060738e-14,1.024426519e-13,4.975626694e-15,1.067427354e-13,1.371362278e-13,3.067585774e-13,2.117572889e-13,1.924426097e-13,1.658448014e-13,1.902904017e-13,2.148415989e-13,1.67298969e-13,4.492670788e-13,6.075401598e-14,1.473550481e-13,2.500296144e-14,1.883544577e-13,9.572651698e-15,7.153838095e-14,8.525426842e-14,7.875125271e-14,9.076015744e-14,3.080864211e-14,1.904128484e-13,7.195339302e-14
1.3125,1.116926557e-13,1.42922168e-13,1.407350402e-13,2.589784873e-13,1.434655673e-13,1.520321812e-13,1.049266017e-13,2.592580158e-14,1.029845522e-13,4.450980647e-15,1.064762567e-13,1.398162681e-13,3.093722909e-13,2.112808502e-13,1.927693264e-13,1.541841147e-13,1.659875297e-13,2.017235304e-13,1.625127414e-13,4.602840423e-13,6.216883916e-14,1.540895363e-13,2.534602024e-14,2.07804061e-13,8.857497965e-15,6.804727266e-14,8.31491754e-14,7.83662946e-14,9.01792768e-14,2.884539096e-14,1.894730037e-13,7.038848779e-14
1.3203125,1.097868318e-13,1.485241278e-13,1.390578848e-13,2.536075559e-13,1.433781181e-13,1.530766039e-13,1.047690773e-13,2.290836287e-14,1.020140686e-13,4.163883094e-15,1.054555554e-13,1.396156685e-13,3.08184493e-13,2.115956083e-13,1.955813536e-13,1.480894033e-13,1.474382892e-13,1.911486504e-13,1.58569161e-13,4.682397824e-13,6.243622481e-14,1.581561064e-13,2.546554658e-14,2.266976071e-13,8.957348266e-15,6.452138961e-14,8.149869563e-14,7.733457772e-14,8.926462982e-14,2.7413414e-14,1.889678898e-13,6.8518651e-14
1.328125,1.108003668e-13,1.555348391e-13,1.365506549e-13,2.508588913e-13,1.450882391e-13,1.54901287e-13,1.040592372e-13,2.030584711e-14,1.000393733e-13,4.045856008e-15,1.037988157e-13,1.373398233e-13,3.051000038e-13,2.136405679e-13,1.996484563e-13,1.463235922e-13,1.342405563e-13,1.824470337e-13,1.553548275e-13,4.722704267e-13,6.162432925e-14,1.6050365e-13,2.520839208e-14,2.436416216e-13,9.897328964e-15,6.10996548e-14,8.062911191e-14,7.550152463e-14,8.820173974e-14,2.658755625e-14,1.894287585e-13,6.628583056e-14
1.3359375,1.139999821e-13,1.627790346e-13,1.338410576e-13,2.500029191e-13,1.477613853e-13,1.569423981e-13,1.030367462e-13,1.821355454e-14,9.673119208e-14,4.010261016e-15,1.020477522e-13,1.331230529e-13,2.996928231e-13,2.171894441e-13,2.034667386e-13,1.477879684e-13,1.255667806e-13,1.752338018e-13,1.526258564e-13,4.722978155e-13,5.982331939e-14,1.605456579e-13,2.451840952e-14,2.563361344e-13,1.170520159e-14,5.784290767e-14,8.107116073e-14,7.281421448e-14,8.688138987e-14,2.622867075e-14,1.906077159e-13,6.36166761e-14
1.34375,1.188715336e-13,1.699284677e-13,1.312415308e-13,2.504366247e-13,1.5068707e-13,1.582104693e-13,1.021704321e-13,1.666496035e-14,9.320004339e-14,4.088411336e-15,1.00860481e-13,1.279066677e-13,2.939653351e-13,2.227408688e-13,2.0645976e-13,1.512473019e-13,1.211030761e-13,1.694928535e-13,1.506797556e-13,4.698076304e-13,5.728912354e-14,1.591608846e-13,2.370306979e-14,2.643810538e-13,1.423336461e-14,5.526723677e-14,8.293037461e-14,6.962588371e-14,8.584133729e-14,2.64611978e-14,1.924616462e-13,6.095257419e-14
1.3515625,1.24174052e-13,1.747590974e-13,1.284833319e-13,2.510371947e-13,1.527653386e-13,1.585915618e-13,1.016221372e-13,1.555934338e-14,8.983326964e-14,4.235116723e-15,1.008231684e-13,1.225037498e-13,2.882274091e-13,2.297464905e-13,2.074766075e-13,1.54766015e-13,1.199792477e-13,1.644115589e-13,1.488749508e-13,4.653221592e-13,5.432305263e-14,1.565441902e-13,2.273091074e-14,2.685904856e-13,1.739548294e-14,5.344500005e-14,8.600384298e-14,6.646591857e-14,8.434158856e-14,2.725964719e-14,1.937238646e-13,5.887862707e-14
1.359375,1.281968475e-13,1.763767928e-13,1.253628831e-13,2.506689131e-13,1.53710565e-13,1.572693457e-13,1.01196105e-13,1.49376701e-14,8.633827053e-14,4.335194424e-15,1.019887046e-13,1.173914711e-13,2.826557661e-13,2.375682202e-13,2.065315114e-13,1.572560388e-13,1.218674207e-13,1.596793206e-13,1.466466838e-13,4.599952037e-13,5.115922099e-14,1.520621827e-13,2.175437394e-14,2.675038171e-13,2.113254983e-14,5.25306203e-14,9.048677353e-14,6.351935241e-14,8.176400014e-14,2.844958464e-14,1.938442198e-13,5.725093563e-14
1.3671875,1.30698726e-13,1.744301022e-13,1.228213081e-13,2.477207471e-13,1.526078373e-13,1.531974676e-13,1.000043376e-13,1.511526076e-14,8.338052317e-14,4.343963024e-15,1.042689024e-13,1.133978158e-13,2.769923115e-13,2.450609763e-13,2.035259586e-13,1.581301848e-13,1.251546431e-13,1.562532007e-13,1.441168769e-13,4.518684285e-13,4.772509373e-14,1.467080383e-13,2.080724427e-14,2.616600049e-13,2.529768849e-14,5.258713078e-14,9.609987877e-14,6.077564122e-14,7.864861777e-14,3.007442463e-14,1.927710727e-13,5.58324834e-14
1.375,1.315420655e-13,1.695819453e-13,1.215642481e-13,2.419365464e-13,1.494597518e-13,1.466644051e-13,9.754915633e-14,1.637823255e-14,8.182750142e-14,4.314830734e-15,1.074870877e-13,1.114128827e-13,2.711073062e-13,2.513615459e-13,1.98746937e-13,1.57291808e-13,1.284607633e-13,1.532621981e-13,1.407371862e-13,4.399330832e-13,4.395856061e-14,1.407231887e-13,1.981608155e-14,2.499140234e-13,2.963853098e-14,5.338988258e-14,1.026780858e-13,5.858193687e-14,7.495664862e-14,3.208668386e-14,1.901946343e-13,5.477171314e-14
1.3828125,1.311482317e-13,1.619780599e-13,1.227577277e-13,2.331119858e-13,1.443409848e-13,1.38354156e-13,9.423877183e-14,1.917923325e-14,8.235955018e-14,4.317208492e-15,1.11840807e-13,1.123242423e-13,2.659064248e-13,2.570402466e-13,1.941982381e-13,1.552749533e-13,1.314145967e-13,1.511947947e-13,1.368127399e-13,4.230156239e-13,3.999022105e-14,1.346657018e-13,1.894562758e-14,2.347720976e-13,3.388351758e-14,5.4891261e-14,1.101619608e-13,5.759969925e-14,7.070786222e-14,3.444094911e-14,1.85839604e-13,5.444269826e-14
1.390625,1.292681434e-13,1.512792376e-13,1.259267247e-13,2.196716005e-13,1.373697834e-13,1.27500219e-13,9.035647266e-14,2.339392238e-14,8.50215417e-14,4.321284874e-15,1.17943377e-13,1.163085537e-13,2.607498497e-13,2.612377955e-13,1.888143038e-13,1.514886618e-13,1.333120068e-13,1.494681961e-13,1.321406881e-13,4.019856054e-13,3.609339236e-14,1.281430358e-13,1.802079058e-14,2.177521849e-13,3.774636757e-14,5.719607232e-14,1.181955269e-13,5.761487452e-14,6.624467815e-14,3.694462209e-14,1.802879768e-13,5.502425868e-14
1.3984375,1.258875055e-13,1.390152328e-13,1.293832359e-13,2.022116776e-13,1.299622117e-13,1.14862662e-13,8.528843553e-14,2.92956789e-14,8.948048682e-14,4.371562059e-15,1.251447636e-13,1.226402634e-13,2.553066538e-13,2.624759682e-13,1.830177977e-13,1.47010926e-13,1.346350023e-13,1.475090046e-13,1.265882317e-13,3.779502755e-13,3.249697451e-14,1.199263731e-13,1.700380349e-14,1.987231581e-13,4.09880193e-14,5.95962652e-14,1.259473525e-13,5.844328056e-14,6.178786825e-14,3.918813541e-14,1.744816912e-13,5.611771139e-14
1.40625,1.212628713e-13,1.260491772e-13,1.321142378e-13,1.823471984e-13,1.22029963e-13,1.013625992e-13,7.893681494e-14,3.695832012e-14,9.573015533e-14,4.537006367e-15,1.31884224e-13,1.30541307e-13,2.48970182e-13,2.604486186e-13,1.768032424e-13,1.419164005e-13,1.345357844e-13,1.45319905e-13,1.201010291e-13,3.507886772e-13,2.915504783e-14,1.100865411e-13,1.591290474e-14,1.791397935e-13,4.310811141e-14,6.15282458e-14,1.33179254e-13,5.990383079e-14,5.75875256e-14,4.083911791e-14,1.680884455e-13,5.736025993e-14
1.4140625,1.154386781e-13,1.134393808e-13,1.338366517e-13,1.614635145e-13,1.148798998e-13,8.819143932e-14,7.153547502e-14,4.662479851e-14,1.040104166e-13,4.996433974e-15,1.385308706e-13,1.403436056e-13,2.415237176e-13,2.556666506e-13,1.706519008e-13,1.370055619e-13,1.32879235e-13,1.427213263e-13,1.128414606e-13,3.223114917e-13,2.628582624e-14,9.976076363e-14,1.471951462e-14,1.590864173e-13,4.410484675e-14,6.355065127e-14,1.398488984e-13,6.22295883e-14,5.369804481e-14,4.210270447e-14,1.621798918e-13,5.911386891e-14
1.421875,1.094806987e-13,1.019243151e-13,1.339126502e-13,1.411168141e-13,1.089634318e-13,7.613662694e-14,6.390284422e-14,5.812835857e-14,1.138993431e-13,5.7903472e-15,1.452315831e-13,1.51011402e-13,2.316281661e-13,2.472133935e-13,1.646798965e-13,1.325735091e-13,1.307937704e-13,1.391885797e-13,1.051855748e-13,2.934540403e-13,2.399589173e-14,9.085819091e-14,1.351653185e-14,1.40017297e-13,4.360390605e-14,6.507657823e-14,1.448225631e-13,6.509057227e-14,5.014132605e-14,4.291292656e-14,1.57298522e-13,6.13070577e-14
1.4296875,1.03589442e-13,9.122816735e-14,1.327979866e-13,1.219871677e-13,1.037016116e-13,6.505297934e-14,5.685014307e-14,7.040097535e-14,1.251953042e-13,6.940272524e-15,1.510001777e-13,1.622923312e-13,2.206380707e-13,2.36253798e-13,1.576451052e-13,1.28288604e-13,1.285051042e-13,1.341532456e-13,9.71730363e-14,2.660744364e-13,2.236632572e-14,8.36011388e-14,1.242763865e-14,1.236650183e-13,4.202564365e-14,6.550837686e-14,1.473451038e-13,6.866922815e-14,4.702809191e-14,4.341477321e-14,1.526263127e-13,6.425202158e-14
1.4375,9.802088278e-14,8.169791106e-14,1.30502212e-13,1.0501038e-13,9.924267064e-14,5.5634625e-14,5.05046387e-14,8.277795281e-14,1.364527793e-13,8.442589119e-15,1.565089014e-13,1.727804354e-13,2.082345822e-13,2.23249188e-13,1.500599573e-13,1.242701636e-13,1.252209852e-13,1.278661399e-13,8.919859216e-14,2.407498039e-13,2.130626901e-14,7.807189321e-14,1.151844552e-14,1.105648815e-13,3.972215349e-14,6.497814776e-14,1.47262869e-13,7.314160995e-14,4.42090857e-14,4.346564548e-14,1.48122749e-13,6.72109239e-14
1.4453125,9.372478781e-14,7.394100113e-14,1.272349157e-13,9.077567983e-14,9.548696397e-14,4.816900364e-14,4.524265709e-14,9.501509807e-14,1.472948049e-13,1.033820017e-14,1.613015362e-13,1.809580526e-13,1.943055927e-13,2.079382707e-13,1.422125088e-13,1.20777687e-13,1.207770879e-13,1.206784147e-13,8.179083942e-14,2.178573323e-13,2.089065818e-14,7.529837153e-14,1.074779837e-14,1.017514034e-13,3.690582159e-14,6.355338559e-14,1.445576938e-13,7.829656971e-14,4.189240761e-14,4.325356162e-14,1.443404948e-13,7.031025599e-14
1.453125,9.059692286e-14,6.774128374e-14,1.229588663e-13,7.934403612e-14,9.192885402e-14,4.210883799e-14,4.077226312e-14,1.064300591e-13,1.573001951e-13,1.269900891e-14,1.653134473e-13,1.870790868e-13,1.793219511e-13,1.908688242e-13,1.330363592e-13,1.171048406e-13,1.149308883e-13,1.118640259e-13,7.455257768e-14,1.957440189e-13,2.077592415e-14,7.679729249e-14,1.008410834e-14,9.612176557e-14,3.369833383e-14,6.131875172e-14,1.40053171e-13,8.384312591e-14,4.015212674e-14,4.294898956e-14,1.412584673e-13,7.27598119e-14
1.4609375,8.870082322e-14,6.320091128e-14,1.175094555e-13,7.082145565e-14,8.907367821e-14,3.742961675e-14,3.710950923e-14,1.16738966e-13,1.655311312e-13,1.550145529e-14,1.68681554e-13,1.906043872e-13,1.633229185e-13,1.728588209e-13,1.231504064e-13,1.132776677e-13,1.084035429e-13,1.016143593e-13,6.738085979e-14,1.747772231e-13,2.081073169e-14,8.361579989e-14,9.551111507e-15,9.27330995e-14,3.02077935e-14,5.893985318e-14,1.34364922e-13,8.915959864e-14,3.888468153e-14,4.251415091e-14,1.391396797e-13,7.45399034e-14
1.46875,8.822117338e-14,6.029610337e-14,1.126806077e-13,6.492415178e-14,8.647592262e-14,3.438827354e-14,3.480645471e-14,1.252595635e-13,1.716114663e-13,1.870148394e-14,1.713567173e-13,1.920973722e-13,1.485878983e-13,1.565838627e-13,1.142508971e-13,1.104871055e-13,1.023162976e-13,9.097208571e-14,6.079120995e-14,1.560856994e-13,2.101400804e-14,9.628927394e-14,9.292547849e-15,9.103871059e-14,2.702163528e-14,5.60385823e-14,1.275603041e-13,9.38420409e-14,3.812008349e-14,4.212425463e-14,1.373816356e-13,7.517499792e-14
1.4765625,8.918529446e-14,5.925770927e-14,1.09087003e-13,6.101070463e-14,8.365931485e-14,3.285502401e-14,3.339770645e-14,1.315705748e-13,1.752652177e-13,2.225085746e-14,1.741051706e-13,1.924383206e-13,1.357043608e-13,1.429443504e-13,1.066722575e-13,1.085741136e-13,9.685603899e-14,8.045053051e-14,5.495687517e-14,1.380241634e-13,2.109631502e-14,1.146329468e-13,9.313570539e-15,9.016140897e-14,2.435921353e-14,5.284328757e-14,1.206799652e-13,9.785823055e-14,3.801945973e-14,4.192006636e-14,1.356271323e-13,7.420674068e-14
1.484375,9.101181236e-14,5.982670938e-14,1.062658905e-13,5.837542239e-14,8.030413552e-14,3.267392152e-14,3.260927878e-14,1.360009239e-13,1.768732159e-13,2.598842733e-14,1.768929764e-13,1.918234181e-13,1.253118229e-13,1.320398391e-13,1.007341122e-13,1.075517372e-13,9.227799147e-14,7.037882026e-14,4.974323846e-14,1.215495895e-13,2.094369127e-14,1.374695437e-13,9.675596893e-15,8.914460279e-14,2.225028863e-14,4.932901074e-14,1.148653733e-13,1.011294798e-13,3.819380761e-14,4.188173293e-14,1.330926913e-13,7.176373713e-14
1.4921875,9.317019048e-14,6.192766187e-14,1.048591839e-13,5.705787014e-14,7.672202868e-14,3.393265413e-14,3.26375688e-14,1.392747288e-13,1.767637142e-13,2.986086236e-14,1.806213239e-13,1.910540363e-13,1.180154435e-13,1.249871741e-13,9.709960351e-14,1.075923292e-13,8.893747773e-14,6.128410871e-14,4.572159866e-14,1.074264083e-13,2.080877419e-14,1.641950518e-13,1.039232504e-14,8.854080964e-14,2.086585815e-14,4.580828568e-14,1.105037254e-13,1.040187114e-13,3.889551826e-14,4.225513422e-14,1.300153318e-13,6.78032574e-14
1.5,9.593315365e-14,6.562032531e-14,1.051734468e-13,5.65834852e-14,7.305278505e-14,3.654284074e-14,3.360081384e-14,1.41815404e-13,1.759342057e-13,3.375382542e-14,1.863526026e-13,1.916610124e-13,1.138471452e-13,1.225076433e-13,9.575838714e-14,1.085181857e-13,8.635834513e-14,5.35279823e-14,4.308836197e-14,9.478821053e-14,2.093040553e-14,1.913784469e-13,1.142679631e-14,8.838682163e-14,2.013390831e-14,4.233236596e-14,1.076965229e-13,1.073625318e-13,4.022206091e-14,4.30412142e-14,1.256282321e-13,6.327272115e-14
1.5078125,9.908341336e-14,7.108723699e-14,1.074809861e-13,5.715276378e-14,6.987489195e-14,4.048558341e-14,3.55625112e-14,1.437359384e-13,1.75102689e-13,3.746124418e-14,1.93465375e-13,1.946657696e-13,1.13291661e-13,1.251927049e-13,9.647081109e-14,1.100475099e-13,8.419854763e-14,4.704500453e-14,4.153810169e-14,8.473247436e-14,2.138762645e-14,2.149110991e-13,1.274332577e-14,8.982107205e-14,1.993863193e-14,3.919956844e-14,1.068211334e-13,1.115063074e-13,4.203187423e-14,4.430811355e-14,1.19665156e-13,5.905081209e-14
1.515625,1.025205636e-13,7.793461612e-14,1.120860658e-13,5.849778068e-14,6.755641749e-14,4.586594264e-14,3.863141861e-14,1.455504051e-13,1.747058212e-13,4.059261117e-14,2.01827113e-13,2.001941724e-13,1.165114605e-13,1.330003939e-13,9.895318486e-14,1.11744316e-13,8.16516848e-14,4.232521408e-14,4.103625249e-14,7.748499277e-14,2.225188559e-14,2.324964414e-13,1.421050517e-14,9.259744402e-14,2.030444287e-14,3.647788338e-14,1.074873321e-13,1.166683836e-13,4.437899055e-14,4.589531537e-14,1.126453205e-13,5.624931902e-14
1.5234375,1.056672042e-13,8.561297979e-14,1.18868258e-13,6.013405466e-14,6.55226713e-14,5.278774372e-14,4.280357332e-14,1.482320351e-13,1.763306216e-13,4.272206711e-14,2.115245669e-13,2.091151265e-13,1.237764032e-13,1.457963869e-13,1.031555782e-13,1.138026108e-13,7.93858983e-14,3.953862979e-14,4.170346631e-14,7.215186584e-14,2.370752899e-14,2.406582199e-13,1.559403622e-14,9.739717016e-14,2.11122945e-14,3.428631035e-14,1.100288053e-13,1.24064015e-13,4.719626797e-14,4.754656204e-14,1.037982215e-13,5.594940541e-14
1.53125,1.091290059e-13,9.528393723e-14,1.280649095e-13,6.258973832e-14,6.432870739e-14,6.164631393e-14,4.837330448e-14,1.512953691e-13,1.798754012e-13,4.429487552e-14,2.225011032e-13,2.229677917e-13,1.352038481e-13,1.643381899e-13,1.087162264e-13,1.16205455e-13,7.765451628e-14,3.847809486e-14,4.334140366e-14,6.849049572e-14,2.572138358e-14,2.417769263e-13,1.679024901e-14,1.048475869e-13,2.232060127e-14,3.321398047e-14,1.143458951e-13,1.344222862e-13,5.102956722e-14,4.970557064e-14,9.436327302e-14,5.786486801e-14
1.5390625,1.133257693e-13,1.067364616e-13,1.398939838e-13,6.606574134e-14,6.460537412e-14,7.268539406e-14,5.503897576e-14,1.544961211e-13,1.855275261e-13,4.539068086e-14,2.335082404e-13,2.424764554e-13,1.511474685e-13,1.884635038e-13,1.152179954e-13,1.186570854e-13,7.627045768e-14,3.902512664e-14,4.55555266e-14,6.679607466e-14,2.801914237e-14,2.382416174e-13,1.783492468e-14,1.147207843e-13,2.390940145e-14,3.331246368e-14,1.207763994e-13,1.488660315e-13,5.572473299e-14,5.246403823e-14,8.54064175e-14,6.221939302e-14
1.546875,1.169116137e-13,1.185641104e-13,1.527965613e-13,7.094106635e-14,6.680756274e-14,8.597209313e-14,6.231744592e-14,1.583036048e-13,1.935253084e-13,4.568098497e-14,2.433566427e-13,2.67060931e-13,1.711965392e-13,2.16947999e-13,1.220440727e-13,1.201644973e-13,7.48513607e-14,4.117807577e-14,4.818231726e-14,6.668966508e-14,3.059814683e-14,2.270697968e-13,1.866135831e-14,1.260453701e-13,2.59845022e-14,3.454435583e-14,1.298534696e-13,1.674728725e-13,6.057607266e-14,5.527096338e-14,7.73958852e-14,6.944960032e-14
1.5546875,1.196027308e-13,1.300862224e-13,1.664657805e-13,7.768368223e-14,7.106913375e-14,1.02076987e-13,7.043880836e-14,1.633914834e-13,2.034999878e-13,4.500540237e-14,2.518182664e-13,2.960162827e-13,1.958930095e-13,2.49851767e-13,1.296557893e-13,1.214033715e-13,7.369737204e-14,4.481442033e-14,5.130551304e-14,6.743520553e-14,3.348796219e-14,2.066547724e-13,1.917322491e-14,1.388589715e-13,2.858427364e-14,3.681630572e-14,1.416585783e-13,1.903289326e-13,6.537521894e-14,5.756362398e-14,7.035051225e-14,7.959180228e-14
1.5625,1.221480255e-13,1.412165151e-13,1.811653445e-13,8.603570132e-14,7.677209324e-14,1.209910069e-13,7.957922881e-14,1.695039353e-13,2.154849818e-13,4.389979606e-14,2.582108869e-13,3.294298346e-13,2.25776489e-13,2.87051717e-13,1.378691198e-13,1.22766738e-13,7.364279945e-14,4.965498648e-14,5.441787501e-14,6.818279079e-14,3.638798792e-14,1.841989027e-13,1.941222912e-14,1.516243458e-13,3.197598194e-14,4.011199723e-14,1.557986736e-13,2.169211209e-13,7.005705848e-14,5.97961076e-14,6.444979724e-14,9.166107645e-14
1.5703125,1.25129902e-13,1.515422525e-13,1.972806902e-13,9.628619973e-14,8.402339624e-14,1.427507126e-13,8.983136549e-14,1.756833463e-13,2.28494561e-13,4.278217972e-14,2.614097238e-13,3.665390702e-13,2.596876025e-13,3.281733382e-13,1.469083281e-13,1.251549807e-13,7.547165649e-14,5.570127174e-14,5.741532107e-14,6.890827275e-14,3.902442625e-14,1.662075113e-13,1.951982411e-14,1.636012226e-13,3.628509285e-14,4.440252887e-14,1.716682303e-13,2.462386733e-13,7.434094873e-14,6.203528865e-14,6.038360129e-14,1.046916026e-13
1.578125,1.287451468e-13,1.600868385e-13,2.14077367e-13,1.083136291e-13,9.269659769e-14,1.667830632e-13,1.004713035e-13,1.815068505e-13,2.415703818e-13,4.156507305e-14,2.615398129e-13,4.051380952e-13,2.967270151e-13,3.710440069e-13,1.565197304e-13,1.291813918e-13,7.933188225e-14,6.268809288e-14,6.034196343e-14,7.127080387e-14,4.126819295e-14,1.560056167e-13,1.986903976e-14,1.734512732e-13,4.129095307e-14,4.901557327e-14,1.885524015e-13,2.766497042e-13,7.767546309e-14,6.448925094e-14,5.798784913e-14,1.181043927e-13
1.5859375,1.319446635e-13,1.650870851e-13,2.303431962e-13,1.203324533e-13,1.011008019e-13,1.910601585e-13,1.113123099e-13,1.864760428e-13,2.541973746e-13,4.024976777e-14,2.587409768e-13,4.422886488e-13,3.351790918e-13,4.122813509e-13,1.65578047e-13,1.340386631e-13,8.411355438e-14,6.983787846e-14,6.269138197e-14,7.49887724e-14,4.312529496e-14,1.541680545e-13,2.058044773e-14,1.800638622e-13,4.743256985e-14,5.326689984e-14,2.054051926e-13,3.064534202e-13,7.924958981e-14,6.677221376e-14,5.63717123e-14,1.313116842e-13
1.59375,1.348427401e-13,1.659429752e-13,2.455580654e-13,1.305042667e-13,1.074141934e-13,2.129588349e-13,1.223309166e-13,1.889902404e-13,2.656238177e-13,3.920000595e-14,2.521521139e-13,4.759707062e-13,3.727810142e-13,4.490562866e-13,1.737831645e-13,1.398017152e-13,8.978868925e-14,7.661368337e-14,6.432956051e-14,8.007048971e-14,4.445163328e-14,1.639804374e-13,2.163329266e-14,1.829986632e-13,5.496885274e-14,5.67610223e-14,2.214984455e-13,3.342526992e-13,7.911530206e-14,6.908868597e-14,5.573249089e-14,1.429493901e-13
1.6015625,1.376004679e-13,1.633399634e-13,2.602421942e-13,1.38042472e-13,1.111647398e-13,2.301546104e-13,1.331802648e-13,1.871060071e-13,2.742643598e-13,3.854222894e-14,2.42393042e-13,5.04054209e-13,4.073547341e-13,4.788028414e-13,1.803103006e-13,1.463157162e-13,9.598115816e-14,8.264730133e-14,6.537023685e-14,8.722332749e-14,4.527001648e-14,1.877569837e-13,2.321803862e-14,1.821055242e-13,6.382087639e-14,5.989213785e-14,2.360672731e-13,3.579625806e-13,7.801096235e-14,7.172454416e-14,5.690529964e-14,1.519056816e-13
1.609375,1.401910108e-13,1.578945771e-13,2.759878913e-13,1.426069658e-13,1.126022756e-13,2.414883791e-13,1.436135179e-13,1.820692184e-13,2.798801426e-13,3.802064843e-14,2.316878619e-13,5.241796503e-13,4.362684223e-13,5.008332052e-13,1.85447205e-13,1.54747916e-13,1.037698202e-13,8.88561795e-14,6.653788929e-14,9.763035884e-14,4.585268127e-14,2.277599123e-13,2.527170382e-14,1.771711853e-13,7.425795117e-14,6.239654192e-14,2.484008259e-13,3.763119115e-13,7.613521745e-14,7.485042018e-14,5.931656907e-14,1.594480997e-13
1.6171875,1.428061207e-13,1.500785097e-13,2.923613068e-13,1.432735619e-13,1.114059307e-13,2.469672567e-13,1.534637357e-13,1.740831041e-13,2.828114348e-13,3.748658871e-14,2.216293175e-13,5.359246247e-13,4.577685872e-13,5.142186145e-13,1.897036831e-13,1.654351646e-13,1.134301264e-13,9.564487438e-14,6.80759458e-14,1.125904128e-13,4.638408996e-14,2.845236792e-13,2.745546534e-14,1.698461508e-13,8.625013992e-14,6.376148001e-14,2.574680033e-13,3.898764822e-13,7.33442114e-14,7.868127598e-14,6.241894458e-14,1.660145735e-13
1.625,1.449969515e-13,1.402257455e-13,3.082020719e-13,1.396018963e-13,1.07593307e-13,2.456050373e-13,1.627820733e-13,1.632109878e-13,2.824434823e-13,3.684525763e-14,2.132695118e-13,5.377430029e-13,4.693195515e-13,5.170841896e-13,1.921547569e-13,1.774511319e-13,1.247751694e-13,1.027947115e-13,7.032092391e-14,1.312071332e-13,4.727716153e-14,3.544278797e-13,2.96723214e-14,1.611457317e-13,9.927043276e-14,6.407311841e-14,2.618208165e-13,3.977004836e-13,7.01872407e-14,8.274313328e-14,6.62298296e-14,1.71920994e-13
1.6328125,1.462223792e-13,1.288027781e-13,3.233340577e-13,1.313619273e-13,1.014061238e-13,2.36763026e-13,1.709015565e-13,1.513768873e-13,2.792868496e-13,3.569924486e-14,2.070251422e-13,5.290656213e-13,4.702008171e-13,5.094996169e-13,1.924585637e-13,1.906181219e-13,1.381960959e-13,1.100641183e-13,7.368467444e-14,1.534980986e-13,4.872449838e-14,4.323210745e-13,3.166156058e-14,1.510932822e-13,1.128579053e-13,6.34483865e-14,2.62628807e-13,4.002255974e-13,6.694006335e-14,8.637619402e-14,7.006153302e-14,1.783055794e-13
1.640625,1.470140437e-13,1.177710139e-13,3.374219602e-13,1.192727888e-13,9.401229916e-14,2.217707687e-13,1.77272322e-13,1.392093981e-13,2.738036033e-13,3.40303196e-14,2.031116875e-13,5.116300368e-13,4.612435923e-13,4.938455665e-13,1.917314404e-13,2.050578073e-13,1.539650802e-13,1.187953867e-13,7.907654389e-14,1.800874878e-13,5.108035472e-14,5.146166291e-13,3.351884277e-14,1.408329392e-13,1.266903221e-13,6.283984469e-14,2.60966011e-13,3.989688083e-13,6.467238149e-14,8.932226716e-14,7.449168984e-14,1.864919046e-13
1.6484375,1.479737854e-13,1.0825318e-13,3.491698596e-13,1.060801677e-13,8.780590539e-14,2.028375742e-13,1.815727914e-13,1.281690348e-13,2.663429933e-13,3.188345338e-14,2.015128302e-13,4.8682686e-13,4.443290021e-13,4.723880707e-13,1.901663053e-13,2.196304137e-13,1.715085499e-13,1.294325956e-13,8.675162954e-14,2.100306966e-13,5.452884491e-14,5.974423145e-13,3.514922395e-14,1.306289463e-13,1.398262452e-13,6.232642363e-14,2.561901075e-13,3.938641693e-13,6.384345202e-14,9.139775754e-14,7.991477143e-14,1.971048052e-13
1.65625,1.492293287e-13,1.005794532e-13,3.569928311e-13,9.36993698e-14,8.341222545e-14,1.824352778e-13,1.832187461e-13,1.199786749e-13,2.581197194e-13,2.925024717e-14,2.009854223e-13,4.567182767e-13,4.215606023e-13,4.469934438e-13,1.878368136e-13,2.337027817e-13,1.898090589e-13,1.414160225e-13,9.629423582e-14,2.426039179e-13,5.895456423e-14,6.713204114e-13,3.667664936e-14,1.213811122e-13,1.512661364e-13,6.18776803e-14,2.492557931e-13,3.867133284e-13,6.432843754e-14,9.226255404e-14,8.501778301e-14,2.101100757e-13
1.6640625,1.510462928e-13,9.542019421e-14,3.606607398e-13,8.401389064e-14,8.146137875e-14,1.623668947e-13,1.822088995e-13,1.149152368e-13,2.50067665e-13,2.638942559e-14,1.99722263e-13,4.240065022e-13,3.954891242e-13,4.20068138e-13,1.853729894e-13,2.473480544e-13,2.090181716e-13,1.551218805e-13,1.078393048e-13,2.775270386e-13,6.411839202e-14,7.291595616e-13,3.810404974e-14,1.137666174e-13,1.603729154e-13,6.155203385e-14,2.404335155e-13,3.788487734e-13,6.661585968e-14,9.147909252e-14,8.991004205e-14,2.255757275e-13
1.671875,1.539474886e-13,9.322840343e-14,3.615341528e-13,7.800087757e-14,8.206416979e-14,1.438252657e-13,1.788846531e-13,1.129609016e-13,2.436984046e-13,2.346097668e-14,1.965502751e-13,3.922115087e-13,3.697713328e-13,3.943422933e-13,1.830063668e-13,2.598900681e-13,2.274744075e-13,1.704224486e-13,1.211492972e-13,3.147558431e-13,7.002208425e-14,7.641512132e-13,4.000171978e-14,1.093760811e-13,1.671958658e-13,6.173373738e-14,2.301368853e-13,3.716466996e-13,7.136474969e-14,8.908639111e-14,9.476633944e-14,2.439536626e-13
1.6796875,1.584536268e-13,9.433725668e-14,3.601607241e-13,7.619542855e-14,8.592348439e-14,1.279966764e-13,1.733933876e-13,1.140976931e-13,2.389999965e-13,2.073956367e-14,1.905988614e-13,3.634776711e-13,3.455437893e-13,3.712249317e-13,1.811063217e-13,2.70622088e-13,2.447766412e-13,1.866396766e-13,1.352747848e-13,3.530989462e-13,7.620721594e-14,7.785546366e-13,4.276519702e-14,1.087656135e-13,1.719353057e-13,6.254420818e-14,2.190962764e-13,3.659695356e-13,7.859781526e-14,8.534089375e-14,9.996370874e-14,2.631458268e-13
1.6875,1.648868134e-13,9.898676034e-14,3.559060067e-13,7.974936097e-14,9.291711623e-14,1.154037059e-13,1.655179212e-13,1.178711492e-13,2.352513286e-13,1.833402051e-14,1.807190683e-13,3.382062778e-13,3.226537018e-13,3.503459261e-13,1.792347262e-13,2.788823926e-13,2.608497686e-13,2.03697919e-13,1.498500047e-13,3.907039853e-13,8.191212182e-14,7.721300603e-13,4.678075123e-14,1.123649692e-13,1.740140726e-13,6.35339483e-14,2.070853556e-13,3.603128071e-13,8.798241772e-14,8.052903422e-14,1.055699186e-13,2.811424181e-13
1.6953125,1.733177134e-13,1.068280555e-13,3.486726359e-13,8.832689327e-14,1.021171614e-13,1.058384283e-13,1.55183914e-13,1.24116831e-13,2.32197093e-13,1.674792059e-14,1.683869421e-13,3.161108179e-13,3.026415458e-13,3.308260548e-13,1.766374084e-13,2.847829428e-13,2.757495706e-13,2.209807171e-13,1.644445573e-13,4.271345002e-13,8.702337208e-14,7.482049763e-13,5.257747542e-14,1.207289859e-13,1.734977087e-13,6.52066486e-14,1.951587514e-13,3.539572971e-13,9.947703316e-14,7.550378437e-14,1.114793049e-13,2.9750773e-13
1.703125,1.838330795e-13,1.173190363e-13,3.394150666e-13,1.009635168e-13,1.124291533e-13,9.92299388e-14,1.434009481e-13,1.319728118e-13,2.293710013e-13,1.619656319e-14,1.542425461e-13,2.975820593e-13,2.861629228e-13,3.141843976e-13,1.744739168e-13,2.904010616e-13,2.904160972e-13,2.385074742e-13,1.783484922e-13,4.636559918e-13,9.142430985e-14,7.129814603e-13,6.05997557e-14,1.345952549e-13,1.710028767e-13,6.786498998e-14,1.858571895e-13,3.478254449e-13,1.126731125e-13,7.072647444e-14,1.174522549e-13,3.111927158e-13
1.7109375,1.953012648e-13,1.30309833e-13,3.27019067e-13,1.164042223e-13,1.237820876e-13,9.505057751e-14,1.305171783e-13,1.402495876e-13,2.255562079e-13,1.662225039e-14,1.385291287e-13,2.812779026e-13,2.711861168e-13,2.98692579e-13,1.72059803e-13,2.940915324e-13,3.034080507e-13,2.558561895e-13,1.910995945e-13,4.999579052e-13,9.499617465e-14,6.715019623e-13,7.098465632e-14,1.528627639e-13,1.668883628e-13,7.166739813e-14,1.78897541e-13,3.406868467e-13,1.268510636e-13,6.610022249e-14,1.24204179e-13,3.21182691e-13
1.71875,2.061642062e-13,1.442026106e-13,3.109739698e-13,1.330560515e-13,1.358030852e-13,9.244986199e-14,1.172143131e-13,1.485824252e-13,2.191525368e-13,1.818974484e-14,1.235359852e-13,2.650902968e-13,2.564014187e-13,2.822114348e-13,1.684181423e-13,2.951305329e-13,3.14028729e-13,2.709336015e-13,2.017986698e-13,5.334791502e-13,9.766542109e-14,6.315077535e-13,8.411582233e-14,1.751507706e-13,1.618449906e-13,7.71751312e-14,1.747291776e-13,3.306477233e-13,1.408042199e-13,6.165598979e-14,1.319379284e-13,3.255007814e-13
1.7265625,2.146147399e-13,1.57463503e-13,2.925754721e-13,1.499683631e-13,1.477134226e-13,9.098803887e-14,1.043486561e-13,1.567747785e-13,2.09613906e-13,2.07634018e-14,1.102261114e-13,2.481015183e-13,2.408432361e-13,2.652928724e-13,1.642576062e-13,2.940682884e-13,3.224986654e-13,2.843642228e-13,2.108630661e-13,5.644374327e-13,9.952623535e-14,5.948098831e-13,1.001402335e-13,1.99530889e-13,1.570458608e-13,8.463450623e-14,1.738626776e-13,3.173199872e-13,1.538750047e-13,5.728455113e-14,1.403431485e-13,3.230745758e-13
1.734375,2.205085814e-13,1.684722998e-13,2.722860048e-13,1.655937003e-13,1.590837645e-13,8.992930232e-14,9.195954015e-14,1.638692624e-13,1.965978941e-13,2.434070923e-14,9.929658802e-14,2.294496194e-13,2.247013676e-13,2.474261036e-13,1.590902317e-13,2.905495089e-13,3.280739167e-13,2.9618107e-13,2.181599657e-13,5.933454443e-13,1.006478063e-13,5.629333246e-13,1.186015303e-13,2.261180901e-13,1.532628442e-13,9.41668467e-14,1.759272528e-13,3.008153203e-13,1.655572805e-13,5.299969617e-14,1.494050207e-13,3.134905669e-13
1.7421875,2.230196212e-13,1.760364383e-13,2.50234396e-13,1.788519948e-13,1.706035107e-13,8.881489097e-14,8.065067208e-14,1.706211188e-13,1.824249384e-13,2.875511135e-14,9.13811748e-14,2.102535629e-13,2.102084788e-13,2.299575351e-13,1.533476362e-13,2.849701743e-13,3.303984248e-13,3.063139867e-13,2.236609933e-13,6.197893205e-13,1.015825283e-13,5.351997781e-13,1.386340028e-13,2.548338634e-13,1.504666551e-13,1.059345451e-13,1.80820544e-13,2.829755616e-13,1.759940538e-13,4.914877046e-14,1.59482021e-13,2.995709188e-13
1.75,2.204863069e-13,1.796733309e-13,2.255725145e-13,1.902451475e-13,1.829036077e-13,8.785322667e-14,7.040781935e-14,1.774194413e-13,1.671637684e-13,3.381256066e-14,8.633272541e-14,1.900260275e-13,1.972282552e-13,2.127140708e-13,1.469705923e-13,2.766041048e-13,3.28656328e-13,3.144976386e-13,2.273135046e-13,6.43119925e-13,1.027495873e-13,5.112545372e-13,1.59154248e-13,2.827993497e-13,1.485267861e-13,1.197732866e-13,1.877654811e-13,2.63746991e-13,1.852326909e-13,4.541325938e-14,1.705237433e-13,2.824750551e-13
1.7578125,2.126048866e-13,1.798339406e-13,2.004235469e-13,1.999494852e-13,1.970376539e-13,8.676109938e-14,6.111667677e-14,1.847001785e-13,1.512948798e-13,3.941512578e-14,8.568238534e-14,1.692030056e-13,1.86213918e-13,1.966014734e-13,1.401201968e-13,2.657717118e-13,3.232374137e-13,3.212264632e-13,2.295250557e-13,6.634895418e-13,1.043571681e-13,4.890501878e-13,1.792015021e-13,3.079824844e-13,1.474786333e-13,1.35759077e-13,1.964175358e-13,2.425626467e-13,1.935480499e-13,4.208219327e-14,1.825330318e-13,2.63452285e-13
1.765625,2.011307496e-13,1.781968099e-13,1.761890008e-13,2.103774778e-13,2.137470465e-13,8.734104835e-14,5.331070378e-14,1.927709185e-13,1.367513218e-13,4.539369776e-14,8.98933742e-14,1.506745908e-13,1.79786933e-13,1.850132314e-13,1.345725482e-13,2.549706456e-13,3.167453686e-13,3.292661482e-13,2.316522811e-13,6.812395688e-13,1.065621191e-13,4.668279126e-13,1.974784987e-13,3.289490503e-13,1.472493366e-13,1.534569844e-13,2.064704183e-13,2.213738753e-13,2.010584484e-13,3.976824434e-14,1.958968271e-13,2.445620365e-13
1.7734375,1.865219409e-13,1.741651667e-13,1.524706503e-13,2.212862143e-13,2.318126225e-13,8.947352024e-14,4.637314059e-14,2.008429272e-13,1.228881259e-13,5.159768982e-14,9.771056212e-14,1.342849872e-13,1.773679239e-13,1.770264127e-13,1.301518474e-13,2.43768985e-13,3.084754663e-13,3.379727683e-13,2.336805281e-13,6.953172164e-13,1.08919947e-13,4.422172939e-13,2.130604224e-13,3.442783458e-13,1.469115911e-13,1.714904828e-13,2.176427208e-13,2.004969439e-13,2.074685005e-13,3.820614704e-14,2.097316203e-13,2.25422563e-13
1.78125,1.709018389e-13,1.695563794e-13,1.313877198e-13,2.328228744e-13,2.504627605e-13,9.337406626e-14,4.066266235e-14,2.08117222e-13,1.108216191e-13,5.780187761e-14,1.090203863e-13,1.219418546e-13,1.812181706e-13,1.743634024e-13,1.275752473e-13,2.327508382e-13,2.993903246e-13,3.484909055e-13,2.362340384e-13,7.033273711e-13,1.108937903e-13,4.143667107e-13,2.242798446e-13,3.530599014e-13,1.456571198e-13,1.886743257e-13,2.286993014e-13,1.802525333e-13,2.1359943e-13,3.771667213e-14,2.238341476e-13,2.067203804e-13
1.7890625,1.561094586e-13,1.65250439e-13,1.142887379e-13,2.458060983e-13,2.686509348e-13,9.988494803e-14,3.63518362e-14,2.135642997e-13,1.017654019e-13,6.386499035e-14,1.230086172e-13,1.148270601e-13,1.921212969e-13,1.769689382e-13,1.271539626e-13,2.23177023e-13,2.907352478e-13,3.619207393e-13,2.394162791e-13,7.045534826e-13,1.121197716e-13,3.845855088e-13,2.306911991e-13,3.554923305e-13,1.435912979e-13,2.037629518e-13,2.387599488e-13,1.615207928e-13,2.190442387e-13,3.841766912e-14,2.373333109e-13,1.896753682e-13
1.796875,1.437334645e-13,1.626182772e-13,1.012001446e-13,2.603409865e-13,2.855126734e-13,1.094267208e-13,3.333095789e-14,2.162989586e-13,9.568231723e-14,6.971488405e-14,1.380271055e-13,1.129179854e-13,2.097237246e-13,1.842243532e-13,1.289745957e-13,2.156206373e-13,2.834297186e-13,3.784544771e-13,2.432197653e-13,6.980278687e-13,1.122017427e-13,3.535856182e-13,2.325578586e-13,3.521602628e-13,1.404492599e-13,2.155278235e-13,2.471402736e-13,1.455479633e-13,2.232376994e-13,4.037797522e-14,2.496888732e-13,1.747027979e-13
1.8046875,1.343485042e-13,1.623248182e-13,9.188549823e-14,2.753215059e-13,3.000765194e-13,1.214364558e-13,3.202283985e-14,2.16655182e-13,9.258127468e-14,7.48382508e-14,1.518855801e-13,1.157290588e-13,2.330594869e-13,1.948888591e-13,1.327807752e-13,2.100427249e-13,2.786195457e-13,3.968448407e-13,2.470978344e-13,6.84238017e-13,1.110654505e-13,3.22205216e-13,2.305455298e-13,3.43978435e-13,1.360583289e-13,2.233229352e-13,2.526410041e-13,1.325988563e-13,2.257813019e-13,4.299558094e-14,2.602389518e-13,1.625721623e-13
