"Time","Fp1","AF3","F7","F3","FC1","FC5","T7","C3","CP1","CP5","P7","P3","Pz","PO3","O1","Oz","O2","PO4","P4","P8","CP6","CP2","C4","T8","FC6","FC2","F4","F8","AF4","Fp2","Fz","Cz"
0.0078125,5.409751623e-15,5.539759396e-15,6.489572391e-14,6.464610618e-15,4.926412312e-14,4.439564286e-15,2.181880202e-14,4.202284836e-14,1.214727132e-14,3.207926968e-15,2.186235596e-15,2.046122381e-15,1.819196485e-15,4.040414632e-15,1.468231511e-14,3.16128081e-15,1.192869749e-14,1.040476383e-14,1.425488078e-14,1.226591727e-14,1.872227231e-14,1.031743504e-14,6.575047485e-15,5.657163858e-14,7.619229512e-15,8.077031275e-15,9.24816644e-16,3.718388413e-14,7.432130865e-15,1.10048252e-14,1.674828399e-14,4.870831974e-14
0.015625,5.418430925e-15,5.953760616e-15,6.198100777e-14,7.725813905e-15,5.468444148e-14,5.346879537e-15,2.100543921e-14,4.334686355e-14,1.104845412e-14,3.627054853e-15,2.013825109e-15,1.984231263e-15,2.58291258e-15,3.509464566e-15,1.741118598e-14,3.500693606e-15,1.167683976e-14,1.322268388e-14,1.631121167e-14,1.257419245e-14,1.902534007e-14,1.01407194e-14,6.504885609e-15,6.246090988e-14,9.858661625e-15,8.347570578e-15,9.737781677e-16,4.332711856e-14,8.470166487e-15,1.137346251e-14,1.910065372e-14,4.803240437e-14
0.0234375,5.773074942e-15,6.366907516e-15,5.450221466e-14,8.500151095e-15,5.663369051e-14,5.960786479e-15,1.849250696e-14,4.141424641e-14,9.194864235e-15,4.039152151e-15,1.674254953e-15,2.223275007e-15,3.277998392e-15,3.024036922e-15,1.954027604e-14,3.685104291e-15,1.101536108e-14,1.584412284e-14,1.772302561e-14,1.263288389e-14,1.7836087e-14,9.311009722e-15,5.972698403e-15,6.453557283e-14,1.259294469e-14,8.383338037e-15,9.459666002e-16,4.734514954e-14,9.025912893e-15,1.111017832e-14,2.029563598e-14,4.34290622e-14
0.03125,6.70616386e-15,7.292104808e-15,4.388891758e-14,8.983455681e-15,5.532552091e-14,6.532712346e-15,1.475977829e-14,3.668708707e-14,6.916122704e-15,4.706656937e-15,1.240880508e-15,3.057686532e-15,3.989317153e-15,3.019027733e-15,2.136499343e-14,3.856450581e-15,1.075368417e-14,1.823969722e-14,1.851852745e-14,1.294344102e-14,1.544216584e-14,7.94413982e-15,5.162209955e-15,6.239846963e-14,1.542479237e-14,8.637768649e-15,8.60570694e-16,4.876042233e-14,9.124166527e-15,1.038509696e-14,2.033165149e-14,3.60732509e-14
0.0390625,8.753915033e-15,9.054559501e-15,3.28949996e-14,8.801748259e-15,5.102490509e-14,6.807345093e-15,1.106858662e-14,3.028812576e-14,4.764317394e-15,5.92615833e-15,9.252123876e-16,4.603432508e-15,4.373785841e-15,3.859482822e-15,2.333412544e-14,4.392209552e-15,1.099643618e-14,1.998967952e-14,1.870735225e-14,1.384277685e-14,1.263667799e-14,6.391020092e-15,4.24290577e-15,5.759167492e-14,1.765294846e-14,9.44293105e-15,7.724912102e-16,4.745241502e-14,8.918659408e-15,9.613466271e-15,1.917415073e-14,2.784145278e-14
0.046875,1.146909804e-14,1.178763776e-14,2.312087072e-14,7.882496007e-15,4.436047753e-14,6.804381496e-15,7.985038345e-15,2.326526999e-14,3.159987803e-15,7.978821758e-15,8.15520478e-16,6.792662021e-15,4.204172798e-15,5.613928161e-15,2.561325392e-14,5.538131846e-15,1.226970602e-14,2.07284865e-14,1.846574931e-14,1.571726672e-14,9.869541753e-15,4.938000665e-15,3.351119905e-15,5.080783593e-14,1.864811641e-14,1.088355977e-14,7.567170099e-16,4.363595082e-14,8.599416659e-15,8.950287558e-15,1.718263653e-14,2.004382744e-14
0.0546875,1.436853119e-14,1.549404042e-14,1.555101997e-14,6.599341645e-15,3.701426221e-14,6.728083367e-15,5.703680033e-15,1.681091666e-14,2.140581347e-15,1.106278089e-14,1.11998015e-15,9.206587385e-15,3.874210321e-15,8.184385307e-15,2.812781577e-14,7.306449843e-15,1.447723611e-14,2.052305763e-14,1.786981366e-14,1.814773987e-14,7.415983566e-15,3.73978067e-15,2.671991667e-15,4.31071986e-14,1.827438382e-14,1.27325282e-14,8.749797599e-16,3.809756879e-14,8.223067859e-15,8.381732088e-15,1.517096706e-14,1.363322729e-14
0.0625,1.691164123e-14,1.969795106e-14,1.087568755e-14,5.178255527e-15,3.006295804e-14,6.933192769e-15,4.34218619e-15,1.165360728e-14,1.681284643e-15,1.518405191e-14,1.932468633e-15,1.133087502e-14,3.621687946e-15,1.153005891e-14,3.12119443e-14,9.94516089e-15,1.731639268e-14,1.971730868e-14,1.708940076e-14,2.084229321e-14,5.465521595e-15,2.880139741e-15,2.256075999e-15,3.540599361e-14,1.685969773e-14,1.46088073e-14,1.294899599e-15,3.16293003e-14,7.862403532e-15,7.849681093e-15,1.361549033e-14,9.008197354e-15
0.0703125,1.882628653e-14,2.440228788e-14,9.499776249e-15,3.894987657e-15,2.390447208e-14,7.657997236e-15,3.753862766e-15,7.865697121e-15,1.635637814e-15,2.027603394e-14,3.455275101e-15,1.274532022e-14,3.632342594e-15,1.542726019e-14,3.515027002e-14,1.381640269e-14,2.070987258e-14,1.874154356e-14,1.623107589e-14,2.301826154e-14,3.988819494e-15,2.347247407e-15,2.281092054e-15,2.851587708e-14,1.501607882e-14,1.610314291e-14,2.296592608e-15,2.498629006e-14,7.456650612e-15,7.236339389e-15,1.284856928e-14,5.918005274e-15
0.078125,1.94202913e-14,3.031382171e-14,1.14100046e-14,2.952697975e-15,1.871317915e-14,8.98111117e-15,3.655998587e-15,5.498731517e-15,1.733948806e-15,2.59601821e-14,5.851482127e-15,1.330139202e-14,4.092956901e-15,1.97497607e-14,3.994979212e-14,1.903629229e-14,2.405027435e-14,1.755482732e-14,1.517049266e-14,2.383683595e-14,2.876244569e-15,2.06979816e-15,2.749143595e-15,2.286689912e-14,1.363366455e-14,1.685383525e-14,4.200028396e-15,1.948682049e-14,6.917753335e-15,6.448078145e-15,1.287033418e-14,4.172238985e-15
0.0859375,1.876071993e-14,3.724867443e-14,1.639118305e-14,2.797434609e-15,1.453775444e-14,1.135675674e-14,3.781599157e-15,4.424851128e-15,1.920244788e-15,3.190658134e-14,9.168609995e-15,1.323891473e-14,4.850393996e-15,2.391565125e-14,4.50444585e-14,2.513756635e-14,2.622660035e-14,1.617988461e-14,1.367578197e-14,2.296026099e-14,2.045663741e-15,1.975353375e-15,3.546537043e-15,1.86391939e-14,1.349508146e-14,1.649300796e-14,7.281840917e-15,1.564052708e-14,6.257107498e-15,5.403406029e-15,1.32123705e-14,3.253461298e-15
0.09375,1.767116094e-14,4.544233036e-14,2.341454701e-14,3.915761586e-15,1.154708201e-14,1.507836531e-14,3.847112686e-15,4.382943748e-15,2.187400251e-15,3.742114056e-14,1.346643617e-14,1.354888846e-14,5.725871233e-15,2.752463186e-14,4.946314871e-14,3.127725918e-14,2.706158823e-14,1.518710146e-14,1.202013983e-14,2.078350977e-14,1.435614743e-15,1.961109151e-15,4.644516231e-15,1.593402382e-14,1.478218383e-14,1.528191183e-14,1.155198288e-14,1.378107424e-14,5.64608721e-15,4.290004476e-15,1.353789254e-14,2.832270472e-15
0.1015625,1.657508355e-14,5.601623541e-14,3.107811518e-14,6.631220677e-15,9.792992087e-15,2.003312062e-14,3.818966518e-15,5.170833636e-15,2.710682379e-15,4.195372911e-14,1.827124347e-14,1.531905046e-14,6.656471585e-15,3.097628913e-14,5.323334342e-14,3.72870468e-14,2.682796405e-14,1.466257529e-14,1.042645039e-14,1.722638584e-14,1.02337421e-15,1.994229281e-15,5.939940358e-15,1.441116099e-14,1.718714047e-14,1.379801332e-14,1.712619451e-14,1.38022856e-14,5.174758668e-15,3.25906417e-15,1.360948538e-14,2.632986682e-15
0.109375,1.579318754e-14,6.889278065e-14,3.715814379e-14,1.077922966e-14,9.186177103e-15,2.547877197e-14,3.656143729e-15,6.59115245e-15,3.598284986e-15,4.483742195e-14,2.332357358e-14,1.931306681e-14,7.545943009e-15,3.416140653e-14,5.580286779e-14,4.213870068e-14,2.504990264e-14,1.421050151e-14,8.877566259e-15,1.298335612e-14,7.877898156e-16,2.074578677e-15,7.204879535e-15,1.369100047e-14,2.023008222e-14,1.242203988e-14,2.338524682e-14,1.474859865e-14,4.874049303e-15,2.543084534e-15,1.332771897e-14,2.529307503e-15
0.1171875,1.585652136e-14,8.266256931e-14,4.161200168e-14,1.618968935e-14,9.819756613e-15,3.090293448e-14,3.527578346e-15,8.436406566e-15,4.79799046e-15,4.567364844e-14,2.790759223e-14,2.555519745e-14,8.191001672e-15,3.709481861e-14,5.686700434e-14,4.548449187e-14,2.183395718e-14,1.384272719e-14,7.449092667e-15,8.908357975e-15,7.76380596e-16,2.12737506e-15,8.165456926e-15,1.310003734e-14,2.328528935e-14,1.184872586e-14,2.994784515e-14,1.616970234e-14,4.616620442e-15,2.343301526e-15,1.257416445e-14,2.563958264e-15
0.125,1.704555922e-14,9.356804704e-14,4.258502623e-14,2.189090756e-14,1.126769938e-14,3.568038368e-14,3.502817087e-15,1.027326832e-14,6.165720616e-15,4.381235495e-14,3.171472299e-14,3.392544806e-14,8.447974202e-15,3.946188778e-14,5.547200059e-14,4.601126323e-14,1.797442055e-14,1.285997238e-14,6.292842887e-15,5.612904125e-15,8.679792994e-16,2.269828088e-15,9.024218607e-15,1.296677859e-14,2.516377364e-14,1.25086404e-14,3.595861242e-14,1.744525666e-14,4.297251112e-15,2.722365528e-15,1.180049746e-14,3.303547499e-15
0.1328125,1.917095006e-14,1.015479201e-13,4.191493791e-14,2.674159242e-14,1.325545416e-14,3.840035511e-14,3.796863752e-15,1.215328207e-14,7.574967225e-15,3.972572705e-14,3.389084102e-14,4.291735981e-14,7.968561848e-15,4.055680578e-14,5.224972914e-14,4.403851412e-14,1.44955216e-14,1.146695247e-14,5.517386431e-15,3.605219516e-15,1.07225507e-15,2.347448038e-15,9.813125986e-15,1.311519689e-14,2.542820671e-14,1.44078499e-14,4.08443855e-14,1.70436697e-14,3.909222569e-15,3.850609423e-15,1.135056495e-14,4.876720251e-15
0.140625,2.212238372e-14,1.087409944e-13,4.330325858e-14,2.973493071e-14,1.518029923e-14,3.778425122e-14,4.556647183e-15,1.363380451e-14,8.323236305e-15,3.405694241e-14,3.503751751e-14,5.0026514e-14,7.043077886e-15,4.09146428e-14,4.908743621e-14,4.145024909e-14,1.258309829e-14,1.015904313e-14,5.212943949e-15,3.253096332e-15,1.336246446e-15,2.443857909e-15,1.090118917e-14,1.323913917e-14,2.467410028e-14,1.749786722e-14,4.426002678e-14,1.509015593e-14,3.579821245e-15,5.584637564e-15,1.125073882e-14,8.128952986e-15
0.1484375,2.524724391e-14,1.125629405e-13,4.792725247e-14,3.074997313e-14,1.643304995e-14,3.494734528e-14,5.904862683e-15,1.420074767e-14,8.360140626e-15,2.733280517e-14,3.445153637e-14,5.466222533e-14,6.059603644e-15,4.089760799e-14,4.676789923e-14,3.925447096e-14,1.299408281e-14,9.272089666e-15,5.251087303e-15,4.422600101e-15,1.512102154e-15,2.585018289e-15,1.250124138e-14,1.379094972e-14,2.264350198e-14,2.093798933e-14,4.634190271e-14,1.284617409e-14,3.387591405e-15,7.719021448e-15,1.160368805e-14,1.309816355e-14
0.15625,2.792953243e-14,1.136205396e-13,5.625557641e-14,2.917364864e-14,1.654502804e-14,3.036890394e-14,7.750580332e-15,1.392390393e-14,7.745095066e-15,2.048571146e-14,3.247326154e-14,5.618432809e-14,4.923505181e-15,3.935103028e-14,4.513458012e-14,3.775549502e-14,1.682947477e-14,9.158771797e-15,5.645025197e-15,7.1016152e-15,1.559687483e-15,2.818944096e-15,1.520676319e-14,1.52798142e-14,1.927501133e-14,2.440754084e-14,4.740437473e-14,1.02438155e-14,3.586223607e-15,1.007735909e-14,1.216965822e-14,2.004285275e-14
0.1640625,2.956290829e-14,1.157191616e-13,7.094527568e-14,2.616125251e-14,1.598682283e-14,2.424292738e-14,9.813273524e-15,1.311739491e-14,6.851192264e-15,1.458424898e-14,2.957449054e-14,5.407061939e-14,3.774835321e-15,3.641509868e-14,4.514568771e-14,3.856486679e-14,2.483324227e-14,1.064725441e-14,6.280750101e-15,1.109364389e-14,1.549316694e-15,3.157448781e-15,1.953973455e-14,1.78270051e-14,1.579420578e-14,2.735872087e-14,4.749522633e-14,7.381276709e-15,4.133005022e-15,1.270235532e-14,1.278318831e-14,2.8723412e-14
0.171875,3.035949117e-14,1.176444421e-13,8.869256531e-14,2.294162277e-14,1.495982293e-14,1.799298618e-14,1.171764029e-14,1.186967964e-14,5.825613376e-15,9.913927311e-15,2.73455028e-14,4.858653765e-14,2.986858273e-15,3.27206838e-14,4.632639226e-14,4.206511124e-14,3.688300157e-14,1.42304098e-14,7.041804213e-15,1.556366459e-14,1.512384735e-15,3.676287478e-15,2.476261959e-14,2.107756324e-14,1.28480969e-14,2.953071399e-14,4.707243202e-14,5.144672238e-15,5.221771321e-15,1.507777459e-14,1.340404836e-14,3.892381403e-14
0.1796875,3.026462694e-14,1.163279192e-13,1.036631719e-13,2.033730562e-14,1.358332946e-14,1.275747446e-14,1.332905079e-14,1.081892064e-14,5.58531484e-15,7.035106972e-15,2.737926136e-14,4.112403586e-14,3.007782798e-15,2.900322212e-14,4.787464959e-14,4.768967924e-14,5.186602895e-14,1.949209949e-14,7.729773924e-15,2.021403447e-14,1.420239776e-15,4.479570238e-15,3.099744743e-14,2.386755197e-14,9.984499961e-15,3.056125845e-14,4.615342484e-14,3.537942785e-15,6.464031547e-15,1.672929496e-14,1.38700666e-14,5.025348575e-14
0.1875,2.827633756e-14,1.124186859e-13,1.150928857e-13,1.851757076e-14,1.216649957e-14,8.860810678e-15,1.506394116e-14,1.082548259e-14,6.306113035e-15,5.755193304e-15,3.109658302e-14,3.335770873e-14,3.218105401e-15,2.593570444e-14,4.958487341e-14,5.596143916e-14,6.912057115e-14,2.656409582e-14,8.211347651e-15,2.405391097e-14,1.265453989e-15,5.626927924e-15,3.784481018e-14,2.683319207e-14,7.498828841e-15,3.05265666e-14,4.508087441e-14,2.723954113e-15,8.001632871e-15,1.817558272e-14,1.422439291e-14,6.118228758e-14
0.1953125,2.503169034e-14,1.0654603e-13,1.197371249e-13,1.859321301e-14,1.153906309e-14,6.927789652e-15,1.680346216e-14,1.219600022e-14,7.86431059e-15,5.880228612e-15,3.909032388e-14,2.598425244e-14,3.586442665e-15,2.406139794e-14,5.016797422e-14,6.544458921e-14,8.697208709e-14,3.460211532e-14,8.398590798e-15,2.674967383e-14,1.258827711e-15,7.346832579e-15,4.466496257e-14,2.920369407e-14,6.053617356e-15,2.974100255e-14,4.398906934e-14,2.545409814e-15,9.480482456e-15,1.909622822e-14,1.444927483e-14,7.116703128e-14
0.203125,2.160908171e-14,9.510127528e-14,1.158510414e-13,1.983831138e-14,1.170508767e-14,6.758155411e-15,1.834807567e-14,1.540394766e-14,1.014851148e-14,6.987732257e-15,5.264219504e-14,1.9020192e-14,4.138937052e-15,2.295807394e-14,4.899831924e-14,7.439459277e-14,1.028859811e-13,4.209787829e-14,8.077203529e-15,2.861033813e-14,1.388644782e-15,9.915513245e-15,5.082159783e-14,2.932933267e-14,5.655095287e-15,2.83763205e-14,4.196967117e-14,2.788476542e-15,1.089998435e-14,1.921578944e-14,1.448483079e-14,7.988982125e-14
0.2109375,1.817912813e-14,8.02947938e-14,1.03399757e-13,2.219123103e-14,1.284840162e-14,8.412113685e-15,1.991314863e-14,2.027760309e-14,1.270630812e-14,8.50045902e-15,7.026733147e-14,1.300975281e-14,4.669733767e-15,2.358267763e-14,4.636727967e-14,8.231393994e-14,1.152799291e-13,4.789034674e-14,7.345978347e-15,2.95183053e-14,1.524519089e-15,1.362677938e-14,5.582582876e-14,2.683735876e-14,5.99856837e-15,2.666645844e-14,3.936508344e-14,3.304568862e-15,1.21252111e-14,1.856215804e-14,1.449485707e-14,8.646547498e-14
0.21875,1.445801245e-14,6.434078627e-14,8.853069945e-14,2.515494272e-14,1.448254048e-14,1.164935736e-14,2.187867938e-14,2.630471981e-14,1.471610829e-14,9.830919927e-15,8.961601597e-14,8.834485317e-15,4.465934325e-15,2.605023297e-14,4.350045881e-14,8.965343238e-14,1.244444664e-13,5.215607763e-14,6.444093515e-15,2.895142175e-14,1.626107163e-15,1.825994405e-14,5.940945088e-14,2.317252879e-14,6.980377094e-15,2.5081696e-14,3.621486225e-14,3.917819855e-15,1.33712289e-14,1.770765351e-14,1.457602128e-14,8.994393298e-14
0.2265625,1.112497803e-14,5.031761207e-14,7.114522664e-14,2.810889279e-14,1.644328548e-14,1.609875055e-14,2.394923065e-14,3.324773868e-14,1.561674491e-14,1.08043854e-14,1.071722338e-13,5.717664253e-15,4.172597538e-15,2.985475377e-14,3.961268266e-14,9.498965618e-14,1.276683369e-13,5.374143091e-14,5.280693641e-15,2.691394177e-14,1.721647019e-15,2.367544172e-14,6.050077222e-14,1.891988515e-14,8.448995142e-15,2.341901156e-14,3.214857865e-14,4.345163786e-15,1.405487626e-14,1.615731885e-14,1.390302735e-14,8.946803909e-14
0.234375,8.554678771e-15,3.704555612e-14,5.421868466e-14,3.169102859e-14,1.801019331e-14,2.151147641e-14,2.586771534e-14,3.980128347e-14,1.576904287e-14,1.120506732e-14,1.196633686e-13,3.703082226e-15,4.316417267e-15,3.421920671e-14,3.513434869e-14,9.752975675e-14,1.25349972e-13,5.15508474e-14,4.05288867e-15,2.432127061e-14,1.841205657e-15,2.963372711e-14,5.924559776e-14,1.376307893e-14,1.016608304e-14,2.194553451e-14,2.843700256e-14,4.756149988e-15,1.422902566e-14,1.416203976e-14,1.28714502e-14,8.564144778e-14
0.2421875,6.582072366e-15,2.597543879e-14,4.209979413e-14,3.582198521e-14,1.919460366e-14,2.807363032e-14,2.704459011e-14,4.543226541e-14,1.498627171e-14,1.105399379e-14,1.253382236e-13,3.031180003e-15,4.403087893e-15,3.860466812e-14,3.095873464e-14,9.695516462e-14,1.178602069e-13,4.63659695e-14,3.144622262e-15,2.131660713e-14,1.872206631e-15,3.550540167e-14,5.585343891e-14,8.896054632e-15,1.216268802e-14,2.078954649e-14,2.522291652e-14,5.342018357e-15,1.411200601e-14,1.237945224e-14,1.149352167e-14,7.881016794e-14
0.25,5.103825746e-15,1.818282463e-14,3.534119533e-14,4.080686889e-14,1.975712327e-14,3.559076589e-14,2.733588028e-14,5.019960978e-14,1.354844676e-14,1.021961445e-14,1.230292613e-13,3.540889494e-15,4.922258539e-15,4.269007249e-14,2.776761208e-14,9.375902004e-14,1.068925536e-13,3.896955758e-14,2.561833197e-15,1.773092809e-14,1.852722704e-15,4.076714559e-14,5.026167418e-14,5.306777404e-15,1.36048614e-14,1.947198366e-14,2.229198809e-14,5.900381598e-15,1.314436281e-14,1.061604285e-14,9.749048147e-15,6.89787632e-14
0.2578125,4.004634571e-15,1.229052407e-14,3.549162192e-14,4.700803784e-14,2.055220376e-14,4.357432747e-14,2.768891267e-14,5.307471018e-14,1.179375902e-14,9.200242365e-15,1.142884192e-13,5.878346494e-15,6.778113605e-15,4.851833336e-14,2.614125497e-14,8.832277595e-14,9.315412711e-14,3.047543751e-14,2.279299334e-15,1.380124356e-14,2.055697019e-15,4.47398809e-14,4.278658851e-14,3.33711597e-15,1.447026985e-14,1.76134705e-14,2.006033201e-14,6.32162691e-15,1.204300376e-14,8.965474225e-15,8.219128537e-15,5.672300415e-14
0.265625,3.053434203e-15,7.968706757e-15,4.375076216e-14,5.230184842e-14,2.113562348e-14,4.993199554e-14,2.869325521e-14,5.410848131e-14,1.007975385e-14,8.080576757e-15,1.013190295e-13,9.706705365e-15,9.832694574e-15,5.661066276e-14,2.686731086e-14,8.230462399e-14,8.030055728e-14,2.304009917e-14,2.459337185e-15,1.036566161e-14,2.571499367e-15,4.641212949e-14,3.444620645e-14,3.016341785e-15,1.521585521e-14,1.582412643e-14,1.874271792e-14,6.398909931e-15,1.132589245e-14,7.465629758e-15,6.692506046e-15,4.404540999e-14
0.2734375,2.51393357e-15,5.307121023e-15,5.85075992e-14,5.681891127e-14,2.171288135e-14,5.406765885e-14,3.03781822e-14,5.27320464e-14,8.788265048e-15,7.156137925e-15,8.526544586e-14,1.453817055e-14,1.390195834e-14,6.568515097e-14,2.899327043e-14,7.5501237e-14,6.810908635e-14,1.668119077e-14,3.075684298e-15,7.438753524e-15,3.454003315e-15,4.587126468e-14,2.631942643e-14,4.464408713e-15,1.619865795e-14,1.396238777e-14,1.79374852e-14,5.990283568e-15,1.070398594e-14,6.199543371e-15,5.220824095e-15,3.212123322e-14
0.28125,2.528094538e-15,3.320947981e-15,7.839700081e-14,6.083540057e-14,2.316788285e-14,5.630498491e-14,3.214377586e-14,5.002898886e-14,8.239357622e-15,6.413635064e-15,7.108487116e-14,1.963296528e-14,1.878774072e-14,7.328354171e-14,3.179163475e-14,6.639812745e-14,5.593114878e-14,1.148809271e-14,4.189913787e-15,5.155967519e-15,4.719061597e-15,4.30999955e-14,1.867905786e-14,7.502393454e-15,1.727495598e-14,1.159253948e-14,1.721200439e-14,5.519432794e-15,1.042794928e-14,5.549407851e-15,4.256003311e-15,2.18868664e-14
0.2890625,2.927183039e-15,2.235678833e-15,9.858598542e-14,6.382875507e-14,2.598475102e-14,5.638695389e-14,3.436885103e-14,4.578320452e-14,8.106221947e-15,6.040865452e-15,6.010711731e-14,2.464748907e-14,2.425147896e-14,8.033147302e-14,3.554938678e-14,5.727934282e-14,4.507841631e-14,8.819231577e-15,5.818100104e-15,4.081685904e-15,6.397379251e-15,3.909382389e-14,1.211320795e-14,1.22423244e-14,1.772141968e-14,9.032017518e-15,1.636334802e-14,4.783919649e-15,1.048478425e-14,5.016667591e-15,3.883431593e-15,1.41547815e-14
0.296875,4.168652021e-15,2.258025574e-15,1.17063614e-13,6.455180261e-14,2.881099243e-14,5.328200399e-14,3.679014799e-14,4.023818803e-14,8.166327188e-15,6.139606576e-15,5.199761676e-14,2.881707234e-14,2.947044695e-14,8.653040684e-14,4.063699615e-14,5.099496486e-14,3.81235224e-14,9.077410751e-15,8.029947109e-15,4.590412326e-15,8.163729588e-15,3.370149393e-14,7.285926209e-15,1.788430758e-14,1.832883805e-14,6.951359637e-15,1.615102516e-14,3.822976342e-15,1.102108786e-14,4.789060028e-15,3.868123967e-15,9.075385909e-15
0.3046875,6.531790137e-15,3.603576399e-15,1.306203486e-13,6.309370423e-14,3.160127314e-14,4.820660324e-14,3.827789414e-14,3.416157069e-14,8.526441949e-15,6.740536338e-15,4.676981694e-14,3.163419894e-14,3.318589375e-14,8.801093206e-14,4.499743893e-14,4.642280246e-14,3.553604865e-14,1.105108078e-14,1.103257409e-14,6.392379124e-15,9.90008476e-15,2.788367049e-14,3.863380728e-15,2.448720184e-14,1.849440911e-14,5.41422524e-15,1.65246079e-14,2.948364103e-15,1.163481237e-14,5.020740729e-15,4.021939651e-15,6.591578705e-15
0.3125,1.046723476e-14,6.170194731e-15,1.334050829e-13,6.108274822e-14,3.462910741e-14,4.270900363e-14,3.762554102e-14,2.848416709e-14,9.081075581e-15,7.907937764e-15,4.283565059e-14,3.346361151e-14,3.645674597e-14,8.481045033e-14,4.754483197e-14,4.195566444e-14,3.581288285e-14,1.487947646e-14,1.502333955e-14,1.001738017e-14,1.122159494e-14,2.232843478e-14,1.813818604e-15,3.095048048e-14,1.773902742e-14,4.367621126e-15,1.680963542e-14,2.1498033e-15,1.206473163e-14,5.361150549e-15,4.564462616e-15,5.941564703e-15
0.3203125,1.664114924e-14,1.065994683e-14,1.265026885e-13,5.726248654e-14,3.699615449e-14,3.640196158e-14,3.546852031e-14,2.4333924e-14,1.023018857e-14,9.389297623e-15,3.936530249e-14,3.481316585e-14,3.865524673e-14,7.867001932e-14,4.980240477e-14,4.044292661e-14,4.16071066e-14,2.076357821e-14,1.962304821e-14,1.540323268e-14,1.19243404e-14,1.772142808e-14,1.002903708e-15,3.801993504e-14,1.655075695e-14,4.200040848e-15,1.728143904e-14,1.542157744e-15,1.297375315e-14,6.052043384e-15,5.377621236e-15,6.990299116e-15
0.328125,2.52149675e-14,1.675662478e-14,1.127486449e-13,5.212303694e-14,3.795591097e-14,3.018043488e-14,3.17130591e-14,2.21986056e-14,1.250824683e-14,1.160802127e-14,3.543552022e-14,3.64976157e-14,3.993408072e-14,6.859588127e-14,5.159456749e-14,4.305525428e-14,5.382228937e-14,2.683569824e-14,2.479631828e-14,2.183449551e-14,1.203032143e-14,1.51983515e-14,1.09321695e-15,4.570089237e-14,1.48512213e-14,4.754784008e-15,1.759277705e-14,1.499520014e-15,1.490132836e-14,7.249612418e-15,6.172234028e-15,9.114843993e-15
0.3359375,3.711408327e-14,2.381722795e-14,9.586156249e-14,4.670583725e-14,3.853307999e-14,2.471953947e-14,2.724583137e-14,2.297320561e-14,1.767165013e-14,1.506308414e-14,3.071798199e-14,4.130448782e-14,4.273719682e-14,5.720893977e-14,5.179768214e-14,4.74065483e-14,6.965810343e-14,3.314492688e-14,3.095153508e-14,2.978936745e-14,1.169682446e-14,1.629104399e-14,1.989513623e-15,5.611615106e-14,1.282640292e-14,5.84294452e-15,1.771494646e-14,1.908982693e-15,1.85292378e-14,9.474211862e-15,7.331410481e-15,1.243471511e-14
0.34375,5.234189793e-14,3.295144105e-14,7.979923044e-14,4.11713623e-14,3.889022361e-14,2.07077158e-14,2.290778886e-14,2.874872594e-14,2.653392566e-14,1.964495687e-14,2.546864254e-14,4.908107838e-14,4.757382877e-14,4.719711308e-14,5.246282563e-14,5.403752407e-14,8.693632642e-14,3.946234815e-14,3.698004901e-14,3.921630567e-14,1.094468391e-14,2.207048149e-14,3.806548882e-15,7.224297644e-14,1.104245331e-14,7.358973539e-15,1.813204519e-14,2.833640359e-15,2.508599021e-14,1.287780942e-14,8.823247606e-15,1.742653603e-14
0.3515625,6.939590653e-14,4.426517436e-14,6.820040215e-14,3.53211529e-14,3.961416108e-14,1.739016849e-14,2.012852225e-14,3.905899587e-14,3.857855139e-14,2.522187668e-14,2.039497069e-14,5.809615146e-14,5.34371729e-14,3.865028532e-14,5.464670881e-14,6.417552458e-14,1.041413693e-13,4.468309837e-14,4.168768915e-14,4.983964369e-14,1.036361231e-14,3.266851535e-14,6.560360727e-15,9.481893577e-14,9.573243953e-15,8.999655864e-15,1.905597631e-14,4.185101096e-15,3.45417615e-14,1.746376524e-14,1.055944232e-14,2.451338684e-14
0.359375,8.694175101e-14,5.360160665e-14,6.179379287e-14,2.929420781e-14,4.115604574e-14,1.598855039e-14,1.87652634e-14,5.469325081e-14,5.420268258e-14,3.195719708e-14,1.580129399e-14,6.794734648e-14,5.988117426e-14,3.124748385e-14,5.781285433e-14,7.77395137e-14,1.194245198e-13,4.74612602e-14,4.454860985e-14,6.164767148e-14,1.023175837e-14,4.872656482e-14,1.00200482e-14,1.247214857e-13,8.756076955e-15,1.100113455e-14,2.17900128e-14,6.235136195e-15,4.575169903e-14,2.33870063e-14,1.248345028e-14,3.460688294e-14
0.3671875,1.035120463e-13,6.061204043e-14,6.058278175e-14,2.353905681e-14,4.357727095e-14,1.644867827e-14,1.961217752e-14,7.414163543e-14,7.136357903e-14,3.932869365e-14,1.168118036e-14,7.738096763e-14,6.690129623e-14,2.694408072e-14,6.139100693e-14,9.290947548e-14,1.274088535e-13,4.779247316e-14,4.569745464e-14,7.412678963e-14,1.08356823e-14,6.933353404e-14,1.44876454e-14,1.630142318e-13,8.477338416e-15,1.346635657e-14,2.736270312e-14,9.842030333e-15,5.807398684e-14,2.983685463e-14,1.456471976e-14,4.772901069e-14
0.375,1.17255427e-13,6.683421174e-14,6.356337625e-14,1.846619392e-14,4.692073961e-14,1.71043714e-14,2.226854559e-14,9.518045923e-14,8.869062375e-14,4.614976225e-14,8.5815754e-15,8.443485459e-14,7.303152767e-14,2.495824922e-14,6.610867097e-14,1.085729595e-13,1.28477405e-13,4.647090209e-14,4.45348715e-14,8.684550163e-14,1.246041638e-14,9.154768809e-14,1.862049519e-14,2.070348531e-13,8.843372569e-15,1.644486458e-14,3.622631999e-14,1.451752955e-14,6.88261678e-14,3.640338191e-14,1.643331602e-14,6.446883468e-14
0.3828125,1.265954756e-13,7.018932986e-14,6.703681932e-14,1.40064543e-14,5.072320461e-14,1.865165613e-14,2.49824648e-14,1.159575548e-13,1.027013588e-13,5.220738914e-14,6.315514228e-15,8.609920759e-14,7.487802681e-14,2.376248766e-14,7.2364152e-14,1.246369356e-13,1.24694948e-13,4.342881935e-14,4.122683787e-14,9.827322907e-14,1.45617828e-14,1.138321421e-13,2.311719498e-14,2.504328487e-13,9.842475281e-15,2.017943287e-14,4.803528296e-14,1.99633622e-14,7.673878476e-14,4.232040567e-14,1.822546658e-14,8.371854134e-14
0.390625,1.30464531e-13,6.752558999e-14,6.989810191e-14,1.077163974e-14,5.481689409e-14,2.004063721e-14,2.801566148e-14,1.328289721e-13,1.12497323e-13,5.635372954e-14,5.44343187e-15,8.328760267e-14,7.340201432e-14,2.498136053e-14,7.830226684e-14,1.39010624e-13,1.172171884e-13,3.873164724e-14,3.624476213e-14,1.068108302e-13,1.721861759e-14,1.325644158e-13,2.773410191e-14,2.889503665e-13,1.145498832e-14,2.503501483e-14,6.23564274e-14,2.773126639e-14,7.960310935e-14,4.670891074e-14,1.993400391e-14,1.053537625e-13
0.3984375,1.300221978e-13,6.086495266e-14,6.941457209e-14,8.840442691e-15,5.780473195e-14,2.044649179e-14,3.031178225e-14,1.449047341e-13,1.184312342e-13,5.835940279e-14,5.898832436e-15,7.750366809e-14,7.058176598e-14,2.836456238e-14,8.225981053e-14,1.478684149e-13,1.066262442e-13,3.34377159e-14,3.021803947e-14,1.116610126e-13,1.97327921e-14,1.442850477e-13,3.19881533e-14,3.177940025e-13,1.347715719e-14,3.070452444e-14,7.677201478e-14,3.68883122e-14,7.759694046e-14,4.896184978e-14,2.076164098e-14,1.280716135e-13
0.40625,1.273101268e-13,5.251355358e-14,6.854155638e-14,8.70755887e-15,5.912240039e-14,1.926848636e-14,3.209393132e-14,1.509540519e-13,1.207497595e-13,5.873618132e-14,8.76605538e-15,7.157167707e-14,6.705854156e-14,3.475780489e-14,8.425788783e-14,1.518907576e-13,9.513421288e-14,2.904543591e-14,2.440686675e-14,1.112072426e-13,2.166497937e-14,1.498893878e-13,3.600607042e-14,3.344068924e-13,1.571166084e-14,3.656304244e-14,8.954992329e-14,4.727496361e-14,7.209980125e-14,5.034408889e-14,2.113496638e-14,1.500775744e-13
0.4140625,1.233218556e-13,4.344614231e-14,6.528698955e-14,1.042761964e-14,5.929633478e-14,1.647691057e-14,3.255896948e-14,1.512075591e-13,1.195327204e-13,5.759594204e-14,1.462680827e-14,6.561272241e-14,6.224231213e-14,4.238575639e-14,8.351215251e-14,1.497172976e-13,8.522968685e-14,2.654730735e-14,1.983508133e-14,1.048273211e-13,2.268628794e-14,1.486565372e-13,3.968588625e-14,3.349645579e-13,1.780801837e-14,4.185801387e-14,9.768657215e-14,5.771544626e-14,6.422709609e-14,5.093944738e-14,2.176233264e-14,1.704861834e-13
0.421875,1.169899613e-13,3.421875336e-14,5.870746583e-14,1.403974027e-14,5.909444838e-14,1.315018989e-14,3.282052558e-14,1.467500686e-13,1.158843207e-13,5.558931614e-14,2.208360503e-14,5.953604525e-14,5.775724241e-14,5.127040791e-14,8.246091982e-14,1.445673436e-13,7.864784662e-14,2.610398245e-14,1.661472706e-14,9.528594095e-14,2.318165705e-14,1.4026094e-13,4.275313398e-14,3.183779615e-13,1.946876792e-14,4.606070676e-14,9.923702928e-14,6.562915819e-14,5.463581847e-14,4.974481023e-14,2.296169759e-14,1.877571317e-13
0.4296875,1.102321857e-13,2.599481539e-14,5.201410798e-14,1.881871854e-14,5.824937196e-14,9.747372886e-15,3.323696336e-14,1.3937342e-13,1.118832332e-13,5.268915343e-14,3.043378229e-14,5.531283749e-14,5.561214497e-14,6.125206921e-14,8.045375928e-14,1.382621664e-13,7.626101484e-14,2.765403302e-14,1.482221407e-14,8.438621959e-14,2.333770388e-14,1.267715112e-13,4.457737982e-14,2.905203279e-13,2.010056937e-14,4.905279209e-14,9.650741325e-14,7.168152957e-14,4.492487633e-14,4.784768698e-14,2.456396472e-14,2.01641118e-13
0.4375,1.033543547e-13,2.086020008e-14,4.547081269e-14,2.487265881e-14,5.700448281e-14,6.785377757e-15,3.288996782e-14,1.29690759e-13,1.068469751e-13,4.95278561e-14,4.073690807e-14,5.143675865e-14,5.383191678e-14,6.784285256e-14,7.70711291e-14,1.307264699e-13,7.543760496e-14,3.001949881e-14,1.435347189e-14,7.266792301e-14,2.296335891e-14,1.122862014e-13,4.43327858e-14,2.543921902e-13,1.922872904e-14,4.993790491e-14,8.884565018e-14,7.49458703e-14,3.650118052e-14,4.590994749e-14,2.716755176e-14,2.101438429e-13
0.4453125,9.321711142e-14,1.71428584e-14,3.976349814e-14,3.208427336e-14,5.66199007e-14,4.690131051e-15,3.207807559e-14,1.189536809e-13,9.867613228e-14,4.539219664e-14,5.102823183e-14,4.550066073e-14,5.017256355e-14,7.260662231e-14,7.560617176e-14,1.261454826e-13,7.731710262e-14,3.3804392e-14,1.522706533e-14,6.249112093e-14,2.221548111e-14,9.65238445e-14,4.210796789e-14,2.122375284e-13,1.743910955e-14,4.936779835e-14,7.983535728e-14,7.340030357e-14,2.846423093e-14,4.307196529e-14,3.172488299e-14,2.128038816e-13
0.453125,8.083589056e-14,1.413898557e-14,3.802643603e-14,3.833295461e-14,5.63099304e-14,3.275523463e-15,3.101678491e-14,1.069171258e-13,8.883837461e-14,4.03434826e-14,5.93629787e-14,3.945488423e-14,4.716081889e-14,7.673915628e-14,7.394813753e-14,1.229868181e-13,8.198108642e-14,3.777354715e-14,1.693663342e-14,5.39385312e-14,2.12413629e-14,8.002131279e-14,3.817163914e-14,1.698842881e-13,1.51513558e-14,4.767206694e-14,7.225801533e-14,6.833821085e-14,2.160948154e-14,3.986494182e-14,3.701353453e-14,2.079114023e-13
0.4609375,6.87075666e-14,1.304581895e-14,4.143388401e-14,4.301441939e-14,5.571254889e-14,2.570151439e-15,2.855115804e-14,9.385503253e-14,7.768126628e-14,3.452304355e-14,6.61683022e-14,3.269615964e-14,4.30314822e-14,7.612000845e-14,7.006342532e-14,1.186551196e-13,8.652654609e-14,4.009357133e-14,1.865860407e-14,4.703727538e-14,1.979632305e-14,6.565239477e-14,3.298334573e-14,1.309304763e-13,1.266099517e-14,4.468439111e-14,6.616281991e-14,6.116118526e-14,1.621351501e-14,3.672473898e-14,4.26579461e-14,1.968354067e-13
0.46875,5.772562002e-14,1.321213974e-14,5.024520328e-14,4.581470424e-14,5.564506082e-14,2.391975297e-15,2.473681587e-14,8.048827931e-14,6.492162239e-14,2.78538336e-14,7.049258801e-14,2.521197994e-14,3.714312238e-14,7.310296859e-14,6.577483015e-14,1.132321255e-13,8.915474061e-14,4.145323593e-14,2.045875468e-14,4.084119284e-14,1.788263397e-14,5.236416529e-14,2.740444729e-14,9.744339819e-14,1.052507864e-14,4.18640987e-14,6.432397187e-14,5.193308034e-14,1.180673082e-14,3.320824295e-14,4.895180261e-14,1.809849805e-13
0.4765625,4.937515472e-14,1.33258104e-14,6.368162077e-14,4.456226252e-14,5.469278364e-14,2.603303011e-15,2.004862191e-14,6.767100336e-14,5.164378681e-14,2.108227009e-14,7.255528522e-14,1.812965365e-14,3.070543452e-14,6.765201109e-14,6.034904748e-14,1.059005488e-13,8.847522052e-14,4.069100091e-14,2.15292835e-14,3.436494589e-14,1.516812334e-14,4.0485224e-14,2.26522514e-14,7.086071856e-14,9.309629915e-15,3.947947389e-14,6.569603855e-14,4.183141381e-14,8.240732715e-15,2.944831666e-14,5.341947305e-14,1.609739104e-13
0.484375,4.373959141e-14,1.340203738e-14,8.473314684e-14,4.113068214e-14,5.17512318e-14,3.151587084e-15,1.578797559e-14,5.524425869e-14,3.917220313e-14,1.496894271e-14,7.397747727e-14,1.187716308e-14,2.355891165e-14,6.031245531e-14,5.297861492e-14,9.469028331e-14,8.373965112e-14,3.717193878e-14,2.150174931e-14,2.824116555e-14,1.249943437e-14,3.043998004e-14,1.942350728e-14,5.158156139e-14,9.897344725e-15,3.658321745e-14,6.811387831e-14,3.274510845e-14,5.530047501e-15,2.584662318e-14,5.529808418e-14,1.38810433e-13
0.4921875,4.390734691e-14,1.39437789e-14,1.077346861e-13,3.535213574e-14,4.795911852e-14,4.268838393e-15,1.289843935e-14,4.449831917e-14,2.968779393e-14,1.006178033e-14,7.329444408e-14,8.362343998e-15,1.860378357e-14,5.421699123e-14,4.546072908e-14,8.227263295e-14,7.722182846e-14,3.352739039e-14,2.091560057e-14,2.295438715e-14,1.047844701e-14,2.177864554e-14,1.79312614e-14,4.061120851e-14,1.181619429e-14,3.431504374e-14,7.087155586e-14,2.606481176e-14,3.877996326e-15,2.204419712e-14,5.536662144e-14,1.190059557e-13
0.5,4.741615101e-14,1.418599776e-14,1.298809378e-13,2.775746404e-14,4.287175987e-14,5.953571288e-15,1.073123096e-14,3.56429376e-14,2.288959426e-14,6.566089161e-15,7.173103375e-14,6.386485529e-15,1.488424792e-14,4.558375075e-14,3.609026924e-14,6.667343353e-14,6.612954731e-14,2.756468675e-14,1.930812435e-14,1.811139706e-14,9.52483845e-15,1.557561106e-14,1.761955475e-14,3.627303384e-14,1.444989399e-14,3.233284025e-14,7.204165189e-14,2.183927284e-14,3.054158728e-15,1.834052646e-14,5.199805371e-14,1.027395079e-13
0.5078125,5.074383533e-14,1.424733867e-14,1.538439667e-13,2.065832068e-14,3.678143288e-14,8.14080385e-15,9.782727897e-15,2.962966232e-14,1.903842422e-14,4.576634581e-15,6.995008946e-14,5.217146467e-15,1.117445933e-14,3.480096567e-14,2.662593989e-14,4.961420869e-14,5.25687883e-14,2.037388791e-14,1.690621732e-14,1.501795975e-14,9.645267128e-15,1.124424502e-14,1.819264694e-14,3.675319081e-14,1.841044645e-14,2.972711954e-14,6.980815546e-14,2.029661828e-14,2.927249264e-15,1.517294038e-14,4.540653671e-14,9.161462395e-14
0.515625,5.438421908e-14,1.477171815e-14,1.724299976e-13,1.553405188e-14,3.074483736e-14,1.141227639e-14,1.002690839e-14,2.630573285e-14,1.735582596e-14,4.168933668e-15,6.723051729e-14,4.889525428e-15,8.291030323e-15,2.614438815e-14,1.938021351e-14,3.662646148e-14,4.224124513e-14,1.481573313e-14,1.454954619e-14,1.368936418e-14,1.113762155e-14,7.787673154e-15,1.869840676e-14,4.045241672e-14,2.225950605e-14,2.697915613e-14,6.523932324e-14,2.139814407e-14,3.889636804e-15,1.208488945e-14,3.799334141e-14,8.554011946e-14
0.5234375,5.65987672e-14,1.601490828e-14,1.795705309e-13,1.229700877e-14,2.624312163e-14,1.503970108e-14,1.012463029e-14,2.516362273e-14,1.648424161e-14,4.902557407e-15,6.262423864e-14,4.725378059e-15,6.492312181e-15,1.986896476e-14,1.417518995e-14,2.768942189e-14,3.632769914e-14,1.127807462e-14,1.284927694e-14,1.346319529e-14,1.32871275e-14,5.611468166e-15,1.861672413e-14,4.538863841e-14,2.502539022e-14,2.492188827e-14,5.926932126e-14,2.393823662e-14,5.586006651e-15,8.93347186e-15,3.10213019e-14,8.307752441e-14
0.53125,5.428950684e-14,1.777084713e-14,1.773889452e-13,1.059439007e-14,2.324395023e-14,1.865953767e-14,1.00425625e-14,2.630021696e-14,1.618162634e-14,6.545699872e-15,5.563415242e-14,4.338433765e-15,4.966558241e-15,1.498258697e-14,9.971032299e-15,2.154909169e-14,3.308744926e-14,8.846897127e-15,1.141222135e-14,1.404017037e-14,1.544718748e-14,5.042205531e-15,1.845958271e-14,4.87116443e-14,2.69364711e-14,2.332187884e-14,5.223985821e-14,2.758749616e-14,8.00287032e-15,6.420234285e-15,2.40032867e-14,8.337537588e-14
0.5390625,4.870919675e-14,2.104459012e-14,1.680423171e-13,1.074676955e-14,2.1400288e-14,2.211658533e-14,9.634485193e-15,2.890705841e-14,1.622909268e-14,8.601000516e-15,4.766676038e-14,3.998872046e-15,3.753687576e-15,1.208534168e-14,7.466812151e-15,1.963262062e-14,3.265645213e-14,7.938251208e-15,1.022062272e-14,1.464314373e-14,1.71484836e-14,5.272348211e-15,1.856506396e-14,4.961479106e-14,2.786524082e-14,2.132370693e-14,4.407602288e-14,3.137677218e-14,1.079786085e-14,4.535512291e-15,1.755819434e-14,8.398045582e-14
0.546875,4.190863525e-14,2.463935844e-14,1.502885164e-13,1.190099649e-14,2.056596186e-14,2.522772116e-14,8.786307121e-15,3.252004171e-14,1.607084359e-14,1.111660027e-14,3.942792478e-14,3.705066356e-15,2.739947514e-15,1.101983941e-14,7.199855927e-15,2.23501546e-14,3.583061687e-14,7.881320036e-15,9.129597186e-15,1.416955511e-14,1.791834771e-14,6.615979518e-15,1.909930491e-14,4.760353815e-14,2.709549654e-14,1.92751414e-14,3.616883496e-14,3.44869763e-14,1.301043658e-14,3.289005346e-15,1.250276662e-14,8.321794915e-14
0.5546875,3.355772296e-14,2.855740556e-14,1.263977825e-13,1.343749446e-14,2.052189073e-14,2.717287028e-14,7.594201253e-15,3.582750745e-14,1.565738449e-14,1.350096929e-14,3.110393843e-14,3.535379136e-15,2.003847771e-15,1.191980295e-14,8.20564144e-15,2.607794043e-14,3.805602532e-14,7.960887957e-15,8.16203827e-15,1.286798904e-14,1.764379326e-14,9.617900019e-15,2.009443854e-14,4.248781062e-14,2.489994805e-14,1.744873375e-14,2.859667366e-14,3.610298639e-14,1.489167866e-14,2.630529468e-15,8.961797202e-15,8.037594278e-14
0.5625,2.597956326e-14,3.193510111e-14,9.932651639e-14,1.507494931e-14,2.117948532e-14,2.729258092e-14,6.572094449e-15,3.998499348e-14,1.631235398e-14,1.486983793e-14,2.280852071e-14,4.055869173e-15,1.623853591e-15,1.399547738e-14,1.040736716e-14,3.090599235e-14,3.910912915e-14,8.020687642e-15,7.158693564e-15,1.120093684e-14,1.627965162e-14,1.350422475e-14,2.148579846e-14,3.698581899e-14,2.189898265e-14,1.581679736e-14,2.234566762e-14,3.748194551e-14,1.56257969e-14,2.200245706e-15,6.665191983e-15,7.633634915e-14
0.5703125,1.962335315e-14,3.35772654e-14,7.445402853e-14,1.657295296e-14,2.165019175e-14,2.607060687e-14,6.043666658e-15,4.374159515e-14,1.738901055e-14,1.616459179e-14,1.614042383e-14,5.387101604e-15,1.465423687e-15,1.664560188e-14,1.413495451e-14,3.770718762e-14,4.140333795e-14,7.708841837e-15,6.348266101e-15,9.640689254e-15,1.424855187e-14,1.794552495e-14,2.291877855e-14,3.197096099e-14,1.834096015e-14,1.415266151e-14,1.740453071e-14,3.661405124e-14,1.562977663e-14,2.168900006e-15,5.026837614e-15,7.04308648e-14
0.578125,1.530364137e-14,3.463499764e-14,5.30277343e-14,1.776137803e-14,2.164023111e-14,2.378407361e-14,6.054272416e-15,4.575155012e-14,1.85539384e-14,1.684545996e-14,1.118324654e-14,7.173673342e-15,1.461978377e-15,1.993407006e-14,1.894491491e-14,4.360760107e-14,4.440915134e-14,7.202554688e-15,5.853169284e-15,8.34550972e-15,1.194359333e-14,2.332740067e-14,2.382605517e-14,2.912905258e-14,1.484083877e-14,1.255014536e-14,1.308806851e-14,3.324891513e-14,1.498365395e-14,2.208665359e-15,3.957031453e-15,6.387049721e-14
0.5859375,1.310024765e-14,3.49795795e-14,3.596394585e-14,1.844968738e-14,2.090248887e-14,2.041416583e-14,6.703100161e-15,4.6211348e-14,2.021023664e-14,1.646347144e-14,7.780281146e-15,9.396095111e-15,1.634752063e-15,2.282236147e-14,2.486182599e-14,4.714762507e-14,4.701416957e-14,6.460272281e-15,5.58657111e-15,7.818858816e-15,9.578057413e-15,2.908827421e-14,2.36471385e-14,3.038273712e-14,1.18620375e-14,1.06740597e-14,9.547062959e-15,2.902055476e-14,1.409600716e-14,2.171955207e-15,3.195941325e-15,5.646888223e-14
0.59375,1.28846016e-14,3.518527374e-14,2.399370316e-14,1.935388114e-14,1.958473057e-14,1.647463367e-14,7.752631088e-15,4.596025466e-14,2.264372924e-14,1.544026072e-14,5.459163409e-15,1.261069106e-14,1.99440395e-15,2.511992785e-14,3.131526535e-14,4.941417735e-14,5.145835763e-14,5.533901088e-15,5.40035458e-15,8.059509279e-15,7.360982421e-15,3.357918847e-14,2.198794316e-14,3.690370162e-14,9.43642712e-15,8.729046718e-15,6.951846082e-15,2.457992595e-14,1.37140306e-14,2.197568567e-15,2.743689613e-15,4.898228439e-14
0.6015625,1.416168088e-14,3.539200518e-14,1.635306222e-14,2.027102365e-14,1.756120901e-14,1.306578087e-14,9.186237623e-15,4.435131731e-14,2.537666811e-14,1.421368674e-14,3.924588131e-15,1.653166647e-14,2.579111201e-15,2.670384889e-14,3.806795576e-14,5.073982344e-14,5.793109082e-14,4.850206139e-15,5.574638482e-15,9.162669961e-15,5.583838792e-15,3.593836024e-14,1.896714277e-14,4.850802172e-14,7.784541936e-15,6.902920236e-15,5.191403585e-15,1.960256506e-14,1.401678638e-14,2.162277882e-15,2.702729193e-15,4.10736308e-14
0.609375,1.621619758e-14,3.624456254e-14,1.169897556e-14,2.157305583e-14,1.549645007e-14,1.04392331e-14,1.101564872e-14,4.138624522e-14,2.768649111e-14,1.305342185e-14,3.036198979e-15,2.043541184e-14,3.200063141e-15,2.676936447e-14,4.502819983e-14,5.037930122e-14,6.250364149e-14,4.354643316e-15,6.145025325e-15,1.09538112e-14,4.628821549e-15,3.654434845e-14,1.560129035e-14,6.601109595e-14,6.770319687e-15,5.155748224e-15,3.64292512e-15,1.540945369e-14,1.528858644e-14,2.277804841e-15,3.380103799e-15,3.333849394e-14
0.6171875,1.80799256e-14,3.725697713e-14,9.708218182e-15,2.393814996e-14,1.370794391e-14,8.651673036e-15,1.349432759e-14,3.755888963e-14,2.945126556e-14,1.21228436e-14,2.410388548e-15,2.452885061e-14,3.842243847e-15,2.581588189e-14,5.07431008e-14,4.726937764e-14,6.366686325e-14,3.87481793e-15,6.810259832e-15,1.277900949e-14,4.323911959e-15,3.589118219e-14,1.206940115e-14,8.774471314e-14,6.428433686e-15,3.531481243e-15,2.778038332e-15,1.205604068e-14,1.760753634e-14,2.660406809e-15,4.813411848e-15,2.558055499e-14
0.625,1.986083747e-14,3.911075822e-14,9.119471394e-15,2.843115298e-14,1.391963462e-14,8.248335115e-15,1.668953042e-14,3.381405159e-14,3.062420084e-14,1.181441075e-14,1.917358379e-15,2.871023395e-14,4.744069833e-15,2.42582147e-14,5.518931827e-14,4.310304258e-14,6.34074206e-14,3.773752221e-15,7.567930124e-15,1.420924805e-14,5.032254206e-15,3.400875646e-14,9.247237434e-15,1.131875118e-13,6.733806168e-15,2.387647426e-15,2.109964006e-15,9.91193286e-15,2.105052596e-14,3.443956292e-15,7.76417146e-15,1.867390135e-14
0.6328125,2.092025736e-14,4.071521933e-14,9.428392843e-15,3.49462131e-14,1.630237611e-14,9.342157112e-15,2.071713265e-14,3.019754241e-14,3.048409936e-14,1.19493847e-14,1.689165789e-15,3.129478777e-14,5.059203037e-15,2.133845741e-14,5.863941592e-14,3.844341938e-14,5.957992583e-14,4.099444475e-15,8.686325778e-15,1.464934006e-14,6.514693689e-15,3.129806868e-14,7.664105314e-15,1.415705485e-13,7.912224084e-15,1.563990203e-15,1.593047813e-15,9.18731041e-15,2.426868388e-14,4.817882095e-15,1.204845324e-14,1.257481249e-14
0.640625,2.053302253e-14,4.105077358e-14,1.225160041e-14,4.320112429e-14,2.131160057e-14,1.153307504e-14,2.517329798e-14,2.722157898e-14,2.917023704e-14,1.260355897e-14,1.588174365e-15,3.290179097e-14,4.838735678e-15,1.787686761e-14,5.941069628e-14,3.287436055e-14,5.131183714e-14,4.4349455e-15,9.581199702e-15,1.39163818e-14,8.527006105e-15,2.867332193e-14,7.41902287e-15,1.67608959e-13,1.039669822e-14,1.211760292e-15,1.453403033e-15,9.339545656e-15,2.751262319e-14,6.794127939e-15,1.758901452e-14,7.848684399e-15
0.6484375,1.90917527e-14,4.208096732e-14,1.656118279e-14,5.4582398e-14,2.901137165e-14,1.490593747e-14,3.010682909e-14,2.513413183e-14,2.729182081e-14,1.373260385e-14,1.592394159e-15,3.451017607e-14,4.859783825e-15,1.553884159e-14,5.732762848e-14,2.71493088e-14,4.213206545e-14,5.086876834e-15,1.037892489e-14,1.214834014e-14,1.063341556e-14,2.859871404e-14,8.27363519e-15,1.875028436e-13,1.386700039e-14,1.325640895e-15,1.709837341e-15,9.908088672e-15,3.058968945e-14,9.425988219e-15,2.475907382e-14,4.972988568e-15
0.65625,1.793987478e-14,4.205507347e-14,2.282928588e-14,6.56638111e-14,3.726562182e-14,1.850179978e-14,3.510211875e-14,2.407216792e-14,2.454725124e-14,1.483825471e-14,1.613863407e-15,3.484498161e-14,4.600619161e-15,1.416109184e-14,5.489735444e-14,2.273363187e-14,3.423215776e-14,6.596325282e-15,1.183390944e-14,1.035475579e-14,1.241528253e-14,3.05409462e-14,9.437590728e-15,2.024117739e-13,1.844305253e-14,1.750514384e-15,2.626322262e-15,1.069135258e-14,3.209648842e-14,1.274905118e-14,3.181371804e-14,3.84159601e-15
0.6640625,1.623126062e-14,3.89408869e-14,3.110101893e-14,7.343960705e-14,4.439968364e-14,2.122852158e-14,3.912115614e-14,2.367292712e-14,2.092025455e-14,1.561355468e-14,1.63109782e-15,3.317230936e-14,3.740593546e-15,1.356991812e-14,5.16967901e-14,1.991014209e-14,2.727532124e-14,8.338821739e-15,1.343868778e-14,9.360519811e-15,1.356213287e-14,3.327791928e-14,1.059697996e-14,2.077956032e-13,2.39208279e-14,2.324947059e-15,4.695708761e-15,1.069565682e-14,3.196009951e-14,1.609509052e-14,3.711407805e-14,4.569934516e-15
0.671875,1.366122883e-14,3.493626107e-14,3.972177567e-14,7.798272138e-14,4.933370932e-14,2.347374169e-14,4.104097184e-14,2.369970104e-14,1.694221853e-14,1.60106338e-14,1.753814187e-15,3.058619123e-14,3.250460981e-15,1.382651759e-14,4.67198684e-14,1.850156744e-14,2.109880736e-14,9.726457155e-15,1.446110627e-14,9.546640039e-15,1.380076738e-14,3.752030111e-14,1.137934522e-14,2.033455755e-13,2.911396728e-14,2.882032421e-15,8.640326957e-15,9.63449429e-15,3.086043585e-14,1.89037278e-14,4.050840329e-14,6.725201194e-15
0.6796875,1.131830622e-14,3.104635262e-14,4.865279998e-14,7.932008584e-14,5.108550041e-14,2.507273372e-14,4.083813143e-14,2.376184664e-14,1.334533774e-14,1.583814364e-14,1.958273953e-15,2.815126077e-14,3.242909612e-15,1.496411613e-14,4.192742392e-14,1.877692012e-14,1.734386607e-14,1.139331091e-14,1.545853152e-14,1.162961632e-14,1.304107949e-14,4.333774906e-14,1.150732818e-14,1.919360796e-13,3.241694003e-14,3.398031384e-15,1.483100963e-14,8.579162632e-15,2.895937962e-14,2.125459957e-14,4.191007268e-14,9.755839176e-15
0.6875,9.722036226e-15,2.634313822e-14,5.859097851e-14,7.587770916e-14,4.92749821e-14,2.525223804e-14,3.922840028e-14,2.385760758e-14,1.017478527e-14,1.511582955e-14,2.078030774e-15,2.52137288e-14,3.30985814e-15,1.752452547e-14,3.857276767e-14,2.116650756e-14,1.632181361e-14,1.240620243e-14,1.613932086e-14,1.510740875e-14,1.177731898e-14,4.869749827e-14,1.132920566e-14,1.778162391e-13,3.385951124e-14,3.923687932e-15,2.425771209e-14,7.77284559e-15,2.621905814e-14,2.281100785e-14,4.06290323e-14,1.300719738e-14
0.6953125,8.120301527e-15,2.196042134e-14,6.783559323e-14,6.901448583e-14,4.510652695e-14,2.495759033e-14,3.575431014e-14,2.366658124e-14,7.28802275e-15,1.397043054e-14,2.321602949e-15,2.1629427e-14,3.706930388e-15,2.042194756e-14,3.620027387e-14,2.54205127e-14,1.75805699e-14,1.276586771e-14,1.600362655e-14,1.941019643e-14,1.01805907e-14,5.282529391e-14,1.141103909e-14,1.62239682e-13,3.327022978e-14,4.490360462e-15,3.691249871e-14,7.247132104e-15,2.265732911e-14,2.298626792e-14,3.707688638e-14,1.626910102e-14
0.703125,6.527452213e-15,1.902213551e-14,7.644081776e-14,6.117465048e-14,4.015153245e-14,2.518750777e-14,3.074026875e-14,2.343524709e-14,5.092396607e-15,1.265152834e-14,2.800477952e-15,1.844472964e-14,4.376302583e-15,2.315611864e-14,3.50159408e-14,3.123002018e-14,2.075868053e-14,1.257240307e-14,1.514372527e-14,2.450982673e-14,8.506141606e-15,5.525239442e-14,1.202383745e-14,1.482603423e-13,2.987396922e-14,5.210357384e-15,5.228657107e-14,7.441864282e-15,1.881731261e-14,2.210570019e-14,3.246894175e-14,1.874521164e-14
0.7109375,5.429366362e-15,1.83466765e-14,8.565940918e-14,5.509481582e-14,3.684160989e-14,2.638418627e-14,2.582616793e-14,2.356290796e-14,3.882310802e-15,1.119967114e-14,3.855436557e-15,1.565146185e-14,4.847673573e-15,2.631677686e-14,3.637010027e-14,3.937689649e-14,2.730250544e-14,1.190249455e-14,1.366705355e-14,2.920297457e-14,7.131528403e-15,5.566692289e-14,1.311972925e-14,1.401389958e-13,2.480382694e-14,6.290195855e-15,7.084039026e-14,8.054042331e-15,1.47924005e-14,2.021093881e-14,2.858107952e-14,1.943208673e-14
0.71875,4.889062805e-15,2.027313199e-14,9.304401301e-14,5.28652923e-14,3.699744045e-14,2.899389544e-14,2.172353542e-14,2.373349025e-14,3.507422378e-15,9.986592951e-15,5.728135206e-15,1.30700786e-14,5.058832747e-15,2.988795673e-14,3.997749207e-14,4.950101039e-14,3.732122382e-14,1.137219351e-14,1.171179591e-14,3.255876829e-14,6.290582302e-15,5.492420644e-14,1.481901067e-14,1.341198881e-13,1.969853511e-14,7.654161171e-15,9.050579356e-14,9.048148887e-15,1.117251046e-14,1.75039807e-14,2.658506313e-14,1.895916557e-14
0.7265625,4.995689758e-15,2.421004141e-14,9.679479657e-14,5.574427459e-14,4.184696509e-14,3.316939379e-14,1.792086001e-14,2.444238761e-14,4.016742129e-15,9.124712129e-15,8.13413693e-15,1.086478552e-14,5.050880021e-15,3.311740274e-14,4.529049538e-14,6.14926075e-14,5.172030607e-14,1.184060527e-14,9.888496891e-15,3.584030109e-14,6.092447274e-15,5.333135844e-14,1.656999063e-14,1.281723653e-13,1.523235486e-14,9.513988442e-15,1.082455679e-13,1.015074606e-14,8.147571959e-15,1.45542804e-14,2.727022498e-14,1.806265577e-14
0.734375,5.95098739e-15,2.944807106e-14,9.752912186e-14,6.341303563e-14,5.131570616e-14,3.809806506e-14,1.492710728e-14,2.580568066e-14,5.042555499e-15,8.599228873e-15,1.137082593e-14,9.007474224e-15,4.586483425e-15,3.637969264e-14,5.273991626e-14,7.518614758e-14,6.867684158e-14,1.36087772e-14,8.613911951e-15,3.869284794e-14,6.330503483e-15,5.097974645e-14,1.860620407e-14,1.213349245e-13,1.222711926e-14,1.188745128e-14,1.227368639e-13,1.016962646e-14,5.70753107e-15,1.151986493e-14,3.040767912e-14,1.700987596e-14
0.7421875,7.894665954e-15,3.531036675e-14,9.313334662e-14,7.435800955e-14,6.36563715e-14,4.385777463e-14,1.297186201e-14,2.795155905e-14,6.451244097e-15,8.350710652e-15,1.506926337e-14,7.39730111e-15,3.895290312e-15,3.982546059e-14,6.189325695e-14,9.000924963e-14,8.986472141e-14,1.673957013e-14,8.064779563e-15,4.082300404e-14,6.582179061e-15,4.846480257e-14,1.998254459e-14,1.12093648e-13,1.074375205e-14,1.426133572e-14,1.324285921e-13,9.284376176e-15,4.007099198e-15,8.892499015e-15,3.452311337e-14,1.580078739e-14
0.75,1.113364816e-14,4.03300506e-14,8.271526875e-14,8.553143165e-14,7.680576441e-14,4.973727556e-14,1.21155706e-14,3.000812704e-14,7.884691166e-15,7.97948099e-15,1.832572304e-14,5.812150608e-15,3.191801348e-15,4.318868399e-14,7.061776196e-14,1.034001815e-13,1.122816515e-13,2.14966249e-14,8.414645539e-15,4.223851517e-14,6.677505559e-15,4.7029638e-14,2.035297347e-14,9.852398562e-14,1.05576048e-14,1.602916557e-14,1.350309337e-13,8.018124699e-15,3.086811723e-15,6.790518559e-15,3.788308608e-14,1.532085004e-14
0.7578125,1.592751755e-14,4.447356404e-14,6.890644019e-14,9.507779779e-14,8.902346992e-14,5.499338258e-14,1.268784936e-14,3.216205692e-14,9.565086081e-15,7.685689414e-15,2.078046668e-14,4.426121399e-15,2.95036111e-15,4.614021506e-14,7.759120198e-14,1.144545162e-13,1.313577377e-13,2.719363219e-14,9.640388311e-15,4.405719379e-14,6.709182231e-15,4.61042608e-14,1.993767517e-14,8.32842477e-14,1.06930929e-14,1.706541803e-14,1.300005639e-13,6.415447624e-15,2.911849273e-15,5.371547456e-15,3.981862649e-14,1.578171145e-14
0.765625,2.181719487e-14,4.735582404e-14,5.444298531e-14,1.030425661e-13,9.979879167e-14,5.928065451e-14,1.550050757e-14,3.497551215e-14,1.139541495e-14,7.55904783e-15,2.320731515e-14,3.733438687e-15,3.3222873e-15,4.841401276e-14,8.212907155e-14,1.230238085e-13,1.510558641e-13,3.360403514e-14,1.15094829e-14,4.661341621e-14,6.730536299e-15,4.476709045e-14,1.903204292e-14,7.076880945e-14,1.069853729e-14,1.763168542e-14,1.191511145e-13,4.590753283e-15,3.227430505e-15,4.788292952e-15,3.991758867e-14,1.735411841e-14
0.7734375,2.813285127e-14,4.822269892e-14,4.02821519e-14,1.063058602e-13,1.059829924e-13,6.148776966e-14,2.045872133e-14,3.711617245e-14,1.257632435e-14,7.25574023e-15,2.48773906e-14,3.613396584e-15,4.210877566e-15,4.95792039e-14,8.268054498e-14,1.260372632e-13,1.695810852e-13,3.968551519e-14,1.373464248e-14,4.890477671e-14,6.57824767e-15,4.340758213e-14,1.764820549e-14,6.125549851e-14,1.045035978e-14,1.737927561e-14,1.040201489e-13,3.288751594e-15,3.817901757e-15,4.811070885e-15,3.723842152e-14,1.929237653e-14
0.78125,3.484462235e-14,4.710534741e-14,2.955708008e-14,1.043507777e-13,1.066659368e-13,6.167267012e-14,2.796800885e-14,3.862996754e-14,1.349468023e-14,6.767096115e-15,2.443680855e-14,4.044328636e-15,5.938671516e-15,4.997021008e-14,7.788673552e-14,1.213194734e-13,1.78408013e-13,4.447793953e-14,1.591506438e-14,5.130384169e-14,6.503469729e-15,4.291657485e-14,1.639665824e-14,5.842175838e-14,9.521507621e-15,1.616347352e-14,8.571938416e-14,2.41916396e-15,4.471107407e-15,5.446228731e-15,3.255347081e-14,2.081614422e-14
0.7890625,4.110462969e-14,4.396188629e-14,2.303988367e-14,9.784719656e-14,1.024921427e-13,5.960095235e-14,3.68360061e-14,4.037895086e-14,1.468613487e-14,6.449321204e-15,2.314674378e-14,5.328312332e-15,8.540110172e-15,4.868372363e-14,6.891618446e-14,1.10435796e-13,1.77904548e-13,4.672899963e-14,1.737226682e-14,5.473739653e-14,6.726317263e-15,4.258958234e-14,1.571085504e-14,6.374368735e-14,8.043881943e-15,1.449716813e-14,6.661558867e-14,1.882151594e-15,5.153675216e-15,6.260429452e-15,2.700186128e-14,2.196099717e-14
0.796875,4.547259586e-14,3.96540262e-14,2.03865743e-14,8.89966497e-14,9.486425865e-14,5.581043417e-14,4.61699039e-14,4.092341045e-14,1.519151558e-14,6.150699791e-15,2.186244028e-14,6.91651806e-15,1.125814228e-14,4.579028289e-14,5.859411187e-14,9.635139462e-14,1.758873498e-13,4.638952963e-14,1.790797852e-14,5.979097655e-14,7.282096578e-15,4.148737071e-14,1.583519517e-14,7.505789679e-14,6.561486038e-15,1.301222664e-14,4.989291896e-14,1.978269378e-15,5.861082745e-15,6.823651423e-15,2.201147375e-14,2.283265814e-14
0.8046875,4.737951043e-14,3.403665009e-14,2.045347883e-14,7.806678813e-14,8.369576134e-14,5.014304097e-14,5.4699848e-14,4.04194143e-14,1.474366192e-14,5.682775519e-15,1.990643019e-14,8.238441123e-15,1.364462381e-14,4.161112031e-14,4.783849751e-14,7.89190385e-14,1.708267867e-13,4.396032151e-14,1.771302398e-14,6.475280008e-14,8.07438987e-15,3.860384535e-14,1.694585844e-14,9.203480763e-14,5.0533878e-15,1.167311464e-14,3.676672019e-14,2.451825686e-15,6.699367878e-15,7.144563638e-15,1.800588592e-14,2.247790092e-14
0.8125,4.667882018e-14,2.830046433e-14,2.175871288e-14,6.712470395e-14,7.121373841e-14,4.365561619e-14,6.082178393e-14,3.918282434e-14,1.382287871e-14,5.231695468e-15,1.713053489e-14,9.234918721e-15,1.568591753e-14,3.657106799e-14,3.837086228e-14,6.003053583e-14,1.588480975e-13,3.897854089e-14,1.65232632e-14,6.964026983e-14,9.090435193e-15,3.507665337e-14,1.926617706e-14,1.123550698e-13,3.846899214e-15,1.063989159e-14,2.73707131e-14,3.220432448e-15,7.98679018e-15,7.06400891e-15,1.597382612e-14,2.086785877e-14
0.8203125,4.396409591e-14,2.256517835e-14,2.264720474e-14,5.719467494e-14,5.852992326e-14,3.73259438e-14,6.419101186e-14,3.760109242e-14,1.258746624e-14,4.894068854e-15,1.448033135e-14,9.618806087e-15,1.705400074e-14,3.111695217e-14,3.251706595e-14,4.336687837e-14,1.470395298e-13,3.222813166e-14,1.442183722e-14,7.397945847e-14,1.009912115e-14,3.204207209e-14,2.235178836e-14,1.331600261e-13,2.94624929e-15,1.002158848e-14,2.193611906e-14,4.419022328e-15,9.873464827e-15,6.609286359e-15,1.553519615e-14,1.865836745e-14
0.828125,3.897805152e-14,1.748818252e-14,2.210025163e-14,4.967360364e-14,4.734083845e-14,3.125204561e-14,6.488018593e-14,3.501041113e-14,1.072962563e-14,4.512390525e-15,1.24876e-14,8.983548428e-15,1.745342153e-14,2.589913177e-14,3.068984956e-14,3.008502476e-14,1.394503511e-13,2.565814237e-14,1.207585205e-14,7.701648341e-14,1.112174155e-14,2.836276709e-14,2.573264899e-14,1.526158822e-13,2.373344875e-15,1.00219043e-14,2.030494419e-14,5.832420958e-15,1.231640449e-14,5.878294449e-15,1.693436876e-14,1.620811958e-14
0.8359375,3.280525031e-14,1.350497791e-14,2.078780327e-14,4.454184718e-14,3.764169937e-14,2.573005997e-14,6.282970717e-14,3.217138981e-14,8.57457934e-15,4.31984473e-15,1.071606673e-14,7.730352653e-15,1.70366778e-14,2.187602178e-14,3.294830401e-14,2.03126154e-14,1.313822861e-13,1.999265692e-14,9.915052616e-15,7.596679897e-14,1.176034521e-14,2.37977796e-14,2.877255311e-14,1.6923368e-13,2.110665462e-15,1.003321694e-14,1.986618488e-14,7.325036543e-15,1.511427718e-14,5.267215077e-15,1.837639168e-14,1.329958503e-14
0.84375,2.630575763e-14,1.026496623e-14,1.870253574e-14,4.106145225e-14,2.914532798e-14,2.125812693e-14,5.941284016e-14,2.981177233e-14,6.552006175e-15,4.329495828e-15,9.221920454e-15,6.286018006e-15,1.599208568e-14,1.934809564e-14,3.876110946e-14,1.416231231e-14,1.208315705e-13,1.546653868e-14,7.755109193e-15,7.109247223e-14,1.197226466e-14,1.938263476e-14,3.103425274e-14,1.81081109e-13,2.105254888e-15,9.647986853e-15,2.074252324e-14,9.182207067e-15,1.801808548e-14,4.750273347e-15,1.934550324e-14,1.042264673e-14
0.8515625,2.034827023e-14,8.119498029e-15,1.664285756e-14,4.017493602e-14,2.292128135e-14,1.842624278e-14,5.602225823e-14,2.815618529e-14,4.766340106e-15,4.598656758e-15,8.353366631e-15,4.850514152e-15,1.44365333e-14,1.876545528e-14,4.662202669e-14,1.140405708e-14,1.113427628e-13,1.264787738e-14,5.955991491e-15,6.343931697e-14,1.189788993e-14,1.623409048e-14,3.21592074e-14,1.888500298e-13,2.326731583e-15,9.255275868e-15,2.162493723e-14,1.134497051e-14,2.083723088e-14,4.433197585e-15,2.018980351e-14,7.968933018e-15
0.859375,1.528069941e-14,6.678091396e-15,1.557425394e-14,4.07490552e-14,1.798697769e-14,1.72813972e-14,5.278629054e-14,2.708302889e-14,3.305733012e-15,5.180995234e-15,8.114806326e-15,3.744706139e-15,1.276769112e-14,2.029881281e-14,5.664135054e-14,1.164912835e-14,1.001729067e-13,1.191031148e-14,4.610130392e-15,5.294918543e-14,1.135474752e-14,1.37107352e-14,3.203019477e-14,1.907852484e-13,2.60049604e-15,8.487551381e-15,2.120568116e-14,1.357689833e-14,2.269346069e-14,4.427072323e-15,1.951077354e-14,5.928473697e-15
0.8671875,1.122454106e-14,6.195238082e-15,1.696457997e-14,4.224038043e-14,1.400053457e-14,1.799185726e-14,5.032907853e-14,2.727241762e-14,2.423518911e-15,6.047552707e-15,8.242360023e-15,3.317471233e-15,1.134194528e-14,2.38362829e-14,6.820529107e-14,1.427667551e-14,8.575991378e-14,1.30806435e-14,3.731900811e-15,4.178514437e-14,1.051973085e-14,1.174741322e-14,3.051567631e-14,1.867216427e-13,2.794737404e-15,7.35220379e-15,1.976232284e-14,1.597149656e-14,2.336272887e-14,4.536480902e-15,1.769514356e-14,4.443967231e-15
0.875,8.436196793e-15,6.432329665e-15,2.100749121e-14,4.42189388e-14,1.09469435e-14,1.999708322e-14,4.800471207e-14,2.851436611e-14,2.084100843e-15,7.378761089e-15,8.372403583e-15,3.363978403e-15,9.97399975e-15,2.804644314e-14,7.954200143e-14,1.833378104e-14,7.142355854e-14,1.565988718e-14,3.191113734e-15,3.170092978e-14,9.49352563e-15,9.962430229e-15,2.786482342e-14,1.776101049e-13,2.827406275e-15,6.126687865e-15,1.784923467e-14,1.818455347e-14,2.301348412e-14,4.457835724e-15,1.552918538e-14,3.647196696e-15
0.8828125,7.016574387e-15,7.249851668e-15,2.727358142e-14,4.668805429e-14,8.600039988e-15,2.332947827e-14,4.57806026e-14,3.046151981e-14,2.114785589e-15,8.905686083e-15,8.409823127e-15,3.78670282e-15,8.81124183e-15,3.269500289e-14,9.006105229e-14,2.267407087e-14,5.903847339e-14,1.908330629e-14,2.880946484e-15,2.337814272e-14,8.166138005e-15,8.76926829e-15,2.444050875e-14,1.634821531e-13,2.770832736e-15,5.03714544e-15,1.548570293e-14,2.009380383e-14,2.188928376e-14,4.20793994e-15,1.337891857e-14,3.316374927e-15
0.890625,7.015400127e-15,8.716660827e-15,3.600610298e-14,4.791459236e-14,6.726548884e-15,2.669697583e-14,4.339189126e-14,3.239432519e-14,2.568032862e-15,1.06954175e-14,8.289814232e-15,4.485794693e-15,8.023900818e-15,3.646346116e-14,9.891826141e-14,2.630100222e-14,4.87034784e-14,2.261451455e-14,2.735276377e-15,1.822027823e-14,6.829577105e-15,8.022257846e-15,2.098323899e-14,1.454695754e-13,2.719942319e-15,4.293661203e-15,1.310300709e-14,2.120295148e-14,2.031989551e-14,3.889560155e-15,1.167293895e-14,3.347990084e-15
0.8984375,8.323969338e-15,1.010005713e-14,4.570893404e-14,4.811229912e-14,5.530550445e-15,2.924257944e-14,4.009990256e-14,3.410360006e-14,3.485931189e-15,1.238990074e-14,7.868123221e-15,5.305277559e-15,7.541505818e-15,3.846643692e-14,1.033885744e-13,2.833458092e-14,3.980691504e-14,2.536773307e-14,2.610494354e-15,1.556184055e-14,5.628932269e-15,7.668274336e-15,1.729869619e-14,1.257672384e-13,2.731897391e-15,3.791884349e-15,1.128893298e-14,2.140997678e-14,1.845471914e-14,3.540677519e-15,1.040044942e-14,3.318992189e-15
0.90625,1.152751155e-14,1.131759932e-14,5.439395232e-14,4.650685468e-14,4.988500718e-15,2.993876892e-14,3.532384512e-14,3.556519542e-14,4.817494783e-15,1.402085174e-14,7.213012135e-15,6.061381809e-15,7.190812935e-15,3.745993525e-14,1.026513293e-13,2.810347036e-14,3.501148472e-14,2.669791815e-14,2.493152581e-15,1.529784672e-14,4.515889025e-15,7.842099775e-15,1.369279472e-14,1.04660201e-13,2.944084787e-15,3.69586806e-15,1.018076251e-14,2.04745837e-14,1.72966484e-14,3.304970684e-15,1.037600219e-14,3.353615747e-15
0.9140625,1.651697549e-14,1.198146457e-14,5.982879114e-14,4.31171461e-14,4.935163278e-15,2.869311063e-14,3.031370999e-14,3.601224788e-14,6.42595594e-15,1.542373524e-14,6.394929056e-15,6.980760705e-15,7.210129027e-15,3.436322212e-14,9.662593259e-14,2.525297992e-14,3.191040318e-14,2.627533031e-14,2.426348049e-15,1.586132672e-14,3.584968546e-15,9.571587469e-15,1.061904644e-14,8.385564308e-14,3.387418882e-15,4.102628763e-15,9.923583269e-15,1.904122423e-14,1.698907751e-14,3.554824464e-15,1.11683342e-14,3.287106765e-15
0.921875,2.361723199e-14,1.18515926e-14,6.254128383e-14,3.802830958e-14,5.455726156e-15,2.573796662e-14,2.562868489e-14,3.576130489e-14,8.416012961e-15,1.642679549e-14,5.742934778e-15,8.202470648e-15,7.709369383e-15,2.996392223e-14,8.648642145e-14,2.15081718e-14,3.022332308e-14,2.465497262e-14,2.39411225e-15,1.628864942e-14,2.918808208e-15,1.31292466e-14,8.347696792e-15,6.571581545e-14,3.99107278e-15,4.588856375e-15,9.981835652e-15,1.727111426e-14,1.693050534e-14,4.352764345e-15,1.194835169e-14,3.218919267e-15
0.9296875,3.373919705e-14,1.074157818e-14,6.084410549e-14,3.214039037e-14,6.15697381e-15,2.135531216e-14,2.155257875e-14,3.45262008e-14,1.060814344e-14,1.748080021e-14,5.403354433e-15,9.941805047e-15,8.741602862e-15,2.474583451e-14,7.24234045e-14,1.779451882e-14,3.088686111e-14,2.197089812e-14,2.558424426e-15,1.610050934e-14,2.467367617e-15,1.896903651e-14,6.781621471e-15,5.04595686e-14,4.787508609e-15,5.116549095e-15,1.0058159e-14,1.51681351e-14,1.742991788e-14,5.970984118e-15,1.274902098e-14,3.415190749e-15
0.9375,4.706596381e-14,8.966086979e-15,5.468213129e-14,2.629374327e-14,7.018310174e-15,1.652965292e-14,1.909051099e-14,3.253898667e-14,1.289154562e-14,1.87243693e-14,5.540861041e-15,1.21258696e-14,1.015147783e-14,2.058228872e-14,5.804536088e-14,1.591183009e-14,3.480152597e-14,1.924959252e-14,2.975056317e-15,1.465883702e-14,2.172586256e-15,2.725067793e-14,6.123257059e-15,3.901940297e-14,5.42460249e-15,5.422305737e-15,1.00942244e-14,1.354011648e-14,1.778674764e-14,8.283419359e-15,1.313770259e-14,4.475798686e-15
0.9453125,6.389460025e-14,7.251953346e-15,4.664828652e-14,2.171023694e-14,7.923061419e-15,1.209724119e-14,1.882769715e-14,3.037839875e-14,1.523523224e-14,2.031635385e-14,6.280535462e-15,1.501624376e-14,1.201219661e-14,1.803998775e-14,4.613077328e-14,1.649756357e-14,4.197961363e-14,1.723412602e-14,3.722046824e-15,1.306335778e-14,2.128756101e-15,3.826949501e-14,6.358552054e-15,3.295664933e-14,5.852328206e-15,5.575103445e-15,9.379146753e-15,1.299032625e-14,1.801355301e-14,1.124928432e-14,1.314260294e-14,6.698255523e-15
0.953125,8.4564199e-14,5.647790111e-15,3.861745122e-14,1.928922531e-14,8.743800805e-15,8.350274155e-15,1.983681067e-14,2.802649662e-14,1.758030623e-14,2.277695977e-14,7.478693054e-15,1.837688863e-14,1.427766091e-14,1.670401424e-14,3.662758042e-14,1.9434506e-14,5.248480896e-14,1.593393149e-14,4.914309949e-15,1.128543578e-14,2.163618604e-15,5.032927849e-14,7.761312679e-15,3.204962133e-14,6.090003473e-15,5.48844306e-15,8.45145495e-15,1.313290247e-14,1.768816826e-14,1.464930267e-14,1.225031799e-14,1.052954918e-14
0.9609375,1.069367872e-13,4.515442478e-15,3.061472724e-14,1.930171242e-14,9.559514152e-15,5.711647567e-15,2.170239724e-14,2.55809018e-14,1.988463998e-14,2.613836899e-14,8.953827876e-15,2.215915786e-14,1.673868737e-14,1.69016238e-14,3.009656417e-14,2.413662903e-14,6.43071584e-14,1.529517384e-14,6.200851503e-15,1.032483664e-14,2.291551607e-15,6.117425165e-14,1.027187658e-14,3.509492105e-14,6.185586871e-15,5.14351974e-15,7.717203274e-15,1.398955209e-14,1.66833687e-14,1.804450489e-14,1.088398784e-14,1.64353634e-14
0.96875,1.30722679e-13,4.120472431e-15,2.453283313e-14,2.099086818e-14,1.007848281e-14,4.097586857e-15,2.399041505e-14,2.336975617e-14,2.215608657e-14,3.059097069e-14,1.075215183e-14,2.56729216e-14,1.924760856e-14,1.777004706e-14,2.84289513e-14,2.973990152e-14,7.425097986e-14,1.564398148e-14,7.549713221e-15,1.040639358e-14,2.57099856e-15,7.039765502e-14,1.394684002e-14,4.208421953e-14,6.192775191e-15,4.992501723e-15,7.258499996e-15,1.518869578e-14,1.544796111e-14,2.14797151e-14,9.526342448e-15,2.442952886e-14
0.9765625,1.537055549e-13,4.26859016e-15,2.144266232e-14,2.36377377e-14,1.030296307e-14,3.268304092e-15,2.552271608e-14,2.170534392e-14,2.392651448e-14,3.532731138e-14,1.287356094e-14,2.844207305e-14,2.09322425e-14,1.785850283e-14,3.049339487e-14,3.504192595e-14,7.847826177e-14,1.651908394e-14,8.624228271e-15,1.158451103e-14,2.925418918e-15,7.642577195e-14,1.835457916e-14,4.999199996e-14,5.925539459e-15,5.39195343e-15,7.945755112e-15,1.717873517e-14,1.44244217e-14,2.424087728e-14,8.401925939e-15,3.393978891e-14
0.984375,1.718072638e-13,5.426043839e-15,2.089416258e-14,2.677821838e-14,1.045182192e-14,2.967939287e-15,2.534527429e-14,2.142635474e-14,2.564274092e-14,3.994170096e-14,1.478878636e-14,3.102815134e-14,2.196631315e-14,1.745319542e-14,3.530887164e-14,4.028331248e-14,7.810161192e-14,1.909965931e-14,9.684674169e-15,1.418313312e-14,3.199086186e-15,7.68722354e-14,2.310911127e-14,5.678519686e-14,5.59525185e-15,6.542722093e-15,1.005431701e-14,2.018158218e-14,1.413905743e-14,2.611162422e-14,7.848827304e-15,4.448640513e-14
0.9921875,1.839574963e-13,7.432563335e-15,2.140793505e-14,2.821003574e-14,1.06006635e-14,2.824080358e-15,2.38951339e-14,2.28238517e-14,2.775742939e-14,4.460007214e-14,1.685436636e-14,3.325021314e-14,2.270298902e-14,1.647129349e-14,4.269087705e-14,4.55666691e-14,7.226856366e-14,2.356903927e-14,1.086608127e-14,1.855550085e-14,3.614728458e-15,7.199623248e-14,2.724351703e-14,6.343193685e-14,5.56413099e-15,8.769389591e-15,1.414232893e-14,2.376490622e-14,1.495440056e-14,2.739490638e-14,8.492093247e-15,5.630553187e-14
1,1.904437377e-13,1.092802473e-14,2.222840068e-14,2.753002239e-14,1.033940685e-14,2.936884582e-15,2.190320945e-14,2.53515997e-14,2.961980569e-14,4.862742669e-14,1.942500274e-14,3.468109093e-14,2.289791548e-14,1.613050675e-14,5.218760793e-14,5.104019845e-14,6.233099432e-14,3.167127562e-14,1.279553392e-14,2.466672674e-14,4.158859385e-15,6.400790065e-14,3.008979227e-14,6.846116933e-14,6.052656617e-15,1.243927441e-14,2.01924649e-14,2.770889899e-14,1.74399262e-14,2.815959543e-14,1.103061493e-14,6.779308719e-14
1.0078125,1.904350052e-13,1.665998507e-14,2.354246509e-14,2.550982573e-14,9.821734707e-15,3.206506829e-15,1.93761545e-14,2.887510111e-14,3.090825047e-14,5.18837216e-14,2.228076063e-14,3.555941243e-14,2.217536146e-14,1.620757786e-14,6.285227347e-14,5.746577913e-14,5.385828414e-14,4.335001694e-14,1.586804691e-14,3.1739921e-14,4.581647439e-15,5.369811234e-14,3.094830373e-14,6.965513232e-14,6.79961745e-15,1.690396632e-14,2.804515671e-14,3.243582913e-14,2.169918033e-14,2.822634192e-14,1.540014014e-14,7.69582832e-14
1.015625,1.834872681e-13,2.464983017e-14,2.419567791e-14,2.264679505e-14,9.404905771e-15,3.607618746e-15,1.657814579e-14,3.218806895e-14,3.185772274e-14,5.453236033e-14,2.55000914e-14,3.711157791e-14,2.169819242e-14,1.801797961e-14,7.336016145e-14,6.502996017e-14,4.985332492e-14,5.849502409e-14,2.061339996e-14,3.963948545e-14,4.912311314e-15,4.190790025e-14,2.987988695e-14,6.832035051e-14,8.02827326e-15,2.151452085e-14,3.738024569e-14,3.845552076e-14,2.768973925e-14,2.782753544e-14,2.136417362e-14,8.309508561e-14
1.0234375,1.719731298e-13,3.534717954e-14,2.338718604e-14,1.933251669e-14,9.285066574e-15,4.22931177e-15,1.442975852e-14,3.486658033e-14,3.292143525e-14,5.688011456e-14,2.936684986e-14,3.934202953e-14,2.207504469e-14,2.087413491e-14,8.181689774e-14,7.26768901e-14,5.027438995e-14,7.513174853e-14,2.71536785e-14,4.753798184e-14,5.354983342e-15,3.041240238e-14,2.715121955e-14,6.601239777e-14,9.771098221e-15,2.57148897e-14,4.66476714e-14,4.547046065e-14,3.496856159e-14,2.737205488e-14,2.861602895e-14,8.599779216e-14
1.03125,1.57375941e-13,4.785016085e-14,2.181896099e-14,1.639704776e-14,9.56270859e-15,5.249177368e-15,1.307764532e-14,3.537442503e-14,3.290429395e-14,5.792589549e-14,3.355566549e-14,4.119142608e-14,2.224282181e-14,2.40967626e-14,8.686234579e-14,7.85539825e-14,5.5406725e-14,9.129614967e-14,3.457460493e-14,5.424728101e-14,5.913707274e-15,2.093139557e-14,2.346007924e-14,6.146353271e-14,1.154603808e-14,2.881336544e-14,5.510132066e-14,5.257982223e-14,4.212891944e-14,2.651698037e-14,3.617222125e-14,8.417679462e-14
1.0390625,1.407707186e-13,6.160984304e-14,1.962538053e-14,1.486246569e-14,1.039961799e-14,6.592466986e-15,1.236388088e-14,3.301675079e-14,3.111389064e-14,5.796992117e-14,3.743623546e-14,4.340239941e-14,2.274977332e-14,2.681930836e-14,8.637619119e-14,8.000463705e-14,6.206082629e-14,1.035349734e-13,4.186140875e-14,5.783564261e-14,6.537876978e-15,1.376340393e-14,1.937529881e-14,5.586725282e-14,1.277730019e-14,2.992107062e-14,6.291644277e-14,6.009683368e-14,4.814298476e-14,2.525781404e-14,4.286758077e-14,7.655009211e-14
1.046875,1.225122198e-13,7.476162628e-14,1.721968272e-14,1.558546086e-14,1.199960331e-14,8.177295118e-15,1.23267546e-14,2.893383308e-14,2.841964518e-14,5.79969064e-14,4.035377398e-14,4.609848848e-14,2.35237995e-14,2.838690598e-14,8.031210693e-14,7.632656621e-14,6.613842255e-14,1.094844879e-13,4.796657955e-14,5.754318318e-14,7.244713072e-15,8.355541675e-15,1.655523825e-14,4.956661194e-14,1.350036144e-14,2.887271422e-14,6.856236858e-14,6.829571505e-14,5.220796854e-14,2.363059848e-14,4.722627962e-14,6.516176111e-14
1.0546875,1.041095704e-13,8.527757392e-14,1.534377156e-14,1.829515041e-14,1.471336941e-14,1.024416446e-14,1.266372508e-14,2.463644617e-14,2.555087129e-14,5.681126603e-14,4.16789106e-14,4.82049429e-14,2.426857083e-14,2.87057197e-14,7.045213719e-14,6.895436051e-14,6.602873779e-14,1.087236555e-13,5.1769151e-14,5.315748195e-14,7.938696176e-15,4.716027688e-15,1.581160682e-14,4.363863166e-14,1.384036126e-14,2.620187823e-14,6.971640064e-14,7.583705346e-14,5.319031285e-14,2.147360244e-14,4.78079958e-14,5.232470951e-14
1.0625,8.613565963e-14,9.088326189e-14,1.513847969e-14,2.23292197e-14,1.836553588e-14,1.286765852e-14,1.33284452e-14,2.073289394e-14,2.225330215e-14,5.378254719e-14,4.096639995e-14,4.845399943e-14,2.416062307e-14,2.847961467e-14,5.781918352e-14,5.827243669e-14,6.269125318e-14,1.022843047e-13,5.216450556e-14,4.672129788e-14,8.385073344e-15,2.821449305e-15,1.749501521e-14,3.814609227e-14,1.387769136e-14,2.254007965e-14,6.673709178e-14,8.084808737e-14,5.077244257e-14,1.887940798e-14,4.475823274e-14,4.007124431e-14
1.0703125,6.864155788e-14,9.136888661e-14,1.798778732e-14,2.73330802e-14,2.283787308e-14,1.564614835e-14,1.45668473e-14,1.81849849e-14,1.862310214e-14,4.921363414e-14,3.792069915e-14,4.6285684e-14,2.274974947e-14,2.85248378e-14,4.424515662e-14,4.553698579e-14,5.806804193e-14,9.23733546e-14,4.909176992e-14,3.999555004e-14,8.570565526e-15,1.802363159e-15,2.179481303e-14,3.272000006e-14,1.428395669e-14,1.885634651e-14,6.097664232e-14,8.241220447e-14,4.562656239e-14,1.580254396e-14,3.872082631e-14,2.986994098e-14
1.078125,5.174778546e-14,8.62214035e-14,2.538036327e-14,3.186605762e-14,2.725920693e-14,1.821528222e-14,1.616879731e-14,1.794427157e-14,1.48557026e-14,4.272998854e-14,3.295890151e-14,4.15977863e-14,1.969462772e-14,2.990864869e-14,3.224974265e-14,3.375733473e-14,5.369450931e-14,8.179335404e-14,4.308304064e-14,3.475909685e-14,8.281762123e-15,1.338503929e-15,2.81988069e-14,2.766901339e-14,1.603735115e-14,1.599106813e-14,5.244787675e-14,8.089867806e-14,3.942189831e-14,1.228279235e-14,3.032867058e-14,2.31032934e-14
1.0859375,3.821475478e-14,7.764800166e-14,3.686433297e-14,3.451222544e-14,3.080004359e-14,2.034512439e-14,1.748248229e-14,1.983158731e-14,1.191951695e-14,3.539414893e-14,2.721946037e-14,3.526039577e-14,1.587012362e-14,3.262051152e-14,2.335139165e-14,2.575653715e-14,5.525353245e-14,7.342912688e-14,3.565857473e-14,3.371521439e-14,7.503577407e-15,1.649644379e-15,3.616949418e-14,2.366447273e-14,1.948192294e-14,1.425141339e-14,4.286310331e-14,7.604743991e-14,3.393319234e-14,9.288446435e-15,2.175771406e-14,2.061799064e-14
1.09375,2.715143717e-14,6.689796157e-14,5.049791453e-14,3.563133269e-14,3.326954651e-14,2.171689228e-14,1.838251475e-14,2.299270488e-14,1.008997196e-14,2.800124489e-14,2.113122967e-14,2.79406992e-14,1.195117685e-14,3.590113541e-14,1.722581857e-14,2.077187413e-14,6.269547962e-14,6.828538354e-14,2.781702237e-14,3.720649835e-14,6.344793184e-15,2.450623598e-15,4.439441886e-14,1.998100968e-14,2.441414449e-14,1.366912457e-14,3.329868075e-14,6.749300627e-14,3.0426295e-14,7.143825122e-15,1.455712363e-14,2.147455484e-14
1.1015625,1.855113427e-14,5.596538994e-14,6.543963913e-14,3.496241018e-14,3.418780913e-14,2.200463e-14,1.88774696e-14,2.618268e-14,9.632147181e-15,2.096473841e-14,1.563202098e-14,2.033351734e-14,8.725429408e-15,3.846738037e-14,1.374101565e-14,1.921706509e-14,7.525251592e-14,6.521421026e-14,2.03242385e-14,4.463773649e-14,4.978534344e-15,3.519928054e-15,5.192701174e-14,1.733139814e-14,3.027544173e-14,1.373765344e-14,2.53056862e-14,5.596268528e-14,2.937973904e-14,5.861932992e-15,9.331809085e-15,2.421847653e-14
1.109375,1.313528747e-14,4.715895094e-14,7.932273228e-14,3.250036818e-14,3.339796824e-14,2.070151097e-14,1.864731298e-14,2.913543666e-14,1.035218333e-14,1.4859955e-14,1.154159603e-14,1.353452322e-14,6.99638863e-15,3.916741184e-14,1.203248585e-14,2.001994824e-14,9.044540006e-14,6.314127408e-14,1.394030076e-14,5.45397639e-14,3.693481253e-15,4.801864917e-15,5.816868463e-14,1.664546913e-14,3.679249942e-14,1.413929481e-14,1.996992982e-14,4.382405125e-14,3.003267516e-14,5.489072331e-15,6.31914975e-15,2.741599854e-14
1.1171875,1.099354126e-14,4.241167944e-14,8.808553797e-14,2.882162858e-14,3.086291833e-14,1.822412886e-14,1.678682562e-14,3.056909149e-14,1.287645755e-14,1.040803497e-14,8.774068843e-15,9.099755283e-15,8.432655598e-15,3.659118976e-14,1.08259288e-14,2.116446976e-14,1.041109876e-13,5.932938573e-14,8.993479022e-15,6.460568572e-14,2.588923775e-15,6.560318169e-15,6.273085103e-14,1.938427868e-14,4.268086131e-14,1.452587527e-14,1.68849361e-14,3.251458691e-14,3.127398681e-14,5.867800811e-15,5.261955384e-15,2.985964759e-14
1.125,1.149764404e-14,4.239848034e-14,8.870241162e-14,2.555185474e-14,2.786717349e-14,1.567175451e-14,1.405008775e-14,2.995782115e-14,1.669377969e-14,7.208802612e-15,7.201374665e-15,7.003824033e-15,1.380976155e-14,3.17656274e-14,1.029818448e-14,2.18473329e-14,1.125436331e-13,5.284217816e-14,5.725448829e-15,7.262112818e-14,1.744718416e-15,8.485712799e-15,6.45459089e-14,2.606620012e-14,4.63911941e-14,1.466643763e-14,1.573282348e-14,2.274569935e-14,3.167161618e-14,6.330060936e-15,5.816722874e-15,3.02435085e-14
1.1328125,1.495210141e-14,4.735034561e-14,8.354395478e-14,2.324322748e-14,2.502435346e-14,1.32528214e-14,1.140349734e-14,2.782078995e-14,2.07674665e-14,5.102373811e-15,6.455764992e-15,6.86128563e-15,2.292320869e-14,2.687711117e-14,1.053952491e-14,2.180203562e-14,1.121368992e-13,4.46167778e-14,4.370772342e-15,7.63685889e-14,1.226374564e-15,9.850284137e-15,6.389867797e-14,3.806853997e-14,4.795705462e-14,1.473785563e-14,1.552221375e-14,1.491675246e-14,3.071687454e-14,6.585235885e-15,7.635369454e-15,2.778465891e-14
1.140625,2.195080399e-14,5.725273478e-14,7.388022836e-14,2.256745107e-14,2.407335951e-14,1.123157535e-14,8.720945449e-15,2.46091696e-14,2.451831758e-14,3.734969043e-15,6.323376602e-15,8.188547599e-15,3.562411692e-14,2.312087054e-14,1.242782958e-14,2.138471747e-14,1.044631576e-13,3.596003259e-14,5.102060267e-15,7.675897404e-14,9.891187373e-16,1.061228832e-14,6.124349892e-14,5.604089449e-14,4.824096185e-14,1.534303364e-14,1.491471525e-14,9.367332184e-15,2.784336428e-14,6.751842899e-15,1.028812002e-14,2.356833618e-14
1.1484375,3.187288223e-14,6.978616869e-14,6.048238316e-14,2.275186354e-14,2.427748822e-14,1.008791394e-14,6.019579431e-15,2.085440199e-14,2.736493117e-14,2.881611927e-15,6.396350115e-15,1.036279897e-14,5.089640946e-14,2.160831016e-14,1.6272035e-14,2.107213352e-14,9.270922332e-14,2.936621306e-14,8.047138838e-15,7.60885178e-14,8.816290019e-16,1.096764502e-14,5.675763973e-14,7.879611994e-14,4.728194891e-14,1.709793828e-14,1.44961423e-14,6.013526665e-15,2.358401384e-14,6.853923937e-15,1.3720632e-14,1.875685678e-14
1.15625,4.484964111e-14,8.324021395e-14,4.524531666e-14,2.371262907e-14,2.557899419e-14,9.885480399e-15,4.176470397e-15,1.734053646e-14,2.854600695e-14,2.265733986e-15,6.732356541e-15,1.263851306e-14,6.709940451e-14,2.324858245e-14,2.26419598e-14,2.151945113e-14,7.750617442e-14,2.6507521e-14,1.308144929e-14,7.38243931e-14,8.848935749e-16,1.078249235e-14,5.093783012e-14,1.065586235e-13,4.511635677e-14,2.011043511e-14,1.362692523e-14,4.339030724e-15,1.891354676e-14,7.169603893e-15,1.802225348e-14,1.346418978e-14
1.1640625,5.820411947e-14,9.551423131e-14,3.237115937e-14,2.46425109e-14,2.819242161e-14,1.014864131e-14,2.930407742e-15,1.474425034e-14,2.766993435e-14,1.828157277e-15,7.456679277e-15,1.402501319e-14,8.010536648e-14,2.643267799e-14,3.102490325e-14,2.348670998e-14,6.286732792e-14,2.824925138e-14,1.950735304e-14,7.305993522e-14,9.244599062e-16,9.746516551e-15,4.43199132e-14,1.357474842e-13,4.21252546e-14,2.434011008e-14,1.265599347e-14,3.918359484e-15,1.463335589e-14,7.852225816e-15,2.29691319e-14,8.735915765e-15
1.171875,6.988411159e-14,1.047856071e-13,2.227941458e-14,2.489636408e-14,3.096295853e-14,1.078179956e-14,2.19585457e-15,1.278173742e-14,2.495687496e-14,1.598769725e-15,8.372467883e-15,1.444249038e-14,8.865708175e-14,3.025348728e-14,3.979839002e-14,2.66092705e-14,5.176189991e-14,3.327467008e-14,2.621482579e-14,7.536882741e-14,9.362700404e-16,8.303015596e-15,3.76990179e-14,1.600615518e-13,3.915975186e-14,2.871860566e-14,1.215235992e-14,4.202023823e-15,1.110760807e-14,8.946602997e-15,2.756192929e-14,5.324117533e-15
1.1796875,7.84859523e-14,1.086725578e-13,1.530919105e-14,2.387240591e-14,3.298803558e-14,1.141071833e-14,1.773260378e-15,1.168148766e-14,2.089726826e-14,1.606415801e-15,1.005796738e-14,1.370177341e-14,9.121123225e-14,3.257005679e-14,4.783400766e-14,3.023391291e-14,4.464986295e-14,4.004796995e-14,3.235102748e-14,8.10248776e-14,9.765548383e-16,6.739556381e-15,3.161177476e-14,1.786459615e-13,3.614992073e-14,3.245690189e-14,1.330517864e-14,5.062576708e-15,8.670849562e-15,1.039554029e-14,3.092448208e-14,3.845184025e-15
1.1875,8.200932543e-14,1.057064346e-13,1.076669499e-14,2.199112222e-14,3.410925357e-14,1.230289619e-14,1.663935515e-15,1.122603694e-14,1.634492787e-14,1.736902668e-15,1.218945946e-14,1.203010728e-14,8.699987944e-14,3.209884719e-14,5.349838375e-14,3.35950555e-14,3.914325779e-14,4.522295289e-14,3.602378686e-14,8.867944562e-14,1.190498898e-15,5.348180744e-15,2.651001217e-14,1.87469351e-13,3.285831556e-14,3.478687193e-14,1.49590265e-14,6.108695561e-15,6.768371787e-15,1.15889914e-14,3.192626811e-14,4.801578156e-15
1.1953125,7.962637089e-14,9.654015047e-14,8.776218394e-15,1.984241858e-14,3.426532484e-14,1.344246433e-14,1.796502763e-15,1.115679183e-14,1.18992186e-14,2.112217073e-15,1.461044537e-14,9.713564543e-15,7.663377008e-14,2.904258146e-14,5.583392945e-14,3.672567077e-14,3.588885394e-14,4.737492219e-14,3.671963436e-14,9.647930206e-14,1.646843994e-15,4.342615358e-15,2.220093319e-14,1.851364958e-13,2.895270908e-14,3.590988505e-14,1.757639967e-14,7.387431699e-15,5.401416247e-15,1.232773742e-14,3.072003976e-14,8.560533969e-15
1.203125,7.250927472e-14,8.270655177e-14,8.176981555e-15,1.860779165e-14,3.406547651e-14,1.585179262e-14,2.261577608e-15,1.179009601e-14,8.612728049e-15,2.362590394e-15,1.715107272e-14,7.354776259e-15,6.236309443e-14,2.44139382e-14,5.500284225e-14,4.058677636e-14,3.506070328e-14,4.642782789e-14,3.488506937e-14,1.035369706e-13,2.545398939e-15,3.807518007e-15,1.889497971e-14,1.713226962e-13,2.515779624e-14,3.625215936e-14,1.986081601e-14,8.230589979e-15,4.42673522e-15,1.208340763e-14,2.80027603e-14,1.579098958e-14
1.2109375,6.501567212e-14,6.696685427e-14,8.76125765e-15,1.941204353e-14,3.396192096e-14,1.900690793e-14,3.433023039e-15,1.253466203e-14,7.775676316e-15,2.626294543e-15,1.977726204e-14,6.185555861e-15,4.964337214e-14,2.0692797e-14,5.198557903e-14,4.589065813e-14,3.635373748e-14,4.423772962e-14,3.17627423e-14,1.077702593e-13,3.881762367e-15,3.924968769e-15,1.66944993e-14,1.499971294e-13,2.265966799e-14,3.589029099e-14,2.157984964e-14,9.730215449e-15,4.114156778e-15,1.10716138e-14,2.451100416e-14,2.669676988e-14
1.21875,6.036620136e-14,5.055591049e-14,1.120113757e-14,2.193004066e-14,3.393738859e-14,2.328652317e-14,5.141354786e-15,1.283452731e-14,8.876557056e-15,3.073223131e-15,2.182421871e-14,6.209592877e-15,4.017118149e-14,1.849081067e-14,4.762370539e-14,5.30811816e-14,4.038069567e-14,4.208602688e-14,2.797852421e-14,1.070850922e-13,5.670805328e-15,4.647361916e-15,1.547901342e-14,1.28247728e-13,2.072881109e-14,3.541135012e-14,2.208667875e-14,1.175503189e-14,4.281637281e-15,9.936166811e-15,2.06282328e-14,4.083093297e-14
1.2265625,6.042049983e-14,3.654338978e-14,1.531155573e-14,2.66406426e-14,3.482176449e-14,2.785287711e-14,7.496806585e-15,1.290759835e-14,1.186147401e-14,3.668438581e-15,2.421956021e-14,7.711068543e-15,3.589850217e-14,1.904766262e-14,4.330727476e-14,6.271463396e-14,4.961572529e-14,4.303289939e-14,2.545378425e-14,1.03076459e-13,7.75584332e-15,6.023679556e-15,1.461513113e-14,1.074875203e-13,1.961482294e-14,3.567034851e-14,2.218672273e-14,1.422259709e-14,5.350220724e-15,9.127162162e-15,1.798196486e-14,5.637274895e-14
1.234375,6.82528107e-14,2.60785143e-14,2.121720858e-14,3.260900073e-14,3.65620778e-14,3.214817608e-14,1.074343906e-14,1.30722096e-14,1.716166067e-14,4.663174737e-15,2.637003379e-14,1.07335516e-14,3.867447781e-14,2.265581309e-14,3.993490036e-14,7.499588479e-14,6.39805797e-14,4.747823839e-14,2.48415647e-14,9.822710042e-14,1.014548774e-14,8.273519598e-15,1.427217436e-14,9.206313866e-14,1.990042257e-14,3.655608528e-14,2.178020867e-14,1.714818474e-14,6.806874902e-15,9.108116664e-15,1.653350048e-14,7.297659826e-14
1.2421875,8.339178575e-14,1.900040636e-14,2.799942245e-14,3.889491304e-14,3.846345562e-14,3.515106497e-14,1.428851682e-14,1.294545701e-14,2.385087435e-14,5.947632727e-15,2.812567215e-14,1.479416839e-14,4.786875561e-14,2.814276497e-14,3.71374188e-14,8.755990224e-14,8.258858148e-14,5.548850807e-14,2.61966204e-14,9.30335852e-14,1.281409263e-14,1.127450273e-14,1.357626063e-14,8.476475682e-14,2.152414411e-14,3.790833961e-14,2.108124874e-14,2.036498334e-14,8.313294401e-15,1.004527522e-14,1.590128795e-14,8.912352049e-14
1.25,1.030040385e-13,1.544905925e-14,3.414469417e-14,4.440075266e-14,3.981440001e-14,3.600069279e-14,1.765401989e-14,1.229513631e-14,3.094536623e-14,7.728895782e-15,2.960740197e-14,1.89853576e-14,6.026965133e-14,3.337408292e-14,3.498077285e-14,9.849152393e-14,1.032153746e-13,6.477015707e-14,2.875298872e-14,8.9490967e-14,1.517916864e-14,1.492830567e-14,1.357091785e-14,8.337246219e-14,2.254839638e-14,3.906151769e-14,2.015086464e-14,2.313619258e-14,9.410916701e-15,1.182749747e-14,1.580926442e-14,1.020974202e-13
1.2578125,1.229660961e-13,1.37837333e-14,3.834530012e-14,4.695993301e-14,3.919932526e-14,3.409075819e-14,2.075703248e-14,1.117731878e-14,3.782052337e-14,9.786404043e-15,3.015034996e-14,2.265953558e-14,7.376437988e-14,3.720938019e-14,3.283760537e-14,1.046913582e-13,1.202915494e-13,7.321089786e-14,3.134764324e-14,8.758076752e-14,1.699907768e-14,1.932972677e-14,1.376875721e-14,8.605380331e-14,2.307121976e-14,3.935619204e-14,1.962318295e-14,2.468027676e-14,9.813145143e-15,1.382768241e-14,1.529829938e-14,1.100302688e-13
1.265625,1.388958134e-13,1.26282149e-14,4.002883087e-14,4.582066988e-14,3.657598528e-14,2.974075728e-14,2.334297416e-14,9.673748363e-15,4.390819715e-14,1.143951507e-14,2.931517588e-14,2.549787104e-14,8.52824961e-14,3.828146457e-14,3.044912999e-14,1.052910049e-13,1.32118877e-13,7.831944228e-14,3.292890874e-14,8.934793688e-14,1.841053976e-14,2.37649776e-14,1.358541195e-14,8.880142752e-14,2.296810741e-14,3.894555802e-14,1.861578635e-14,2.453363141e-14,9.475566781e-15,1.528958842e-14,1.410375501e-14,1.128213323e-13
1.2734375,1.478910172e-13,1.204959221e-14,3.952714007e-14,4.256763813e-14,3.258278777e-14,2.446558282e-14,2.532676317e-14,8.118522128e-15,4.885850112e-14,1.262159192e-14,2.698131884e-14,2.763888402e-14,9.243414946e-14,3.684363312e-14,2.909379084e-14,1.007673193e-13,1.379919992e-13,7.967552798e-14,3.335129082e-14,9.311757699e-14,1.925032572e-14,2.779731788e-14,1.333523223e-14,8.925742109e-14,2.182077306e-14,3.821262935e-14,1.686145923e-14,2.318203201e-14,9.208220031e-15,1.581190172e-14,1.312950229e-14,1.105836335e-13
1.28125,1.474587638e-13,1.187562943e-14,3.714088328e-14,3.753132569e-14,2.749310485e-14,1.932105863e-14,2.653642291e-14,6.665015174e-15,5.263899967e-14,1.323455194e-14,2.348082169e-14,2.935262042e-14,9.439995881e-14,3.343139253e-14,2.964419114e-14,9.214016319e-14,1.390346165e-13,7.745595077e-14,3.247563072e-14,9.909014846e-14,1.947215069e-14,3.097546905e-14,1.310794308e-14,8.536853574e-14,1.923928559e-14,3.745944675e-14,1.577535914e-14,2.150358765e-14,9.500339855e-15,1.50081e-14,1.330359545e-14,1.038443105e-13
1.2890625,1.383752344e-13,1.28580853e-14,3.38009198e-14,3.135777169e-14,2.204252731e-14,1.561508475e-14,2.631507004e-14,5.460060952e-15,5.459260989e-14,1.302572475e-14,1.939007672e-14,3.125053741e-14,9.092192661e-14,2.910173605e-14,3.448434077e-14,8.161815093e-14,1.334973884e-13,7.416243534e-14,3.198986574e-14,1.042145952e-13,1.889687137e-14,3.24022422e-14,1.234091751e-14,7.697863107e-14,1.600599103e-14,3.701831057e-14,1.570757062e-14,2.049111397e-14,1.147984326e-14,1.315269395e-14,1.548261659e-14,9.24562198e-14
1.296875,1.253507161e-13,1.576825371e-14,3.186034627e-14,2.494823859e-14,1.748131214e-14,1.442644156e-14,2.51408992e-14,4.775011301e-15,5.512989189e-14,1.222456714e-14,1.57596281e-14,3.369295378e-14,8.395235519e-14,2.48606832e-14,4.426222531e-14,7.350391269e-14,1.264058618e-13,7.109473203e-14,3.254798142e-14,1.080504563e-13,1.769036619e-14,3.239938444e-14,1.107957924e-14,6.84453959e-14,1.282235865e-14,3.637366704e-14,1.724094645e-14,2.154694449e-14,1.499999783e-14,1.119815426e-14,1.975518668e-14,7.888073748e-14
1.3046875,1.101503212e-13,2.084600438e-14,3.223749469e-14,1.88752161e-14,1.47561555e-14,1.561498172e-14,2.336876074e-14,4.699936212e-15,5.476025599e-14,1.094960587e-14,1.345333655e-14,3.703284391e-14,7.498890656e-14,2.144418263e-14,5.885105012e-14,6.937395522e-14,1.219847575e-13,6.918092392e-14,3.421301165e-14,1.104702519e-13,1.597045534e-14,3.08983718e-14,9.516092082e-15,6.09062431e-14,9.87540462e-15,3.625948154e-14,2.095530358e-14,2.466514615e-14,1.988451262e-14,9.52192793e-15,2.66521556e-14,6.503088732e-14
1.3125,9.398540869e-14,2.817667238e-14,3.4811868e-14,1.35735927e-14,1.460299712e-14,1.911028127e-14,2.081452198e-14,5.170583793e-15,5.274748155e-14,9.54124374e-15,1.21960105e-14,4.022849374e-14,6.398578492e-14,1.837754029e-14,7.691067821e-14,7.007426373e-14,1.197706924e-13,6.871820759e-14,3.677060185e-14,1.107853461e-13,1.398036946e-14,2.737837857e-14,7.58158437e-15,5.535484884e-14,7.105937293e-15,3.61737735e-14,2.629609443e-14,2.950191266e-14,2.558573827e-14,8.360881039e-15,3.499058039e-14,5.113510224e-14
1.3203125,8.187809328e-14,3.660947065e-14,3.919164629e-14,9.328784216e-15,1.701273687e-14,2.36304077e-14,1.770323654e-14,5.953687118e-15,4.859042911e-14,8.771397414e-15,1.21459952e-14,4.221329164e-14,5.190700395e-14,1.554580603e-14,9.509245597e-14,7.570266092e-14,1.195394265e-13,6.974169372e-14,4.014604413e-14,1.091277316e-13,1.178755971e-14,2.258418254e-14,5.706504341e-15,5.29309802e-14,5.075969839e-15,3.520873818e-14,3.290102355e-14,3.52250113e-14,3.072134072e-14,8.367024174e-15,4.2664683e-14,3.767826673e-14
1.328125,7.268376591e-14,4.368066212e-14,4.288502018e-14,6.264828773e-15,2.103959924e-14,2.784397236e-14,1.487658549e-14,6.94575081e-15,4.287765379e-14,8.123928771e-15,1.233296595e-14,4.18766336e-14,4.029058521e-14,1.259823368e-14,1.090677723e-13,8.304363534e-14,1.205884396e-13,6.872388189e-14,4.17175278e-14,1.047420828e-13,9.605759488e-15,1.779636811e-14,4.179974789e-15,5.279469514e-14,3.694671076e-15,3.32867453e-14,3.834120766e-14,3.916613162e-14,3.375065581e-14,8.881654961e-15,4.794961921e-14,2.629030029e-14
1.3359375,6.35902393e-14,4.906725943e-14,4.528905303e-14,4.368313982e-15,2.668945845e-14,3.126404295e-14,1.290809574e-14,8.453641788e-15,3.696481257e-14,7.523922503e-15,1.203771138e-14,4.005836193e-14,2.999898211e-14,9.892014983e-15,1.172680774e-13,9.070151508e-14,1.244970364e-13,6.54946195e-14,4.10038921e-14,1.022935821e-13,7.887127346e-15,1.357546337e-14,2.935904624e-15,5.10398833e-14,2.782400674e-15,3.170420182e-14,4.292565172e-14,4.066208549e-14,3.474477171e-14,9.857058001e-15,5.151529486e-14,1.787617576e-14
1.34375,5.545116937e-14,5.200985882e-14,4.58856295e-14,3.773408102e-15,3.300310374e-14,3.343867598e-14,1.163320625e-14,9.754916858e-15,3.05083276e-14,7.194708194e-15,1.131750664e-14,3.635404223e-14,2.110962716e-14,7.407739695e-15,1.173145626e-13,9.550275507e-14,1.25853324e-13,5.982533155e-14,3.806905386e-14,1.008028412e-13,6.612533665e-15,9.786406532e-15,2.090730722e-15,4.856399289e-14,2.13915304e-15,2.939246796e-14,4.556667412e-14,3.966272923e-14,3.403290729e-14,1.093180479e-14,5.191505861e-14,1.162343366e-14
1.3515625,4.79203051e-14,5.170426324e-14,4.375866881e-14,4.737224701e-15,3.835935923e-14,3.433219587e-14,1.104088316e-14,1.060453069e-14,2.397633928e-14,6.708883694e-15,1.00255665e-14,3.084420561e-14,1.362987789e-14,5.273919807e-15,1.094262575e-13,9.632396237e-14,1.239469525e-13,5.162347748e-14,3.310246409e-14,9.963300376e-14,5.850487966e-15,6.733286658e-15,1.618665416e-15,4.589363145e-14,1.746810004e-15,2.67849435e-14,4.505298086e-14,3.599858224e-14,3.148673848e-14,1.165885346e-14,4.851998017e-14,7.641764507e-15
1.359375,3.972430943e-14,4.861574509e-14,3.840479806e-14,7.236525928e-15,4.252806852e-14,3.456239212e-14,1.118406541e-14,1.075455404e-14,1.779435189e-14,6.058790084e-15,8.302537996e-15,2.464087675e-14,7.892334761e-15,3.726969204e-15,9.538157462e-14,9.252230327e-14,1.210746893e-13,4.170879235e-14,2.662397108e-14,1.002756101e-13,5.562646919e-15,5.093586797e-15,1.456182802e-15,4.278462135e-14,1.606553394e-15,2.501837268e-14,4.305959034e-14,3.036199085e-14,2.743955218e-14,1.193515168e-14,4.30736065e-14,5.768674887e-15
1.3671875,3.128866261e-14,4.373721584e-14,3.169542054e-14,1.105373733e-14,4.555325515e-14,3.463392973e-14,1.201958121e-14,1.035623449e-14,1.272871909e-14,5.283325228e-15,6.766833842e-15,1.889979481e-14,4.182338937e-15,3.119931418e-15,7.830638711e-14,8.458781844e-14,1.151648249e-13,3.155134544e-14,2.002274765e-14,1.017774121e-13,5.771907297e-15,5.164202282e-15,1.500939483e-15,4.1541629e-14,1.692037668e-15,2.412108973e-14,3.966354869e-14,2.387203153e-14,2.296331928e-14,1.188673205e-14,3.698319693e-14,5.86558956e-15
1.375,2.43077061e-14,3.828976824e-14,2.516854606e-14,1.555740942e-14,4.63893124e-14,3.48948781e-14,1.277580936e-14,9.783569013e-15,9.147906315e-15,4.497484258e-15,5.762706443e-15,1.436633849e-14,2.144286784e-15,2.907563829e-15,6.076480054e-14,7.358400027e-14,1.050006611e-13,2.253737934e-14,1.430190038e-14,1.003785836e-13,6.186961991e-15,6.26272806e-15,1.622025445e-15,4.42212391e-14,2.061920469e-15,2.339667213e-14,3.507672364e-14,1.832031824e-14,1.88453552e-14,1.156315891e-14,3.030376082e-14,7.099869788e-15
1.3828125,1.94983042e-14,3.32787712e-14,1.981624874e-14,2.010375578e-14,4.462359506e-14,3.573731998e-14,1.30864959e-14,8.887708393e-15,6.917031946e-15,4.05696373e-15,5.134530128e-15,1.187588004e-14,1.612234358e-15,3.100587153e-15,4.566194241e-14,6.112289871e-14,9.121006582e-14,1.496966747e-14,1.00206068e-14,9.476453546e-14,6.570200763e-15,8.130650866e-15,1.742913254e-15,4.995494023e-14,2.752711661e-15,2.283965286e-14,3.051586503e-14,1.490880129e-14,1.530786343e-14,1.112358932e-14,2.40051258e-14,8.583238546e-15
1.390625,1.682663705e-14,2.866909215e-14,1.571071099e-14,2.312518588e-14,4.135899861e-14,3.681533761e-14,1.264486752e-14,7.807181238e-15,5.621781952e-15,3.955926975e-15,4.894411541e-15,1.132524143e-14,2.364339182e-15,3.336853009e-15,3.440158242e-14,4.91685256e-14,7.73571862e-14,9.510519608e-15,7.344955348e-15,8.60339466e-14,6.715611192e-15,1.025968118e-14,1.901804444e-15,5.604865117e-14,3.74853693e-15,2.274350361e-14,2.726162262e-14,1.357849234e-14,1.227786723e-14,1.018091703e-14,1.881269298e-14,9.90190085e-15
1.3984375,1.582214503e-14,2.504092181e-14,1.354717239e-14,2.449875917e-14,3.748910296e-14,3.793202444e-14,1.170568464e-14,7.193699908e-15,5.805180959e-15,4.351680085e-15,5.115811014e-15,1.374604404e-14,4.785791606e-15,3.93778377e-15,2.763172227e-14,3.881116066e-14,6.397698045e-14,5.796556506e-15,5.90539327e-15,7.512130983e-14,6.714012322e-15,1.186375062e-14,2.15938549e-15,6.243041938e-14,4.924524188e-15,2.27941197e-14,2.561434696e-14,1.527518015e-14,9.842765272e-15,9.002935705e-15,1.523401653e-14,1.100352964e-14
1.40625,1.606979425e-14,2.225492599e-14,1.351913531e-14,2.412405007e-14,3.295063314e-14,3.82916124e-14,1.035171297e-14,7.294522817e-15,7.204920307e-15,5.12093592e-15,5.393647423e-15,1.884347738e-14,8.818207018e-15,5.05254201e-15,2.502748277e-14,3.015268116e-14,5.189799211e-14,3.720374302e-15,5.464397036e-15,6.295803127e-14,6.539816323e-15,1.245210232e-14,2.395721489e-15,6.576810252e-14,6.13296513e-15,2.20215789e-14,2.527307523e-14,1.965293455e-14,7.936545626e-15,7.807795614e-15,1.270563398e-14,1.116300927e-14
1.4140625,1.587434973e-14,2.001042146e-14,1.535876951e-14,2.255339563e-14,2.767012397e-14,3.802971705e-14,8.976076987e-15,8.34349371e-15,1.022875357e-14,6.047780999e-15,5.649856899e-15,2.716298374e-14,1.520627721e-14,7.514299594e-15,2.572022229e-14,2.338550692e-14,4.219615272e-14,2.631474819e-15,5.285176508e-15,5.079684991e-14,6.371777127e-15,1.202937449e-14,2.701898798e-15,6.498757354e-14,7.234867698e-15,2.051434991e-14,2.627709853e-14,2.681821631e-14,6.485695169e-15,6.851388965e-15,1.076951075e-14,1.032374481e-14
1.421875,1.524105544e-14,1.779381422e-14,1.836968962e-14,1.99219028e-14,2.218840102e-14,3.661349736e-14,7.960285083e-15,1.034784688e-14,1.468160057e-14,7.01559469e-15,5.948109626e-15,3.765930938e-14,2.304988945e-14,1.117231809e-14,2.875909797e-14,1.851766339e-14,3.639799965e-14,2.29894636e-15,5.636198737e-15,4.054203829e-14,6.304347484e-15,1.12658855e-14,3.045902554e-15,6.12839982e-14,7.849382912e-15,1.83971293e-14,2.817934804e-14,3.621455841e-14,5.344600476e-15,6.344998658e-15,9.271247261e-15,8.874021583e-15
1.4296875,1.426752003e-14,1.525483742e-14,2.2270899e-14,1.631599184e-14,1.763267661e-14,3.3722678e-14,8.015643745e-15,1.301776042e-14,1.998179565e-14,7.605243547e-15,6.182955186e-15,4.899817328e-14,3.142465729e-14,1.558161888e-14,3.277301722e-14,1.533969163e-14,3.470340838e-14,2.445830804e-15,6.234133351e-15,3.450937466e-14,6.874973177e-15,1.083861537e-14,3.268510831e-15,5.748836925e-14,7.809117783e-15,1.592342104e-14,3.006570604e-14,4.684793811e-14,4.656573724e-15,6.602125085e-15,8.106814536e-15,7.916224689e-15
1.4375,1.266549036e-14,1.282693165e-14,2.597372151e-14,1.305271078e-14,1.397787446e-14,3.013868392e-14,8.990587643e-15,1.592915107e-14,2.543040549e-14,7.815052798e-15,6.302192376e-15,5.933273971e-14,3.90266824e-14,1.983158972e-14,3.638305983e-14,1.292622251e-14,3.59671443e-14,2.776745833e-15,6.892238762e-15,3.170267942e-14,8.174080089e-15,1.087917391e-14,3.414307071e-15,5.420176503e-14,7.234333381e-15,1.30283725e-14,3.081125329e-14,5.754107596e-14,4.446255677e-15,7.481633967e-15,7.040211183e-15,7.486710458e-15
1.4453125,1.048279772e-14,1.058162308e-14,2.868859797e-14,1.060803772e-14,1.149687529e-14,2.659191879e-14,1.113025732e-14,1.851238977e-14,3.033833726e-14,7.479485365e-15,6.166208815e-15,6.685468227e-14,4.510764909e-14,2.353682414e-14,3.914250983e-14,1.110612508e-14,3.929873621e-14,3.251953579e-15,7.615161861e-15,3.255105196e-14,1.037545656e-14,1.320968383e-14,3.455918157e-15,5.246627853e-14,6.344728401e-15,1.061167171e-14,2.981497341e-14,6.675914874e-14,4.927915993e-15,8.535680997e-15,6.308717613e-15,8.245707556e-15
1.453125,8.505393038e-15,8.458241448e-15,2.92682921e-14,9.29316096e-15,1.064876318e-14,2.256487181e-14,1.373563279e-14,2.01074201e-14,3.319143676e-14,6.655479873e-15,5.591238254e-15,6.936601852e-14,4.738745566e-14,2.510016241e-14,3.943060979e-14,9.465286276e-15,4.289531242e-14,3.94832564e-15,8.510768148e-15,3.548119018e-14,1.339076783e-14,1.821405807e-14,3.212489366e-15,5.379355849e-14,5.28461685e-15,9.074072102e-15,2.715445892e-14,7.234105698e-14,6.24407237e-15,9.300756139e-15,6.367167593e-15,1.022530667e-14
1.4609375,6.978710577e-15,7.013174946e-15,2.865833261e-14,9.372508257e-15,1.117107209e-14,1.927108902e-14,1.630342025e-14,2.030225932e-14,3.338429341e-14,5.750891369e-15,5.125734176e-15,6.663296528e-14,4.579446628e-14,2.433981742e-14,3.806145712e-14,8.300904905e-15,4.612439479e-14,4.867110776e-15,9.650417064e-15,3.807447893e-14,1.659714052e-14,2.783961979e-14,3.092502623e-15,5.597929508e-14,4.275841953e-15,8.59511602e-15,2.341535123e-14,7.404773056e-14,8.275424954e-15,9.54418235e-15,7.296154038e-15,1.293826661e-14
1.46875,6.169202292e-15,5.917116595e-15,2.629231944e-14,1.037518594e-14,1.30421994e-14,1.639245064e-14,1.853113612e-14,1.882842666e-14,3.090229866e-14,4.887170903e-15,4.954717054e-15,5.911187501e-14,4.0984267e-14,2.159141781e-14,3.452390675e-14,6.936914853e-15,4.884782805e-14,5.893735456e-15,1.097625531e-14,4.056209594e-14,1.980414007e-14,4.293448179e-14,3.027419897e-15,5.80725411e-14,3.562575929e-15,9.180425889e-15,1.925438031e-14,7.104092216e-14,1.090359235e-14,8.951049056e-15,9.315309816e-15,1.580871605e-14
1.4765625,5.964097465e-15,5.85546595e-15,2.223771485e-14,1.274582634e-14,1.610338364e-14,1.435593545e-14,1.935155738e-14,1.634131407e-14,2.630412439e-14,4.273012483e-15,5.251384272e-15,4.803344857e-14,3.448202338e-14,1.759250609e-14,2.987897181e-14,5.774310381e-15,4.992968637e-14,7.001392417e-15,1.229896496e-14,4.129522026e-14,2.242108739e-14,6.408180879e-14,3.008668871e-15,5.814024396e-14,3.322826724e-15,1.036559512e-14,1.594702604e-14,6.331236891e-14,1.39082557e-14,7.459585768e-15,1.238738471e-14,1.803574975e-14
1.484375,6.755839314e-15,6.412448884e-15,1.801517928e-14,1.557709021e-14,1.941542545e-14,1.296438084e-14,1.892076838e-14,1.348363191e-14,2.087265773e-14,4.241758813e-15,5.85883561e-15,3.600797243e-14,2.724132748e-14,1.331948439e-14,2.423326713e-14,4.897277434e-15,4.875006791e-14,7.869503309e-15,1.335921903e-14,4.029649365e-14,2.379632393e-14,9.118180952e-14,3.410210716e-15,5.566666414e-14,3.506281729e-15,1.154665859e-14,1.400061274e-14,5.300925052e-14,1.617313121e-14,5.696735623e-15,1.546275505e-14,1.948614665e-14
1.4921875,8.519143639e-15,7.587886293e-15,1.427349127e-14,1.852879248e-14,2.254654363e-14,1.288681625e-14,1.743048852e-14,1.039917602e-14,1.524368372e-14,4.781031261e-15,6.803097505e-15,2.488975569e-14,2.037895656e-14,9.791153892e-15,1.940848964e-14,4.80367415e-15,4.660510565e-14,8.584299584e-15,1.420580038e-14,3.727376506e-14,2.365325777e-14,1.232674727e-13,4.122638882e-15,4.998493156e-14,4.137697881e-15,1.231160182e-14,1.409542752e-14,4.19927499e-14,1.766853914e-14,4.001608405e-15,1.834710308e-14,1.942804322e-14
1.5,1.11013871e-14,8.838759132e-15,1.058834343e-14,2.116149189e-14,2.494191573e-14,1.363591486e-14,1.498728534e-14,7.916570608e-15,1.04236266e-14,5.784788691e-15,7.605701319e-15,1.570261104e-14,1.514699544e-14,7.40581814e-15,1.578977719e-14,5.284091596e-15,4.364991952e-14,8.884597113e-15,1.453209551e-14,3.335623471e-14,2.21392044e-14,1.562440989e-13,5.024253555e-15,4.218802871e-14,5.109137101e-15,1.199188813e-14,1.540574116e-14,3.109645762e-14,1.801580166e-14,2.619600019e-15,1.983435923e-14,1.806366411e-14
1.5078125,1.409767208e-14,9.966613394e-15,7.775734352e-15,2.302694232e-14,2.616892048e-14,1.512651781e-14,1.196855452e-14,6.545482698e-15,7.324426159e-15,7.036456229e-15,8.160534623e-15,9.258169423e-15,1.15036967e-14,6.250522605e-15,1.370811723e-14,6.995143404e-15,3.966548098e-14,9.001807425e-15,1.437185142e-14,2.895234749e-14,1.946840039e-14,1.84341142e-13,6.053735872e-15,3.348486588e-14,6.198857177e-15,1.070209224e-14,1.718879481e-14,2.231600955e-14,1.715658684e-14,1.797482925e-15,1.933852529e-14,1.598105467e-14
1.515625,1.774061856e-14,1.070063597e-14,6.639731502e-15,2.412464139e-14,2.64749118e-14,1.757941271e-14,9.615177321e-15,6.564111049e-15,6.130229086e-15,8.203813666e-15,8.374092136e-15,5.214831533e-15,9.211391953e-15,6.375548483e-15,1.367799907e-14,9.965792868e-15,3.472862531e-14,8.970243912e-15,1.353348965e-14,2.511254088e-14,1.606174217e-14,2.044033028e-13,7.152809451e-15,2.550710282e-14,7.043248268e-15,8.782088095e-15,1.835742518e-14,1.592634524e-14,1.561581566e-14,1.629076307e-15,1.754846233e-14,1.402758397e-14
1.5234375,2.080543475e-14,1.118347448e-14,7.026984569e-15,2.401367255e-14,2.551390027e-14,2.045408276e-14,8.087942446e-15,8.490970278e-15,7.335906525e-15,9.131965087e-15,8.460827842e-15,3.554207365e-15,8.10006921e-15,6.712740315e-15,1.492310814e-14,1.360310485e-14,2.962388208e-14,8.708919425e-15,1.212438623e-14,2.193369494e-14,1.245403774e-14,2.12449713e-13,8.066992751e-15,1.903148502e-14,7.785737529e-15,6.548601814e-15,1.84948995e-14,1.220863286e-14,1.416714768e-14,2.158217541e-15,1.49494896e-14,1.273659724e-14
1.53125,2.257762179e-14,1.143354283e-14,8.372488608e-15,2.24388179e-14,2.357488491e-14,2.362162518e-14,7.392986124e-15,1.241210597e-14,1.051872036e-14,9.744675677e-15,9.340470873e-15,3.739476137e-15,7.59719816e-15,7.056010666e-15,1.723412649e-14,1.775712304e-14,2.582050106e-14,8.267528153e-15,1.025334136e-14,1.942157809e-14,9.011299563e-15,2.063967839e-13,8.653708565e-15,1.423920842e-14,8.227757548e-15,4.222608103e-15,1.690736203e-14,1.104798289e-14,1.337542635e-14,3.304698249e-15,1.143329179e-14,1.234286364e-14
1.5390625,2.278900185e-14,1.215833759e-14,1.090803274e-14,1.985939186e-14,2.090370929e-14,2.687254469e-14,7.345026574e-15,1.891352171e-14,1.57135609e-14,9.824589818e-15,1.08834763e-14,5.207107716e-15,7.124457387e-15,6.668495111e-15,1.943624501e-14,2.192890352e-14,2.42327217e-14,8.266368365e-15,8.342841816e-15,1.799706955e-14,5.988358424e-15,1.851641055e-13,9.161111875e-15,1.172193882e-14,8.019729627e-15,2.622149881e-15,1.355686278e-14,1.166858223e-14,1.410528585e-14,5.066760104e-15,7.909343879e-15,1.344134373e-14
1.546875,2.152893703e-14,1.425866814e-14,1.473258876e-14,1.767611413e-14,1.904418145e-14,3.134914805e-14,7.941327138e-15,2.799033448e-14,2.225065676e-14,9.506543584e-15,1.373215816e-14,8.203123002e-15,6.630328477e-15,6.306985851e-15,2.191943513e-14,2.573278077e-14,2.500759762e-14,8.947287942e-15,6.851377725e-15,1.773039259e-14,3.804744962e-15,1.551949633e-13,9.484362699e-15,1.177307924e-14,7.355887046e-15,2.226265877e-15,1.04812359e-14,1.418278201e-14,1.644111862e-14,7.452997102e-15,5.708354807e-15,1.67139965e-14
1.5546875,1.879835564e-14,1.758849882e-14,1.873774931e-14,1.653173727e-14,1.864389474e-14,3.70009662e-14,8.570760236e-15,3.906704484e-14,2.903035818e-14,8.864401538e-15,1.758274535e-14,1.16603731e-14,5.99240874e-15,6.196181945e-15,2.403138656e-14,2.906971165e-14,2.917736852e-14,9.726348282e-15,5.709235434e-15,1.843207453e-14,2.342272052e-15,1.202700848e-13,9.63975559e-15,1.399047059e-14,6.601761997e-15,2.882809318e-15,7.76302245e-15,1.731931714e-14,1.954642119e-14,1.005366653e-14,4.534882818e-15,2.184949075e-14
1.5625,1.530529451e-14,2.225373876e-14,2.236509175e-14,1.648567456e-14,1.959294453e-14,4.324343827e-14,8.744384734e-15,5.146384306e-14,3.503751386e-14,8.03535026e-15,2.156064926e-14,1.505653179e-14,5.508937644e-15,6.76230665e-15,2.476212126e-14,3.078414763e-14,3.605047649e-14,1.065578015e-14,5.106247605e-15,1.886985148e-14,1.51619248e-15,8.585147449e-14,9.748136973e-15,1.847451644e-14,5.674076673e-15,4.792878053e-15,5.674846556e-15,2.084588233e-14,2.303685324e-14,1.243279641e-14,4.307409198e-15,2.810118361e-14
1.5703125,1.188505029e-14,2.805304109e-14,2.498595367e-14,1.824675705e-14,2.213156151e-14,5.048540125e-14,8.785564822e-15,6.423779955e-14,3.94745968e-14,7.175207107e-15,2.514646378e-14,1.809047127e-14,5.320038223e-15,8.49400152e-15,2.50834687e-14,3.26771822e-14,4.733126945e-14,1.245783091e-14,5.264255206e-15,1.880680105e-14,1.307672005e-15,5.729375273e-14,1.003585532e-14,2.496843633e-14,4.885024985e-15,8.362646917e-15,4.654457301e-15,2.397641115e-14,2.621052315e-14,1.447256338e-14,5.235798229e-15,3.50248399e-14
1.578125,8.551389723e-15,3.36214274e-14,2.670668532e-14,2.22254978e-14,2.641651311e-14,5.829511875e-14,8.249890987e-15,7.560891027e-14,4.145609166e-14,6.268399453e-15,2.759717707e-14,2.009257525e-14,5.703053401e-15,1.16496399e-14,2.517693466e-14,3.491290719e-14,6.144243321e-14,1.49630212e-14,6.02345045e-15,1.860983638e-14,1.616737391e-15,3.399952603e-14,1.058956057e-14,3.294114039e-14,4.306164675e-15,1.362337332e-14,4.800280534e-15,2.530778125e-14,2.795494502e-14,1.572185524e-14,7.021737707e-15,4.227262019e-14
1.5859375,5.782469488e-15,3.807272718e-14,2.670342245e-14,2.867547034e-14,3.222442424e-14,6.563764133e-14,7.149684243e-15,8.414002286e-14,4.060010834e-14,5.548666496e-15,2.923199379e-14,2.071324014e-14,7.228660882e-15,1.644267202e-14,2.476791613e-14,3.750632276e-14,7.665513599e-14,1.765404471e-14,7.189297221e-15,1.780066342e-14,2.32194536e-15,1.845163763e-14,1.161188908e-14,4.244604209e-14,4.104389856e-15,2.020031835e-14,5.475999263e-15,2.51552144e-14,2.764477836e-14,1.602638682e-14,9.233282059e-15,4.922575872e-14
1.59375,3.867130106e-15,4.008561003e-14,2.447507736e-14,3.66089166e-14,3.792954257e-14,7.181950722e-14,6.057131856e-15,8.741911221e-14,3.6565089e-14,5.370436223e-15,3.103464172e-14,1.997349827e-14,1.010813471e-14,2.190867678e-14,2.40436673e-14,4.090142397e-14,9.206303691e-14,2.056658851e-14,8.896253333e-15,1.608650496e-14,3.319230084e-15,1.242031239e-14,1.294092069e-14,5.122884463e-14,4.381686453e-15,2.754619254e-14,6.589416944e-15,2.374000258e-14,2.573886698e-14,1.526047207e-14,1.159065483e-14,5.43557598e-14
1.6015625,2.657824551e-15,3.934400153e-14,2.119583775e-14,4.458349103e-14,4.158042236e-14,7.483557691e-14,5.317564346e-15,8.45892867e-14,3.042974705e-14,6.446690429e-15,3.436055226e-14,1.895974734e-14,1.449313723e-14,2.677008692e-14,2.294652888e-14,4.540959217e-14,1.070411354e-13,2.351949161e-14,1.098718001e-14,1.393453016e-14,4.432176569e-15,1.576473998e-14,1.431971464e-14,5.839195169e-14,5.027988453e-15,3.504023182e-14,8.003837156e-15,2.075776396e-14,2.289024915e-14,1.45033592e-14,1.422375166e-14,5.585376945e-14
1.609375,2.373371419e-15,3.676572405e-14,1.86265507e-14,5.066815911e-14,4.305645744e-14,7.334583279e-14,4.890511752e-15,7.74477127e-14,2.412136315e-14,8.933598112e-15,4.108607685e-14,1.841332099e-14,1.934652034e-14,3.007746883e-14,2.130226281e-14,5.154487505e-14,1.219793722e-13,2.625948933e-14,1.359212048e-14,1.182520791e-14,5.734361638e-15,3.046487964e-14,1.572572876e-14,6.426344435e-14,6.085948477e-15,4.221032553e-14,9.203850419e-15,1.682429471e-14,2.001485234e-14,1.483468039e-14,1.732076271e-14,5.554746009e-14
1.6171875,3.022672532e-15,3.264403568e-14,1.667096236e-14,5.53354237e-14,4.298683083e-14,6.892683586e-14,5.103619807e-15,6.739498711e-14,1.865356591e-14,1.266898317e-14,5.269487928e-14,1.91916343e-14,2.449016457e-14,3.213551167e-14,1.953641327e-14,5.852199025e-14,1.347577916e-13,2.912868317e-14,1.692553683e-14,1.044613285e-14,7.04649408e-15,5.751591106e-14,1.686834363e-14,6.817609285e-14,7.634733217e-15,4.78497905e-14,1.000174149e-14,1.412688204e-14,1.738068734e-14,1.698730936e-14,2.06617684e-14,5.405209421e-14
1.625,4.645239768e-15,2.739195412e-14,1.580388085e-14,5.649629569e-14,3.988397445e-14,6.165790986e-14,6.450234172e-15,5.519979866e-14,1.447920742e-14,1.759698978e-14,6.832220172e-14,2.143693203e-14,2.844811242e-14,3.157801273e-14,1.74191701e-14,6.519717151e-14,1.454660808e-13,3.106639814e-14,2.036585403e-14,9.552468961e-15,8.046117834e-15,9.992906806e-14,1.725961561e-14,6.908930745e-14,9.595128398e-15,5.049221021e-14,1.035280284e-14,1.244134919e-14,1.534149996e-14,2.141970425e-14,2.335397843e-14,4.98674539e-14
1.6328125,7.3865456e-15,2.253043415e-14,1.737467557e-14,5.35166831e-14,3.485228182e-14,5.142447969e-14,9.011631786e-15,4.21377098e-14,1.157237859e-14,2.295988122e-14,8.768574527e-14,2.392626478e-14,2.996236544e-14,2.842508034e-14,1.479022769e-14,7.169930262e-14,1.555256643e-13,3.206041445e-14,2.380134574e-14,9.310125974e-15,8.827059271e-15,1.567376404e-13,1.660570994e-14,6.914859701e-14,1.151674038e-14,5.026748526e-14,1.086949122e-14,1.16079803e-14,1.40667078e-14,2.791045257e-14,2.542904694e-14,4.394647656e-14
1.640625,1.109279533e-14,1.854489874e-14,2.132131362e-14,4.820622724e-14,2.99964451e-14,3.995851517e-14,1.32997604e-14,3.156815728e-14,1.058324129e-14,2.781797946e-14,1.063288334e-13,2.565938929e-14,2.849073995e-14,2.434967547e-14,1.252624021e-14,7.87768699e-14,1.656581694e-13,3.217556633e-14,2.65874403e-14,1.018643837e-14,9.557348036e-15,2.201969605e-13,1.525035594e-14,6.824788004e-14,1.333567688e-14,4.770316281e-14,1.175831624e-14,1.178544786e-14,1.309937295e-14,3.53837863e-14,2.723473495e-14,3.861123578e-14
1.6484375,1.457694874e-14,1.558741992e-14,2.853917473e-14,4.243436641e-14,2.613597264e-14,2.932577736e-14,2.009096017e-14,2.392115603e-14,1.096315873e-14,3.122738824e-14,1.216002394e-13,2.594599299e-14,2.586115268e-14,2.193154716e-14,1.109177146e-14,8.517455495e-14,1.725786191e-13,3.201867177e-14,2.831731488e-14,1.08400426e-14,1.005829827e-14,2.833763915e-13,1.334310238e-14,6.42071731e-14,1.512223814e-14,4.309281858e-14,1.302884347e-14,1.294904185e-14,1.211776061e-14,4.258420085e-14,2.858615108e-14,3.368710688e-14
1.65625,1.814139869e-14,1.36352781e-14,3.814719295e-14,3.607920654e-14,2.371169277e-14,2.002623309e-14,2.871092038e-14,1.94469875e-14,1.322015198e-14,3.272546536e-14,1.323701333e-13,2.467813226e-14,2.388393851e-14,2.142185834e-14,1.010295832e-14,8.898897966e-14,1.760174866e-13,3.156639662e-14,2.855299594e-14,1.142022342e-14,1.033156831e-14,3.439419837e-13,1.10787869e-14,5.933414967e-14,1.653652418e-14,3.714627064e-14,1.489433892e-14,1.536173095e-14,1.09313363e-14,4.87534624e-14,2.888286725e-14,2.930615651e-14
1.6640625,2.088398272e-14,1.223664655e-14,4.946724799e-14,3.134037831e-14,2.298727699e-14,1.260560109e-14,3.894140253e-14,1.79929871e-14,1.765627702e-14,3.18946953e-14,1.345659985e-13,2.211454145e-14,2.345199082e-14,2.369346198e-14,9.589593364e-15,9.034768423e-14,1.759052721e-13,3.054502192e-14,2.725546641e-14,1.244449323e-14,1.070026901e-14,3.85051422e-13,8.86430965e-15,5.499744579e-14,1.717860135e-14,3.095677996e-14,1.718612491e-14,1.909202473e-14,9.30282117e-15,5.222703801e-14,2.810081049e-14,2.648710364e-14
1.671875,2.186226016e-14,1.158314409e-14,6.284444482e-14,2.967632009e-14,2.339034101e-14,7.4711119e-15,5.038880151e-14,1.840542743e-14,2.425077367e-14,2.901703747e-14,1.285265211e-13,1.935801234e-14,2.576847264e-14,3.010627818e-14,9.803481048e-15,8.962172692e-14,1.708732996e-13,2.887062547e-14,2.39333345e-14,1.367589484e-14,1.117321459e-14,3.941657222e-13,6.947938258e-15,5.094034842e-14,1.714346635e-14,2.498504204e-14,1.926829009e-14,2.42839696e-14,7.245753127e-15,5.24465523e-14,2.580697623e-14,2.584500657e-14
1.6796875,2.152622669e-14,1.162398025e-14,7.682834598e-14,3.223988012e-14,2.440510478e-14,4.910857967e-15,6.204236523e-14,1.952625785e-14,3.310759233e-14,2.471045336e-14,1.157335595e-13,1.827267496e-14,3.260617142e-14,4.170543281e-14,1.098334533e-14,8.665486403e-14,1.599939901e-13,2.880745419e-14,1.964771698e-14,1.525087337e-14,1.200394205e-14,3.766680941e-13,5.610202801e-15,4.856715614e-14,1.699898584e-14,2.02778396e-14,2.086858995e-14,3.010749579e-14,5.778159697e-15,4.998476153e-14,2.250561934e-14,2.802546428e-14
1.6875,2.154471373e-14,1.295260812e-14,9.050244257e-14,3.745351006e-14,2.535065008e-14,4.225686058e-15,7.287083121e-14,2.065259577e-14,4.398577806e-14,1.974493995e-14,9.744231927e-14,2.037550026e-14,4.32101684e-14,5.735570082e-14,1.242658496e-14,8.032275858e-14,1.426810082e-13,3.056487662e-14,1.539286281e-14,1.794332741e-14,1.294170493e-14,3.368196894e-13,4.783105424e-15,4.841670466e-14,1.700599387e-14,1.676408229e-14,2.136326081e-14,3.604145749e-14,5.464915182e-15,4.587984334e-14,1.898797769e-14,3.247864263e-14
1.6953125,2.226583305e-14,1.53608997e-14,1.048489644e-13,4.423689948e-14,2.575324778e-14,5.110069712e-15,8.226473168e-14,2.139517932e-14,5.566072527e-14,1.472979608e-14,7.559338088e-14,2.572024483e-14,5.535052076e-14,7.581766597e-14,1.405537252e-14,7.26822146e-14,1.225173242e-13,3.301293384e-14,1.132397502e-14,2.240931554e-14,1.374159656e-14,2.768634002e-13,4.177059184e-15,5.000738572e-14,1.746191026e-14,1.405989085e-14,2.078401505e-14,4.156450774e-14,5.965694787e-15,4.101474026e-14,1.534814645e-14,3.85296113e-14
1.703125,2.420588351e-14,1.916052858e-14,1.182129862e-13,5.298078592e-14,2.500229453e-14,7.451879112e-15,8.908516286e-14,2.07661037e-14,6.569780368e-14,1.056917412e-14,5.506601952e-14,3.421833441e-14,6.707372737e-14,9.625234766e-14,1.623373008e-14,6.620160225e-14,1.023412124e-13,3.711483351e-14,8.205373845e-15,2.8052533e-14,1.416356527e-14,2.11084472e-13,3.7213399e-15,5.154952645e-14,1.847735757e-14,1.20507561e-14,1.932508153e-14,4.555253783e-14,7.59497831e-15,3.679056812e-14,1.168358717e-14,4.477580669e-14
1.7109375,2.782395323e-14,2.447066712e-14,1.286182537e-13,6.24758507e-14,2.323183632e-14,1.056431514e-14,9.22969115e-14,1.881977907e-14,7.303418267e-14,7.209765861e-15,3.715171117e-14,4.356445919e-14,7.726752675e-14,1.16559564e-13,1.817245267e-14,6.129305682e-14,8.251470494e-14,4.346319622e-14,6.335052696e-15,3.303405924e-14,1.3878601e-14,1.515354101e-13,3.479366428e-15,5.128511025e-14,2.034192934e-14,1.016202749e-14,1.745335846e-14,4.607809288e-14,1.040747169e-14,3.331176291e-14,8.595976854e-15,4.992617485e-14
1.71875,3.309535324e-14,3.078293938e-14,1.36014361e-13,7.066774239e-14,2.134285136e-14,1.370342333e-14,9.223167696e-14,1.642498077e-14,7.709467975e-14,4.958339759e-15,2.284436877e-14,5.239077622e-14,8.420370678e-14,1.348547127e-13,1.956381375e-14,5.847448372e-14,6.649382437e-14,5.123782719e-14,5.983919201e-15,3.726862571e-14,1.293155795e-14,1.044502713e-13,3.940423165e-15,4.96666328e-14,2.316879396e-14,8.326938952e-15,1.553567878e-14,4.412830903e-14,1.392422415e-14,3.111620801e-14,6.762228068e-15,5.350702795e-14
1.7265625,3.818072064e-14,3.668318587e-14,1.397895465e-13,7.737456978e-14,2.022049768e-14,1.681030415e-14,8.875222599e-14,1.407719454e-14,7.667846308e-14,3.611792671e-15,1.272983358e-14,5.871415174e-14,8.575870684e-14,1.491211494e-13,2.05837291e-14,5.769600962e-14,5.442260173e-14,5.93602721e-14,7.065004853e-15,3.940364832e-14,1.127959788e-14,7.065709833e-14,5.296625246e-15,4.701934741e-14,2.651273546e-14,6.665607539e-15,1.353428892e-14,3.972485468e-14,1.738537743e-14,2.953398398e-14,6.466594116e-15,5.435054002e-14
1.734375,4.236602265e-14,4.155738743e-14,1.391189743e-13,8.278889308e-14,1.981056215e-14,1.957214401e-14,8.268157477e-14,1.194179463e-14,7.275747116e-14,2.792814214e-15,6.061702735e-15,6.131615451e-14,8.35589058e-14,1.583146038e-13,2.106225743e-14,5.880607516e-14,4.645651033e-14,6.712313678e-14,9.199215239e-15,3.90920973e-14,9.266637175e-15,5.049602731e-14,7.957069536e-15,4.5607491e-14,3.038930288e-14,5.303654314e-15,1.199819747e-14,3.397657017e-14,2.030723532e-14,2.817306035e-14,7.699056561e-15,5.245630764e-14
1.7421875,4.464164063e-14,4.422949174e-14,1.32917913e-13,8.534005667e-14,2.092967605e-14,2.125636353e-14,7.377587769e-14,1.055471417e-14,6.650389526e-14,2.233346014e-15,2.899618392e-15,5.927092392e-14,7.782390208e-14,1.604980969e-13,2.032200987e-14,6.042762307e-14,4.139975967e-14,7.236917511e-14,1.190679444e-14,3.700218125e-14,7.309411093e-15,3.982363985e-14,1.166777479e-14,4.785149079e-14,3.424647334e-14,4.549993995e-15,1.062772075e-14,2.769505476e-14,2.237169963e-14,2.644102861e-14,1.033051221e-14,4.922712068e-14
1.75,4.40807981e-14,4.3982848e-14,1.209009869e-13,8.491845618e-14,2.365224331e-14,2.180410357e-14,6.291088722e-14,1.082285988e-14,5.965817658e-14,1.833098663e-15,2.41514096e-15,5.313298309e-14,6.945029944e-14,1.546310141e-13,1.851028308e-14,6.145286181e-14,3.852089961e-14,7.440794252e-14,1.480990408e-14,3.395750634e-14,5.836560841e-15,3.305672566e-14,1.607309151e-14,5.66627587e-14,3.696315325e-14,4.428084391e-15,9.985414512e-15,2.257288806e-14,2.33183359e-14,2.375603499e-14,1.341689566e-14,4.610874806e-14
1.7578125,4.154362825e-14,4.15293078e-14,1.06954375e-13,8.253403633e-14,2.718946066e-14,2.164997375e-14,5.230064312e-14,1.20590539e-14,5.356836617e-14,1.531191809e-15,4.275962338e-15,4.583687426e-14,5.976511939e-14,1.436789983e-13,1.651124292e-14,6.072285026e-14,3.597517758e-14,7.320052881e-14,1.745615457e-14,3.079871946e-14,5.122256412e-15,2.874921508e-14,2.034457796e-14,7.134391672e-14,3.841343599e-14,4.962913648e-15,9.736378856e-15,1.922933894e-14,2.30184788e-14,2.071422774e-14,1.654827237e-14,4.317694107e-14
1.765625,3.788024324e-14,3.769809884e-14,9.07871808e-14,7.883161973e-14,3.13739469e-14,2.12732789e-14,4.182826094e-14,1.416602995e-14,4.916213854e-14,1.262375965e-15,8.141433546e-15,3.83731993e-14,5.002207197e-14,1.283806532e-13,1.424697909e-14,5.905523828e-14,3.420539049e-14,6.905801568e-14,1.975190411e-14,2.838527609e-14,5.1759028e-15,2.532045895e-14,2.372179044e-14,8.847909178e-14,3.844697669e-14,5.949517862e-15,1.078647357e-14,1.766701023e-14,2.18710841e-14,1.768919823e-14,1.960389706e-14,4.09421206e-14
1.7734375,3.394567353e-14,3.339793983e-14,7.288714406e-14,7.273197004e-14,3.435037012e-14,2.045962899e-14,3.184433383e-14,1.662337019e-14,4.662953244e-14,1.097049446e-15,1.393625266e-14,3.203436015e-14,4.097514903e-14,1.091500454e-13,1.164669181e-14,5.425422542e-14,3.08069009e-14,6.090805386e-14,2.135840175e-14,2.700241196e-14,5.993791437e-15,2.203182022e-14,2.5183469e-14,1.050846343e-13,3.634649e-14,7.074982343e-15,1.324839089e-14,1.851939396e-14,2.020201369e-14,1.487272806e-14,2.187104543e-14,3.940771847e-14
1.78125,2.967228952e-14,2.914549768e-14,5.574141275e-14,6.466695262e-14,3.577974005e-14,1.933343393e-14,2.333599063e-14,1.836902005e-14,4.471606534e-14,1.046831841e-15,2.159871882e-14,2.704749038e-14,3.245627526e-14,8.819319535e-14,9.264984964e-15,4.696846451e-14,2.682550231e-14,5.018218809e-14,2.193779183e-14,2.697666768e-14,7.233313024e-15,2.032045641e-14,2.465164566e-14,1.165124139e-13,3.243248879e-14,8.22059253e-15,1.743076202e-14,2.073888417e-14,1.850345998e-14,1.257871257e-14,2.317347934e-14,3.82957539e-14
1.7890625,2.575717347e-14,2.584658789e-14,4.118483575e-14,5.508672819e-14,3.513986026e-14,1.846722243e-14,1.671144644e-14,1.91381057e-14,4.376698167e-14,1.139647256e-15,3.012846984e-14,2.462228588e-14,2.496195645e-14,6.738870614e-14,7.689257372e-15,3.842652703e-14,2.333088296e-14,3.842559022e-14,2.113782195e-14,2.756115042e-14,8.548393372e-15,1.981262092e-14,2.234611155e-14,1.197788145e-13,2.727692337e-14,9.003341453e-15,2.271940431e-14,2.435530251e-14,1.680179933e-14,1.109685617e-14,2.343908762e-14,3.748610983e-14
1.796875,2.206339451e-14,2.361756574e-14,3.036713569e-14,4.502846285e-14,3.237135711e-14,1.815083278e-14,1.243996855e-14,1.897471966e-14,4.228785929e-14,1.525295187e-15,3.883835261e-14,2.47892349e-14,1.876616586e-14,5.005924082e-14,7.291213522e-15,3.055668724e-14,2.212816891e-14,2.834397342e-14,1.930772116e-14,2.8163226e-14,9.636729094e-15,2.427421503e-14,1.888949034e-14,1.14171152e-13,2.214410624e-14,9.4862908e-15,2.783437585e-14,2.850164858e-14,1.542846692e-14,1.074844654e-14,2.283835484e-14,3.623388556e-14
1.8046875,1.844793983e-14,2.218781838e-14,2.314963692e-14,3.550440379e-14,2.819457149e-14,1.855039432e-14,9.879768832e-15,1.727554493e-14,3.962426341e-14,1.898865319e-15,4.626064e-14,2.630623138e-14,1.414902433e-14,3.706731189e-14,7.799776743e-15,2.238748067e-14,2.211706633e-14,2.012173237e-14,1.678773063e-14,2.789829574e-14,1.026725843e-14,2.876634896e-14,1.530467036e-14,1.039523841e-13,1.74759383e-14,9.85581283e-15,3.251083757e-14,3.267007158e-14,1.45045134e-14,1.096982216e-14,2.210464138e-14,3.404841825e-14
