"Time","Fp1","AF3","F7","F3","FC1","FC5","T7","C3","CP1","CP5","P7","P3","Pz","PO3","O1","Oz","O2","PO4","P4","P8","CP6","CP2","C4","T8","FC6","FC2","F4","F8","AF4","Fp2","Fz","Cz"
0.0078125,4.400695747e-14,9.611581964e-14,1.830686006e-13,1.763230712e-13,2.105118505e-13,4.598679063e-14,7.027621545e-14,5.550193664e-14,4.316668763e-14,1.20840832e-14,1.846272377e-13,1.025802915e-13,1.903689417e-13,1.279120342e-13,3.567261233e-14,6.264606455e-14,7.418939826e-14,6.149112549e-14,1.488823889e-14,1.576353748e-13,3.409072366e-14,4.28185416e-14,2.376058562e-14,2.018425855e-13,6.21577486e-14,4.541281915e-14,4.861579874e-14,1.39989747e-13,3.23980888e-14,3.621558996e-14,6.206601381e-14,1.056425272e-14
0.015625,4.78122087e-14,1.024999851e-13,1.894792268e-13,1.830095262e-13,2.200604014e-13,4.805136752e-14,7.643771574e-14,5.705491379e-14,4.794123447e-14,1.281387697e-14,1.944815291e-13,1.110838443e-13,2.049765195e-13,1.399789879e-13,3.901135722e-14,6.868154152e-14,7.964280353e-14,6.963357639e-14,1.608017496e-14,1.637021094e-13,3.636167992e-14,4.61544494e-14,2.458676049e-14,2.103321709e-13,6.597815907e-14,4.978266386e-14,5.016250085e-14,1.493921747e-13,3.471874319e-14,3.799682094e-14,6.694202856e-14,1.111471606e-14
0.0234375,5.19137629e-14,1.092546078e-13,1.962506398e-13,1.897150338e-13,2.297618485e-13,5.011214812e-14,8.296766508e-14,5.864825977e-14,5.312565611e-14,1.357866157e-14,2.045523829e-13,1.201855029e-13,2.205026982e-13,1.529049628e-13,4.262676507e-14,7.525455803e-14,8.531103446e-14,7.856850413e-14,1.735750935e-14,1.696990415e-13,3.871741861e-14,4.967805705e-14,2.535696478e-14,2.187820939e-13,7.006689718e-14,5.444641964e-14,5.172153926e-14,1.592348587e-13,3.717555406e-14,3.989364242e-14,7.216248425e-14,1.168184463e-14
0.03125,5.644954812e-14,1.16263681e-13,2.035295228e-13,1.964005538e-13,2.396598205e-13,5.224297967e-14,8.986407616e-14,6.027087579e-14,5.874921771e-14,1.435658023e-14,2.146574908e-13,1.300086099e-13,2.37020686e-13,1.668835844e-13,4.667012574e-14,8.25923037e-14,9.146347196e-14,8.849449285e-14,1.877394428e-14,1.755695423e-13,4.113234241e-14,5.350659314e-14,2.608436365e-14,2.273097288e-13,7.444839413e-14,5.944634868e-14,5.331511361e-14,1.695481861e-13,3.980648876e-14,4.192361461e-14,7.786585848e-14,1.22792767e-14
0.0390625,6.151755896e-14,1.234877027e-13,2.115682762e-13,2.031404116e-13,2.498569757e-13,5.437972301e-14,9.726795136e-14,6.192907981e-14,6.49478949e-14,1.513878777e-14,2.247202783e-13,1.406683379e-13,2.547505788e-13,1.821977851e-13,5.119479497e-14,9.088487225e-14,9.844074709e-14,9.959831888e-14,2.034963819e-14,1.81468119e-13,4.362855645e-14,5.775503369e-14,2.679871065e-14,2.359519681e-13,7.920304667e-14,6.485601003e-14,5.491774639e-14,1.802757267e-13,4.264754859e-14,4.413287875e-14,8.417474805e-14,1.292034596e-14
0.046875,6.70539142e-14,1.308261392e-13,2.204844578e-13,2.098640305e-13,2.602769069e-13,5.65010941e-14,1.051728619e-13,6.357561649e-14,7.177134546e-14,1.595013707e-14,2.348326996e-13,1.521880235e-13,2.738217352e-13,1.988495595e-13,5.617736467e-14,1.001350379e-13,1.061296934e-13,1.119019876e-13,2.20923206e-14,1.873536058e-13,4.622819223e-14,6.24506712e-14,2.744418814e-14,2.445914741e-13,8.438357962e-14,7.072396773e-14,5.653935134e-14,1.913125824e-13,4.577175324e-14,4.655682695e-14,9.111289392e-14,1.362027462e-14
0.0546875,7.305182484e-14,1.383735203e-13,2.303243877e-13,2.164490142e-13,2.706970313e-13,5.859798895e-14,1.134881329e-13,6.528186252e-14,7.918785594e-14,1.678819768e-14,2.450620525e-13,1.645580231e-13,2.941289624e-13,2.167696824e-13,6.168220754e-14,1.104511796e-13,1.145578333e-13,1.254757561e-13,2.405422943e-14,1.928895268e-13,4.887967102e-14,6.75200429e-14,2.798601779e-14,2.528622327e-13,9.000561721e-14,7.698315825e-14,5.819317821e-14,2.025137278e-13,4.916829479e-14,4.922539648e-14,9.872519029e-14,1.435878579e-14
0.0625,7.956408852e-14,1.462697793e-13,2.412316163e-13,2.231071458e-13,2.811904843e-13,6.069732368e-14,1.222029617e-13,6.719136062e-14,8.722962097e-14,1.765650314e-14,2.553774954e-13,1.778518078e-13,3.15642507e-13,2.361208044e-13,6.77896709e-14,1.218651195e-13,1.239014277e-13,1.403945972e-13,2.627522855e-14,1.979652479e-13,5.15172007e-14,7.297338162e-14,2.849936542e-14,2.606380072e-13,9.612762728e-14,8.355692535e-14,5.988804012e-14,2.139711815e-13,5.282392003e-14,5.215518126e-14,1.071268139e-13,1.510082728e-14
0.0703125,8.665882145e-14,1.544725865e-13,2.530966228e-13,2.299867106e-13,2.918961185e-13,6.283823601e-14,1.31302569e-13,6.926827005e-14,9.596743888e-14,1.857489353e-14,2.656959547e-13,1.92155227e-13,3.385319708e-13,2.570624093e-13,7.457508611e-14,1.343356102e-13,1.34303479e-13,1.567620382e-13,2.876826148e-14,2.027718931e-13,5.414926863e-14,7.885859248e-14,2.902437252e-14,2.680877959e-13,1.027434384e-13,9.048897747e-14,6.16023519e-14,2.257714329e-13,5.681326734e-14,5.532108079e-14,1.164078853e-13,1.585932046e-14
0.078125,9.448040695e-14,1.629901869e-13,2.658093901e-13,2.367986762e-13,3.026088837e-13,6.493598469e-14,1.407974048e-13,7.141602286e-14,1.054359365e-13,1.952130294e-14,2.7602718e-13,2.075000615e-13,3.629658246e-13,2.796205087e-13,8.207323192e-14,1.480649026e-13,1.460948204e-13,1.747569794e-13,3.158343984e-14,2.074659142e-13,5.6793499e-14,8.518146148e-14,2.954747793e-14,2.751097143e-13,1.09853629e-13,9.783141516e-14,6.33200106e-14,2.377758729e-13,6.109799475e-14,5.873673963e-14,1.26533457e-13,1.666446913e-14
0.0859375,1.030920124e-13,1.716981038e-13,2.79565926e-13,2.435423744e-13,3.133287903e-13,6.701865413e-14,1.507159489e-13,7.369122729e-14,1.156802416e-13,2.048748866e-14,2.863800584e-13,2.23971215e-13,3.890612783e-13,3.03899609e-13,9.033400983e-14,1.632150768e-13,1.59376471e-13,1.943791459e-13,3.476765803e-14,2.119896334e-13,5.942772886e-14,9.214230666e-14,3.00537909e-14,2.817300268e-13,1.175362236e-13,1.055605376e-13,6.50952062e-14,2.499786882e-13,6.563237728e-14,6.243904612e-14,1.375213289e-13,1.751463796e-14
0.09375,1.124984117e-13,1.804338332e-13,2.945733198e-13,2.506678644e-13,3.244117002e-13,6.919538908e-14,1.611092042e-13,7.620310424e-14,1.267748643e-13,2.152031602e-14,2.966121952e-13,2.417039727e-13,4.168550062e-13,3.301096917e-13,9.95556068e-14,1.79801489e-13,1.740130771e-13,2.156655263e-13,3.831798279e-14,2.162138703e-13,6.205306204e-14,9.998988176e-14,3.051119276e-14,2.881487636e-13,1.257426546e-13,1.136675442e-13,6.695126598e-14,2.624069041e-13,7.056323735e-14,6.645482572e-14,1.495601581e-13,1.838270993e-14
0.1015625,1.228150275e-13,1.893616966e-13,3.110545059e-13,2.581718717e-13,3.357734235e-13,7.138686787e-14,1.720275552e-13,7.892474535e-14,1.387344648e-13,2.263646778e-14,3.066841202e-13,2.608017113e-13,4.462993277e-13,3.584017447e-13,1.098139174e-13,1.978966845e-13,1.901263727e-13,2.388469472e-13,4.226860386e-14,2.201114097e-13,6.465907455e-14,1.085711465e-13,3.093157745e-14,2.94077082e-13,1.344876883e-13,1.221432971e-13,6.884674689e-14,2.750065478e-13,7.59736808e-14,7.08462247e-14,1.626834772e-13,1.924040719e-14
0.109375,1.341176175e-13,1.985511493e-13,3.290706152e-13,2.657305819e-13,3.469895233e-13,7.358381771e-14,1.833935339e-13,8.177828113e-14,1.515368593e-13,2.382499219e-14,3.165835392e-13,2.814190688e-13,4.774891659e-13,3.88924973e-13,1.210328455e-13,2.174649513e-13,2.0775967e-13,2.639742914e-13,4.669658746e-14,2.236011893e-13,6.718744668e-14,1.176003203e-13,3.134262219e-14,2.993532589e-13,1.439551744e-13,1.309177633e-13,7.078567247e-14,2.878510065e-13,8.178617406e-14,7.561515332e-14,1.767755244e-13,2.006565625e-14
0.1171875,1.464107569e-13,2.07905794e-13,3.485873026e-13,2.734588829e-13,3.580528548e-13,7.588161245e-14,1.952021436e-13,8.483763739e-14,1.652434616e-13,2.51002975e-14,3.260933001e-13,3.03724381e-13,5.106343245e-13,4.218624291e-13,1.333809995e-13,2.385376372e-13,2.269249769e-13,2.911573517e-13,5.165001429e-14,2.265860463e-13,6.962499294e-14,1.271338619e-13,3.173282376e-14,3.042106928e-13,1.541326486e-13,1.3995687e-13,7.275405511e-14,3.00898352e-13,8.800058818e-14,8.075189917e-14,1.919445073e-13,2.085507775e-14
0.125,1.597103261e-13,2.174535414e-13,3.698932318e-13,2.81571901e-13,3.692142683e-13,7.824220502e-14,2.074591343e-13,8.817611658e-14,1.799138864e-13,2.643684417e-14,3.351118406e-13,3.276847464e-13,5.457306005e-13,4.57160184e-13,1.470358814e-13,2.613663054e-13,2.478744669e-13,3.20539334e-13,5.714926445e-14,2.291887543e-13,7.198136068e-14,1.373294418e-13,3.212102186e-14,3.085442389e-13,1.649612174e-13,1.493025203e-13,7.466810117e-14,3.140069349e-13,9.468335395e-14,8.632594382e-14,2.083427253e-13,2.16389175e-14
0.1328125,1.73970925e-13,2.271473642e-13,3.929682087e-13,2.900528203e-13,3.805879685e-13,8.067541907e-14,2.199400151e-13,9.176481672e-14,1.955139701e-13,2.780522584e-14,3.436937371e-13,3.531915411e-13,5.826572798e-13,4.946677209e-13,1.619185887e-13,2.860526401e-13,2.705722061e-13,3.518558251e-13,6.318326505e-14,2.315705362e-13,7.424003022e-14,1.482141513e-13,3.2521652e-14,3.123400648e-13,1.764826214e-13,1.590270328e-13,7.658636888e-14,3.272089431e-13,1.018707733e-13,9.229861268e-14,2.259758222e-13,2.24385353e-14
0.140625,1.892717793e-13,2.370043129e-13,4.176095418e-13,2.989613584e-13,3.922068679e-13,8.323287575e-14,2.327335345e-13,9.57069478e-14,2.120861293e-13,2.929500965e-14,3.518406899e-13,3.804014136e-13,6.215470779e-13,5.346406762e-13,1.78102126e-13,3.126405501e-13,2.949863069e-13,3.851672405e-13,6.97948949e-14,2.338077344e-13,7.64528579e-14,1.598929278e-13,3.290941105e-14,3.160052361e-13,1.885854274e-13,1.692114923e-13,7.868002469e-14,3.404892504e-13,1.096561284e-13,9.864478263e-14,2.448907359e-13,2.325520093e-14
0.1484375,2.05849302e-13,2.471618639e-13,4.443498249e-13,3.083554916e-13,4.03978149e-13,8.587274059e-14,2.46209192e-13,1.000634544e-13,2.297720691e-13,3.098376238e-14,3.595764224e-13,4.09636086e-13,6.6270067e-13,5.775117047e-13,1.958374663e-13,3.412667556e-13,3.214630734e-13,4.209373952e-13,7.713437753e-14,2.359644273e-13,7.868029927e-14,1.724845335e-13,3.32874319e-14,3.196522723e-13,2.0126911e-13,1.798302281e-13,8.096386103e-14,3.537720498e-13,1.181082855e-13,1.055373098e-13,2.650874436e-13,2.41046582e-14
0.15625,2.237447553e-13,2.576180946e-13,4.734975916e-13,3.18200465e-13,4.157288429e-13,8.860796263e-14,2.602024995e-13,1.046913609e-13,2.486135859e-13,3.281017649e-14,3.668943321e-13,4.410410017e-13,7.062061625e-13,6.233431394e-13,2.151917023e-13,3.719717723e-13,3.501204388e-13,4.591459914e-13,8.528081474e-14,2.379450912e-13,8.084677638e-14,1.85899068e-13,3.367185216e-14,3.230324421e-13,2.146884656e-13,1.907568759e-13,8.342196871e-14,3.670950112e-13,1.271531046e-13,1.1303889e-13,2.865297168e-13,2.496860767e-14
0.1640625,2.42870899e-13,2.684225782e-13,5.047281122e-13,3.285687851e-13,4.27449494e-13,9.146065907e-14,2.74343177e-13,1.096320978e-13,2.685524382e-13,3.472395596e-14,3.738072179e-13,4.746385832e-13,7.519070915e-13,6.719695506e-13,2.360250124e-13,4.046948688e-13,3.810706576e-13,4.997012313e-13,9.422114461e-14,2.395690021e-13,8.283035837e-14,2.000300158e-13,3.407462306e-14,3.259918133e-13,2.287832041e-13,2.019546014e-13,8.608496953e-14,3.80543807e-13,1.367999189e-13,1.210750555e-13,3.093272639e-13,2.58000804e-14
0.171875,2.632331568e-13,2.795421466e-13,5.380996632e-13,3.396708361e-13,4.393432073e-13,9.448327964e-14,2.886385859e-13,1.149921344e-13,2.895396184e-13,3.675725494e-14,3.803964544e-13,5.105199986e-13,7.997750074e-13,7.235069895e-13,2.582852619e-13,4.392482603e-13,4.144886825e-13,5.426743496e-13,1.040032774e-13,2.40864482e-13,8.459508976e-14,2.149690863e-13,3.450605976e-14,3.286908672e-13,2.434908883e-13,2.134959201e-13,8.888748012e-14,3.941964385e-13,1.47190728e-13,1.296598812e-13,3.336190228e-13,2.660915932e-14
0.1796875,2.848848837e-13,2.908033195e-13,5.736813602e-13,3.517693566e-13,4.516558891e-13,9.78522011e-14,3.032442645e-13,1.206479021e-13,3.115968151e-13,3.896014199e-14,3.866566852e-13,5.487690094e-13,8.50046995e-13,7.784000831e-13,2.823491989e-13,4.756963061e-13,4.502871599e-13,5.880963077e-13,1.147196973e-13,2.420079664e-13,8.619118307e-14,2.308265279e-13,3.49668155e-14,3.3136399e-13,2.588118224e-13,2.254774795e-13,9.193801815e-14,4.079813997e-13,1.583476742e-13,1.387955907e-13,3.59539674e-13,2.742448086e-14
0.1875,3.078419166e-13,3.024236825e-13,6.114460877e-13,3.648074256e-13,4.64245525e-13,1.015688212e-13,3.182946177e-13,1.266092547e-13,3.348133962e-13,4.137843355e-14,3.926611457e-13,5.894498309e-13,9.028153257e-13,8.36748681e-13,3.085449212e-13,5.14420782e-13,4.888021693e-13,6.361981669e-13,1.264192564e-13,2.430233891e-13,8.76773022e-14,2.475537865e-13,3.549422949e-14,3.338631133e-13,2.746605202e-13,2.378606228e-13,9.541127199e-14,4.218393917e-13,1.702515095e-13,1.484802631e-13,3.870054887e-13,2.823878853e-14
0.1953125,3.319069871e-13,3.146599835e-13,6.517212552e-13,3.78382693e-13,4.765920674e-13,1.054951118e-13,3.33717759e-13,1.329860126e-13,3.591792792e-13,4.398931275e-14,3.985472536e-13,6.326518183e-13,9.578273852e-13,8.980831159e-13,3.365485942e-13,5.551578498e-13,5.300985896e-13,6.866302605e-13,1.390496211e-13,2.437685593e-13,8.903714259e-14,2.650988992e-13,3.611751505e-14,3.361097589e-13,2.910598589e-13,2.503807495e-13,9.912165913e-14,4.359544744e-13,1.829165674e-13,1.58743372e-13,4.155428376e-13,2.903331151e-14
0.203125,3.570078082e-13,3.274402518e-13,6.942933012e-13,3.924666007e-13,4.885867741e-13,1.096702561e-13,3.492835024e-13,1.396771546e-13,3.845732394e-13,4.673323828e-14,4.043264587e-13,6.783404623e-13,1.014917376e-12,9.622054078e-13,3.661361954e-13,5.974137024e-13,5.735168726e-13,7.387074347e-13,1.525768304e-13,2.442525664e-13,9.023102238e-14,2.835634058e-13,3.679839225e-14,3.384977662e-13,3.079565893e-13,2.629110753e-13,1.029873725e-13,4.503163845e-13,1.962717512e-13,1.695264788e-13,4.449867361e-13,2.980484626e-14
0.2109375,3.834740547e-13,3.408337069e-13,7.386262114e-13,4.072854137e-13,5.004441168e-13,1.141261117e-13,3.650046032e-13,1.466058564e-13,4.109306233e-13,4.965572738e-14,4.100923513e-13,7.264195093e-13,1.074159598e-12,1.029312124e-12,3.974496553e-13,6.412940014e-13,6.193721139e-13,7.927090688e-13,1.671039106e-13,2.445175438e-13,9.125494499e-14,3.030003403e-13,3.750312212e-14,3.410947967e-13,3.251448471e-13,2.755616575e-13,1.071522194e-13,4.64708538e-13,2.103115977e-13,1.808050722e-13,4.755658704e-13,3.056684626e-14
0.21875,4.111701593e-13,3.549205789e-13,7.849952622e-13,4.228267206e-13,5.120197494e-13,1.188676898e-13,3.80934387e-13,1.53749647e-13,4.381717512e-13,5.28494475e-14,4.15927033e-13,7.76925019e-13,1.135473826e-12,1.099360345e-12,4.303770587e-13,6.866098347e-13,6.679719502e-13,8.488472735e-13,1.826704577e-13,2.443779437e-13,9.209125625e-14,3.232437887e-13,3.822628177e-14,3.434899249e-13,3.426099959e-13,2.88294707e-13,1.115453755e-13,4.792521527e-13,2.250958599e-13,1.926275119e-13,5.071948336e-13,3.128666394e-14
0.2265625,4.39607979e-13,3.698043568e-13,8.337811835e-13,4.392062498e-13,5.23261848e-13,1.24006407e-13,3.969771032e-13,1.610629421e-13,4.662160085e-13,5.632288145e-14,4.217942763e-13,8.299009353e-13,1.198673036e-12,1.172268058e-12,4.650345745e-13,7.33188964e-13,7.186788079e-13,9.068226388e-13,1.992780505e-13,2.439595202e-13,9.275168305e-14,3.441724736e-13,3.897409216e-14,3.456476615e-13,3.603739027e-13,3.010620069e-13,1.162720957e-13,4.941771724e-13,2.406051972e-13,2.049716731e-13,5.397882764e-13,3.1936868e-14
0.234375,4.68942606e-13,3.85887127e-13,8.84734687e-13,4.564043429e-13,5.343049527e-13,1.294680145e-13,4.130739879e-13,1.685918252e-13,4.950986075e-13,6.001492186e-14,4.278370371e-13,8.852693804e-13,1.263726046e-12,1.247911144e-12,5.016331497e-13,7.814554818e-13,7.7182934e-13,9.6662632e-13,2.170080703e-13,2.436969096e-13,9.329443669e-14,3.658255049e-13,3.975038904e-14,3.478603724e-13,3.783502528e-13,3.139169172e-13,1.215792123e-13,5.094409458e-13,2.568462815e-13,2.178076765e-13,5.733845358e-13,3.258978098e-14
0.2421875,4.992147835e-13,4.031929243e-13,9.374100115e-13,4.740812725e-13,5.449150982e-13,1.351420346e-13,4.29076642e-13,1.762483701e-13,5.247024914e-13,6.38728698e-14,4.342378946e-13,9.428365446e-13,1.330388357e-12,1.325817188e-12,5.397648223e-13,8.310524797e-13,8.274916068e-13,1.02777371e-12,2.357705861e-13,2.435091177e-13,9.369543343e-14,3.881515161e-13,4.052370803e-14,3.501121971e-13,3.964418488e-13,3.266783837e-13,1.273058118e-13,5.249779597e-13,2.737549433e-13,2.310816917e-13,6.07655669e-13,3.326036435e-14
0.25,5.300684167e-13,4.214396643e-13,9.916456605e-13,4.924853955e-13,5.550867673e-13,1.412052034e-13,4.449045315e-13,1.839413904e-13,5.547794627e-13,6.796079792e-14,4.410709367e-13,1.002440041e-12,1.398208823e-12,1.405818411e-12,5.792918731e-13,8.812361444e-13,8.847357291e-13,1.089824816e-12,2.554596745e-13,2.431005953e-13,9.387554128e-14,4.111253701e-13,4.128422715e-14,3.522695607e-13,4.145157644e-13,3.391938139e-13,1.332481524e-13,5.40922099e-13,2.911818961e-13,2.447170521e-13,6.424200723e-13,3.387033039e-14
0.2578125,5.616715613e-13,4.407617583e-13,1.04769347e-12,5.119395825e-13,5.650825449e-13,1.477200205e-13,4.607250081e-13,1.918790252e-13,5.853564195e-13,7.242122761e-14,4.484125032e-13,1.06415911e-12,1.467171714e-12,1.488066119e-12,6.204078556e-13,9.320409692e-13,9.437931876e-13,1.153123158e-12,2.761705625e-13,2.424802538e-13,9.384223988e-14,4.349310428e-13,4.205154626e-14,3.545233883e-13,4.325872556e-13,3.515759289e-13,1.394067092e-13,5.574218017e-13,3.090961232e-13,2.588106763e-13,6.777469503e-13,3.442831021e-14
0.265625,5.940028171e-13,4.613138493e-13,1.105545377e-12,5.319270301e-13,5.745443575e-13,1.545353354e-13,4.76501101e-13,2.000256197e-13,6.164134551e-13,7.725785774e-14,4.562146601e-13,1.127896524e-12,1.53728321e-12,1.572159758e-12,6.628454671e-13,9.832784249e-13,1.00460502e-12,1.217337879e-12,2.978369274e-13,2.416808202e-13,9.367661249e-14,4.595334836e-13,4.281575009e-14,3.570400045e-13,4.506580939e-13,3.638023021e-13,1.458954895e-13,5.743629503e-13,3.274760884e-13,2.73392196e-13,7.133989154e-13,3.496656536e-14
0.2734375,6.265218989e-13,4.832325872e-13,1.164576937e-12,5.521301591e-13,5.83143743e-13,1.616356655e-13,4.919552111e-13,2.080074494e-13,6.475116276e-13,8.236007174e-14,4.645691725e-13,1.193099291e-12,1.607895821e-12,1.657377113e-12,7.063593962e-13,1.034440999e-12,1.066573563e-12,1.281759158e-12,3.203197813e-13,2.408783953e-13,9.344066648e-14,4.846147738e-13,4.358744117e-14,3.596093068e-13,4.684218505e-13,3.757472419e-13,1.52945996e-13,5.916107457e-13,3.463677691e-13,2.881757309e-13,7.492589727e-13,3.546586874e-14
0.28125,6.591198387e-13,5.067606612e-13,1.224259242e-12,5.728653837e-13,5.91148907e-13,1.690437186e-13,5.069607729e-13,2.157607344e-13,6.783273301e-13,8.769457868e-14,4.73854297e-13,1.259398833e-12,1.678451153e-12,1.743305427e-12,7.506771368e-13,1.085266405e-12,1.130181627e-12,1.346246622e-12,3.436590366e-13,2.401577385e-13,9.311629645e-14,5.101999945e-13,4.438122679e-14,3.621227724e-13,4.856479252e-13,3.873410104e-13,1.604640579e-13,6.093301936e-13,3.658330584e-13,3.030068311e-13,7.853194084e-13,3.593956146e-14
0.2890625,6.916890063e-13,5.315745289e-13,1.284336746e-12,5.942558006e-13,5.986396799e-13,1.767261364e-13,5.215120933e-13,2.23384201e-13,7.088233675e-13,9.326056878e-14,4.840720898e-13,1.32649135e-12,1.748770752e-12,1.829570819e-12,7.955082986e-13,1.135411149e-12,1.194763061e-12,1.410411981e-12,3.676966081e-13,2.390969213e-13,9.264147924e-14,5.365102255e-13,4.516056671e-14,3.647302641e-13,5.02265517e-13,3.984135639e-13,1.681156341e-13,6.27527542e-13,3.85566486e-13,3.17962592e-13,8.212380484e-13,3.640495032e-14
0.296875,7.237936772e-13,5.573314353e-13,1.344480646e-12,6.161651285e-13,6.05570755e-13,1.846510173e-13,5.355322633e-13,2.307959433e-13,7.387697817e-13,9.903561144e-14,4.949599031e-13,1.393716887e-12,1.81827191e-12,1.915364625e-12,8.409376937e-13,1.184785224e-12,1.259455283e-12,1.47363823e-12,3.920747626e-13,2.37637979e-13,9.203669506e-14,5.633884043e-13,4.591086472e-14,3.673440496e-13,5.181364109e-13,4.089368987e-13,1.758759817e-13,6.46029524e-13,4.052601985e-13,3.329466975e-13,8.568591201e-13,3.688005134e-14
0.3046875,7.553178456e-13,5.844120392e-13,1.404287153e-12,6.384275527e-13,6.120720479e-13,1.927949033e-13,5.48877084e-13,2.37947554e-13,7.679279448e-13,1.050019803e-13,5.067204037e-13,1.460977334e-12,1.886447258e-12,2.000011926e-12,8.865172814e-13,1.233263691e-12,1.325153208e-12,1.535529865e-12,4.166893312e-13,2.362468095e-13,9.138952847e-14,5.906782417e-13,4.663286039e-14,3.698923897e-13,5.33205353e-13,4.190803536e-13,1.838413675e-13,6.652057046e-13,4.249087442e-13,3.478477254e-13,8.921648096e-13,3.741336354e-14
0.3125,7.864221083e-13,6.130832165e-13,1.463549515e-12,6.609581809e-13,6.180394283e-13,2.012290453e-13,5.615692424e-13,2.448319846e-13,7.963994369e-13,1.110842551e-13,5.196275689e-13,1.528687314e-12,1.953586156e-12,2.083754531e-12,9.316476486e-13,1.280193847e-12,1.391521591e-12,1.596029987e-12,4.416740318e-13,2.349871074e-13,9.071933536e-14,6.184915464e-13,4.729197048e-14,3.72756184e-13,5.474459194e-13,4.28802903e-13,1.920166827e-13,6.854035667e-13,4.44506725e-13,3.626905107e-13,9.269484043e-13,3.803108396e-14
0.3203125,8.172003587e-13,6.431333005e-13,1.522437095e-12,6.837937192e-13,6.233400453e-13,2.098982344e-13,5.737976371e-13,2.513357601e-13,8.241554547e-13,1.172492064e-13,5.336487362e-13,1.59640293e-12,2.019707821e-12,2.166650874e-12,9.764107953e-13,1.325304102e-12,1.457769886e-12,1.655190628e-12,4.670239736e-13,2.337456454e-13,9.000195402e-14,6.467682819e-13,4.788003898e-14,3.760715537e-13,5.608296415e-13,4.379711101e-13,2.003144928e-13,7.060888393e-13,4.641085756e-13,3.773975385e-13,9.611703209e-13,3.873912758e-14
0.328125,8.472395696e-13,6.742930467e-13,1.580732794e-12,7.068596035e-13,6.280896169e-13,2.185745782e-13,5.855254013e-13,2.573514644e-13,8.50729389e-13,1.235837528e-13,5.488652917e-13,1.663153258e-12,2.083852637e-12,2.247675195e-12,1.020527084e-12,1.368661309e-12,1.524304445e-12,1.712344546e-12,4.924522754e-13,2.325555544e-13,8.926286495e-14,6.753078508e-13,4.842138269e-14,3.793853221e-13,5.733575136e-13,4.465753112e-13,2.085732168e-13,7.267637204e-13,4.835490511e-13,3.918691963e-13,9.945795429e-13,3.953897227e-14
0.3359375,8.757765101e-13,7.064363842e-13,1.637411607e-12,7.29962041e-13,6.323242073e-13,2.272479833e-13,5.964207911e-13,2.629212847e-13,8.757584167e-13,1.301136015e-13,5.653029189e-13,1.728454456e-12,2.145085285e-12,2.325744474e-12,1.063610947e-12,1.409985136e-12,1.590502327e-12,1.766808944e-12,5.177032999e-13,2.313940544e-13,8.854261527e-14,7.039191901e-13,4.891888136e-14,3.824578232e-13,5.847569139e-13,4.545526375e-13,2.167716644e-13,7.475725969e-13,5.023986672e-13,4.060132637e-13,1.026735085e-12,4.044453571e-14
0.34375,9.027028681e-13,7.396015792e-13,1.691587135e-12,7.527773799e-13,6.358884961e-13,2.359166682e-13,6.060957911e-13,2.680941186e-13,8.992809346e-13,1.368047758e-13,5.827797725e-13,1.791993384e-12,2.203129528e-12,2.399908825e-12,1.105384429e-12,1.448705645e-12,1.655735904e-12,1.818274084e-12,5.42684993e-13,2.303480611e-13,8.785259719e-14,7.32396517e-13,4.936078846e-14,3.853618523e-13,5.946699581e-13,4.618592163e-13,2.249014993e-13,7.684886928e-13,5.20756367e-13,4.196632393e-13,1.057733629e-12,4.14685133e-14
0.3515625,9.2817955e-13,7.735597359e-13,1.742824913e-12,7.750389051e-13,6.38597316e-13,2.444043038e-13,6.144440162e-13,2.727789756e-13,9.212779918e-13,1.43616994e-13,6.012904609e-13,1.853309919e-12,2.257872293e-12,2.469524112e-12,1.144998359e-12,1.48419684e-12,1.720005107e-12,1.865957474e-12,5.67194054e-13,2.293460278e-13,8.717948848e-14,7.607006827e-13,4.973495431e-14,3.879889399e-13,6.030746506e-13,4.685083197e-13,2.328647823e-13,7.892331223e-13,5.387405889e-13,4.327382885e-13,1.08749136e-12,4.255188174e-14
0.359375,9.517974029e-13,8.079363933e-13,1.791029911e-12,7.968613458e-13,6.404076105e-13,2.527197467e-13,6.217400623e-13,2.770048953e-13,9.415313203e-13,1.504585221e-13,6.207792394e-13,1.912074563e-12,2.309010497e-12,2.534870383e-12,1.18260471e-12,1.51676193e-12,1.782967211e-12,1.909702366e-12,5.90988496e-13,2.281575169e-13,8.648030424e-14,7.886094405e-13,5.001458278e-14,3.902769919e-13,6.100681361e-13,4.743542903e-13,2.406140919e-13,8.098051864e-13,5.558813973e-13,4.451338837e-13,1.115438958e-12,4.365268009e-14
0.3671875,9.731428156e-13,8.426147621e-13,1.836385299e-12,8.181244449e-13,6.413757679e-13,2.608566783e-13,6.280039069e-13,2.80858532e-13,9.599993716e-13,1.573519733e-13,6.410240536e-13,1.968105306e-12,2.356203495e-12,2.59569028e-12,1.218960522e-12,1.547099571e-12,1.845116611e-12,1.949847301e-12,6.13934271e-13,2.269650091e-13,8.572823499e-14,8.15685502e-13,5.018246591e-14,3.923240896e-13,6.156048496e-13,4.792468603e-13,2.480861602e-13,8.302591152e-13,5.72013423e-13,4.566977327e-13,1.141413285e-12,4.479629702e-14
0.375,9.921347809e-13,8.772957803e-13,1.878487251e-12,8.384057444e-13,6.414575522e-13,2.686241774e-13,6.329400572e-13,2.841195477e-13,9.766857681e-13,1.643371029e-13,6.619271841e-13,2.021039157e-12,2.399162861e-12,2.651003104e-12,1.253047005e-12,1.574173287e-12,1.905881002e-12,1.985660788e-12,6.358851144e-13,2.2581874e-13,8.496612788e-14,8.419515224e-13,5.026446104e-14,3.940662357e-13,6.195629586e-13,4.831988025e-13,2.553035122e-13,8.503711269e-13,5.872673076e-13,4.674494103e-13,1.165385707e-12,4.595890767e-14
0.3828125,1.008742903e-12,9.118666368e-13,1.916715205e-12,8.577455129e-13,6.405913039e-13,2.759789622e-13,6.365510876e-13,2.865969187e-13,9.91328635e-13,1.712273867e-13,6.834152649e-13,2.070354996e-12,2.437610092e-12,2.70063101e-12,1.283732351e-12,1.59640598e-12,1.96331947e-12,2.016615551e-12,6.567959174e-13,2.243638063e-13,8.424967004e-14,8.673829559e-13,5.026188556e-14,3.953712913e-13,6.219049638e-13,4.862281525e-13,2.623319788e-13,8.699332041e-13,6.015880292e-13,4.773477046e-13,1.187262263e-12,4.712545447e-14
0.390625,1.022884393e-12,9.465469273e-13,1.950993181e-12,8.761251339e-13,6.387471621e-13,2.829155904e-13,6.388436892e-13,2.883252409e-13,1.003616908e-12,1.779058785e-13,7.055185143e-13,2.115667711e-12,2.471207642e-12,2.744287546e-12,1.311270484e-12,1.613845353e-12,2.017606296e-12,2.042861601e-12,6.766503175e-13,2.22656295e-13,8.357767117e-14,8.91602965e-13,5.013773064e-14,3.962481067e-13,6.226508328e-13,4.883785454e-13,2.690984236e-13,8.889527696e-13,6.149654755e-13,4.862379068e-13,1.207156819e-12,4.834640221e-14
0.3984375,1.034378764e-12,9.806184147e-13,1.980690743e-12,8.931820151e-13,6.359057107e-13,2.892945848e-13,6.396858302e-13,2.892489005e-13,1.013271835e-12,1.844161564e-13,7.281348448e-13,2.156306862e-12,2.499282808e-12,2.78106606e-12,1.33560539e-12,1.627072353e-12,2.069399989e-12,2.064147058e-12,6.95093089e-13,2.209265722e-13,8.292490818e-14,9.146251886e-13,4.994048124e-14,3.966313253e-13,6.216794885e-13,4.896498858e-13,2.755322164e-13,9.070613143e-13,6.270957977e-13,4.94033505e-13,1.224711536e-12,4.961581133e-14
0.40625,1.042825718e-12,1.013051334e-12,2.004832331e-12,9.087717907e-13,6.3219444e-13,2.949727057e-13,6.391265425e-13,2.89349509e-13,1.02003679e-12,1.906803947e-13,7.507088632e-13,2.191330893e-12,2.520969037e-12,2.810244766e-12,1.356143416e-12,1.636023459e-12,2.118190471e-12,2.080010588e-12,7.115853206e-13,2.190252645e-13,8.229933269e-14,9.363303904e-13,4.972570092e-14,3.961468198e-13,6.188817407e-13,4.898231309e-13,2.814201579e-13,9.235136432e-13,6.375014438e-13,5.005015572e-13,1.239322225e-12,5.088333468e-14
0.4140625,1.047708066e-12,1.04384258e-12,2.023303877e-12,9.226818298e-13,6.277652013e-13,2.999072861e-13,6.370060298e-13,2.886616305e-13,1.02395877e-12,1.966491926e-13,7.730132418e-13,2.220734982e-12,2.536200504e-12,2.831371531e-12,1.372751827e-12,1.640333588e-12,2.163531916e-12,2.089813158e-12,7.259404412e-13,2.1681702e-13,8.171998969e-14,9.564409843e-13,4.941880245e-14,3.94542074e-13,6.143435612e-13,4.88900084e-13,2.865227026e-13,9.382189339e-13,6.462713415e-13,5.054734305e-13,1.251183652e-12,5.215572379e-14
0.421875,1.049320372e-12,1.073164725e-12,2.036238352e-12,9.348546772e-13,6.226774306e-13,3.042336266e-13,6.331550406e-13,2.871679372e-13,1.025264062e-12,2.024070064e-13,7.951762561e-13,2.245160281e-12,2.545825096e-12,2.845059772e-12,1.38573337e-12,1.63991042e-12,2.204691331e-12,2.093739835e-12,7.384627517e-13,2.144001858e-13,8.117426949e-14,9.754591982e-13,4.900534534e-14,3.921683539e-13,6.08172946e-13,4.872990796e-13,2.909721583e-13,9.515069334e-13,6.537474171e-13,5.091879992e-13,1.260854991e-12,5.346821967e-14
0.4296875,1.048531094e-12,1.100819168e-12,2.04390119e-12,9.456716201e-13,6.169302434e-13,3.07999998e-13,6.27925601e-13,2.850154015e-13,1.024068194e-12,2.079383944e-13,8.169706518e-13,2.264456912e-12,2.550206785e-12,2.852030315e-12,1.395076679e-12,1.635070682e-12,2.241979454e-12,2.092878767e-12,7.493312384e-13,2.119671245e-13,8.065682826e-14,9.936205219e-13,4.86106145e-14,3.893384905e-13,6.004720073e-13,4.850995568e-13,2.947991648e-13,9.632490491e-13,6.599546745e-13,5.118305349e-13,1.268298019e-12,5.481469279e-14
0.4375,1.045175001e-12,1.126492187e-12,2.04686024e-12,9.550107187e-13,6.103541177e-13,3.110265314e-13,6.21619462e-13,2.822409422e-13,1.020477816e-12,2.131539457e-13,8.381315568e-13,2.278150657e-12,2.548933353e-12,2.851479229e-12,1.400204789e-12,1.625779733e-12,2.276088522e-12,2.08682658e-12,7.581594266e-13,2.095665061e-13,8.019979415e-14,1.010436786e-12,4.825333544e-14,3.858379777e-13,5.914143782e-13,4.819095827e-13,2.977939253e-13,9.7325539e-13,6.64580764e-13,5.132922738e-13,1.272955987e-12,5.618610514e-14
0.4453125,1.03893353e-12,1.149766348e-12,2.045171835e-12,9.624678524e-13,6.028812109e-13,3.132862371e-13,6.142751261e-13,2.786419072e-13,1.014558768e-12,2.180214947e-13,8.583732586e-13,2.286309249e-12,2.541994705e-12,2.843165337e-12,1.401109239e-12,1.61190314e-12,2.305840993e-12,2.074865189e-12,7.646837191e-13,2.069732747e-13,7.981761581e-14,1.025884519e-12,4.782592001e-14,3.815919745e-13,5.81163815e-13,4.77627784e-13,3.000188851e-13,9.814455356e-13,6.674204953e-13,5.135310671e-13,1.274629795e-12,5.760560147e-14
0.453125,1.030253992e-12,1.170398382e-12,2.038754555e-12,9.680853446e-13,5.947781427e-13,3.148666124e-13,6.060127901e-13,2.742084549e-13,1.006238972e-12,2.22414038e-13,8.773217952e-13,2.288847971e-12,2.529652311e-12,2.827940767e-12,1.398503497e-12,1.594201864e-12,2.331121653e-12,2.057741132e-12,7.690314232e-13,2.040527729e-13,7.948105487e-14,1.0399316e-12,4.731410636e-14,3.766693502e-13,5.697875219e-13,4.724773503e-13,3.015319136e-13,9.87526727e-13,6.686504891e-13,5.125555984e-13,1.273575293e-12,5.904115877e-14
0.4609375,1.018982923e-12,1.188090964e-12,2.027744544e-12,9.716580993e-13,5.861268561e-13,3.157124459e-13,5.968794786e-13,2.690748684e-13,9.954531256e-13,2.261255469e-13,8.9494589e-13,2.285316407e-12,2.511651791e-12,2.80573095e-12,1.392589751e-12,1.573421168e-12,2.352868537e-12,2.035641223e-12,7.710331049e-13,2.009169268e-13,7.915881839e-14,1.052173122e-12,4.680332647e-14,3.709039123e-13,5.573465748e-13,4.665265991e-13,3.021416572e-13,9.912981552e-13,6.681947941e-13,5.102283581e-13,1.269608077e-12,6.044685628e-14
0.46875,1.005128285e-12,1.202555626e-12,2.011918125e-12,9.728015802e-13,5.766186651e-13,3.157867686e-13,5.868320948e-13,2.634289056e-13,9.823254219e-13,2.292874377e-13,9.111620707e-13,2.275877615e-12,2.487918962e-12,2.77619591e-12,1.38303198e-12,1.549322766e-12,2.370195672e-12,2.008325776e-12,7.705041118e-13,1.976587217e-13,7.885287079e-14,1.062643307e-12,4.633052154e-14,3.644738618e-13,5.440035349e-13,4.596252485e-13,3.017635396e-13,9.928747769e-13,6.657878956e-13,5.065558728e-13,1.262369275e-12,6.179339326e-14
0.4765625,9.894325782e-13,1.213959026e-12,1.991355918e-12,9.718098618e-13,5.661405577e-13,3.151352454e-13,5.759446692e-13,2.574672656e-13,9.672212358e-13,2.32206763e-13,9.256623098e-13,2.261214003e-12,2.458999421e-12,2.739679111e-12,1.369567468e-12,1.521421937e-12,2.382534411e-12,1.976280263e-12,7.677472847e-13,1.942271634e-13,7.857808968e-14,1.071496028e-12,4.587917499e-14,3.577484917e-13,5.298157339e-13,4.516020025e-13,3.004587319e-13,9.924940007e-13,6.616474724e-13,5.018113016e-13,1.25198985e-12,6.297219788e-14
0.484375,9.716987287e-13,1.222208032e-12,1.966988474e-12,9.691260244e-13,5.550474604e-13,3.137717128e-13,5.644704308e-13,2.510995334e-13,9.503882848e-13,2.34742865e-13,9.382280047e-13,2.241421931e-12,2.425414452e-12,2.697184404e-12,1.352541867e-12,1.489950968e-12,2.390204391e-12,1.939977672e-12,7.630075398e-13,1.905412529e-13,7.832956302e-14,1.078703038e-12,4.546366977e-14,3.505435765e-13,5.148363825e-13,4.426834016e-13,2.9833686e-13,9.900502325e-13,6.560975528e-13,4.960820618e-13,1.238819398e-12,6.402931425e-14
0.4921875,9.516874384e-13,1.227043294e-12,1.939341153e-12,9.645272988e-13,5.436560072e-13,3.115753807e-13,5.525930533e-13,2.442192095e-13,9.317234376e-13,2.366208364e-13,9.486214863e-13,2.216160329e-12,2.38745486e-12,2.649744479e-12,1.332821743e-12,1.455855139e-12,2.393089434e-12,1.900032342e-12,7.562734219e-13,1.867061345e-13,7.81174223e-14,1.08431076e-12,4.509832054e-14,3.426552732e-13,4.993574216e-13,4.33404848e-13,2.955466973e-13,9.850477196e-13,6.493290187e-13,4.892526384e-13,1.223454763e-12,6.518701007e-14
0.5,9.298510205e-13,1.228619934e-12,1.907577879e-12,9.575903258e-13,5.318544258e-13,3.084007052e-13,5.400557336e-13,2.368955357e-13,9.111218979e-13,2.378532425e-13,9.56774274e-13,2.185323547e-12,2.344870328e-12,2.596638834e-12,1.3103932e-12,1.419409485e-12,2.391087069e-12,1.856399317e-12,7.474343015e-13,1.827805431e-13,7.795932809e-14,1.088185168e-12,4.474097e-14,3.34211463e-13,4.833227758e-13,4.237421535e-13,2.920407543e-13,9.773615435e-13,6.412910319e-13,4.812926928e-13,1.206124294e-12,6.639011651e-14
0.5078125,9.059780694e-13,1.226649583e-12,1.870870564e-12,9.483865175e-13,5.194408157e-13,3.044096239e-13,5.266770722e-13,2.291377361e-13,8.886131191e-13,2.384473851e-13,9.627176214e-13,2.149040569e-12,2.297027068e-12,2.536912521e-12,1.28458401e-12,1.380006428e-12,2.383608466e-12,1.808254716e-12,7.363148177e-13,1.785716956e-13,7.78194688e-14,1.090060529e-12,4.439620273e-14,3.251646934e-13,4.664042705e-13,4.132649279e-13,2.876486964e-13,9.672789706e-13,6.315397134e-13,4.721246047e-13,1.186195103e-12,6.745662076e-14
0.515625,8.800895664e-13,1.220867664e-12,1.830019535e-12,9.3728005e-13,5.064532686e-13,2.998892405e-13,5.127872289e-13,2.210404311e-13,8.643870489e-13,2.384799713e-13,9.663360986e-13,2.107924745e-12,2.244394492e-12,2.471899237e-12,1.255707541e-12,1.337993008e-12,2.370958233e-12,1.756369123e-12,7.231518839e-13,1.741426614e-13,7.767219647e-14,1.08988446e-12,4.417670066e-14,3.154713136e-13,4.488956808e-13,4.020941208e-13,2.82582165e-13,9.550241702e-13,6.201893724e-13,4.618027726e-13,1.163745303e-12,6.843617567e-14
0.5234375,8.528762506e-13,1.211941603e-12,1.786077651e-12,9.245609994e-13,4.930805066e-13,2.948577928e-13,4.985176583e-13,2.126383724e-13,8.387842648e-13,2.380061037e-13,9.675713594e-13,2.062495158e-12,2.188127873e-12,2.403094208e-12,1.224609807e-12,1.294436418e-12,2.354778425e-12,1.702254818e-12,7.084459235e-13,1.697950413e-13,7.751376598e-14,1.087831462e-12,4.414576942e-14,3.052634532e-13,4.311762209e-13,3.906416296e-13,2.771576786e-13,9.40674766e-13,6.078385861e-13,4.505907248e-13,1.139637824e-12,6.937671474e-14
0.53125,8.244123181e-13,1.200057935e-12,1.738884887e-12,9.102734257e-13,4.794314101e-13,2.891800978e-13,4.836876987e-13,2.037806366e-13,8.117807777e-13,2.367417814e-13,9.662609584e-13,2.01225433e-12,2.128148159e-12,2.330423031e-12,1.191641279e-12,1.249687617e-12,2.335101675e-12,1.645998588e-12,6.921509727e-13,1.655863413e-13,7.726403686e-14,1.084018377e-12,4.423821606e-14,2.945388798e-13,4.130988387e-13,3.789498387e-13,2.712210019e-13,9.23957032e-13,5.944307721e-13,4.384443176e-13,1.113884813e-12,7.023742325e-14
0.5390625,7.945975049e-13,1.184702672e-12,1.688228439e-12,8.941205538e-13,4.653920501e-13,2.827962518e-13,4.683559427e-13,1.945956696e-13,7.832422467e-13,2.346496871e-13,9.624161907e-13,1.957219948e-12,2.064147877e-12,2.253657845e-12,1.156711715e-12,1.203779108e-12,2.311222397e-12,1.587219907e-12,6.739796374e-13,1.614046068e-13,7.688528723e-14,1.078296681e-12,4.440486706e-14,2.833069925e-13,3.94634798e-13,3.668958823e-13,2.64667958e-13,9.047913437e-13,5.797346799e-13,4.252351881e-13,1.086210075e-12,7.100676982e-14
0.546875,7.635380062e-13,1.166192348e-12,1.634402176e-12,8.762022292e-13,4.510758812e-13,2.758841694e-13,4.527124303e-13,1.853183444e-13,7.536562541e-13,2.320627729e-13,9.564827147e-13,1.898862364e-12,1.997187116e-12,2.173531771e-12,1.119736477e-12,1.156631324e-12,2.283254181e-12,1.52621082e-12,6.542204474e-13,1.57123453e-13,7.648997726e-14,1.070609448e-12,4.467835335e-14,2.71670525e-13,3.759745136e-13,3.545755157e-13,2.577512298e-13,8.838089536e-13,5.639391053e-13,4.111900238e-13,1.0569962e-12,7.170658854e-14
0.5546875,7.313352409e-13,1.145247283e-12,1.577956119e-12,8.57274632e-13,4.370473776e-13,2.686892902e-13,4.369533732e-13,1.75828017e-13,7.233133343e-13,2.291555112e-13,9.484945801e-13,1.837877358e-12,1.928094919e-12,2.091232746e-12,1.081423839e-12,1.108523288e-12,2.251144291e-12,1.464146531e-12,6.336026362e-13,1.529639916e-13,7.622449597e-14,1.060871219e-12,4.506857094e-14,2.596307962e-13,3.571930376e-13,3.423370499e-13,2.506437913e-13,8.612749806e-13,5.473867234e-13,3.964452365e-13,1.026903683e-12,7.250361671e-14
0.5625,6.986119222e-13,1.121739464e-12,1.519845663e-12,8.374798486e-13,4.230583292e-13,2.610777183e-13,4.210210861e-13,1.666378768e-13,6.924872356e-13,2.257750993e-13,9.380649494e-13,1.774364454e-12,1.856802801e-12,2.00713437e-12,1.042191379e-12,1.060209027e-12,2.216431686e-12,1.401709749e-12,6.121643898e-13,1.49267768e-13,7.589207995e-14,1.049145395e-12,4.558878122e-14,2.474466366e-13,3.386000863e-13,3.300467778e-13,2.433470123e-13,8.371460075e-13,5.30151369e-13,3.812797216e-13,9.959183658e-13,7.322990324e-14
0.5703125,6.656297008e-13,1.095589172e-12,1.460587388e-12,8.162449673e-13,4.083460302e-13,2.528149672e-13,4.04842814e-13,1.578012001e-13,6.615706322e-13,2.219483521e-13,9.252953316e-13,1.708665794e-12,1.783185407e-12,1.920714208e-12,1.001642334e-12,1.011902793e-12,2.179121859e-12,1.337891022e-12,5.894122902e-13,1.457215992e-13,7.540866741e-14,1.036015044e-12,4.628796699e-14,2.352519863e-13,3.203071042e-13,3.17278939e-13,2.357582623e-13,8.116954936e-13,5.121608032e-13,3.658411141e-13,9.634020085e-13,7.361980307e-14
0.578125,6.324600781e-13,1.067493884e-12,1.399945383e-12,7.938450642e-13,3.934168451e-13,2.441487661e-13,3.885398513e-13,1.490320077e-13,6.308535918e-13,2.176333344e-13,9.103003637e-13,1.641603494e-12,1.708588978e-12,1.833118726e-12,9.598672761e-13,9.63169196e-13,2.138173236e-12,1.273034423e-12,5.657213763e-13,1.419642798e-13,7.481074351e-14,1.021952673e-12,4.717132199e-14,2.230113762e-13,3.024438614e-13,3.042367753e-13,2.27736858e-13,7.850625763e-13,4.935051731e-13,3.500664577e-13,9.296198596e-13,7.377105098e-14
0.5859375,5.996796181e-13,1.037697922e-12,1.338651874e-12,7.707754147e-13,3.788506166e-13,2.353572698e-13,3.724658212e-13,1.404113179e-13,6.002604783e-13,2.128444904e-13,8.932554212e-13,1.573611063e-12,1.634048938e-12,1.746050871e-12,9.182292596e-13,9.147319486e-13,2.094781532e-12,1.209037849e-12,5.419023311e-13,1.38305174e-13,7.411094275e-14,1.006685349e-12,4.81731578e-14,2.110482274e-13,2.851727469e-13,2.913686728e-13,2.19423433e-13,7.574117889e-13,4.745073451e-13,3.341301145e-13,8.952305936e-13,7.380313978e-14
0.59375,5.674593318e-13,1.005864176e-12,1.277550288e-12,7.469815292e-13,3.642517849e-13,2.264338333e-13,3.567995165e-13,1.321112311e-13,5.699655364e-13,2.076528151e-13,8.744835827e-13,1.504835821e-12,1.559463435e-12,1.659601197e-12,8.771905296e-13,8.674381182e-13,2.049654068e-12,1.146110204e-12,5.179833659e-13,1.348871786e-13,7.332365065e-14,9.899443331e-13,4.929215697e-14,1.995983782e-13,2.684780894e-13,2.786263669e-13,2.109252285e-13,7.291572297e-13,4.552031621e-13,3.182581219e-13,8.600417363e-13,7.365726576e-14
0.6015625,5.355188326e-13,9.718295566e-13,1.216821943e-12,7.222906963e-13,3.493165622e-13,2.172916422e-13,3.414509838e-13,1.241016583e-13,5.401720822e-13,2.02123475e-13,8.540703825e-13,1.43540503e-12,1.484599007e-12,1.573368583e-12,8.360856137e-13,8.210106736e-13,2.001446788e-12,1.08352046e-12,4.937054592e-13,1.316628163e-13,7.247212886e-14,9.718122485e-13,5.05930202e-14,1.884753765e-13,2.523797341e-13,2.657813356e-13,2.022830553e-13,7.00415892e-13,4.355654749e-13,3.024214437e-13,8.238771407e-13,7.336817927e-14
0.609375,5.040279349e-13,9.359961727e-13,1.156840072e-12,6.966774529e-13,3.341380455e-13,2.079186878e-13,3.262551719e-13,1.16387809e-13,5.109230567e-13,1.96356853e-13,8.321793156e-13,1.365859822e-12,1.409795735e-12,1.487662309e-12,7.949822076e-13,7.755235222e-13,1.950655317e-12,1.021651841e-12,4.692745284e-13,1.288110865e-13,7.153222011e-14,9.527056542e-13,5.206344307e-14,1.77607029e-13,2.36944953e-13,2.529467945e-13,1.936641394e-13,6.711859923e-13,4.159696032e-13,2.867220312e-13,7.871893262e-13,7.293584168e-14
0.6171875,4.732938743e-13,8.992727316e-13,1.097169992e-12,6.705658755e-13,3.189805782e-13,1.98514774e-13,3.110584207e-13,1.090106579e-13,4.823986077e-13,1.902257109e-13,8.090166416e-13,1.296900592e-12,1.336178868e-12,1.403285304e-12,7.543274551e-13,7.314359757e-13,1.898859879e-12,9.612065588e-13,4.45104945e-13,1.261647327e-13,7.040983576e-14,9.330196131e-13,5.370483843e-14,1.670038611e-13,2.221909945e-13,2.404142674e-13,1.849440937e-13,6.415584446e-13,3.966630427e-13,2.712105696e-13,7.504772924e-13,7.230395904e-14
0.625,4.439330929e-13,8.618877015e-13,1.038790483e-12,6.443425246e-13,3.038108832e-13,1.891648658e-13,2.964983814e-13,1.018939194e-13,4.549558033e-13,1.837535196e-13,7.848209924e-13,1.228807137e-12,1.264764805e-12,1.321453898e-12,7.148271778e-13,6.888615976e-13,1.844738404e-12,9.024131677e-13,4.213242675e-13,1.233995525e-13,6.92553682e-14,9.127080442e-13,5.548757886e-14,1.571056355e-13,2.082601806e-13,2.279681036e-13,1.760628574e-13,6.120334633e-13,3.775367103e-13,2.560018961e-13,7.137550752e-13,7.143187937e-14
0.6328125,4.158620765e-13,8.239121766e-13,9.822162301e-13,6.181212934e-13,2.888196625e-13,1.79816002e-13,2.826012705e-13,9.497570146e-14,4.283526117e-13,1.772078528e-13,7.598744146e-13,1.161379584e-12,1.194675488e-12,1.24172732e-12,6.764405531e-13,6.476012033e-13,1.787538591e-12,8.452881848e-13,3.980118989e-13,1.207866061e-13,6.819286082e-14,8.914038297e-13,5.731092378e-14,1.479805884e-13,1.950041457e-13,2.155031831e-13,1.67337263e-13,5.827775274e-13,3.586189953e-13,2.411028315e-13,6.77074651e-13,7.050852645e-14
0.640625,3.886763491e-13,7.855215627e-13,9.272243928e-13,5.924645924e-13,2.743105152e-13,1.706888586e-13,2.691273023e-13,8.832827944e-14,4.026106343e-13,1.705740923e-13,7.340280218e-13,1.094956704e-12,1.12564305e-12,1.164193784e-12,6.390760246e-13,6.077509152e-13,1.728142538e-12,7.901613891e-13,3.75310192e-13,1.185530956e-13,6.716831555e-14,8.693500831e-13,5.915210302e-14,1.392433669e-13,1.824287012e-13,2.033146235e-13,1.588239374e-13,5.53728901e-13,3.399570932e-13,2.265520944e-13,6.408537828e-13,6.963736774e-14
0.6484375,3.625770578e-13,7.474963954e-13,8.739389761e-13,5.677146136e-13,2.602257308e-13,1.619044889e-13,2.56106775e-13,8.204858958e-14,3.781778621e-13,1.637893326e-13,7.075524054e-13,1.030242126e-12,1.058965448e-12,1.089783795e-12,6.031529081e-13,5.697296247e-13,1.667752195e-12,7.374268436e-13,3.533191869e-13,1.166843151e-13,6.609094374e-14,8.470268107e-13,6.114043631e-14,1.308794841e-13,1.706158691e-13,1.915897695e-13,1.505950999e-13,5.251393949e-13,3.217607918e-13,2.124919392e-13,6.055329513e-13,6.87024327e-14
0.65625,3.377744056e-13,7.09964418e-13,8.223177972e-13,5.433481387e-13,2.462345573e-13,1.532766334e-13,2.435425347e-13,7.611195898e-14,3.551666944e-13,1.569210512e-13,6.809278045e-13,9.674976927e-13,9.950968647e-13,1.018256186e-12,5.685778987e-13,5.333965235e-13,1.606450756e-12,6.867003186e-13,3.319408226e-13,1.15092182e-13,6.500357146e-14,8.244842968e-13,6.329808908e-14,1.232664709e-13,1.594046222e-13,1.800969613e-13,1.426569434e-13,4.972286196e-13,3.040824243e-13,1.989149366e-13,5.708834568e-13,6.762804178e-14
0.6640625,3.140712115e-13,6.723879351e-13,7.717631875e-13,5.188825938e-13,2.323212913e-13,1.447095396e-13,2.312864311e-13,7.0457263e-14,3.331563085e-13,1.499879507e-13,6.54199154e-13,9.064058281e-13,9.330447326e-13,9.488262239e-13,5.347585585e-13,4.981677563e-13,1.543451631e-12,6.377120236e-13,3.112173786e-13,1.13778407e-13,6.39746985e-14,8.014437256e-13,6.555559088e-14,1.163907271e-13,1.487746066e-13,1.688085718e-13,1.347700436e-13,4.698492264e-13,2.867592801e-13,1.856847254e-13,5.36648986e-13,6.656428852e-14
0.671875,2.914370678e-13,6.35148302e-13,7.222290591e-13,4.946134913e-13,2.188261965e-13,1.361932627e-13,2.193428166e-13,6.513725225e-14,3.119320247e-13,1.430739217e-13,6.273977305e-13,8.468041403e-13,8.724374129e-13,8.816834127e-13,5.020287229e-13,4.643837604e-13,1.479421858e-12,5.91042024e-13,2.913796823e-13,1.129726243e-13,6.301502984e-14,7.777371719e-13,6.787476504e-14,1.099821658e-13,1.387800904e-13,1.580819207e-13,1.271265528e-13,4.428867036e-13,2.698178778e-13,1.728767956e-13,5.032723176e-13,6.563553083e-14
0.6796875,2.697211649e-13,5.988150416e-13,6.740832694e-13,4.712002096e-13,2.059838882e-13,1.278014919e-13,2.077410825e-13,6.02530427e-14,2.917951429e-13,1.362335192e-13,6.004231479e-13,7.890399773e-13,8.137918869e-13,8.172327594e-13,4.710327019e-13,4.326951299e-13,1.415655077e-12,5.467921191e-13,2.724332576e-13,1.127210986e-13,6.212161963e-14,7.534439845e-13,7.01997343e-14,1.039105336e-13,1.293057211e-13,1.480949429e-13,1.199714585e-13,4.163838359e-13,2.533676408e-13,1.60603982e-13,4.712104328e-13,6.487749683e-14
0.6875,2.49065593e-13,5.632822938e-13,6.28074207e-13,4.488580986e-13,1.93632243e-13,1.197461555e-13,1.965149833e-13,5.587868383e-14,2.732100291e-13,1.294141569e-13,5.733540939e-13,7.336562988e-13,7.577010094e-13,7.558258954e-13,4.417605914e-13,4.029469573e-13,1.352099562e-12,5.046866674e-13,2.543108579e-13,1.127434117e-13,6.121673101e-14,7.28888119e-13,7.25596433e-14,9.832166895e-14,1.204255062e-13,1.386103417e-13,1.131291029e-13,3.907828598e-13,2.375437718e-13,1.489977951e-13,4.403249587e-13,6.425305117e-14
0.6953125,2.297899177e-13,5.289080908e-13,5.840552161e-13,4.27405521e-13,1.816515437e-13,1.119878851e-13,1.855592173e-13,5.184033547e-14,2.55924597e-13,1.226703034e-13,5.468628336e-13,6.805768805e-13,7.042371587e-13,6.974254387e-13,4.139125905e-13,3.748413734e-13,1.288778999e-12,4.647412185e-13,2.371910168e-13,1.127688428e-13,6.018719574e-14,7.042290383e-13,7.509782883e-14,9.309927268e-14,1.121899341e-13,1.294131437e-13,1.065504228e-13,3.661508868e-13,2.224866176e-13,1.379882572e-13,4.103333815e-13,6.365628606e-14
0.703125,2.117239076e-13,4.956955876e-13,5.417214858e-13,4.070026692e-13,1.701200773e-13,1.043874046e-13,1.749363302e-13,4.815362715e-14,2.398667928e-13,1.160618158e-13,5.21004955e-13,6.300034308e-13,6.536492102e-13,6.422333858e-13,3.874106437e-13,3.481761088e-13,1.225910896e-12,4.269589133e-13,2.211935121e-13,1.128921666e-13,5.909879364e-14,6.796429367e-13,7.77364243e-14,8.821304946e-14,1.045304349e-13,1.205430917e-13,1.00250186e-13,3.422161051e-13,2.080267697e-13,1.27573635e-13,3.812647312e-13,6.302751866e-14
0.7109375,1.947528164e-13,4.637868273e-13,5.014124006e-13,3.878020588e-13,1.591657709e-13,9.713671849e-14,1.646925193e-13,4.485807859e-14,2.251748242e-13,1.096838793e-13,4.957838438e-13,5.82279275e-13,6.059358699e-13,5.902767606e-13,3.625659989e-13,3.231071172e-13,1.163646732e-12,3.916690856e-13,2.063489556e-13,1.133318101e-13,5.803902552e-14,6.551542755e-13,8.033343151e-14,8.372771206e-14,9.748206157e-14,1.122399094e-13,9.424516673e-14,3.192372129e-13,1.943217718e-13,1.178641699e-13,3.535861949e-13,6.258474667e-14
0.71875,1.792552783e-13,4.336600657e-13,4.634587801e-13,3.697284086e-13,1.48779691e-13,9.036844193e-14,1.548275188e-13,4.189465346e-14,2.119321492e-13,1.034853606e-13,4.714392891e-13,5.373136059e-13,5.612015427e-13,5.414952731e-13,3.39528118e-13,2.999615587e-13,1.102977369e-12,3.591090179e-13,1.925600002e-13,1.139949179e-13,5.696656772e-14,6.308668116e-13,8.292103444e-14,7.977037707e-14,9.103432237e-14,1.044461345e-13,8.858468733e-14,2.976236658e-13,1.815811351e-13,1.088688153e-13,3.274609701e-13,6.233996224e-14
0.7265625,1.651438381e-13,4.050227555e-13,4.275867023e-13,3.52783207e-13,1.388989091e-13,8.387576397e-14,1.453547177e-13,3.923843545e-14,2.000278884e-13,9.740058769e-14,4.478860064e-13,4.948878773e-13,5.194244258e-13,4.958684759e-13,3.178527723e-13,2.784505874e-13,1.044140953e-12,3.287022134e-13,1.797441509e-13,1.146192769e-13,5.587894661e-14,6.069880311e-13,8.55786799e-14,7.627257175e-14,8.510009401e-14,9.700561308e-14,8.317282306e-14,2.77131741e-13,1.696154539e-13,1.005060474e-13,3.026232161e-13,6.213926358e-14
0.734375,1.522483777e-13,3.774133995e-13,3.937837386e-13,3.369869041e-13,1.295335519e-13,7.764301149e-14,1.362638979e-13,3.691476617e-14,1.893918788e-13,9.157995541e-14,4.251890654e-13,4.552776176e-13,4.80595237e-13,4.533908923e-13,2.974700594e-13,2.583168197e-13,9.864468893e-13,3.002063683e-13,1.6802408e-13,1.152094555e-13,5.477051408e-14,5.834525033e-13,8.831342952e-14,7.299101472e-14,7.96495548e-14,8.997825091e-14,7.795345585e-14,2.576970955e-13,1.583402284e-13,9.282613706e-14,2.789929464e-13,6.203945753e-14
0.7421875,1.406647521e-13,3.510543767e-13,3.621910233e-13,3.222407737e-13,1.206117636e-13,7.184105847e-14,1.275573578e-13,3.493067578e-14,1.800145416e-13,8.60384296e-14,4.036314919e-13,4.184713059e-13,4.447536252e-13,4.138081312e-13,2.786411924e-13,2.39720765e-13,9.300204677e-13,2.738088465e-13,1.573736131e-13,1.157753798e-13,5.361655348e-14,5.601266985e-13,9.1027888e-14,7.003984302e-14,7.46422374e-14,8.329398737e-14,7.290042402e-14,2.395142674e-13,1.478121992e-13,8.579239967e-14,2.565583072e-13,6.203360901e-14
0.75,1.303010559e-13,3.262794415e-13,3.325109816e-13,3.085036786e-13,1.120559701e-13,6.643193666e-14,1.192807904e-13,3.326965773e-14,1.717697425e-13,8.070023667e-14,3.832881177e-13,3.840307822e-13,4.11623641e-13,3.768699067e-13,2.610792921e-13,2.22364807e-13,8.74804144e-13,2.495047324e-13,1.477304617e-13,1.163845325e-13,5.252629546e-14,5.37305e-13,9.360837133e-14,6.768025471e-14,7.007162435e-14,7.692701868e-14,6.800740652e-14,2.225052906e-13,1.381051954e-13,7.932805946e-14,2.354563004e-13,6.200256874e-14
0.7578125,1.211251275e-13,3.032835343e-13,3.04523265e-13,2.957862708e-13,1.040283213e-13,6.134373488e-14,1.114546191e-13,3.190063272e-14,1.645976138e-13,7.562592694e-14,3.639849953e-13,3.519813102e-13,3.811254096e-13,3.427911408e-13,2.446948051e-13,2.060346818e-13,8.2058352e-13,2.274109444e-13,1.391053622e-13,1.172996607e-13,5.155936678e-14,5.153723348e-13,9.608988244e-14,6.571922684e-14,6.592017632e-14,7.108428218e-14,6.342247043e-14,2.066053785e-13,1.292968162e-13,7.346893651e-14,2.159814622e-13,6.202365153e-14
0.765625,1.130262126e-13,2.819773348e-13,2.784452627e-13,2.8404414e-13,9.656448424e-14,5.660641106e-14,1.04097093e-13,3.081898924e-14,1.586261325e-13,7.078939718e-14,3.453263311e-13,3.225152091e-13,3.535858395e-13,3.118027663e-13,2.29814615e-13,1.911559856e-13,7.683525316e-13,2.072768486e-13,1.312275118e-13,1.182619927e-13,5.061030169e-14,4.943032141e-13,9.862330631e-14,6.394263461e-14,6.210903933e-14,6.569748959e-14,5.908117208e-14,1.917267952e-13,1.212369397e-13,6.819301965e-14,1.980256508e-13,6.217442892e-14
0.7734375,1.057423669e-13,2.620236996e-13,2.544099531e-13,2.732183444e-13,8.944943898e-14,5.221876065e-14,9.723296292e-14,3.000494884e-14,1.536837477e-13,6.622456177e-14,3.27407249e-13,2.954030379e-13,3.288119785e-13,2.835871288e-13,2.164276872e-13,1.77842316e-13,7.185097313e-13,1.885541483e-13,1.239645297e-13,1.18705584e-13,4.967648381e-14,4.738846434e-13,1.013404892e-13,6.239713318e-14,5.866889374e-14,6.056415693e-14,5.483446244e-14,1.778486852e-13,1.138520661e-13,6.344426501e-14,1.813676051e-13,6.232759662e-14
0.78125,9.92822536e-14,2.433199929e-13,2.319374532e-13,2.632883346e-13,8.269209717e-14,4.817787131e-14,9.069155371e-14,2.946872232e-14,1.495482912e-13,6.19682906e-14,3.105755687e-13,2.704868946e-13,3.063065484e-13,2.577295295e-13,2.041462903e-13,1.655825621e-13,6.707700945e-13,1.714212145e-13,1.175094237e-13,1.19004345e-13,4.877661464e-14,4.542394534e-13,1.041577104e-13,6.109178732e-14,5.548371046e-14,5.581373721e-14,5.08658373e-14,1.64999791e-13,1.071757491e-13,5.923914399e-14,1.65987652e-13,6.249424417e-14
0.7890625,9.364808938e-14,2.259225304e-13,2.109021502e-13,2.542523497e-13,7.647961274e-14,4.443572516e-14,8.443234351e-14,2.922342229e-14,1.462472599e-13,5.801805936e-14,2.946816284e-13,2.477634286e-13,2.859056952e-13,2.342459998e-13,1.929679001e-13,1.542071683e-13,6.250042009e-13,1.561899322e-13,1.118380104e-13,1.195767793e-13,4.791209835e-14,4.35233347e-13,1.068382921e-13,5.99842193e-14,5.254618143e-14,5.16303332e-14,4.725008107e-14,1.530906045e-13,1.011704827e-13,5.554803129e-14,1.518997437e-13,6.284207306e-14
0.796875,8.874373365e-14,2.100635096e-13,1.914446849e-13,2.462712621e-13,7.08224681e-14,4.095249253e-14,7.850177331e-14,2.917049528e-14,1.438761013e-13,5.443641481e-14,2.796878601e-13,2.272745966e-13,2.678313058e-13,2.131945356e-13,1.827317497e-13,1.438031928e-13,5.812681739e-13,1.425886202e-13,1.068939553e-13,1.201744212e-13,4.707518012e-14,4.167428324e-13,1.094021676e-13,5.895973662e-14,4.986739473e-14,4.794574097e-14,4.38660693e-14,1.420630424e-13,9.579006478e-14,5.240284818e-14,1.392183001e-13,6.337173347e-14
0.8046875,8.460793354e-14,1.9570278e-13,1.733374696e-13,2.393784982e-13,6.569096309e-14,3.783108134e-14,7.284268116e-14,2.925624323e-14,1.421748837e-13,5.121464102e-14,2.659167454e-13,2.088174329e-13,2.519526894e-13,1.943306986e-13,1.733112923e-13,1.342994084e-13,5.394157844e-13,1.302832427e-13,1.02644944e-13,1.204284857e-13,4.625797921e-14,3.991082412e-13,1.120415558e-13,5.795642852e-14,4.739722231e-14,4.461984093e-14,4.06976e-14,1.320154748e-13,9.101491259e-14,4.975356812e-14,1.279505077e-13,6.391698447e-14
0.8125,8.111374245e-14,1.822572351e-13,1.565035395e-13,2.331710191e-13,6.097708021e-14,3.504893186e-14,6.741974586e-14,2.957804574e-14,1.409671529e-13,4.823802879e-14,2.531894992e-13,1.921218554e-13,2.378960729e-13,1.774149741e-13,1.647925832e-13,1.25587417e-13,4.997401528e-13,1.190821188e-13,9.884545292e-14,1.203243561e-13,4.544605296e-14,3.825238973e-13,1.147568996e-13,5.713166062e-14,4.509758252e-14,4.160594071e-14,3.775339956e-14,1.227629589e-13,8.678664665e-14,4.750940363e-14,1.177876354e-13,6.451437801e-14
0.8203125,7.815105858e-14,1.693984558e-13,1.412520394e-13,2.27218076e-13,5.648645213e-14,3.236510408e-14,6.234600197e-14,3.012616074e-14,1.403299835e-13,4.551826927e-14,2.412467878e-13,1.771878235e-13,2.25449085e-13,1.623017213e-13,1.570442831e-13,1.176193194e-13,4.624658277e-13,1.087705705e-13,9.53454963e-14,1.200311877e-13,4.462182129e-14,3.666615453e-13,1.175252389e-13,5.647079985e-14,4.294446785e-14,3.893135196e-14,3.499121656e-14,1.140597539e-13,8.306773208e-14,4.567327347e-14,1.08531769e-13,6.528606716e-14
0.828125,7.577619686e-14,1.573846766e-13,1.27532797e-13,2.217263986e-13,5.229888359e-14,2.97526786e-14,5.761829897e-14,3.087314513e-14,1.40255064e-13,4.30649253e-14,2.302107595e-13,1.640360149e-13,2.145574878e-13,1.488070629e-13,1.497403378e-13,1.102109799e-13,4.272151021e-13,9.920947467e-14,9.225113669e-14,1.197913146e-13,4.377659732e-14,3.51313938e-13,1.20355675e-13,5.585425495e-14,4.090924344e-14,3.660888307e-14,3.23728083e-14,1.059951671e-13,7.98247861e-14,4.419129096e-14,1.002859104e-13,6.60646986e-14
0.8359375,7.393688268e-14,1.464515225e-13,1.150788969e-13,2.170719465e-13,4.85649368e-14,2.743083348e-14,5.310227006e-14,3.186195344e-14,1.405980888e-13,4.084408131e-14,2.201017099e-13,1.52371092e-13,2.051222438e-13,1.368687145e-13,1.428493618e-13,1.032800593e-13,3.939079256e-13,9.052323493e-14,8.967853729e-14,1.196877272e-13,4.291399797e-14,3.366523211e-13,1.231321026e-13,5.533275644e-14,3.904128012e-14,3.458395331e-14,2.99386839e-14,9.87602115e-14,7.702706993e-14,4.29986481e-14,9.308032366e-14,6.666259153e-14
0.84375,7.258102491e-14,1.365352299e-13,1.038711804e-13,2.12995269e-13,4.517934597e-14,2.544066682e-14,4.8868614e-14,3.300365457e-14,1.41143989e-13,3.891286604e-14,2.108556902e-13,1.418086979e-13,1.968815234e-13,1.264222967e-13,1.366862574e-13,9.705997456e-14,3.628673463e-13,8.285847968e-14,8.758108474e-14,1.194294957e-13,4.205491349e-14,3.226453162e-13,1.258520728e-13,5.487374085e-14,3.734386423e-14,3.281243754e-14,2.776326068e-14,9.235746455e-14,7.461466965e-14,4.204321566e-14,8.673351256e-14,6.715873894e-14
0.8515625,7.161164779e-14,1.27357179e-13,9.392585959e-14,2.091819515e-13,4.207080829e-14,2.363489145e-14,4.509799823e-14,3.426587943e-14,1.418263383e-13,3.734070325e-14,2.02334198e-13,1.32326334e-13,1.897310195e-13,1.172928035e-13,1.312311307e-13,9.153079228e-14,3.340264422e-13,7.603714432e-14,8.581602335e-14,1.187308765e-13,4.12447456e-14,3.090074884e-13,1.287356903e-13,5.443109811e-14,3.571204829e-14,3.132883317e-14,2.578778015e-14,8.654571768e-14,7.256668753e-14,4.126225479e-14,8.115038811e-14,6.763804831e-14
0.859375,7.092700758e-14,1.187620202e-13,8.520895775e-14,2.058482266e-13,3.926926884e-14,2.195364364e-14,4.175630556e-14,3.573876207e-14,1.428074937e-13,3.613686156e-14,1.943358589e-13,1.241363323e-13,1.838849447e-13,1.094626221e-13,1.259413972e-13,8.630899766e-14,3.071519783e-13,6.983589304e-14,8.435617119e-14,1.176753359e-13,4.047101485e-14,2.958856232e-13,1.319099511e-13,5.39878649e-14,3.408926707e-14,3.012540968e-14,2.390187587e-14,8.116910567e-14,7.098400416e-14,4.072647952e-14,7.637225569e-14,6.806936618e-14
0.8671875,7.064557635e-14,1.108935875e-13,7.757331452e-14,2.03136887e-13,3.671415085e-14,2.041866282e-14,3.869156536e-14,3.742940667e-14,1.441455347e-13,3.523589267e-14,1.869105014e-13,1.172092248e-13,1.794054868e-13,1.028857991e-13,1.205699528e-13,8.124613529e-14,2.821648971e-13,6.422197598e-14,8.322108982e-14,1.164779365e-13,3.967047662e-14,2.83546637e-13,1.352430474e-13,5.347470491e-14,3.251983894e-14,2.913977006e-14,2.212070669e-14,7.63410559e-14,6.980871335e-14,4.04602991e-14,7.236175841e-14,6.840696305e-14
0.875,7.075135954e-14,1.038136242e-13,7.072120797e-14,2.008313975e-13,3.440077527e-14,1.903396792e-14,3.58283938e-14,3.933351859e-14,1.457191163e-13,3.461991596e-14,1.800915868e-13,1.113773007e-13,1.759720571e-13,9.737316816e-14,1.153188028e-13,7.639873601e-14,2.588950328e-13,5.924705206e-14,8.236517569e-14,1.152337441e-13,3.885416172e-14,2.717137308e-13,1.385766291e-13,5.298448493e-14,3.110027673e-14,2.843178343e-14,2.057225857e-14,7.210605741e-14,6.88553321e-14,4.037246883e-14,6.9106553e-14,6.863722031e-14
0.8828125,7.105536526e-14,9.738714968e-14,6.454864107e-14,1.986126519e-13,3.240878061e-14,1.784151097e-14,3.316662703e-14,4.140646737e-14,1.472421492e-13,3.433138878e-14,1.737787324e-13,1.064379006e-13,1.730727313e-13,9.293219452e-14,1.103522335e-13,7.182155547e-14,2.372778638e-13,5.505671356e-14,8.177752265e-14,1.139630734e-13,3.803978977e-14,2.602727257e-13,1.419259415e-13,5.251693324e-14,2.983782475e-14,2.807482258e-14,1.932636757e-14,6.839512092e-14,6.813649122e-14,4.042729408e-14,6.65953177e-14,6.878284858e-14
0.890625,7.150376949e-14,9.151743706e-14,5.920122621e-14,1.961748636e-13,3.070399515e-14,1.686858608e-14,3.075874217e-14,4.357301651e-14,1.483999124e-13,3.426790754e-14,1.680040963e-13,1.020277928e-13,1.703500813e-13,8.953565555e-14,1.058387369e-13,6.766471242e-14,2.173559082e-13,5.162808282e-14,8.140770219e-14,1.126495773e-13,3.721383347e-14,2.494233315e-13,1.452853189e-13,5.192749214e-14,2.860893207e-14,2.797947078e-14,1.829249263e-14,6.514056588e-14,6.770499623e-14,4.052625651e-14,6.459152385e-14,6.884086151e-14
0.8984375,7.201808905e-14,8.619244681e-14,5.469758504e-14,1.935557481e-13,2.922046159e-14,1.604420266e-14,2.861428252e-14,4.582996947e-14,1.492344681e-13,3.435788356e-14,1.626580172e-13,9.800116644e-14,1.678398978e-13,8.691113446e-14,1.018215689e-13,6.395163387e-14,1.98967833e-13,4.865103619e-14,8.112099791e-14,1.112006026e-13,3.64158239e-14,2.389802797e-13,1.486111444e-13,5.125014099e-14,2.735255797e-14,2.805779916e-14,1.737954362e-14,6.221913063e-14,6.750591886e-14,4.0593073e-14,6.285335322e-14,6.884013123e-14
0.90625,7.245066856e-14,8.13236647e-14,5.081610097e-14,1.91049146e-13,2.797644001e-14,1.533437547e-14,2.665819513e-14,4.816792945e-14,1.498164179e-13,3.470461087e-14,1.574164313e-13,9.440068326e-14,1.655123316e-13,8.483567368e-14,9.804626461e-14,6.052209136e-14,1.821026249e-13,4.592809482e-14,8.077842473e-14,1.09493361e-13,3.562436312e-14,2.291386268e-13,1.520825414e-13,5.047159101e-14,2.610752355e-14,2.829647689e-14,1.65480015e-14,5.963145472e-14,6.742967215e-14,4.068358838e-14,6.130265521e-14,6.883733961e-14
0.9140625,7.268876037e-14,7.667766084e-14,4.738220017e-14,1.885683649e-13,2.693193608e-14,1.4735031e-14,2.48617252e-14,5.068718366e-14,1.500699396e-13,3.536878214e-14,1.52226274e-13,9.112704864e-14,1.631426536e-13,8.311593727e-14,9.436108467e-14,5.733847029e-14,1.669080633e-13,4.340158879e-14,8.028378993e-14,1.075277802e-13,3.476204378e-14,2.207294429e-13,1.558460357e-13,4.963582902e-14,2.492224552e-14,2.865540144e-14,1.576613426e-14,5.74538362e-14,6.734509677e-14,4.081170923e-14,5.99260713e-14,6.876908057e-14
0.921875,7.280150037e-14,7.224823301e-14,4.440993124e-14,1.858723477e-13,2.600481312e-14,1.415035218e-14,2.323013651e-14,5.341488674e-14,1.502499067e-13,3.634891515e-14,1.473443177e-13,8.828604139e-14,1.608786582e-13,8.168154682e-14,9.076847731e-14,5.441541958e-14,1.530910949e-13,4.102960097e-14,7.974887823e-14,1.054256209e-13,3.387053815e-14,2.13776681e-13,1.597512362e-13,4.890357099e-14,2.385105319e-14,2.910474819e-14,1.50872136e-14,5.5593418e-14,6.731179603e-14,4.102742344e-14,5.882061582e-14,6.861810562e-14
0.9296875,7.309078096e-14,6.828058724e-14,4.190938719e-14,1.831565381e-13,2.526237095e-14,1.357363407e-14,2.172781447e-14,5.6067787e-14,1.504635666e-13,3.758362282e-14,1.429124358e-13,8.603155875e-14,1.58945674e-13,8.078630287e-14,8.720596152e-14,5.163544217e-14,1.402228157e-13,3.893843109e-14,7.939420705e-14,1.033065985e-13,3.301630232e-14,2.075714317e-13,1.637044039e-13,4.813226241e-14,2.291918255e-14,2.968607312e-14,1.455327089e-14,5.400162039e-14,6.749399173e-14,4.136080209e-14,5.806239821e-14,6.849070542e-14
0.9375,7.357060976e-14,6.480075526e-14,3.984594033e-14,1.806903542e-13,2.480702402e-14,1.314285617e-14,2.034959386e-14,5.861432369e-14,1.502772216e-13,3.901396131e-14,1.388882981e-13,8.409222337e-14,1.571417563e-13,8.05623665e-14,8.372728253e-14,4.894132985e-14,1.283614477e-13,3.730161224e-14,7.924523543e-14,1.012573784e-13,3.21950918e-14,2.01807104e-13,1.677785579e-13,4.720265005e-14,2.211001378e-14,3.047314611e-14,1.415254884e-14,5.276321629e-14,6.782314844e-14,4.166677596e-14,5.752920846e-14,6.832247457e-14
0.9453125,7.395668986e-14,6.173893393e-14,3.820518316e-14,1.783320458e-13,2.457458192e-14,1.290657208e-14,1.910262506e-14,6.128618448e-14,1.493812838e-13,4.072783369e-14,1.352330214e-13,8.216972396e-14,1.551390073e-13,8.074025285e-14,8.047115118e-14,4.644246903e-14,1.177078063e-13,3.610359842e-14,7.920372859e-14,9.919990568e-14,3.139911052e-14,1.963346321e-13,1.719978358e-13,4.62028009e-14,2.138049946e-14,3.144581598e-14,1.388213037e-14,5.183630953e-14,6.810969871e-14,4.185421557e-14,5.705582468e-14,6.789473818e-14
0.953125,7.419812221e-14,5.905638338e-14,3.700569235e-14,1.758153296e-13,2.445105524e-14,1.281378381e-14,1.799132399e-14,6.404447791e-14,1.477684012e-13,4.275044753e-14,1.318687617e-13,8.028492075e-14,1.527981497e-13,8.11094445e-14,7.734591006e-14,4.413068298e-14,1.080905117e-13,3.519413992e-14,7.920862316e-14,9.691918411e-14,3.061807206e-14,1.909871281e-13,1.764032417e-13,4.517422411e-14,2.069162903e-14,3.249878775e-14,1.371343569e-14,5.108840531e-14,6.83312773e-14,4.194226887e-14,5.659685766e-14,6.706665517e-14
0.9609375,7.433861097e-14,5.659525488e-14,3.631247408e-14,1.731883069e-13,2.441670046e-14,1.280440314e-14,1.708440954e-14,6.684032376e-14,1.456406201e-13,4.498976091e-14,1.28738542e-13,7.860372766e-14,1.503560352e-13,8.181555037e-14,7.413602557e-14,4.180784192e-14,9.926163603e-14,3.451662654e-14,7.926866078e-14,9.444487222e-14,2.986511805e-14,1.859106472e-13,1.810426219e-13,4.429344961e-14,2.005435884e-14,3.364507897e-14,1.366143031e-14,5.045924813e-14,6.861054598e-14,4.195226887e-14,5.619259868e-14,6.591758756e-14
0.96875,7.444893316e-14,5.431476168e-14,3.602211516e-14,1.706820103e-13,2.448170009e-14,1.28291493e-14,1.639582289e-14,6.968120645e-14,1.433700728e-13,4.741799763e-14,1.259664069e-13,7.714250407e-14,1.481351981e-13,8.295993118e-14,7.088489127e-14,3.948966936e-14,9.131241801e-14,3.414371116e-14,7.943652685e-14,9.195245257e-14,2.915917464e-14,1.81101023e-13,1.858322895e-13,4.356808718e-14,1.945502869e-14,3.495059483e-14,1.36957486e-14,4.995763949e-14,6.898202424e-14,4.192212485e-14,5.584034527e-14,6.477956307e-14
0.9765625,7.467511329e-14,5.219234889e-14,3.58987863e-14,1.683250672e-13,2.466190325e-14,1.29072338e-14,1.582422987e-14,7.244191808e-14,1.4103099e-13,5.002735712e-14,1.235427857e-13,7.568487999e-14,1.459722634e-13,8.426536796e-14,6.780567686e-14,3.743147062e-14,8.427844206e-14,3.403206807e-14,7.968566713e-14,8.940957585e-14,2.845329978e-14,1.76321729e-13,1.907030549e-13,4.271115679e-14,1.884908991e-14,3.635392274e-14,1.369971381e-14,4.964010194e-14,6.934701307e-14,4.183710573e-14,5.549329464e-14,6.381796414e-14
0.984375,7.486534684e-14,5.006687006e-14,3.596922426e-14,1.660234587e-13,2.500344163e-14,1.304398356e-14,1.532810987e-14,7.52225814e-14,1.384512567e-13,5.288605812e-14,1.210424544e-13,7.420001371e-14,1.436266769e-13,8.55164807e-14,6.484921646e-14,3.562050597e-14,7.782318987e-14,3.408095542e-14,7.993458648e-14,8.68157672e-14,2.771025268e-14,1.717163246e-13,1.956460146e-13,4.182036763e-14,1.82578997e-14,3.779636411e-14,1.372358924e-14,4.95387392e-14,6.964658606e-14,4.167622004e-14,5.5144284e-14,6.278665585e-14
0.9921875,7.4806091e-14,4.804437283e-14,3.636666854e-14,1.637367098e-13,2.548320164e-14,1.319189051e-14,1.493851617e-14,7.82032684e-14,1.35560084e-13,5.612411948e-14,1.180270842e-13,7.283582845e-14,1.411492579e-13,8.680155989e-14,6.184576033e-14,3.385082848e-14,7.181685589e-14,3.43183694e-14,8.009864807e-14,8.424322707e-14,2.692691593e-14,1.674302291e-13,2.005095408e-13,4.113877755e-14,1.770156399e-14,3.927976218e-14,1.387698361e-14,4.962624437e-14,6.983778391e-14,4.146274638e-14,5.474227368e-14,6.150879236e-14
1,7.45919055e-14,4.635171555e-14,3.702918272e-14,1.613640576e-13,2.601123443e-14,1.338548657e-14,1.465725815e-14,8.115228894e-14,1.322676051e-13,5.967900168e-14,1.146455079e-13,7.148292501e-14,1.384841598e-13,8.804120392e-14,5.89211954e-14,3.222719978e-14,6.650074136e-14,3.468654037e-14,8.008017246e-14,8.156152405e-14,2.610842331e-14,1.63083844e-13,2.052124545e-13,4.053808766e-14,1.714683278e-14,4.076546918e-14,1.416324922e-14,4.986788554e-14,6.987490488e-14,4.115455983e-14,5.41920569e-14,6.009697164e-14
1.0078125,7.427424757e-14,4.492865863e-14,3.790791777e-14,1.588928771e-13,2.661196433e-14,1.365839075e-14,1.448868866e-14,8.376442756e-14,1.286037166e-13,6.336056956e-14,1.114845908e-13,7.001075347e-14,1.356107062e-13,8.907068278e-14,5.626094535e-14,3.09489736e-14,6.191129228e-14,3.507279883e-14,7.993663015e-14,7.878224352e-14,2.534386228e-14,1.584218632e-13,2.10050666e-13,3.989464244e-14,1.658364974e-14,4.223756694e-14,1.45744108e-14,5.017998992e-14,6.981187808e-14,4.070762248e-14,5.345468248e-14,5.867771669e-14
1.015625,7.380977754e-14,4.366174186e-14,3.905416462e-14,1.564706322e-13,2.739059512e-14,1.39523e-14,1.442810484e-14,8.619236563e-14,1.248958113e-13,6.711298949e-14,1.086730696e-13,6.8515905e-14,1.327328238e-13,9.002540093e-14,5.377144192e-14,2.989063705e-14,5.791559591e-14,3.555519557e-14,7.983063284e-14,7.628321469e-14,2.470908028e-14,1.538088251e-13,2.151972908e-13,3.933456778e-14,1.603619121e-14,4.372535069e-14,1.500831453e-14,5.045618853e-14,6.966722685e-14,4.019368987e-14,5.249912078e-14,5.736389698e-14
1.0234375,7.329109647e-14,4.256000116e-14,4.041649703e-14,1.540779653e-13,2.831906963e-14,1.425810301e-14,1.443121189e-14,8.86842221e-14,1.213534861e-13,7.099725885e-14,1.058714552e-13,6.712444575e-14,1.299278812e-13,9.102964092e-14,5.126131011e-14,2.885371196e-14,5.448594191e-14,3.618734809e-14,7.979072054e-14,7.427131708e-14,2.413401159e-14,1.497662098e-13,2.202445323e-13,3.899410869e-14,1.55278385e-14,4.519022174e-14,1.536361876e-14,5.075337511e-14,6.940555692e-14,3.971214025e-14,5.136495244e-14,5.623938432e-14
1.03125,7.278875543e-14,4.164391892e-14,4.188749458e-14,1.516817817e-13,2.926748108e-14,1.462134164e-14,1.450842773e-14,9.105400763e-14,1.178107957e-13,7.502223513e-14,1.031147452e-13,6.589875244e-14,1.271972366e-13,9.209628366e-14,4.865172583e-14,2.779549108e-14,5.149112956e-14,3.689854521e-14,7.981408327e-14,7.250484147e-14,2.354293337e-14,1.464636991e-13,2.248122515e-13,3.880323703e-14,1.506170276e-14,4.659154066e-14,1.569712837e-14,5.127418344e-14,6.91069129e-14,3.924405166e-14,5.022432223e-14,5.51638753e-14
1.0390625,7.227079243e-14,4.090180214e-14,4.353642184e-14,1.494592048e-13,3.021568104e-14,1.50704419e-14,1.471014471e-14,9.320064999e-14,1.141208399e-13,7.91856542e-14,1.005708908e-13,6.474492742e-14,1.24538673e-13,9.326670319e-14,4.600397878e-14,2.671065005e-14,4.87381842e-14,3.772754942e-14,7.991119793e-14,7.069945092e-14,2.29556213e-14,1.437522075e-13,2.290314017e-13,3.867822511e-14,1.462938073e-14,4.802719981e-14,1.604522985e-14,5.214572527e-14,6.886228948e-14,3.872898296e-14,4.916945833e-14,5.399755123e-14
1.046875,7.169737664e-14,4.032206429e-14,4.538410638e-14,1.473731022e-13,3.1237737e-14,1.561359796e-14,1.498166414e-14,9.538914756e-14,1.103930795e-13,8.355583165e-14,9.811702129e-14,6.352161568e-14,1.217414401e-13,9.425264679e-14,4.348604934e-14,2.565407405e-14,4.623002163e-14,3.87619282e-14,7.99666051e-14,6.887011918e-14,2.24137669e-14,1.415449551e-13,2.330757587e-13,3.871803953e-14,1.423090939e-14,4.954554142e-14,1.640988156e-14,5.333364935e-14,6.865400006e-14,3.824969621e-14,4.814935957e-14,5.292198791e-14
1.0546875,7.102504079e-14,3.991543534e-14,4.722141729e-14,1.451404834e-13,3.228976636e-14,1.617046781e-14,1.522954125e-14,9.75269063e-14,1.066754279e-13,8.811356762e-14,9.568512025e-14,6.232327494e-14,1.187097404e-13,9.468295198e-14,4.121938366e-14,2.467395203e-14,4.404952862e-14,3.999704153e-14,7.991358285e-14,6.710073574e-14,2.192911023e-14,1.399215994e-13,2.36857316e-13,3.88869929e-14,1.387440715e-14,5.098638836e-14,1.686410384e-14,5.472256346e-14,6.843467495e-14,3.787292497e-14,4.717104983e-14,5.203885293e-14
1.0625,7.029412479e-14,3.960513921e-14,4.909331533e-14,1.426845931e-13,3.327235513e-14,1.665239026e-14,1.547621033e-14,9.939964047e-14,1.029232434e-13,9.277760409e-14,9.309439347e-14,6.130158039e-14,1.156900006e-13,9.485141675e-14,3.918344087e-14,2.37374479e-14,4.217944101e-14,4.143339431e-14,7.98794028e-14,6.530721745e-14,2.14632956e-14,1.38898869e-13,2.402692624e-13,3.908751137e-14,1.357197784e-14,5.23198404e-14,1.74268429e-14,5.619481148e-14,6.817977624e-14,3.753123005e-14,4.629489772e-14,5.110013798e-14
1.0703125,6.964923508e-14,3.929159921e-14,5.120279313e-14,1.401368136e-13,3.42380896e-14,1.712092736e-14,1.578560811e-14,1.012422189e-13,9.919448924e-14,9.755118179e-14,9.019318283e-14,6.040192327e-14,1.127795416e-13,9.527740068e-14,3.728383054e-14,2.291833647e-14,4.049630026e-14,4.309602246e-14,7.995006166e-14,6.348677311e-14,2.097627764e-14,1.38385561e-13,2.43341957e-13,3.940913284e-14,1.330583248e-14,5.372957236e-14,1.798354918e-14,5.764892574e-14,6.788417049e-14,3.725281451e-14,4.547050189e-14,5.003898631e-14
1.078125,6.913165113e-14,3.905213693e-14,5.338544707e-14,1.377252885e-13,3.525712077e-14,1.769775202e-14,1.618925669e-14,1.031068185e-13,9.550932112e-14,1.023863005e-13,8.745421003e-14,5.953876519e-14,1.098851615e-13,9.597660771e-14,3.542382389e-14,2.226818267e-14,3.890556003e-14,4.496309344e-14,8.004119281e-14,6.175359314e-14,2.049254084e-14,1.382958327e-13,2.462039164e-13,3.979833352e-14,1.30351451e-14,5.520815088e-14,1.846860077e-14,5.910817256e-14,6.754528137e-14,3.71025241e-14,4.466937906e-14,4.906781978e-14
1.0859375,6.872104314e-14,3.89710929e-14,5.552685709e-14,1.357314208e-13,3.630539525e-14,1.843648494e-14,1.672742203e-14,1.047605629e-13,9.192455643e-14,1.072495152e-13,8.526947374e-14,5.880605811e-14,1.071976947e-13,9.684171833e-14,3.358551707e-14,2.167170155e-14,3.747035869e-14,4.704294669e-14,8.0111317e-14,6.009123945e-14,2.004628663e-14,1.386831965e-13,2.488817553e-13,4.019107103e-14,1.27538586e-14,5.663421076e-14,1.899002457e-14,6.078140389e-14,6.723109824e-14,3.704805326e-14,4.404686418e-14,4.824090812e-14
1.09375,6.856297437e-14,3.903607464e-14,5.775438616e-14,1.341871636e-13,3.739281074e-14,1.928444406e-14,1.737669743e-14,1.062274255e-13,8.856208739e-14,1.122349347e-13,8.343549216e-14,5.831090784e-14,1.04886644e-13,9.793300581e-14,3.184967225e-14,2.113068303e-14,3.62616593e-14,4.944153286e-14,8.026719208e-14,5.842896562e-14,1.962990475e-14,1.396772034e-13,2.51162805e-13,4.074126423e-14,1.247550669e-14,5.803113743e-14,1.960570761e-14,6.276353547e-14,6.71003977e-14,3.712454364e-14,4.368075005e-14,4.751114658e-14
1.1015625,6.871018829e-14,3.923518877e-14,5.998592953e-14,1.328370881e-13,3.853313397e-14,2.015789354e-14,1.802881986e-14,1.076187619e-13,8.532228627e-14,1.173204298e-13,8.181719288e-14,5.794788915e-14,1.026955838e-13,9.914507779e-14,3.027145841e-14,2.075073074e-14,3.52810526e-14,5.218408509e-14,8.053649916e-14,5.674710661e-14,1.923118234e-14,1.412137254e-13,2.528628372e-13,4.141282478e-14,1.222713604e-14,5.93747376e-14,2.025912517e-14,6.487136707e-14,6.716868556e-14,3.735730959e-14,4.344007949e-14,4.686320252e-14
1.109375,6.900426026e-14,3.945765321e-14,6.208957985e-14,1.315220627e-13,3.972759797e-14,2.110562491e-14,1.862406971e-14,1.089650338e-13,8.207773475e-14,1.224430305e-13,8.041192448e-14,5.761082572e-14,1.004664879e-13,1.003305324e-13,2.886554379e-14,2.056278813e-14,3.449410923e-14,5.514577403e-14,8.085807727e-14,5.511495758e-14,1.885274829e-14,1.43138314e-13,2.540478825e-13,4.21208004e-14,1.203465204e-14,6.059193172e-14,2.094267795e-14,6.70179875e-14,6.730028029e-14,3.767087681e-14,4.328336175e-14,4.62349193e-14
1.1171875,6.950172912e-14,3.963630016e-14,6.401705404e-14,1.303345649e-13,4.102524363e-14,2.22094567e-14,1.919452722e-14,1.102784465e-13,7.886931172e-14,1.27678263e-13,7.918980876e-14,5.737422208e-14,9.839564651e-14,1.016846564e-13,2.766710229e-14,2.060692325e-14,3.376941211e-14,5.835357015e-14,8.134791305e-14,5.371664231e-14,1.851286017e-14,1.454683174e-13,2.548517484e-13,4.2990874e-14,1.186777936e-14,6.173735673e-14,2.160481104e-14,6.932611295e-14,6.747614233e-14,3.807126496e-14,4.328369986e-14,4.562167971e-14
1.125,7.03348325e-14,3.990987794e-14,6.572064666e-14,1.293549173e-13,4.241005957e-14,2.343236529e-14,1.982275999e-14,1.115002064e-13,7.578780535e-14,1.329787651e-13,7.826573675e-14,5.728183082e-14,9.658214555e-14,1.034654248e-13,2.666492342e-14,2.086050788e-14,3.307987161e-14,6.197621904e-14,8.208775486e-14,5.255676854e-14,1.822121058e-14,1.48364858e-13,2.552570637e-13,4.397650241e-14,1.170487688e-14,6.283424737e-14,2.220910579e-14,7.173557337e-14,6.77220076e-14,3.859582868e-14,4.339399259e-14,4.508909199e-14
1.1328125,7.138712557e-14,4.026979002e-14,6.735959758e-14,1.284217564e-13,4.377918736e-14,2.475099473e-14,2.054236384e-14,1.124870296e-13,7.301792545e-14,1.381876054e-13,7.761370106e-14,5.73698192e-14,9.49893146e-14,1.055094195e-13,2.583254583e-14,2.120592281e-14,3.250581335e-14,6.591857889e-14,8.284774007e-14,5.139617932e-14,1.792535422e-14,1.521032077e-13,2.550385135e-13,4.49133218e-14,1.15593953e-14,6.379352249e-14,2.288736394e-14,7.403233343e-14,6.799698544e-14,3.924182753e-14,4.358457146e-14,4.466366385e-14
1.140625,7.265252842e-14,4.057275892e-14,6.911308785e-14,1.274461862e-13,4.506576594e-14,2.620457922e-14,2.129057732e-14,1.130622659e-13,7.059300635e-14,1.433158665e-13,7.702327047e-14,5.777132104e-14,9.36498253e-14,1.075854587e-13,2.519249926e-14,2.159256132e-14,3.191517817e-14,7.003645218e-14,8.350389873e-14,5.011677817e-14,1.756966729e-14,1.568728088e-13,2.540095383e-13,4.582508668e-14,1.14211907e-14,6.462250647e-14,2.368022083e-14,7.626474581e-14,6.836070643e-14,4.0060989e-14,4.403760414e-14,4.431122238e-14
1.1484375,7.419745146e-14,4.091418393e-14,7.093458851e-14,1.267357845e-13,4.631714747e-14,2.781373397e-14,2.208459575e-14,1.133238427e-13,6.830404328e-14,1.484130274e-13,7.6510853e-14,5.846232203e-14,9.256345753e-14,1.098845577e-13,2.471679007e-14,2.203391009e-14,3.12360483e-14,7.454808203e-14,8.425385782e-14,4.886026667e-14,1.722192045e-14,1.625066517e-13,2.523271755e-13,4.676471454e-14,1.130840094e-14,6.545779227e-14,2.444986667e-14,7.86459824e-14,6.885736496e-14,4.105740034e-14,4.486615609e-14,4.398724411e-14
1.15625,7.589987885e-14,4.140584658e-14,7.276425523e-14,1.264163153e-13,4.763622132e-14,2.954367684e-14,2.299698911e-14,1.135878189e-13,6.616825295e-14,1.534811487e-13,7.628735154e-14,5.931052823e-14,9.169977528e-14,1.12479776e-13,2.438282117e-14,2.260852867e-14,3.066303685e-14,7.961202754e-14,8.517560001e-14,4.787268572e-14,1.697873121e-14,1.688533791e-13,2.502083564e-13,4.777720242e-14,1.124836677e-14,6.630070615e-14,2.514281874e-14,8.124135333e-14,6.938606198e-14,4.222392299e-14,4.588892084e-14,4.379536732e-14
1.1640625,7.784737104e-14,4.20013007e-14,7.4571474e-14,1.260649718e-13,4.894064893e-14,3.13090955e-14,2.3927833e-14,1.137872748e-13,6.428624107e-14,1.586508345e-13,7.6456332e-14,6.03551455e-14,9.103406553e-14,1.150932801e-13,2.426067822e-14,2.340282162e-14,3.024961521e-14,8.509444429e-14,8.611734347e-14,4.713517292e-14,1.677996247e-14,1.761186766e-13,2.476044875e-13,4.900179339e-14,1.120933121e-14,6.698835869e-14,2.580615034e-14,8.407747593e-14,7.000525703e-14,4.367437937e-14,4.698976698e-14,4.38437068e-14
1.171875,8.017358974e-14,4.272241565e-14,7.630004726e-14,1.25465569e-13,5.003277696e-14,3.30969354e-14,2.476990573e-14,1.136645799e-13,6.250573361e-14,1.640177057e-13,7.691570765e-14,6.16219076e-14,9.045047466e-14,1.177515915e-13,2.436793476e-14,2.438811638e-14,2.995709205e-14,9.096000119e-14,8.699296455e-14,4.631649954e-14,1.652838226e-14,1.843700492e-13,2.444298365e-13,5.042062866e-14,1.118235239e-14,6.750646706e-14,2.645537987e-14,8.719263748e-14,7.085510192e-14,4.540491326e-14,4.83539054e-14,4.396846958e-14
1.1796875,8.26122234e-14,4.350669602e-14,7.79092405e-14,1.247414126e-13,5.088824294e-14,3.492123118e-14,2.558871147e-14,1.133085046e-13,6.078876726e-14,1.694637837e-13,7.756859341e-14,6.301975721e-14,8.988265805e-14,1.205272685e-13,2.465595623e-14,2.553909086e-14,2.980689829e-14,9.714246638e-14,8.782028598e-14,4.53411862e-14,1.626298416e-14,1.932673771e-13,2.407084987e-13,5.180871219e-14,1.119062163e-14,6.794043397e-14,2.710447094e-14,9.05031884e-14,7.180442259e-14,4.72947275e-14,5.008557011e-14,4.404440321e-14
1.1875,8.509417901e-14,4.418574697e-14,7.93248101e-14,1.238421883e-13,5.15570999e-14,3.67465004e-14,2.64242347e-14,1.128815299e-13,5.926450539e-14,1.749134393e-13,7.858846336e-14,6.458216927e-14,8.94313036e-14,1.232218345e-13,2.511967646e-14,2.688036546e-14,2.973951802e-14,1.03502036e-13,8.862641345e-14,4.441493593e-14,1.604799038e-14,2.027430051e-13,2.365048754e-13,5.317145313e-14,1.123516047e-14,6.825055213e-14,2.782390836e-14,9.398291179e-14,7.276988127e-14,4.940901547e-14,5.208158403e-14,4.421611355e-14
1.1953125,8.791973719e-14,4.484784627e-14,8.046696176e-14,1.229297252e-13,5.212856774e-14,3.868091026e-14,2.722675297e-14,1.1239282e-13,5.784123698e-14,1.803519778e-13,8.021210762e-14,6.635441557e-14,8.912154052e-14,1.260448797e-13,2.579512422e-14,2.842736323e-14,2.979138268e-14,1.103006745e-13,8.95201578e-14,4.356611339e-14,1.587808961e-14,2.131986061e-13,2.318645441e-13,5.465153507e-14,1.132925684e-14,6.846845336e-14,2.863413797e-14,9.778172188e-14,7.392466401e-14,5.182231104e-14,5.439034829e-14,4.457569756e-14
1.203125,9.113343995e-14,4.565614098e-14,8.130259517e-14,1.223160255e-13,5.275025288e-14,4.085652512e-14,2.796227584e-14,1.119061576e-13,5.636978963e-14,1.8565676e-13,8.23592163e-14,6.828568821e-14,8.888458767e-14,1.293919763e-13,2.677117117e-14,3.025117957e-14,3.004101207e-14,1.179141137e-13,9.068327142e-14,4.276000417e-14,1.572743227e-14,2.247833531e-13,2.267210221e-13,5.613930029e-14,1.149488245e-14,6.87328297e-14,2.942980704e-14,1.019795799e-13,7.530394269e-14,5.445160333e-14,5.717300044e-14,4.506513272e-14
1.2109375,9.471215607e-14,4.657865091e-14,8.179631155e-14,1.217818416e-13,5.337558308e-14,4.322805391e-14,2.86048452e-14,1.115115215e-13,5.490679349e-14,1.908829687e-13,8.474179654e-14,7.046443687e-14,8.881756871e-14,1.332702037e-13,2.811413418e-14,3.244548829e-14,3.044335479e-14,1.26361567e-13,9.21246838e-14,4.203573879e-14,1.556689601e-14,2.374354476e-13,2.211052104e-13,5.764756626e-14,1.175260765e-14,6.903839642e-14,3.013178672e-14,1.065157761e-13,7.685157327e-14,5.727470287e-14,6.043140166e-14,4.56218279e-14
1.21875,9.877860165e-14,4.760540836e-14,8.198616484e-14,1.212046458e-13,5.3921903e-14,4.578815578e-14,2.91559618e-14,1.111523683e-13,5.34903818e-14,1.963214088e-13,8.728826272e-14,7.298311093e-14,8.904762925e-14,1.376574063e-13,2.972976487e-14,3.504134828e-14,3.103687632e-14,1.355199172e-13,9.366494562e-14,4.135934809e-14,1.53878954e-14,2.51375026e-13,2.152954566e-13,5.936425839e-14,1.20998086e-14,6.928661524e-14,3.079521907e-14,1.113003101e-13,7.867380399e-14,6.031752968e-14,6.41188331e-14,4.620553193e-14
1.2265625,1.033592175e-13,4.882073702e-14,8.206950588e-14,1.209531942e-13,5.446974402e-14,4.856456343e-14,2.969876324e-14,1.108000115e-13,5.215068331e-14,2.020764145e-13,9.01840858e-14,7.581657286e-14,8.954398711e-14,1.426033442e-13,3.152070948e-14,3.800371148e-14,3.183875145e-14,1.452901719e-13,9.528574541e-14,4.068158863e-14,1.521043083e-14,2.668797523e-13,2.094559362e-13,6.109083638e-14,1.248257905e-14,6.945553065e-14,3.154247628e-14,1.162797056e-13,8.085527551e-14,6.361134241e-14,6.832845514e-14,4.688328916e-14
1.234375,1.085646085e-13,5.027509809e-14,8.221508232e-14,1.210744542e-13,5.501419589e-14,5.154068851e-14,3.033166758e-14,1.107327125e-13,5.108696909e-14,2.080764065e-13,9.350733562e-14,7.909025379e-14,9.034592795e-14,1.482511128e-13,3.358426047e-14,4.133339175e-14,3.282826602e-14,1.557963801e-13,9.717206124e-14,4.004922369e-14,1.505585697e-14,2.841972722e-13,2.035229834e-13,6.264629304e-14,1.290833074e-14,6.964442385e-14,3.243172765e-14,1.215628207e-13,8.338525853e-14,6.729375809e-14,7.322737823e-14,4.781541583e-14
1.2421875,1.144778192e-13,5.19020632e-14,8.24129992e-14,1.213857469e-13,5.559603829e-14,5.472152535e-14,3.102484513e-14,1.111617743e-13,5.030483323e-14,2.142940262e-13,9.721921693e-14,8.288241348e-14,9.157813799e-14,1.548011348e-13,3.597341214e-14,4.512359954e-14,3.409743956e-14,1.672799044e-13,9.940072999e-14,3.959556526e-14,1.494997668e-14,3.035622295e-13,1.974395389e-13,6.430058357e-14,1.344130865e-14,6.997359322e-14,3.340115458e-14,1.273016813e-13,8.625274144e-14,7.144068349e-14,7.883058725e-14,4.9007172e-14
1.25,1.209714333e-13,5.360312313e-14,8.255527984e-14,1.219179679e-13,5.641269445e-14,5.800807816e-14,3.164408594e-14,1.117554515e-13,4.950911513e-14,2.2065001e-13,1.013630476e-13,8.701106708e-14,9.319364375e-14,1.620731841e-13,3.852371444e-14,4.933108697e-14,3.55238247e-14,1.795143543e-13,1.018611e-13,3.933745081e-14,1.487789635e-14,3.250337956e-13,1.912374938e-13,6.616234992e-14,1.407142993e-14,7.040295723e-14,3.441999045e-14,1.334463628e-13,8.947084362e-14,7.592137312e-14,8.498954007e-14,5.026452123e-14
1.2578125,1.280373862e-13,5.543544146e-14,8.252073002e-14,1.226282949e-13,5.740154479e-14,6.134982283e-14,3.218430828e-14,1.121421505e-13,4.8596297e-14,2.270731297e-13,1.059059398e-13,9.137751352e-14,9.504900238e-14,1.699360174e-13,4.117870623e-14,5.389605044e-14,3.698601898e-14,1.921622524e-13,1.043632824e-13,3.903416374e-14,1.476221636e-14,3.486912022e-13,1.850701259e-13,6.803522269e-14,1.480421651e-14,7.077476459e-14,3.553792795e-14,1.399276585e-13,9.302524781e-14,8.054779079e-14,9.163220547e-14,5.147129287e-14
1.265625,1.355969193e-13,5.738812838e-14,8.233250367e-14,1.234226113e-13,5.832083945e-14,6.481985681e-14,3.276834198e-14,1.124325124e-13,4.766234173e-14,2.336138865e-13,1.107984661e-13,9.593903052e-14,9.705384115e-14,1.784481468e-13,4.401815225e-14,5.901782713e-14,3.87062475e-14,2.053210416e-13,1.068001538e-13,3.852791454e-14,1.457015083e-14,3.745234809e-13,1.79057891e-13,6.986664209e-14,1.565472992e-14,7.097572012e-14,3.669820812e-14,1.467613096e-13,9.674540898e-14,8.526929704e-14,9.872276669e-14,5.270353873e-14
1.2734375,1.435130874e-13,5.932701784e-14,8.220573265e-14,1.243163438e-13,5.921667168e-14,6.832796227e-14,3.341535928e-14,1.128623129e-13,4.676261145e-14,2.402327583e-13,1.162026719e-13,1.006253766e-13,9.922796368e-14,1.874047952e-13,4.700270179e-14,6.468087281e-14,4.070978083e-14,2.191789395e-13,1.093124223e-13,3.79620218e-14,1.436117996e-14,4.023910507e-13,1.731165049e-13,7.17101884e-14,1.653219195e-14,7.106485741e-14,3.781275333e-14,1.539357972e-13,1.005897769e-13,9.022818875e-14,1.062407366e-13,5.410453235e-14
1.28125,1.520528587e-13,6.135960136e-14,8.218436606e-14,1.253825728e-13,6.030895595e-14,7.186276713e-14,3.409497367e-14,1.135488643e-13,4.599645271e-14,2.468032333e-13,1.221546415e-13,1.056085319e-13,1.017857913e-13,1.970655565e-13,5.020034332e-14,7.068145249e-14,4.292131542e-14,2.339273432e-13,1.12090507e-13,3.748351492e-14,1.418622408e-14,4.324311259e-13,1.671888208e-13,7.361075568e-14,1.742528856e-14,7.127510452e-14,3.896641385e-14,1.616103088e-13,1.048186285e-13,9.552775939e-14,1.143710483e-13,5.581059996e-14
1.2890625,1.613183416e-13,6.353798568e-14,8.209918212e-14,1.26632559e-13,6.160821016e-14,7.554310621e-14,3.482591632e-14,1.145850869e-13,4.538684097e-14,2.533499771e-13,1.283968484e-13,1.110385087e-13,1.048225598e-13,2.078182071e-13,5.370487359e-14,7.720407442e-14,4.544824781e-14,2.495682509e-13,1.151028961e-13,3.707399359e-14,1.402373804e-14,4.647187044e-13,1.613515499e-13,7.563874827e-14,1.840784455e-14,7.172945726e-14,4.023608585e-14,1.699448286e-13,1.094524386e-13,1.010736175e-13,1.232020445e-13,5.781919462e-14
1.296875,1.709915119e-13,6.56688473e-14,8.203753205e-14,1.279053524e-13,6.301555005e-14,7.927450731e-14,3.556593431e-14,1.159155326e-13,4.48175661e-14,2.598951665e-13,1.348269771e-13,1.168520694e-13,1.081396723e-13,2.192164035e-13,5.731698865e-14,8.437071131e-14,4.80827563e-14,2.657413249e-13,1.182637744e-13,3.668336547e-14,1.384494485e-14,4.992189106e-13,1.556180332e-13,7.770193849e-14,1.943201402e-14,7.237443645e-14,4.154446862e-14,1.787327817e-13,1.143363471e-13,1.068032056e-13,1.325955093e-13,5.999522119e-14
1.3046875,1.810575348e-13,6.774462978e-14,8.224275089e-14,1.29227896e-13,6.46269089e-14,8.303040336e-14,3.632032655e-14,1.173847893e-13,4.427878889e-14,2.662957596e-13,1.416123141e-13,1.230239463e-13,1.116973996e-13,2.311768747e-13,6.103143732e-14,9.211558691e-14,5.07661894e-14,2.825221645e-13,1.216050231e-13,3.630105056e-14,1.36519332e-14,5.362280852e-13,1.499462643e-13,7.969990734e-14,2.04788508e-14,7.314673093e-14,4.284061377e-14,1.877863086e-13,1.195580177e-13,1.127311688e-13,1.425742775e-13,6.239015134e-14
1.3125,1.917084362e-13,6.977341719e-14,8.265638756e-14,1.307556719e-13,6.653237978e-14,8.685696575e-14,3.71913484e-14,1.190161423e-13,4.384502804e-14,2.725376992e-13,1.48849322e-13,1.29448962e-13,1.156032361e-13,2.440317086e-13,6.504670697e-14,1.006447399e-13,5.393772612e-14,3.003283059e-13,1.251617775e-13,3.589446222e-14,1.343114907e-14,5.757996573e-13,1.443685844e-13,8.183899971e-14,2.162473331e-14,7.395611357e-14,4.413209153e-14,1.971216262e-13,1.251253902e-13,1.187988409e-13,1.531926857e-13,6.515867157e-14
1.3203125,2.029748486e-13,7.170923609e-14,8.317101544e-14,1.323348957e-13,6.859230294e-14,9.061875284e-14,3.813953942e-14,1.209456969e-13,4.353310172e-14,2.788150208e-13,1.564768519e-13,1.360994214e-13,1.198336941e-13,2.575620552e-13,6.921616523e-14,1.099446135e-13,5.760384928e-14,3.191026612e-13,1.289241963e-13,3.544964399e-14,1.318635329e-14,6.178699319e-13,1.389906758e-13,8.419904304e-14,2.287320401e-14,7.484684734e-14,4.542961177e-14,2.066781043e-13,1.31061209e-13,1.250345251e-13,1.64455643e-13,6.81996325e-14
1.328125,2.147995193e-13,7.37725587e-14,8.393996971e-14,1.339881415e-13,7.076862069e-14,9.433924447e-14,3.908167155e-14,1.232181734e-13,4.329701329e-14,2.851559816e-13,1.644606645e-13,1.431979041e-13,1.243962176e-13,2.718250559e-13,7.346759252e-14,1.197898278e-13,6.158455513e-14,3.387249289e-13,1.328630971e-13,3.507299948e-14,1.297100099e-14,6.629724111e-13,1.338392906e-13,8.66029198e-14,2.420176195e-14,7.601794597e-14,4.681906333e-14,2.164468234e-13,1.375537993e-13,1.315765562e-13,1.765356575e-13,7.138939028e-14
1.3359375,2.271020097e-13,7.604794344e-14,8.49793057e-14,1.358981608e-13,7.323935331e-14,9.808778651e-14,4.002715372e-14,1.258486854e-13,4.306137722e-14,2.913881989e-13,1.726817844e-13,1.506963353e-13,1.292564906e-13,2.869437945e-13,7.799698661e-14,1.304271192e-13,6.615653438e-14,3.593448907e-13,1.369775237e-13,3.486193394e-14,1.278386091e-14,7.113586046e-13,1.288074484e-13,8.912934279e-14,2.560607278e-14,7.747088401e-14,4.829326085e-14,2.26509284e-13,1.44473221e-13,1.383738655e-13,1.894657699e-13,7.486710967e-14
1.34375,2.400043817e-13,7.832868007e-14,8.609568236e-14,1.378666359e-13,7.611349278e-14,1.017546175e-13,4.096495934e-14,1.288901359e-13,4.287780816e-14,2.974412034e-13,1.807511933e-13,1.584567526e-13,1.344317501e-13,3.028197382e-13,8.280145673e-14,1.422248016e-13,7.143903062e-14,3.811161019e-13,1.413505502e-13,3.47826688e-14,1.255769809e-14,7.627141248e-13,1.238932963e-13,9.18180267e-14,2.71093606e-14,7.906685119e-14,4.963780001e-14,2.367373073e-13,1.517108947e-13,1.452267224e-13,2.031665355e-13,7.878403863e-14
1.3515625,2.536309419e-13,8.053425282e-14,8.73440378e-14,1.398556999e-13,7.936765738e-14,1.053524148e-13,4.199724171e-14,1.323579007e-13,4.289563188e-14,3.032777591e-13,1.884709542e-13,1.666448368e-13,1.401658277e-13,3.199378587e-13,8.784329207e-14,1.552933215e-13,7.740945155e-14,4.041145223e-13,1.46000465e-13,3.480246462e-14,1.22730633e-14,8.170658849e-13,1.191911133e-13,9.450768884e-14,2.876003658e-14,8.069372986e-14,5.075418813e-14,2.46830357e-13,1.593765073e-13,1.520780504e-13,2.176573001e-13,8.311990315e-14
1.359375,2.678481233e-13,8.264558237e-14,8.885258713e-14,1.419969025e-13,8.291460511e-14,1.088561519e-13,4.324663112e-14,1.36202221e-13,4.309476074e-14,3.087708544e-13,1.960546409e-13,1.752198159e-13,1.463260194e-13,3.381665836e-13,9.313500545e-14,1.695216101e-13,8.419247346e-14,4.280919072e-13,1.508147783e-13,3.494186215e-14,1.19509788e-14,8.746174828e-13,1.14670529e-13,9.740227539e-14,3.048988448e-14,8.22547962e-14,5.176873712e-14,2.567565085e-13,1.671658948e-13,1.589804694e-13,2.326886825e-13,8.776697353e-14
1.3671875,2.826565016e-13,8.466040173e-14,9.046110243e-14,1.441158185e-13,8.669180942e-14,1.121625817e-13,4.458411701e-14,1.403204823e-13,4.334176562e-14,3.139315034e-13,2.035484553e-13,1.840268692e-13,1.525539905e-13,3.567132118e-13,9.852180749e-14,1.845701387e-13,9.170919206e-14,4.526763853e-13,1.557143931e-13,3.523890502e-14,1.159652654e-14,9.356339086e-13,1.103648279e-13,1.006136524e-13,3.224403298e-14,8.383671134e-14,5.276142869e-14,2.668085779e-13,1.748613419e-13,1.659131594e-13,2.480349528e-13,9.261179222e-14
1.375,2.980994119e-13,8.66849636e-14,9.208558921e-14,1.462745774e-13,9.075505947e-14,1.15413089e-13,4.590163159e-14,1.44571833e-13,4.359085459e-14,3.188787701e-13,2.109195889e-13,1.931725794e-13,1.590431453e-13,3.758112627e-13,1.039418367e-13,2.003169016e-13,9.991363236e-14,4.77889204e-13,1.606848873e-13,3.573118775e-14,1.122000473e-14,1.000528264e-12,1.063821146e-13,1.03789816e-13,3.412497775e-14,8.558930244e-14,5.372553192e-14,2.770744508e-13,1.827969603e-13,1.728760345e-13,2.639722054e-13,9.762020792e-14
1.3828125,3.140830711e-13,8.874570377e-14,9.394048712e-14,1.487467246e-13,9.525118484e-14,1.187376389e-13,4.721819266e-14,1.488537852e-13,4.387937172e-14,3.235621435e-13,2.183413746e-13,2.026826016e-13,1.660681856e-13,3.958844892e-13,1.096279335e-13,2.169092399e-13,1.088583046e-13,5.041015962e-13,1.658585656e-13,3.633130371e-14,1.082842644e-14,1.069106588e-12,1.026042471e-13,1.067645887e-13,3.617444711e-14,8.754955238e-14,5.470665462e-14,2.874299049e-13,1.911816631e-13,1.799736105e-13,2.8085935e-13,1.029092712e-13
1.390625,3.306007203e-13,9.077689948e-14,9.616588268e-14,1.514354165e-13,1.003310172e-13,1.220553781e-13,4.859580624e-14,1.531633052e-13,4.429929246e-14,3.278267139e-13,2.256087803e-13,2.125271259e-13,1.736661207e-13,4.171034149e-13,1.158208497e-13,2.344948331e-13,1.184610029e-13,5.317322513e-13,1.714666728e-13,3.691228398e-14,1.040756181e-14,1.140790714e-12,9.891986896e-14,1.095681286e-13,3.836547278e-14,8.97322146e-14,5.568345772e-14,2.976997314e-13,2.000123063e-13,1.871229557e-13,2.987999163e-13,1.086489915e-13
1.3984375,3.473519546e-13,9.26460869e-14,9.864858797e-14,1.540550744e-13,1.058840617e-13,1.251817669e-13,5.02411085e-14,1.575710637e-13,4.487062826e-14,3.315589721e-13,2.32393775e-13,2.226308357e-13,1.818429641e-13,4.39550011e-13,1.223068768e-13,2.533132848e-13,1.288033699e-13,5.60444222e-13,1.773062044e-13,3.753669389e-14,9.959065478e-15,1.2153577e-12,9.545274868e-14,1.123258691e-13,4.066666452e-14,9.195324525e-14,5.647584725e-14,3.07439962e-13,2.09081065e-13,1.940276941e-13,3.173721143e-13,1.148050846e-13
1.40625,3.63935757e-13,9.421143686e-14,1.012949826e-13,1.564049162e-13,1.115517041e-13,1.279058844e-13,5.216848643e-14,1.621557477e-13,4.549345764e-14,3.347093525e-13,2.389503388e-13,2.326989878e-13,1.902652607e-13,4.623550549e-13,1.286727694e-13,2.732153569e-13,1.39912471e-13,5.891951422e-13,1.828761051e-13,3.829422905e-14,9.489977888e-15,1.29265348e-12,9.230377435e-14,1.152993677e-13,4.299536219e-14,9.398292901e-14,5.708349159e-14,3.165157751e-13,2.179035583e-13,2.006694784e-13,3.358519612e-13,1.211459413e-13
1.4140625,3.805922027e-13,9.564119307e-14,1.041613544e-13,1.586528139e-13,1.173368974e-13,1.303094449e-13,5.420964364e-14,1.669716784e-13,4.619372681e-14,3.373667984e-13,2.454522e-13,2.427237888e-13,1.987261232e-13,4.853029578e-13,1.351302124e-13,2.937617875e-13,1.517099566e-13,6.180252596e-13,1.882439251e-13,3.918754743e-14,8.999917621e-15,1.372614878e-12,8.949132811e-14,1.182653311e-13,4.540725982e-14,9.599611774e-14,5.775075195e-14,3.251955356e-13,2.265125513e-13,2.072623075e-13,3.543978424e-13,1.276163296e-13
1.421875,3.976428109e-13,9.724338225e-14,1.072048145e-13,1.612978929e-13,1.235906554e-13,1.326850264e-13,5.646793348e-14,1.720160346e-13,4.712264759e-14,3.396647838e-13,2.516193222e-13,2.529973161e-13,2.075786841e-13,5.092648457e-13,1.420667959e-13,3.151872e-13,1.644816194e-13,6.480092918e-13,1.938865223e-13,4.03385839e-14,8.532334949e-15,1.45519769e-12,8.69781951e-14,1.207914122e-13,4.800448797e-14,9.823799929e-14,5.8510694e-14,3.332665947e-13,2.35435898e-13,2.138005431e-13,3.737929136e-13,1.343747634e-13
1.4296875,4.150673726e-13,9.898450795e-14,1.103956844e-13,1.644297742e-13,1.303327494e-13,1.350707255e-13,5.901683947e-14,1.771220287e-13,4.831609572e-14,3.415557626e-13,2.57317939e-13,2.636415247e-13,2.169714652e-13,5.34038299e-13,1.492759919e-13,3.378073683e-13,1.783252715e-13,6.79291715e-13,1.999148682e-13,4.180649327e-14,8.123819131e-15,1.54011901e-12,8.465750619e-14,1.230828066e-13,5.073102862e-14,1.00637501e-13,5.918064459e-14,3.404303166e-13,2.44768086e-13,2.202140569e-13,3.940063475e-13,1.413672898e-13
1.4375,4.328885097e-13,1.007015069e-13,1.139465777e-13,1.677464211e-13,1.373498619e-13,1.373536435e-13,6.182380939e-14,1.820438955e-13,4.969641869e-14,3.428505367e-13,2.626855738e-13,2.747394564e-13,2.268296046e-13,5.595295474e-13,1.566590004e-13,3.613835707e-13,1.928893785e-13,7.111733312e-13,2.061352107e-13,4.338565245e-14,7.73727817e-15,1.627671043e-12,8.254547354e-14,1.254521347e-13,5.359523108e-14,1.030414244e-13,5.970449969e-14,3.465336164e-13,2.541939204e-13,2.265335653e-13,4.144296995e-13,1.48302379e-13
1.4453125,4.509572087e-13,1.024593838e-13,1.178971725e-13,1.711678695e-13,1.446861453e-13,1.394689408e-13,6.501051884e-14,1.867747998e-13,5.111522313e-14,3.434879471e-13,2.678755557e-13,2.861534105e-13,2.371612197e-13,5.86248996e-13,1.644891952e-13,3.858779182e-13,2.08036608e-13,7.43375177e-13,2.124354874e-13,4.495876222e-14,7.352862897e-15,1.718187588e-12,8.067363242e-14,1.277510693e-13,5.66236665e-14,1.054290259e-13,6.015316785e-14,3.512297219e-13,2.63485028e-13,2.326996957e-13,4.348518997e-13,1.551644608e-13
1.453125,4.689860616e-13,1.042953354e-13,1.220253245e-13,1.747211895e-13,1.524846315e-13,1.413489658e-13,6.844854003e-14,1.914487983e-13,5.240177062e-14,3.435764786e-13,2.726773002e-13,2.973566755e-13,2.476523231e-13,6.13375332e-13,1.726970488e-13,4.112386257e-13,2.23828663e-13,7.760369664e-13,2.18798546e-13,4.660915102e-14,6.979118527e-15,1.810779402e-12,7.889456103e-14,1.297844019e-13,5.971481452e-14,1.078911794e-13,6.055652784e-14,3.548357847e-13,2.726787155e-13,2.386395919e-13,4.554440388e-13,1.622649262e-13
1.4609375,4.869615222e-13,1.060670452e-13,1.262965655e-13,1.784325888e-13,1.607017107e-13,1.430929809e-13,7.19055722e-14,1.960174142e-13,5.352212435e-14,3.431262741e-13,2.766697035e-13,3.081200685e-13,2.580164157e-13,6.403336858e-13,1.811293527e-13,4.370641339e-13,2.403474329e-13,8.091929901e-13,2.251975537e-13,4.84465796e-14,6.594925598e-15,1.904926851e-12,7.717595846e-14,1.315664887e-13,6.285231296e-14,1.10460564e-13,6.091752439e-14,3.580007666e-13,2.818651246e-13,2.443283579e-13,4.762912133e-13,1.69647518e-13
1.46875,5.049702536e-13,1.077403692e-13,1.307916475e-13,1.824371484e-13,1.692627877e-13,1.449220115e-13,7.553361209e-14,2.004548114e-13,5.454921426e-14,3.420770938e-13,2.799337399e-13,3.187615028e-13,2.684770507e-13,6.678931272e-13,1.900360005e-13,4.633573175e-13,2.576347299e-13,8.427858936e-13,2.316655668e-13,5.055787008e-14,6.215240261e-15,2.001492916e-12,7.566995995e-14,1.332359474e-13,6.606024607e-14,1.131147628e-13,6.133080881e-14,3.605630151e-13,2.909647907e-13,2.49729172e-13,4.973118595e-13,1.770620853e-13
1.4765625,5.230869342e-13,1.093931274e-13,1.355333281e-13,1.86667831e-13,1.782102824e-13,1.46801687e-13,7.947247197e-14,2.048521662e-13,5.556186286e-14,3.405282059e-13,2.826223252e-13,3.296325107e-13,2.793348337e-13,6.963641575e-13,1.995565096e-13,4.903775618e-13,2.755747563e-13,8.768263457e-13,2.383099776e-13,5.282023051e-14,5.874008888e-15,2.10108568e-12,7.439928962e-14,1.349268271e-13,6.930550278e-14,1.15876473e-13,6.180728025e-14,3.62213414e-13,3.000260841e-13,2.548860269e-13,5.185895105e-13,1.845109541e-13
1.484375,5.413376255e-13,1.110848549e-13,1.404839977e-13,1.910199856e-13,1.875284387e-13,1.486233404e-13,8.367642183e-14,2.091237554e-13,5.662737855e-14,3.385633877e-13,2.844973615e-13,3.407352951e-13,2.906589926e-13,7.255399067e-13,2.094424122e-13,5.180779671e-13,2.94202117e-13,9.110213102e-13,2.450209473e-13,5.5072881e-14,5.550435854e-15,2.20337196e-12,7.326935542e-14,1.366010584e-13,7.257310022e-14,1.18606102e-13,6.223708609e-14,3.630075149e-13,3.090818234e-13,2.598093386e-13,5.400678078e-13,1.920765894e-13
1.4921875,5.596265295e-13,1.129523117e-13,1.454721353e-13,1.957009386e-13,1.970712662e-13,1.504971621e-13,8.815134545e-14,2.132442751e-13,5.775915804e-14,3.361956675e-13,2.855250348e-13,3.518428568e-13,3.023749036e-13,7.550674509e-13,2.194483794e-13,5.462903501e-13,3.135957394e-13,9.449638624e-13,2.51552862e-13,5.743927012e-14,5.227453674e-15,2.307329259e-12,7.22713821e-14,1.382211224e-13,7.582154054e-14,1.21148552e-13,6.271620662e-14,3.63158001e-13,3.178804425e-13,2.644497544e-13,5.612362024e-13,1.995561826e-13
1.5,5.780013997e-13,1.150259174e-13,1.505948805e-13,2.005923929e-13,2.066733133e-13,1.523649581e-13,9.2926639e-14,2.173679717e-13,5.895522272e-14,3.335557334e-13,2.857601276e-13,3.629445454e-13,3.144599278e-13,7.845756527e-13,2.2950557e-13,5.748709679e-13,3.336707415e-13,9.788725011e-13,2.579781728e-13,6.000935025e-14,4.915788108e-15,2.412174895e-12,7.149068462e-14,1.399983309e-13,7.913656597e-14,1.23619845e-13,6.328384165e-14,3.628466138e-13,3.264072177e-13,2.689101126e-13,5.818441891e-13,2.067749425e-13
1.5078125,5.964812984e-13,1.17122912e-13,1.562056604e-13,2.05238678e-13,2.161926917e-13,1.54048264e-13,9.804831015e-14,2.213410373e-13,6.01775919e-14,3.306565994e-13,2.852311353e-13,3.740673174e-13,3.268244744e-13,8.141646797e-13,2.3971825e-13,6.036329614e-13,3.543482814e-13,1.012707786e-12,2.644042168e-13,6.273727349e-14,4.622267143e-15,2.518134064e-12,7.093090732e-14,1.419713345e-13,8.266894341e-14,1.260005831e-13,6.379521131e-14,3.618486487e-13,3.346128863e-13,2.732041487e-13,6.018221607e-13,2.136974203e-13
1.515625,6.147463178e-13,1.192751037e-13,1.621499278e-13,2.098728143e-13,2.25744414e-13,1.557620387e-13,1.034289404e-13,2.25003514e-13,6.13321984e-14,3.273473614e-13,2.84246775e-13,3.849775577e-13,3.390386738e-13,8.436843427e-13,2.502505935e-13,6.322855434e-13,3.754391339e-13,1.045797665e-12,2.706828725e-13,6.561744438e-14,4.363586758e-15,2.624346846e-12,7.046879813e-14,1.437493765e-13,8.629020949e-14,1.281368035e-13,6.442161672e-14,3.600640924e-13,3.420915424e-13,2.77141623e-13,6.209411434e-13,2.203578697e-13
1.5234375,6.325595576e-13,1.216933816e-13,1.681311119e-13,2.149998444e-13,2.3562913e-13,1.576575032e-13,1.089114967e-13,2.286309284e-13,6.246062888e-14,3.236463022e-13,2.827345847e-13,3.956916708e-13,3.510166237e-13,8.730606799e-13,2.610678258e-13,6.608299069e-13,3.970086141e-13,1.078494479e-12,2.769211651e-13,6.852533165e-14,4.139106939e-15,2.728691143e-12,7.011894361e-14,1.452209344e-13,8.990464651e-14,1.301234765e-13,6.524866662e-14,3.57580806e-13,3.490044908e-13,2.807131861e-13,6.394618428e-13,2.270144798e-13
1.53125,6.499194651e-13,1.243301042e-13,1.74319566e-13,2.203766834e-13,2.457148081e-13,1.594941193e-13,1.14620795e-13,2.322767355e-13,6.364973646e-14,3.195796244e-13,2.802686274e-13,4.063199144e-13,3.632634088e-13,9.027654225e-13,2.72190286e-13,6.897077305e-13,4.19291858e-13,1.111495612e-12,2.833578591e-13,7.147724699e-14,3.928456299e-15,2.830699817e-12,6.999078673e-14,1.467354765e-13,9.364456757e-14,1.319568912e-13,6.602043022e-14,3.539721393e-13,3.557637513e-13,2.839525481e-13,6.574914142e-13,2.33761667e-13
1.5390625,6.666825796e-13,1.271053207e-13,1.806924672e-13,2.256572512e-13,2.557032271e-13,1.613055546e-13,1.206464368e-13,2.357348123e-13,6.484033959e-14,3.151140577e-13,2.770188509e-13,4.166073859e-13,3.757673707e-13,9.324330395e-13,2.838440532e-13,7.188440372e-13,4.419173567e-13,1.144058959e-12,2.898125298e-13,7.476548263e-14,3.753997766e-15,2.93044983e-12,6.995119523e-14,1.483763512e-13,9.743718552e-14,1.335314233e-13,6.683567055e-14,3.492281425e-13,3.621400436e-13,2.867610644e-13,6.74400933e-13,2.40335655e-13
1.546875,6.826649968e-13,1.301288296e-13,1.871112308e-13,2.310611277e-13,2.65709112e-13,1.633939186e-13,1.26842457e-13,2.39232392e-13,6.608363151e-14,3.104808323e-13,2.733733281e-13,4.266990839e-13,3.881618312e-13,9.616308971e-13,2.95999918e-13,7.477235865e-13,4.64733698e-13,1.175467206e-12,2.961235611e-13,7.837706368e-14,3.644632426e-15,3.026909987e-12,6.984046101e-14,1.499885193e-13,1.011430559e-13,1.349785014e-13,6.786041795e-14,3.439638257e-13,3.680117244e-13,2.893096739e-13,6.900607671e-13,2.467118549e-13
1.5546875,6.980129225e-13,1.334155401e-13,1.939070466e-13,2.366776778e-13,2.756587601e-13,1.657891337e-13,1.332309712e-13,2.429790407e-13,6.752915501e-14,3.058833863e-13,2.692853099e-13,4.370646263e-13,4.006611641e-13,9.908392709e-13,3.085420656e-13,7.762386809e-13,4.880213758e-13,1.206077064e-12,3.024580265e-13,8.209117287e-14,3.576891585e-15,3.119676502e-12,6.977204048e-14,1.516915088e-13,1.048835773e-13,1.362849048e-13,6.890648109e-14,3.380498545e-13,3.735523731e-13,2.918259819e-13,7.04665611e-13,2.52941407e-13
1.5625,7.128562773e-13,1.368938217e-13,2.011534724e-13,2.421115391e-13,2.851482728e-13,1.683336905e-13,1.398728741e-13,2.46667435e-13,6.910043035e-14,3.011877735e-13,2.647052331e-13,4.4748554e-13,4.134344015e-13,1.01978337e-12,3.214385247e-13,8.040316427e-13,5.113241772e-13,1.23586943e-12,3.087806608e-13,8.593738321e-14,3.530235329e-15,3.20835912e-12,6.985512385e-14,1.536336983e-13,1.087488603e-13,1.372740129e-13,6.990066023e-14,3.310839976e-13,3.785444144e-13,2.941334268e-13,7.177982165e-13,2.586901409e-13
1.5703125,7.267082518e-13,1.405577418e-13,2.086322887e-13,2.472579129e-13,2.942088999e-13,1.709855364e-13,1.467179701e-13,2.500584815e-13,7.065700648e-14,2.963447696e-13,2.599135119e-13,4.57679315e-13,4.26153635e-13,1.0479747e-12,3.344377554e-13,8.305092105e-13,5.342745832e-13,1.264334137e-12,3.148889521e-13,8.997645384e-14,3.527992228e-15,3.291667979e-12,7.001474289e-14,1.5565409e-13,1.12637675e-13,1.380175926e-13,7.089508424e-14,3.232353483e-13,3.827267233e-13,2.961230323e-13,7.290943745e-13,2.638581272e-13
1.578125,7.391988587e-13,1.444196304e-13,2.165879991e-13,2.524769485e-13,3.031347346e-13,1.739364023e-13,1.537688035e-13,2.532630463e-13,7.216542002e-14,2.915048812e-13,2.55061758e-13,4.678201631e-13,4.385384341e-13,1.075853725e-12,3.476880997e-13,8.558154588e-13,5.571241053e-13,1.291621451e-12,3.209442403e-13,9.418112033e-14,3.593912118e-15,3.369193767e-12,7.016025327e-14,1.576515984e-13,1.164559665e-13,1.386187435e-13,7.198579292e-14,3.145695254e-13,3.862319666e-13,2.979726965e-13,7.386390531e-13,2.688144608e-13
1.5859375,7.507982739e-13,1.485078819e-13,2.249959489e-13,2.57667744e-13,3.119689128e-13,1.772697785e-13,1.608082373e-13,2.56361589e-13,7.356053886e-14,2.866565822e-13,2.499764435e-13,4.775691268e-13,4.504061937e-13,1.103131938e-12,3.615831303e-13,8.801082568e-13,5.796949666e-13,1.318129894e-12,3.271833343e-13,9.853295853e-14,3.724870757e-15,3.441410529e-12,7.027178471e-14,1.597571537e-13,1.202115145e-13,1.390656596e-13,7.33463349e-14,3.050714728e-13,3.892968362e-13,2.996158868e-13,7.4669187e-13,2.737661308e-13
1.59375,7.616318332e-13,1.527495255e-13,2.332718621e-13,2.623534377e-13,3.206056786e-13,1.80654175e-13,1.676014618e-13,2.592441224e-13,7.480760874e-14,2.81645852e-13,2.447299328e-13,4.862809393e-13,4.617001259e-13,1.129018154e-12,3.755806182e-13,9.027948541e-13,6.015792037e-13,1.343251267e-12,3.333389864e-13,1.029443626e-13,3.907559173e-15,3.508659019e-12,7.039643018e-14,1.619025851e-13,1.23891917e-13,1.393563479e-13,7.485623823e-14,2.951434418e-13,3.918456429e-13,3.008229179e-13,7.533762889e-13,2.786695917e-13
1.6015625,7.712127046e-13,1.570423614e-13,2.41374698e-13,2.666428522e-13,3.289238099e-13,1.83962077e-13,1.743891364e-13,2.618616624e-13,7.598368487e-14,2.764253389e-13,2.395673267e-13,4.941457149e-13,4.727217755e-13,1.153965297e-12,3.892722251e-13,9.234620628e-13,6.225259373e-13,1.366182338e-12,3.390523647e-13,1.073464631e-13,4.139093031e-15,3.570765615e-12,7.058059446e-14,1.640429794e-13,1.27381622e-13,1.394251218e-13,7.622728047e-14,2.849854434e-13,3.936757927e-13,3.016660851e-13,7.585629087e-13,2.833477063e-13
1.609375,7.797754311e-13,1.615243631e-13,2.496543486e-13,2.709216304e-13,3.368630084e-13,1.87531385e-13,1.81330112e-13,2.643260938e-13,7.716857308e-14,2.710682349e-13,2.344468996e-13,5.017752071e-13,4.838328986e-13,1.178745757e-12,4.033135145e-13,9.426204965e-13,6.426821311e-13,1.387542841e-12,3.445060339e-13,1.118430961e-13,4.424201998e-15,3.626769909e-12,7.079470306e-14,1.665346939e-13,1.306761941e-13,1.39262558e-13,7.750916324e-14,2.743371728e-13,3.950628156e-13,3.02341211e-13,7.624482304e-13,2.874511803e-13
1.6171875,7.877057098e-13,1.662332627e-13,2.580034509e-13,2.75121646e-13,3.443381378e-13,1.914317055e-13,1.882291356e-13,2.665901369e-13,7.833285672e-14,2.656350801e-13,2.294487141e-13,5.09101603e-13,4.949752519e-13,1.203075027e-12,4.176869731e-13,9.606416994e-13,6.625157404e-13,1.407850896e-12,3.499336177e-13,1.166309394e-13,4.761253931e-15,3.676087898e-12,7.102156169e-14,1.693523265e-13,1.339198848e-13,1.389811653e-13,7.90352484e-14,2.633558808e-13,3.96180291e-13,3.028149612e-13,7.65130369e-13,2.908386975e-13
1.625,7.946449746e-13,1.70974568e-13,2.661684949e-13,2.78944797e-13,3.512557151e-13,1.953906657e-13,1.950332427e-13,2.685498275e-13,7.936945589e-14,2.601674763e-13,2.248463821e-13,5.156346718e-13,5.056184653e-13,1.226114633e-12,4.315704962e-13,9.766025081e-13,6.814682553e-13,1.426155872e-12,3.551327164e-13,1.217172239e-13,5.154346741e-15,3.718722472e-12,7.128236816e-14,1.720324784e-13,1.371174605e-13,1.386075957e-13,8.091785635e-14,2.525212053e-13,3.965081163e-13,3.029898149e-13,7.660504998e-13,2.938071792e-13
1.6328125,8.004604031e-13,1.758410415e-13,2.741936884e-13,2.822703891e-13,3.578341026e-13,1.993337362e-13,2.016648491e-13,2.703530976e-13,8.033983039e-14,2.547351287e-13,2.207521223e-13,5.214741724e-13,5.154187638e-13,1.247580019e-12,4.449142298e-13,9.896211753e-13,6.987961534e-13,1.442197708e-12,3.600284804e-13,1.269182409e-13,5.616354285e-15,3.754370729e-12,7.153421199e-14,1.747206151e-13,1.401619586e-13,1.381162724e-13,8.2876868e-14,2.417091246e-13,3.959599946e-13,3.029825729e-13,7.652529993e-13,2.966673428e-13
1.640625,8.05347849e-13,1.80996189e-13,2.821933519e-13,2.852516931e-13,3.642784557e-13,2.033688137e-13,2.079568825e-13,2.719881159e-13,8.142467312e-14,2.492589912e-13,2.172206081e-13,5.270422161e-13,5.246349143e-13,1.267836897e-12,4.579315535e-13,9.999941649e-13,7.150659112e-13,1.456670919e-12,3.64818947e-13,1.323295618e-13,6.155343523e-15,3.783010935e-12,7.175145933e-14,1.776814607e-13,1.430483788e-13,1.375217513e-13,8.481756967e-14,2.305792467e-13,3.950301147e-13,3.028683987e-13,7.633288759e-13,2.993514772e-13
1.6484375,8.091826857e-13,1.86355271e-13,2.901611616e-13,2.881025099e-13,3.704610634e-13,2.075083844e-13,2.140426609e-13,2.732659517e-13,8.260720235e-14,2.435349995e-13,2.141916245e-13,5.321410306e-13,5.334970557e-13,1.286987182e-12,4.703969156e-13,1.008126821e-12,7.306571118e-13,1.469426529e-12,3.694673394e-13,1.382360519e-13,6.795626291e-15,3.804167167e-12,7.198975826e-14,1.805771975e-13,1.458354641e-13,1.368230887e-13,8.693264153e-14,2.191938716e-13,3.936971067e-13,3.024097013e-13,7.602171007e-13,3.016552843e-13
1.65625,8.118736215e-13,1.919418189e-13,2.980966312e-13,2.908748952e-13,3.764215751e-13,2.116517874e-13,2.200454235e-13,2.743049214e-13,8.384760761e-14,2.376235609e-13,2.115614274e-13,5.364324034e-13,5.419848816e-13,1.304745632e-12,4.82400614e-13,1.014560431e-12,7.455598096e-13,1.48023426e-12,3.73866766e-13,1.446044456e-13,7.567054525e-15,3.816269465e-12,7.222268711e-14,1.834159314e-13,1.485039774e-13,1.360334651e-13,8.913380615e-14,2.076748867e-13,3.918284944e-13,3.014418891e-13,7.559316251e-13,3.036838224e-13
1.6640625,8.134944957e-13,1.977301591e-13,3.059141583e-13,2.935002287e-13,3.822452124e-13,2.157627781e-13,2.258230488e-13,2.751636469e-13,8.519688257e-14,2.317322324e-13,2.093842793e-13,5.400733996e-13,5.500959723e-13,1.320977402e-12,4.941681157e-13,1.019858257e-12,7.600343481e-13,1.489288825e-12,3.781019362e-13,1.5130082e-13,8.457601843e-15,3.818781873e-12,7.241797135e-14,1.86636169e-13,1.509852059e-13,1.351774246e-13,9.127085645e-14,1.961889476e-13,3.89577658e-13,3.001044005e-13,7.50790975e-13,3.056623468e-13
1.671875,8.140255793e-13,2.035873051e-13,3.134262133e-13,2.95797402e-13,3.877062691e-13,2.19926978e-13,2.312887515e-13,2.756463956e-13,8.651568726e-14,2.257550898e-13,2.077132369e-13,5.430820677e-13,5.575064715e-13,1.335589989e-12,5.054673443e-13,1.023331993e-12,7.735099319e-13,1.496536783e-12,3.82191967e-13,1.582913612e-13,9.443020303e-15,3.812198304e-12,7.27212731e-14,1.901117524e-13,1.533457245e-13,1.342717732e-13,9.34337008e-14,1.850898768e-13,3.868438036e-13,2.984679884e-13,7.44726581e-13,3.076478985e-13
1.6796875,8.13312202e-13,2.097862395e-13,3.20840638e-13,2.977530998e-13,3.928880395e-13,2.24212861e-13,2.364371045e-13,2.758429514e-13,8.771876429e-14,2.195074711e-13,2.06660814e-13,5.452968843e-13,5.638567655e-13,1.348594462e-12,5.163230788e-13,1.024509949e-12,7.855634342e-13,1.502243759e-12,3.861294873e-13,1.655081491e-13,1.053080175e-14,3.796472696e-12,7.317272805e-14,1.935318638e-13,1.556460637e-13,1.333862839e-13,9.562073287e-14,1.745208565e-13,3.836207399e-13,2.964565744e-13,7.379310612e-13,3.098433114e-13
1.6875,8.11245491e-13,2.165842353e-13,3.284842066e-13,2.996556323e-13,3.982195346e-13,2.286084752e-13,2.412864613e-13,2.76083716e-13,8.903082319e-14,2.131867794e-13,2.063351979e-13,5.469522968e-13,5.694261547e-13,1.360304605e-12,5.271151499e-13,1.024249838e-12,7.967763563e-13,1.506751094e-12,3.900403932e-13,1.730230768e-13,1.174536004e-14,3.771811062e-12,7.35767057e-14,1.9707928e-13,1.576974612e-13,1.32576846e-13,9.773377561e-14,1.642938596e-13,3.802003338e-13,2.941351558e-13,7.307908696e-13,3.125186127e-13
1.6953125,8.081003359e-13,2.237401106e-13,3.360031406e-13,3.014222317e-13,4.036329885e-13,2.329616524e-13,2.459397356e-13,2.764387709e-13,9.054629899e-14,2.070823644e-13,2.066930376e-13,5.481742048e-13,5.744950346e-13,1.370757422e-12,5.374792427e-13,1.02260449e-12,8.069757693e-13,1.50974907e-12,3.939043346e-13,1.809092505e-13,1.312356901e-14,3.738731988e-12,7.392094178e-14,2.009913658e-13,1.593768183e-13,1.317879376e-13,9.973440911e-14,1.542996959e-13,3.765703642e-13,2.916244468e-13,7.229920347e-13,3.154484996e-13
1.703125,8.039412036e-13,2.311343332e-13,3.428455967e-13,3.026284743e-13,4.086774978e-13,2.370082224e-13,2.503366225e-13,2.765516771e-13,9.20961876e-14,2.011338245e-13,2.077766634e-13,5.486267442e-13,5.788087595e-13,1.3793312e-12,5.465843962e-13,1.018554931e-12,8.153461295e-13,1.510632207e-12,3.973961181e-13,1.890375186e-13,1.468490752e-14,3.697073768e-12,7.437947095e-14,2.050794196e-13,1.60762655e-13,1.309585359e-13,1.015798401e-13,1.44711198e-13,3.725751576e-13,2.888150334e-13,7.142843573e-13,3.181692858e-13
1.7109375,7.982809351e-13,2.389838673e-13,3.489648462e-13,3.033780341e-13,4.133768822e-13,2.407060792e-13,2.54149311e-13,2.761832202e-13,9.359567195e-14,1.952130298e-13,2.096050477e-13,5.482142462e-13,5.821831008e-13,1.385563943e-12,5.544177453e-13,1.011786158e-12,8.215197597e-13,1.508824689e-12,4.003295821e-13,1.973944447e-13,1.638896011e-14,3.647065946e-12,7.491367223e-14,2.089242012e-13,1.618141238e-13,1.301811165e-13,1.032243685e-13,1.357836627e-13,3.683349306e-13,2.855661757e-13,7.053018725e-13,3.207235081e-13
1.71875,7.911996305e-13,2.474925232e-13,3.545309152e-13,3.04088704e-13,4.182637681e-13,2.442399108e-13,2.572024561e-13,2.758073591e-13,9.513117229e-14,1.893818768e-13,2.120373247e-13,5.471745391e-13,5.846560211e-13,1.389925557e-12,5.61595917e-13,1.003032563e-12,8.258000328e-13,1.504706653e-12,4.030305612e-13,2.061270434e-13,1.821052783e-14,3.589947643e-12,7.536524219e-14,2.125646669e-13,1.624436891e-13,1.296579177e-13,1.047261702e-13,1.277201324e-13,3.640720448e-13,2.819899262e-13,6.968073286e-13,3.23644854e-13
1.7265625,7.830212486e-13,2.567401893e-13,3.595633903e-13,3.047386028e-13,4.235090081e-13,2.475758815e-13,2.596167953e-13,2.757854069e-13,9.687600911e-14,1.83555526e-13,2.149676497e-13,5.454754728e-13,5.860492513e-13,1.392760575e-12,5.681872532e-13,9.930439309e-13,8.292754834e-13,1.499290024e-12,4.057323141e-13,2.153836594e-13,2.019218091e-14,3.526164396e-12,7.573185762e-14,2.163626027e-13,1.626591841e-13,1.294424259e-13,1.062325897e-13,1.204910255e-13,3.598562588e-13,2.781372611e-13,6.888564863e-13,3.272327833e-13
1.734375,7.733343908e-13,2.664808598e-13,3.638935892e-13,3.050258423e-13,4.286955929e-13,2.505428251e-13,2.614232527e-13,2.756263373e-13,9.896060059e-14,1.775900107e-13,2.184283029e-13,5.429945931e-13,5.861884947e-13,1.393374423e-12,5.735330437e-13,9.812818936e-13,8.31966097e-13,1.491963903e-12,4.080242248e-13,2.250806071e-13,2.235947691e-14,3.455106797e-12,7.612409471e-14,2.200470763e-13,1.62442836e-13,1.293468487e-13,1.076840894e-13,1.13809475e-13,3.554713659e-13,2.739282341e-13,6.80940511e-13,3.31206332e-13
1.7421875,7.621575164e-13,2.764797025e-13,3.674830819e-13,3.049237094e-13,4.337062974e-13,2.532322015e-13,2.62589198e-13,2.750105438e-13,1.013354442e-13,1.716440545e-13,2.225385889e-13,5.399490066e-13,5.853091528e-13,1.391541718e-12,5.773251992e-13,9.667767167e-13,8.323865968e-13,1.481657129e-12,4.09659832e-13,2.347649292e-13,2.47243924e-14,3.377020793e-12,7.659985704e-14,2.23360546e-13,1.617974975e-13,1.292793417e-13,1.089414531e-13,1.076621216e-13,3.507528454e-13,2.695185409e-13,6.728377965e-13,3.352921508e-13
1.75,7.500251553e-13,2.871252581e-13,3.705228711e-13,3.046951201e-13,4.388728287e-13,2.557168644e-13,2.632338648e-13,2.742732414e-13,1.039069023e-13,1.657967952e-13,2.271069888e-13,5.36441939e-13,5.835928636e-13,1.387953588e-12,5.799988367e-13,9.498665391e-13,8.304439013e-13,1.469135897e-12,4.110105278e-13,2.443466456e-13,2.733287425e-14,3.29285798e-12,7.708171633e-14,2.267511673e-13,1.607675022e-13,1.294363006e-13,1.1014435e-13,1.021859671e-13,3.460030043e-13,2.650010213e-13,6.650040751e-13,3.397092667e-13
1.7578125,7.368751951e-13,2.987999799e-13,3.729655745e-13,3.043301412e-13,4.441095448e-13,2.576686177e-13,2.632946151e-13,2.736802513e-13,1.067593295e-13,1.5993497e-13,2.317703052e-13,5.321991524e-13,5.807924309e-13,1.382372698e-12,5.815436397e-13,9.311246534e-13,8.271289084e-13,1.455017491e-12,4.121469705e-13,2.54125117e-13,3.01671289e-14,3.203434842e-12,7.751682854e-14,2.302327279e-13,1.59378282e-13,1.29910359e-13,1.112993565e-13,9.722658948e-14,3.414761744e-13,2.602648132e-13,6.578420803e-13,3.44700639e-13
1.765625,7.229627963e-13,3.112943694e-13,3.74728446e-13,3.034997935e-13,4.490636731e-13,2.58833721e-13,2.625682862e-13,2.733301898e-13,1.100897038e-13,1.542358251e-13,2.365694326e-13,5.272153117e-13,5.767441393e-13,1.373819757e-12,5.813182756e-13,9.105113646e-13,8.222919842e-13,1.438539696e-12,4.126851245e-13,2.638196984e-13,3.314976808e-14,3.110131983e-12,7.797130265e-14,2.335946901e-13,1.576583741e-13,1.304400415e-13,1.121704757e-13,9.285405864e-14,3.369526414e-13,2.554949614e-13,6.512168763e-13,3.500340962e-13
1.7734375,7.087185614e-13,3.244318554e-13,3.76208457e-13,3.022944212e-13,4.540080089e-13,2.595240441e-13,2.612096256e-13,2.732486573e-13,1.139848322e-13,1.488566563e-13,2.41519926e-13,5.218685487e-13,5.715836518e-13,1.362389463e-12,5.794339363e-13,8.884288979e-13,8.158042026e-13,1.419531139e-12,4.125854443e-13,2.731264042e-13,3.630002464e-14,3.014028997e-12,7.840547267e-14,2.371535875e-13,1.556077716e-13,1.308687901e-13,1.128141686e-13,8.937510958e-14,3.322892473e-13,2.508527575e-13,6.45000286e-13,3.555659393e-13
1.78125,6.935543414e-13,3.383795099e-13,3.77881547e-13,3.011690086e-13,4.595530418e-13,2.601157713e-13,2.595129544e-13,2.733083046e-13,1.183891297e-13,1.43592842e-13,2.464170012e-13,5.163535808e-13,5.655543383e-13,1.349295879e-12,5.766939552e-13,8.654193961e-13,8.083545609e-13,1.398964378e-12,4.121851111e-13,2.824993883e-13,3.972036761e-14,2.915311677e-12,7.875382999e-14,2.408051829e-13,1.5328802e-13,1.315456107e-13,1.134989739e-13,8.6837897e-14,3.277697762e-13,2.461721711e-13,6.396182807e-13,3.619898028e-13
1.7890625,6.775689246e-13,3.533930715e-13,3.79868173e-13,3.00167409e-13,4.656315177e-13,2.604553264e-13,2.574979136e-13,2.735749697e-13,1.232912812e-13,1.384394724e-13,2.512312904e-13,5.107464986e-13,5.591176752e-13,1.335412907e-12,5.732977655e-13,8.414773473e-13,8.000629567e-13,1.377689813e-12,4.117449523e-13,2.923243907e-13,4.344504326e-14,2.815106787e-12,7.913824081e-14,2.444144554e-13,1.508922627e-13,1.328041833e-13,1.143585838e-13,8.518152226e-14,3.237565315e-13,2.415698856e-13,6.356686842e-13,3.698268023e-13
1.796875,6.620429907e-13,3.695509809e-13,3.820081085e-13,2.989902266e-13,4.715440661e-13,2.602573269e-13,2.551212062e-13,2.7432226e-13,1.287998626e-13,1.336210666e-13,2.558512069e-13,5.0518789e-13,5.526497823e-13,1.320113857e-12,5.686984479e-13,8.163822831e-13,7.902312544e-13,1.355191474e-12,4.111503142e-13,3.02363079e-13,4.739627574e-14,2.714856885e-12,7.956847271e-14,2.48540959e-13,1.484731832e-13,1.34290189e-13,1.152014971e-13,8.428959542e-14,3.20167365e-13,2.372871902e-13,6.328322949e-13,3.78161959e-13
1.8046875,6.468681239e-13,3.86519817e-13,3.841101525e-13,2.974803438e-13,4.769171807e-13,2.596504141e-13,2.525604955e-13,2.755745968e-13,1.34957946e-13,1.290852647e-13,2.602246611e-13,4.995505698e-13,5.460012365e-13,1.302405026e-12,5.62472684e-13,7.900186083e-13,7.784109776e-13,1.330073359e-12,4.099459829e-13,3.120517985e-13,5.148983003e-14,2.614381878e-12,7.990549434e-14,2.5319219e-13,1.458540045e-13,1.35467529e-13,1.156283117e-13,8.417632909e-14,3.164593369e-13,2.331583274e-13,6.299743721e-13,3.860767224e-13
