"Time","Fp1","AF3","F7","F3","FC1","FC5","T7","C3","CP1","CP5","P7","P3","Pz","PO3","O1","Oz","O2","PO4","P4","P8","CP6","CP2","C4","T8","FC6","FC2","F4","F8","AF4","Fp2","Fz","Cz"
0.0078125,1.760841493e-14,4.497670833e-14,2.109286553e-14,5.704519335e-14,1.903854806e-14,8.104039663e-15,2.380916094e-15,2.23909388e-14,4.704179448e-15,3.976349826e-15,1.013608659e-14,1.761840195e-15,3.083035315e-15,8.261508753e-15,1.918642015e-14,4.198903831e-14,4.042597444e-14,1.664798997e-14,3.888503742e-15,3.029428759e-14,9.29623303e-15,2.279778795e-15,1.20121649e-14,1.953826681e-14,3.082130079e-15,4.475493911e-15,2.4061015e-14,4.902386163e-15,8.952717432e-15,9.932202797e-15,5.585492983e-15,2.058407752e-15
0.015625,2.287862548e-14,4.823405281e-14,2.272390807e-14,6.702024576e-14,2.072338776e-14,1.038626915e-14,2.779732726e-15,2.660963307e-14,5.480568229e-15,4.505187134e-15,1.118610038e-14,2.218691607e-15,3.308880563e-15,1.060542285e-14,2.386851079e-14,4.802885786e-14,4.732791453e-14,2.047863243e-14,4.915967879e-15,3.533450278e-14,1.18586272e-14,3.063524717e-15,1.485801737e-14,2.287292428e-14,3.691070708e-15,5.550724523e-15,2.513824733e-14,6.117026598e-15,1.060823949e-14,1.092436828e-14,6.408832028e-15,2.082236397e-15
0.0234375,2.887369002e-14,4.984374817e-14,2.377017498e-14,7.807717375e-14,2.264771958e-14,1.331768005e-14,3.194079232e-15,3.025231893e-14,6.243425885e-15,5.058086302e-15,1.199461315e-14,2.815010765e-15,3.582053258e-15,1.382486094e-14,2.880059384e-14,5.279301566e-14,5.410656203e-14,2.496965734e-14,6.260876606e-15,3.977347194e-14,1.459760093e-14,4.099244011e-15,1.793753701e-14,2.609016822e-14,4.391481233e-15,6.913415526e-15,2.588651907e-14,7.606854172e-15,1.221849828e-14,1.1817219e-14,7.443408198e-15,2.165368438e-15
0.03125,3.562485574e-14,4.967695999e-14,2.446125289e-14,9.038514536e-14,2.497203474e-14,1.698166106e-14,3.61684328e-15,3.304308287e-14,7.018110394e-15,5.697854675e-15,1.258203766e-14,3.588544841e-15,3.884119839e-15,1.815675896e-14,3.362616941e-14,5.576734655e-14,6.01710346e-14,2.992524484e-14,7.95486135e-15,4.314978696e-14,1.741315941e-14,5.42267368e-15,2.118014506e-14,2.905445734e-14,5.153471396e-15,8.694830883e-15,2.641808526e-14,9.430635847e-15,1.392181561e-14,1.26898425e-14,8.786736094e-15,2.409464721e-15
0.0390625,4.318125367e-14,4.832165465e-14,2.513997534e-14,1.036360125e-13,2.806878685e-14,2.124982491e-14,4.05178105e-15,3.485726942e-14,7.960020704e-15,6.458114803e-15,1.291830587e-14,4.654066559e-15,4.28837835e-15,2.396716575e-14,3.834950931e-14,5.735822318e-14,6.573027458e-14,3.535198259e-14,1.007737309e-14,4.583076378e-14,2.013178923e-14,7.031533896e-15,2.439335874e-14,3.209835493e-14,5.974452261e-15,1.094597786e-14,2.731750005e-14,1.175812672e-14,1.580367817e-14,1.354907885e-14,1.065169366e-14,2.859965008e-15
0.046875,5.142382805e-14,4.616507067e-14,2.589360387e-14,1.172535391e-13,3.23646513e-14,2.598028121e-14,4.454038619e-15,3.548135337e-14,9.164707787e-15,7.288338144e-15,1.291011482e-14,6.157862353e-15,4.820355534e-15,3.153622339e-14,4.29365477e-14,5.795751508e-14,7.077975674e-14,4.122257527e-14,1.271633184e-14,4.78874802e-14,2.257747088e-14,8.947933648e-15,2.74927363e-14,3.523420643e-14,6.86224245e-15,1.39225543e-14,2.911307562e-14,1.465512287e-14,1.78832183e-14,1.444647602e-14,1.319125035e-14,3.615113755e-15
0.0546875,6.019190181e-14,4.39845849e-14,2.691439912e-14,1.298466078e-13,3.809269964e-14,3.070954067e-14,4.808035789e-15,3.477344572e-14,1.073336589e-14,8.157321624e-15,1.253792467e-14,8.224140432e-15,5.489956916e-15,4.121931718e-14,4.73594113e-14,5.793424491e-14,7.538300406e-14,4.736559701e-14,1.592266508e-14,4.940325989e-14,2.450481011e-14,1.115565055e-14,3.0414637e-14,3.834027468e-14,7.829477676e-15,1.763454548e-14,3.24706789e-14,1.826688307e-14,2.018671735e-14,1.535269517e-14,1.670973397e-14,4.697018689e-15
0.0625,6.904299247e-14,4.232644193e-14,2.869635608e-14,1.409082811e-13,4.55854097e-14,3.529837038e-14,5.155655785e-15,3.28803295e-14,1.280439749e-14,9.18009522e-15,1.196565302e-14,1.108726101e-14,6.386285316e-15,5.332236538e-14,5.187326756e-14,5.775381776e-14,7.93900555e-14,5.333776803e-14,1.975889857e-14,5.080701428e-14,2.586955709e-14,1.36524603e-14,3.303425078e-14,4.136517081e-14,8.807306124e-15,2.214361332e-14,3.795493591e-14,2.28082774e-14,2.285171221e-14,1.643397982e-14,2.148022016e-14,6.134970454e-15
0.0703125,7.784609888e-14,4.213555323e-14,3.159355994e-14,1.498217221e-13,5.487306235e-14,3.926439808e-14,5.513060259e-15,3.020459045e-14,1.544398025e-14,1.044947436e-14,1.134069172e-14,1.492943352e-14,7.582787741e-15,6.794207483e-14,5.72463559e-14,5.850490324e-14,8.3089664e-14,5.895086478e-14,2.428661324e-14,5.291144838e-14,2.675699678e-14,1.636311922e-14,3.523232738e-14,4.42940687e-14,9.768870635e-15,2.727355715e-14,4.597720206e-14,2.84129204e-14,2.611064379e-14,1.767748157e-14,2.778662806e-14,7.886527581e-15
0.078125,8.638866989e-14,4.37471424e-14,3.596543805e-14,1.564612016e-13,6.572791144e-14,4.262830204e-14,5.901642805e-15,2.719849025e-14,1.868879567e-14,1.203661142e-14,1.084058353e-14,1.983420374e-14,9.152163514e-15,8.482851401e-14,6.447408316e-14,6.151369809e-14,8.695288951e-14,6.4289677e-14,2.952130637e-14,5.61649263e-14,2.723576101e-14,1.925985748e-14,3.694408571e-14,4.699828485e-14,1.071832368e-14,3.298309445e-14,5.689514572e-14,3.509528912e-14,2.999425269e-14,1.914560989e-14,3.576771709e-14,9.887905697e-15
0.0859375,9.456619089e-14,4.724819807e-14,4.178153201e-14,1.604601004e-13,7.791076386e-14,4.524103453e-14,6.326479437e-15,2.418653742e-14,2.255780919e-14,1.396122935e-14,1.053335632e-14,2.581891953e-14,1.123405252e-14,1.03390329e-13,7.383189137e-14,6.718772342e-14,9.136191817e-14,6.944198932e-14,3.538707278e-14,6.071723795e-14,2.746314016e-14,2.227842237e-14,3.815820423e-14,4.948720487e-14,1.171307736e-14,3.91185355e-14,7.02755413e-14,4.279160654e-14,3.441269902e-14,2.069148635e-14,4.554283256e-14,1.206023588e-14
0.09375,1.012706196e-13,5.253237838e-14,4.904273178e-14,1.620177803e-13,9.070443431e-14,4.712028869e-14,6.81099648e-15,2.131347409e-14,2.694121417e-14,1.62735937e-14,1.0563229e-14,3.274655992e-14,1.386095147e-14,1.22438835e-13,8.523386809e-14,7.526022657e-14,9.571939592e-14,7.3964586e-14,4.151452732e-14,6.678892876e-14,2.766738377e-14,2.533874218e-14,3.882439873e-14,5.166309406e-14,1.267548819e-14,4.552794801e-14,8.544678502e-14,5.130571236e-14,3.930905754e-14,2.23267895e-14,5.689963994e-14,1.436606836e-14
0.1015625,1.0609265e-13,5.917128099e-14,5.733713965e-14,1.620804728e-13,1.031789149e-13,4.85251205e-14,7.388058093e-15,1.894585958e-14,3.161740134e-14,1.89111051e-14,1.105771619e-14,4.016439211e-14,1.685400726e-14,1.405101082e-13,9.818989626e-14,8.516359079e-14,9.973864357e-14,7.750655261e-14,4.738322758e-14,7.435061539e-14,2.807224615e-14,2.832802673e-14,3.897694905e-14,5.350915935e-14,1.351448231e-14,5.185990366e-14,1.01197439e-13,6.017388459e-14,4.447089836e-14,2.396075786e-14,6.917248891e-14,1.674410286e-14
0.109375,1.084933958e-13,6.660188118e-14,6.607682743e-14,1.611766568e-13,1.138556304e-13,4.947332436e-14,7.983067704e-15,1.723742052e-14,3.621166224e-14,2.183553948e-14,1.212449275e-14,4.745637744e-14,2.004569255e-14,1.553896447e-13,1.112734398e-13,9.53793112e-14,1.02726319e-13,7.965155076e-14,5.243041477e-14,8.258542498e-14,2.889883073e-14,3.09876725e-14,3.846374154e-14,5.518215671e-14,1.409503457e-14,5.771660945e-14,1.159251529e-13,6.883419929e-14,4.93901669e-14,2.551903102e-14,8.143859609e-14,1.903254753e-14
0.1171875,1.086164345e-13,7.492079308e-14,7.444625127e-14,1.601517574e-13,1.218881998e-13,5.009778657e-14,8.509734441e-15,1.603483399e-14,4.024882388e-14,2.46926745e-14,1.366876562e-14,5.399787568e-14,2.32791082e-14,1.656723051e-13,1.234208467e-13,1.046684354e-13,1.038120695e-13,8.046685254e-14,5.640272254e-14,9.087844053e-14,3.006213612e-14,3.314336579e-14,3.732769758e-14,5.639221203e-14,1.437368549e-14,6.29127296e-14,1.279190378e-13,7.681081289e-14,5.353399012e-14,2.687058878e-14,9.285266637e-14,2.120698976e-14
0.125,1.058614665e-13,8.360013386e-14,8.169712005e-14,1.586153766e-13,1.262082776e-13,5.001743705e-14,8.94952976e-15,1.53409696e-14,4.324287492e-14,2.72362561e-14,1.555518219e-14,5.909825239e-14,2.624924302e-14,1.698043351e-13,1.335293283e-13,1.121558544e-13,1.023350814e-13,7.956878208e-14,5.886638918e-14,9.881773009e-14,3.152831136e-14,3.446604235e-14,3.556017621e-14,5.704978272e-14,1.432995389e-14,6.736569915e-14,1.363364304e-13,8.331682591e-14,5.661051695e-14,2.798533187e-14,1.024340355e-13,2.322271853e-14
0.1328125,1.00436234e-13,9.198859048e-14,8.70713257e-14,1.559436222e-13,1.265739931e-13,4.913584542e-14,9.320321699e-15,1.50551918e-14,4.484231558e-14,2.920140004e-14,1.76145474e-14,6.222561366e-14,2.864313126e-14,1.673629135e-13,1.399432718e-13,1.164664285e-13,9.804151411e-14,7.662159171e-14,5.937876148e-14,1.057861643e-13,3.321490866e-14,3.478768368e-14,3.322395047e-14,5.70777876e-14,1.390435487e-14,7.074038212e-14,1.401153991e-13,8.762991271e-14,5.830687544e-14,2.880132457e-14,1.094382805e-13,2.499706742e-14
0.140625,9.242164497e-14,9.914941104e-14,9.016476382e-14,1.513167475e-13,1.231345403e-13,4.698292172e-14,9.649575211e-15,1.499104245e-14,4.465138353e-14,3.037322889e-14,1.968865342e-14,6.304183667e-14,3.010393233e-14,1.584961561e-13,1.420240248e-13,1.172430107e-13,9.112095528e-14,7.18531177e-14,5.776534432e-14,1.114131797e-13,3.482442722e-14,3.387159589e-14,3.038586959e-14,5.62602672e-14,1.312008949e-14,7.286917328e-14,1.390707006e-13,8.903659131e-14,5.797534713e-14,2.936920922e-14,1.130964479e-13,2.646986122e-14
0.1484375,8.315138874e-14,1.048392903e-13,9.071185753e-14,1.440278821e-13,1.165097496e-13,4.358380837e-14,1.000828429e-14,1.511546173e-14,4.276414135e-14,3.09176901e-14,2.131069901e-14,6.173547912e-14,3.075341172e-14,1.446612662e-13,1.397974928e-13,1.143783011e-13,8.195963172e-14,6.591377061e-14,5.440429421e-14,1.151582967e-13,3.606761205e-14,3.187055755e-14,2.722148314e-14,5.470705364e-14,1.214200022e-14,7.340220873e-14,1.329981445e-13,8.771906955e-14,5.547945085e-14,2.950644623e-14,1.137216426e-13,2.757487388e-14
0.15625,7.291681426e-14,1.08832515e-13,8.923863603e-14,1.333064715e-13,1.081439776e-13,3.887121462e-14,1.047527349e-14,1.546340293e-14,3.951598872e-14,3.100755445e-14,2.237176611e-14,5.874519693e-14,3.077078983e-14,1.276962943e-13,1.337952971e-13,1.09104451e-13,7.211546584e-14,5.903987054e-14,4.987101843e-14,1.179320843e-13,3.691277565e-14,2.89543415e-14,2.378119364e-14,5.282092617e-14,1.107083589e-14,7.236546163e-14,1.239583408e-13,8.378287531e-14,5.141140409e-14,2.932305128e-14,1.118901273e-13,2.820476395e-14
0.1640625,6.265202764e-14,1.105147279e-13,8.631345999e-14,1.198030357e-13,9.966387042e-14,3.351772023e-14,1.106637263e-14,1.595780697e-14,3.539317665e-14,3.074663656e-14,2.294757756e-14,5.472025732e-14,3.038292427e-14,1.097615566e-13,1.246370398e-13,1.015155537e-13,6.224047242e-14,5.191048286e-14,4.478852861e-14,1.195017518e-13,3.723127466e-14,2.553921421e-14,2.04362156e-14,5.058174951e-14,1.002028388e-14,6.97623067e-14,1.131921551e-13,7.769670792e-14,4.636968417e-14,2.877522181e-14,1.082041872e-13,2.834815233e-14
0.171875,5.323363367e-14,1.102148908e-13,8.255415831e-14,1.037921391e-13,9.179586697e-14,2.810234481e-14,1.177060209e-14,1.658158703e-14,3.099878842e-14,3.027376822e-14,2.278611996e-14,5.017727742e-14,2.978579614e-14,9.283814409e-14,1.141082871e-13,9.35932829e-14,5.367122544e-14,4.523927857e-14,3.961402807e-14,1.207210104e-13,3.675102424e-14,2.193941152e-14,1.730704301e-14,4.815901618e-14,9.118929157e-15,6.596336523e-14,1.02059361e-13,6.995127002e-14,4.096966497e-14,2.786196848e-14,1.033744661e-13,2.811244469e-14
0.1796875,4.493542561e-14,1.080386112e-13,7.816963824e-14,8.704778596e-14,8.507954722e-14,2.321232927e-14,1.247581692e-14,1.734198837e-14,2.678055124e-14,2.952246808e-14,2.175280874e-14,4.54919973e-14,2.912306158e-14,7.804224739e-14,1.033709153e-13,8.653305982e-14,4.703705328e-14,3.95040167e-14,3.47349517e-14,1.21454946e-13,3.538432219e-14,1.847204439e-14,1.465155175e-14,4.560876526e-14,8.427700366e-15,6.106495237e-14,9.202129075e-14,6.114602191e-14,3.608511701e-14,2.650175173e-14,9.784998863e-14,2.756363368e-14
0.1875,3.842447235e-14,1.047592646e-13,7.323153579e-14,7.074000922e-14,7.983292768e-14,1.941556198e-14,1.313057608e-14,1.823859697e-14,2.293972514e-14,2.857291655e-14,1.993044255e-14,4.079456108e-14,2.847954892e-14,6.575495104e-14,9.374567327e-14,8.164027198e-14,4.317435232e-14,3.516368722e-14,3.042550378e-14,1.222687425e-13,3.320236466e-14,1.535577444e-14,1.249136686e-14,4.301933839e-14,7.939764656e-15,5.526575134e-14,8.379212081e-14,5.203316796e-14,3.187068025e-14,2.462010554e-14,9.182922817e-14,2.677906325e-14
0.1953125,3.382105777e-14,1.012988827e-13,6.806001819e-14,5.620778783e-14,7.507241865e-14,1.717232183e-14,1.375590356e-14,1.937741095e-14,1.983920316e-14,2.742269457e-14,1.790034628e-14,3.621667849e-14,2.787679547e-14,5.605727237e-14,8.62911046e-14,8.010233234e-14,4.263540915e-14,3.213645701e-14,2.673945604e-14,1.235615736e-13,3.038552938e-14,1.280116768e-14,1.095141991e-14,4.070742994e-14,7.661576541e-15,4.93992184e-14,7.790479597e-14,4.337047282e-14,2.876012607e-14,2.233802292e-14,8.55311311e-14,2.606678389e-14
0.203125,3.093937466e-14,9.854972774e-14,6.311341089e-14,4.418549268e-14,7.022415433e-14,1.658512714e-14,1.425370178e-14,2.09959883e-14,1.751617535e-14,2.598594389e-14,1.57529689e-14,3.194011647e-14,2.739847367e-14,4.857026697e-14,8.116922027e-14,8.177963597e-14,4.523623077e-14,3.011996707e-14,2.352751028e-14,1.253908251e-13,2.7391745e-14,1.08146341e-14,1.004498624e-14,3.900145824e-14,7.520406803e-15,4.382323916e-14,7.396505824e-14,3.550355819e-14,2.690267025e-14,1.975844533e-14,7.919692928e-14,2.554112183e-14
0.2109375,2.952474162e-14,9.71880838e-14,5.831031014e-14,3.480983411e-14,6.456627547e-14,1.739084871e-14,1.45814407e-14,2.297113989e-14,1.580713404e-14,2.453883137e-14,1.380356803e-14,2.798083891e-14,2.721024987e-14,4.302631214e-14,7.910497618e-14,8.746128155e-14,5.087702886e-14,2.906076406e-14,2.083053707e-14,1.280993149e-13,2.445369813e-14,9.377004956e-15,9.648385356e-15,3.782771062e-14,7.524882101e-15,3.916686912e-14,7.174286656e-14,2.893546682e-14,2.64277301e-14,1.713709603e-14,7.342933795e-14,2.537061735e-14
0.21875,2.982970838e-14,9.685098725e-14,5.378550161e-14,2.803154629e-14,5.832411116e-14,1.915975194e-14,1.466291381e-14,2.530016659e-14,1.465111231e-14,2.31346297e-14,1.226268596e-14,2.424110845e-14,2.749199491e-14,3.908355891e-14,8.027833092e-14,9.738648643e-14,5.963546131e-14,2.905375442e-14,1.859684273e-14,1.320763475e-13,2.185952542e-14,8.484254564e-15,9.739740169e-15,3.730410159e-14,7.74475908e-15,3.586382397e-14,7.125054586e-14,2.365318618e-14,2.742736933e-14,1.460041792e-14,6.824096143e-14,2.580179989e-14
0.2265625,3.121115197e-14,9.790454436e-14,4.978345751e-14,2.395821412e-14,5.095960705e-14,2.14248426e-14,1.471870634e-14,2.795650119e-14,1.38479995e-14,2.186607921e-14,1.13500515e-14,2.07869555e-14,2.840390281e-14,3.610987211e-14,8.467653552e-14,1.109013233e-13,7.106135193e-14,2.991372897e-14,1.666028762e-14,1.370340579e-13,1.986736332e-14,7.966942963e-15,1.020268311e-14,3.769589951e-14,8.202711338e-15,3.38237588e-14,7.185063114e-14,1.973572852e-14,2.963250847e-14,1.215669924e-14,6.386357141e-14,2.673347753e-14
0.234375,3.319239366e-14,9.981412192e-14,4.638520315e-14,2.189705988e-14,4.319385567e-14,2.361691165e-14,1.481345736e-14,3.116136525e-14,1.356997424e-14,2.102583017e-14,1.098837462e-14,1.771089416e-14,3.002782752e-14,3.405847994e-14,9.165498521e-14,1.272912155e-13,8.447734459e-14,3.142838923e-14,1.498078621e-14,1.429327929e-13,1.860197569e-14,7.845623012e-15,1.092015619e-14,3.922618269e-14,8.863544049e-15,3.312161376e-14,7.306291164e-14,1.716042888e-14,3.267823025e-14,1.005850973e-14,6.053116646e-14,2.811067398e-14
0.2421875,3.516217984e-14,1.016662923e-13,4.308639572e-14,2.173952929e-14,3.540774347e-14,2.50993635e-14,1.481671391e-14,3.503473878e-14,1.396046937e-14,2.081167875e-14,1.095290127e-14,1.510385288e-14,3.239195833e-14,3.242325787e-14,9.985867795e-14,1.451535511e-13,9.887460524e-14,3.348428264e-14,1.348110688e-14,1.49832954e-13,1.813567608e-14,8.037075199e-15,1.183868218e-14,4.211332776e-14,9.693797921e-15,3.34572178e-14,7.441774224e-14,1.588272038e-14,3.607735981e-14,8.297448052e-15,5.818107864e-14,2.976993921e-14
0.25,3.728691314e-14,1.023035088e-13,4.006081709e-14,2.25224971e-14,2.848081274e-14,2.558281546e-14,1.471818533e-14,3.952226701e-14,1.518000883e-14,2.130372505e-14,1.107441362e-14,1.31929701e-14,3.539988365e-14,3.133034712e-14,1.088578246e-13,1.637719998e-13,1.132847367e-13,3.613437705e-14,1.226024973e-14,1.584090223e-13,1.845303715e-14,8.524668865e-15,1.286744382e-14,4.635547718e-14,1.065981692e-14,3.469277474e-14,7.560365792e-14,1.563733434e-14,3.95195908e-14,6.949349076e-15,5.709608359e-14,3.168190315e-14
0.2578125,3.906757096e-14,1.011966182e-13,3.782078956e-14,2.341863887e-14,2.335006044e-14,2.516075189e-14,1.470305086e-14,4.453923854e-14,1.727616649e-14,2.255792165e-14,1.133100193e-14,1.200925569e-14,3.893050121e-14,3.064110069e-14,1.17724585e-13,1.819370778e-13,1.268110201e-13,3.952611904e-14,1.139920567e-14,1.683002321e-13,1.95213931e-14,9.266853589e-15,1.394109565e-14,5.177478504e-14,1.180724536e-14,3.658377358e-14,7.680157397e-14,1.604526897e-14,4.322368238e-14,5.955101404e-15,5.73749534e-14,3.376017929e-14
0.265625,4.027483883e-14,9.833880607e-14,3.634808112e-14,2.380502647e-14,2.043398443e-14,2.425859088e-14,1.480757192e-14,4.972656082e-14,2.027533167e-14,2.451770249e-14,1.157465073e-14,1.15821371e-14,4.271297739e-14,3.048343679e-14,1.251951675e-13,1.981979671e-13,1.384484817e-13,4.355628905e-14,1.087477428e-14,1.791249596e-13,2.114502649e-14,1.029336963e-14,1.499810618e-14,5.770583866e-14,1.307686609e-14,3.889586881e-14,7.766329585e-14,1.702253543e-14,4.683671758e-14,5.313088046e-15,5.887640758e-14,3.5913527e-14
0.2734375,4.152834296e-14,9.338852615e-14,3.493472078e-14,2.356601355e-14,1.984062652e-14,2.293607717e-14,1.507180584e-14,5.481148237e-14,2.379614612e-14,2.685665117e-14,1.166068205e-14,1.150977447e-14,4.588836239e-14,3.092472855e-14,1.309523021e-13,2.127398889e-13,1.489758544e-13,4.795172742e-14,1.058277804e-14,1.908049974e-13,2.294886702e-14,1.149530874e-14,1.597884757e-14,6.331950235e-14,1.438942206e-14,4.129349927e-14,7.850662818e-14,1.812755087e-14,4.97120425e-14,4.960064427e-15,6.041104276e-14,3.800680568e-14
0.28125,4.320605418e-14,8.637728829e-14,3.328670762e-14,2.257301975e-14,2.125288077e-14,2.172133578e-14,1.533469837e-14,5.956390741e-14,2.756736344e-14,2.934823881e-14,1.152302695e-14,1.164769449e-14,4.786494592e-14,3.156964344e-14,1.335116431e-13,2.23999538e-13,1.584647111e-13,5.259629423e-14,1.037296615e-14,2.02190459e-13,2.480232559e-14,1.276856659e-14,1.702699398e-14,6.82173834e-14,1.565649112e-14,4.355874192e-14,7.879512127e-14,1.916887308e-14,5.126593658e-14,4.912484358e-15,6.161522385e-14,3.993145774e-14
0.2890625,4.545110161e-14,7.766135416e-14,3.213899208e-14,2.089400219e-14,2.465483021e-14,2.093132489e-14,1.562698232e-14,6.364782291e-14,3.11823302e-14,3.160398479e-14,1.136884588e-14,1.19308183e-14,4.835288235e-14,3.26078623e-14,1.334344846e-13,2.321340096e-13,1.670799946e-13,5.710944988e-14,1.022412116e-14,2.137669229e-13,2.658152175e-14,1.410146704e-14,1.816887307e-14,7.216184084e-14,1.684046296e-14,4.558059901e-14,7.838396071e-14,1.96776114e-14,5.225429275e-14,5.209706991e-15,6.244302087e-14,4.167560656e-14
0.296875,4.816527531e-14,6.810972274e-14,3.114207195e-14,1.916714065e-14,2.961267082e-14,2.080616927e-14,1.60214578e-14,6.644115681e-14,3.425499867e-14,3.355627835e-14,1.136690942e-14,1.217420495e-14,4.737194514e-14,3.373460064e-14,1.304013009e-13,2.363740423e-13,1.747238014e-13,6.130166776e-14,1.008537195e-14,2.246156995e-13,2.80920458e-14,1.542372149e-14,1.950814428e-14,7.472965534e-14,1.791044289e-14,4.708799497e-14,7.676353871e-14,1.966937863e-14,5.278163839e-14,5.819462436e-15,6.259750862e-14,4.313172435e-14
0.3046875,5.103080916e-14,5.86070037e-14,3.02766452e-14,1.855707714e-14,3.565973846e-14,2.11134697e-14,1.651483157e-14,6.732593707e-14,3.627974702e-14,3.490649955e-14,1.164019902e-14,1.22566951e-14,4.529541603e-14,3.51217349e-14,1.247773107e-13,2.365737588e-13,1.809431214e-13,6.506500489e-14,9.965870877e-15,2.338728044e-13,2.928674897e-14,1.664518135e-14,2.111893163e-14,7.552591291e-14,1.889674856e-14,4.821502456e-14,7.432339849e-14,1.922827545e-14,5.309844397e-14,6.759154066e-15,6.183051269e-14,4.435425136e-14
0.3125,5.371691229e-14,5.011654368e-14,2.921541132e-14,1.978831277e-14,4.235187905e-14,2.174951153e-14,1.71495205e-14,6.64592857e-14,3.722420247e-14,3.554262658e-14,1.221133118e-14,1.200405835e-14,4.21366032e-14,3.644451974e-14,1.175351748e-13,2.338928183e-13,1.85809756e-13,6.815364372e-14,9.765544121e-15,2.421629106e-13,3.01425422e-14,1.768340951e-14,2.290345344e-14,7.435284815e-14,1.978942843e-14,4.895560787e-14,7.122402426e-14,1.821036915e-14,5.292340146e-14,7.904325528e-15,5.975762936e-14,4.539294077e-14
0.3203125,5.551672825e-14,4.3678445e-14,2.829652135e-14,2.379705517e-14,4.938481162e-14,2.220611162e-14,1.775870857e-14,6.412416448e-14,3.724353344e-14,3.573196642e-14,1.303169433e-14,1.160543176e-14,3.831050957e-14,3.737254842e-14,1.0898883e-13,2.283390127e-13,1.880973199e-13,7.047623289e-14,9.518594566e-15,2.488556367e-13,3.066008214e-14,1.852586889e-14,2.478314935e-14,7.191406949e-14,2.050659421e-14,4.93471385e-14,6.750515309e-14,1.703313814e-14,5.249314065e-14,9.299368435e-15,5.696385629e-14,4.631197017e-14
0.328125,5.686924491e-14,3.916817803e-14,2.750258951e-14,3.10078546e-14,5.62466642e-14,2.241086241e-14,1.829074808e-14,6.068683133e-14,3.6581795e-14,3.565887978e-14,1.401767499e-14,1.119043301e-14,3.414482343e-14,3.803531749e-14,9.977638933e-14,2.207542864e-13,1.880578952e-13,7.199822406e-14,9.232669615e-15,2.534265049e-13,3.091260245e-14,1.920272066e-14,2.656413937e-14,6.879028584e-14,2.103741689e-14,4.942859318e-14,6.379193144e-14,1.578642681e-14,5.193528576e-14,1.071522997e-14,5.390444888e-14,4.711689732e-14
0.3359375,5.762564624e-14,3.671233309e-14,2.65906789e-14,4.131503844e-14,6.283256771e-14,2.214894382e-14,1.87694549e-14,5.64480663e-14,3.548675906e-14,3.543209433e-14,1.518468635e-14,1.078677565e-14,3.001418727e-14,3.812811366e-14,8.99380287e-14,2.108431554e-13,1.849397732e-13,7.241953839e-14,8.857075377e-15,2.555292147e-13,3.11403708e-14,1.971923539e-14,2.802299146e-14,6.532321857e-14,2.132123884e-14,4.90034098e-14,5.985618764e-14,1.489195003e-14,5.083593521e-14,1.200781586e-14,5.082781166e-14,4.773539433e-14
0.34375,5.820147951e-14,3.661644253e-14,2.565020261e-14,5.350042888e-14,6.812634809e-14,2.139413967e-14,1.916027805e-14,5.136786623e-14,3.377528048e-14,3.528820154e-14,1.642028109e-14,1.033795087e-14,2.639449146e-14,3.760043438e-14,7.984852119e-14,1.982126459e-13,1.780937184e-13,7.207864573e-14,8.541735705e-15,2.533258521e-13,3.131786942e-14,1.994695765e-14,2.901570961e-14,6.111194026e-14,2.14341138e-14,4.830115076e-14,5.574165455e-14,1.461701741e-14,4.895275711e-14,1.302698116e-14,4.799887465e-14,4.807319644e-14
0.3515625,5.900547224e-14,3.855725635e-14,2.461871574e-14,6.700662108e-14,7.18816942e-14,2.022708363e-14,1.937803129e-14,4.570296719e-14,3.166700373e-14,3.509283036e-14,1.758180277e-14,9.894433126e-15,2.324582358e-14,3.657834068e-14,6.979209097e-14,1.831137756e-13,1.678684179e-13,7.098706592e-14,8.238542265e-15,2.469143314e-13,3.131509318e-14,1.984217769e-14,2.927657069e-14,5.633147107e-14,2.128018581e-14,4.713751507e-14,5.174869737e-14,1.496733747e-14,4.644254033e-14,1.364477847e-14,4.5157272e-14,4.800910231e-14
0.359375,6.034470962e-14,4.177543315e-14,2.377127786e-14,8.049096854e-14,7.362270527e-14,1.889190224e-14,1.947979581e-14,3.978998196e-14,2.909188409e-14,3.523649175e-14,1.85874159e-14,9.351810674e-15,2.039811173e-14,3.491015125e-14,5.986459255e-14,1.654887111e-13,1.54584259e-13,6.916442708e-14,7.87795963e-15,2.353856965e-13,3.11643369e-14,1.935288063e-14,2.877262224e-14,5.098908212e-14,2.080807353e-14,4.527703333e-14,4.731124802e-14,1.587824326e-14,4.324553256e-14,1.38562527e-14,4.221543495e-14,4.731872986e-14
0.3671875,6.27156823e-14,4.581756343e-14,2.31637251e-14,9.310591143e-14,7.326985835e-14,1.760389615e-14,1.949562471e-14,3.398506309e-14,2.620127696e-14,3.550650035e-14,1.951657793e-14,8.742602953e-15,1.784737925e-14,3.286341032e-14,5.087683238e-14,1.472833716e-13,1.401892709e-13,6.71286544e-14,7.517980238e-15,2.193271399e-13,3.091084443e-14,1.849325895e-14,2.76462817e-14,4.567170316e-14,2.015483033e-14,4.286216243e-14,4.275686621e-14,1.731287258e-14,3.95685765e-14,1.372149949e-14,3.933790009e-14,4.604629673e-14
0.375,6.60655971e-14,5.028875002e-14,2.304520123e-14,1.033472353e-13,7.120866782e-14,1.655817577e-14,1.946315169e-14,2.852643066e-14,2.31475707e-14,3.581527905e-14,2.019579402e-14,8.10764562e-15,1.573174036e-14,3.071638371e-14,4.300241364e-14,1.293976742e-13,1.257293768e-13,6.506510497e-14,7.168066782e-15,2.009462218e-13,3.059710081e-14,1.736916975e-14,2.618450362e-14,4.079568822e-14,1.945236569e-14,4.010918331e-14,3.838414435e-14,1.918514082e-14,3.589929255e-14,1.332304727e-14,3.673678323e-14,4.429963928e-14
0.3828125,7.010644416e-14,5.47385514e-14,2.293607416e-14,1.121087267e-13,6.723299192e-14,1.571866698e-14,1.921897002e-14,2.353588045e-14,1.993578975e-14,3.608567318e-14,2.081339014e-14,7.532510281e-15,1.404886647e-14,2.827812683e-14,3.606062491e-14,1.117680253e-13,1.116681936e-13,6.310727693e-14,6.80210218e-15,1.806428621e-13,3.0378254e-14,1.595157284e-14,2.444985689e-14,3.659553406e-14,1.856750565e-14,3.6832723e-14,3.393570742e-14,2.115843292e-14,3.203801723e-14,1.264734635e-14,3.408836842e-14,4.191073296e-14
0.390625,7.508235777e-14,5.90692415e-14,2.298655615e-14,1.197371381e-13,6.278878698e-14,1.567986855e-14,1.880650015e-14,1.926682009e-14,1.686393075e-14,3.612223728e-14,2.149389709e-14,7.029860931e-15,1.282478158e-14,2.608842352e-14,3.070270394e-14,9.587178714e-14,9.933766545e-14,6.169998378e-14,6.434298506e-15,1.606761636e-13,3.024232733e-14,1.4503432e-14,2.257569422e-14,3.312266399e-14,1.756853068e-14,3.344567819e-14,2.967720345e-14,2.297329561e-14,2.810871938e-14,1.183712906e-14,3.157774611e-14,3.917813138e-14
0.3984375,8.058976639e-14,6.296190166e-14,2.363094421e-14,1.272609348e-13,5.785750368e-14,1.641596594e-14,1.82142375e-14,1.560397725e-14,1.394633005e-14,3.588453895e-14,2.239520973e-14,6.632373743e-15,1.195737703e-14,2.431192102e-14,2.71222976e-14,8.226938075e-14,8.867635147e-14,6.048478199e-14,6.082741815e-15,1.412459247e-13,3.025094832e-14,1.313247695e-14,2.094380121e-14,3.011030762e-14,1.657213488e-14,3.014016649e-14,2.573505183e-14,2.471569546e-14,2.41636271e-14,1.103737999e-14,2.921713257e-14,3.626521516e-14
0.40625,8.527131071e-14,6.599603748e-14,2.503894276e-14,1.347446325e-13,5.250658654e-14,1.79118518e-14,1.741037395e-14,1.247869108e-14,1.12857562e-14,3.560463135e-14,2.378805204e-14,6.479930263e-15,1.142060277e-14,2.255626549e-14,2.500197604e-14,7.059858985e-14,7.926530007e-14,5.900209555e-14,5.629601709e-15,1.228917187e-13,3.051458874e-14,1.17391743e-14,1.964643833e-14,2.770207297e-14,1.553579714e-14,2.700502344e-14,2.193228978e-14,2.660232441e-14,2.05623681e-14,1.041377837e-14,2.686807742e-14,3.329581844e-14
0.4140625,8.908967645e-14,6.908073965e-14,2.718968672e-14,1.419332248e-13,4.758280317e-14,2.006178936e-14,1.650660766e-14,9.913836816e-15,8.967299426e-15,3.534356635e-14,2.530120536e-14,6.580633619e-15,1.13930641e-14,2.110822469e-14,2.450148552e-14,6.123544545e-14,7.112766533e-14,5.778728883e-14,5.185298836e-15,1.077155472e-13,3.097065809e-14,1.042335464e-14,1.864736634e-14,2.553889975e-14,1.462341637e-14,2.436033515e-14,1.849973798e-14,2.864317838e-14,1.778182063e-14,1.00198173e-14,2.468722016e-14,3.035521799e-14
0.421875,9.183277304e-14,7.248495886e-14,2.997545053e-14,1.48323005e-13,4.321809448e-14,2.295833128e-14,1.563765465e-14,7.859705749e-15,7.033039894e-15,3.487247462e-14,2.71314107e-14,6.931796741e-15,1.177637272e-14,2.023262826e-14,2.585448929e-14,5.444871953e-14,6.434171644e-14,5.664877214e-14,4.868731859e-15,9.619950583e-14,3.163796951e-14,9.293007893e-15,1.806256251e-14,2.347340305e-14,1.391353149e-14,2.212811194e-14,1.563632621e-14,3.106833816e-14,1.573478777e-14,9.774682568e-15,2.287381198e-14,2.763178223e-14
0.4296875,9.280312246e-14,7.695131803e-14,3.375381857e-14,1.528319268e-13,3.961088911e-14,2.625502492e-14,1.482927275e-14,6.199853721e-15,5.449513319e-15,3.410162227e-14,2.937641973e-14,7.475056876e-15,1.2486347e-14,1.981070619e-14,2.841555879e-14,4.950319896e-14,5.828148839e-14,5.517489669e-14,4.710259348e-15,8.855106983e-14,3.265668415e-14,8.300786384e-15,1.781982154e-14,2.120387033e-14,1.334259891e-14,2.029170669e-14,1.319647084e-14,3.403417515e-14,1.448597627e-14,9.764815049e-15,2.134203895e-14,2.510134471e-14
0.4375,9.205935355e-14,8.290006338e-14,3.856154201e-14,1.552866241e-13,3.723326691e-14,2.968254608e-14,1.405654066e-14,4.928297228e-15,4.230172682e-15,3.307975377e-14,3.202452568e-14,8.188641347e-15,1.347155245e-14,1.999497292e-14,3.170122014e-14,4.594404793e-14,5.278825643e-14,5.347406984e-14,4.756039338e-15,8.507742681e-14,3.416177155e-14,7.467283729e-15,1.778072234e-14,1.869281752e-14,1.290689972e-14,1.890066302e-14,1.130213605e-14,3.768812638e-14,1.399315372e-14,9.987326672e-15,2.007642749e-14,2.279519046e-14
0.4453125,8.915581346e-14,9.056270793e-14,4.408910052e-14,1.552410081e-13,3.600421256e-14,3.250180603e-14,1.346733825e-14,4.065361197e-15,3.376962343e-15,3.215428418e-14,3.500737392e-14,9.151006563e-15,1.452492032e-14,2.062882476e-14,3.536377978e-14,4.345618641e-14,4.756982666e-14,5.139470726e-14,4.961108843e-15,8.537443043e-14,3.612348101e-14,6.752907482e-15,1.782765064e-14,1.61244028e-14,1.256030873e-14,1.79333958e-14,9.88937978e-15,4.170425739e-14,1.41198603e-14,1.041216019e-14,1.895681089e-14,2.065718818e-14
0.453125,8.454878993e-14,1.002926677e-13,4.998614055e-14,1.528964451e-13,3.619957991e-14,3.49669951e-14,1.306523623e-14,3.477629679e-15,2.924051193e-15,3.088949793e-14,3.838076995e-14,1.03799118e-14,1.565844131e-14,2.193880476e-14,3.906933001e-14,4.166440025e-14,4.259801965e-14,4.912735522e-14,5.378167153e-15,8.864269257e-14,3.857439034e-14,6.196933871e-15,1.797528258e-14,1.362469073e-14,1.223704102e-14,1.737812048e-14,8.879074347e-15,4.598075637e-14,1.489050097e-14,1.095481302e-14,1.814816404e-14,1.877475301e-14
0.4609375,7.849155893e-14,1.118994753e-13,5.607897872e-14,1.478508885e-13,3.778944762e-14,3.645184933e-14,1.274298621e-14,3.177065835e-15,2.839471858e-15,2.957685216e-14,4.180844106e-14,1.192733131e-14,1.674648929e-14,2.373338414e-14,4.261278633e-14,4.053970208e-14,3.801103352e-14,4.683111837e-14,6.06483518e-15,9.438648806e-14,4.1552669e-14,5.724017701e-15,1.81147477e-14,1.139572991e-14,1.192648853e-14,1.723479335e-14,8.296705355e-15,5.012662904e-14,1.618652046e-14,1.160974626e-14,1.745721675e-14,1.724012635e-14
0.46875,7.15159188e-14,1.255079043e-13,6.204157181e-14,1.407345127e-13,4.073355138e-14,3.733452719e-14,1.252857967e-14,3.03279376e-15,3.147099139e-15,2.807210126e-14,4.524005112e-14,1.373786488e-14,1.801992641e-14,2.632314949e-14,4.576661875e-14,3.975373531e-14,3.367226989e-14,4.481100924e-14,7.06643913e-15,1.011600657e-13,4.471255786e-14,5.380189043e-15,1.817745315e-14,9.355997949e-15,1.165486595e-14,1.725734869e-14,8.028949337e-15,5.412844499e-14,1.789544239e-14,1.227764387e-14,1.709490055e-14,1.604106641e-14
0.4765625,6.471088214e-14,1.39938361e-13,6.787645957e-14,1.322394412e-13,4.490361675e-14,3.760351499e-14,1.236569001e-14,3.044775718e-15,3.805264101e-15,2.651557476e-14,4.858496393e-14,1.581834026e-14,1.936544185e-14,2.970271801e-14,4.825264154e-14,3.894704472e-14,2.981831885e-14,4.333798044e-14,8.35705734e-15,1.068934963e-13,4.776373364e-14,5.155927189e-15,1.818564575e-14,7.693627639e-15,1.141609296e-14,1.727297561e-14,7.95406952e-15,5.790462522e-14,1.991618093e-14,1.294472831e-14,1.684246102e-14,1.520448869e-14
0.484375,5.82499937e-14,1.544122536e-13,7.285078167e-14,1.23285216e-13,4.967557366e-14,3.738977616e-14,1.222741219e-14,3.280694213e-15,4.689984379e-15,2.50724857e-14,5.164695061e-14,1.804097597e-14,2.083846291e-14,3.369526733e-14,5.024743201e-14,3.818488803e-14,2.665389391e-14,4.229853939e-14,9.883069815e-15,1.106344467e-13,5.064453858e-14,5.045633312e-15,1.808128206e-14,6.406002211e-15,1.118519898e-14,1.719965382e-14,7.979999197e-15,6.127310908e-14,2.213185697e-14,1.350680322e-14,1.692302466e-14,1.466576449e-14
0.4921875,5.235615498e-14,1.675849183e-13,7.690548087e-14,1.145423907e-13,5.493822375e-14,3.727999404e-14,1.214621122e-14,3.685038079e-15,5.847671307e-15,2.399040801e-14,5.388869823e-14,2.0407378e-14,2.258118216e-14,3.851163183e-14,5.207393964e-14,3.744916965e-14,2.397648043e-14,4.166707566e-14,1.16834517e-14,1.115099209e-13,5.303172095e-14,5.187716938e-15,1.787966609e-14,5.399656259e-15,1.090024677e-14,1.713826036e-14,7.947244648e-15,6.439450858e-14,2.412138856e-14,1.404775716e-14,1.769203623e-14,1.453226807e-14
0.5,4.716790663e-14,1.785291259e-13,7.958875395e-14,1.068521449e-13,5.96543937e-14,3.745722249e-14,1.203513097e-14,4.237889398e-15,7.114663359e-15,2.312229352e-14,5.509404266e-14,2.270379348e-14,2.43944798e-14,4.344421161e-14,5.368150363e-14,3.659561746e-14,2.182899301e-14,4.142200433e-14,1.359650338e-14,1.091730419e-13,5.447964615e-14,5.490093017e-15,1.773672541e-14,4.75435374e-15,1.060229806e-14,1.696465208e-14,8.070208276e-15,6.696123449e-14,2.556222605e-14,1.441407624e-14,1.885883657e-14,1.477149456e-14
0.5078125,4.294642155e-14,1.865044371e-13,8.083866168e-14,1.004162771e-13,6.330198215e-14,3.783589951e-14,1.180687677e-14,4.989636372e-15,8.337349277e-15,2.242546025e-14,5.520351097e-14,2.474025862e-14,2.624256023e-14,4.780604745e-14,5.496412139e-14,3.575818171e-14,2.025836491e-14,4.121270424e-14,1.550453144e-14,1.045270325e-13,5.496199259e-14,5.919358966e-15,1.750258882e-14,4.518848586e-15,1.024546511e-14,1.658948236e-14,8.159483725e-15,6.933193694e-14,2.611809717e-14,1.457380286e-14,2.018767149e-14,1.529826948e-14
0.515625,3.983061052e-14,1.913854726e-13,8.025846422e-14,9.529553948e-14,6.499325058e-14,3.807868551e-14,1.145956213e-14,6.052413163e-15,9.359117466e-15,2.215463633e-14,5.434357826e-14,2.6256866e-14,2.786558114e-14,5.093756759e-14,5.572293675e-14,3.480172169e-14,1.897452475e-14,4.047130456e-14,1.719949021e-14,9.773750992e-14,5.441730848e-14,6.432000575e-15,1.72242105e-14,4.721287955e-15,9.768046966e-15,1.621517597e-14,8.123350914e-15,7.140913606e-14,2.610016837e-14,1.452556256e-14,2.162775681e-14,1.618818404e-14
0.5234375,3.717391652e-14,1.943654267e-13,7.826146309e-14,9.201986749e-14,6.434588511e-14,3.811495501e-14,1.093003863e-14,7.453767498e-15,1.016951569e-14,2.223245497e-14,5.30552579e-14,2.735478509e-14,2.926429548e-14,5.251966679e-14,5.624945335e-14,3.393960345e-14,1.764484544e-14,3.906698813e-14,1.849571349e-14,9.049772765e-14,5.304484037e-14,7.019282951e-15,1.6966333e-14,5.415418339e-15,9.173415788e-15,1.586527998e-14,8.020710491e-15,7.352490474e-14,2.560701946e-14,1.424931409e-14,2.319964743e-14,1.733356093e-14
0.53125,3.543552872e-14,1.958177545e-13,7.518724752e-14,8.962796676e-14,6.222483789e-14,3.796554793e-14,1.027344216e-14,8.934489913e-15,1.082552315e-14,2.270649418e-14,5.146739651e-14,2.806113475e-14,3.040764155e-14,5.305341329e-14,5.623539773e-14,3.330711099e-14,1.650897689e-14,3.730629886e-14,1.936202466e-14,8.421934015e-14,5.103953456e-14,7.738368036e-15,1.675012529e-14,6.60686517e-15,8.550202892e-15,1.56170158e-14,8.046165053e-15,7.573774178e-14,2.48135265e-14,1.380862885e-14,2.491755766e-14,1.863463622e-14
0.5390625,3.496707266e-14,1.956832633e-13,7.07959571e-14,8.73821975e-14,5.954888806e-14,3.768895659e-14,9.491215888e-15,1.04872362e-14,1.140118541e-14,2.330562179e-14,4.959485521e-14,2.831941547e-14,3.12324812e-14,5.27347967e-14,5.548193465e-14,3.298304297e-14,1.567903134e-14,3.516770278e-14,1.985864223e-14,7.898609887e-14,4.821492342e-14,8.5841115e-15,1.654725444e-14,8.403316404e-15,7.893870808e-15,1.544550705e-14,8.204286265e-15,7.767888547e-14,2.350996668e-14,1.318044455e-14,2.644649612e-14,1.986883675e-14
0.546875,3.577990525e-14,1.954668924e-13,6.558926939e-14,8.565861216e-14,5.689056404e-14,3.735932812e-14,8.561878842e-15,1.226231425e-14,1.195322975e-14,2.415503443e-14,4.765960822e-14,2.822983107e-14,3.176185391e-14,5.196927043e-14,5.39641418e-14,3.280194845e-14,1.499237938e-14,3.290534759e-14,1.995582241e-14,7.57486202e-14,4.464468778e-14,9.596647229e-15,1.644136221e-14,1.079561966e-14,7.238912828e-15,1.545482292e-14,8.485200151e-15,7.956123712e-14,2.238055403e-14,1.245291954e-14,2.800898589e-14,2.104786418e-14
0.5546875,3.803631475e-14,1.952267952e-13,6.001694681e-14,8.400288471e-14,5.486357564e-14,3.716988761e-14,7.614768483e-15,1.39934201e-14,1.237656049e-14,2.497768113e-14,4.579640318e-14,2.789620034e-14,3.216829812e-14,5.151386433e-14,5.155400299e-14,3.227121597e-14,1.465378539e-14,3.107086179e-14,1.974087546e-14,7.379519454e-14,4.075450362e-14,1.070597495e-14,1.653292902e-14,1.342190021e-14,6.687894705e-15,1.554194585e-14,9.121958255e-15,8.096086723e-14,2.170599637e-14,1.166128716e-14,2.958935783e-14,2.199517713e-14
0.5625,4.180445585e-14,1.951831606e-13,5.42119497e-14,8.22619345e-14,5.419824535e-14,3.722844827e-14,6.683527968e-15,1.559559665e-14,1.288443131e-14,2.565308655e-14,4.436413212e-14,2.749319652e-14,3.236833537e-14,5.182057363e-14,4.800279113e-14,3.120711465e-14,1.474860347e-14,2.949941795e-14,1.931233901e-14,7.274649193e-14,3.667441205e-14,1.202481488e-14,1.685133003e-14,1.627692218e-14,6.228407528e-15,1.560534745e-14,1.015903665e-14,8.17237913e-14,2.151726127e-14,1.085374663e-14,3.111087661e-14,2.25841281e-14
0.5703125,4.637047737e-14,1.952227373e-13,4.866182184e-14,8.113686396e-14,5.4707275e-14,3.783317345e-14,5.803910977e-15,1.715334392e-14,1.352707416e-14,2.603315819e-14,4.34662191e-14,2.723993863e-14,3.257888213e-14,5.336120547e-14,4.396357243e-14,3.013687e-14,1.519426297e-14,2.807601383e-14,1.878316365e-14,7.188260563e-14,3.269159907e-14,1.351041233e-14,1.750183534e-14,1.91300105e-14,5.903392851e-15,1.577327111e-14,1.174473768e-14,8.208281096e-14,2.181605039e-14,1.008127214e-14,3.226520932e-14,2.287569587e-14
0.578125,5.141025807e-14,1.947459096e-13,4.370887509e-14,8.084696255e-14,5.661005574e-14,3.904291326e-14,5.004753575e-15,1.896267717e-14,1.438264809e-14,2.60214391e-14,4.295642488e-14,2.726899689e-14,3.29950129e-14,5.638223708e-14,4.036251618e-14,2.986404279e-14,1.597773387e-14,2.686674487e-14,1.828953901e-14,7.200297756e-14,2.891927977e-14,1.514854934e-14,1.855452859e-14,2.200968153e-14,5.752731298e-15,1.612174538e-14,1.397099291e-14,8.166171452e-14,2.250015248e-14,9.401010534e-15,3.291621447e-14,2.306805675e-14
0.5859375,5.68345661e-14,1.936651015e-13,3.97571513e-14,8.273172112e-14,5.985049908e-14,4.126872047e-14,4.287665996e-15,2.133256344e-14,1.553164443e-14,2.545346105e-14,4.281419605e-14,2.764324149e-14,3.368019942e-14,6.096213686e-14,3.783670094e-14,3.080545136e-14,1.712082641e-14,2.607517125e-14,1.790141694e-14,7.319973955e-14,2.544000295e-14,1.701073702e-14,2.013424561e-14,2.445677474e-14,5.786539694e-15,1.667509447e-14,1.697915723e-14,8.080925223e-14,2.375850023e-14,8.863502366e-15,3.321161771e-14,2.344141059e-14
0.59375,6.297530815e-14,1.916232933e-13,3.709816366e-14,8.676034315e-14,6.44634712e-14,4.474477903e-14,3.668637263e-15,2.479210268e-14,1.720229342e-14,2.427869557e-14,4.314930439e-14,2.83639263e-14,3.444326997e-14,6.698717863e-14,3.663889903e-14,3.332001792e-14,1.892257025e-14,2.577675218e-14,1.764798822e-14,7.534944954e-14,2.224734724e-14,1.915431942e-14,2.223421395e-14,2.623482029e-14,5.953950632e-15,1.74334672e-14,2.0611148e-14,7.942571993e-14,2.577115671e-14,8.412566998e-15,3.321756246e-14,2.42882839e-14
0.6015625,7.0078157e-14,1.891009893e-13,3.566825548e-14,9.271430499e-14,7.001990023e-14,4.939664064e-14,3.154667987e-15,2.984197739e-14,1.940280168e-14,2.261092983e-14,4.399046748e-14,2.927419206e-14,3.509688811e-14,7.397780649e-14,3.72727626e-14,3.778796339e-14,2.120613341e-14,2.562175066e-14,1.745341994e-14,7.908646505e-14,1.951243416e-14,2.157952519e-14,2.502550456e-14,2.731975941e-14,6.235411926e-15,1.869388644e-14,2.483977542e-14,7.772807441e-14,2.843296216e-14,8.01793865e-15,3.259751129e-14,2.59895305e-14
0.609375,7.845536596e-14,1.855990907e-13,3.560450228e-14,1.00568432e-13,7.640848729e-14,5.51492944e-14,2.702618088e-15,3.698170098e-14,2.22492403e-14,2.051511128e-14,4.520387628e-14,3.037229319e-14,3.565589399e-14,8.160629992e-14,3.989311111e-14,4.423893964e-14,2.403778053e-14,2.57171125e-14,1.73313031e-14,8.540840334e-14,1.726799775e-14,2.423166696e-14,2.836546986e-14,2.803071653e-14,6.553894745e-15,2.039470581e-14,2.91949756e-14,7.587165495e-14,3.15187726e-14,7.608892526e-15,3.163868621e-14,2.866913861e-14
0.6171875,8.775583292e-14,1.810228969e-13,3.731702283e-14,1.092140082e-13,8.31068007e-14,6.171144867e-14,2.357262264e-15,4.643355818e-14,2.570782354e-14,1.826169828e-14,4.700544377e-14,3.153505789e-14,3.601362288e-14,8.91117968e-14,4.447457142e-14,5.255225479e-14,2.736021409e-14,2.598226821e-14,1.724386316e-14,9.527712109e-14,1.560798606e-14,2.700194998e-14,3.210890015e-14,2.852808201e-14,6.880399341e-15,2.255429817e-14,3.370906506e-14,7.364075497e-14,3.532598822e-14,7.214339074e-15,3.051292468e-14,3.232433404e-14
0.625,9.814119748e-14,1.755857015e-13,4.062721244e-14,1.194326527e-13,8.997057037e-14,6.879629856e-14,2.137750666e-15,5.822211707e-14,2.979801916e-14,1.589231218e-14,4.93728308e-14,3.278424532e-14,3.635598113e-14,9.607530848e-14,5.07276441e-14,6.211393024e-14,3.093183351e-14,2.660780073e-14,1.727596887e-14,1.082457801e-13,1.472225773e-14,2.979792768e-14,3.623086797e-14,2.890250116e-14,7.189447077e-15,2.503823567e-14,3.792948666e-14,7.135965264e-14,3.952228653e-14,6.80672724e-15,2.950406822e-14,3.673792457e-14
0.6328125,1.090452827e-13,1.69182473e-13,4.58471788e-14,1.295813148e-13,9.650647767e-14,7.591085669e-14,2.02949154e-15,7.203023802e-14,3.438253405e-14,1.37259909e-14,5.253915546e-14,3.390890928e-14,3.641149575e-14,1.017725071e-13,5.80014233e-14,7.226470624e-14,3.461886264e-14,2.7467251e-14,1.744510197e-14,1.24470978e-13,1.454150786e-14,3.245501405e-14,4.039309966e-14,2.952002992e-14,7.392429049e-15,2.751990841e-14,4.158722335e-14,6.879342967e-14,4.426746099e-14,6.39328329e-15,2.874842456e-14,4.156896103e-14
0.640625,1.194298873e-13,1.623617543e-13,5.256547767e-14,1.392349301e-13,1.015537414e-13,8.240525679e-14,2.057852676e-15,8.727022671e-14,3.906966946e-14,1.203392533e-14,5.604334644e-14,3.491195166e-14,3.60277381e-14,1.054783488e-13,6.538861461e-14,8.128160998e-14,3.764370055e-14,2.804951916e-14,1.7677173e-14,1.424546675e-13,1.537254277e-14,3.461451063e-14,4.444232123e-14,3.024423687e-14,7.430737224e-15,2.957854567e-14,4.418967161e-14,6.625966999e-14,4.895813597e-14,5.977476292e-15,2.826521499e-14,4.618988402e-14
0.6484375,1.289765221e-13,1.552802086e-13,6.034420592e-14,1.472256291e-13,1.047920658e-13,8.761223924e-14,2.18518373e-15,1.034694487e-13,4.377303142e-14,1.085448726e-14,5.958783889e-14,3.585260823e-14,3.534211884e-14,1.069476346e-13,7.192777881e-14,8.818583076e-14,3.994830208e-14,2.86850545e-14,1.79914124e-14,1.607923733e-13,1.749168784e-14,3.603753249e-14,4.8015263e-14,3.126823184e-14,7.28741408e-15,3.099111751e-14,4.581323592e-14,6.394486511e-14,5.350104041e-14,5.647760123e-15,2.852103124e-14,5.012089889e-14
0.65625,1.371328381e-13,1.4783723e-13,6.927912774e-14,1.52895604e-13,1.058638238e-13,9.152673761e-14,2.409657484e-15,1.194152965e-13,4.828145492e-14,1.038938265e-14,6.27773e-14,3.667728522e-14,3.437753197e-14,1.061874427e-13,7.711646009e-14,9.28192664e-14,4.158667703e-14,2.921272994e-14,1.840673445e-14,1.772429643e-13,2.085922704e-14,3.662116602e-14,5.09553505e-14,3.252104902e-14,7.065016662e-15,3.174168734e-14,4.669338555e-14,6.187558963e-14,5.734021763e-14,5.501034914e-15,2.948655995e-14,5.302041804e-14
0.6640625,1.429496356e-13,1.405522765e-13,7.866899672e-14,1.551672096e-13,1.04275366e-13,9.326364253e-14,2.670348338e-15,1.337828649e-13,5.215306123e-14,1.076012522e-14,6.508817629e-14,3.727704258e-14,3.291824823e-14,1.027972647e-13,8.017681935e-14,9.4561367e-14,4.199617273e-14,2.92203177e-14,1.894085012e-14,1.908979942e-13,2.546801842e-14,3.614115493e-14,5.312317714e-14,3.382688495e-14,6.716381532e-15,3.163917302e-14,4.653411187e-14,6.034650329e-14,5.985779603e-14,5.617313958e-15,3.066088744e-14,5.446297806e-14
0.671875,1.460375289e-13,1.33284891e-13,8.82935446e-14,1.532677558e-13,1.00990364e-13,9.306244996e-14,2.959853911e-15,1.450583314e-13,5.517228008e-14,1.189526537e-14,6.598312746e-14,3.788139594e-14,3.111165953e-14,9.747361138e-14,8.069425314e-14,9.294730696e-14,4.125394835e-14,2.908116378e-14,1.975746534e-14,1.994427638e-13,3.123866722e-14,3.467454284e-14,5.430650225e-14,3.513374497e-14,6.269758173e-15,3.069658885e-14,4.568678949e-14,5.935887236e-14,6.067815377e-14,6.164167537e-15,3.194787384e-14,5.42805578e-14
0.6796875,1.459629259e-13,1.259701542e-13,9.842915775e-14,1.473092177e-13,9.574023998e-14,9.092691485e-14,3.267576295e-15,1.523980251e-13,5.697103884e-14,1.376455319e-14,6.531267355e-14,3.856274863e-14,2.897791793e-14,9.034120412e-14,7.878777089e-14,8.80256673e-14,3.946904329e-14,2.884713386e-14,2.07586052e-14,2.01845119e-13,3.806837322e-14,3.220610266e-14,5.437377741e-14,3.627740222e-14,5.800968126e-15,2.886198548e-14,4.413853849e-14,5.892428466e-14,6.015145526e-14,7.156128765e-15,3.328235224e-14,5.244773099e-14
0.6875,1.44054334e-13,1.184345153e-13,1.100721035e-13,1.379951191e-13,8.991212135e-14,8.772603377e-14,3.584529475e-15,1.553412901e-13,5.779854486e-14,1.635795978e-14,6.390410357e-14,3.968667946e-14,2.695671414e-14,8.312335009e-14,7.551463894e-14,8.110209928e-14,3.744156432e-14,2.897482386e-14,2.226583599e-14,1.97314848e-13,4.538365077e-14,2.921395236e-14,5.31882112e-14,3.721378935e-14,5.409517882e-15,2.661188188e-14,4.25719866e-14,5.920235752e-14,5.926427509e-14,8.566125442e-15,3.519882858e-14,4.936693643e-14
0.6953125,1.402683944e-13,1.103506014e-13,1.230600319e-13,1.267957482e-13,8.362181716e-14,8.374615805e-14,3.91323679e-15,1.534686577e-13,5.726337514e-14,1.951839629e-14,6.204285736e-14,4.103555316e-14,2.529851687e-14,7.59800777e-14,7.20855253e-14,7.369596366e-14,3.54449536e-14,2.938628067e-14,2.413093764e-14,1.870080349e-13,5.256308773e-14,2.584956505e-14,5.079142894e-14,3.798312496e-14,5.19615109e-15,2.442230383e-14,4.121157065e-14,5.958913403e-14,5.815280308e-14,1.030678138e-14,3.710584489e-14,4.556534349e-14
0.703125,1.351338632e-13,1.017487395e-13,1.377985004e-13,1.148099445e-13,7.753716041e-14,7.94939708e-14,4.252025817e-15,1.466841053e-13,5.543676715e-14,2.303705622e-14,6.005372376e-14,4.279885554e-14,2.423815171e-14,6.945898537e-14,6.919300639e-14,6.66209538e-14,3.379359137e-14,3.03466014e-14,2.643391255e-14,1.724872921e-13,5.955607314e-14,2.245322113e-14,4.744143555e-14,3.853479132e-14,5.242104679e-15,2.267571237e-14,4.052737722e-14,6.020851759e-14,5.76903512e-14,1.232332786e-14,3.905085459e-14,4.145984223e-14
0.7109375,1.290963466e-13,9.185532346e-14,1.538398025e-13,1.028549401e-13,7.205659325e-14,7.522515085e-14,4.656173866e-15,1.358595667e-13,5.228126609e-14,2.654114472e-14,5.826364646e-14,4.462358921e-14,2.365883636e-14,6.376600288e-14,6.746281788e-14,6.075826791e-14,3.259782151e-14,3.173280536e-14,2.885902749e-14,1.543483596e-13,6.566589059e-14,1.919040806e-14,4.334823066e-14,3.879826784e-14,5.564343827e-15,2.159472595e-14,4.070506082e-14,6.032503584e-14,5.831688875e-14,1.455044053e-14,4.083676772e-14,3.750483386e-14
0.71875,1.228110253e-13,8.115607438e-14,1.705250788e-13,9.257635151e-14,6.692592759e-14,7.117719197e-14,5.090982879e-15,1.220561758e-13,4.807122396e-14,2.984903951e-14,5.739728004e-14,4.61329124e-14,2.345460857e-14,5.87626856e-14,6.726357714e-14,5.62576007e-14,3.194869255e-14,3.344275393e-14,3.111700256e-14,1.345093361e-13,7.022392461e-14,1.631764821e-14,3.88688516e-14,3.881216732e-14,6.157883201e-15,2.12914714e-14,4.211687851e-14,5.971101236e-14,6.045949484e-14,1.67782656e-14,4.290272543e-14,3.411730803e-14
0.7265625,1.161475662e-13,7.000077064e-14,1.859186153e-13,8.423486553e-14,6.206311926e-14,6.665066557e-14,5.538997203e-15,1.062690125e-13,4.298766378e-14,3.278643613e-14,5.739680464e-14,4.714896487e-14,2.357906215e-14,5.445332071e-14,6.867148571e-14,5.324943543e-14,3.150491285e-14,3.531107965e-14,3.296347897e-14,1.150777492e-13,7.330356433e-14,1.380506168e-14,3.430508439e-14,3.867136237e-14,7.016027448e-15,2.171746368e-14,4.477578676e-14,5.798750058e-14,6.417827722e-14,1.883492083e-14,4.486536146e-14,3.129169054e-14
0.734375,1.091935753e-13,5.872920251e-14,1.992590682e-13,7.929796246e-14,5.776273504e-14,6.221582595e-14,6.07989117e-15,9.019265073e-14,3.772152854e-14,3.521278462e-14,5.810743878e-14,4.793349581e-14,2.437005402e-14,5.136184469e-14,7.229035733e-14,5.242680751e-14,3.157030834e-14,3.761637709e-14,3.450512198e-14,9.770611513e-14,7.488965511e-14,1.182751671e-14,2.997506902e-14,3.87509508e-14,8.191508885e-15,2.298111373e-14,4.932192906e-14,5.531216795e-14,6.967341066e-14,2.060054811e-14,4.723582422e-14,2.922145014e-14
0.7421875,1.01588881e-13,4.807177482e-14,2.091260047e-13,7.694247536e-14,5.366281236e-14,5.768466983e-14,6.793384877e-15,7.472513998e-14,3.256077078e-14,3.671482034e-14,5.950062675e-14,4.82890148e-14,2.556127082e-14,4.938898483e-14,7.784943168e-14,5.359390525e-14,3.191023734e-14,4.018938419e-14,3.548564236e-14,8.271789432e-14,7.506401158e-14,1.028094722e-14,2.612281725e-14,3.884430384e-14,9.605029054e-15,2.514038944e-14,5.569509973e-14,5.15064389e-14,7.696299159e-14,2.193002035e-14,4.955880045e-14,2.786810011e-14
0.75,9.341352015e-14,3.916162011e-14,2.153923324e-13,7.795545753e-14,5.003168332e-14,5.348529661e-14,7.699524301e-15,6.086590967e-14,2.816428876e-14,3.751787217e-14,6.106893197e-14,4.857439677e-14,2.719224918e-14,4.88385644e-14,8.517080987e-14,5.66360642e-14,3.254113963e-14,4.304187993e-14,3.605631981e-14,7.058595856e-14,7.415924385e-14,9.248861249e-15,2.292541981e-14,3.917508412e-14,1.111657949e-14,2.784610844e-14,6.357772251e-14,4.755423984e-14,8.505829769e-14,2.286353236e-14,5.229763396e-14,2.696248962e-14
0.7578125,8.48634838e-14,3.238611338e-14,2.173559199e-13,8.119068938e-14,4.69834915e-14,4.991765819e-14,8.796398969e-15,4.922753362e-14,2.474982427e-14,3.787804701e-14,6.20324159e-14,4.870582181e-14,2.911260931e-14,4.968746386e-14,9.333854051e-14,6.077769567e-14,3.3439677e-14,4.622312289e-14,3.631347522e-14,6.116942786e-14,7.227504294e-14,8.665205765e-15,2.047331463e-14,3.932134026e-14,1.261029431e-14,3.048645962e-14,7.229989516e-14,4.400858165e-14,9.293562298e-14,2.329443079e-14,5.529953831e-14,2.620874691e-14
0.765625,7.574076567e-14,2.728655137e-14,2.155996906e-13,8.666656634e-14,4.515974767e-14,4.712342614e-14,1.012713945e-14,3.993902769e-14,2.253883317e-14,3.783635084e-14,6.198367706e-14,4.908725158e-14,3.147988995e-14,5.220240513e-14,1.017103159e-13,6.53754104e-14,3.466032116e-14,4.985240884e-14,3.655913557e-14,5.395370641e-14,6.966134625e-14,8.542624709e-15,1.873397084e-14,3.949846367e-14,1.404617403e-14,3.276484634e-14,8.176801376e-14,4.090564712e-14,9.994953796e-14,2.324658381e-14,5.87342894e-14,2.529823695e-14
0.7734375,6.660291106e-14,2.417510042e-14,2.099840103e-13,9.366875896e-14,4.452370912e-14,4.53688425e-14,1.154150301e-14,3.300150278e-14,2.145750766e-14,3.76937339e-14,6.049233791e-14,4.962562429e-14,3.407074625e-14,5.596259193e-14,1.094431532e-13,7.009683707e-14,3.613563375e-14,5.352742619e-14,3.68854142e-14,4.829385592e-14,6.664928429e-14,8.772559963e-15,1.763792157e-14,3.952212156e-14,1.528992533e-14,3.44801028e-14,9.130530682e-14,3.868723407e-14,1.051871938e-13,2.276090094e-14,6.174187136e-14,2.424592437e-14
0.78125,5.787842795e-14,2.218049928e-14,2.008946276e-13,1.011275183e-13,4.526464696e-14,4.429443392e-14,1.284437938e-14,2.807691029e-14,2.125114244e-14,3.752669915e-14,5.728054551e-14,4.998021676e-14,3.66133933e-14,6.046728556e-14,1.153535521e-13,7.383750122e-14,3.781919492e-14,5.707243594e-14,3.726409456e-14,4.348132933e-14,6.34129976e-14,9.263608038e-15,1.704890266e-14,3.934244408e-14,1.627385516e-14,3.536113742e-14,9.955368821e-14,3.70132835e-14,1.079505346e-13,2.178982834e-14,6.386743847e-14,2.299354193e-14
0.7890625,4.986854396e-14,2.110632224e-14,1.891949474e-13,1.073000154e-13,4.686877921e-14,4.355709135e-14,1.38884926e-14,2.463370216e-14,2.148055074e-14,3.734553408e-14,5.263176014e-14,4.975609017e-14,3.854406443e-14,6.47354239e-14,1.187301346e-13,7.62930768e-14,3.960541905e-14,6.014458873e-14,3.752312886e-14,3.908292423e-14,5.976936028e-14,9.848640982e-15,1.687183637e-14,3.875052027e-14,1.692741999e-14,3.516045724e-14,1.053437923e-13,3.550355807e-14,1.080031308e-13,2.046233567e-14,6.456814001e-14,2.157692504e-14
0.796875,4.320307459e-14,2.050699817e-14,1.752235947e-13,1.105237072e-13,4.84698692e-14,4.257617615e-14,1.457832749e-14,2.256708692e-14,2.168789309e-14,3.70368497e-14,4.659712113e-14,4.830177011e-14,3.920336702e-14,6.731587419e-14,1.185354657e-13,7.692266263e-14,4.087359847e-14,6.171094871e-14,3.70755723e-14,3.584818287e-14,5.569666261e-14,1.02903324e-14,1.686431539e-14,3.766275019e-14,1.70761393e-14,3.37669924e-14,1.075747807e-13,3.368203359e-14,1.045614936e-13,1.883219905e-14,6.346216501e-14,2.016895383e-14
0.8046875,3.799032327e-14,2.058187559e-14,1.600207295e-13,1.104273785e-13,4.986360767e-14,4.0881936e-14,1.47903795e-14,2.146763229e-14,2.168227723e-14,3.672653847e-14,4.014620147e-14,4.575823569e-14,3.855656407e-14,6.80570039e-14,1.146587836e-13,7.60475458e-14,4.178270417e-14,6.181243296e-14,3.584527639e-14,3.34406915e-14,5.145796711e-14,1.054504275e-14,1.686914632e-14,3.629950006e-14,1.678768424e-14,3.134355113e-14,1.065821132e-13,3.144243518e-14,9.845285035e-14,1.709981691e-14,6.080824715e-14,1.881166142e-14
0.8125,3.438686459e-14,2.174690211e-14,1.448117783e-13,1.064661322e-13,5.028233915e-14,3.817696695e-14,1.445018234e-14,2.101443936e-14,2.113194859e-14,3.672642458e-14,3.366789582e-14,4.225300443e-14,3.641950855e-14,6.665017431e-14,1.079621936e-13,7.468351499e-14,4.249260931e-14,6.048595362e-14,3.382154593e-14,3.219208333e-14,4.742715396e-14,1.043068778e-14,1.697762919e-14,3.450664734e-14,1.611188026e-14,2.851243607e-14,1.023686972e-13,2.895021436e-14,9.034387329e-14,1.561134533e-14,5.643041175e-14,1.778446815e-14
0.8203125,3.24883528e-14,2.429920272e-14,1.29769157e-13,9.931660519e-14,4.970888213e-14,3.432540393e-14,1.354201346e-14,2.109388373e-14,2.010578864e-14,3.704240334e-14,2.746088731e-14,3.80366671e-14,3.292937906e-14,6.332564877e-14,9.881933271e-14,7.335480828e-14,4.308820438e-14,5.802082722e-14,3.107968329e-14,3.211393486e-14,4.375556091e-14,9.967925008e-15,1.70739771e-14,3.258313515e-14,1.511680899e-14,2.547980575e-14,9.507027377e-14,2.645455512e-14,8.102386048e-14,1.445072148e-14,5.056895892e-14,1.700465233e-14
0.828125,3.235864834e-14,2.851917943e-14,1.158774441e-13,9.0515575e-14,4.74369355e-14,2.993380761e-14,1.224812815e-14,2.11601083e-14,1.833969583e-14,3.77474627e-14,2.210104186e-14,3.332259787e-14,2.846602645e-14,5.818430852e-14,8.897420422e-14,7.35036406e-14,4.417474917e-14,5.500621639e-14,2.775755826e-14,3.312663372e-14,4.04322091e-14,9.096094039e-15,1.712317455e-14,3.061019494e-14,1.403324397e-14,2.265511052e-14,8.529620941e-14,2.434984702e-14,7.186288887e-14,1.379762729e-14,4.368172877e-14,1.639725105e-14
0.8359375,3.398809452e-14,3.443647216e-14,1.032578241e-13,8.05864644e-14,4.388174494e-14,2.523736807e-14,1.080043028e-14,2.147708019e-14,1.618751722e-14,3.872310207e-14,1.776167076e-14,2.842214114e-14,2.344689079e-14,5.205624963e-14,7.912598258e-14,7.556732739e-14,4.629853935e-14,5.178186053e-14,2.407161693e-14,3.554422447e-14,3.737004579e-14,7.960576368e-15,1.714873006e-14,2.855609259e-14,1.290182382e-14,2.006269027e-14,7.445419845e-14,2.295612772e-14,6.321251255e-14,1.36814214e-14,3.676752326e-14,1.586967264e-14
0.84375,3.693569121e-14,4.191523857e-14,9.291808566e-14,7.21912082e-14,3.975686435e-14,2.10435447e-14,9.336822743e-15,2.171286442e-14,1.395651058e-14,4.027343429e-14,1.462804925e-14,2.406561403e-14,1.856609501e-14,4.601588183e-14,7.013035067e-14,7.957582125e-14,4.967436095e-14,4.892035647e-14,2.048928685e-14,3.905517361e-14,3.440316149e-14,6.774344535e-15,1.703008087e-14,2.678348584e-14,1.185550481e-14,1.775605097e-14,6.408540879e-14,2.290856923e-14,5.598706424e-14,1.409381747e-14,3.085716225e-14,1.510212247e-14
0.8515625,4.088181985e-14,4.964401722e-14,8.54525933e-14,6.637590323e-14,3.532737989e-14,1.756213374e-14,8.011401112e-15,2.188093676e-14,1.179296123e-14,4.209505024e-14,1.257001528e-14,2.044906404e-14,1.417582616e-14,4.037061069e-14,6.250874678e-14,8.521098673e-14,5.425743158e-14,4.666612584e-14,1.730264919e-14,4.357045395e-14,3.150929026e-14,5.607260197e-15,1.690188353e-14,2.524185978e-14,1.100446957e-14,1.597871152e-14,5.480889772e-14,2.414407877e-14,5.008969691e-14,1.513662338e-14,2.638263196e-14,1.427972662e-14
0.859375,4.535614348e-14,5.746813991e-14,8.080802638e-14,6.397202818e-14,3.12419922e-14,1.498811589e-14,6.902237784e-15,2.195289659e-14,9.969271304e-15,4.419770572e-14,1.161801405e-14,1.79255954e-14,1.05185839e-14,3.579780349e-14,5.606189867e-14,9.130999583e-14,5.970538139e-14,4.531729705e-14,1.489473112e-14,4.871233347e-14,2.877158322e-14,4.662154288e-15,1.670275809e-14,2.426007364e-14,1.039444469e-14,1.466521499e-14,4.748316778e-14,2.699196064e-14,4.574940759e-14,1.670917971e-14,2.384425512e-14,1.332226578e-14
0.8671875,5.001717244e-14,6.394364306e-14,7.834035606e-14,6.492707092e-14,2.780822366e-14,1.327456449e-14,6.066707754e-15,2.162480067e-14,8.458082221e-15,4.616516121e-14,1.171994988e-14,1.635336947e-14,7.79945528e-15,3.278590483e-14,5.109230479e-14,9.697849179e-14,6.577159337e-14,4.474689839e-14,1.333116671e-14,5.377329845e-14,2.610751735e-14,3.93920949e-15,1.64429299e-14,2.379079743e-14,1.012901149e-14,1.38934152e-14,4.211325557e-14,3.0736332e-14,4.290914188e-14,1.85624671e-14,2.31821742e-14,1.223814515e-14
0.875,5.424022729e-14,6.871568377e-14,7.767574799e-14,6.870689903e-14,2.514410094e-14,1.220627223e-14,5.503484841e-15,2.111296469e-14,7.37556505e-15,4.802861009e-14,1.231261847e-14,1.576707162e-14,5.908891397e-15,3.10975029e-14,4.678195144e-14,1.003174562e-13,7.098736302e-14,4.432808915e-14,1.256787563e-14,5.831350366e-14,2.356781209e-14,3.421746169e-15,1.621211569e-14,2.381261608e-14,1.009146341e-14,1.370784275e-14,3.83216019e-14,3.512869618e-14,4.073923391e-14,2.051905423e-14,2.45048153e-14,1.124451973e-14
0.8828125,5.704087797e-14,7.095712802e-14,7.812136771e-14,7.425875121e-14,2.343962267e-14,1.141322699e-14,5.212210159e-15,2.02493969e-14,6.600222304e-15,4.932385123e-14,1.334226121e-14,1.579140501e-14,4.708485298e-15,3.069436584e-14,4.265214304e-14,1.000584564e-13,7.411134218e-14,4.365651267e-14,1.241602125e-14,6.183736947e-14,2.113463923e-14,3.108516948e-15,1.603183067e-14,2.401527929e-14,1.0264054e-14,1.396319042e-14,3.592657071e-14,3.94143608e-14,3.903840675e-14,2.242337441e-14,2.758714472e-14,1.041951316e-14
0.890625,5.75307657e-14,7.134927394e-14,7.932795671e-14,8.09220447e-14,2.254086022e-14,1.072713703e-14,5.148427565e-15,1.919698197e-14,6.093898664e-15,5.001218973e-14,1.477246272e-14,1.631870968e-14,4.030327514e-15,3.115567363e-14,3.870232194e-14,9.611772413e-14,7.456963435e-14,4.258509984e-14,1.276382185e-14,6.444325857e-14,1.877335077e-14,2.940001138e-15,1.598706077e-14,2.437261742e-14,1.061984056e-14,1.464644147e-14,3.440392151e-14,4.368890683e-14,3.751026333e-14,2.408167721e-14,3.218268232e-14,9.713136658e-15
0.8984375,5.694597015e-14,7.057883671e-14,8.0457407e-14,8.830185497e-14,2.248968694e-14,1.025031545e-14,5.314559541e-15,1.7953341e-14,5.745681401e-15,5.020068369e-14,1.650250972e-14,1.704733349e-14,3.791391181e-15,3.244243824e-14,3.545643788e-14,8.985784236e-14,7.341264516e-14,4.183005637e-14,1.359341381e-14,6.624888263e-14,1.656663315e-14,2.888044581e-15,1.613449624e-14,2.493963828e-14,1.131607519e-14,1.569025079e-14,3.358647916e-14,4.790710501e-14,3.649845797e-14,2.526780669e-14,3.763003302e-14,9.279602048e-15
0.90625,5.526639102e-14,6.929284637e-14,7.960867825e-14,9.620994214e-14,2.352698372e-14,9.878965945e-15,5.752328973e-15,1.647897612e-14,5.450704052e-15,4.989211459e-14,1.814247434e-14,1.768734981e-14,3.947786899e-15,3.471714469e-14,3.305248429e-14,8.193421023e-14,7.095246174e-14,4.14585679e-14,1.476559753e-14,6.771523154e-14,1.44138162e-14,2.932906767e-15,1.645005935e-14,2.544285521e-14,1.244148679e-14,1.683358471e-14,3.342971541e-14,5.195039688e-14,3.641987406e-14,2.555528802e-14,4.325305284e-14,8.951787496e-15
0.9140625,5.299763189e-14,6.818862618e-14,7.703918022e-14,1.041927664e-13,2.544229779e-14,9.486846813e-15,6.428357345e-15,1.4904065e-14,5.150277588e-15,4.940163428e-14,1.978963464e-14,1.80241203e-14,4.387415019e-15,3.750619357e-14,3.148934359e-14,7.277615121e-14,6.738863354e-14,4.132190574e-14,1.611940428e-14,6.883251554e-14,1.235793289e-14,3.024373726e-15,1.690932858e-14,2.598778638e-14,1.396703734e-14,1.803314193e-14,3.365382974e-14,5.566349366e-14,3.723171993e-14,2.512588268e-14,4.853473545e-14,8.786205845e-15
0.921875,4.998097926e-14,6.789802001e-14,7.322919776e-14,1.123495188e-13,2.816916842e-14,9.154279139e-15,7.321729162e-15,1.337421339e-14,4.913408239e-15,4.895741298e-14,2.138617749e-14,1.825753418e-14,5.115076455e-15,4.063614833e-14,3.127324049e-14,6.401138817e-14,6.318172799e-14,4.180029676e-14,1.757001521e-14,7.046731125e-14,1.064211622e-14,3.182302792e-15,1.754629742e-14,2.644477207e-14,1.584659914e-14,1.916785172e-14,3.42925799e-14,5.950138444e-14,3.921994156e-14,2.410286772e-14,5.340434566e-14,8.7817774e-15
0.9296875,4.648287441e-14,6.897992139e-14,6.840470774e-14,1.208348894e-13,3.143693536e-14,9.06646786e-15,8.311286718e-15,1.197850595e-14,4.699864671e-15,4.850144544e-14,2.290467684e-14,1.816327401e-14,6.015994577e-15,4.337265684e-14,3.197810854e-14,5.627426257e-14,5.863099556e-14,4.253210658e-14,1.879806752e-14,7.264592697e-14,9.283372771e-15,3.350510531e-15,1.831395835e-14,2.68516826e-14,1.785962359e-14,2.005879104e-14,3.520192276e-14,6.352573884e-14,4.199780394e-14,2.265606752e-14,5.70663102e-14,8.827732488e-15
0.9375,4.32500689e-14,7.151205671e-14,6.286120681e-14,1.285781775e-13,3.493788196e-14,9.235658967e-15,9.383389277e-15,1.057696488e-14,4.498178553e-15,4.814963755e-14,2.418052886e-14,1.781903482e-14,7.093246544e-15,4.551673537e-14,3.365908531e-14,5.02801955e-14,5.439126269e-14,4.351754068e-14,1.97980605e-14,7.564828819e-14,8.309196981e-15,3.546728322e-15,1.895667131e-14,2.704040952e-14,1.982919254e-14,2.070320143e-14,3.643099106e-14,6.774125121e-14,4.514192088e-14,2.08796925e-14,5.887552573e-14,8.991629702e-15
0.9453125,4.04536062e-14,7.592394619e-14,5.649775108e-14,1.356976461e-13,3.836125888e-14,9.73591145e-15,1.037547435e-14,9.498713329e-15,4.443993251e-15,4.80721717e-14,2.492164017e-14,1.704682907e-14,8.178173761e-15,4.648844923e-14,3.595085503e-14,4.628654942e-14,5.024112525e-14,4.4082333e-14,2.035432856e-14,8.000824122e-14,7.759732634e-15,3.782394895e-15,1.938290791e-14,2.718548948e-14,2.148343715e-14,2.091878281e-14,3.779004334e-14,7.200752591e-14,4.826493198e-14,1.889158319e-14,5.83117823e-14,9.278020869e-15
0.953125,3.813605526e-14,8.221858974e-14,5.00978745e-14,1.413988386e-13,4.119236256e-14,1.030542495e-14,1.130243069e-14,8.875470539e-15,4.619179336e-15,4.799252304e-14,2.523513184e-14,1.597187845e-14,9.435323925e-15,4.649373016e-14,3.880383076e-14,4.42869627e-14,4.625434158e-14,4.403323797e-14,2.040806472e-14,8.546379095e-14,7.620107502e-15,4.078541891e-15,1.963578234e-14,2.744018171e-14,2.266953718e-14,2.091887437e-14,3.933230823e-14,7.553285218e-14,5.130539031e-14,1.693809485e-14,5.630538796e-14,9.697550258e-15
0.9609375,3.672379409e-14,8.991721107e-14,4.428613234e-14,1.445347476e-13,4.370015839e-14,1.081691989e-14,1.20829038e-14,8.594134908e-15,5.021342044e-15,4.735174872e-14,2.527458746e-14,1.469935679e-14,1.084173711e-14,4.5813682e-14,4.191140063e-14,4.400250576e-14,4.270714823e-14,4.332055417e-14,2.006034911e-14,9.207088571e-14,7.862779329e-15,4.474593785e-15,1.955886925e-14,2.762349135e-14,2.319672279e-14,2.063194493e-14,4.078396437e-14,7.782180286e-14,5.376156887e-14,1.511315928e-14,5.331909669e-14,1.014554979e-14
0.96875,3.623100587e-14,9.870980849e-14,3.933309702e-14,1.455328627e-13,4.548730665e-14,1.141093551e-14,1.262790299e-14,8.684013934e-15,5.748919896e-15,4.595890697e-14,2.52885839e-14,1.341820658e-14,1.22577386e-14,4.437533958e-14,4.499639547e-14,4.501850825e-14,3.931859757e-14,4.150500746e-14,1.93563544e-14,1.000815823e-13,8.504088917e-15,5.061143202e-15,1.917137491e-14,2.775998744e-14,2.291357605e-14,2.01358058e-14,4.266342752e-14,7.892570898e-14,5.550467054e-14,1.355818245e-14,4.985958126e-14,1.053940773e-14
0.9765625,3.676398051e-14,1.081548859e-13,3.560943463e-14,1.450943832e-13,4.679084285e-14,1.213957328e-14,1.29842792e-14,9.12719994e-15,6.839804976e-15,4.394729436e-14,2.515188395e-14,1.228233407e-14,1.332912903e-14,4.230517284e-14,4.78709856e-14,4.663052616e-14,3.574817178e-14,3.858954307e-14,1.844261394e-14,1.098806614e-13,9.475301694e-15,5.841039144e-15,1.85266906e-14,2.777668917e-14,2.182860007e-14,1.96038227e-14,4.427938095e-14,7.931424554e-14,5.60065742e-14,1.242476728e-14,4.599942999e-14,1.09455087e-14
0.984375,3.840206996e-14,1.175820401e-13,3.278777715e-14,1.43328295e-13,4.790103616e-14,1.327130156e-14,1.302621876e-14,9.798375378e-15,8.246776328e-15,4.149173586e-14,2.50930063e-14,1.132018526e-14,1.418456692e-14,3.998412036e-14,5.056753971e-14,4.877500653e-14,3.225564628e-14,3.491177021e-14,1.754124649e-14,1.21464728e-13,1.080784681e-14,6.909653204e-15,1.762412183e-14,2.772746749e-14,2.008779551e-14,1.903581752e-14,4.578672411e-14,7.916135116e-14,5.531665599e-14,1.167794916e-14,4.24283671e-14,1.137874388e-14
0.9921875,4.118951172e-14,1.262130209e-13,3.058966883e-14,1.398061923e-13,4.936548034e-14,1.484766389e-14,1.287334597e-14,1.062432146e-14,9.898274794e-15,3.859117606e-14,2.519546727e-14,1.079843534e-14,1.475039176e-14,3.796576687e-14,5.254060299e-14,5.043223568e-14,2.873901668e-14,3.087914271e-14,1.683971677e-14,1.337332006e-13,1.239007269e-14,8.278887066e-15,1.653824705e-14,2.759775261e-14,1.788167804e-14,1.847139829e-14,4.684683523e-14,7.859728623e-14,5.349276758e-14,1.124653688e-14,3.966024393e-14,1.167265537e-14
1,4.493359901e-14,1.328236208e-13,2.886877979e-14,1.348632972e-13,5.106510747e-14,1.682970294e-14,1.250270832e-14,1.147939831e-14,1.159377977e-14,3.525524245e-14,2.541779936e-14,1.067568385e-14,1.498271629e-14,3.646216521e-14,5.335913504e-14,5.139265072e-14,2.528427509e-14,2.666594454e-14,1.632376431e-14,1.458802729e-13,1.403311409e-14,9.887431009e-15,1.53128536e-14,2.711572042e-14,1.534247736e-14,1.78657879e-14,4.742313237e-14,7.760813508e-14,5.03040554e-14,1.112764642e-14,3.779400619e-14,1.187234065e-14
1.0078125,4.968114013e-14,1.360986621e-13,2.772210869e-14,1.282517144e-13,5.354910022e-14,1.917370819e-14,1.195205884e-14,1.222668147e-14,1.322429171e-14,3.174007301e-14,2.598106731e-14,1.103833638e-14,1.495007184e-14,3.635051782e-14,5.319162672e-14,5.132105232e-14,2.234513557e-14,2.296647473e-14,1.626349534e-14,1.565555534e-13,1.561308186e-14,1.174116253e-14,1.409298527e-14,2.627772795e-14,1.280016939e-14,1.718681306e-14,4.715088555e-14,7.600857887e-14,4.618881251e-14,1.134711014e-14,3.746626423e-14,1.181815616e-14
1.015625,5.478399115e-14,1.363021733e-13,2.719510909e-14,1.213259951e-13,5.664320554e-14,2.157553345e-14,1.135105685e-14,1.286393475e-14,1.453750067e-14,2.834454475e-14,2.705617533e-14,1.172380109e-14,1.473327453e-14,3.764441456e-14,5.253320157e-14,5.062907081e-14,2.015459515e-14,2.017968845e-14,1.666569288e-14,1.650634879e-13,1.716069743e-14,1.362414635e-14,1.291513315e-14,2.51542803e-14,1.049858366e-14,1.649730336e-14,4.614211185e-14,7.449896176e-14,4.157412362e-14,1.193625271e-14,3.820093993e-14,1.146756232e-14
1.0234375,6.028665961e-14,1.334612287e-13,2.682252206e-14,1.15001175e-13,6.027002077e-14,2.411712273e-14,1.077100704e-14,1.335641172e-14,1.536638793e-14,2.5235447e-14,2.835329947e-14,1.253903975e-14,1.445975374e-14,3.997534826e-14,5.117680115e-14,4.914752497e-14,1.871922385e-14,1.815274346e-14,1.736700423e-14,1.706002298e-13,1.842934018e-14,1.539352346e-14,1.185925458e-14,2.397938464e-14,8.509205831e-15,1.576129995e-14,4.393290569e-14,7.290109266e-14,3.644277757e-14,1.266051405e-14,3.967071644e-14,1.082021983e-14
1.03125,6.601082657e-14,1.29092375e-13,2.699585193e-14,1.09716959e-13,6.488174866e-14,2.658073412e-14,1.030350867e-14,1.367617886e-14,1.571001444e-14,2.26854237e-14,3.019354462e-14,1.327015975e-14,1.432608833e-14,4.33393138e-14,4.940357987e-14,4.749076395e-14,1.824006968e-14,1.723872981e-14,1.838554219e-14,1.737574674e-13,1.938376317e-14,1.696900448e-14,1.09391352e-14,2.259887294e-14,7.010428639e-15,1.500984892e-14,4.128825904e-14,7.147385259e-14,3.159075763e-14,1.360028405e-14,4.144749837e-14,1.002836682e-14
1.0390625,7.111537129e-14,1.243901928e-13,2.78664493e-14,1.069257339e-13,6.999559696e-14,2.917878062e-14,9.955947015e-15,1.385386488e-14,1.558890596e-14,2.080386066e-14,3.267437625e-14,1.391030356e-14,1.443314867e-14,4.753159736e-14,4.780266695e-14,4.618774702e-14,1.855398142e-14,1.716162415e-14,1.963713513e-14,1.743513252e-13,2.010505138e-14,1.823163474e-14,1.016098775e-14,2.111090425e-14,5.952411562e-15,1.416202274e-14,3.799056747e-14,7.048535801e-14,2.709848385e-14,1.463117861e-14,4.303249205e-14,9.063815921e-15
1.046875,7.56744834e-14,1.211902142e-13,2.933099019e-14,1.067013893e-13,7.517021789e-14,3.1648938e-14,9.68787258e-15,1.374580893e-14,1.514187911e-14,1.956505092e-14,3.555151906e-14,1.435275829e-14,1.4899442e-14,5.207764741e-14,4.640289916e-14,4.521180376e-14,1.954083845e-14,1.790499567e-14,2.095693429e-14,1.724170628e-13,2.062883548e-14,1.92006311e-14,9.576919343e-15,1.960839123e-14,5.309546848e-15,1.326484409e-14,3.45766769e-14,7.007987915e-14,2.36244636e-14,1.566919724e-14,4.428515646e-14,8.100699393e-15
1.0546875,7.873530278e-14,1.194539469e-13,3.1249257e-14,1.090320166e-13,7.953972356e-14,3.40724257e-14,9.443960258e-15,1.347817091e-14,1.452323893e-14,1.858560798e-14,3.876659133e-14,1.456248793e-14,1.575059229e-14,5.615305638e-14,4.536350484e-14,4.494160199e-14,2.095946855e-14,1.899143309e-14,2.211066763e-14,1.678613482e-13,2.101084826e-14,1.986776442e-14,9.202445949e-15,1.829057149e-14,4.971837155e-15,1.231920637e-14,3.169140099e-14,6.995456487e-14,2.129264601e-14,1.645825178e-14,4.529206489e-14,7.295322283e-15
1.0625,8.143589245e-14,1.193043328e-13,3.359465316e-14,1.126306674e-13,8.31962992e-14,3.647161312e-14,9.193048242e-15,1.304419258e-14,1.400234005e-14,1.799145844e-14,4.229228683e-14,1.476927044e-14,1.705378315e-14,5.987953598e-14,4.463972253e-14,4.499351437e-14,2.288523728e-14,2.061571655e-14,2.319454048e-14,1.607919253e-13,2.129268933e-14,2.042346292e-14,8.946921762e-15,1.716285603e-14,4.836495478e-15,1.147310384e-14,2.997266122e-14,7.010865301e-14,2.02638199e-14,1.700208129e-14,4.657465458e-14,6.712939111e-15
1.0703125,8.381844846e-14,1.208486912e-13,3.612158502e-14,1.169542945e-13,8.620710756e-14,3.899114592e-14,8.957745952e-15,1.251648984e-14,1.383678562e-14,1.78627358e-14,4.606581488e-14,1.507876572e-14,1.87941187e-14,6.304293417e-14,4.416209134e-14,4.549026485e-14,2.522050861e-14,2.256043999e-14,2.417928587e-14,1.525486639e-13,2.144291455e-14,2.100040556e-14,8.810986869e-15,1.629474981e-14,4.823642757e-15,1.081063985e-14,2.988897026e-14,7.049814652e-14,2.081841695e-14,1.718696879e-14,4.805959013e-14,6.440330178e-15
1.078125,8.620999806e-14,1.223655713e-13,3.868208957e-14,1.203242432e-13,8.860061345e-14,4.170813074e-14,8.693135719e-15,1.200492557e-14,1.416884561e-14,1.785759359e-14,5.012351749e-14,1.561193519e-14,2.08467128e-14,6.578018933e-14,4.377707491e-14,4.611040761e-14,2.786157768e-14,2.491712619e-14,2.513948386e-14,1.42851389e-13,2.148975754e-14,2.171412772e-14,8.803048951e-15,1.564644236e-14,4.888199322e-15,1.03878192e-14,3.167256151e-14,7.070123826e-14,2.282314508e-14,1.701461852e-14,4.994282649e-14,6.537095244e-15
1.0859375,8.844658676e-14,1.243249964e-13,4.105375328e-14,1.232077868e-13,9.024180089e-14,4.476551578e-14,8.405060292e-15,1.148497198e-14,1.515900773e-14,1.788069807e-14,5.446629131e-14,1.651910832e-14,2.337233605e-14,6.806124974e-14,4.372159209e-14,4.699950267e-14,3.073344539e-14,2.764018175e-14,2.609296172e-14,1.320722904e-13,2.154875199e-14,2.269602235e-14,8.813149124e-15,1.51519995e-14,4.940987856e-15,1.042442136e-14,3.5703972e-14,7.131169069e-14,2.617858294e-14,1.660899513e-14,5.238744579e-14,7.124705994e-15
1.09375,9.079502495e-14,1.268348021e-13,4.354588407e-14,1.257111246e-13,9.127267031e-14,4.824634293e-14,8.168599808e-15,1.110107174e-14,1.690748763e-14,1.791200301e-14,5.917357483e-14,1.796950167e-14,2.636664088e-14,7.012420101e-14,4.429691131e-14,4.833107073e-14,3.375980452e-14,3.087060529e-14,2.718199274e-14,1.204486017e-13,2.176756045e-14,2.402652347e-14,8.803417855e-15,1.496859854e-14,5.003945772e-15,1.106448057e-14,4.236721749e-14,7.256238441e-14,3.110131049e-14,1.601549159e-14,5.594787089e-14,8.180724378e-15
1.1015625,9.395776952e-14,1.298551913e-13,4.5972342e-14,1.275798711e-13,9.183980351e-14,5.226161731e-14,8.096921896e-15,1.084138755e-14,1.933010107e-14,1.811054104e-14,6.428597738e-14,1.98646547e-14,2.963021247e-14,7.186096665e-14,4.533291051e-14,4.98405923e-14,3.702073712e-14,3.45240212e-14,2.839161174e-14,1.081725341e-13,2.202863098e-14,2.56991806e-14,8.73122164e-15,1.491919527e-14,5.021232667e-15,1.248828655e-14,5.13255031e-14,7.475301479e-14,3.706203215e-14,1.540160381e-14,6.033944654e-14,9.643846641e-15
1.109375,9.808927539e-14,1.335650533e-13,4.824365557e-14,1.292337804e-13,9.227222567e-14,5.653446238e-14,8.262478797e-15,1.067449896e-14,2.225430038e-14,1.854556122e-14,6.97465089e-14,2.205553236e-14,3.315487552e-14,7.368839171e-14,4.66741056e-14,5.164133508e-14,4.069876222e-14,3.860351936e-14,2.97223677e-14,9.655367757e-14,2.226848473e-14,2.765937162e-14,8.64386674e-15,1.495058345e-14,5.120516241e-15,1.463099461e-14,6.241955879e-14,7.79483615e-14,4.381492322e-14,1.483706448e-14,6.546296252e-14,1.148656155e-14
1.1171875,1.029779727e-13,1.384086434e-13,5.054439251e-14,1.311267073e-13,9.277061779e-14,6.10666152e-14,8.639433156e-15,1.06514068e-14,2.549106523e-14,1.890657241e-14,7.567360626e-14,2.4507563e-14,3.671489076e-14,7.560880271e-14,4.843252778e-14,5.400062929e-14,4.48802157e-14,4.320126456e-14,3.121468011e-14,8.543940043e-14,2.243419197e-14,2.975482971e-14,8.60714915e-15,1.508423196e-14,5.33370056e-15,1.769262012e-14,7.528747891e-14,8.201961656e-14,5.12508755e-14,1.446332828e-14,7.109189513e-14,1.35540647e-14
1.125,1.078734675e-13,1.432897203e-13,5.268093455e-14,1.320557927e-13,9.236844231e-14,6.525360605e-14,9.229753489e-15,1.068964607e-14,2.856385485e-14,1.930242649e-14,8.151153202e-14,2.673781573e-14,3.982485801e-14,7.68607208e-14,5.044839738e-14,5.66623961e-14,4.920844098e-14,4.77501494e-14,3.248833321e-14,7.427466609e-14,2.248364739e-14,3.158885788e-14,8.629700458e-15,1.506448164e-14,5.681514129e-15,2.159088137e-14,8.866800563e-14,8.626596402e-14,5.861017269e-14,1.430774866e-14,7.615481024e-14,1.564954358e-14
1.1328125,1.12808862e-13,1.485726212e-13,5.521182164e-14,1.326187284e-13,9.153809934e-14,6.910145379e-14,1.000834838e-14,1.064904503e-14,3.133460323e-14,1.986185408e-14,8.746662963e-14,2.880096035e-14,4.237187358e-14,7.774456605e-14,5.257412568e-14,5.9247644e-14,5.351657243e-14,5.226739413e-14,3.351229846e-14,6.374546613e-14,2.256549947e-14,3.304452563e-14,8.715782292e-15,1.483271459e-14,6.178115788e-15,2.619149812e-14,1.0152063e-13,9.078875858e-14,6.531599055e-14,1.448421071e-14,8.052007428e-14,1.747294371e-14
1.140625,1.175265317e-13,1.527953102e-13,5.800834456e-14,1.3190282e-13,8.98457291e-14,7.213951818e-14,1.084407374e-14,1.065323171e-14,3.354414982e-14,2.026458517e-14,9.334739103e-14,3.049043113e-14,4.405060815e-14,7.805035071e-14,5.515932807e-14,6.188694956e-14,5.768134356e-14,5.638915333e-14,3.424914082e-14,5.415171442e-14,2.259908875e-14,3.38795059e-14,8.8481991e-15,1.432422203e-14,6.815541585e-15,3.139270651e-14,1.12753591e-13,9.443103494e-14,7.122829021e-14,1.495669313e-14,8.365106691e-14,1.899923245e-14
1.1484375,1.215119837e-13,1.560211802e-13,6.082884744e-14,1.300741814e-13,8.694894825e-14,7.433064894e-14,1.168631196e-14,1.067757492e-14,3.488489173e-14,2.042088839e-14,9.854764988e-14,3.157251758e-14,4.478385782e-14,7.749860952e-14,5.761458553e-14,6.383583403e-14,6.110831195e-14,5.955185171e-14,3.444693298e-14,4.533294364e-14,2.260926951e-14,3.388476314e-14,8.997572562e-15,1.347036102e-14,7.480830298e-15,3.675523565e-14,1.212974355e-13,9.670871683e-14,7.569862713e-14,1.564798049e-14,8.467108671e-14,2.010029498e-14
1.15625,1.238270494e-13,1.573701201e-13,6.426676671e-14,1.264361962e-13,8.272558507e-14,7.572885576e-14,1.241708772e-14,1.074164241e-14,3.512203669e-14,2.023079388e-14,1.028587202e-13,3.206995777e-14,4.458181588e-14,7.616604443e-14,6.003740955e-14,6.473914432e-14,6.308302566e-14,6.111686194e-14,3.401817264e-14,3.786995894e-14,2.280695685e-14,3.294730018e-14,9.11052999e-15,1.239718624e-14,8.075433416e-15,4.216948405e-14,1.263009415e-13,9.666921163e-14,7.857493323e-14,1.649536308e-14,8.360165934e-14,2.065279398e-14
1.1640625,1.240569082e-13,1.575579369e-13,6.832657871e-14,1.206997286e-13,7.709291007e-14,7.623423648e-14,1.290542394e-14,1.074242423e-14,3.42066414e-14,1.968769786e-14,1.061573307e-13,3.225377855e-14,4.365902913e-14,7.438930605e-14,6.237888388e-14,6.469086341e-14,6.361984381e-14,6.102772726e-14,3.309599208e-14,3.125957017e-14,2.330374168e-14,3.115711446e-14,9.116484773e-15,1.1094186e-14,8.530663115e-15,4.713034247e-14,1.278108601e-13,9.424115795e-14,8.019126635e-14,1.72970807e-14,8.104119407e-14,2.047002236e-14
1.171875,1.21939161e-13,1.581775303e-13,7.296867798e-14,1.127797916e-13,7.040353785e-14,7.534507885e-14,1.311627284e-14,1.071252503e-14,3.240515711e-14,1.878934271e-14,1.082446062e-13,3.245449623e-14,4.2243687e-14,7.255894971e-14,6.525144332e-14,6.425068261e-14,6.249096335e-14,5.899833621e-14,3.177616437e-14,2.665466039e-14,2.425608969e-14,2.864772883e-14,8.95529308e-15,9.788907855e-15,8.779827275e-15,5.162746951e-14,1.263402657e-13,8.956216869e-14,8.088852139e-14,1.797972943e-14,7.736778332e-14,1.963158425e-14
1.1796875,1.180011393e-13,1.611731777e-13,7.862518737e-14,1.03403779e-13,6.303644082e-14,7.307019705e-14,1.312585765e-14,1.070340145e-14,3.006734204e-14,1.773406126e-14,1.090080648e-13,3.315419803e-14,4.084352813e-14,7.137257817e-14,6.900629535e-14,6.358701761e-14,5.988606909e-14,5.51875813e-14,3.027932746e-14,2.424856072e-14,2.591121655e-14,2.573645281e-14,8.563116667e-15,8.665268827e-15,8.762151382e-15,5.5741239e-14,1.226158535e-13,8.320976572e-14,8.090928675e-14,1.851437773e-14,7.343967251e-14,1.839823099e-14
1.1875,1.118173434e-13,1.692236502e-13,8.528992456e-14,9.382653337e-14,5.520840324e-14,6.978725749e-14,1.300568244e-14,1.065403949e-14,2.727440635e-14,1.666848557e-14,1.082111375e-13,3.48679393e-14,3.986158418e-14,7.163328228e-14,7.424624538e-14,6.362418883e-14,5.653677123e-14,4.993511045e-14,2.896733835e-14,2.39617888e-14,2.855361749e-14,2.256000078e-14,7.971601125e-15,7.720727119e-15,8.474164063e-15,5.940733621e-14,1.179243915e-13,7.632938458e-14,8.130932958e-14,1.880811582e-14,6.98287463e-14,1.675498603e-14
1.1953125,1.043971983e-13,1.838040522e-13,9.292995414e-14,8.497518094e-14,4.774664122e-14,6.575311062e-14,1.270855072e-14,1.047515564e-14,2.442818245e-14,1.556947981e-14,1.058701127e-13,3.792750549e-14,3.959352559e-14,7.396731756e-14,8.096991208e-14,6.4945818e-14,5.340971806e-14,4.402126927e-14,2.820289975e-14,2.610551672e-14,3.223812585e-14,1.949965312e-14,7.247829609e-15,7.056179849e-15,7.943169269e-15,6.270571505e-14,1.129388541e-13,6.973787437e-14,8.218600644e-14,1.881734838e-14,6.735770341e-14,1.491559878e-14
1.203125,9.55101344e-14,2.063874341e-13,1.017397374e-13,7.776675574e-14,4.072085656e-14,6.115418563e-14,1.233703147e-14,1.016240477e-14,2.183539191e-14,1.483838047e-14,1.020116178e-13,4.276843921e-14,4.029635116e-14,7.865039745e-14,8.947785204e-14,6.802064245e-14,5.108874364e-14,3.82829486e-14,2.8206039e-14,3.017096697e-14,3.692731215e-14,1.673575513e-14,6.464040597e-15,6.722146084e-15,7.313820545e-15,6.567672712e-14,1.089795794e-13,6.450859667e-14,8.489758067e-14,1.852356028e-14,6.673818443e-14,1.294390276e-14
1.2109375,8.665619782e-14,2.34401059e-13,1.118188794e-13,7.195311381e-14,3.501645703e-14,5.655646359e-14,1.190528672e-14,9.727389632e-15,1.968371575e-14,1.471786221e-14,9.713177777e-14,4.91659978e-14,4.156710513e-14,8.570318456e-14,9.93331034e-14,7.253775019e-14,5.017062662e-14,3.337244421e-14,2.908576861e-14,3.572468145e-14,4.248624831e-14,1.446289348e-14,5.714981122e-15,6.554945764e-15,6.635250763e-15,6.863015463e-14,1.06268174e-13,6.118552085e-14,8.91992452e-14,1.822637583e-14,6.787567754e-14,1.104222241e-14
1.21875,7.757371303e-14,2.675674466e-13,1.229106015e-13,6.891975734e-14,3.07979794e-14,5.214125475e-14,1.149741683e-14,9.163195615e-15,1.820413389e-14,1.549215465e-14,9.155992239e-14,5.718777961e-14,4.348607959e-14,9.492523247e-14,1.102866601e-13,7.831294703e-14,5.071795807e-14,2.995934741e-14,3.092511281e-14,4.249515853e-14,4.871742114e-14,1.281339839e-14,5.081661558e-15,6.760639093e-15,6.009219736e-15,7.147468088e-14,1.05564931e-13,6.071300725e-14,9.553928878e-14,1.800692914e-14,7.127741212e-14,9.338399937e-15
1.2265625,6.863135027e-14,3.00537872e-13,1.343487655e-13,6.72155456e-14,2.754124245e-14,4.830254407e-14,1.126416816e-14,8.567214017e-15,1.725257383e-14,1.701446516e-14,8.571398155e-14,6.568392722e-14,4.518701033e-14,1.048973691e-13,1.209665619e-13,8.453770219e-14,5.262378886e-14,2.784465495e-14,3.316870398e-14,4.917895014e-14,5.504881395e-14,1.162916567e-14,4.561910301e-15,7.126250536e-15,5.467722188e-15,7.412316226e-14,1.06706894e-13,6.216180607e-14,1.031943658e-13,1.811790975e-14,7.574890072e-14,7.914104568e-15
1.234375,6.055363077e-14,3.308729697e-13,1.461168754e-13,6.7427071e-14,2.558355742e-14,4.531654817e-14,1.115846959e-14,8.07142071e-15,1.701157686e-14,1.948423788e-14,7.999629433e-14,7.455684526e-14,4.660886031e-14,1.152215104e-13,1.310983376e-13,9.099660795e-14,5.594748826e-14,2.725341713e-14,3.579203347e-14,5.541341224e-14,6.127533156e-14,1.097277165e-14,4.240409001e-15,7.868950698e-15,5.049679165e-15,7.686336994e-14,1.09844654e-13,6.552478902e-14,1.123894007e-13,1.865232094e-14,8.103329837e-14,6.886965254e-15
1.2421875,5.288187102e-14,3.540178421e-13,1.573917769e-13,6.84903164e-14,2.424566598e-14,4.290445325e-14,1.112812246e-14,7.782629039e-15,1.717841171e-14,2.293690615e-14,7.456862196e-14,8.244551819e-14,4.724124192e-14,1.238667825e-13,1.394882371e-13,9.700175174e-14,6.005292272e-14,2.779497286e-14,3.829758893e-14,6.090905199e-14,6.664027677e-14,1.058123239e-14,4.082693026e-15,8.929618492e-15,4.802547441e-15,7.951736006e-14,1.150885569e-13,6.959882783e-14,1.223894704e-13,1.958460606e-14,8.572373947e-14,6.254953671e-15
1.25,4.561670221e-14,3.674464236e-13,1.679014883e-13,6.992573102e-14,2.311123207e-14,4.097845308e-14,1.11918984e-14,7.802773592e-15,1.761960818e-14,2.742710812e-14,6.994894337e-14,8.880255922e-14,4.696373692e-14,1.297298314e-13,1.455427062e-13,1.01924518e-13,6.416337682e-14,2.897477841e-14,4.037873444e-14,6.507921232e-14,7.092292459e-14,1.034702308e-14,4.082392205e-15,1.048840445e-14,4.715175746e-15,8.187804382e-14,1.215331333e-13,7.3961683e-14,1.332047284e-13,2.101577301e-14,8.949670497e-14,5.966416571e-15
1.2578125,3.907119465e-14,3.702938981e-13,1.766744162e-13,7.080207702e-14,2.203581803e-14,3.939751414e-14,1.133896564e-14,8.308871842e-15,1.814194007e-14,3.238151077e-14,6.577796429e-14,9.315407782e-14,4.570708303e-14,1.323139743e-13,1.490819767e-13,1.053456568e-13,6.765597271e-14,3.058553383e-14,4.184325958e-14,6.76038903e-14,7.353136976e-14,1.016213402e-14,4.215900345e-15,1.265767116e-14,4.79267254e-15,8.388340032e-14,1.28635323e-13,7.714617588e-14,1.447182368e-13,2.274970412e-14,9.209724017e-14,5.975424171e-15
1.265625,3.356000828e-14,3.63106049e-13,1.836643858e-13,7.101534321e-14,2.110659202e-14,3.804451003e-14,1.143787468e-14,9.295894012e-15,1.884728762e-14,3.777873217e-14,6.252199252e-14,9.561461194e-14,4.388637722e-14,1.320171275e-13,1.492364702e-13,1.061592629e-13,6.996698635e-14,3.244563972e-14,4.24968299e-14,6.819525754e-14,7.448207382e-14,1.003573913e-14,4.444425523e-15,1.571595528e-14,4.983755328e-15,8.546389499e-14,1.346954931e-13,7.899681766e-14,1.570816821e-13,2.47215884e-14,9.372871338e-14,6.142987367e-15
1.2734375,2.901349214e-14,3.478443822e-13,1.883440227e-13,7.077219266e-14,1.992812488e-14,3.672674401e-14,1.144306982e-14,1.066220564e-14,1.955333044e-14,4.328690275e-14,6.001970792e-14,9.596543332e-14,4.178379817e-14,1.284231419e-13,1.462541727e-13,1.048394748e-13,7.086917511e-14,3.43704014e-14,4.218419783e-14,6.730083504e-14,7.384921225e-14,9.868571666e-15,4.669141854e-15,1.971223159e-14,5.267012985e-15,8.663454561e-14,1.393636291e-13,7.921133609e-14,1.69775018e-13,2.663537753e-14,9.4329689e-14,6.446947543e-15
1.28125,2.611704261e-14,3.271812953e-13,1.914477533e-13,7.048816524e-14,1.895149458e-14,3.545304841e-14,1.135869974e-14,1.226683972e-14,2.022797343e-14,4.900431257e-14,5.832738405e-14,9.479867712e-14,3.988617715e-14,1.225643068e-13,1.407170797e-13,1.014449637e-13,7.037144584e-14,3.63417699e-14,4.125964691e-14,6.483564733e-14,7.230205963e-14,9.677706593e-15,4.870294692e-15,2.466406444e-14,5.60965014e-15,8.740101338e-14,1.417320045e-13,7.862383369e-14,1.816588965e-13,2.857381689e-14,9.438305663e-14,6.759204015e-15
1.2890625,2.452226524e-14,3.030341337e-13,1.924520789e-13,7.02908089e-14,1.840022696e-14,3.401937117e-14,1.121209929e-14,1.400913092e-14,2.094301825e-14,5.440013882e-14,5.716558008e-14,9.253873964e-14,3.851511082e-14,1.150021806e-13,1.328828101e-13,9.623527505e-14,6.870261101e-14,3.842681166e-14,3.982334565e-14,6.119535288e-14,6.972056627e-14,9.53813034e-15,4.967099499e-15,3.036039959e-14,5.96256786e-15,8.745963672e-14,1.421270366e-13,7.716679622e-14,1.922985951e-13,3.028475085e-14,9.44554948e-14,7.01111111e-15
1.296875,2.380134665e-14,2.765646633e-13,1.914148782e-13,7.018128522e-14,1.858802394e-14,3.235556149e-14,1.095990207e-14,1.573100713e-14,2.168636277e-14,5.902032048e-14,5.60500419e-14,8.950544676e-14,3.785157598e-14,1.068048211e-13,1.233412223e-13,8.897402563e-14,6.586651018e-14,4.052151143e-14,3.815245474e-14,5.640637625e-14,6.656254544e-14,9.453727251e-15,5.025507445e-15,3.652477052e-14,6.331155896e-15,8.631338359e-14,1.395810809e-13,7.477340315e-14,1.999861478e-13,3.150960937e-14,9.464275099e-14,7.107864799e-15
1.3046875,2.392816275e-14,2.503534004e-13,1.884207428e-13,7.109233003e-14,2.015142314e-14,3.055977038e-14,1.060496627e-14,1.725091133e-14,2.260749953e-14,6.251529374e-14,5.500457101e-14,8.645627585e-14,3.836914621e-14,9.947405334e-14,1.128923894e-13,8.029565689e-14,6.210603343e-14,4.275052407e-14,3.651089553e-14,5.106046476e-14,6.32887587e-14,9.550559874e-15,4.964980314e-15,4.303315062e-14,6.671146397e-15,8.404494159e-14,1.346872744e-13,7.202184716e-14,2.040808899e-13,3.216801351e-14,9.51461312e-14,7.049829201e-15
1.3125,2.479495485e-14,2.244188442e-13,1.833384621e-13,7.347049888e-14,2.336134384e-14,2.894248184e-14,1.020705941e-14,1.82594783e-14,2.349943958e-14,6.44342139e-14,5.360095874e-14,8.345160981e-14,4.016737224e-14,9.357273666e-14,1.030633328e-13,7.163994946e-14,5.82198586e-14,4.518397125e-14,3.522152297e-14,4.593888458e-14,5.99084044e-14,9.835629524e-15,4.83409964e-15,4.941609422e-14,7.119122659e-15,8.075279161e-14,1.278903913e-13,6.852386371e-14,2.043450268e-13,3.205531185e-14,9.580800441e-14,6.887429253e-15
1.3203125,2.594968853e-14,2.00477901e-13,1.763365971e-13,7.804752129e-14,2.881732717e-14,2.740305147e-14,9.775008835e-15,1.862672445e-14,2.460559915e-14,6.521494831e-14,5.156599106e-14,8.098691379e-14,4.358706745e-14,8.999218677e-14,9.466725058e-14,6.373984936e-14,5.440014955e-14,4.81349492e-14,3.473516536e-14,4.141490905e-14,5.664382944e-14,1.047906492e-14,4.645410194e-15,5.523613829e-14,7.736931638e-15,7.623187036e-14,1.199414877e-13,6.49231546e-14,2.002560633e-13,3.122947727e-14,9.737618379e-14,6.621619474e-15
1.328125,2.709936003e-14,1.787920712e-13,1.677322031e-13,8.359242254e-14,3.677434823e-14,2.605915742e-14,9.33180144e-15,1.844830485e-14,2.587907417e-14,6.470817992e-14,4.890888669e-14,7.916427226e-14,4.834300752e-14,8.913639683e-14,8.855747172e-14,5.745966347e-14,5.087129423e-14,5.205056611e-14,3.533466905e-14,3.8022398e-14,5.37786883e-14,1.148897145e-14,4.476133733e-15,5.998907685e-14,8.622742202e-15,7.102819843e-14,1.124929836e-13,6.118718625e-14,1.928467647e-13,2.993968502e-14,9.987878176e-14,6.349147293e-15
1.3359375,2.856442147e-14,1.594523243e-13,1.575471867e-13,9.020145215e-14,4.74768921e-14,2.524484491e-14,8.965080579e-15,1.774315094e-14,2.735261799e-14,6.28583042e-14,4.532399853e-14,7.790926636e-14,5.398214727e-14,9.102495449e-14,8.499545226e-14,5.300739528e-14,4.786233139e-14,5.672895116e-14,3.704876337e-14,3.635088749e-14,5.130753305e-14,1.287366927e-14,4.353461346e-15,6.328282396e-14,9.774929201e-15,6.503297041e-14,1.054796653e-13,5.722176529e-14,1.819342651e-13,2.811848568e-14,1.027211265e-13,6.063375605e-15
1.34375,3.081573765e-14,1.422021762e-13,1.456043246e-13,9.700137885e-14,6.063234244e-14,2.50118352e-14,8.733635925e-15,1.675482418e-14,2.889667931e-14,5.954502681e-14,4.082320008e-14,7.70704202e-14,5.989925623e-14,9.519050588e-14,8.408323877e-14,5.054849873e-14,4.547574707e-14,6.229019268e-14,3.977941317e-14,3.664309045e-14,4.90596424e-14,1.45435255e-14,4.325467793e-15,6.517494162e-14,1.123012542e-14,5.895429052e-14,9.993940962e-14,5.270806845e-14,1.686371385e-13,2.593741471e-14,1.053486185e-13,5.896066741e-15
1.3515625,3.400159773e-14,1.269776726e-13,1.327463495e-13,1.035925387e-13,7.568987332e-14,2.535088662e-14,8.723002526e-15,1.546088279e-14,3.035899972e-14,5.504040348e-14,3.568967606e-14,7.656795887e-14,6.571193887e-14,1.0149235e-13,8.605332786e-14,5.035843324e-14,4.394493165e-14,6.878427041e-14,4.328869533e-14,3.898551195e-14,4.730355329e-14,1.636937502e-14,4.467715579e-15,6.559298226e-14,1.302744097e-14,5.342033547e-14,9.607438597e-14,4.761435764e-14,1.541756784e-13,2.377574745e-14,1.076472876e-13,5.854879296e-15
1.359375,3.771143517e-14,1.139545673e-13,1.193707403e-13,1.085332594e-13,9.189646115e-14,2.619056459e-14,8.897720904e-15,1.415384574e-14,3.174347929e-14,4.995484708e-14,3.02420569e-14,7.612920794e-14,7.050320902e-14,1.089232816e-13,8.953164376e-14,5.166778337e-14,4.29476904e-14,7.594961689e-14,4.700310032e-14,4.317561025e-14,4.602326732e-14,1.824689092e-14,4.772580985e-15,6.454873513e-14,1.496919048e-14,4.819400616e-14,9.356193557e-14,4.236980465e-14,1.388177997e-13,2.178779945e-14,1.09319773e-13,5.877217667e-15
1.3671875,4.176393837e-14,1.032430058e-13,1.069740371e-13,1.112687121e-13,1.078690993e-13,2.734556211e-14,9.243504075e-15,1.289837083e-14,3.27342454e-14,4.466245281e-14,2.544129254e-14,7.581393583e-14,7.366233634e-14,1.167072203e-13,9.475772413e-14,5.485608713e-14,4.28299323e-14,8.351208892e-14,5.064282607e-14,4.809369905e-14,4.539037069e-14,1.990946263e-14,5.243766082e-15,6.22878404e-14,1.692062306e-14,4.405828863e-14,9.27189348e-14,3.725942211e-14,1.245844252e-13,2.026853203e-14,1.09864087e-13,6.029884859e-15
1.375,4.509551025e-14,9.389659272e-14,9.59443361e-14,1.112782015e-13,1.219242493e-13,2.855159347e-14,9.712077928e-15,1.17525734e-14,3.298749302e-14,3.961639412e-14,2.122979217e-14,7.493596198e-14,7.456207383e-14,1.231798577e-13,1.004199456e-13,5.895269658e-14,4.323877872e-14,9.050683458e-14,5.351220412e-14,5.315815411e-14,4.496908261e-14,2.100180458e-14,5.929363033e-15,5.900928148e-14,1.870534066e-14,4.074373514e-14,9.247088227e-14,3.23304577e-14,1.114737232e-13,1.916929805e-14,1.079102933e-13,6.270882246e-15
1.3828125,4.735745435e-14,8.630759073e-14,8.615821723e-14,1.090521042e-13,1.324629282e-13,2.975546578e-14,1.02511104e-14,1.077982293e-14,3.239110698e-14,3.500215187e-14,1.777060201e-14,7.328690835e-14,7.305494465e-14,1.273307e-13,1.057915052e-13,6.349117824e-14,4.37842784e-14,9.596347479e-14,5.520812535e-14,5.755548597e-14,4.468862568e-14,2.140489417e-14,6.843727975e-15,5.515094075e-14,2.010981956e-14,3.833171461e-14,9.209952568e-14,2.799669572e-14,9.972870101e-14,1.849050777e-14,1.035813165e-13,6.581179496e-15
1.390625,4.835359383e-14,8.05885114e-14,7.780306038e-14,1.04907543e-13,1.393266455e-13,3.033418125e-14,1.064882168e-14,1.001980372e-14,3.111589333e-14,3.092556927e-14,1.553886011e-14,7.086301581e-14,6.952616545e-14,1.290944779e-13,1.095927764e-13,6.753953512e-14,4.413004161e-14,9.95267229e-14,5.543542065e-14,6.136907859e-14,4.441020736e-14,2.11711638e-14,7.915939061e-15,5.108199976e-14,2.093201477e-14,3.681323115e-14,9.139689158e-14,2.450108997e-14,8.948970096e-14,1.831676915e-14,9.747065242e-14,7.076280386e-15
1.3984375,4.751068582e-14,7.632927567e-14,7.043718102e-14,9.939780395e-14,1.418484487e-13,3.032161504e-14,1.08719635e-14,9.443456771e-15,2.912626749e-14,2.743774485e-14,1.412439776e-14,6.754956666e-14,6.398901219e-14,1.279023399e-13,1.114479526e-13,7.051128573e-14,4.384817025e-14,1.005041086e-13,5.41185498e-14,6.362932632e-14,4.389514823e-14,2.025471236e-14,9.109733698e-15,4.703143057e-14,2.106693315e-14,3.590121471e-14,8.940488379e-14,2.192142021e-14,8.023162175e-14,1.846409853e-14,8.956744488e-14,7.691360594e-15
1.40625,4.518901306e-14,7.396869981e-14,6.36264896e-14,9.39244947e-14,1.402033376e-13,2.972323401e-14,1.08567303e-14,8.983641182e-15,2.654927894e-14,2.452185495e-14,1.3635762e-14,6.340110836e-14,5.724006511e-14,1.239025239e-13,1.107885404e-13,7.175359741e-14,4.275546348e-14,9.847627116e-14,5.141100244e-14,6.431152354e-14,4.288952968e-14,1.876131896e-14,1.032832289e-14,4.309083176e-14,2.041190113e-14,3.547934805e-14,8.59132238e-14,2.043767503e-14,7.19444012e-14,1.888573184e-14,8.014165841e-14,8.393603438e-15
1.4140625,4.106643375e-14,7.21719732e-14,5.756706071e-14,8.872819589e-14,1.348047175e-13,2.860701187e-14,1.062739801e-14,8.576111753e-15,2.346197618e-14,2.219877938e-14,1.40102969e-14,5.825805877e-14,4.958847878e-14,1.16996458e-13,1.072783316e-13,7.103973792e-14,4.057744424e-14,9.308103297e-14,4.727844787e-14,6.340886774e-14,4.164098334e-14,1.67705052e-14,1.155023464e-14,3.945923876e-14,1.906100632e-14,3.52038096e-14,8.019692004e-14,1.975726326e-14,6.396383513e-14,1.957331472e-14,6.920799278e-14,9.251197167e-15
1.421875,3.625577731e-14,7.06022792e-14,5.30958637e-14,8.561659363e-14,1.277429359e-13,2.74583578e-14,1.026061933e-14,8.16213968e-15,2.051336154e-14,2.031681032e-14,1.528981713e-14,5.336277884e-14,4.249165598e-14,1.096904931e-13,1.020796626e-13,6.921544758e-14,3.820312439e-14,8.553900845e-14,4.246041063e-14,6.084159488e-14,4.040988416e-14,1.475841962e-14,1.259507312e-14,3.666790809e-14,1.723086183e-14,3.495279538e-14,7.289265504e-14,2.011389182e-14,5.675546581e-14,2.057929587e-14,5.877142008e-14,1.017697251e-14
1.4296875,3.135879179e-14,6.915936809e-14,4.985675878e-14,8.349206724e-14,1.204147317e-13,2.615546139e-14,9.74465275e-15,7.806727728e-15,1.78521028e-14,1.886235537e-14,1.713611627e-14,4.867222507e-14,3.646702429e-14,1.023572152e-13,9.511576857e-14,6.611131974e-14,3.573509607e-14,7.670443098e-14,3.727147749e-14,5.771060248e-14,3.911136634e-14,1.285304913e-14,1.337931878e-14,3.47327547e-14,1.506726647e-14,3.454749797e-14,6.493861954e-14,2.10486982e-14,5.047472389e-14,2.175966235e-14,4.936442989e-14,1.116366799e-14
1.4375,2.696227046e-14,6.733854178e-14,4.849417925e-14,8.283789613e-14,1.142842489e-13,2.517455534e-14,9.170897907e-15,7.49837264e-15,1.554602851e-14,1.776314526e-14,1.973138096e-14,4.459054811e-14,3.1795897e-14,9.616842285e-14,8.689987748e-14,6.213193084e-14,3.35948487e-14,6.735167614e-14,3.195745917e-14,5.441749955e-14,3.831904365e-14,1.120613295e-14,1.378859906e-14,3.340748158e-14,1.272841198e-14,3.374415606e-14,5.633719411e-14,2.236440458e-14,4.498506176e-14,2.314534994e-14,4.122988428e-14,1.205365669e-14
1.4453125,2.343310259e-14,6.58193483e-14,4.901361295e-14,8.350888071e-14,1.104727271e-13,2.457720927e-14,8.653995334e-15,7.216414357e-15,1.382950424e-14,1.698082052e-14,2.292525708e-14,4.150405641e-14,2.886830133e-14,9.190588754e-14,7.86986834e-14,5.855182314e-14,3.246299883e-14,5.870545922e-14,2.699156435e-14,5.145125507e-14,3.769578663e-14,9.970104581e-15,1.381483334e-14,3.266196882e-14,1.054322821e-14,3.259667087e-14,4.849258639e-14,2.387884628e-14,4.102476942e-14,2.460234844e-14,3.510774361e-14,1.273145566e-14
1.453125,2.077575066e-14,6.434938706e-14,5.069029373e-14,8.413682983e-14,1.081601118e-13,2.392082346e-14,8.253511045e-15,6.971172696e-15,1.260541215e-14,1.664812471e-14,2.658954704e-14,3.903696134e-14,2.743499749e-14,8.867193669e-14,7.063178122e-14,5.551149616e-14,3.234139297e-14,5.08181551e-14,2.237468346e-14,4.912951878e-14,3.708460959e-14,9.064877906e-15,1.344146392e-14,3.234033043e-14,8.582074205e-15,3.102439771e-14,4.171957585e-14,2.541640516e-14,3.8292016e-14,2.594527894e-14,3.056076497e-14,1.316896096e-14
1.4609375,1.896918327e-14,6.303416154e-14,5.382475024e-14,8.444615387e-14,1.075009882e-13,2.339457198e-14,7.976740387e-15,6.744277071e-15,1.186773744e-14,1.654210882e-14,3.096263853e-14,3.737920308e-14,2.738541537e-14,8.687468123e-14,6.364891207e-14,5.370842311e-14,3.353981853e-14,4.434190409e-14,1.83883225e-14,4.780077797e-14,3.678563922e-14,8.525675423e-15,1.261322269e-14,3.226876781e-14,6.945887721e-15,2.927335064e-14,3.703217871e-14,2.687273391e-14,3.739347289e-14,2.710359175e-14,2.773757267e-14,1.334979171e-14
1.46875,1.812042136e-14,6.298997223e-14,5.775604929e-14,8.410841507e-14,1.072695909e-13,2.294381736e-14,7.733684127e-15,6.553268604e-15,1.137083251e-14,1.63664539e-14,3.590616343e-14,3.629873693e-14,2.83129133e-14,8.577226894e-14,5.818503257e-14,5.342491549e-14,3.651231918e-14,3.964144793e-14,1.542830614e-14,4.760561506e-14,3.63384237e-14,8.231753263e-15,1.146162373e-14,3.193728363e-14,5.7863556e-15,2.766533603e-14,3.486904626e-14,2.81941016e-14,3.849380823e-14,2.785315536e-14,2.628741736e-14,1.325301942e-14
1.4765625,1.786024911e-14,6.435985308e-14,6.286808496e-14,8.323044675e-14,1.069518425e-13,2.251904123e-14,7.505020738e-15,6.489302085e-15,1.105473564e-14,1.623154807e-14,4.18541111e-14,3.577593312e-14,2.998160024e-14,8.529443201e-14,5.461548796e-14,5.476366573e-14,4.115903512e-14,3.661991897e-14,1.358883149e-14,4.840580781e-14,3.582652092e-14,8.123717696e-15,1.008297325e-14,3.147444674e-14,5.088824198e-15,2.637944434e-14,3.551519954e-14,2.95935704e-14,4.184212791e-14,2.821106418e-14,2.611806994e-14,1.287979846e-14
1.484375,1.818046565e-14,6.772566162e-14,6.893059441e-14,8.157132098e-14,1.057730286e-13,2.241759047e-14,7.31734378e-15,6.579648881e-15,1.078284254e-14,1.61148146e-14,4.879962707e-14,3.598782585e-14,3.22117491e-14,8.549328463e-14,5.367955219e-14,5.839325802e-14,4.790778638e-14,3.5510662e-14,1.327358096e-14,4.985366334e-14,3.5298438e-14,8.135105644e-15,8.672446809e-15,3.060820243e-14,4.907324239e-15,2.59105582e-14,3.898036248e-14,3.151877141e-14,4.803414545e-14,2.834030873e-14,2.719099808e-14,1.235433442e-14
1.4921875,1.89720117e-14,7.372292223e-14,7.605939604e-14,8.01175712e-14,1.026514288e-13,2.276015233e-14,7.176506775e-15,6.711498854e-15,1.060363116e-14,1.611112772e-14,5.711354992e-14,3.7000059e-14,3.471219412e-14,8.577288212e-14,5.550892358e-14,6.462609227e-14,5.704117182e-14,3.613230467e-14,1.450534909e-14,5.191537292e-14,3.484193257e-14,8.301192843e-15,7.378130691e-15,2.948431823e-14,5.233848802e-15,2.643788327e-14,4.511656088e-14,3.449892278e-14,5.715055317e-14,2.839834761e-14,2.965001809e-14,1.184905043e-14
1.5,2.000983565e-14,8.300776175e-14,8.452783691e-14,7.877587707e-14,9.701512063e-14,2.349326841e-14,6.964226694e-15,6.887054e-15,1.032552398e-14,1.602894014e-14,6.67468543e-14,3.870087649e-14,3.685081591e-14,8.57301225e-14,6.07854085e-14,7.383824366e-14,6.85496612e-14,3.821589263e-14,1.729896167e-14,5.424248853e-14,3.483081008e-14,8.50206837e-15,6.257136945e-15,2.774067065e-14,6.029331455e-15,2.827127543e-14,5.319313178e-14,3.855364252e-14,6.924875573e-14,2.853814489e-14,3.294596123e-14,1.159105169e-14
1.5078125,2.111953481e-14,9.600243761e-14,9.498410024e-14,7.897573845e-14,8.985076971e-14,2.468569188e-14,6.609896253e-15,7.17323048e-15,1.00812726e-14,1.590626112e-14,7.771679898e-14,4.14379816e-14,3.877201335e-14,8.576740013e-14,6.906711542e-14,8.557748794e-14,8.197240909e-14,4.173241899e-14,2.154933068e-14,5.69051105e-14,3.556413355e-14,8.811004144e-15,5.418005565e-15,2.573050441e-14,7.203567008e-15,3.146972994e-14,6.265078344e-14,4.408663226e-14,8.389411168e-14,2.908806722e-14,3.725878164e-14,1.173624167e-14
1.515625,2.231904848e-14,1.114663026e-13,1.075653302e-13,8.10437233e-14,8.119296844e-14,2.65704101e-14,6.154986683e-15,7.488345407e-15,9.813806152e-15,1.58463658e-14,8.944003744e-14,4.501591174e-14,4.031239347e-14,8.567229163e-14,8.015000457e-14,9.971035934e-14,9.683856313e-14,4.615062816e-14,2.686823938e-14,5.964964699e-14,3.692508506e-14,9.161778886e-15,4.8648845e-15,2.354099669e-14,8.671027514e-15,3.565874292e-14,7.221213059e-14,5.081367946e-14,1.005203822e-13,2.996702995e-14,4.22265918e-14,1.234853429e-14
1.5234375,2.339724593e-14,1.28570397e-13,1.223440757e-13,8.614261745e-14,7.178430394e-14,2.941331031e-14,5.661973171e-15,7.889058392e-15,9.691179771e-15,1.609978316e-14,1.014070465e-13,4.955680962e-14,4.162220837e-14,8.569865776e-14,9.351644166e-14,1.159393814e-13,1.125021466e-13,5.102549197e-14,3.276903662e-14,6.283029989e-14,3.914459151e-14,9.624289737e-15,4.510282395e-15,2.144060385e-14,1.024016272e-14,4.051929382e-14,8.144564396e-14,5.881470497e-14,1.180005293e-13,3.134971551e-14,4.792423328e-14,1.349278271e-14
1.53125,2.429839833e-14,1.463788189e-13,1.382269227e-13,9.422078144e-14,6.280578241e-14,3.28496698e-14,5.107620261e-15,8.358522496e-15,9.695859207e-15,1.66162484e-14,1.124148209e-13,5.462248864e-14,4.269529993e-14,8.581270842e-14,1.080705747e-13,1.332634058e-13,1.277808192e-13,5.595271373e-14,3.869666922e-14,6.685105086e-14,4.209768495e-14,1.009140503e-14,4.319463947e-15,1.945504972e-14,1.184167285e-14,4.56421503e-14,8.944574062e-14,6.762278825e-14,1.345294121e-13,3.312889808e-14,5.386164348e-14,1.519858751e-14
1.5390625,2.496756691e-14,1.630503773e-13,1.543078717e-13,1.046020669e-13,5.495711028e-14,3.652515082e-14,4.528602657e-15,8.786958297e-15,9.908755193e-15,1.739451275e-14,1.217508912e-13,5.993155633e-14,4.314416751e-14,8.595851428e-14,1.22356949e-13,1.498080888e-13,1.409308939e-13,6.045195222e-14,4.408492434e-14,7.08468788e-14,4.5913134e-14,1.056938479e-14,4.239740638e-15,1.763228117e-14,1.324110177e-14,5.038612475e-14,9.505962497e-14,7.663324071e-14,1.480885682e-13,3.524420273e-14,5.921828767e-14,1.7359049e-14
1.546875,2.565386494e-14,1.75649836e-13,1.697294218e-13,1.159954546e-13,4.953503969e-14,4.057871153e-14,3.972868348e-15,9.16537818e-15,1.03748841e-14,1.825963059e-14,1.281599169e-13,6.522130708e-14,4.347339427e-14,8.698777285e-14,1.355648446e-13,1.641597951e-13,1.511455538e-13,6.470421595e-14,4.895899186e-14,7.417577761e-14,5.03017216e-14,1.109291085e-14,4.231669445e-15,1.611895859e-14,1.44918617e-14,5.416332095e-14,9.800184216e-14,8.491416138e-14,1.575873429e-13,3.732862657e-14,6.405109956e-14,1.977805224e-14
1.5546875,2.625258899e-14,1.835600132e-13,1.822829803e-13,1.270149253e-13,4.623112153e-14,4.422279001e-14,3.475485954e-15,9.382398738e-15,1.098282968e-14,1.905998188e-14,1.307549736e-13,6.973567729e-14,4.345417096e-14,8.806530419e-14,1.453782994e-13,1.73682636e-13,1.5652892e-13,6.771500982e-14,5.256542402e-14,7.641749389e-14,5.501805841e-14,1.147153906e-14,4.300120525e-15,1.48130088e-14,1.536935327e-14,5.658618986e-14,9.740075836e-14,9.156893587e-14,1.609302146e-13,3.902523923e-14,6.761487815e-14,2.226063068e-14
1.5625,2.698542834e-14,1.864800036e-13,1.909756323e-13,1.371784995e-13,4.556255967e-14,4.713335762e-14,3.053842824e-15,9.504502607e-15,1.175686904e-14,1.975189761e-14,1.293546181e-13,7.340667165e-14,4.337657623e-14,8.972112781e-14,1.511433976e-13,1.781428539e-13,1.572473621e-13,6.97545231e-14,5.483877201e-14,7.681347697e-14,6.007337062e-14,1.17111214e-14,4.400741101e-15,1.376420921e-14,1.591385098e-14,5.773915602e-14,9.400137181e-14,9.644370069e-14,1.579116241e-13,4.028860949e-14,6.990792171e-14,2.462882336e-14
1.5703125,2.809636509e-14,1.843409357e-13,1.952488878e-13,1.449609572e-13,4.763782282e-14,4.886159166e-14,2.736739637e-15,9.546015286e-15,1.257995868e-14,2.012138303e-14,1.242492524e-13,7.593014836e-14,4.332822271e-14,9.214273466e-14,1.527179455e-13,1.770494624e-13,1.532130584e-13,7.085136347e-14,5.582288832e-14,7.528883083e-14,6.538213618e-14,1.172283399e-14,4.529135294e-15,1.287219999e-14,1.612074619e-14,5.774330915e-14,8.782836573e-14,9.920843919e-14,1.488107421e-13,4.097312657e-14,7.083779066e-14,2.677988933e-14
1.578125,2.992790931e-14,1.791835643e-13,1.956593015e-13,1.495203574e-13,5.210949822e-14,4.96899313e-14,2.559140369e-15,9.401013182e-15,1.355061962e-14,2.007557511e-14,1.161877193e-13,7.760184372e-14,4.341778461e-14,9.593240084e-14,1.505163985e-13,1.704461332e-13,1.452819106e-13,7.136201859e-14,5.586416381e-14,7.127861323e-14,7.120094686e-14,1.160788666e-14,4.683356865e-15,1.214449102e-14,1.605072976e-14,5.655385083e-14,7.946675024e-14,1.00263121e-13,1.352381272e-13,4.1048074e-14,7.096919435e-14,2.836696608e-14
1.5859375,3.283177944e-14,1.730395857e-13,1.926010388e-13,1.494304323e-13,5.960793961e-14,4.932514349e-14,2.611704685e-15,9.130391006e-15,1.459904138e-14,1.949134226e-14,1.059694253e-13,7.85500789e-14,4.364893676e-14,1.014058154e-13,1.45250454e-13,1.587642347e-13,1.340351987e-13,7.161350854e-14,5.533335272e-14,6.569510125e-14,7.745075963e-14,1.136915543e-14,4.914391516e-15,1.16039741e-14,1.57662737e-14,5.449168113e-14,6.977249483e-14,9.948907798e-14,1.187722334e-13,4.041843161e-14,7.065217556e-14,2.931737687e-14
1.59375,3.717983141e-14,1.677007724e-13,1.874984325e-13,1.455794344e-13,6.989330358e-14,4.835532805e-14,2.888134681e-15,8.790579007e-15,1.573092667e-14,1.856763997e-14,9.514215645e-14,7.914217053e-14,4.398686591e-14,1.08620529e-13,1.379824689e-13,1.438434261e-13,1.210792592e-13,7.20034319e-14,5.461378256e-14,5.938149152e-14,8.380119444e-14,1.116171171e-14,5.18141187e-15,1.122611193e-14,1.524519871e-14,5.166225978e-14,5.945814693e-14,9.784183263e-14,1.015540606e-13,3.91361742e-14,7.0576558e-14,2.949616997e-14
1.6015625,4.324853062e-14,1.652720609e-13,1.819378128e-13,1.388899742e-13,8.28726756e-14,4.709568822e-14,3.388538549e-15,8.429567293e-15,1.691107948e-14,1.757090392e-14,8.480905826e-14,7.959738747e-14,4.461527265e-14,1.170946821e-13,1.297671819e-13,1.273838877e-13,1.075121189e-13,7.286632146e-14,5.408607878e-14,5.316881337e-14,9.012902483e-14,1.104857528e-14,5.497669448e-15,1.102351126e-14,1.462975032e-14,4.845123668e-14,4.963561412e-14,9.609933926e-14,8.53576577e-14,3.734202207e-14,7.132603844e-14,2.901696697e-14
1.609375,5.157478566e-14,1.670019013e-13,1.771086251e-13,1.300113712e-13,9.843887646e-14,4.58332416e-14,4.10885238e-15,8.103127313e-15,1.81165975e-14,1.686229804e-14,7.597837024e-14,8.010217485e-14,4.540629273e-14,1.267012985e-13,1.20925664e-13,1.100166501e-13,9.425986404e-14,7.428647587e-14,5.39409712e-14,4.751786953e-14,9.64617569e-14,1.112058534e-14,5.918350136e-15,1.099296589e-14,1.38650779e-14,4.501966179e-14,4.07650973e-14,9.53080414e-14,7.08865758e-14,3.539278927e-14,7.297721819e-14,2.790928487e-14
1.6171875,6.286599504e-14,1.720547786e-13,1.73653354e-13,1.194057481e-13,1.164110222e-13,4.488296005e-14,5.008131959e-15,7.842746652e-15,1.945048394e-14,1.669771245e-14,6.917592351e-14,8.078797992e-14,4.637453556e-14,1.372638946e-13,1.120251117e-13,9.317563979e-14,8.307273208e-14,7.681670443e-14,5.44681206e-14,4.274701797e-14,1.019958052e-13,1.155350644e-14,6.427734079e-15,1.120474739e-14,1.307731142e-14,4.146517206e-14,3.353413393e-14,9.581679889e-14,5.886617016e-14,3.344263286e-14,7.611256003e-14,2.619408806e-14
1.625,7.776651461e-14,1.807825915e-13,1.719041728e-13,1.076375726e-13,1.358537949e-13,4.445990914e-14,6.039616955e-15,7.740336068e-15,2.091269848e-14,1.749984053e-14,6.453350742e-14,8.164737202e-14,4.736593929e-14,1.479761951e-13,1.03507858e-13,7.779452979e-14,7.495257425e-14,8.049469344e-14,5.60981139e-14,3.924202098e-14,1.063683698e-13,1.241855754e-14,7.079098291e-15,1.152344629e-14,1.241276075e-14,3.806684881e-14,2.855116934e-14,9.829530295e-14,5.006665184e-14,3.170182072e-14,8.074019164e-14,2.413453403e-14
1.6328125,9.61238234e-14,1.911723548e-13,1.710739295e-13,9.562206693e-14,1.563107412e-13,4.462615268e-14,7.182927389e-15,7.795651907e-15,2.240000939e-14,1.926693682e-14,6.136528569e-14,8.222566781e-14,4.824134085e-14,1.578282355e-13,9.50974533e-14,6.456951998e-14,7.019443318e-14,8.495748664e-14,5.844233106e-14,3.716177165e-14,1.090085815e-13,1.362935701e-14,7.936353604e-15,1.221419358e-14,1.191417777e-14,3.477749803e-14,2.551020762e-14,1.022051108e-13,4.381453072e-14,3.01329562e-14,8.617832418e-14,2.18213545e-14
1.640625,1.174451613e-13,2.006401303e-13,1.699912497e-13,8.383690847e-14,1.757634569e-13,4.566890015e-14,8.437957428e-15,8.096226225e-15,2.385040922e-14,2.194762172e-14,5.865105584e-14,8.213368479e-14,4.89114537e-14,1.655878644e-13,8.723854215e-14,5.420802325e-14,6.916671073e-14,8.986069866e-14,6.143888038e-14,3.617052284e-14,1.094795571e-13,1.516907057e-14,9.011653113e-15,1.319081389e-14,1.173628888e-14,3.164306316e-14,2.449712625e-14,1.066281612e-13,3.957092416e-14,2.857322514e-14,9.208140865e-14,1.955324216e-14
1.6484375,1.405036061e-13,2.091640371e-13,1.676720541e-13,7.331530549e-14,1.928303183e-13,4.743684189e-14,9.707473318e-15,8.68052668e-15,2.52367607e-14,2.54464248e-14,5.597725694e-14,8.109644131e-14,4.919398049e-14,1.704393443e-13,7.965062042e-14,4.668683217e-14,7.131995106e-14,9.460987867e-14,6.441112339e-14,3.668824691e-14,1.078427388e-13,1.690692792e-14,1.030560845e-14,1.436260926e-14,1.188986812e-14,2.886142406e-14,2.478570596e-14,1.110481554e-13,3.68045828e-14,2.705493469e-14,9.766175569e-14,1.753207337e-14
1.65625,1.642918608e-13,2.154874107e-13,1.635899582e-13,6.446214329e-14,2.071700637e-13,4.99686619e-14,1.114371355e-14,9.639899612e-15,2.655478062e-14,2.940850285e-14,5.296405627e-14,7.899783358e-14,4.909227239e-14,1.728371052e-13,7.267105653e-14,4.184185061e-14,7.59103223e-14,9.889891677e-14,6.693345321e-14,3.85970604e-14,1.038882025e-13,1.877039734e-14,1.170300696e-14,1.561801305e-14,1.234589949e-14,2.650788612e-14,2.611092957e-14,1.14571913e-13,3.495034281e-14,2.551229165e-14,1.02572058e-13,1.596798866e-14
1.6640625,1.866141194e-13,2.190111856e-13,1.573477877e-13,5.718879767e-14,2.178416345e-13,5.318342769e-14,1.273343308e-14,1.084568925e-14,2.777925677e-14,3.33555846e-14,4.912199398e-14,7.60452857e-14,4.868428485e-14,1.72919519e-13,6.675371925e-14,3.948682379e-14,8.264608009e-14,1.02522305e-13,6.889202757e-14,4.165303345e-14,9.791569406e-14,2.059326878e-14,1.317325047e-14,1.698818224e-14,1.319969886e-14,2.474380888e-14,2.822457243e-14,1.16581703e-13,3.393489551e-14,2.388126017e-14,1.062841328e-13,1.488431191e-14
1.671875,2.05357668e-13,2.201797467e-13,1.487709534e-13,5.154586727e-14,2.239468429e-13,5.659647379e-14,1.441378044e-14,1.231027311e-14,2.88646816e-14,3.672007152e-14,4.466054349e-14,7.2262946e-14,4.795671868e-14,1.701595755e-13,6.149700452e-14,3.868341874e-14,9.011377959e-14,1.047217099e-13,6.990229657e-14,4.591780349e-14,9.050314189e-14,2.216033064e-14,1.460277531e-14,1.849254868e-14,1.429374952e-14,2.349752078e-14,3.06545193e-14,1.163967977e-13,3.341462211e-14,2.204270838e-14,1.080986588e-13,1.424625531e-14
1.6796875,2.180974868e-13,2.190893727e-13,1.384185944e-13,4.758711125e-14,2.251682379e-13,6.004983256e-14,1.622938299e-14,1.418159071e-14,2.972747647e-14,3.898408392e-14,3.970969858e-14,6.753520338e-14,4.664528337e-14,1.643431219e-13,5.689648639e-14,3.889983957e-14,9.754673373e-14,1.05009097e-13,6.94067031e-14,5.12037781e-14,8.191012429e-14,2.325817104e-14,1.596410613e-14,2.026089003e-14,1.555615572e-14,2.254559037e-14,3.29413415e-14,1.132910647e-13,3.317755229e-14,1.994323706e-14,1.077036325e-13,1.402583797e-14
1.6875,2.231907777e-13,2.165424855e-13,1.277275987e-13,4.519644764e-14,2.219837917e-13,6.332948671e-14,1.813063265e-14,1.642874448e-14,3.049787747e-14,4.017802294e-14,3.506202576e-14,6.265491062e-14,4.509676053e-14,1.564681263e-13,5.312526425e-14,3.926781627e-14,1.036253417e-13,1.034739328e-13,6.741627559e-14,5.717396158e-14,7.318313978e-14,2.390139283e-14,1.70731172e-14,2.251431505e-14,1.677785562e-14,2.208901508e-14,3.467513367e-14,1.079548992e-13,3.308411426e-14,1.78759659e-14,1.054951616e-13,1.413894845e-14
1.6953125,2.210624593e-13,2.143600964e-13,1.17024591e-13,4.427747098e-14,2.144248741e-13,6.598957152e-14,2.00025163e-14,1.904255028e-14,3.12042595e-14,4.057167207e-14,3.120720804e-14,5.799623761e-14,4.369213958e-14,1.469893914e-13,5.01948981e-14,3.989381119e-14,1.084173467e-13,1.005517113e-13,6.453977498e-14,6.294140827e-14,6.468317924e-14,2.41245462e-14,1.785105638e-14,2.559636648e-14,1.78168929e-14,2.196381391e-14,3.648850048e-14,1.014812848e-13,3.370003432e-14,1.597545902e-14,1.025311572e-13,1.438637539e-14
1.703125,2.12617686e-13,2.135961124e-13,1.07340063e-13,4.504047939e-14,2.036374493e-13,6.796403145e-14,2.174997065e-14,2.19935339e-14,3.185029566e-14,4.008546291e-14,2.835794752e-14,5.377756413e-14,4.252372447e-14,1.362110367e-13,4.78156384e-14,4.027933681e-14,1.111205058e-13,9.636145032e-14,6.089825867e-14,6.839201094e-14,5.672611496e-14,2.393650073e-14,1.818440985e-14,2.950549908e-14,1.851070198e-14,2.213838608e-14,3.823193723e-14,9.422206128e-14,3.498016025e-14,1.428258882e-14,9.898927152e-14,1.475903605e-14
1.7109375,1.993000291e-13,2.148807557e-13,9.883120318e-14,4.724358346e-14,1.902481312e-13,6.873793258e-14,2.327304893e-14,2.534246356e-14,3.261612574e-14,3.889182003e-14,2.668520397e-14,5.041484467e-14,4.174834324e-14,1.250151572e-13,4.580366645e-14,4.027608218e-14,1.119823143e-13,9.141344895e-14,5.705302465e-14,7.236317777e-14,4.970884036e-14,2.340290678e-14,1.808461353e-14,3.463183395e-14,1.875581202e-14,2.23526966e-14,4.053013231e-14,8.713336056e-14,3.736223337e-14,1.290035003e-14,9.546001804e-14,1.501442815e-14
1.71875,1.82618639e-13,2.180331094e-13,9.128984846e-14,5.096575406e-14,1.745410287e-13,6.824462621e-14,2.458029842e-14,2.899687291e-14,3.328287463e-14,3.724019503e-14,2.608576254e-14,4.765267314e-14,4.100392644e-14,1.131326081e-13,4.397465081e-14,3.985072741e-14,1.111425085e-13,8.545477311e-14,5.298383285e-14,7.480220217e-14,4.354562625e-14,2.24829803e-14,1.767556024e-14,4.112908134e-14,1.844067722e-14,2.275318148e-14,4.273769766e-14,8.010441896e-14,4.071469894e-14,1.175236805e-14,9.15628332e-14,1.518322148e-14
1.7265625,1.647815571e-13,2.234808388e-13,8.527062341e-14,5.694183032e-14,1.583776899e-13,6.691080948e-14,2.566716614e-14,3.252072138e-14,3.399419501e-14,3.564387689e-14,2.649138905e-14,4.600296131e-14,4.055658578e-14,1.024521543e-13,4.274428265e-14,3.887657235e-14,1.087597851e-13,7.923632144e-14,4.920294009e-14,7.520990604e-14,3.860531708e-14,2.148356406e-14,1.692626851e-14,4.874969395e-14,1.757861393e-14,2.33096332e-14,4.513692248e-14,7.43907378e-14,4.495682285e-14,1.10692639e-14,8.808671581e-14,1.512113818e-14
1.734375,1.479892668e-13,2.327971362e-13,8.080494703e-14,6.494865489e-14,1.422415343e-13,6.475882538e-14,2.664993737e-14,3.581022196e-14,3.471187563e-14,3.461736302e-14,2.800669677e-14,4.534094442e-14,4.063965621e-14,9.315205604e-14,4.222305992e-14,3.78712609e-14,1.059851172e-13,7.349365011e-14,4.628175319e-14,7.322037158e-14,3.465686781e-14,2.048467424e-14,1.605234043e-14,5.719340194e-14,1.650441876e-14,2.396191032e-14,4.8043874e-14,7.039923233e-14,5.06146289e-14,1.069400746e-14,8.562389584e-14,1.477003778e-14
1.7421875,1.33010791e-13,2.459325457e-13,7.753573691e-14,7.481024466e-14,1.268045998e-13,6.186381093e-14,2.757570272e-14,3.885565066e-14,3.539418545e-14,3.412470252e-14,3.016512899e-14,4.528138722e-14,4.094469823e-14,8.524841228e-14,4.205564393e-14,3.660085607e-14,1.027541028e-13,6.780622009e-14,4.386936303e-14,6.984254429e-14,3.154301528e-14,1.954255164e-14,1.517433948e-14,6.580231222e-14,1.528058402e-14,2.487806376e-14,5.109501547e-14,6.766661357e-14,5.695055029e-14,1.058521808e-14,8.393268106e-14,1.433088977e-14
1.75,1.200878137e-13,2.637712545e-13,7.569103732e-14,8.611632238e-14,1.131303376e-13,5.876276518e-14,2.859754874e-14,4.119135895e-14,3.595258071e-14,3.408109111e-14,3.278805599e-14,4.571960869e-14,4.120228839e-14,7.966973157e-14,4.275533543e-14,3.552758654e-14,9.968269825e-14,6.253144678e-14,4.206012123e-14,6.593661854e-14,2.921952407e-14,1.879303662e-14,1.433729562e-14,7.349078875e-14,1.410905743e-14,2.613369648e-14,5.416100822e-14,6.614220955e-14,6.350913565e-14,1.076968897e-14,8.289826002e-14,1.385224135e-14
1.7578125,1.092556517e-13,2.88196145e-13,7.50190887e-14,9.848444731e-14,1.018048696e-13,5.565151224e-14,2.972577171e-14,4.248748908e-14,3.606552786e-14,3.442241635e-14,3.565108318e-14,4.629918055e-14,4.118304228e-14,7.611738347e-14,4.405872766e-14,3.44511248e-14,9.691639043e-14,5.762252072e-14,4.072017556e-14,6.233222949e-14,2.751528625e-14,1.8166881e-14,1.35222989e-14,7.952544558e-14,1.312718503e-14,2.782775408e-14,5.695229719e-14,6.576042543e-14,7.028391612e-14,1.11448328e-14,8.214141583e-14,1.33789664e-14
1.765625,9.969011576e-14,3.195038535e-13,7.549872417e-14,1.108884763e-13,9.342784886e-14,5.266654964e-14,3.104642167e-14,4.27054392e-14,3.571279332e-14,3.526509014e-14,3.827827207e-14,4.670488584e-14,4.0832532e-14,7.464380556e-14,4.560747104e-14,3.31398475e-14,9.427406824e-14,5.295010254e-14,3.957985362e-14,5.937538742e-14,2.630383201e-14,1.763737508e-14,1.270959584e-14,8.296731208e-14,1.240093491e-14,2.972206184e-14,5.973211103e-14,6.629965017e-14,7.628877704e-14,1.16354191e-14,8.129204998e-14,1.289793835e-14
1.7734375,9.041750976e-14,3.57758255e-13,7.773823621e-14,1.227897149e-13,8.745784251e-14,5.010792217e-14,3.255256897e-14,4.201604659e-14,3.492154964e-14,3.624823651e-14,4.03216863e-14,4.68635835e-14,4.009432143e-14,7.478432114e-14,4.75098594e-14,3.200127537e-14,9.217048058e-14,4.838836676e-14,3.836501049e-14,5.774044084e-14,2.538532416e-14,1.710753657e-14,1.189457441e-14,8.379542705e-14,1.198150786e-14,3.160887242e-14,6.213649086e-14,6.708687286e-14,8.134494625e-14,1.218909395e-14,8.018786586e-14,1.244989924e-14
1.78125,8.144413042e-14,4.035949708e-13,8.047531975e-14,1.321350797e-13,8.330169975e-14,4.799778182e-14,3.428153037e-14,4.074109798e-14,3.361423638e-14,3.747040669e-14,4.145212309e-14,4.631588304e-14,3.824258262e-14,7.576388258e-14,4.950842024e-14,3.125724676e-14,9.079291604e-14,4.389116451e-14,3.705967516e-14,5.824373484e-14,2.472328029e-14,1.650831549e-14,1.109249626e-14,8.166442225e-14,1.182201724e-14,3.328308432e-14,6.387392268e-14,6.838283275e-14,8.485953785e-14,1.282064052e-14,7.816136915e-14,1.210103882e-14
1.7890625,7.247555129e-14,4.542738427e-13,8.432073461e-14,1.391588753e-13,8.178547769e-14,4.672477012e-14,3.623618494e-14,3.910480649e-14,3.194776556e-14,3.861046453e-14,4.136393013e-14,4.528088566e-14,3.569861751e-14,7.816588288e-14,5.187637697e-14,3.088942518e-14,8.999785021e-14,4.007012114e-14,3.578941131e-14,6.079507531e-14,2.43146133e-14,1.588052291e-14,1.033134136e-14,7.666548798e-14,1.198458384e-14,3.475159367e-14,6.515836327e-14,6.974217889e-14,8.647298723e-14,1.34753447e-14,7.547025601e-14,1.188611756e-14
1.796875,6.342146539e-14,5.055219744e-13,8.859715161e-14,1.431058429e-13,8.152248832e-14,4.611273155e-14,3.816492696e-14,3.737522773e-14,2.9760069e-14,3.943126078e-14,4.024791854e-14,4.367455201e-14,3.26154309e-14,8.091144344e-14,5.428245009e-14,3.110072122e-14,8.998074224e-14,3.707976409e-14,3.452540271e-14,6.511904625e-14,2.402250571e-14,1.505939454e-14,9.656330521e-15,6.940876456e-14,1.243002772e-14,3.601497302e-14,6.609110643e-14,7.07505828e-14,8.659785932e-14,1.409713976e-14,7.217192585e-14,1.181056816e-14
1.8046875,5.529560049e-14,5.524741309e-13,9.312518364e-14,1.44652763e-13,8.283718728e-14,4.62148466e-14,3.99017238e-14,3.570127975e-14,2.732753255e-14,3.994585602e-14,3.773614868e-14,4.167551801e-14,2.945907303e-14,8.428097866e-14,5.663933804e-14,3.161171183e-14,9.019663588e-14,3.526783272e-14,3.340424243e-14,7.110996076e-14,2.381224494e-14,1.408939663e-14,9.067781376e-15,6.09728008e-14,1.301200632e-14,3.697733512e-14,6.652994874e-14,7.117761718e-14,8.515123959e-14,1.466607512e-14,6.87520441e-14,1.170633106e-14
