"Time","Fp1","AF3","F7","F3","FC1","FC5","T7","C3","CP1","CP5","P7","P3","Pz","PO3","O1","Oz","O2","PO4","P4","P8","CP6","CP2","C4","T8","FC6","FC2","F4","F8","AF4","Fp2","Fz","Cz"
0.0078125,1.098128683e-13,5.531797077e-14,2.917198714e-13,1.711961966e-13,1.24766198e-13,4.371805403e-14,6.06087194e-14,1.026425114e-14,1.358960144e-14,6.474351083e-14,1.220178786e-13,6.538835386e-14,5.586623854e-14,1.253580089e-13,1.579496199e-13,1.206331501e-13,9.355229167e-14,1.850123417e-13,7.615871927e-14,1.153017888e-14,2.503652097e-15,2.292232628e-14,1.80566821e-14,1.706283954e-14,6.677213823e-14,2.902654256e-14,6.67977594e-14,7.548980509e-14,1.893632618e-13,8.953799717e-15,2.048448598e-13,1.850826259e-14
0.015625,1.160729776e-13,5.791158696e-14,2.988604033e-13,1.757482097e-13,1.288010419e-13,4.630788952e-14,6.358166123e-14,1.038039966e-14,1.452393322e-14,6.919292626e-14,1.252388104e-13,6.792564275e-14,5.789377874e-14,1.303274359e-13,1.641491398e-13,1.262049692e-13,9.719253102e-14,1.923368152e-13,7.858518958e-14,1.231018982e-14,2.516457471e-15,2.394550077e-14,1.871861803e-14,1.828824971e-14,6.941473454e-14,2.967633079e-14,6.724149906e-14,7.884893672e-14,1.951551229e-13,9.108931668e-15,2.130552949e-13,1.876700073e-14
0.0234375,1.223699344e-13,6.03744433e-14,3.055121879e-13,1.800565538e-13,1.325746417e-13,4.893704228e-14,6.660379815e-14,1.050040718e-14,1.547474566e-14,7.378110806e-14,1.282566528e-13,7.040286973e-14,5.984941776e-14,1.351770843e-13,1.703416269e-13,1.31892667e-13,1.008019954e-13,1.995128318e-13,8.090192727e-14,1.315708494e-14,2.523322525e-15,2.496459967e-14,1.936280369e-14,1.956656719e-14,7.202310139e-14,3.027292768e-14,6.751953096e-14,8.211416071e-14,2.007580957e-13,9.250418982e-15,2.21163539e-13,1.900057869e-14
0.03125,1.285665317e-13,6.278791484e-14,3.116554602e-13,1.839039681e-13,1.361074976e-13,5.157604869e-14,6.968988975e-14,1.063711633e-14,1.640023929e-14,7.847286899e-14,1.309968772e-13,7.280496487e-14,6.169391337e-14,1.398849886e-13,1.764307928e-13,1.37648372e-13,1.043057443e-13,2.064472601e-13,8.309066233e-14,1.398581773e-14,2.528059058e-15,2.595153051e-14,1.997174117e-14,2.08695169e-14,7.455465574e-14,3.079793943e-14,6.763494244e-14,8.525827508e-14,2.061014258e-13,9.383160614e-15,2.290546468e-13,1.916730141e-14
0.0390625,1.34866997e-13,6.521959264e-14,3.171197829e-13,1.874834103e-13,1.393887908e-13,5.421150718e-14,7.278216874e-14,1.0760151e-14,1.735872506e-14,8.329738504e-14,1.335047871e-13,7.51031931e-14,6.341600939e-14,1.444203625e-13,1.822633841e-13,1.433415426e-13,1.076342972e-13,2.130718772e-13,8.511980193e-14,1.4844908e-14,2.527052281e-15,2.692084954e-14,2.052935613e-14,2.225173362e-14,7.697180504e-14,3.122411154e-14,6.756102535e-14,8.843399195e-14,2.111049565e-13,9.502029148e-15,2.367002684e-13,1.928444237e-14
0.046875,1.414640206e-13,6.771643659e-14,3.218243459e-13,1.907595188e-13,1.422836375e-13,5.681822131e-14,7.584479714e-14,1.086399353e-14,1.836902664e-14,8.832329848e-14,1.358072196e-13,7.725265627e-14,6.499089518e-14,1.48767451e-13,1.879117312e-13,1.490201954e-13,1.108335407e-13,2.193574128e-13,8.697256993e-14,1.578685126e-14,2.526816603e-15,2.788147147e-14,2.105187417e-14,2.368736152e-14,7.928456333e-14,3.158523191e-14,6.732207628e-14,9.168445656e-14,2.157383072e-13,9.604442204e-15,2.441097777e-13,1.940692028e-14
0.0546875,1.482967652e-13,7.028859457e-14,3.259519573e-13,1.934278025e-13,1.449262826e-13,5.946622358e-14,7.893530896e-14,1.0963317e-14,1.939607819e-14,9.350091994e-14,1.377774267e-13,7.932516119e-14,6.647106898e-14,1.530635292e-13,1.935610013e-13,1.548303242e-13,1.139915431e-13,2.253917568e-13,8.870891617e-14,1.674506306e-14,2.543189149e-15,2.883686438e-14,2.155807346e-14,2.515041608e-14,8.152283429e-14,3.190496754e-14,6.700230435e-14,9.48897933e-14,2.200788018e-13,9.695513061e-15,2.514030038e-13,1.950932635e-14
0.0625,1.551354834e-13,7.283645264e-14,3.295621472e-13,1.95614044e-13,1.474269538e-13,6.21710252e-14,8.205930142e-14,1.105847992e-14,2.045069058e-14,9.874166898e-14,1.394197485e-13,8.134705069e-14,6.784382656e-14,1.573162188e-13,1.990758521e-13,1.606651644e-13,1.170137771e-13,2.311535735e-13,9.034299874e-14,1.768377443e-14,2.588320879e-15,2.97820117e-14,2.204283563e-14,2.668096439e-14,8.366074398e-14,3.214534256e-14,6.653143601e-14,9.797991377e-14,2.241397294e-13,9.781057151e-15,2.585672598e-13,1.955496237e-14
0.0703125,1.619144424e-13,7.528749944e-14,3.327578525e-13,1.973080796e-13,1.496326948e-13,6.486170081e-14,8.517364229e-14,1.115284707e-14,2.153217684e-14,1.040390837e-13,1.409347175e-13,8.326114211e-14,6.902217385e-14,1.614070087e-13,2.043262888e-13,1.663981988e-13,1.198310022e-13,2.364923182e-13,9.182174209e-14,1.864560671e-14,2.659616862e-15,3.069983373e-14,2.248395208e-14,2.828119335e-14,8.56657556e-14,3.230711031e-14,6.585011181e-14,1.009571292e-13,2.279431574e-13,9.874600826e-15,2.655083184e-13,1.956549417e-14
0.078125,1.687078826e-13,7.764310647e-14,3.354416182e-13,1.985039726e-13,1.514602159e-13,6.755242166e-14,8.826764146e-14,1.125370543e-14,2.261784174e-14,1.093898517e-13,1.422827353e-13,8.506817305e-14,7.006313698e-14,1.653117723e-13,2.094228655e-13,1.721449323e-13,1.225466057e-13,2.413540288e-13,9.311864242e-14,1.961875931e-14,2.739245557e-15,3.159239399e-14,2.286127772e-14,2.995375163e-14,8.753301128e-14,3.241651974e-14,6.509875193e-14,1.038492302e-13,2.315113785e-13,9.971184712e-15,2.722223509e-13,1.954586364e-14
0.0859375,1.755248306e-13,7.988736411e-14,3.372075189e-13,1.993498902e-13,1.529747036e-13,7.018918523e-14,9.130238272e-14,1.1354478e-14,2.370539441e-14,1.147490692e-13,1.433038841e-13,8.673189248e-14,7.099089444e-14,1.690169413e-13,2.142260015e-13,1.777994357e-13,1.251267274e-13,2.457145904e-13,9.421250112e-14,2.058004698e-14,2.81451481e-15,3.245393235e-14,2.318083456e-14,3.166382409e-14,8.92264324e-14,3.244132547e-14,6.431880309e-14,1.066104181e-13,2.346728712e-13,1.003447625e-14,2.785438321e-13,1.947702329e-14
0.09375,1.824353635e-13,8.202840704e-14,3.381454252e-13,1.995674671e-13,1.542182017e-13,7.268856229e-14,9.425446376e-14,1.145159313e-14,2.479065389e-14,1.200923966e-13,1.440588877e-13,8.822119827e-14,7.172286308e-14,1.725237904e-13,2.1859627e-13,1.831712196e-13,1.274954908e-13,2.495958246e-13,9.512297417e-14,2.156483793e-14,2.893316591e-15,3.326803377e-14,2.346243216e-14,3.335238135e-14,9.073850605e-14,3.237676955e-14,6.341603672e-14,1.091680475e-13,2.374146496e-13,1.006469547e-14,2.843833111e-13,1.936743927e-14
0.1015625,1.894172872e-13,8.408697168e-14,3.38509702e-13,1.991793764e-13,1.551501566e-13,7.508301709e-14,9.715496575e-14,1.155503781e-14,2.587604639e-14,1.254490772e-13,1.445874401e-13,8.958339321e-14,7.228288784e-14,1.758418745e-13,2.227286275e-13,1.884938125e-13,1.297365681e-13,2.530751604e-13,9.590687713e-14,2.256105889e-14,2.993815847e-15,3.403898387e-14,2.370405665e-14,3.508104275e-14,9.211145726e-14,3.227042755e-14,6.2443767e-14,1.116152846e-13,2.399168154e-13,1.010045342e-14,2.899158128e-13,1.922886982e-14
0.109375,1.962679523e-13,8.602637174e-14,3.382928852e-13,1.984571852e-13,1.557595348e-13,7.734086522e-14,9.998543279e-14,1.166948866e-14,2.696190535e-14,1.307792079e-13,1.449013161e-13,9.081822991e-14,7.271132714e-14,1.789317112e-13,2.266443124e-13,1.938869481e-13,1.318483047e-13,2.561053594e-13,9.655786e-14,2.352819997e-14,3.115971164e-15,3.476484345e-14,2.3887266e-14,3.689157182e-14,9.333324216e-14,3.212348424e-14,6.151146849e-14,1.139585907e-13,2.421229242e-13,1.013437545e-14,2.951510004e-13,1.905746948e-14
0.1171875,2.030255601e-13,8.783142584e-14,3.377056594e-13,1.971192153e-13,1.560986327e-13,7.94678535e-14,1.027054176e-13,1.179473011e-14,2.804180243e-14,1.359732461e-13,1.451219978e-13,9.193465383e-14,7.299623063e-14,1.818226316e-13,2.302432121e-13,1.991180936e-13,1.337797882e-13,2.586455737e-13,9.706327898e-14,2.448993164e-14,3.250362726e-15,3.544663435e-14,2.401403774e-14,3.8742452e-14,9.438017603e-14,3.192325379e-14,6.057954157e-14,1.160160353e-13,2.440231793e-13,1.014103628e-14,3.000623544e-13,1.886173246e-14
0.125,2.098107829e-13,8.951259095e-14,3.366684696e-13,1.951942154e-13,1.561366436e-13,8.15529108e-14,1.053199478e-13,1.19357159e-14,2.913382466e-14,1.411152014e-13,1.45197641e-13,9.295558503e-14,7.315608999e-14,1.84557645e-13,2.336022711e-13,2.041758715e-13,1.355994735e-13,2.607495301e-13,9.743814225e-14,2.54583468e-14,3.408223625e-15,3.610085873e-14,2.411066574e-14,4.065315063e-14,9.527711025e-14,3.168691055e-14,5.959009996e-14,1.178481083e-13,2.457841409e-13,1.014674404e-14,3.047416493e-13,1.864751894e-14
0.1328125,2.165157509e-13,9.104882065e-14,3.347535095e-13,1.930510206e-13,1.558674277e-13,8.353215308e-14,1.078343277e-13,1.20804992e-14,3.024157332e-14,1.46322732e-13,1.44928969e-13,9.38240999e-14,7.318976235e-14,1.871308708e-13,2.366904402e-13,2.09148551e-13,1.373222049e-13,2.623975586e-13,9.766735737e-14,2.639307274e-14,3.591047715e-15,3.672286412e-14,2.417672663e-14,4.262616744e-14,9.601628288e-14,3.140996144e-14,5.858953864e-14,1.196276773e-13,2.47356778e-13,1.017302709e-14,3.090995136e-13,1.838760345e-14
0.140625,2.231245636e-13,9.248674468e-14,3.321168276e-13,1.906042897e-13,1.553823747e-13,8.536561773e-14,1.102403368e-13,1.221175245e-14,3.135010687e-14,1.514138338e-13,1.442788469e-13,9.453519699e-14,7.309276711e-14,1.895562035e-13,2.394088385e-13,2.139365315e-13,1.388682719e-13,2.635506674e-13,9.775132773e-14,2.727612848e-14,3.788274043e-15,3.730462546e-14,2.416905391e-14,4.462846504e-14,9.655608974e-14,3.108266822e-14,5.759205222e-14,1.212892316e-13,2.486205951e-13,1.019848011e-14,3.130747782e-13,1.807356528e-14
0.1484375,2.297122049e-13,9.38930133e-14,3.290495229e-13,1.87802387e-13,1.546099869e-13,8.70891472e-14,1.125010159e-13,1.234709726e-14,3.245045158e-14,1.562397435e-13,1.433607213e-13,9.510871808e-14,7.287030645e-14,1.91740105e-13,2.417551048e-13,2.184931704e-13,1.401959921e-13,2.641908701e-13,9.769255714e-14,2.812800612e-14,4.018692849e-15,3.784156598e-14,2.406713238e-14,4.66610369e-14,9.688834429e-14,3.072337704e-14,5.656944674e-14,1.227698413e-13,2.49549176e-13,1.021742028e-14,3.167034575e-13,1.775013241e-14
0.15625,2.362717626e-13,9.520873917e-14,3.254313136e-13,1.847112349e-13,1.534252287e-13,8.862825876e-14,1.145645207e-13,1.250699029e-14,3.351436357e-14,1.608817001e-13,1.422459193e-13,9.550107474e-14,7.250529562e-14,1.9355271e-13,2.436921917e-13,2.228374645e-13,1.413270898e-13,2.64266122e-13,9.745729039e-14,2.895984498e-14,4.292189894e-15,3.83163717e-14,2.389432832e-14,4.87136587e-14,9.701705298e-14,3.035044638e-14,5.557443521e-14,1.240978189e-13,2.50132972e-13,1.024270537e-14,3.198539692e-13,1.744464517e-14
0.1640625,2.42804421e-13,9.641509661e-14,3.212405773e-13,1.81311566e-13,1.519077088e-13,8.999534436e-14,1.164514938e-13,1.267913429e-14,3.45575117e-14,1.653207868e-13,1.408596349e-13,9.576150037e-14,7.202649082e-14,1.95064535e-13,2.451982435e-13,2.269228172e-13,1.422611879e-13,2.637616579e-13,9.704110419e-14,2.974131886e-14,4.598677547e-15,3.873481213e-14,2.366345811e-14,5.082058412e-14,9.692250464e-14,2.997318115e-14,5.463299328e-14,1.252628372e-13,2.504820763e-13,1.026876993e-14,3.224862675e-13,1.714463868e-14
0.171875,2.49240739e-13,9.756717548e-14,3.165715293e-13,1.777509174e-13,1.501211384e-13,9.127529223e-14,1.182113685e-13,1.285274089e-14,3.563925832e-14,1.694900411e-13,1.39151953e-13,9.595712299e-14,7.14493708e-14,1.963839335e-13,2.462824936e-13,2.306906166e-13,1.429350189e-13,2.626884159e-13,9.64540132e-14,3.045370981e-14,4.955102897e-15,3.910860931e-14,2.337040444e-14,5.301368646e-14,9.659951564e-14,2.959728051e-14,5.368541902e-14,1.262869694e-13,2.506823317e-13,1.02939416e-14,3.247102278e-13,1.684894104e-14
0.1796875,2.555593499e-13,9.856852576e-14,3.114205163e-13,1.739258174e-13,1.480339376e-13,9.237649743e-14,1.198205944e-13,1.303750158e-14,3.671811024e-14,1.734241092e-13,1.371963201e-13,9.601274748e-14,7.07119681e-14,1.974798337e-13,2.469399345e-13,2.341483359e-13,1.434139484e-13,2.610898034e-13,9.570980707e-14,3.113131678e-14,5.363875445e-15,3.94195246e-14,2.302409023e-14,5.522008318e-14,9.609490055e-14,2.923140252e-14,5.274602806e-14,1.271562278e-13,2.506963649e-13,1.033066651e-14,3.264926832e-13,1.656569446e-14
0.1875,2.618539161e-13,9.936433736e-14,3.058531882e-13,1.696070681e-13,1.457377651e-13,9.319497527e-14,1.212358389e-13,1.324620712e-14,3.771624048e-14,1.77094036e-13,1.350023614e-13,9.589278839e-14,6.982553911e-14,1.983110737e-13,2.472299975e-13,2.373708434e-13,1.438581367e-13,2.59073582e-13,9.487372494e-14,3.178002895e-14,5.80325683e-15,3.965920003e-14,2.263082769e-14,5.741270213e-14,9.544523316e-14,2.890201121e-14,5.188431595e-14,1.278173495e-13,2.505455151e-13,1.038318862e-14,3.277696161e-13,1.629717831e-14
0.1953125,2.680547355e-13,1.000964616e-13,2.999463433e-13,1.651080639e-13,1.432836682e-13,9.378036805e-14,1.224619923e-13,1.347867951e-14,3.866814001e-14,1.804728078e-13,1.325728059e-13,9.565631289e-14,6.886157242e-14,1.988949672e-13,2.471852044e-13,2.403371226e-13,1.442015237e-13,2.566372357e-13,9.39667256e-14,3.237441738e-14,6.286944828e-15,3.983827852e-14,2.218114931e-14,5.963476946e-14,9.462890262e-14,2.862791807e-14,5.10821501e-14,1.2835709e-13,2.502640068e-13,1.045290325e-14,3.285357235e-13,1.60478795e-14
0.203125,2.740602558e-13,1.007398656e-13,2.935829956e-13,1.606677175e-13,1.405224841e-13,9.418313259e-14,1.235063503e-13,1.371965472e-14,3.960633006e-14,1.836504589e-13,1.299624025e-13,9.528394674e-14,6.779189268e-14,1.992086929e-13,2.46759346e-13,2.429436312e-13,1.443193115e-13,2.536844128e-13,9.293369621e-14,3.290889882e-14,6.831877595e-15,3.995720591e-14,2.167775099e-14,6.188452739e-14,9.363354436e-14,2.840040548e-14,5.028826521e-14,1.288632904e-13,2.498899988e-13,1.054000658e-14,3.287501706e-13,1.581674276e-14
0.2109375,2.798363889e-13,1.011633924e-13,2.866547011e-13,1.561422842e-13,1.374866106e-13,9.436393884e-14,1.243468488e-13,1.397330498e-14,4.048575648e-14,1.866541869e-13,1.271220556e-13,9.474943031e-14,6.659270138e-14,1.9920421e-13,2.459394847e-13,2.452105202e-13,1.442834569e-13,2.50263905e-13,9.178039808e-14,3.335249891e-14,7.438214994e-15,4.000878777e-14,2.114151082e-14,6.414897633e-14,9.247766487e-14,2.822066797e-14,4.953129634e-14,1.292494416e-13,2.494194757e-13,1.063675853e-14,3.283820392e-13,1.559646231e-14
0.21875,2.85291003e-13,1.014540674e-13,2.794518953e-13,1.516124275e-13,1.344204105e-13,9.430876384e-14,1.249721416e-13,1.426513907e-14,4.129981675e-14,1.893451645e-13,1.240680206e-13,9.412303991e-14,6.533616485e-14,1.989266916e-13,2.447270851e-13,2.471464446e-13,1.441246656e-13,2.464687691e-13,9.05546456e-14,3.370195482e-14,8.118915193e-15,3.999047652e-14,2.058164958e-14,6.642700725e-14,9.116506672e-14,2.811835492e-14,4.885330843e-14,1.293988743e-13,2.487096873e-13,1.074108284e-14,3.274411999e-13,1.53891966e-14
0.2265625,2.904681722e-13,1.015911184e-13,2.723446346e-13,1.470348378e-13,1.312941322e-13,9.40538875e-14,1.253793463e-13,1.459148912e-14,4.206024983e-14,1.915618788e-13,1.209562874e-13,9.343348023e-14,6.402863641e-14,1.983887676e-13,2.431447722e-13,2.486445493e-13,1.437957749e-13,2.42304805e-13,8.926321219e-14,3.402290734e-14,8.865430365e-15,3.99060515e-14,1.999451328e-14,6.871724586e-14,8.970854678e-14,2.81294026e-14,4.820143418e-14,1.292553585e-13,2.47868948e-13,1.085714883e-14,3.2598383e-13,1.522183112e-14
0.234375,2.95398385e-13,1.01402742e-13,2.652284678e-13,1.422595709e-13,1.27956356e-13,9.360201866e-14,1.255628216e-13,1.492604433e-14,4.274021926e-14,1.9330799e-13,1.177982948e-13,9.265739833e-14,6.264755873e-14,1.975216055e-13,2.413094737e-13,2.497378698e-13,1.4335511e-13,2.378717638e-13,8.791943703e-14,3.431014707e-14,9.66071411e-15,3.975536051e-14,1.938832345e-14,7.098786264e-14,8.814892169e-14,2.827480353e-14,4.751603004e-14,1.288216937e-13,2.471905535e-13,1.09913698e-14,3.240487912e-13,1.511962864e-14
0.2421875,2.999717534e-13,1.010137984e-13,2.579028848e-13,1.377071425e-13,1.245039134e-13,9.299833587e-14,1.255629447e-13,1.526132347e-14,4.335162215e-14,1.94704529e-13,1.145126416e-13,9.181115194e-14,6.127517555e-14,1.964048468e-13,2.392873284e-13,2.505483527e-13,1.428630172e-13,2.332569046e-13,8.653549034e-14,3.451525433e-14,1.051670265e-14,3.953699291e-14,1.877799068e-14,7.319618349e-14,8.650454372e-14,2.853973652e-14,4.683266122e-14,1.282079766e-13,2.465583333e-13,1.114705468e-14,3.215534887e-13,1.505566636e-14
0.25,3.042275294e-13,1.00490782e-13,2.505056577e-13,1.334844452e-13,1.21031651e-13,9.228219018e-14,1.254007069e-13,1.560732045e-14,4.389993411e-14,1.957505183e-13,1.111458687e-13,9.087619252e-14,5.991284346e-14,1.950736776e-13,2.368964638e-13,2.50914217e-13,1.422671357e-13,2.28301124e-13,8.509889958e-14,3.469393172e-14,1.142023442e-14,3.925579999e-14,1.816261183e-14,7.537818296e-14,8.475270513e-14,2.889507007e-14,4.618684246e-14,1.274714006e-13,2.457659477e-13,1.131031916e-14,3.184721652e-13,1.499817731e-14
0.2578125,3.08146778e-13,9.964503818e-14,2.43193543e-13,1.291837794e-13,1.175376547e-13,9.136994396e-14,1.250004983e-13,1.59662054e-14,4.434478957e-14,1.963492355e-13,1.077612786e-13,8.985176236e-14,5.849388237e-14,1.933860774e-13,2.339807149e-13,2.506225815e-13,1.41502299e-13,2.229696975e-13,8.363681535e-14,3.490205242e-14,1.236030598e-14,3.892189352e-14,1.753033668e-14,7.755111949e-14,8.288366579e-14,2.935614132e-14,4.556777541e-14,1.265084759e-13,2.449403156e-13,1.148302868e-14,3.150088353e-13,1.496779728e-14
0.265625,3.116797485e-13,9.865403358e-14,2.359280393e-13,1.250969819e-13,1.140301364e-13,9.026147523e-14,1.24324951e-13,1.632613542e-14,4.471998045e-14,1.964983056e-13,1.043032859e-13,8.880335596e-14,5.709874043e-14,1.914053159e-13,2.30740334e-13,2.499285574e-13,1.406316797e-13,2.175069911e-13,8.21745069e-14,3.507227971e-14,1.338002803e-14,3.855355846e-14,1.688094514e-14,7.967222379e-14,8.09201699e-14,2.995704071e-14,4.499126523e-14,1.25333056e-13,2.44159595e-13,1.168956171e-14,3.112911776e-13,1.497890385e-14
0.2734375,3.149588077e-13,9.770228903e-14,2.286818254e-13,1.214955263e-13,1.104186529e-13,8.904004914e-14,1.234107603e-13,1.669051223e-14,4.506013956e-14,1.962168421e-13,1.007514979e-13,8.769266049e-14,5.576457039e-14,1.892167412e-13,2.273135433e-13,2.490623589e-13,1.397145737e-13,2.11907228e-13,8.065622321e-14,3.513650445e-14,1.449695487e-14,3.814403606e-14,1.622770405e-14,8.175750688e-14,7.885588486e-14,3.070026881e-14,4.44549699e-14,1.240540537e-13,2.43316173e-13,1.19215083e-14,3.071517371e-13,1.503178639e-14
0.28125,3.177819188e-13,9.649040842e-14,2.215940867e-13,1.180490988e-13,1.066766653e-13,8.769053478e-14,1.222605815e-13,1.707022541e-14,4.531314984e-14,1.95507983e-13,9.722034404e-14,8.649528328e-14,5.444058684e-14,1.86694173e-13,2.235482802e-13,2.477294194e-13,1.386014546e-13,2.060046646e-13,7.903787051e-14,3.51439177e-14,1.571233217e-14,3.766539674e-14,1.557925145e-14,8.379840718e-14,7.667580951e-14,3.159935721e-14,4.386793858e-14,1.225920613e-13,2.423645831e-13,1.217595921e-14,3.025510565e-13,1.514450551e-14
0.2890625,3.19960459e-13,9.499946981e-14,2.147155203e-13,1.147927905e-13,1.029420458e-13,8.620750153e-14,1.20880076e-13,1.745755326e-14,4.547241779e-14,1.944533634e-13,9.373062272e-14,8.528234195e-14,5.318578055e-14,1.838672629e-13,2.194568964e-13,2.458626061e-13,1.372478008e-13,1.999301979e-13,7.736919051e-14,3.517287396e-14,1.704092165e-14,3.713444855e-14,1.493476264e-14,8.57426851e-14,7.442568046e-14,3.266344416e-14,4.31937549e-14,1.209187901e-13,2.413625629e-13,1.248313255e-14,2.976898904e-13,1.530505641e-14
0.296875,3.219084978e-13,9.345286533e-14,2.078799126e-13,1.117321561e-13,9.92689867e-14,8.458388438e-14,1.192703236e-13,1.785947437e-14,4.554855592e-14,1.930502604e-13,9.018682175e-14,8.39924562e-14,5.199180922e-14,1.807894376e-13,2.1511465e-13,2.437443607e-13,1.358520375e-13,1.937984461e-13,7.571090623e-14,3.522049752e-14,1.844332311e-14,3.657344165e-14,1.429075549e-14,8.759416101e-14,7.212893489e-14,3.385187435e-14,4.25258416e-14,1.191475878e-13,2.40298243e-13,1.283360898e-14,2.925211298e-13,1.54953274e-14
0.3046875,3.237219725e-13,9.175364815e-14,2.011864006e-13,1.087558715e-13,9.564465436e-14,8.281351285e-14,1.174143143e-13,1.827418552e-14,4.552415413e-14,1.912391387e-13,8.662367142e-14,8.262866378e-14,5.080599949e-14,1.774068324e-13,2.104824867e-13,2.413026459e-13,1.344072601e-13,1.875616392e-13,7.405756672e-14,3.525681178e-14,1.991706933e-14,3.597243325e-14,1.364852334e-14,8.936457831e-14,6.976056397e-14,3.518131852e-14,4.187150938e-14,1.172563067e-13,2.391197546e-13,1.322393259e-14,2.86975862e-13,1.573781402e-14
0.3125,3.250450223e-13,8.99586265e-14,1.949179854e-13,1.062046751e-13,9.211135806e-14,8.099681985e-14,1.153913054e-13,1.866042965e-14,4.543405902e-14,1.891979788e-13,8.312179412e-14,8.133883243e-14,4.971663406e-14,1.738390689e-13,2.056985231e-13,2.384721635e-13,1.328036578e-13,1.813182361e-13,7.238371224e-14,3.530215477e-14,2.151622369e-14,3.534926362e-14,1.30248686e-14,9.106507514e-14,6.736359819e-14,3.672383136e-14,4.115751663e-14,1.152648427e-13,2.379674896e-13,1.368745529e-14,2.812726252e-13,1.604077421e-14
0.3203125,3.258931025e-13,8.812833515e-14,1.889742313e-13,1.040003119e-13,8.871153124e-14,7.91284088e-14,1.132523269e-13,1.901837247e-14,4.526194823e-14,1.870530442e-13,7.968138153e-14,8.004145091e-14,4.869740472e-14,1.700882536e-13,2.007484772e-13,2.353500577e-13,1.310946509e-13,1.751037508e-13,7.068908798e-14,3.538585051e-14,2.320227538e-14,3.470814695e-14,1.243468318e-14,9.264871564e-14,6.497361133e-14,3.844358819e-14,4.041702695e-14,1.132461641e-13,2.367680528e-13,1.419954674e-14,2.753210291e-13,1.63988325e-14
0.328125,3.263427367e-13,8.604905598e-14,1.831846662e-13,1.019011998e-13,8.544654081e-14,7.713775495e-14,1.109023892e-13,1.937558838e-14,4.49608396e-14,1.84670679e-13,7.629185122e-14,7.864342727e-14,4.76675115e-14,1.660092014e-13,1.95408871e-13,2.317943579e-13,1.292359008e-13,1.687903286e-13,6.89713034e-14,3.550812342e-14,2.495643881e-14,3.402274888e-14,1.186583043e-14,9.40216911e-14,6.25298564e-14,4.028140439e-14,3.965006702e-14,1.111180505e-13,2.3512704e-13,1.474449268e-14,2.688829514e-13,1.68161678e-14
0.3359375,3.263672226e-13,8.387542526e-14,1.775965858e-13,1.001722122e-13,8.228682084e-14,7.512480722e-14,1.083376918e-13,1.971483728e-14,4.458772924e-14,1.821190979e-13,7.291303414e-14,7.725845176e-14,4.674101089e-14,1.61728201e-13,1.898931352e-13,2.279437326e-13,1.272396467e-13,1.624550647e-13,6.724461696e-14,3.565647499e-14,2.683380218e-14,3.332626092e-14,1.131142888e-14,9.523040318e-14,6.004269756e-14,4.228836986e-14,3.881373515e-14,1.089141947e-13,2.332304704e-13,1.537045065e-14,2.622028525e-13,1.727900421e-14
0.34375,3.260868813e-13,8.177402348e-14,1.722347476e-13,9.873126405e-14,7.926426478e-14,7.313341151e-14,1.056624606e-13,2.002894909e-14,4.414884308e-14,1.795292993e-13,6.955358647e-14,7.588046883e-14,4.596865928e-14,1.573726861e-13,1.845056896e-13,2.241351003e-13,1.252795091e-13,1.562929372e-13,6.555592974e-14,3.582905167e-14,2.880264364e-14,3.26496333e-14,1.079170654e-14,9.631308978e-14,5.761064749e-14,4.449183473e-14,3.798818446e-14,1.066964111e-13,2.314948783e-13,1.606592578e-14,2.554315265e-13,1.778656517e-14
0.3515625,3.254270795e-13,7.954913268e-14,1.67151589e-13,9.749847737e-14,7.641112061e-14,7.107986643e-14,1.02869309e-13,2.032650645e-14,4.358324637e-14,1.767681631e-13,6.627321012e-14,7.446040863e-14,4.529001169e-14,1.528571679e-13,1.791087051e-13,2.201779204e-13,1.232519789e-13,1.50288318e-13,6.390012033e-14,3.605275089e-14,3.084191967e-14,3.195435747e-14,1.031279448e-14,9.719439515e-14,5.523105354e-14,4.685112189e-14,3.718649173e-14,1.043893619e-13,2.296732265e-13,1.680108539e-14,2.483342819e-13,1.83481347e-14
0.359375,3.2421388e-13,7.726952515e-14,1.623090161e-13,9.672636728e-14,7.364229886e-14,6.895717693e-14,9.992507826e-14,2.059859386e-14,4.291188287e-14,1.738971744e-13,6.302407684e-14,7.301625988e-14,4.469993169e-14,1.480980093e-13,1.735677365e-13,2.158846874e-13,1.209724003e-13,1.443034767e-13,6.223337802e-14,3.632900361e-14,3.298572237e-14,3.122538116e-14,9.867206111e-15,9.788193002e-14,5.284439226e-14,4.935561094e-14,3.632509913e-14,1.021355956e-13,2.275471126e-13,1.760774726e-14,2.408134568e-13,1.894621254e-14
0.3671875,3.224349711e-13,7.502725115e-14,1.576098441e-13,9.629257134e-14,7.09334643e-14,6.680537068e-14,9.688666378e-14,2.085770938e-14,4.215905676e-14,1.711150548e-13,5.981160027e-14,7.150899207e-14,4.418886519e-14,1.43080017e-13,1.67983846e-13,2.114527209e-13,1.185076201e-13,1.383213762e-13,6.055897128e-14,3.663764649e-14,3.521384068e-14,3.048791115e-14,9.466063113e-15,9.838119584e-14,5.047314965e-14,5.201402311e-14,3.542123404e-14,1.000352747e-13,2.252221111e-13,1.849093443e-14,2.329153737e-13,1.958259982e-14
0.375,3.200586519e-13,7.268263022e-14,1.532453453e-13,9.613349223e-14,6.835631379e-14,6.465994519e-14,9.378978532e-14,2.110536541e-14,4.132866716e-14,1.683284477e-13,5.67556016e-14,6.998224322e-14,4.377607696e-14,1.379055737e-13,1.624169941e-13,2.068920048e-13,1.158681881e-13,1.324134798e-13,5.887209698e-14,3.706952017e-14,3.753606925e-14,2.975515674e-14,9.109149188e-15,9.865991125e-14,4.815008284e-14,5.483327067e-14,3.446066955e-14,9.788611193e-14,2.226771868e-13,1.942885259e-14,2.24744335e-13,2.027110602e-14
0.3828125,3.171743697e-13,7.023029639e-14,1.492760189e-13,9.625980363e-14,6.594581488e-14,6.253543563e-14,9.061201352e-14,2.130991165e-14,4.04320064e-14,1.654873525e-13,5.383675591e-14,6.847302295e-14,4.346663124e-14,1.326501254e-13,1.568029146e-13,2.02060431e-13,1.130188349e-13,1.265736351e-13,5.716239802e-14,3.769756711e-14,3.996068363e-14,2.903676217e-14,8.777339774e-15,9.873545716e-14,4.585461669e-14,5.778838624e-14,3.339797853e-14,9.568243823e-14,2.199416192e-13,2.041785369e-14,2.164270609e-13,2.09986139e-14
0.390625,3.139777985e-13,6.774128573e-14,1.455211542e-13,9.662633192e-14,6.373864707e-14,6.044228759e-14,8.734743416e-14,2.146863746e-14,3.945104767e-14,1.627150449e-13,5.097584407e-14,6.693073892e-14,4.324950812e-14,1.272984052e-13,1.512071047e-13,1.971611461e-13,1.100979756e-13,1.208592464e-13,5.549413041e-14,3.840507415e-14,4.245358046e-14,2.834100469e-14,8.473308751e-15,9.85731523e-14,4.358788801e-14,6.082797464e-14,3.233095546e-14,9.360159254e-14,2.170085272e-13,2.14579784e-14,2.079534254e-13,2.175957038e-14
0.3984375,3.104815102e-13,6.541319077e-14,1.420993195e-13,9.755495913e-14,6.172038958e-14,5.843165612e-14,8.402229714e-14,2.159781171e-14,3.840509091e-14,1.600359262e-13,4.821158286e-14,6.540479048e-14,4.320481582e-14,1.219109027e-13,1.45860606e-13,1.925391965e-13,1.071908173e-13,1.154083993e-13,5.391084569e-14,3.915406326e-14,4.505342276e-14,2.767124992e-14,8.201800803e-15,9.819104045e-14,4.137423626e-14,6.397558623e-14,3.133677153e-14,9.167802424e-14,2.138214671e-13,2.256640023e-14,1.993335253e-13,2.255166116e-14
0.40625,3.066285821e-13,6.322996663e-14,1.390789308e-13,9.884125793e-14,5.985071946e-14,5.648645445e-14,8.065852517e-14,2.170535563e-14,3.731591831e-14,1.574298553e-13,4.559547067e-14,6.387862695e-14,4.326815684e-14,1.16436091e-13,1.407092288e-13,1.88056343e-13,1.041690631e-13,1.101046919e-13,5.237402353e-14,4.0039026e-14,4.775821457e-14,2.70307707e-14,7.953850123e-15,9.76583911e-14,3.920325579e-14,6.724693961e-14,3.034535976e-14,8.982044787e-14,2.104588346e-13,2.374141401e-14,1.905901222e-13,2.337035231e-14
0.4140625,3.02412946e-13,6.079382151e-14,1.362777601e-13,1.00025306e-13,5.816343642e-14,5.455319095e-14,7.726733088e-14,2.179969165e-14,3.615693215e-14,1.549117852e-13,4.312082969e-14,6.228790893e-14,4.331523266e-14,1.107959412e-13,1.355467156e-13,1.834201462e-13,1.009462268e-13,1.048262654e-13,5.086510814e-14,4.100721119e-14,5.050102023e-14,2.641321372e-14,7.741027598e-15,9.691258104e-14,3.70735775e-14,7.055396112e-14,2.928773801e-14,8.794521264e-14,2.068282419e-13,2.494659021e-14,1.817183801e-13,2.422170767e-14
0.421875,2.978840785e-13,5.827202171e-14,1.337413057e-13,1.01462646e-13,5.663532644e-14,5.266304763e-14,7.387218306e-14,2.187535662e-14,3.495504356e-14,1.525713295e-13,4.076230095e-14,6.071716207e-14,4.345456235e-14,1.051702785e-13,1.304752231e-13,1.78841515e-13,9.765445393e-14,9.976970764e-14,4.940023158e-14,4.202860196e-14,5.329347587e-14,2.581754395e-14,7.575148014e-15,9.592372519e-14,3.501714537e-14,7.385926943e-14,2.819744867e-14,8.62252399e-14,2.028944604e-13,2.617456761e-14,1.728689371e-13,2.508827426e-14
0.4296875,2.930834078e-13,5.598660008e-14,1.315640775e-13,1.032177601e-13,5.52322592e-14,5.084312125e-14,7.049505541e-14,2.192645161e-14,3.374778148e-14,1.504691224e-13,3.851618322e-14,5.917536102e-14,4.37085104e-14,9.96545279e-14,1.255957293e-13,1.744746304e-13,9.43595213e-14,9.49993658e-14,4.798025424e-14,4.319858002e-14,5.613800086e-14,2.526324245e-14,7.44021423e-15,9.473237878e-14,3.303105388e-14,7.719455133e-14,2.713406724e-14,8.478429581e-14,1.98805842e-13,2.745110495e-14,1.641363047e-13,2.595686519e-14
0.4375,2.879278422e-13,5.368184043e-14,1.296994735e-13,1.05045503e-13,5.399524992e-14,4.91028201e-14,6.713860413e-14,2.195823697e-14,3.252017121e-14,1.485303352e-13,3.639048478e-14,5.764192605e-14,4.399976402e-14,9.418215785e-14,1.208841346e-13,1.701873337e-13,9.094914348e-14,9.039062733e-14,4.658777712e-14,4.446981311e-14,5.902996611e-14,2.475388863e-14,7.321497599e-15,9.334328672e-14,3.108587947e-14,8.055169851e-14,2.608906435e-14,8.343640915e-14,1.944764021e-13,2.88042166e-14,1.554825271e-13,2.683916852e-14
0.4453125,2.824349982e-13,5.138255707e-14,1.281190469e-13,1.07088006e-13,5.290881961e-14,4.744633363e-14,6.381316477e-14,2.196732858e-14,3.12692152e-14,1.468527912e-13,3.43714169e-14,5.615675179e-14,4.437221088e-14,8.877154357e-14,1.163702831e-13,1.661032979e-13,8.744692456e-14,8.597886605e-14,4.520280069e-14,4.574989918e-14,6.199941441e-14,2.426891847e-14,7.220840293e-15,9.177881548e-14,2.918788885e-14,8.391024914e-14,2.505968119e-14,8.225786984e-14,1.89854014e-13,3.022553237e-14,1.469160686e-13,2.772568496e-14
0.453125,2.767655565e-13,4.920654543e-14,1.267722426e-13,1.091222882e-13,5.196031015e-14,4.585111132e-14,6.053503516e-14,2.195204916e-14,3.000898606e-14,1.455888758e-13,3.245594624e-14,5.464395155e-14,4.475535286e-14,8.344504767e-14,1.120192956e-13,1.622935971e-13,8.396558191e-14,8.180019967e-14,4.385410115e-14,4.706665143e-14,6.500359231e-14,2.382398717e-14,7.147132082e-15,9.00171619e-14,2.736133489e-14,8.723374345e-14,2.4076681e-14,8.141789429e-14,1.84986533e-13,3.16768847e-14,1.384417799e-13,2.861313843e-14
0.4609375,2.71003571e-13,4.701492264e-14,1.256588804e-13,1.111177258e-13,5.116635773e-14,4.435561626e-14,5.729745135e-14,2.191697107e-14,2.877289815e-14,1.446125136e-13,3.063446537e-14,5.312150425e-14,4.511370567e-14,7.827231495e-14,1.078914582e-13,1.58688492e-13,8.050779853e-14,7.785964608e-14,4.260538896e-14,4.849296467e-14,6.800222451e-14,2.346029819e-14,7.101130575e-15,8.807932991e-14,2.561108247e-14,9.049094937e-14,2.312339772e-14,8.074915076e-14,1.79897301e-13,3.316432664e-14,1.301809874e-13,2.950738886e-14
0.46875,2.65235514e-13,4.502078984e-14,1.247489582e-13,1.133972938e-13,5.051440025e-14,4.296133875e-14,5.410672065e-14,2.186524632e-14,2.757244459e-14,1.438783275e-13,2.88681986e-14,5.16624354e-14,4.555853075e-14,7.330441112e-14,1.040846012e-13,1.554052895e-13,7.707665412e-14,7.420670794e-14,4.145803944e-14,5.008881758e-14,7.099630925e-14,2.316676213e-14,7.073286583e-15,8.604450484e-14,2.393162357e-14,9.368700355e-14,2.220452482e-14,8.0244176e-14,1.747642221e-13,3.469163381e-14,1.222155048e-13,3.039376846e-14
0.4765625,2.593753813e-13,4.318118979e-14,1.239884188e-13,1.156909066e-13,5.002433673e-14,4.160941881e-14,5.100724649e-14,2.180500748e-14,2.636671926e-14,1.434508525e-13,2.717782833e-14,5.015783432e-14,4.60290808e-14,6.845537992e-14,1.004886088e-13,1.52428747e-13,7.368182367e-14,7.078669269e-14,4.034927543e-14,5.177219222e-14,7.398940499e-14,2.290464866e-14,7.065722749e-15,8.384285748e-14,2.232896105e-14,9.677573639e-14,2.133893396e-14,7.999774886e-14,1.694703603e-13,3.624045185e-14,1.143513233e-13,3.127073005e-14
0.484375,2.531137852e-13,4.118789867e-14,1.235686395e-13,1.179257334e-13,4.964118335e-14,4.036597265e-14,4.801256396e-14,2.174000657e-14,2.518412393e-14,1.432654552e-13,2.563344787e-14,4.863017229e-14,4.646988017e-14,6.375727679e-14,9.707375596e-14,1.496351101e-13,7.029950783e-14,6.75826159e-14,3.92263215e-14,5.342992124e-14,7.704070339e-14,2.2671928e-14,7.07513718e-15,8.147330879e-14,2.081031361e-14,9.970999907e-14,2.046461954e-14,7.992757512e-14,1.638565968e-13,3.785180309e-14,1.06612833e-13,3.211832419e-14
0.4921875,2.46476013e-13,3.930264807e-14,1.235411424e-13,1.202907076e-13,4.928131235e-14,3.927561796e-14,4.510042002e-14,2.166838281e-14,2.407876041e-14,1.433612171e-13,2.42453854e-14,4.719229173e-14,4.693494252e-14,5.929205874e-14,9.389903812e-14,1.470219271e-13,6.691821071e-14,6.464540566e-14,3.809298423e-14,5.510576997e-14,8.013901932e-14,2.248137171e-14,7.083906541e-15,7.905623424e-14,1.936657777e-14,1.025064486e-13,1.956902604e-14,8.006813814e-14,1.58311611e-13,3.951837748e-14,9.922489042e-14,3.29024687e-14
0.5,2.397262921e-13,3.763139196e-14,1.236782538e-13,1.22617107e-13,4.900510331e-14,3.827882876e-14,4.228293267e-14,2.15850161e-14,2.300368097e-14,1.43748946e-13,2.295337493e-14,4.57801469e-14,4.739705244e-14,5.500860162e-14,9.098140358e-14,1.446397392e-13,6.356328102e-14,6.192707444e-14,3.700042158e-14,5.67766957e-14,8.321660397e-14,2.23246039e-14,7.10190714e-15,7.655993498e-14,1.799531407e-14,1.051474863e-13,1.873029842e-14,8.045156888e-14,1.528985281e-13,4.115933009e-14,9.21011026e-14,3.364419461e-14
0.5078125,2.328894145e-13,3.596674368e-14,1.239775459e-13,1.250001107e-13,4.882452207e-14,3.739669428e-14,3.958310187e-14,2.148479155e-14,2.193993753e-14,1.443293314e-13,2.170150469e-14,4.437851832e-14,4.787197118e-14,5.090975004e-14,8.838004509e-14,1.426024002e-13,6.030708893e-14,5.942275847e-14,3.596697693e-14,5.838150471e-14,8.630015754e-14,2.219128366e-14,7.144477096e-15,7.396462006e-14,1.669912302e-14,1.076104235e-13,1.797252021e-14,8.107767177e-14,1.472752719e-13,4.279268722e-14,8.514626571e-14,3.435071691e-14
0.515625,2.25925173e-13,3.438717481e-14,1.245000468e-13,1.273893656e-13,4.868840851e-14,3.665258413e-14,3.70150273e-14,2.139213834e-14,2.095048383e-14,1.451758514e-13,2.051172281e-14,4.30125358e-14,4.834506382e-14,4.704313128e-14,8.603149025e-14,1.408315046e-13,5.714225787e-14,5.716533192e-14,3.496446072e-14,5.999550788e-14,8.93551654e-14,2.210185783e-14,7.200832182e-15,7.130472519e-14,1.547012919e-14,1.098970092e-13,1.727228636e-14,8.200738935e-14,1.415255303e-13,4.445205912e-14,7.848270137e-14,3.500004107e-14
0.5234375,2.1880388e-13,3.285693499e-14,1.252409643e-13,1.295257719e-13,4.862218316e-14,3.602567006e-14,3.45953588e-14,2.13335474e-14,2.004799705e-14,1.462819817e-13,1.943907143e-14,4.165733286e-14,4.873488692e-14,4.340788065e-14,8.3899747e-14,1.391643906e-13,5.401472298e-14,5.512382943e-14,3.398803357e-14,6.159574404e-14,9.233638891e-14,2.206214638e-14,7.268074778e-15,6.85777055e-14,1.431710908e-14,1.119455407e-13,1.660154723e-14,8.311133945e-14,1.358288455e-13,4.608183304e-14,7.218136057e-14,3.559619008e-14
0.53125,2.114025845e-13,3.132458726e-14,1.262745176e-13,1.317209963e-13,4.860237727e-14,3.55229518e-14,3.229501051e-14,2.129843968e-14,1.920734872e-14,1.475495108e-13,1.84820409e-14,4.037254209e-14,4.908809536e-14,3.999883161e-14,8.206631751e-14,1.376945357e-13,5.096913716e-14,5.330379708e-14,3.30455832e-14,6.309396175e-14,9.532176457e-14,2.202582915e-14,7.343168894e-15,6.588281002e-14,1.324399309e-14,1.136765995e-13,1.593188758e-14,8.433926765e-14,1.302217591e-13,4.766023377e-14,6.625968502e-14,3.610718086e-14
0.5390625,2.037561469e-13,2.993887148e-14,1.274786295e-13,1.340124616e-13,4.863285893e-14,3.514427528e-14,3.010023108e-14,2.12876218e-14,1.844680517e-14,1.490823976e-13,1.761628973e-14,3.917096573e-14,4.939854381e-14,3.682326908e-14,8.049495279e-14,1.365043057e-13,4.803267564e-14,5.17184729e-14,3.213806769e-14,6.453011777e-14,9.827840872e-14,2.19898827e-14,7.416662461e-15,6.323605855e-14,1.223759694e-14,1.150942059e-13,1.528952464e-14,8.583068588e-14,1.247171607e-13,4.920718088e-14,6.07390852e-14,3.651870618e-14
0.546875,1.961352349e-13,2.862671386e-14,1.28770209e-13,1.360740237e-13,4.877441827e-14,3.493794282e-14,2.806477847e-14,2.131195437e-14,1.778838667e-14,1.508698451e-13,1.683115205e-14,3.799538118e-14,4.959010399e-14,3.393759111e-14,7.924702434e-14,1.356530948e-13,4.52417149e-14,5.038613128e-14,3.127551056e-14,6.591994742e-14,1.011370728e-13,2.199945512e-14,7.504634523e-15,6.054736549e-14,1.131241575e-14,1.162960083e-13,1.471708181e-14,8.754178678e-14,1.192217494e-13,5.073793906e-14,5.559813042e-14,3.689319985e-14
0.5546875,1.886241724e-13,2.730957897e-14,1.303232293e-13,1.379491751e-13,4.894298473e-14,3.487471868e-14,2.616332077e-14,2.137779595e-14,1.721636446e-14,1.527349388e-13,1.610531941e-14,3.686851673e-14,4.968439454e-14,3.136002252e-14,7.834543498e-14,1.351071406e-13,4.257551362e-14,4.929567733e-14,3.043240789e-14,6.723844265e-14,1.039663429e-13,2.203833038e-14,7.613786485e-15,5.783835688e-14,1.046824593e-14,1.173736946e-13,1.418646156e-14,8.937779165e-14,1.138068443e-13,5.225570047e-14,5.082137397e-14,3.724611004e-14
0.5625,1.811058763e-13,2.595695121e-14,1.320798384e-13,1.397447537e-13,4.910059197e-14,3.481559412e-14,2.436274806e-14,2.1460438e-14,1.674190872e-14,1.547219574e-13,1.544022257e-14,3.580932964e-14,4.973043855e-14,2.904927102e-14,7.749230734e-14,1.344791187e-13,3.995614926e-14,4.834472263e-14,2.959680195e-14,6.843287631e-14,1.067483664e-13,2.207980335e-14,7.723316944e-15,5.527258966e-14,9.670758516e-15,1.18163105e-13,1.368397564e-14,9.137202325e-14,1.085465144e-13,5.372987824e-14,4.639470801e-14,3.751292024e-14
0.5703125,1.735030815e-13,2.466015974e-14,1.339339503e-13,1.416124921e-13,4.934218978e-14,3.487985325e-14,2.26586418e-14,2.157369072e-14,1.638761674e-14,1.567495153e-13,1.483357103e-14,3.485478747e-14,4.97524396e-14,2.708436034e-14,7.680636077e-14,1.339080582e-13,3.743620482e-14,4.761039162e-14,2.882272944e-14,6.949801145e-14,1.094009602e-13,2.213968543e-14,7.824429868e-15,5.277799381e-14,8.926444686e-15,1.185978375e-13,1.320661673e-14,9.34901474e-14,1.032908274e-13,5.511461222e-14,4.239372071e-14,3.768554371e-14
0.578125,1.660805001e-13,2.354138378e-14,1.359303284e-13,1.435901889e-13,4.965646372e-14,3.519251873e-14,2.106549949e-14,2.17309942e-14,1.614275231e-14,1.587565756e-13,1.428632775e-14,3.397460926e-14,4.974571836e-14,2.544411869e-14,7.648894091e-14,1.337688959e-13,3.521886613e-14,4.720527422e-14,2.812950392e-14,7.053175109e-14,1.119364804e-13,2.221424302e-14,7.924439364e-15,5.037183008e-14,8.251175795e-15,1.187915608e-13,1.276895805e-14,9.582546388e-14,9.807326397e-14,5.644686262e-14,3.87682339e-14,3.779009349e-14
0.5859375,1.588737249e-13,2.250212208e-14,1.380907447e-13,1.454700041e-13,4.9916641e-14,3.558787351e-14,1.958329373e-14,2.194907785e-14,1.597135961e-14,1.607551769e-13,1.382149391e-14,3.312040747e-14,4.964520753e-14,2.397940277e-14,7.631458677e-14,1.337609867e-13,3.320052289e-14,4.699319275e-14,2.744895843e-14,7.151568214e-14,1.143627099e-13,2.227191728e-14,8.02303629e-15,4.814145397e-14,7.633311337e-15,1.18783709e-13,1.236862809e-14,9.832851574e-14,9.310578994e-14,5.774465046e-14,3.543483204e-14,3.780923231e-14
0.59375,1.518036327e-13,2.145158036e-14,1.404031043e-13,1.472696458e-13,5.01976532e-14,3.606380197e-14,1.822678352e-14,2.219233709e-14,1.587601264e-14,1.627107954e-13,1.344789277e-14,3.232230227e-14,4.945133159e-14,2.275217856e-14,7.620656643e-14,1.33645456e-13,3.12994455e-14,4.690131376e-14,2.677714682e-14,7.236952872e-14,1.166797672e-13,2.232228845e-14,8.124738412e-15,4.604615539e-14,7.068121879e-15,1.185402862e-13,1.199577652e-14,1.008926766e-13,8.843226983e-14,5.897847168e-14,3.245250122e-14,3.774565862e-14
0.6015625,1.450531908e-13,2.04587616e-14,1.428158799e-13,1.490744879e-13,5.06451446e-14,3.672932183e-14,1.697834227e-14,2.242325674e-14,1.588912184e-14,1.645366946e-13,1.312736143e-14,3.16071761e-14,4.922562519e-14,2.190679915e-14,7.624139783e-14,1.334752361e-13,2.957856894e-14,4.699005722e-14,2.615937846e-14,7.30845411e-14,1.188675653e-13,2.238946937e-14,8.233466184e-15,4.407883091e-14,6.551869194e-15,1.180221714e-13,1.163146774e-14,1.03505416e-13,8.397992821e-14,6.010937287e-14,2.988734096e-14,3.76167863e-14
0.609375,1.385313366e-13,1.951248858e-14,1.453222221e-13,1.508179418e-13,5.117104425e-14,3.751255498e-14,1.581022428e-14,2.268459863e-14,1.600216077e-14,1.661603225e-13,1.284941842e-14,3.096536059e-14,4.895362163e-14,2.134881376e-14,7.643617895e-14,1.332832606e-13,2.798479707e-14,4.722682749e-14,2.557103604e-14,7.367485779e-14,1.208800013e-13,2.244811555e-14,8.329346278e-15,4.227260113e-14,6.087276044e-15,1.172122738e-13,1.126801444e-14,1.060630804e-13,7.972843474e-14,6.110414912e-14,2.769482404e-14,3.740959203e-14
0.6171875,1.320450403e-13,1.865978981e-14,1.480632385e-13,1.525679891e-13,5.172399897e-14,3.841556469e-14,1.474021624e-14,2.29493156e-14,1.617359856e-14,1.675930538e-13,1.264998637e-14,3.04313019e-14,4.861118612e-14,2.100648853e-14,7.693005668e-14,1.33313945e-13,2.659020855e-14,4.764466774e-14,2.499722059e-14,7.42735645e-14,1.227629303e-13,2.24821997e-14,8.409174611e-15,4.058507945e-14,5.690695762e-15,1.16235698e-13,1.095358639e-14,1.085954183e-13,7.579188927e-14,6.201593994e-14,2.58357259e-14,3.713752736e-14
0.625,1.257824791e-13,1.784182927e-14,1.510077695e-13,1.543702636e-13,5.238554466e-14,3.946752688e-14,1.377509771e-14,2.323591179e-14,1.642252545e-14,1.688031949e-13,1.250380693e-14,3.00069592e-14,4.822382667e-14,2.094600654e-14,7.762838762e-14,1.333488747e-13,2.532500918e-14,4.825278448e-14,2.446157689e-14,7.484453042e-14,1.245543286e-13,2.250090804e-14,8.503252771e-15,3.905244702e-14,5.348564974e-15,1.151235108e-13,1.062766122e-14,1.111222552e-13,7.215048336e-14,6.284376454e-14,2.423751525e-14,3.681612819e-14
0.6328125,1.197646217e-13,1.69796925e-14,1.540749867e-13,1.561247367e-13,5.311859633e-14,4.058689605e-14,1.288782204e-14,2.354169429e-14,1.672993554e-14,1.697843803e-13,1.239575135e-14,2.964309162e-14,4.779081325e-14,2.11593779e-14,7.839958987e-14,1.332495248e-13,2.412348087e-14,4.892715346e-14,2.393357507e-14,7.520453401e-14,1.261807259e-13,2.247698825e-14,8.601767126e-15,3.764825377e-14,5.037663104e-15,1.13746477e-13,1.030069264e-14,1.135533469e-13,6.864320877e-14,6.357205826e-14,2.286447062e-14,3.643788335e-14
0.640625,1.137456228e-13,1.616558765e-14,1.572783779e-13,1.578569082e-13,5.385727153e-14,4.185584208e-14,1.207479754e-14,2.383824607e-14,1.706854367e-14,1.704617514e-13,1.236494598e-14,2.936384806e-14,4.73305804e-14,2.158703426e-14,7.932754869e-14,1.331628428e-13,2.30504071e-14,4.967347812e-14,2.339758638e-14,7.539559144e-14,1.276114976e-13,2.239247745e-14,8.687283977e-15,3.634896702e-14,4.766502659e-15,1.120957446e-13,9.988002075e-15,1.15864776e-13,6.535366218e-14,6.412945494e-14,2.172601045e-14,3.59794199e-14
0.6484375,1.078636816e-13,1.55354201e-14,1.605481395e-13,1.594371281e-13,5.466772948e-14,4.328457026e-14,1.134353249e-14,2.413696126e-14,1.745166213e-14,1.709106925e-13,1.241950899e-14,2.921075505e-14,4.684937561e-14,2.223835689e-14,8.042343874e-14,1.330495147e-13,2.21697855e-14,5.060701945e-14,2.289456299e-14,7.555041805e-14,1.288960812e-13,2.228788777e-14,8.776800617e-15,3.516655315e-14,4.549405889e-15,1.103374944e-13,9.686266837e-15,1.181674504e-13,6.243126279e-14,6.454335318e-14,2.081695698e-14,3.546646452e-14
0.65625,1.022578383e-13,1.503020755e-14,1.638079575e-13,1.609900191e-13,5.563577059e-14,4.476631935e-14,1.06992194e-14,2.449824352e-14,1.789605623e-14,1.711171226e-13,1.254256804e-14,2.916172473e-14,4.635528578e-14,2.314157126e-14,8.169754801e-14,1.328959832e-13,2.145904661e-14,5.170444611e-14,2.244100598e-14,7.560377537e-14,1.300251637e-13,2.216391528e-14,8.875114162e-15,3.411333706e-14,4.38740423e-15,1.084622731e-13,9.408251477e-15,1.20367575e-13,5.977958578e-14,6.487590227e-14,2.013377511e-14,3.491083987e-14
0.6640625,9.677598476e-14,1.454842552e-14,1.670901824e-13,1.628163911e-13,5.673473105e-14,4.638367372e-14,1.013817362e-14,2.490029006e-14,1.840598767e-14,1.709929194e-13,1.275538687e-14,2.920614902e-14,4.586847563e-14,2.43127171e-14,8.315126759e-14,1.327488961e-13,2.091254694e-14,5.293295248e-14,2.202804598e-14,7.545244767e-14,1.309436056e-13,2.199646664e-14,8.954552194e-15,3.322051849e-14,4.270651986e-15,1.063545107e-13,9.140389055e-15,1.224040302e-13,5.734854948e-14,6.510381598e-14,1.970700434e-14,3.427998676e-14
0.671875,9.14130447e-14,1.40663694e-14,1.703794723e-13,1.646190922e-13,5.788284804e-14,4.81532215e-14,9.641839216e-15,2.531937172e-14,1.89420325e-14,1.706438939e-13,1.304890773e-14,2.933426638e-14,4.534751512e-14,2.564126152e-14,8.464627838e-14,1.324443597e-13,2.046969258e-14,5.429033308e-14,2.166050033e-14,7.506796656e-14,1.316943502e-13,2.178742401e-14,9.014610523e-15,3.243154766e-14,4.18952171e-15,1.04067503e-13,8.844136384e-15,1.243688749e-13,5.51519144e-14,6.522404234e-14,1.946472191e-14,3.360300251e-14
0.6796875,8.625227455e-14,1.364470671e-14,1.737139695e-13,1.663801061e-13,5.913111922e-14,5.004062931e-14,9.202356603e-15,2.578258632e-14,1.947879444e-14,1.700923539e-13,1.339324153e-14,2.955732414e-14,4.481001879e-14,2.705389206e-14,8.625501013e-14,1.321401362e-13,2.014639936e-14,5.57651192e-14,2.133979412e-14,7.456206267e-14,1.323482144e-13,2.153186152e-14,9.071021859e-15,3.16712599e-14,4.147212096e-15,1.017323398e-13,8.566076503e-15,1.262654831e-13,5.317807919e-14,6.527166405e-14,1.932598203e-14,3.292429205e-14
0.6875,8.129127673e-14,1.331695584e-14,1.769096943e-13,1.683956306e-13,6.049342391e-14,5.205661959e-14,8.825505145e-15,2.62763201e-14,2.007528457e-14,1.691438329e-13,1.378932876e-14,2.987744894e-14,4.432694668e-14,2.865035215e-14,8.798844453e-14,1.31889793e-13,2.003525641e-14,5.731921022e-14,2.106737289e-14,7.398375033e-14,1.328028609e-13,2.125061733e-14,9.11754192e-15,3.108749454e-14,4.138060456e-15,9.929391141e-14,8.329392839e-15,1.279690267e-13,5.143396297e-14,6.516866624e-14,1.936058012e-14,3.219045132e-14
0.6953125,7.64261968e-14,1.307727023e-14,1.796498039e-13,1.701776264e-13,6.186677165e-14,5.403175315e-14,8.508340515e-15,2.672762378e-14,2.07017396e-14,1.678504451e-13,1.422988094e-14,3.022787479e-14,4.381344539e-14,3.043173883e-14,8.961235778e-14,1.314179418e-13,2.002791106e-14,5.886849571e-14,2.081000734e-14,7.327864304e-14,1.329388129e-13,2.096337998e-14,9.142462137e-15,3.063435162e-14,4.151915634e-15,9.670041618e-14,8.110104706e-15,1.294538785e-13,4.980177362e-14,6.494721444e-14,1.961887768e-14,3.140223124e-14
0.703125,7.182136288e-14,1.287419066e-14,1.820358595e-13,1.718081011e-13,6.338520225e-14,5.597466758e-14,8.242519102e-15,2.71619305e-14,2.132799752e-14,1.662517759e-13,1.46780014e-14,3.061537947e-14,4.329018542e-14,3.238361165e-14,9.119192732e-14,1.307916884e-13,2.011161582e-14,6.043657089e-14,2.05883283e-14,7.23934429e-14,1.328484544e-13,2.065068262e-14,9.157671454e-15,3.021242036e-14,4.198624085e-15,9.399833711e-14,7.885531261e-15,1.307658473e-13,4.823498908e-14,6.464530289e-14,2.000766411e-14,3.060598281e-14
0.7109375,6.761616377e-14,1.275365579e-14,1.84361047e-13,1.738136979e-13,6.517238738e-14,5.80089857e-14,8.021502966e-15,2.762327543e-14,2.200633424e-14,1.644741412e-13,1.514638522e-14,3.112812514e-14,4.289842192e-14,3.459227684e-14,9.288661881e-14,1.301844169e-13,2.032450474e-14,6.210810538e-14,2.03985049e-14,7.142749402e-14,1.326433901e-13,2.031059132e-14,9.169222286e-15,2.98710265e-14,4.277834548e-15,9.132561594e-14,7.683886813e-15,1.320186308e-13,4.689882208e-14,6.429859807e-14,2.047917534e-14,2.983335809e-14
0.71875,6.368237183e-14,1.271912477e-14,1.865552589e-13,1.758865165e-13,6.705536654e-14,6.005295712e-14,7.841125032e-15,2.811187886e-14,2.269485557e-14,1.625514817e-13,1.566215073e-14,3.170812947e-14,4.259709883e-14,3.689443661e-14,9.462562313e-14,1.29480345e-13,2.062786174e-14,6.384240273e-14,2.022994729e-14,7.038298571e-14,1.322623888e-13,1.992923729e-14,9.170409817e-15,2.96111611e-14,4.38031243e-15,8.863042197e-14,7.503259266e-15,1.331487198e-13,4.576358466e-14,6.388047196e-14,2.100464923e-14,2.907618115e-14
0.7265625,5.996598132e-14,1.271090855e-14,1.884710879e-13,1.777738302e-13,6.900523117e-14,6.213665314e-14,7.709525641e-15,2.855418135e-14,2.334541095e-14,1.60315425e-13,1.623434424e-14,3.227475544e-14,4.225576096e-14,3.917248182e-14,9.64079458e-14,1.288068782e-13,2.112966653e-14,6.559246497e-14,2.01075201e-14,6.932493244e-14,1.315966681e-13,1.951195075e-14,9.161840542e-15,2.933533423e-14,4.519278593e-15,8.582693637e-14,7.353018875e-15,1.340872296e-13,4.474708752e-14,6.333948666e-14,2.156553215e-14,2.831607107e-14
0.734375,5.665934935e-14,1.272411446e-14,1.898851996e-13,1.794398093e-13,7.110227025e-14,6.42064451e-14,7.632910551e-15,2.891565583e-14,2.399171493e-14,1.577137693e-13,1.684523859e-14,3.279687472e-14,4.183804667e-14,4.152563401e-14,9.815256017e-14,1.281276225e-13,2.183907546e-14,6.726183476e-14,2.003919461e-14,6.835227029e-14,1.306477165e-13,1.911728148e-14,9.165631417e-15,2.902446832e-14,4.70104901e-15,8.297023795e-14,7.22057109e-15,1.347413026e-13,4.38927568e-14,6.267287388e-14,2.214603775e-14,2.758807465e-14
0.7421875,5.370737224e-14,1.276595228e-14,1.907737242e-13,1.809575488e-13,7.325143517e-14,6.610165751e-14,7.60178243e-15,2.925787698e-14,2.460716686e-14,1.549111131e-13,1.744708691e-14,3.328336531e-14,4.14116705e-14,4.390369308e-14,9.977513412e-14,1.271851539e-13,2.252727156e-14,6.877524476e-14,1.999225604e-14,6.731150785e-14,1.294840906e-13,1.870845008e-14,9.170313397e-15,2.871253863e-14,4.910057928e-15,8.007805051e-14,7.058545266e-15,1.350131623e-13,4.309446369e-14,6.191251163e-14,2.268846585e-14,2.69088213e-14
0.75,5.098766447e-14,1.282500167e-14,1.914475009e-13,1.827228336e-13,7.547926619e-14,6.806198223e-14,7.615643715e-15,2.957900259e-14,2.519913808e-14,1.519770145e-13,1.800734001e-14,3.383013036e-14,4.107923934e-14,4.632013493e-14,1.01380422e-13,1.260396032e-13,2.319624087e-14,7.028578496e-14,1.994210461e-14,6.610082829e-14,1.280902888e-13,1.823526169e-14,9.147872339e-15,2.841654612e-14,5.137261204e-15,7.715664965e-14,6.894408542e-15,1.350408501e-13,4.234652974e-14,6.106318699e-14,2.32119885e-14,2.624642347e-14
0.7578125,4.861690885e-14,1.295206258e-14,1.919796804e-13,1.844774679e-13,7.786690942e-14,7.016322893e-14,7.672528906e-15,2.984722275e-14,2.579111883e-14,1.488594116e-13,1.857598244e-14,3.445376345e-14,4.081972854e-14,4.884301764e-14,1.029440254e-13,1.247463639e-13,2.399266077e-14,7.187126045e-14,1.988915753e-14,6.48165126e-14,1.264634353e-13,1.774631532e-14,9.12052768e-15,2.809785221e-14,5.387400958e-15,7.427803983e-14,6.777762645e-15,1.349084441e-13,4.18707808e-14,6.014586669e-14,2.375711622e-14,2.561683172e-14
0.765625,4.65443173e-14,1.317190647e-14,1.923345852e-13,1.858236856e-13,8.030815852e-14,7.213512694e-14,7.757727277e-15,3.010029114e-14,2.630712189e-14,1.455512991e-13,1.922954066e-14,3.508722881e-14,4.057024125e-14,5.131062834e-14,1.044891803e-13,1.233302324e-13,2.491412487e-14,7.341008531e-14,1.987111496e-14,6.348161606e-14,1.247005858e-13,1.723832106e-14,9.104470073e-15,2.773843744e-14,5.671358218e-15,7.141676889e-14,6.681698405e-15,1.344775847e-13,4.169408653e-14,5.917939133e-14,2.428961625e-14,2.502246016e-14
0.7734375,4.471579155e-14,1.340147843e-14,1.924613126e-13,1.869160468e-13,8.280766622e-14,7.403003812e-14,7.88389724e-15,3.033444117e-14,2.676418408e-14,1.421581822e-13,1.989965132e-14,3.570231657e-14,4.03273996e-14,5.370976569e-14,1.060028554e-13,1.218007357e-13,2.587251498e-14,7.480862716e-14,1.989833644e-14,6.215028659e-14,1.227599298e-13,1.671087424e-14,9.085500228e-15,2.738095938e-14,5.977650984e-15,6.852785687e-14,6.580206687e-15,1.337021883e-13,4.16775698e-14,5.814868437e-14,2.482551286e-14,2.44547119e-14
0.78125,4.336881068e-14,1.356806931e-14,1.920865801e-13,1.876313736e-13,8.542141765e-14,7.589164211e-14,8.037866328e-15,3.056461189e-14,2.724072746e-14,1.385898785e-13,2.054140838e-14,3.625254776e-14,4.005372823e-14,5.616016184e-14,1.071858737e-13,1.198012938e-13,2.683727226e-14,7.59678933e-14,1.994066191e-14,6.080027732e-14,1.205730049e-13,1.623078313e-14,9.067505717e-15,2.703970277e-14,6.27997623e-15,6.56133621e-14,6.44223467e-15,1.32513904e-13,4.178914898e-14,5.698207263e-14,2.53520631e-14,2.394677572e-14
0.7890625,4.23660245e-14,1.374200529e-14,1.913503784e-13,1.880234762e-13,8.808887216e-14,7.765343295e-14,8.218982067e-15,3.083681883e-14,2.770076e-14,1.350104769e-13,2.120721016e-14,3.677600244e-14,3.974107776e-14,5.858447571e-14,1.08058886e-13,1.174932812e-13,2.781067072e-14,7.692318714e-14,1.995629081e-14,5.935492018e-14,1.182731569e-13,1.576768877e-14,9.039450055e-15,2.662673048e-14,6.593634521e-15,6.275993604e-14,6.304346796e-15,1.310373272e-13,4.211857168e-14,5.577768425e-14,2.581135535e-14,2.35148344e-14
0.796875,4.14719674e-14,1.3982598e-14,1.904823475e-13,1.884576784e-13,9.077597882e-14,7.945750957e-14,8.431612205e-15,3.113287215e-14,2.811402134e-14,1.313768609e-13,2.194910518e-14,3.736091168e-14,3.948214794e-14,6.091850676e-14,1.08883269e-13,1.152386578e-13,2.890312847e-14,7.787965398e-14,1.999838473e-14,5.779948905e-14,1.158614884e-13,1.527039697e-14,8.995594484e-15,2.614437958e-14,6.940803066e-15,5.99211308e-14,6.19909783e-15,1.293423476e-13,4.271116385e-14,5.45236968e-14,2.624726277e-14,2.310271758e-14
0.8046875,4.080873747e-14,1.426138074e-14,1.892153029e-13,1.88525751e-13,9.347764952e-14,8.121910782e-14,8.666921563e-15,3.144019564e-14,2.848343376e-14,1.276302965e-13,2.265994478e-14,3.79385283e-14,3.92421093e-14,6.315023391e-14,1.09524048e-13,1.128507887e-13,3.004451302e-14,7.87440897e-14,2.00827176e-14,5.625814917e-14,1.131927567e-13,1.476796974e-14,8.956676799e-15,2.563669788e-14,7.291352567e-15,5.705196068e-14,6.094995191e-15,1.273518142e-13,4.336474326e-14,5.317321301e-14,2.666564441e-14,2.270671821e-14
0.8125,4.049997832e-14,1.452281269e-14,1.874670685e-13,1.882224e-13,9.625318866e-14,8.284659193e-14,8.915567259e-15,3.17998345e-14,2.882209817e-14,1.238983673e-13,2.329350394e-14,3.845379297e-14,3.89742153e-14,6.527622917e-14,1.099473979e-13,1.102356238e-13,3.11519222e-14,7.935287624e-14,2.018169832e-14,5.483638918e-14,1.103266754e-13,1.429871971e-14,8.931166359e-15,2.511160311e-14,7.63069602e-15,5.424483401e-14,5.954157898e-15,1.250899363e-13,4.395985627e-14,5.178608769e-14,2.70098503e-14,2.238794782e-14
0.8203125,4.055150456e-14,1.476956659e-14,1.854556852e-13,1.880546854e-13,9.912090277e-14,8.447439045e-14,9.178494281e-15,3.220960074e-14,2.918552246e-14,1.202681126e-13,2.393613651e-14,3.894396565e-14,3.875342521e-14,6.738618607e-14,1.103050957e-13,1.076502162e-13,3.232346476e-14,7.986567856e-14,2.029491625e-14,5.352143177e-14,1.07355356e-13,1.388167187e-14,8.918295148e-15,2.460892304e-14,7.981022795e-15,5.156924612e-14,5.793308955e-15,1.226786972e-13,4.466541652e-14,5.039646788e-14,2.735926562e-14,2.216189169e-14
0.828125,4.093933783e-14,1.501553932e-14,1.8311456e-13,1.875230399e-13,1.019082666e-13,8.598604838e-14,9.449135186e-15,3.262623708e-14,2.953255067e-14,1.167104195e-13,2.458380096e-14,3.933878611e-14,3.853343604e-14,6.939772161e-14,1.105283899e-13,1.051914024e-13,3.360590368e-14,8.033521756e-14,2.041277167e-14,5.224473615e-14,1.042756397e-13,1.35017716e-14,8.910764997e-15,2.410322746e-14,8.344871689e-15,4.899661803e-14,5.662394246e-15,1.200558134e-13,4.550505002e-14,4.899890504e-14,2.773724528e-14,2.199423726e-14
0.8359375,4.155577193e-14,1.523824313e-14,1.802938127e-13,1.864678484e-13,1.04549182e-13,8.726785455e-14,9.724189269e-15,3.300639164e-14,2.97579904e-14,1.132981483e-13,2.515515845e-14,3.959852642e-14,3.823707719e-14,7.114515169e-14,1.105935526e-13,1.028344266e-13,3.499485447e-14,8.063134978e-14,2.053852927e-14,5.095903548e-14,1.01114527e-13,1.311186304e-14,8.895117306e-15,2.348257193e-14,8.719330724e-15,4.650071682e-14,5.590059025e-15,1.171763626e-13,4.634168273e-14,4.761936681e-14,2.799096027e-14,2.185058577e-14
0.84375,4.244468455e-14,1.549423905e-14,1.769302742e-13,1.855812029e-13,1.071555816e-13,8.840054809e-14,9.994909027e-15,3.335353215e-14,2.990410616e-14,1.100904505e-13,2.565681789e-14,3.979305722e-14,3.794672246e-14,7.273029876e-14,1.104737293e-13,1.005056579e-13,3.648509461e-14,8.0767577e-14,2.068959344e-14,4.970879752e-14,9.784867621e-14,1.271668324e-14,8.880071581e-15,2.276049427e-14,9.104796832e-15,4.406448795e-14,5.553390342e-15,1.14158812e-13,4.717480163e-14,4.624756311e-14,2.812960689e-14,2.17341691e-14
0.8515625,4.37695269e-14,1.586132839e-14,1.730251381e-13,1.847875e-13,1.09750532e-13,8.941831147e-14,1.025187487e-14,3.373832903e-14,3.008984432e-14,1.069682854e-13,2.611324286e-14,3.993490883e-14,3.773727265e-14,7.432135021e-14,1.100719734e-13,9.811655839e-14,3.801195982e-14,8.074056799e-14,2.08479306e-14,4.861335332e-14,9.445053784e-14,1.23758554e-14,8.872973658e-15,2.205876016e-14,9.48488547e-15,4.170621902e-14,5.518457804e-15,1.110777045e-13,4.805810764e-14,4.486952119e-14,2.834047742e-14,2.169904528e-14
0.859375,4.546169899e-14,1.626571705e-14,1.687426316e-13,1.837648343e-13,1.12293076e-13,9.040035302e-14,1.051338125e-14,3.418293708e-14,3.030478348e-14,1.039299862e-13,2.649087652e-14,4.000838482e-14,3.759187213e-14,7.58962589e-14,1.094909179e-13,9.570356987e-14,3.9549727e-14,8.051105276e-14,2.098951292e-14,4.767167459e-14,9.09761801e-14,1.209961499e-14,8.877211986e-15,2.139251606e-14,9.848428956e-15,3.950007564e-14,5.481227259e-15,1.079384337e-13,4.898737631e-14,4.355218804e-14,2.86281363e-14,2.176781093e-14
0.8671875,4.732734044e-14,1.663177622e-14,1.642501546e-13,1.826971197e-13,1.147563232e-13,9.131131076e-14,1.077515897e-14,3.463168445e-14,3.04403174e-14,1.011018916e-13,2.681665607e-14,4.002404869e-14,3.747946526e-14,7.730038662e-14,1.088431231e-13,9.337898492e-14,4.111250706e-14,8.021224051e-14,2.111373681e-14,4.676562583e-14,8.747035357e-14,1.182670726e-14,8.902964661e-15,2.070188825e-14,1.019521559e-14,3.744873498e-14,5.462875225e-15,1.047224856e-13,4.991073001e-14,4.23293232e-14,2.886169726e-14,2.187821257e-14
0.875,4.935577425e-14,1.704001707e-14,1.596603729e-13,1.817227393e-13,1.171516328e-13,9.209639209e-14,1.102230875e-14,3.507060436e-14,3.048457829e-14,9.843591572e-14,2.715624887e-14,4.001957853e-14,3.743125082e-14,7.848383963e-14,1.082012389e-13,9.125053864e-14,4.275343982e-14,7.995517301e-14,2.126256388e-14,4.592753888e-14,8.398449126e-14,1.153896089e-14,8.936462893e-15,1.999045427e-14,1.053203327e-14,3.550421249e-14,5.498489557e-15,1.01458498e-13,5.088713729e-14,4.113670488e-14,2.904081281e-14,2.198337815e-14
0.8828125,5.17067354e-14,1.756695671e-14,1.549136262e-13,1.808222456e-13,1.194501043e-13,9.290760195e-14,1.129129903e-14,3.554550351e-14,3.050487639e-14,9.591573179e-14,2.746568181e-14,4.001185915e-14,3.749334611e-14,7.958707939e-14,1.075896659e-13,8.91747915e-14,4.452701323e-14,7.962087687e-14,2.14726165e-14,4.526341268e-14,8.05226088e-14,1.128282613e-14,8.973190945e-15,1.927648318e-14,1.086797981e-14,3.364966317e-14,5.579999864e-15,9.822611514e-14,5.206985667e-14,3.995718112e-14,2.923515471e-14,2.210459736e-14
0.890625,5.443034607e-14,1.81592333e-14,1.4966242e-13,1.797385657e-13,1.214228503e-13,9.365612508e-14,1.15823455e-14,3.610012231e-14,3.051461479e-14,9.367718324e-14,2.766818078e-14,3.988946482e-14,3.757939505e-14,8.058535479e-14,1.066900639e-13,8.679351934e-14,4.628003728e-14,7.898804286e-14,2.166884324e-14,4.472076532e-14,7.697565713e-14,1.106805935e-14,9.014324553e-15,1.857737907e-14,1.117970934e-14,3.182148375e-14,5.637989696e-15,9.493506624e-14,5.334439368e-14,3.883658918e-14,2.949893009e-14,2.227234406e-14
0.8984375,5.738426796e-14,1.871290235e-14,1.438500939e-13,1.782442918e-13,1.229843044e-13,9.417912506e-14,1.184304814e-14,3.675532802e-14,3.053357565e-14,9.171363008e-14,2.776709983e-14,3.958093601e-14,3.761660156e-14,8.128064906e-14,1.052613803e-13,8.411590303e-14,4.786365587e-14,7.797446606e-14,2.17844952e-14,4.424873243e-14,7.334381603e-14,1.089490131e-14,9.041045861e-15,1.794875505e-14,1.144405324e-14,3.002632389e-14,5.649283654e-15,9.146483968e-14,5.451461406e-14,3.7781078e-14,2.986905879e-14,2.251559516e-14
0.90625,6.049795102e-14,1.919189647e-14,1.378996064e-13,1.765855654e-13,1.244376281e-13,9.462987785e-14,1.208669336e-14,3.749706668e-14,3.055892416e-14,8.99471682e-14,2.779033527e-14,3.920303988e-14,3.769717861e-14,8.17471252e-14,1.035922539e-13,8.148790147e-14,4.942093219e-14,7.676960865e-14,2.18928762e-14,4.387657109e-14,6.975637231e-14,1.077528916e-14,9.088056507e-15,1.736882448e-14,1.168679213e-14,2.840058516e-14,5.668451441e-15,8.795167659e-14,5.567535865e-14,3.679826153e-14,3.027965863e-14,2.281867117e-14
0.9140625,6.376518482e-14,1.966009511e-14,1.32003245e-13,1.749606096e-13,1.2595976e-13,9.504571267e-14,1.235295048e-14,3.827624584e-14,3.051834247e-14,8.837803655e-14,2.777132181e-14,3.884825171e-14,3.786685581e-14,8.22023164e-14,1.020005481e-13,7.902412922e-14,5.104036935e-14,7.560168068e-14,2.203450601e-14,4.356151646e-14,6.623577153e-14,1.066719478e-14,9.181007345e-15,1.676322798e-14,1.191684338e-14,2.69226849e-14,5.729397967e-15,8.452661442e-14,5.6875384e-14,3.589303032e-14,3.064469374e-14,2.310209462e-14
0.921875,6.718448416e-14,2.015081985e-14,1.259955554e-13,1.73291023e-13,1.273992151e-13,9.536802331e-14,1.263058313e-14,3.905763012e-14,3.043395748e-14,8.693849982e-14,2.773462333e-14,3.848505123e-14,3.805055307e-14,8.263608771e-14,1.004809229e-13,7.66449409e-14,5.264132315e-14,7.444992633e-14,2.215824499e-14,4.332371825e-14,6.27341874e-14,1.055943215e-14,9.274939937e-15,1.614847032e-14,1.210564206e-14,2.549978398e-14,5.830922204e-15,8.109890516e-14,5.799225179e-14,3.502223179e-14,3.096020871e-14,2.3367878e-14
0.9296875,7.094389359e-14,2.061432988e-14,1.198275404e-13,1.715174342e-13,1.286497099e-13,9.567492845e-14,1.291237163e-14,3.986008598e-14,3.03574311e-14,8.559370366e-14,2.764594575e-14,3.806638074e-14,3.820824782e-14,8.293530189e-14,9.894486524e-14,7.435201377e-14,5.430167206e-14,7.320690956e-14,2.227282532e-14,4.327077245e-14,5.927954019e-14,1.049649128e-14,9.381970666e-15,1.554226528e-14,1.225718315e-14,2.421644693e-14,5.962719502e-15,7.758831292e-14,5.904603025e-14,3.419239597e-14,3.124001217e-14,2.367985461e-14
0.9375,7.507643477e-14,2.103323738e-14,1.136093014e-13,1.696253025e-13,1.297411479e-13,9.599284698e-14,1.321266048e-14,4.07239176e-14,3.026411099e-14,8.446014814e-14,2.749789745e-14,3.758573225e-14,3.837160285e-14,8.312615339e-14,9.736030018e-14,7.210272146e-14,5.604345406e-14,7.186041365e-14,2.239876703e-14,4.333409634e-14,5.593315786e-14,1.046550417e-14,9.516585004e-15,1.493293671e-14,1.238337771e-14,2.308047839e-14,6.09039438e-15,7.407189794e-14,6.004664543e-14,3.343993335e-14,3.150859535e-14,2.400505598e-14
0.9453125,7.930458195e-14,2.137333592e-14,1.073794087e-13,1.677089036e-13,1.306928611e-13,9.629558564e-14,1.351888401e-14,4.166746229e-14,3.017746942e-14,8.356873297e-14,2.734184665e-14,3.705015984e-14,3.854438403e-14,8.328039948e-14,9.568692139e-14,6.979397156e-14,5.762740898e-14,7.038234412e-14,2.248380836e-14,4.343795836e-14,5.269835996e-14,1.044406517e-14,9.633743958e-15,1.434848597e-14,1.247411102e-14,2.200468596e-14,6.216807801e-15,7.063023413e-14,6.080033906e-14,3.275271926e-14,3.175005999e-14,2.431079765e-14
0.953125,8.366518963e-14,2.159367701e-14,1.011022594e-13,1.657349855e-13,1.314186296e-13,9.645439656e-14,1.38002828e-14,4.267577574e-14,3.008528416e-14,8.284275974e-14,2.716053959e-14,3.64292584e-14,3.8643972e-14,8.329269617e-14,9.388567779e-14,6.75177993e-14,5.904818449e-14,6.87582591e-14,2.252485555e-14,4.365385103e-14,4.953490977e-14,1.044120054e-14,9.775633635e-15,1.377361482e-14,1.254740039e-14,2.106797891e-14,6.391036732e-15,6.720832421e-14,6.1301984e-14,3.215174607e-14,3.193313803e-14,2.463099947e-14
0.9609375,8.830411085e-14,2.180299685e-14,9.484697791e-14,1.635626134e-13,1.317707918e-13,9.642418397e-14,1.40593197e-14,4.372816742e-14,2.992207715e-14,8.230054574e-14,2.690861685e-14,3.573186908e-14,3.86478504e-14,8.302366277e-14,9.203936107e-14,6.546844612e-14,6.058488824e-14,6.706044484e-14,2.258995798e-14,4.387402182e-14,4.645230741e-14,1.043670154e-14,9.979617468e-15,1.319014e-14,1.26194111e-14,2.031010122e-14,6.596379779e-15,6.377774179e-14,6.184449048e-14,3.165728037e-14,3.212685105e-14,2.493541823e-14
0.96875,9.303081496e-14,2.203978799e-14,8.874860433e-14,1.614477399e-13,1.317664072e-13,9.644206654e-14,1.432309434e-14,4.486737436e-14,2.97409523e-14,8.195312613e-14,2.66353087e-14,3.502323707e-14,3.86275391e-14,8.253240105e-14,9.033319752e-14,6.368816097e-14,6.225093681e-14,6.533525629e-14,2.267967616e-14,4.39597262e-14,4.351068597e-14,1.04183137e-14,1.018153769e-14,1.265000018e-14,1.26668393e-14,1.965208413e-14,6.811296812e-15,6.043478838e-14,6.244498776e-14,3.122257326e-14,3.237049301e-14,2.518533857e-14
0.9765625,9.791756832e-14,2.219194555e-14,8.284588855e-14,1.595391292e-13,1.316060252e-13,9.655877795e-14,1.459943862e-14,4.616040196e-14,2.95901228e-14,8.174079786e-14,2.640293758e-14,3.429555042e-14,3.858927034e-14,8.195345175e-14,8.885117113e-14,6.210178042e-14,6.390534731e-14,6.361867801e-14,2.275646687e-14,4.406230721e-14,4.075190859e-14,1.040394108e-14,1.037796421e-14,1.217070623e-14,1.268673049e-14,1.911682267e-14,7.077004747e-15,5.720744727e-14,6.289072049e-14,3.084695751e-14,3.267447506e-14,2.54415075e-14
0.984375,1.031470612e-13,2.232465972e-14,7.718925916e-14,1.5758903e-13,1.314201907e-13,9.673482214e-14,1.488367756e-14,4.759062663e-14,2.945081721e-14,8.168631042e-14,2.621478859e-14,3.35385682e-14,3.854917562e-14,8.139494195e-14,8.752890817e-14,6.058944214e-14,6.553668413e-14,6.194360994e-14,2.284767107e-14,4.428506545e-14,3.820498944e-14,1.041188587e-14,1.059103882e-14,1.174538226e-14,1.269086639e-14,1.871955362e-14,7.371086307e-15,5.410201278e-14,6.32838593e-14,3.05677291e-14,3.310430193e-14,2.57560457e-14
0.9921875,1.083296864e-13,2.251571e-14,7.180804075e-14,1.556399478e-13,1.310920235e-13,9.703960834e-14,1.515251397e-14,4.911947958e-14,2.934692924e-14,8.179500456e-14,2.605385453e-14,3.278714373e-14,3.853067723e-14,8.081307416e-14,8.631965774e-14,5.914480314e-14,6.701380427e-14,6.021396985e-14,2.296439716e-14,4.458010524e-14,3.586560906e-14,1.04459468e-14,1.079662149e-14,1.13911015e-14,1.266678235e-14,1.842943649e-14,7.677660148e-15,5.120012017e-14,6.372586715e-14,3.036477088e-14,3.360837295e-14,2.608551789e-14
1,1.132271546e-13,2.267019524e-14,6.658882246e-14,1.537964656e-13,1.30358377e-13,9.720277766e-14,1.537139403e-14,5.076338085e-14,2.926999337e-14,8.200960323e-14,2.588729252e-14,3.201526269e-14,3.844909559e-14,7.995655845e-14,8.526142678e-14,5.792957662e-14,6.823392368e-14,5.836220272e-14,2.306849108e-14,4.496295065e-14,3.367992914e-14,1.047396011e-14,1.101456464e-14,1.110964904e-14,1.26189157e-14,1.82940307e-14,8.066330498e-15,4.846391792e-14,6.41082451e-14,3.022386549e-14,3.415743857e-14,2.63746491e-14
1.0078125,1.181749272e-13,2.280050699e-14,6.157850842e-14,1.521159794e-13,1.292044682e-13,9.715545362e-14,1.55675099e-14,5.254261216e-14,2.92079934e-14,8.23920304e-14,2.571557506e-14,3.123123188e-14,3.83282635e-14,7.883918935e-14,8.441861302e-14,5.697576924e-14,6.940419648e-14,5.649922854e-14,2.317521201e-14,4.540358399e-14,3.16258796e-14,1.049030892e-14,1.126048481e-14,1.092231211e-14,1.256477397e-14,1.830637114e-14,8.522033238e-15,4.582706962e-14,6.448716782e-14,3.016719953e-14,3.486914289e-14,2.663890602e-14
1.015625,1.232117138e-13,2.288893553e-14,5.691887664e-14,1.508543146e-13,1.278485041e-13,9.729092174e-14,1.57892338e-14,5.445912848e-14,2.919044087e-14,8.297876339e-14,2.556193465e-14,3.046897943e-14,3.828243816e-14,7.770976949e-14,8.382362426e-14,5.619057571e-14,7.060109791e-14,5.468031295e-14,2.330322753e-14,4.58998362e-14,2.969447533e-14,1.053005871e-14,1.152784113e-14,1.084255782e-14,1.250064449e-14,1.840480852e-14,8.987375906e-15,4.334720066e-14,6.485429042e-14,3.017661422e-14,3.568735178e-14,2.69080353e-14
1.0234375,1.280574837e-13,2.283111019e-14,5.246021603e-14,1.496953359e-13,1.262571186e-13,9.753465466e-14,1.602066865e-14,5.648480911e-14,2.918204974e-14,8.364732708e-14,2.538228998e-14,2.966451479e-14,3.827392434e-14,7.650190555e-14,8.34512012e-14,5.557469779e-14,7.162808009e-14,5.284564122e-14,2.340640387e-14,4.655520252e-14,2.78523149e-14,1.057938774e-14,1.181846335e-14,1.081714261e-14,1.242090064e-14,1.86064399e-14,9.480710663e-15,4.096794742e-14,6.510047156e-14,3.020459138e-14,3.647799366e-14,2.717426066e-14
1.03125,1.327669339e-13,2.277040774e-14,4.812484188e-14,1.482567153e-13,1.24360516e-13,9.768842712e-14,1.623634004e-14,5.857227838e-14,2.917717038e-14,8.43288635e-14,2.517117226e-14,2.883244299e-14,3.827194334e-14,7.515819578e-14,8.331013556e-14,5.514833476e-14,7.245428119e-14,5.099906079e-14,2.347406563e-14,4.73133486e-14,2.615072507e-14,1.062712667e-14,1.207951179e-14,1.083071365e-14,1.230760568e-14,1.892816651e-14,9.999500435e-15,3.859830106e-14,6.532919654e-14,3.024489206e-14,3.730288269e-14,2.743989941e-14
1.0390625,1.374389673e-13,2.282699165e-14,4.410428779e-14,1.470019176e-13,1.223743876e-13,9.791943818e-14,1.642768004e-14,6.071341179e-14,2.923998148e-14,8.506548778e-14,2.499159505e-14,2.80805712e-14,3.831101053e-14,7.384637875e-14,8.343342314e-14,5.488668787e-14,7.318102087e-14,4.91706362e-14,2.353366644e-14,4.799690078e-14,2.467355616e-14,1.069796001e-14,1.230100357e-14,1.094716692e-14,1.213834307e-14,1.934899417e-14,1.052405789e-14,3.638759713e-14,6.552505253e-14,3.030587086e-14,3.822234197e-14,2.768424585e-14
1.046875,1.418991255e-13,2.284496173e-14,4.040565312e-14,1.460575121e-13,1.20294447e-13,9.816097551e-14,1.659500164e-14,6.290148864e-14,2.93485694e-14,8.594168938e-14,2.482282239e-14,2.738339086e-14,3.836334072e-14,7.249300691e-14,8.373643058e-14,5.471536234e-14,7.382385722e-14,4.73553708e-14,2.356633046e-14,4.855755851e-14,2.337164578e-14,1.077080882e-14,1.255639661e-14,1.117982816e-14,1.193882597e-14,1.983853691e-14,1.105525116e-14,3.444184682e-14,6.560075563e-14,3.037478768e-14,3.919624583e-14,2.785425647e-14
1.0546875,1.461451857e-13,2.268681685e-14,3.690235905e-14,1.451588737e-13,1.179577066e-13,9.83840767e-14,1.678322106e-14,6.511478789e-14,2.945220433e-14,8.697811927e-14,2.465107214e-14,2.666300231e-14,3.842034519e-14,7.100830657e-14,8.421270788e-14,5.464096197e-14,7.441564096e-14,4.55801036e-14,2.355866634e-14,4.909600425e-14,2.216147875e-14,1.08304101e-14,1.284531195e-14,1.145381082e-14,1.17451428e-14,2.037519531e-14,1.160310503e-14,3.258549937e-14,6.563566861e-14,3.044887577e-14,4.016784236e-14,2.79851725e-14
1.0625,1.503561271e-13,2.235030946e-14,3.359151992e-14,1.444824519e-13,1.154988252e-13,9.878306355e-14,1.700922406e-14,6.737221142e-14,2.95773134e-14,8.803143388e-14,2.453596558e-14,2.592695284e-14,3.847600084e-14,6.950640365e-14,8.50307185e-14,5.484664551e-14,7.499564557e-14,4.387161752e-14,2.353796186e-14,4.972242531e-14,2.106461136e-14,1.090041997e-14,1.312971194e-14,1.174012645e-14,1.155141397e-14,2.100406184e-14,1.2190795e-14,3.0721648e-14,6.551927332e-14,3.051721109e-14,4.107992634e-14,2.814726225e-14
1.0703125,1.544331313e-13,2.195398704e-14,3.05000402e-14,1.438698601e-13,1.128802621e-13,9.920688663e-14,1.722161886e-14,6.968221522e-14,2.974568855e-14,8.905976474e-14,2.446314239e-14,2.518677089e-14,3.847562077e-14,6.790589035e-14,8.621036302e-14,5.538913288e-14,7.551047174e-14,4.217926544e-14,2.349514677e-14,5.03935766e-14,2.014342217e-14,1.096754622e-14,1.340917462e-14,1.207898445e-14,1.135000661e-14,2.176452608e-14,1.277473437e-14,2.900446052e-14,6.516074309e-14,3.056895352e-14,4.190693817e-14,2.832356939e-14
1.078125,1.582202404e-13,2.159708616e-14,2.763903329e-14,1.431426366e-13,1.098901898e-13,9.945503883e-14,1.739928553e-14,7.202290252e-14,2.991847245e-14,9.018569928e-14,2.440863173e-14,2.442155407e-14,3.838314407e-14,6.608652738e-14,8.770834495e-14,5.621908089e-14,7.591214353e-14,4.044650033e-14,2.33934407e-14,5.103390447e-14,1.940987225e-14,1.101195771e-14,1.366980795e-14,1.246447969e-14,1.114766264e-14,2.263395416e-14,1.333506705e-14,2.747911139e-14,6.469164712e-14,3.062448828e-14,4.262201344e-14,2.849154275e-14
1.0859375,1.618266312e-13,2.120100581e-14,2.49546905e-14,1.426220792e-13,1.067127837e-13,9.956697457e-14,1.755359615e-14,7.438026756e-14,3.006566202e-14,9.136745002e-14,2.440782814e-14,2.361879652e-14,3.816838292e-14,6.413755293e-14,8.958091057e-14,5.73928681e-14,7.622727838e-14,3.872359687e-14,2.325176886e-14,5.167063812e-14,1.88088363e-14,1.104845309e-14,1.391179601e-14,1.288638306e-14,1.093935959e-14,2.360626916e-14,1.395039558e-14,2.600729932e-14,6.404901101e-14,3.065502896e-14,4.320640533e-14,2.866663046e-14
1.09375,1.652894499e-13,2.072196064e-14,2.240417625e-14,1.421480003e-13,1.035174523e-13,9.961379975e-14,1.768960321e-14,7.67228367e-14,3.022847872e-14,9.252818182e-14,2.444424016e-14,2.279694264e-14,3.783073459e-14,6.212278411e-14,9.176797022e-14,5.885529893e-14,7.645790373e-14,3.708686462e-14,2.311057321e-14,5.231045718e-14,1.830389118e-14,1.108994068e-14,1.414886658e-14,1.337263152e-14,1.072223536e-14,2.468293865e-14,1.461103889e-14,2.458020122e-14,6.318034193e-14,3.062124895e-14,4.370302699e-14,2.884036781e-14
1.1015625,1.684665917e-13,2.016954169e-14,2.011616412e-14,1.416865497e-13,1.002772609e-13,9.972586678e-14,1.781989086e-14,7.903923827e-14,3.044742479e-14,9.372027757e-14,2.449676942e-14,2.201520446e-14,3.743520796e-14,6.010428541e-14,9.421140774e-14,6.052348894e-14,7.65668057e-14,3.552424574e-14,2.296637434e-14,5.297759933e-14,1.794607394e-14,1.113881357e-14,1.438610341e-14,1.390901013e-14,1.050363746e-14,2.584248781e-14,1.52816307e-14,2.328101009e-14,6.222725764e-14,3.056877549e-14,4.418514177e-14,2.899545715e-14
1.109375,1.713559256e-13,1.955208504e-14,1.814150821e-14,1.4172902e-13,9.711184239e-14,9.985610391e-14,1.792993307e-14,8.131621885e-14,3.069680691e-14,9.488482128e-14,2.458704508e-14,2.131001068e-14,3.702029546e-14,5.812578738e-14,9.691039469e-14,6.243580097e-14,7.658601582e-14,3.400202456e-14,2.280495059e-14,5.365598239e-14,1.776073654e-14,1.118795623e-14,1.464278139e-14,1.448053671e-14,1.028164214e-14,2.705856978e-14,1.598376726e-14,2.210400755e-14,6.120602391e-14,3.050595206e-14,4.468926473e-14,2.913098479e-14
1.1171875,1.739956615e-13,1.898915378e-14,1.633670882e-14,1.41941687e-13,9.388107208e-14,9.980083632e-14,1.800336899e-14,8.347634296e-14,3.09383123e-14,9.593886249e-14,2.469621033e-14,2.061296121e-14,3.653062714e-14,5.605230892e-14,9.977943484e-14,6.455117879e-14,7.652721995e-14,3.248888847e-14,2.260073235e-14,5.420963125e-14,1.768755335e-14,1.122120425e-14,1.489615222e-14,1.508745028e-14,1.00514902e-14,2.832583873e-14,1.668792626e-14,2.10384375e-14,6.008824454e-14,3.039892058e-14,4.512936677e-14,2.924708269e-14
1.125,1.761665954e-13,1.844980477e-14,1.46530304e-14,1.418711505e-13,9.030123626e-14,9.956757736e-14,1.806675847e-14,8.554276195e-14,3.115449273e-14,9.69586551e-14,2.478810032e-14,1.985685359e-14,3.591428403e-14,5.383544185e-14,1.028773053e-13,6.685178685e-14,7.62614442e-14,3.095536013e-14,2.23104886e-14,5.4739802e-14,1.768809751e-14,1.122884075e-14,1.509689023e-14,1.571437669e-14,9.815850045e-15,2.967111465e-14,1.74296487e-14,2.006796378e-14,5.885817298e-14,3.027845075e-14,4.544587424e-14,2.934564603e-14
1.1328125,1.777316187e-13,1.779846283e-14,1.316761638e-14,1.418945211e-13,8.661143058e-14,9.917340683e-14,1.811600903e-14,8.763392273e-14,3.13820313e-14,9.802243314e-14,2.485356725e-14,1.911868477e-14,3.52538029e-14,5.161976838e-14,1.062660234e-13,6.93720451e-14,7.574224471e-14,2.948469134e-14,2.196134146e-14,5.547101746e-14,1.77665198e-14,1.122848716e-14,1.525293905e-14,1.639627086e-14,9.577008246e-15,3.106936488e-14,1.82271562e-14,1.917956161e-14,5.749396469e-14,3.014150768e-14,4.580026796e-14,2.944994677e-14
1.140625,1.790218054e-13,1.714824398e-14,1.189227612e-14,1.421190328e-13,8.304524541e-14,9.865044279e-14,1.812310273e-14,8.971757845e-14,3.167487774e-14,9.911009161e-14,2.489074548e-14,1.845948934e-14,3.46165128e-14,4.942799449e-14,1.097866136e-13,7.205276312e-14,7.50941188e-14,2.816699997e-14,2.161738994e-14,5.629388384e-14,1.791966545e-14,1.125721226e-14,1.539599542e-14,1.713405409e-14,9.33779362e-15,3.249315647e-14,1.896979925e-14,1.84453978e-14,5.609817989e-14,2.994680103e-14,4.627831193e-14,2.958518624e-14
1.1484375,1.802116682e-13,1.656519817e-14,1.074604254e-14,1.423579826e-13,7.942598007e-14,9.819243429e-14,1.811092425e-14,9.170286634e-14,3.197979467e-14,1.001050356e-13,2.490362012e-14,1.780221135e-14,3.391742222e-14,4.716217736e-14,1.134176255e-13,7.485559533e-14,7.432671598e-14,2.693609832e-14,2.125544246e-14,5.70552254e-14,1.814929249e-14,1.130639395e-14,1.554195422e-14,1.786963524e-14,9.093997116e-15,3.400497202e-14,1.970531663e-14,1.783611853e-14,5.468918176e-14,2.971434689e-14,4.67417276e-14,2.973069374e-14
1.15625,1.809266042e-13,1.594467729e-14,9.701101348e-15,1.427065273e-13,7.577762671e-14,9.776352299e-14,1.809938711e-14,9.35718e-14,3.223823199e-14,1.009161099e-13,2.490602187e-14,1.712429696e-14,3.313132474e-14,4.484004786e-14,1.172372187e-13,7.776032455e-14,7.335226728e-14,2.573263735e-14,2.081706387e-14,5.781187789e-14,1.846398524e-14,1.133801822e-14,1.566770566e-14,1.862794185e-14,8.830634601e-15,3.559570542e-14,2.051543484e-14,1.721100375e-14,5.31896376e-14,2.945864223e-14,4.712748019e-14,2.987010429e-14
1.1640625,1.810565976e-13,1.526753241e-14,8.850988698e-15,1.432019767e-13,7.229347742e-14,9.717389827e-14,1.807495305e-14,9.526330096e-14,3.249044656e-14,1.016350979e-13,2.493573546e-14,1.647279335e-14,3.231012729e-14,4.255192943e-14,1.212160443e-13,8.077639874e-14,7.223995363e-14,2.460016847e-14,2.029432528e-14,5.86151618e-14,1.886342512e-14,1.136422945e-14,1.572461733e-14,1.940565516e-14,8.558053846e-15,3.720817544e-14,2.130593385e-14,1.658946665e-14,5.162794748e-14,2.916766895e-14,4.744955874e-14,3.003079653e-14
1.171875,1.809045889e-13,1.451534798e-14,8.194747394e-15,1.438492549e-13,6.889959205e-14,9.642096009e-14,1.804552635e-14,9.675666447e-14,3.273210883e-14,1.023374793e-13,2.500038808e-14,1.582327659e-14,3.142876221e-14,4.029681108e-14,1.253264419e-13,8.393329471e-14,7.108370373e-14,2.356453412e-14,1.971001293e-14,5.950115419e-14,1.933338127e-14,1.139938258e-14,1.572791225e-14,2.013118111e-14,8.305926492e-15,3.88779909e-14,2.208279665e-14,1.6045365e-14,4.998770621e-14,2.885593223e-14,4.771463051e-14,3.021567001e-14
1.1796875,1.805212875e-13,1.369668495e-14,7.60859124e-15,1.445589408e-13,6.549390419e-14,9.55422911e-14,1.802615586e-14,9.813050635e-14,3.294334314e-14,1.029605908e-13,2.501046991e-14,1.516598923e-14,3.048766448e-14,3.802457543e-14,1.294176839e-13,8.710308051e-14,6.984398105e-14,2.260614588e-14,1.909914974e-14,6.049085351e-14,1.985872043e-14,1.143306513e-14,1.571330033e-14,2.08340014e-14,8.07143133e-15,4.059179721e-14,2.289907296e-14,1.556038911e-14,4.828383262e-14,2.854169249e-14,4.801668165e-14,3.042150155e-14
1.1875,1.798668931e-13,1.29212712e-14,7.086348975e-15,1.450631301e-13,6.212415203e-14,9.459536452e-14,1.800587378e-14,9.938139264e-14,3.317191299e-14,1.035197521e-13,2.491561053e-14,1.453352764e-14,2.951280799e-14,3.574416741e-14,1.33354992e-13,9.024962343e-14,6.853199016e-14,2.16992534e-14,1.847990076e-14,6.155272366e-14,2.045199639e-14,1.148792683e-14,1.56733539e-14,2.155256456e-14,7.8418834e-15,4.232651832e-14,2.371220313e-14,1.516238594e-14,4.664736788e-14,2.821882583e-14,4.838079055e-14,3.065242139e-14
1.1953125,1.789394667e-13,1.220254462e-14,6.681567492e-15,1.453945179e-13,5.878955483e-14,9.364081569e-14,1.797418135e-14,1.004620568e-13,3.339701351e-14,1.04065093e-13,2.481837249e-14,1.391003686e-14,2.847614284e-14,3.347506453e-14,1.372838805e-13,9.3538615e-14,6.722043233e-14,2.084254268e-14,1.782757596e-14,6.26704607e-14,2.113307335e-14,1.156548678e-14,1.562974599e-14,2.226400884e-14,7.627602862e-15,4.413414559e-14,2.454368407e-14,1.484846538e-14,4.502746179e-14,2.785999733e-14,4.865198755e-14,3.086018401e-14
1.203125,1.775468478e-13,1.14806074e-14,6.396629864e-15,1.457854401e-13,5.549062716e-14,9.258405612e-14,1.794206293e-14,1.013933622e-13,3.357303114e-14,1.045330233e-13,2.482272073e-14,1.328442256e-14,2.738152045e-14,3.122127761e-14,1.413745632e-13,9.700184917e-14,6.58583572e-14,2.004618475e-14,1.71136893e-14,6.385352639e-14,2.190076918e-14,1.162324852e-14,1.560452178e-14,2.296900175e-14,7.432829758e-15,4.598617348e-14,2.54104844e-14,1.452637899e-14,4.327603221e-14,2.747452418e-14,4.873292832e-14,3.104555303e-14
1.2109375,1.757193058e-13,1.073359932e-14,6.245870234e-15,1.463218914e-13,5.23296859e-14,9.134733466e-14,1.792468314e-14,1.021729742e-13,3.374871901e-14,1.048838931e-13,2.489889827e-14,1.268534367e-14,2.625524785e-14,2.903151654e-14,1.456386616e-13,1.005796984e-13,6.441137648e-14,1.930972331e-14,1.635135369e-14,6.521808674e-14,2.273569323e-14,1.1665925e-14,1.556289031e-14,2.365582552e-14,7.258804899e-15,4.787496688e-14,2.62935324e-14,1.421066834e-14,4.142952009e-14,2.710485926e-14,4.873087566e-14,3.129210275e-14
1.21875,1.737533002e-13,1.000191076e-14,6.205842434e-15,1.469480357e-13,4.935697925e-14,8.998999334e-14,1.791626654e-14,1.027702869e-13,3.394411e-14,1.051384403e-13,2.49491124e-14,1.213712269e-14,2.512031501e-14,2.696107026e-14,1.498765779e-13,1.041841916e-13,6.298774815e-14,1.867964027e-14,1.560171264e-14,6.684844615e-14,2.360310791e-14,1.173040254e-14,1.547933982e-14,2.433726023e-14,7.108670503e-15,4.983982881e-14,2.719395553e-14,1.39777279e-14,3.960662826e-14,2.671923837e-14,4.87937524e-14,3.159888149e-14
1.2265625,1.716787268e-13,9.384039238e-15,6.249622821e-15,1.474751793e-13,4.654472196e-14,8.857473617e-14,1.789663038e-14,1.031904725e-13,3.412800324e-14,1.052715807e-13,2.493642029e-14,1.165394796e-14,2.40304798e-14,2.502144145e-14,1.538373003e-13,1.076936324e-13,6.160293444e-14,1.818645658e-14,1.491005919e-14,6.856894082e-14,2.449928985e-14,1.182402269e-14,1.535964583e-14,2.505116304e-14,6.965603167e-15,5.177666413e-14,2.807889149e-14,1.382566757e-14,3.78684587e-14,2.627399097e-14,4.89139497e-14,3.190923479e-14
1.234375,1.694653377e-13,8.897735373e-15,6.406694587e-15,1.478828948e-13,4.391858152e-14,8.708581043e-14,1.786320028e-14,1.034372212e-13,3.432218515e-14,1.052973614e-13,2.491523238e-14,1.123166156e-14,2.301846794e-14,2.321138281e-14,1.575940048e-13,1.111490238e-13,6.017022062e-14,1.778413599e-14,1.425324102e-14,7.032836924e-14,2.544783837e-14,1.194391197e-14,1.521738863e-14,2.574448601e-14,6.830459857e-15,5.36317984e-14,2.896271489e-14,1.376520972e-14,3.62168729e-14,2.581948284e-14,4.900521389e-14,3.223942622e-14
1.2421875,1.673125947e-13,8.472816848e-15,6.63500255e-15,1.481971081e-13,4.151084975e-14,8.546927962e-14,1.783096059e-14,1.034966363e-13,3.454101777e-14,1.053144797e-13,2.492409899e-14,1.084445518e-14,2.206880524e-14,2.153760538e-14,1.611928922e-13,1.145179027e-13,5.872693835e-14,1.748993232e-14,1.361087536e-14,7.231092325e-14,2.641193922e-14,1.209462031e-14,1.505719241e-14,2.637408837e-14,6.72763881e-15,5.546775027e-14,2.982995767e-14,1.380703108e-14,3.462118334e-14,2.537897133e-14,4.906278606e-14,3.261184358e-14
1.25,1.651742783e-13,8.056001199e-15,6.875129449e-15,1.482113347e-13,3.928356335e-14,8.375989982e-14,1.780399533e-14,1.033757124e-13,3.473711399e-14,1.052904665e-13,2.493827122e-14,1.046403013e-14,2.114558428e-14,1.999619298e-14,1.64430294e-13,1.176424667e-13,5.733196788e-14,1.732232752e-14,1.2990766e-14,7.447387855e-14,2.733890551e-14,1.227132917e-14,1.486387717e-14,2.698104419e-14,6.645093087e-15,5.722009772e-14,3.056458248e-14,1.386892274e-14,3.304253516e-14,2.489410235e-14,4.908421418e-14,3.299457497e-14
1.2578125,1.627375553e-13,7.674843901e-15,7.153822247e-15,1.481211018e-13,3.722763145e-14,8.200231322e-14,1.777564324e-14,1.031315146e-13,3.489785111e-14,1.050337545e-13,2.49358933e-14,1.009981651e-14,2.026445622e-14,1.855493054e-14,1.673882955e-13,1.206717722e-13,5.595916562e-14,1.722966724e-14,1.238857499e-14,7.679096754e-14,2.823849129e-14,1.245366974e-14,1.464296108e-14,2.757467718e-14,6.564929158e-15,5.882121567e-14,3.117134789e-14,1.389551892e-14,3.148693934e-14,2.434724009e-14,4.904568667e-14,3.337221861e-14
1.265625,1.601826235e-13,7.38911149e-15,7.464465068e-15,1.483017604e-13,3.537943872e-14,8.013377905e-14,1.774654678e-14,1.028206751e-13,3.507733437e-14,1.045463677e-13,2.48896292e-14,9.790919466e-15,1.948830046e-14,1.718903544e-14,1.702224532e-13,1.237510188e-13,5.460764718e-14,1.726820477e-14,1.182388005e-14,7.947397736e-14,2.912053559e-14,1.26461395e-14,1.441051193e-14,2.813735247e-14,6.5092298e-15,6.034243082e-14,3.171961882e-14,1.393293679e-14,3.003847189e-14,2.377813691e-14,4.901976113e-14,3.379599098e-14
1.2734375,1.579382866e-13,7.120054138e-15,7.793686623e-15,1.485059542e-13,3.365982231e-14,7.815990754e-14,1.772450637e-14,1.024200521e-13,3.5268123e-14,1.040325805e-13,2.477085719e-14,9.499658715e-15,1.877235621e-14,1.590834943e-14,1.727894027e-13,1.266841113e-13,5.325836485e-14,1.745474411e-14,1.129972253e-14,8.244696835e-14,2.998300564e-14,1.287909373e-14,1.415486375e-14,2.864896749e-14,6.487923921e-15,6.184710526e-14,3.221831255e-14,1.401505701e-14,2.870466451e-14,2.322015333e-14,4.904778451e-14,3.430273957e-14
1.28125,1.557812504e-13,6.823812929e-15,8.182758356e-15,1.486177382e-13,3.197747506e-14,7.613814209e-14,1.772306537e-14,1.019311913e-13,3.540181879e-14,1.034663184e-13,2.463233142e-14,9.156821651e-15,1.803211201e-14,1.473579649e-14,1.750753098e-13,1.294382902e-13,5.18785582e-14,1.766079304e-14,1.076225667e-14,8.554357593e-14,3.083846005e-14,1.313708131e-14,1.38810871e-14,2.90762598e-14,6.483300888e-15,6.331769961e-14,3.269622736e-14,1.413220937e-14,2.737762523e-14,2.269468071e-14,4.90438115e-14,3.48507358e-14
1.2890625,1.53422518e-13,6.629314909e-15,8.60375598e-15,1.488780179e-13,3.047369534e-14,7.405545634e-14,1.775078721e-14,1.014699823e-13,3.553611723e-14,1.026838498e-13,2.45517412e-14,8.804307914e-15,1.730492932e-14,1.370021819e-14,1.771258867e-13,1.321331395e-13,5.048625053e-14,1.791746343e-14,1.020701452e-14,8.900044618e-14,3.166163352e-14,1.340042577e-14,1.360389695e-14,2.945847707e-14,6.486836578e-15,6.469405126e-14,3.313806304e-14,1.426678457e-14,2.604180088e-14,2.219833014e-14,4.90248876e-14,3.542923396e-14
1.296875,1.510812843e-13,6.551491464e-15,8.996543754e-15,1.489948922e-13,2.92409634e-14,7.194276858e-14,1.779399744e-14,1.010459543e-13,3.575686974e-14,1.017605198e-13,2.451191471e-14,8.486168578e-15,1.660685175e-14,1.278463361e-14,1.787181288e-13,1.345880349e-13,4.901997626e-14,1.829264873e-14,9.662410695e-15,9.289174486e-14,3.241713481e-14,1.370029287e-14,1.330287642e-14,2.985812158e-14,6.494002429e-15,6.595110436e-14,3.351721646e-14,1.440818939e-14,2.474390409e-14,2.169963046e-14,4.912005384e-14,3.606628154e-14
1.3046875,1.486395563e-13,6.529316562e-15,9.38351483e-15,1.4873372e-13,2.809547558e-14,6.982274255e-14,1.783839038e-14,1.005129005e-13,3.596037505e-14,1.007686234e-13,2.445096336e-14,8.164850588e-15,1.589070881e-14,1.191654735e-14,1.797549102e-13,1.366838408e-13,4.746334358e-14,1.870189708e-14,9.125916495e-15,9.68738288e-14,3.31245977e-14,1.401876006e-14,1.297500343e-14,3.024853027e-14,6.49988773e-15,6.708367095e-14,3.387511232e-14,1.459056634e-14,2.34835725e-14,2.119073153e-14,4.932380849e-14,3.67103526e-14
1.3125,1.458646198e-13,6.553141403e-15,9.806516512e-15,1.485142793e-13,2.696407263e-14,6.767328452e-14,1.789409147e-14,9.988251237e-14,3.606419662e-14,9.959089436e-14,2.437600664e-14,7.830671816e-15,1.517375284e-14,1.109085855e-14,1.804789177e-13,1.386895486e-13,4.599762962e-14,1.917964678e-14,8.622847704e-15,1.008499614e-13,3.381262594e-14,1.4306199e-14,1.265242442e-14,3.059698454e-14,6.513680122e-15,6.806262728e-14,3.424320094e-14,1.480452258e-14,2.228632151e-14,2.0689022e-14,4.955685461e-14,3.733585814e-14
1.3203125,1.431505857e-13,6.57522085e-15,1.028320479e-14,1.484852811e-13,2.594542746e-14,6.554501704e-14,1.798865063e-14,9.930379244e-14,3.616475423e-14,9.822869674e-14,2.43488039e-14,7.490026633e-15,1.446839331e-14,1.038109574e-14,1.810789794e-13,1.407760889e-13,4.4681618e-14,1.975641198e-14,8.159307817e-15,1.050225155e-13,3.448685999e-14,1.459354174e-14,1.233565894e-14,3.091135261e-14,6.551094639e-15,6.894779593e-14,3.466390842e-14,1.498780061e-14,2.115175139e-14,2.020393399e-14,4.982348186e-14,3.801804374e-14
1.328125,1.406628664e-13,6.703989896e-15,1.080128175e-14,1.483136472e-13,2.504006116e-14,6.344089126e-14,1.81424215e-14,9.878648076e-14,3.630428569e-14,9.677380092e-14,2.439757347e-14,7.149989209e-15,1.376580084e-14,9.813176406e-15,1.814301553e-13,1.428202129e-13,4.34492122e-14,2.031360794e-14,7.711072469e-15,1.094130968e-13,3.513814089e-14,1.491182573e-14,1.199703142e-14,3.120107377e-14,6.616796926e-15,6.98129937e-14,3.513456544e-14,1.523490804e-14,2.004484752e-14,1.975218578e-14,5.014666833e-14,3.877679939e-14
1.3359375,1.381181673e-13,7.040847486e-15,1.133340919e-14,1.47972512e-13,2.426651999e-14,6.129117555e-14,1.833601431e-14,9.830933677e-14,3.644204727e-14,9.520461911e-14,2.452479743e-14,6.856738923e-15,1.310574414e-14,9.353724308e-15,1.813895985e-13,1.44807081e-13,4.239104801e-14,2.093512511e-14,7.314561087e-15,1.139295064e-13,3.57320101e-14,1.523119107e-14,1.163866547e-14,3.149543851e-14,6.706123819e-15,7.059273303e-14,3.558342594e-14,1.564026988e-14,1.90136702e-14,1.934274721e-14,5.053389055e-14,3.957714402e-14
1.34375,1.355403637e-13,7.437088546e-15,1.189397173e-14,1.477562604e-13,2.362010237e-14,5.905938001e-14,1.854629651e-14,9.796053357e-14,3.659848264e-14,9.356043251e-14,2.472892396e-14,6.603863357e-15,1.248644228e-14,8.965221339e-15,1.811223297e-13,1.468645317e-13,4.150296056e-14,2.173590668e-14,6.981011447e-15,1.186477563e-13,3.623936026e-14,1.553488694e-14,1.128016107e-14,3.179028393e-14,6.822625514e-15,7.123103011e-14,3.601558183e-14,1.608628601e-14,1.808443846e-14,1.894648935e-14,5.099751891e-14,4.042761541e-14
1.3515625,1.330211358e-13,7.895323395e-15,1.245443991e-14,1.475473894e-13,2.297809245e-14,5.673028196e-14,1.87896005e-14,9.776363268e-14,3.67998815e-14,9.196560599e-14,2.492923855e-14,6.347351136e-15,1.187662011e-14,8.628504226e-15,1.807069812e-13,1.48927497e-13,4.064018031e-14,2.258008094e-14,6.679757111e-15,1.236486319e-13,3.665458644e-14,1.583137355e-14,1.092070576e-14,3.207051034e-14,6.968471031e-15,7.172248272e-14,3.640573177e-14,1.654998427e-14,1.721312715e-14,1.852681215e-14,5.154722698e-14,4.133515164e-14
1.359375,1.305509558e-13,8.457373389e-15,1.295994626e-14,1.46855647e-13,2.239173513e-14,5.443908246e-14,1.906731604e-14,9.760086722e-14,3.702765475e-14,9.03890647e-14,2.506798422e-14,6.098225995e-15,1.132327114e-14,8.36992481e-15,1.799199981e-13,1.508276877e-13,3.987770384e-14,2.346490104e-14,6.435584923e-15,1.287441093e-13,3.698388864e-14,1.613984811e-14,1.055538625e-14,3.239846956e-14,7.130121154e-15,7.203485777e-14,3.66734121e-14,1.709435524e-14,1.642906299e-14,1.808324999e-14,5.218548917e-14,4.227834321e-14
1.3671875,1.282288177e-13,8.979536843e-15,1.351054971e-14,1.458405267e-13,2.201038915e-14,5.233629659e-14,1.937918023e-14,9.740873066e-14,3.725577837e-14,8.871351707e-14,2.526811601e-14,5.869205841e-15,1.086145812e-14,8.224255177e-15,1.788327859e-13,1.526444562e-13,3.932271318e-14,2.4532192e-14,6.25004875e-15,1.338150836e-13,3.725178848e-14,1.646329159e-14,1.018650432e-14,3.276792181e-14,7.306593723e-15,7.221672531e-14,3.691605621e-14,1.764002126e-14,1.575139838e-14,1.766509218e-14,5.285652717e-14,4.324845101e-14
1.375,1.260277057e-13,9.546347749e-15,1.418020145e-14,1.451879038e-13,2.177601299e-14,5.027631829e-14,1.975716597e-14,9.734403737e-14,3.748223599e-14,8.697916303e-14,2.560709712e-14,5.667826595e-15,1.045703831e-14,8.138950545e-15,1.777493779e-13,1.545808834e-13,3.889358894e-14,2.575489618e-14,6.101578161e-15,1.391631953e-13,3.742471993e-14,1.675640107e-14,9.816513936e-15,3.310092272e-14,7.510130721e-15,7.233912557e-14,3.727243932e-14,1.820988571e-14,1.511104825e-14,1.729316664e-14,5.350030821e-14,4.426682356e-14
1.3828125,1.238919001e-13,1.026159261e-14,1.485877518e-14,1.448401217e-13,2.158889368e-14,4.815396875e-14,2.018523671e-14,9.757254906e-14,3.774836511e-14,8.529525858e-14,2.598325975e-14,5.509169762e-15,1.010428648e-14,8.061030824e-15,1.766286151e-13,1.566404227e-13,3.857806157e-14,2.708840737e-14,6.019614171e-15,1.449229316e-13,3.743537472e-14,1.701022221e-14,9.455070038e-15,3.344717418e-14,7.742980068e-15,7.235243051e-14,3.766370386e-14,1.888666617e-14,1.454751349e-14,1.691001148e-14,5.418024786e-14,4.534751632e-14
1.390625,1.218540406e-13,1.102462513e-14,1.551240317e-14,1.442321026e-13,2.147577898e-14,4.612682901e-14,2.064226276e-14,9.797874959e-14,3.806884762e-14,8.362882375e-14,2.638303688e-14,5.37130258e-15,9.816469683e-15,8.080755284e-15,1.753678808e-13,1.587446685e-13,3.844097454e-14,2.854078059e-14,6.002836598e-15,1.507592066e-13,3.734899575e-14,1.727847277e-14,9.097200263e-15,3.386039447e-14,8.008817503e-15,7.222012266e-14,3.795032862e-14,1.959803635e-14,1.416284839e-14,1.650566789e-14,5.495229427e-14,4.646638596e-14
1.3984375,1.198703965e-13,1.185640135e-14,1.61871264e-14,1.43338745e-13,2.147658307e-14,4.424803729e-14,2.115942812e-14,9.841407415e-14,3.839637621e-14,8.193029023e-14,2.687169047e-14,5.249608259e-15,9.579853265e-15,8.231892674e-15,1.740541575e-13,1.609594475e-13,3.848000672e-14,3.010765078e-14,6.029202179e-15,1.565356491e-13,3.72096294e-14,1.756212276e-14,8.733842651e-15,3.429219805e-14,8.302194599e-15,7.201469109e-14,3.821896464e-14,2.029768557e-14,1.388910143e-14,1.612597137e-14,5.572921818e-14,4.761892565e-14
1.40625,1.179883998e-13,1.272507481e-14,1.685784736e-14,1.423868349e-13,2.157992564e-14,4.247251871e-14,2.172129741e-14,9.897062103e-14,3.872041934e-14,8.028748284e-14,2.739893922e-14,5.167561873e-15,9.406500857e-15,8.409589788e-15,1.727225185e-13,1.634074184e-13,3.871307026e-14,3.184744112e-14,6.123560903e-15,1.623418705e-13,3.69125229e-14,1.782115576e-14,8.400647712e-15,3.471851498e-14,8.615257291e-15,7.17812869e-14,3.866004889e-14,2.097626135e-14,1.366355828e-14,1.575898222e-14,5.646665194e-14,4.881806889e-14
1.4140625,1.16084569e-13,1.357667361e-14,1.755489031e-14,1.413988079e-13,2.172604405e-14,4.081363865e-14,2.231236433e-14,9.973811156e-14,3.906074316e-14,7.874431435e-14,2.796414592e-14,5.109251551e-15,9.304714314e-15,8.631291754e-15,1.71433137e-13,1.660936301e-13,3.912632032e-14,3.371983388e-14,6.28137895e-15,1.680978042e-13,3.649238675e-14,1.804944112e-14,8.119363707e-15,3.514750402e-14,8.961616215e-15,7.147185672e-14,3.92131546e-14,2.165211105e-14,1.356820078e-14,1.540000574e-14,5.721758096e-14,5.004270988e-14
1.421875,1.138506162e-13,1.452557086e-14,1.830578416e-14,1.404332742e-13,2.185280422e-14,3.919660304e-14,2.295332197e-14,1.006647103e-13,3.938792061e-14,7.721424888e-14,2.868519731e-14,5.058108308e-15,9.214355865e-15,8.953735702e-15,1.702498741e-13,1.688995193e-13,3.961423052e-14,3.559040801e-14,6.472036979e-15,1.738400562e-13,3.606750494e-14,1.824359233e-14,7.852285216e-15,3.560013182e-14,9.325811899e-15,7.107464647e-14,3.97525399e-14,2.240105578e-14,1.356350582e-14,1.506171253e-14,5.794588528e-14,5.129256507e-14
1.4296875,1.116117196e-13,1.549055625e-14,1.90435787e-14,1.395274916e-13,2.195876526e-14,3.759335717e-14,2.360451878e-14,1.016850702e-13,3.968268211e-14,7.566773441e-14,2.955391591e-14,5.026677522e-15,9.113491542e-15,9.314021485e-15,1.690839987e-13,1.717475146e-13,4.018576641e-14,3.753141327e-14,6.717960242e-15,1.796389478e-13,3.557475415e-14,1.84084221e-14,7.586230417e-15,3.6057183e-14,9.683682855e-15,7.065933123e-14,4.03873866e-14,2.31547263e-14,1.356512129e-14,1.471289116e-14,5.861287391e-14,5.25640336e-14
1.4375,1.097824676e-13,1.641152685e-14,1.975830359e-14,1.385447564e-13,2.209288625e-14,3.61637898e-14,2.426972493e-14,1.028375619e-13,3.997893616e-14,7.416471867e-14,3.044953136e-14,5.019843538e-15,9.070875174e-15,9.717808474e-15,1.679098251e-13,1.747163997e-13,4.099843604e-14,3.966511165e-14,7.055686193e-15,1.853076994e-13,3.49756812e-14,1.85677669e-14,7.345575028e-15,3.647507767e-14,1.006880794e-14,7.02264543e-14,4.112236388e-14,2.387111421e-14,1.368113052e-14,1.437106075e-14,5.930740323e-14,5.381555046e-14
1.4453125,1.079977565e-13,1.745216292e-14,2.047165688e-14,1.374312728e-13,2.231159583e-14,3.493939005e-14,2.500574098e-14,1.042680395e-13,4.029890704e-14,7.271514691e-14,3.138635975e-14,5.029411356e-15,9.094517134e-15,1.02180921e-14,1.668570515e-13,1.779629828e-13,4.209877489e-14,4.19295541e-14,7.486368164e-15,1.907990587e-13,3.431748266e-14,1.871394051e-14,7.130755017e-15,3.693089685e-14,1.049460184e-14,6.971159012e-14,4.181547374e-14,2.464605253e-14,1.395172073e-14,1.40718773e-14,6.005367628e-14,5.507676351e-14
1.453125,1.060053021e-13,1.85511162e-14,2.12112757e-14,1.36344071e-13,2.261613091e-14,3.376509106e-14,2.576156411e-14,1.059581377e-13,4.063889696e-14,7.12692557e-14,3.247722717e-14,5.057683823e-15,9.141666374e-15,1.080357338e-14,1.661025089e-13,1.816280936e-13,4.341637507e-14,4.429551301e-14,8.000797975e-15,1.962348906e-13,3.358311612e-14,1.883289087e-14,6.930429553e-15,3.746616132e-14,1.094237049e-14,6.915183465e-14,4.261222508e-14,2.542670307e-14,1.430850081e-14,1.3777105e-14,6.078180959e-14,5.639317488e-14
1.4609375,1.039902804e-13,1.962235094e-14,2.206781742e-14,1.354238347e-13,2.294794059e-14,3.264771338e-14,2.650499227e-14,1.077196045e-13,4.095875781e-14,6.980860131e-14,3.370777446e-14,5.122337564e-15,9.249820007e-15,1.146992982e-14,1.658058431e-13,1.858121924e-13,4.501790112e-14,4.686432761e-14,8.597287673e-15,2.01592523e-13,3.28114592e-14,1.892266051e-14,6.745629358e-15,3.798981353e-14,1.143948415e-14,6.863907214e-14,4.3701852e-14,2.615592444e-14,1.479100598e-14,1.347300454e-14,6.144931992e-14,5.771935207e-14
1.46875,1.019104865e-13,2.074831327e-14,2.303803881e-14,1.346591201e-13,2.330999781e-14,3.169656297e-14,2.729529622e-14,1.095644317e-13,4.11967719e-14,6.836708199e-14,3.500016137e-14,5.224393241e-15,9.450881189e-15,1.218429324e-14,1.659278733e-13,1.904775292e-13,4.697034664e-14,4.968668e-14,9.272019111e-15,2.068060235e-13,3.203519014e-14,1.895937745e-14,6.585179501e-15,3.84863669e-14,1.199498338e-14,6.817393422e-14,4.494686569e-14,2.688831121e-14,1.538428019e-14,1.317852682e-14,6.198794225e-14,5.901925962e-14
1.4765625,9.97631155e-14,2.192270127e-14,2.404162767e-14,1.339368056e-13,2.376886459e-14,3.087898151e-14,2.812088456e-14,1.116000038e-13,4.139416449e-14,6.699312905e-14,3.640939013e-14,5.363930479e-15,9.711207634e-15,1.292498733e-14,1.662477957e-13,1.954251561e-13,4.916614884e-14,5.2713214e-14,1.004592961e-14,2.117612428e-13,3.118013965e-14,1.89575565e-14,6.449590841e-15,3.896502567e-14,1.257799048e-14,6.768952568e-14,4.621459348e-14,2.763895614e-14,1.608368557e-14,1.288258296e-14,6.240963388e-14,6.028306772e-14
1.484375,9.772670988e-14,2.315567806e-14,2.512819599e-14,1.332034229e-13,2.432418119e-14,3.02064231e-14,2.893448372e-14,1.13792951e-13,4.162896833e-14,6.573166494e-14,3.800001064e-14,5.566460558e-15,1.003255439e-14,1.376941878e-14,1.667416525e-13,2.006277063e-13,5.16445151e-14,5.592080245e-14,1.096722809e-14,2.163922083e-13,3.027341066e-14,1.897252796e-14,6.321181906e-15,3.941629961e-14,1.319022944e-14,6.716064866e-14,4.759549338e-14,2.847697938e-14,1.702678054e-14,1.260147601e-14,6.282863779e-14,6.149424835e-14
1.4921875,9.570279425e-14,2.441864439e-14,2.637225387e-14,1.326056285e-13,2.490324359e-14,2.972211706e-14,2.974029269e-14,1.160683879e-13,4.182358524e-14,6.457713946e-14,3.971241574e-14,5.813312541e-15,1.042647195e-14,1.474112435e-14,1.676329495e-13,2.062476366e-13,5.445625881e-14,5.926763956e-14,1.199819182e-14,2.207879361e-13,2.940216963e-14,1.897781339e-14,6.202134365e-15,3.985752522e-14,1.382584398e-14,6.663751026e-14,4.915978234e-14,2.937740789e-14,1.814041912e-14,1.235794804e-14,6.316204352e-14,6.266715768e-14
1.5,9.34929301e-14,2.567993966e-14,2.773076322e-14,1.322247647e-13,2.545355496e-14,2.927705447e-14,3.056857465e-14,1.183242197e-13,4.189523465e-14,6.34642185e-14,4.151803543e-14,6.06656858e-15,1.087015205e-14,1.576555072e-14,1.689498593e-13,2.121472964e-13,5.73430372e-14,6.260990772e-14,1.303641826e-14,2.249165321e-13,2.854300728e-14,1.890953502e-14,6.115050495e-15,4.023234624e-14,1.445926133e-14,6.617595958e-14,5.086839609e-14,3.020085888e-14,1.925006002e-14,1.213427022e-14,6.325100535e-14,6.378860621e-14
1.5078125,9.122002403e-14,2.706987248e-14,2.913997586e-14,1.319006987e-13,2.602005447e-14,2.884917796e-14,3.144741492e-14,1.205444937e-13,4.192011425e-14,6.236887351e-14,4.343086907e-14,6.351665576e-15,1.137408974e-14,1.685785511e-14,1.705689732e-13,2.182574419e-13,6.032982081e-14,6.601426967e-14,1.411155659e-14,2.28809363e-13,2.766743268e-14,1.880338041e-14,6.05542163e-15,4.054653399e-14,1.511350356e-14,6.579492935e-14,5.273088352e-14,3.101132313e-14,2.045942179e-14,1.192029915e-14,6.316667622e-14,6.48325873e-14
1.515625,8.912935902e-14,2.85191443e-14,3.062446922e-14,1.315950804e-13,2.668814087e-14,2.860966251e-14,3.234537175e-14,1.228321826e-13,4.195037862e-14,6.135140912e-14,4.540568999e-14,6.688388249e-15,1.197486217e-14,1.812253706e-14,1.726108938e-13,2.24917956e-13,6.36910837e-14,6.97085521e-14,1.531291857e-14,2.325789236e-13,2.679977283e-14,1.872098169e-14,6.015818359e-15,4.086342518e-14,1.582139795e-14,6.55018779e-14,5.482396373e-14,3.187324391e-14,2.188672907e-14,1.172472502e-14,6.301924294e-14,6.581906538e-14
1.5234375,8.709672678e-14,2.990143261e-14,3.228483649e-14,1.314137972e-13,2.742266726e-14,2.85094185e-14,3.321275924e-14,1.251433238e-13,4.19244615e-14,6.047043791e-14,4.744572542e-14,7.066745983e-15,1.267295235e-14,1.952156925e-14,1.751167409e-13,2.320480843e-13,6.72628038e-14,7.357883687e-14,1.660664849e-14,2.360128243e-13,2.594943198e-14,1.863100232e-14,6.008756149e-15,4.111578395e-14,1.655225479e-14,6.529155715e-14,5.712289083e-14,3.27219999e-14,2.348742421e-14,1.156283937e-14,6.274866214e-14,6.674419756e-14
1.53125,8.481211251e-14,3.135131425e-14,3.413969068e-14,1.314050823e-13,2.815637484e-14,2.846431155e-14,3.403734568e-14,1.274134669e-13,4.178683807e-14,5.97037815e-14,4.959068173e-14,7.494554129e-15,1.344243335e-14,2.092050898e-14,1.779348417e-13,2.394155594e-13,7.095718688e-14,7.74904231e-14,1.796623501e-14,2.391020824e-13,2.510823869e-14,1.84867897e-14,6.034954134e-15,4.131225977e-14,1.725784427e-14,6.514571128e-14,5.954069461e-14,3.359436612e-14,2.521048661e-14,1.1438482e-14,6.224261873e-14,6.76060148e-14
1.5390625,8.233796944e-14,3.286826357e-14,3.606393156e-14,1.315894048e-13,2.893848091e-14,2.853692774e-14,3.480363852e-14,1.29714108e-13,4.156941789e-14,5.899492149e-14,5.180455613e-14,7.971647131e-15,1.429181275e-14,2.236629174e-14,1.81144791e-13,2.472464294e-13,7.493622342e-14,8.159011756e-14,1.942767785e-14,2.420067502e-13,2.428665337e-14,1.832125091e-14,6.087692244e-15,4.153382806e-14,1.795669968e-14,6.503833236e-14,6.211990287e-14,3.448638798e-14,2.705268529e-14,1.132062698e-14,6.157785114e-14,6.841802561e-14
1.546875,7.991964827e-14,3.441628747e-14,3.800550062e-14,1.317064809e-13,2.980941741e-14,2.867909409e-14,3.554195474e-14,1.320014175e-13,4.135500972e-14,5.836649462e-14,5.4094899e-14,8.511136247e-15,1.523532662e-14,2.396437101e-14,1.846705641e-13,2.552502925e-13,7.902689134e-14,8.583013105e-14,2.097349986e-14,2.442406431e-13,2.350317761e-14,1.818510479e-14,6.166269105e-15,4.171518463e-14,1.869537121e-14,6.496078383e-14,6.491213128e-14,3.535502899e-14,2.907638841e-14,1.120683687e-14,6.095293313e-14,6.913350603e-14
1.5546875,7.763827539e-14,3.610929632e-14,4.009450626e-14,1.316172451e-13,3.080827574e-14,2.888278528e-14,3.627422433e-14,1.341623237e-13,4.111934288e-14,5.784651556e-14,5.650263135e-14,9.152571537e-15,1.625927083e-14,2.572257492e-14,1.882951552e-13,2.630683059e-13,8.323497619e-14,9.0203765e-14,2.262583687e-14,2.45628869e-13,2.275963977e-14,1.8077553e-14,6.273966905e-15,4.179253511e-14,1.947074777e-14,6.499923713e-14,6.791035818e-14,3.626158556e-14,3.131769481e-14,1.113635709e-14,6.028615299e-14,6.974074355e-14
1.5625,7.542417751e-14,3.78284691e-14,4.240785371e-14,1.31864739e-13,3.198565453e-14,2.921831023e-14,3.690658585e-14,1.362081351e-13,4.075653036e-14,5.733436569e-14,5.894998487e-14,9.879919678e-15,1.740459384e-14,2.768188457e-14,1.923417752e-13,2.713139018e-13,8.783442565e-14,9.496540011e-14,2.442941099e-14,2.46895932e-13,2.206407934e-14,1.796287748e-14,6.414598632e-15,4.177205661e-14,2.026646982e-14,6.52387398e-14,7.12007915e-14,3.714377365e-14,3.374574367e-14,1.109227857e-14,5.939344204e-14,7.027140408e-14
1.5703125,7.309495358e-14,3.947896321e-14,4.483401453e-14,1.326307375e-13,3.321416068e-14,2.957969442e-14,3.741187239e-14,1.381894571e-13,4.028893525e-14,5.677209734e-14,6.140002631e-14,1.064501406e-14,1.867340195e-14,2.981047786e-14,1.969581812e-13,2.801313736e-13,9.265674103e-14,9.995659941e-14,2.632136328e-14,2.481546947e-13,2.140042464e-14,1.781534291e-14,6.577402793e-15,4.168530166e-14,2.106936947e-14,6.559993409e-14,7.477950549e-14,3.794740206e-14,3.63197804e-14,1.104448531e-14,5.842371722e-14,7.067766424e-14
1.578125,7.071375067e-14,4.126594498e-14,4.731283119e-14,1.334710893e-13,3.44189265e-14,2.993625319e-14,3.786780885e-14,1.400999222e-13,3.979399552e-14,5.627184939e-14,6.395498355e-14,1.147169546e-14,1.996202411e-14,3.203351237e-14,2.016921058e-13,2.888642316e-13,9.750264211e-14,1.048678708e-13,2.830571572e-14,2.487861397e-13,2.073676578e-14,1.766884478e-14,6.758278409e-15,4.15601736e-14,2.184615611e-14,6.598801378e-14,7.85035741e-14,3.887006672e-14,3.900808445e-14,1.103635438e-14,5.754193794e-14,7.092412849e-14
1.5859375,6.857063915e-14,4.32288505e-14,4.989563769e-14,1.344312128e-13,3.578156346e-14,3.041093486e-14,3.82679615e-14,1.418791704e-13,3.925993259e-14,5.587635808e-14,6.662757511e-14,1.239829122e-14,2.130450726e-14,3.444332284e-14,2.064622331e-13,2.974770849e-13,1.024695719e-13,1.098610703e-13,3.045741137e-14,2.486991891e-13,2.01170694e-14,1.757516494e-14,6.968002561e-15,4.134092498e-14,2.26115217e-14,6.643340148e-14,8.239807298e-14,3.994322357e-14,4.19194536e-14,1.108050329e-14,5.670644795e-14,7.103944008e-14
1.59375,6.661190068e-14,4.520997767e-14,5.25393866e-14,1.356366555e-13,3.734928315e-14,3.097100554e-14,3.859969672e-14,1.435183342e-13,3.866879282e-14,5.547916003e-14,6.932222673e-14,1.338577107e-14,2.278912503e-14,3.708117905e-14,2.114884373e-13,3.061876486e-13,1.075791538e-13,1.150716192e-13,3.271870159e-14,2.481777381e-13,1.956840074e-14,1.751476346e-14,7.194956978e-15,4.10326839e-14,2.3418771e-14,6.696564773e-14,8.648523519e-14,4.094581435e-14,4.514428912e-14,1.112860491e-14,5.591406506e-14,7.102696087e-14
1.6015625,6.465295461e-14,4.723831121e-14,5.525386848e-14,1.36878821e-13,3.902404642e-14,3.154633805e-14,3.889159798e-14,1.450241352e-13,3.801108867e-14,5.506296943e-14,7.202104492e-14,1.441417387e-14,2.434897212e-14,3.990067867e-14,2.166875473e-13,3.148188214e-13,1.127866061e-13,1.203713716e-13,3.504733183e-14,2.472810198e-13,1.906286955e-14,1.746049156e-14,7.427402274e-15,4.068468507e-14,2.425193454e-14,6.757973264e-14,9.066539587e-14,4.190607093e-14,4.85642974e-14,1.11893986e-14,5.516071904e-14,7.088994627e-14
1.609375,6.277660119e-14,4.941320125e-14,5.815228742e-14,1.382169452e-13,4.084965897e-14,3.214987915e-14,3.910033038e-14,1.462849616e-13,3.7279234e-14,5.4697141e-14,7.475101689e-14,1.552535409e-14,2.597657479e-14,4.293953456e-14,2.219415956e-13,3.232236783e-13,1.179868774e-13,1.256905225e-13,3.747949138e-14,2.459737751e-13,1.864393804e-14,1.743923237e-14,7.670605981e-15,4.02232884e-14,2.506511118e-14,6.82975131e-14,9.504240512e-14,4.295715107e-14,5.218565981e-14,1.129052927e-14,5.441876316e-14,7.064377018e-14
1.6171875,6.107240281e-14,5.16258764e-14,6.115779562e-14,1.396913203e-13,4.282676975e-14,3.27644533e-14,3.92071899e-14,1.472636314e-13,3.651786286e-14,5.437347701e-14,7.751016757e-14,1.670431114e-14,2.770420829e-14,4.617072814e-14,2.272826721e-13,3.31412026e-13,1.230995948e-13,1.310091223e-13,3.996919754e-14,2.442551539e-13,1.831932654e-14,1.745841869e-14,7.920164951e-15,3.963051842e-14,2.586398707e-14,6.913585138e-14,9.969339909e-14,4.399059078e-14,5.606727683e-14,1.141386153e-14,5.370822575e-14,7.027726104e-14
1.625,5.953673266e-14,5.376695962e-14,6.421478702e-14,1.413263273e-13,4.495697256e-14,3.344634842e-14,3.925957975e-14,1.4804585e-13,3.572993921e-14,5.410671464e-14,8.030673692e-14,1.792413664e-14,2.949029531e-14,4.96118652e-14,2.32774439e-13,3.394862442e-13,1.282124714e-13,1.363661758e-13,4.249772453e-14,2.421766454e-13,1.802117058e-14,1.751107395e-14,8.189233124e-15,3.895098977e-14,2.666035777e-14,7.005630839e-14,1.044462856e-13,4.499087011e-14,6.009776988e-14,1.15543667e-14,5.297964911e-14,6.975797207e-14
1.6328125,5.819888776e-14,5.595567621e-14,6.745170334e-14,1.432740554e-13,4.742020429e-14,3.427338019e-14,3.924425897e-14,1.486106577e-13,3.487175435e-14,5.394415176e-14,8.312320984e-14,1.9230966e-14,3.139998191e-14,5.341889463e-14,2.38376429e-13,3.475148106e-13,1.333523729e-13,1.418639944e-13,4.512855174e-14,2.398055063e-13,1.776652686e-14,1.761626218e-14,8.490455662e-15,3.816910366e-14,2.744978257e-14,7.098197115e-14,1.09318038e-13,4.606573966e-14,6.432071032e-14,1.171218178e-14,5.222776005e-14,6.905933255e-14
1.640625,5.709673138e-14,5.828398667e-14,7.082292002e-14,1.451377429e-13,5.021405598e-14,3.513010955e-14,3.91257588e-14,1.489130411e-13,3.398609259e-14,5.378671754e-14,8.593110525e-14,2.063851008e-14,3.34529265e-14,5.756649325e-14,2.439511781e-13,3.553907492e-13,1.384817676e-13,1.475129459e-13,4.785438514e-14,2.370349959e-13,1.758019763e-14,1.777776855e-14,8.79434412e-15,3.732253833e-14,2.824886112e-14,7.192723376e-14,1.144635889e-13,4.710846056e-14,6.878972945e-14,1.187685675e-14,5.15836261e-14,6.822133989e-14
1.6484375,5.620295571e-14,6.068543349e-14,7.429747933e-14,1.466104182e-13,5.315067641e-14,3.58968156e-14,3.891023734e-14,1.489888401e-13,3.313015376e-14,5.356753874e-14,8.880248391e-14,2.210932903e-14,3.552684265e-14,6.191811552e-14,2.494756403e-13,3.629381119e-13,1.435738131e-13,1.532466741e-13,5.061074159e-14,2.338147233e-13,1.743223633e-14,1.798933866e-14,9.092794214e-15,3.644697958e-14,2.905918881e-14,7.300049848e-14,1.197970639e-13,4.80648906e-14,7.337091905e-14,1.207082974e-14,5.106170626e-14,6.732221756e-14
1.65625,5.546355178e-14,6.317544859e-14,7.80420217e-14,1.48125442e-13,5.622421105e-14,3.665314737e-14,3.860911718e-14,1.48889598e-13,3.228379685e-14,5.341446557e-14,9.180890698e-14,2.362956779e-14,3.76217612e-14,6.646358619e-14,2.550275518e-13,3.701800776e-13,1.486208635e-13,1.589967801e-13,5.33629438e-14,2.305446487e-13,1.733798232e-14,1.825235607e-14,9.403092345e-15,3.553116666e-14,2.984114672e-14,7.421347109e-14,1.252389554e-13,4.909475382e-14,7.808779512e-14,1.231998972e-14,5.053711132e-14,6.639739695e-14
1.6640625,5.49141917e-14,6.583522596e-14,8.202193137e-14,1.498136459e-13,5.947932812e-14,3.74875592e-14,3.825500913e-14,1.486361982e-13,3.143912661e-14,5.33660225e-14,9.486859764e-14,2.520815776e-14,3.978947428e-14,7.124804335e-14,2.607000298e-13,3.774430398e-13,1.536849333e-13,1.647384214e-13,5.612539137e-14,2.274522067e-13,1.730778117e-14,1.856375347e-14,9.715686249e-15,3.458601466e-14,3.059530423e-14,7.550136501e-14,1.308677053e-13,5.021455176e-14,8.301815187e-14,1.261757607e-14,5.000697602e-14,6.544331883e-14
1.671875,5.460163083e-14,6.854862712e-14,8.613659173e-14,1.514055715e-13,6.298253478e-14,3.839499811e-14,3.787556789e-14,1.481587997e-13,3.062164063e-14,5.332137787e-14,9.784371553e-14,2.687175263e-14,4.202855308e-14,7.638512471e-14,2.664754475e-13,3.846830086e-13,1.586056039e-13,1.705047289e-13,5.891016484e-14,2.241251045e-13,1.731373785e-14,1.893528227e-14,1.002879306e-14,3.358641484e-14,3.136933752e-14,7.682676546e-14,1.366003271e-13,5.127799566e-14,8.810396869e-14,1.293242176e-14,4.962146376e-14,6.442274495e-14
1.6796875,5.451805961e-14,7.111042531e-14,9.042302451e-14,1.528670458e-13,6.684339761e-14,3.934286074e-14,3.744045352e-14,1.474583595e-13,2.985075076e-14,5.325936487e-14,1.006505292e-13,2.861913314e-14,4.434931285e-14,8.194961324e-14,2.721637021e-13,3.914297844e-13,1.631832335e-13,1.762839395e-13,6.165935809e-14,2.2045056e-13,1.736959244e-14,1.937261788e-14,1.034372083e-14,3.254122046e-14,3.216720472e-14,7.815628443e-14,1.422277091e-13,5.220557116e-14,9.330425065e-14,1.323289555e-14,4.94729354e-14,6.334034381e-14
1.6875,5.465220269e-14,7.361066862e-14,9.484764115e-14,1.54247736e-13,7.092902414e-14,4.027248253e-14,3.694127248e-14,1.466232976e-13,2.913286524e-14,5.320367857e-14,1.033223014e-13,3.042505774e-14,4.670648888e-14,8.782013017e-14,2.777509107e-13,3.97768153e-13,1.676079602e-13,1.820439962e-13,6.433815327e-14,2.167574527e-13,1.749469648e-14,1.98585767e-14,1.064928474e-14,3.149727954e-14,3.296494196e-14,7.951160975e-14,1.477568185e-13,5.308511983e-14,9.861608167e-14,1.353623822e-14,4.950859522e-14,6.225044299e-14
1.6953125,5.493395637e-14,7.626687479e-14,9.946747369e-14,1.556620259e-13,7.515241511e-14,4.120730336e-14,3.642636323e-14,1.455636604e-13,2.842971756e-14,5.315485382e-14,1.060125885e-13,3.230484767e-14,4.909070327e-14,9.392445001e-14,2.833415325e-13,4.039810663e-13,1.72037943e-13,1.878454095e-13,6.698927492e-14,2.129667711e-13,1.765105236e-14,2.039350548e-14,1.096268719e-14,3.042032856e-14,3.375892818e-14,8.090556405e-14,1.533512452e-13,5.408695238e-14,1.041093122e-13,1.387535875e-14,4.964086278e-14,6.108558968e-14
1.703125,5.532433582e-14,7.90178094e-14,1.04334829e-13,1.571140829e-13,7.964481964e-14,4.22194235e-14,3.591516473e-14,1.442314939e-13,2.772261349e-14,5.307032602e-14,1.087492025e-13,3.423871329e-14,5.155087047e-14,1.003214346e-13,2.888937275e-13,4.099913832e-13,1.764303939e-13,1.937333462e-13,6.961890196e-14,2.089658104e-13,1.780808482e-14,2.098032728e-14,1.128900643e-14,2.93172092e-14,3.455641566e-14,8.228189649e-14,1.590472406e-13,5.515847364e-14,1.098187269e-13,1.423508684e-14,4.983303451e-14,5.977966231e-14
1.7109375,5.588385763e-14,8.174743764e-14,1.092577854e-13,1.583848492e-13,8.433135979e-14,4.322696255e-14,3.540694238e-14,1.42759893e-13,2.707023257e-14,5.287872153e-14,1.113963869e-13,3.61891409e-14,5.405756633e-14,1.070226467e-13,2.944494395e-13,4.158305763e-13,1.807570623e-13,1.996648774e-13,7.221431439e-14,2.049085121e-13,1.797578474e-14,2.161344387e-14,1.159927343e-14,2.825282934e-14,3.538461803e-14,8.367324733e-14,1.647347307e-13,5.611688641e-14,1.15653727e-13,1.459519291e-14,5.016188816e-14,5.843145439e-14
1.71875,5.664087986e-14,8.448725975e-14,1.142421545e-13,1.59528579e-13,8.918973168e-14,4.419275038e-14,3.490888786e-14,1.411034638e-13,2.648546672e-14,5.264819973e-14,1.13907626e-13,3.821623125e-14,5.661203605e-14,1.140644233e-13,2.999598204e-13,4.212842972e-13,1.84845782e-13,2.055962302e-13,7.479648672e-14,2.006921891e-13,1.816156973e-14,2.230270545e-14,1.18928448e-14,2.720628729e-14,3.623989925e-14,8.509373373e-14,1.703040544e-13,5.702335807e-14,1.215943717e-13,1.495492498e-14,5.076674642e-14,5.706241413e-14
1.7265625,5.761865602e-14,8.718361893e-14,1.193906298e-13,1.606231556e-13,9.437167744e-14,4.521451258e-14,3.438354287e-14,1.391367585e-13,2.59233017e-14,5.250034126e-14,1.162251285e-13,4.033756662e-14,5.921299243e-14,1.214437206e-13,3.051109086e-13,4.259046848e-13,1.885274685e-13,2.114247521e-13,7.731755911e-14,1.961990585e-13,1.838908825e-14,2.304261418e-14,1.217786084e-14,2.613950332e-14,3.704810973e-14,8.642521517e-14,1.757446418e-13,5.796011048e-14,1.275874729e-13,1.530350755e-14,5.162371019e-14,5.560699365e-14
1.734375,5.886992061e-14,8.976650447e-14,1.244793424e-13,1.61474477e-13,9.979269807e-14,4.623048685e-14,3.379228375e-14,1.368725946e-13,2.540210702e-14,5.23967997e-14,1.182544108e-13,4.246612538e-14,6.176216526e-14,1.290173338e-13,3.097369217e-13,4.297331257e-13,1.91809539e-13,2.17068079e-13,7.969650831e-14,1.915731288e-13,1.865616528e-14,2.382634462e-14,1.2443429e-14,2.507376915e-14,3.776902506e-14,8.764459768e-14,1.810673193e-13,5.884149452e-14,1.334963797e-13,1.563267305e-14,5.26342591e-14,5.410005572e-14
1.7421875,6.041493938e-14,9.224556272e-14,1.294472102e-13,1.621229735e-13,1.054444766e-13,4.716383884e-14,3.316027784e-14,1.343516358e-13,2.495964739e-14,5.226970326e-14,1.201247573e-13,4.457071013e-14,6.423655168e-14,1.367591713e-13,3.138593405e-13,4.328889131e-13,1.947244351e-13,2.226047698e-13,8.194846237e-14,1.870216436e-13,1.889439478e-14,2.466881692e-14,1.269089538e-14,2.403227202e-14,3.842765789e-14,8.879924023e-14,1.861840369e-13,5.968049728e-14,1.392991313e-13,1.594765329e-14,5.383317395e-14,5.255672385e-14
1.75,6.218875278e-14,9.460465151e-14,1.345069788e-13,1.626689023e-13,1.114218303e-13,4.80897723e-14,3.251916116e-14,1.3165914e-13,2.459898761e-14,5.210036373e-14,1.219594609e-13,4.667525724e-14,6.666953177e-14,1.447485298e-13,3.175457264e-13,4.353717345e-13,1.9730164e-13,2.279880629e-13,8.409530157e-14,1.826874598e-13,1.911343308e-14,2.555379341e-14,1.29255438e-14,2.301537413e-14,3.903467514e-14,8.987963572e-14,1.910753913e-13,6.051508635e-14,1.449867681e-13,1.626018665e-14,5.521868236e-14,5.09643092e-14
1.7578125,6.411498666e-14,9.695451912e-14,1.396826447e-13,1.630102671e-13,1.176277135e-13,4.904857662e-14,3.187007876e-14,1.2877881e-13,2.432812121e-14,5.187488397e-14,1.236817855e-13,4.884135625e-14,6.91162029e-14,1.530307339e-13,3.208203484e-13,4.372264528e-13,1.995302991e-13,2.331406604e-13,8.610915991e-14,1.783176002e-13,1.93771635e-14,2.647948401e-14,1.314931751e-14,2.203651471e-14,3.957958399e-14,9.0866727e-14,1.958531262e-13,6.131991511e-14,1.505915559e-13,1.657803853e-14,5.679904892e-14,4.934783622e-14
1.765625,6.627576402e-14,9.941451886e-14,1.449447211e-13,1.631885909e-13,1.240777898e-13,5.008173884e-14,3.118525214e-14,1.255813315e-13,2.413926931e-14,5.163722577e-14,1.252690358e-13,5.113043367e-14,7.164770158e-14,1.616518782e-13,3.235927845e-13,4.383626352e-13,2.014831203e-13,2.382756896e-13,8.799665813e-14,1.736783308e-13,1.966258799e-14,2.747352239e-14,1.335580954e-14,2.111475804e-14,4.004964375e-14,9.169660552e-14,2.005111537e-13,6.215604472e-14,1.561984263e-13,1.68920513e-14,5.871140812e-14,4.768291896e-14
1.7734375,6.867079953e-14,1.017188605e-13,1.503029581e-13,1.63241559e-13,1.307415179e-13,5.117536547e-14,3.043792466e-14,1.222043889e-13,2.402894611e-14,5.13820266e-14,1.267062401e-13,5.345585994e-14,7.412941015e-14,1.704791391e-13,3.260172053e-13,4.3898667e-13,2.032818061e-13,2.434038176e-13,8.97460456e-14,1.692207288e-13,1.994740283e-14,2.848979204e-14,1.352076808e-14,2.023467184e-14,4.045266643e-14,9.239862533e-14,2.049319627e-13,6.297954968e-14,1.616769821e-13,1.720320171e-14,6.08653781e-14,4.59977054e-14
1.78125,7.124008986e-14,1.036765012e-13,1.556929976e-13,1.631235588e-13,1.375991544e-13,5.22269662e-14,2.96773887e-14,1.18822184e-13,2.404149477e-14,5.103938077e-14,1.279621476e-13,5.577049083e-14,7.646980072e-14,1.795122931e-13,3.283218835e-13,4.393205959e-13,2.048083698e-13,2.484326324e-13,9.133359463e-14,1.652124466e-13,2.023790245e-14,2.951410378e-14,1.364712753e-14,1.940035848e-14,4.082721754e-14,9.310464287e-14,2.090408237e-13,6.36914953e-14,1.66898207e-13,1.753097197e-14,6.312736426e-14,4.43790331e-14
1.7890625,7.419459013e-14,1.055661685e-13,1.610834755e-13,1.628282746e-13,1.449309769e-13,5.330188449e-14,2.89670161e-14,1.153175372e-13,2.418790295e-14,5.064553809e-14,1.291233338e-13,5.817438335e-14,7.884388669e-14,1.890635111e-13,3.302942941e-13,4.390328362e-13,2.060229452e-13,2.536616399e-13,9.27761841e-14,1.612839065e-13,2.05442077e-14,3.061776466e-14,1.375453801e-14,1.863060922e-14,4.118568546e-14,9.373246851e-14,2.128665402e-13,6.438793285e-14,1.719658188e-13,1.786749154e-14,6.574405732e-14,4.279517188e-14
1.796875,7.743331624e-14,1.073341809e-13,1.664130963e-13,1.621822627e-13,1.525235434e-13,5.445528927e-14,2.828814087e-14,1.116684396e-13,2.442453065e-14,5.021342719e-14,1.301710278e-13,6.057311804e-14,8.120509096e-14,1.988729323e-13,3.317762627e-13,4.381519818e-13,2.071030312e-13,2.5900563e-13,9.399922257e-14,1.573524421e-13,2.089526066e-14,3.175662495e-14,1.382669304e-14,1.790260193e-14,4.152106301e-14,9.415914213e-14,2.164986577e-13,6.502091268e-14,1.76907439e-13,1.818422183e-14,6.874079017e-14,4.120828685e-14
1.8046875,8.063515642e-14,1.087033661e-13,1.716682852e-13,1.612606571e-13,1.60023025e-13,5.563118004e-14,2.763201419e-14,1.080103344e-13,2.475779366e-14,4.967408102e-14,1.310354991e-13,6.285063052e-14,8.339699297e-14,2.085566073e-13,3.329929432e-13,4.370937676e-13,2.080509409e-13,2.640675961e-13,9.496105038e-14,1.536348854e-13,2.125368805e-14,3.287391668e-14,1.386357567e-14,1.723736888e-14,4.183884463e-14,9.445173991e-14,2.198102203e-13,6.548003744e-14,1.816455028e-13,1.848164782e-14,7.184258392e-14,3.96610177e-14
