"Time","Fp1","AF3","F7","F3","FC1","FC5","T7","C3","CP1","CP5","P7","P3","Pz","PO3","O1","Oz","O2","PO4","P4","P8","CP6","CP2","C4","T8","FC6","FC2","F4","F8","AF4","Fp2","Fz","Cz"
0.0078125,1.295972173e-14,7.105305134e-14,8.162373511e-15,1.476202189e-14,1.745526732e-14,7.04954669e-15,1.450074392e-15,2.638796844e-14,7.532375906e-15,2.715557859e-15,4.260398749e-15,7.731152651e-16,3.561413899e-15,4.050047628e-15,2.763114009e-14,7.993827715e-14,4.18345836e-14,3.207103976e-15,1.236128736e-15,5.1044805e-14,2.124076973e-15,5.915817239e-16,7.467121433e-15,3.08628198e-14,1.35399345e-15,3.270763153e-15,3.534305365e-14,4.105154432e-15,1.509403377e-15,3.987253089e-15,1.684815063e-15,5.01437879e-15
0.015625,1.47275465e-14,8.213835562e-14,9.98229767e-15,2.439003041e-14,2.066496034e-14,1.071676734e-14,1.656790316e-15,3.1209054e-14,8.470158502e-15,2.994776841e-15,5.162444019e-15,9.308620475e-16,4.397074194e-15,5.141969753e-15,3.323546245e-14,8.874750557e-14,4.515605115e-14,4.801298959e-15,1.277841706e-15,5.942368079e-14,3.3164843e-15,1.023597703e-15,9.607839379e-15,3.36217693e-14,1.741132366e-15,3.272814874e-15,3.60008372e-14,4.311258467e-15,2.091333501e-15,4.244269278e-15,1.599743172e-15,5.608687314e-15
0.0234375,1.60833796e-14,8.798185777e-14,1.103756019e-14,4.054293486e-14,2.281061828e-14,1.589601929e-14,1.822578061e-15,3.418870992e-14,8.687538049e-15,3.198725365e-15,6.078227891e-15,1.025659731e-15,5.123030514e-15,6.236776126e-15,3.80669914e-14,9.192247479e-14,4.62160429e-14,6.696865614e-15,1.334089967e-15,6.424660702e-14,4.843490003e-15,1.67662527e-15,1.177233628e-14,3.336926494e-14,2.055643804e-15,3.270814793e-15,3.411890263e-14,4.424522556e-15,2.64442235e-15,4.612702164e-15,1.503477251e-15,6.090192914e-15
0.03125,1.692632286e-14,8.749557244e-14,1.157816455e-14,6.417419925e-14,2.380782646e-14,2.274259012e-14,2.075181343e-15,3.500032508e-14,8.220169163e-15,3.437096347e-15,7.114633696e-15,1.016113549e-15,5.794041435e-15,7.257113027e-15,4.115986763e-14,8.862925289e-14,4.512707115e-14,8.775467277e-15,1.428069742e-15,6.4567892e-14,6.619808958e-15,2.547783619e-15,1.393125023e-14,3.027518819e-14,2.307305577e-15,3.485533228e-15,2.99986972e-14,4.555596953e-15,3.334714358e-15,5.32824017e-15,1.515270908e-15,6.527950847e-15
0.0390625,1.773588203e-14,8.129003604e-14,1.199018547e-14,9.603450429e-14,2.390521241e-14,3.14386124e-14,2.489046711e-15,3.404963833e-14,7.454226516e-15,3.662590245e-15,8.084507514e-15,1.033458494e-15,6.569891539e-15,8.245079965e-15,4.235287474e-14,8.063627243e-14,4.2532072e-14,1.06737913e-14,1.572136153e-15,6.082332106e-14,8.551205643e-15,3.693687366e-15,1.597050799e-14,2.591427635e-14,2.436889327e-15,4.165327172e-15,2.499910471e-14,4.830374214e-15,4.470034824e-15,6.421313196e-15,1.681306933e-15,7.081719437e-15
0.046875,1.870654367e-14,7.063698077e-14,1.209474761e-14,1.335353396e-13,2.295088428e-14,4.057260353e-14,2.973053337e-15,3.16043388e-14,6.441207835e-15,4.072202439e-15,8.742094517e-15,1.250804279e-15,7.380417776e-15,9.016711963e-15,4.150120624e-14,6.951869018e-14,3.882835113e-14,1.21572974e-14,1.81741644e-15,5.37802967e-14,1.048759278e-14,4.822910465e-15,1.76863881e-14,2.117259538e-14,2.417592107e-15,5.465846491e-15,2.029319468e-14,5.243693324e-15,6.275264694e-15,7.899777354e-15,2.086611555e-15,7.767240184e-15
0.0546875,2.006795477e-14,5.795346754e-14,1.235102706e-14,1.729695302e-13,2.161040161e-14,4.920239195e-14,3.527159071e-15,2.789006407e-14,5.379590295e-15,4.677834284e-15,8.62397177e-15,1.822388856e-15,8.428336622e-15,1.016592315e-14,3.888420938e-14,5.710564042e-14,3.439296305e-14,1.311909993e-14,2.176378283e-15,4.450564428e-14,1.227796075e-14,5.806641376e-15,1.888000041e-14,1.697883695e-14,2.299450082e-15,7.516457772e-15,1.72348998e-14,5.653494587e-15,9.005769748e-15,9.559185319e-15,3.136180204e-15,8.636505205e-15
0.0625,2.177768154e-14,4.545851513e-14,1.38633114e-14,2.073258641e-13,2.027783856e-14,5.57806516e-14,4.14627894e-15,2.350888813e-14,4.546504978e-15,5.504707571e-15,8.005859746e-15,3.041035724e-15,9.800340901e-15,1.240593454e-14,3.507671108e-14,4.528873347e-14,2.929977988e-14,1.359734071e-14,2.735375057e-15,3.441595143e-14,1.349090452e-14,6.476097143e-15,1.932792586e-14,1.424307621e-14,2.194609662e-15,1.015536763e-14,1.683690248e-14,6.021806778e-15,1.299292041e-14,1.123709561e-14,5.179389397e-15,9.435105433e-15
0.0703125,2.425029108e-14,3.512901909e-14,1.744210008e-14,2.318001002e-13,2.020216761e-14,5.932845183e-14,4.74795663e-15,1.91541398e-14,4.221902323e-15,6.843184991e-15,7.034713601e-15,5.252873244e-15,1.173789755e-14,1.70718581e-14,3.158500238e-14,3.638412561e-14,2.4544508e-14,1.40362665e-14,3.695137275e-15,2.539916606e-14,1.415372816e-14,6.784808973e-15,1.885095599e-14,1.318196153e-14,2.258430851e-15,1.328417651e-14,2.008948906e-14,6.37751534e-15,1.84993987e-14,1.287962028e-14,8.672084463e-15,1.004610277e-14
0.078125,2.775571281e-14,2.74730602e-14,2.339618607e-14,2.427996792e-13,2.272225149e-14,5.92484523e-14,5.359841932e-15,1.52085911e-14,4.546721293e-15,8.85016472e-15,5.956778304e-15,8.790818862e-15,1.448181902e-14,2.549086088e-14,2.964971953e-14,3.147277831e-14,2.148094877e-14,1.527685848e-14,5.304076576e-15,1.830748948e-14,1.421897601e-14,6.760688193e-15,1.748961922e-14,1.329998651e-14,2.678559472e-15,1.639687336e-14,2.741605075e-14,7.025405356e-15,2.563276621e-14,1.431371817e-14,1.39871673e-14,1.015625489e-14
0.0859375,3.278665438e-14,2.250191478e-14,3.188510521e-14,2.386713416e-13,2.903772786e-14,5.630980053e-14,5.880438167e-15,1.172467723e-14,5.881118355e-15,1.162951408e-14,5.094345316e-15,1.385286339e-14,1.801783101e-14,3.852890798e-14,2.990932214e-14,3.067607422e-14,2.148954329e-14,1.811170145e-14,7.855984124e-15,1.340627603e-14,1.374206611e-14,6.882344998e-15,1.560632356e-14,1.410913247e-14,3.54891834e-15,1.93546954e-14,3.871721139e-14,8.397429578e-15,3.424522749e-14,1.545715906e-14,2.136336994e-14,9.754621724e-15
0.09375,3.963878873e-14,1.968483003e-14,4.201965473e-14,2.218640782e-13,4.036078369e-14,5.20781865e-14,6.392169226e-15,8.856128821e-15,8.622371607e-15,1.489265963e-14,4.943934858e-15,2.039754927e-14,2.247339459e-14,5.644551947e-14,3.31372241e-14,3.423807786e-14,2.560554712e-14,2.301530917e-14,1.15525122e-14,1.144413818e-14,1.265653468e-14,7.685638738e-15,1.370191896e-14,1.526922304e-14,4.919229812e-15,2.184793402e-14,5.323625542e-14,1.087287308e-14,4.387733299e-14,1.60917822e-14,3.059263333e-14,8.898370932e-15
0.1015625,4.814083947e-14,1.801945469e-14,5.219967968e-14,1.985099647e-13,5.641788024e-14,4.877477596e-14,6.855714943e-15,6.65073358e-15,1.290524513e-14,1.859558175e-14,5.730146976e-15,2.786839291e-14,2.756244382e-14,7.774554863e-14,3.939192496e-14,4.194685256e-14,3.454213676e-14,2.975278428e-14,1.617109691e-14,1.266676907e-14,1.122022869e-14,9.575482694e-15,1.218381429e-14,1.619149932e-14,6.68055366e-15,2.374460702e-14,6.940382853e-14,1.461924891e-14,5.366769114e-14,1.621658408e-14,4.065236205e-14,7.843779163e-15
0.109375,5.804499874e-14,1.712996163e-14,6.097626912e-14,1.748980385e-13,7.647326739e-14,4.84056303e-14,7.236830226e-15,5.140071647e-15,1.888891926e-14,2.239472261e-14,7.561796976e-15,3.551331644e-14,3.276502469e-14,1.002398476e-13,4.699089587e-14,5.162106869e-14,4.743898284e-14,3.752552766e-14,2.128467482e-14,1.709613506e-14,9.641986327e-15,1.290580591e-14,1.143763096e-14,1.717421109e-14,8.551905607e-15,2.483636284e-14,8.494649703e-14,1.933963686e-14,6.288163589e-14,1.571801823e-14,5.037604098e-14,6.917155905e-15
0.1171875,6.895660741e-14,1.758228846e-14,6.637841798e-14,1.549657968e-13,9.811357151e-14,5.188918287e-14,7.419747111e-15,4.113019991e-15,2.616757448e-14,2.550271728e-14,1.067654205e-14,4.205396425e-14,3.713997635e-14,1.2025255e-13,5.368356031e-14,6.084112955e-14,6.232994489e-14,4.487640182e-14,2.609826444e-14,2.488635565e-14,8.083028993e-15,1.755080866e-14,1.153425767e-14,1.853081642e-14,1.009289373e-14,2.535649412e-14,9.754195963e-14,2.419582919e-14,7.042772995e-14,1.447800383e-14,5.798904117e-14,6.595688347e-15
0.125,8.037225663e-14,2.002232229e-14,6.677962528e-14,1.425880813e-13,1.188019222e-13,5.941297717e-14,7.557267902e-15,3.465651569e-15,3.404221149e-14,2.74201407e-14,1.483352082e-14,4.640887806e-14,4.030671354e-14,1.349686038e-13,5.828783017e-14,6.803852994e-14,7.646526082e-14,5.075858746e-14,3.004781555e-14,3.577733562e-14,6.781613096e-15,2.306381708e-14,1.223700491e-14,2.048307357e-14,1.107395838e-14,2.560111347e-14,1.046915813e-13,2.827054175e-14,7.545489567e-14,1.274211165e-14,6.242127856e-14,7.313923646e-15
0.1328125,9.086998139e-14,2.604132306e-14,6.264904307e-14,1.364010243e-13,1.358617871e-13,6.935873289e-14,7.661169973e-15,3.106907627e-15,4.135333291e-14,2.794814556e-14,1.973218414e-14,4.771707102e-14,4.174766428e-14,1.419943028e-13,5.992943524e-14,7.279241739e-14,8.81915008e-14,5.409991445e-14,3.240453209e-14,4.94425603e-14,6.055629704e-15,2.863875228e-14,1.313306401e-14,2.271838098e-14,1.141286365e-14,2.615401629e-14,1.066753229e-13,3.058913213e-14,7.744156294e-14,1.08471704e-14,6.282653184e-14,9.109177142e-15
0.140625,9.976784656e-14,3.609797797e-14,5.452519126e-14,1.335250619e-13,1.468457678e-13,7.96413287e-14,7.821625161e-15,2.904971789e-15,4.714624371e-14,2.693607969e-14,2.537193058e-14,4.571578471e-14,4.08852504e-14,1.40080731e-13,5.746871997e-14,7.369327325e-14,9.564221553e-14,5.39909135e-14,3.253854147e-14,6.488934447e-14,6.085272075e-15,3.342196469e-14,1.372942287e-14,2.501203136e-14,1.098716853e-14,2.728147526e-14,1.030409888e-13,3.060620165e-14,7.612907213e-14,9.196749047e-15,5.88536151e-14,1.192555417e-14
0.1484375,1.062841993e-13,4.953033032e-14,4.383209674e-14,1.288206429e-13,1.505620593e-13,8.795468395e-14,8.323365175e-15,2.948066042e-15,5.088722488e-14,2.481347958e-14,3.106151212e-14,4.076109083e-14,3.782086615e-14,1.298661173e-13,5.039935968e-14,6.935963447e-14,9.650373347e-14,5.010130942e-14,3.032648571e-14,8.081710822e-14,6.906119625e-15,3.663654404e-14,1.359135092e-14,2.727426901e-14,9.796178393e-15,2.902193577e-14,9.315588293e-14,2.805661224e-14,7.106216575e-14,8.114995407e-15,5.136015022e-14,1.551449989e-14
0.15625,1.111387778e-13,6.528896021e-14,3.304685714e-14,1.206704798e-13,1.48737045e-13,9.322107073e-14,9.332571711e-15,3.081963418e-15,5.196554943e-14,2.254391295e-14,3.624818186e-14,3.420213388e-14,3.371710548e-14,1.150400999e-13,4.132896844e-14,6.162148269e-14,9.183999328e-14,4.39518859e-14,2.697552157e-14,9.553420669e-14,8.415160496e-15,3.814565347e-14,1.264132791e-14,2.863396417e-14,8.266647983e-15,3.149285673e-14,7.989557421e-14,2.421927075e-14,6.38996098e-14,8.041359809e-15,4.220986024e-14,1.926836093e-14
0.1640625,1.142699821e-13,8.066330107e-14,2.378501854e-14,1.080621988e-13,1.429150927e-13,9.421362379e-14,1.079468955e-14,3.234959061e-15,5.058773308e-14,2.051697824e-14,4.041237289e-14,2.71057118e-14,2.924618426e-14,9.820110894e-14,3.148502481e-14,5.21256713e-14,8.345418897e-14,3.700481918e-14,2.29673382e-14,1.079248681e-13,1.031121451e-14,3.783539203e-14,1.095457243e-14,2.890799054e-14,6.814230064e-15,3.436415737e-14,6.600814606e-14,1.971496244e-14,5.500356722e-14,8.976606455e-15,3.264206174e-14,2.264208095e-14
0.171875,1.156845896e-13,9.395602838e-14,1.74897035e-14,9.072829648e-14,1.340543031e-13,9.190642294e-14,1.296759136e-14,3.441644455e-15,4.739595477e-14,1.908305547e-14,4.309090556e-14,2.057652998e-14,2.465812274e-14,8.212770786e-14,2.210296078e-14,4.178272938e-14,7.277384822e-14,3.015359658e-14,1.872722097e-14,1.162339116e-13,1.222416951e-14,3.602341672e-14,8.773033362e-15,2.814509948e-14,5.601508067e-15,3.729182189e-14,5.259340612e-14,1.529996458e-14,4.518570452e-14,1.068411002e-14,2.436343591e-14,2.523282976e-14
0.1796875,1.15660893e-13,1.013509238e-13,1.415918302e-14,7.04001195e-14,1.238846016e-13,8.736307487e-14,1.550220112e-14,3.893846601e-15,4.33130604e-14,1.88771969e-14,4.353422917e-14,1.542730546e-14,2.081394097e-14,6.902342684e-14,1.442309952e-14,3.191987985e-14,6.133719507e-14,2.44981627e-14,1.502369503e-14,1.202664487e-13,1.351152409e-14,3.335445888e-14,6.522823563e-15,2.684724953e-14,4.900793079e-15,3.973206092e-14,4.075524882e-14,1.161503988e-14,3.61218489e-14,1.26795529e-14,1.860596035e-14,2.689480739e-14
0.1875,1.150011068e-13,1.016879437e-13,1.249591315e-14,5.151215651e-14,1.137326656e-13,8.154797643e-14,1.78524315e-14,4.414214745e-15,3.871638648e-14,1.907935574e-14,4.23903936e-14,1.167136774e-14,1.799869696e-14,6.008714843e-14,8.769806548e-15,2.300199769e-14,5.04824131e-14,2.034374324e-14,1.235074575e-14,1.189794018e-13,1.393718403e-14,3.031318408e-14,4.560162681e-15,2.460409787e-14,4.611088271e-15,4.077712615e-14,3.133084091e-14,9.064623691e-15,2.920052472e-14,1.433554233e-14,1.521378502e-14,2.750127539e-14
0.1953125,1.157310756e-13,9.559441727e-14,1.283914188e-14,3.558421385e-14,1.048948664e-13,7.655151927e-14,1.994309346e-14,4.828481749e-15,3.431350298e-14,1.909231797e-14,3.944430585e-14,9.347086991e-15,1.620707654e-14,5.615609763e-14,5.464053893e-15,1.579029514e-14,4.241444208e-14,1.85018567e-14,1.079845761e-14,1.127622706e-13,1.352839709e-14,2.745541176e-14,3.031688763e-15,2.183978005e-14,4.689517529e-15,4.029447214e-14,2.473959882e-14,7.395083208e-15,2.369911787e-14,1.507609328e-14,1.440218394e-14,2.721184261e-14
0.203125,1.16087321e-13,8.479946036e-14,1.456135089e-14,2.268608072e-14,9.697892054e-14,7.379568222e-14,2.181405739e-14,5.200559687e-15,3.050865401e-14,1.870537266e-14,3.475520483e-14,8.198073393e-15,1.51712387e-14,5.644990674e-14,4.438507094e-15,1.070014018e-14,3.716834244e-14,1.818265527e-14,1.012188994e-14,1.02758677e-13,1.217016468e-14,2.518866175e-14,2.026615107e-15,1.925228136e-14,4.997464851e-15,3.839254805e-14,2.068371722e-14,6.813680619e-15,2.052130832e-14,1.48475926e-14,1.61113786e-14,2.618762456e-14
0.2109375,1.161680344e-13,7.106705359e-14,1.711925823e-14,1.44452989e-14,8.991666518e-14,7.412630834e-14,2.294111047e-14,5.546380344e-15,2.739150715e-14,1.772522346e-14,2.958646678e-14,7.820751247e-15,1.511902886e-14,6.042191394e-14,5.535263995e-15,7.482583671e-15,3.481258955e-14,1.904069301e-14,1.030845773e-14,8.930497117e-14,1.019852093e-14,2.370305123e-14,1.557928129e-15,1.67686705e-14,5.360157162e-15,3.505110061e-14,1.840046292e-14,7.173834286e-15,2.061401831e-14,1.360845904e-14,1.988278431e-14,2.464949543e-14
0.21875,1.15990925e-13,5.683794166e-14,2.143473322e-14,1.13633822e-14,8.349138833e-14,7.757151835e-14,2.280222321e-14,5.572612103e-15,2.48784043e-14,1.608355507e-14,2.536834186e-14,7.955106625e-15,1.599221046e-14,6.670413666e-14,8.43011577e-15,6.106334223e-15,3.530259962e-14,2.042992948e-14,1.105995791e-14,7.392755475e-14,8.308931989e-15,2.292292378e-14,1.521399915e-15,1.447123179e-14,5.520932362e-15,3.060828538e-14,1.766668871e-14,8.67480083e-15,2.283731396e-14,1.176227664e-14,2.472126577e-14,2.296084296e-14
0.2265625,1.165232506e-13,4.512552538e-14,2.860647091e-14,1.262263722e-14,7.756539238e-14,8.437965065e-14,2.179874077e-14,5.221321702e-15,2.29932221e-14,1.42161921e-14,2.220367572e-14,8.681976535e-15,1.786940361e-14,7.453899019e-14,1.296789987e-14,6.523930453e-15,3.82632537e-14,2.214293502e-14,1.215419431e-14,5.818312017e-14,6.773382164e-15,2.282268338e-14,1.919564202e-15,1.282969422e-14,5.468171291e-15,2.568663478e-14,1.757385353e-14,1.212335518e-14,2.590266243e-14,9.674810855e-15,3.084123266e-14,2.135855492e-14
0.234375,1.152581071e-13,3.748984507e-14,3.932374219e-14,1.85325942e-14,7.17374836e-14,9.415184084e-14,2.036152345e-14,4.978098341e-15,2.192380931e-14,1.311677448e-14,2.03383042e-14,1.021125434e-14,2.120243208e-14,8.298129054e-14,1.890361293e-14,8.540013329e-15,4.282819771e-14,2.39689014e-14,1.343152329e-14,4.337981958e-14,5.941565025e-15,2.326779886e-14,2.646042707e-15,1.265029666e-14,5.312274619e-15,2.061667233e-14,1.830354801e-14,1.804929803e-14,3.089171881e-14,8.02125587e-15,3.893435239e-14,1.978438773e-14
0.2421875,1.124671838e-13,3.448107019e-14,5.37778831e-14,2.989481694e-14,6.699545165e-14,1.067056621e-13,1.8339826e-14,5.048359335e-15,2.215423503e-14,1.347698333e-14,2.075208936e-14,1.262493055e-14,2.616643519e-14,9.180037367e-14,2.542979819e-14,1.146706277e-14,4.727286997e-14,2.550662432e-14,1.499508295e-14,3.100201595e-14,5.967203917e-15,2.45463137e-14,3.701036777e-15,1.37238661e-14,4.939753876e-15,1.594635128e-14,1.921680083e-14,2.706618415e-14,3.697478757e-14,7.068241301e-15,4.882211924e-14,1.850909504e-14
0.25,1.076689539e-13,3.548170957e-14,7.059445082e-14,4.686663863e-14,6.176317186e-14,1.195404956e-13,1.56061839e-14,5.274341802e-15,2.304336627e-14,1.60774173e-14,2.292898039e-14,1.557953154e-14,3.23513532e-14,9.850939921e-14,3.179382972e-14,1.516519073e-14,5.068647048e-14,2.631313842e-14,1.640752284e-14,2.138221175e-14,6.888384828e-15,2.585747058e-14,4.888046221e-15,1.563835292e-14,4.306903718e-15,1.208703309e-14,2.049860978e-14,3.930995556e-14,4.184236599e-14,7.155205347e-15,5.845154208e-14,1.743077841e-14
0.2578125,1.022570832e-13,3.869786131e-14,8.78685267e-14,6.914109343e-14,5.723564057e-14,1.32570681e-13,1.279847985e-14,5.879287533e-15,2.499324e-14,2.084188954e-14,2.549497929e-14,1.904432521e-14,3.967810476e-14,1.027961094e-13,3.711370075e-14,1.905694552e-14,5.268499695e-14,2.735583187e-14,1.760123082e-14,1.46130106e-14,8.411665995e-15,2.720486572e-14,6.175766324e-15,1.878847757e-14,3.708591354e-15,9.207286775e-15,2.1579017e-14,5.411516307e-14,4.497298678e-14,7.967643358e-15,6.845448451e-14,1.657623769e-14
0.265625,9.527585224e-14,4.257046337e-14,1.06239303e-13,9.527421994e-14,5.348063759e-14,1.454397182e-13,1.017609396e-14,6.986922271e-15,2.810657696e-14,2.796033443e-14,2.85777457e-14,2.306739762e-14,4.733833522e-14,1.046391493e-13,4.101736764e-14,2.256299209e-14,5.27940678e-14,2.812240674e-14,1.873695453e-14,1.0927547e-14,1.032244364e-14,2.86642528e-14,7.187161476e-15,2.286240138e-14,3.078297509e-15,7.467612527e-15,2.288749561e-14,7.080721464e-14,4.74401746e-14,9.543745242e-15,7.874126871e-14,1.579356224e-14
0.2734375,8.770914286e-14,4.518872502e-14,1.228117034e-13,1.234229588e-13,5.047032676e-14,1.567370971e-13,7.749286132e-15,8.256658637e-15,3.197302382e-14,3.66646305e-14,3.139121992e-14,2.696161426e-14,5.410767532e-14,1.033014231e-13,4.203477994e-14,2.466496758e-14,5.067986523e-14,2.832266945e-14,1.942513332e-14,9.688078484e-15,1.219304842e-14,2.998928195e-14,7.947940101e-15,2.677286869e-14,2.481462827e-15,6.999600394e-15,2.365317519e-14,8.738056579e-14,4.78550531e-14,1.153490644e-14,8.715489351e-14,1.536076512e-14
0.28125,8.089752109e-14,4.544516362e-14,1.344596006e-13,1.522211757e-13,4.831067085e-14,1.651279913e-13,5.628649748e-15,9.08986938e-15,3.559800575e-14,4.583237162e-14,3.293869349e-14,3.004344438e-14,5.881013332e-14,9.86005842e-14,4.052878022e-14,2.549802397e-14,4.745444089e-14,2.830954193e-14,1.957772088e-14,9.914824119e-15,1.359519569e-14,3.070501605e-14,8.412216387e-15,2.928663913e-14,1.950265795e-15,7.539017773e-15,2.399517916e-14,1.026157527e-13,4.504414894e-14,1.369683311e-14,9.178071797e-14,1.513254651e-14
0.2890625,7.501489827e-14,4.26858176e-14,1.400678789e-13,1.801919565e-13,4.705732369e-14,1.714270347e-13,3.879941129e-15,9.412851839e-15,3.848146602e-14,5.353068466e-14,3.308518338e-14,3.172479046e-14,6.014574428e-14,9.063933115e-14,3.685689408e-14,2.512423423e-14,4.402527888e-14,2.759128326e-14,1.901213824e-14,1.127627572e-14,1.408307394e-14,3.093766772e-14,8.946615131e-15,3.01848467e-14,1.499262121e-15,9.185243766e-15,2.364902833e-14,1.140765178e-13,3.993330018e-14,1.559456199e-14,9.181331893e-14,1.514685652e-14
0.296875,6.953382278e-14,3.793551223e-14,1.406365448e-13,2.052123871e-13,4.660281908e-14,1.746351662e-13,2.560275505e-15,9.17797997e-15,4.03481365e-14,5.943140508e-14,3.249817029e-14,3.211519805e-14,5.783002827e-14,8.027065071e-14,3.127521879e-14,2.333330824e-14,4.056068251e-14,2.612701783e-14,1.774588219e-14,1.311842735e-14,1.387646825e-14,3.081727405e-14,1.000729127e-14,2.96143432e-14,1.216737897e-15,1.139074333e-14,2.238474955e-14,1.20847029e-13,3.423223383e-14,1.726693794e-14,8.795586175e-14,1.542233541e-14
0.3046875,6.553065739e-14,3.306904233e-14,1.352461551e-13,2.282902427e-13,4.709639491e-14,1.751842634e-13,1.681932419e-15,8.160363653e-15,4.062946666e-14,6.147177695e-14,3.110259538e-14,3.109712742e-14,5.269577607e-14,6.915390244e-14,2.525225637e-14,2.109339058e-14,3.88472276e-14,2.459309569e-14,1.604523089e-14,1.456721328e-14,1.277540616e-14,3.033084404e-14,1.177995195e-14,2.735899032e-14,1.1586973e-15,1.387523901e-14,2.058012245e-14,1.217193818e-13,2.896247024e-14,1.838067462e-14,8.044917936e-14,1.60849792e-14
0.3125,6.152013938e-14,2.889588917e-14,1.238556321e-13,2.498438963e-13,4.815234869e-14,1.718025494e-13,1.135922985e-15,6.617824189e-15,3.905167134e-14,5.931257064e-14,2.871531627e-14,2.875341499e-14,4.517511427e-14,5.72361389e-14,2.001664076e-14,1.946996007e-14,3.8670329e-14,2.258787292e-14,1.395469629e-14,1.6112054e-14,1.104364928e-14,2.92780116e-14,1.458832515e-14,2.40597627e-14,1.306057366e-15,1.645298081e-14,1.853637418e-14,1.169619125e-13,2.443693808e-14,1.880661334e-14,6.933903051e-14,1.696228301e-14
0.3203125,5.669296592e-14,2.649712031e-14,1.076577993e-13,2.690768101e-13,4.969132958e-14,1.64079263e-13,8.667133794e-16,5.117314636e-15,3.647208856e-14,5.344134869e-14,2.577787009e-14,2.559929677e-14,3.620615428e-14,4.550681936e-14,1.536032138e-14,1.819686318e-14,3.888152297e-14,1.964882013e-14,1.150618609e-14,1.773893607e-14,9.061185455e-15,2.808100797e-14,1.863917432e-14,2.107161624e-14,1.72166088e-15,1.899564745e-14,1.642158763e-14,1.072381934e-13,2.214474457e-14,1.833119771e-14,5.627942137e-14,1.833290853e-14
0.328125,5.105651938e-14,2.687957269e-14,8.984550971e-14,2.844247798e-13,5.17101534e-14,1.523158175e-13,8.283239207e-16,3.899517135e-15,3.351481323e-14,4.582023625e-14,2.278438241e-14,2.254536891e-14,2.76118735e-14,3.523643168e-14,1.137651762e-14,1.673680972e-14,3.848335816e-14,1.649447916e-14,9.112193199e-15,1.894107799e-14,7.398853744e-15,2.687256438e-14,2.330423529e-14,1.934457703e-14,2.378484435e-15,2.106514576e-14,1.440249743e-14,9.469773814e-14,2.284951464e-14,1.726353213e-14,4.360047397e-14,2.000233143e-14
0.3359375,4.518363416e-14,2.945849778e-14,7.197799895e-14,2.966207672e-13,5.332080176e-14,1.37538251e-13,1.02180114e-15,2.989318111e-15,3.039194534e-14,3.742688747e-14,1.963183257e-14,1.990726601e-14,2.077082252e-14,2.683303009e-14,8.736378612e-15,1.595427462e-14,3.783908139e-14,1.352740938e-14,7.195597689e-15,1.927713789e-14,6.137718154e-15,2.564384412e-14,2.802881892e-14,1.89451403e-14,3.238715403e-15,2.245076533e-14,1.26604156e-14,8.116708839e-14,2.631429513e-14,1.554807356e-14,3.275606959e-14,2.163707453e-14
0.34375,3.868698372e-14,3.303592791e-14,5.573863296e-14,3.001698818e-13,5.368537216e-14,1.200929876e-13,1.436189119e-15,2.5567723e-15,2.76689662e-14,2.998361382e-14,1.611819305e-14,1.780031958e-14,1.599053545e-14,2.02466606e-14,7.004055463e-15,1.594240682e-14,3.626687527e-14,1.068684389e-14,5.702713441e-15,1.900746467e-14,5.282288979e-15,2.426842885e-14,3.203396341e-14,1.990683437e-14,4.323119849e-15,2.325054284e-14,1.12534377e-14,6.814026175e-14,3.192260984e-14,1.334837764e-14,2.439728109e-14,2.299938494e-14
0.3515625,3.151058947e-14,3.661691074e-14,4.317851328e-14,2.92309518e-13,5.188395936e-14,1.009453342e-13,2.088898133e-15,2.408893052e-15,2.53882183e-14,2.503240518e-14,1.29131722e-14,1.629763358e-14,1.331406571e-14,1.534998195e-14,5.691230306e-15,1.577126636e-14,3.311303798e-14,7.959890093e-15,4.656933398e-15,1.785402786e-14,4.920569167e-15,2.26673207e-14,3.46411012e-14,2.179686023e-14,5.592388374e-15,2.333841324e-14,1.015023652e-14,5.709288591e-14,3.879678059e-14,1.094702518e-14,1.901124317e-14,2.36718386e-14
0.359375,2.533787852e-14,3.92059757e-14,3.588825951e-14,2.726507966e-13,4.845633628e-14,8.307497984e-14,2.930159823e-15,2.388413656e-15,2.341758844e-14,2.329208073e-14,1.018498561e-14,1.53086759e-14,1.26469145e-14,1.244869817e-14,5.164216408e-15,1.530425051e-14,2.919147881e-14,6.140480905e-15,4.238067894e-15,1.607476516e-14,5.030380048e-15,2.098843506e-14,3.523435045e-14,2.397154026e-14,6.726777035e-15,2.254956809e-14,9.12632696e-15,4.86587797e-14,4.534136704e-14,8.697979483e-15,1.664159541e-14,2.348681085e-14
0.3671875,2.030972062e-14,3.978462162e-14,3.361039511e-14,2.435977361e-13,4.284656254e-14,6.732355218e-14,3.909209421e-15,2.411431189e-15,2.15336065e-14,2.475820498e-14,7.840924183e-15,1.457467541e-14,1.315060368e-14,1.082438112e-14,5.580567645e-15,1.513959994e-14,2.562109887e-14,5.310912031e-15,4.222845637e-15,1.34106911e-14,5.435625448e-15,1.903990348e-14,3.379126777e-14,2.61882268e-14,7.71119802e-15,2.081161607e-14,8.15988368e-15,4.268533074e-14,5.046362693e-14,6.785783044e-15,1.681071051e-14,2.20954545e-14
0.375,1.636649759e-14,3.716285295e-14,3.57393811e-14,2.083516397e-13,3.594379259e-14,5.547270567e-14,5.002314222e-15,2.341940079e-15,1.969503064e-14,2.814153376e-14,6.233124632e-15,1.381789803e-14,1.401075817e-14,1.01516851e-14,6.908494607e-15,1.561512951e-14,2.278619018e-14,5.567194481e-15,4.240856459e-15,1.059547828e-14,5.872503808e-15,1.701255034e-14,3.09113562e-14,2.802557104e-14,8.591226144e-15,1.873351132e-14,7.412873971e-15,3.789584905e-14,5.287455031e-14,5.327275054e-15,1.873149155e-14,1.993521631e-14
0.3828125,1.353349018e-14,3.345778331e-14,4.106772488e-14,1.730533126e-13,2.87467748e-14,4.796869525e-14,6.074352776e-15,2.215620355e-15,1.800703287e-14,3.25872097e-14,5.394511072e-15,1.33234522e-14,1.542298642e-14,1.041802509e-14,9.104188983e-15,1.611356172e-14,2.08600217e-14,7.072034862e-15,4.360919117e-15,7.930340748e-15,6.59399376e-15,1.506529048e-14,2.690219543e-14,3.002076398e-14,9.221624383e-15,1.629457371e-14,7.208825749e-15,3.387336289e-14,5.352369423e-14,4.32304884e-15,2.202158717e-14,1.731215493e-14
0.390625,1.227435562e-14,2.885760139e-14,4.675307528e-14,1.456291754e-13,2.247339607e-14,4.541194634e-14,6.962500749e-15,2.023094332e-15,1.667760652e-14,3.690194789e-14,5.129404969e-15,1.291890307e-14,1.64373781e-14,1.128308564e-14,1.167030174e-14,1.633957397e-14,2.009453538e-14,1.000337364e-14,4.398999231e-15,5.63182669e-15,7.206764492e-15,1.357128451e-14,2.271116031e-14,3.184305866e-14,9.475408437e-15,1.351242633e-14,7.196750141e-15,3.051672477e-14,5.069278597e-14,3.668608671e-15,2.501226349e-14,1.470574027e-14
0.3984375,1.252161232e-14,2.359874129e-14,5.18145734e-14,1.30189333e-13,1.821107776e-14,4.74855223e-14,7.744692691e-15,1.753358657e-15,1.58703765e-14,3.956248999e-14,5.196375706e-15,1.263394478e-14,1.73140197e-14,1.302688973e-14,1.492740939e-14,1.731285598e-14,2.084951419e-14,1.473453744e-14,4.188611487e-15,4.039215368e-15,7.526698056e-15,1.255752545e-14,1.887449026e-14,3.346632994e-14,9.677860568e-15,1.100670778e-14,7.957115679e-15,2.677940855e-14,4.573414498e-14,3.325394754e-15,2.783606429e-14,1.252783021e-14
0.40625,1.437286633e-14,1.867697675e-14,5.505674791e-14,1.277770765e-13,1.623681646e-14,5.314667818e-14,8.196295648e-15,1.553800356e-15,1.555830188e-14,3.992367395e-14,5.498798628e-15,1.252032675e-14,1.820641232e-14,1.56334917e-14,1.837937266e-14,1.835181248e-14,2.227939948e-14,2.033619501e-14,3.86049503e-15,3.199236423e-15,7.667007463e-15,1.216911458e-14,1.597806028e-14,3.446175737e-14,9.734601935e-15,8.954948846e-15,9.44975571e-15,2.27477718e-14,4.028591071e-14,3.170994815e-15,3.056101766e-14,1.119458936e-14
0.4140625,1.778192062e-14,1.478582282e-14,5.52054094e-14,1.359378425e-13,1.660096438e-14,6.03893051e-14,8.242929532e-15,1.434151308e-15,1.579906342e-14,3.882414443e-14,5.841756919e-15,1.23569917e-14,1.91036259e-14,1.873895527e-14,2.089353136e-14,1.872875561e-14,2.370888448e-14,2.636752523e-14,3.575195129e-15,3.301027061e-15,7.684862135e-15,1.239905242e-14,1.407986845e-14,3.497985032e-14,9.674008391e-15,7.432651588e-15,1.148869237e-14,1.940708246e-14,3.492045464e-14,3.127065367e-15,3.242015272e-14,1.071048181e-14
0.421875,2.297024957e-14,1.216265465e-14,5.124102156e-14,1.48046417e-13,1.886775472e-14,6.714332524e-14,8.178621637e-15,1.367413621e-15,1.602673969e-14,3.615334358e-14,5.743748196e-15,1.167891856e-14,1.943501096e-14,2.231961959e-14,2.260240123e-14,1.884295459e-14,2.510749231e-14,3.254897263e-14,3.367311157e-15,4.466407736e-15,7.403308337e-15,1.298075927e-14,1.314737089e-14,3.366359657e-14,9.657509557e-15,6.632534983e-15,1.408375396e-14,1.630693399e-14,3.027960215e-14,3.045009005e-15,3.294885525e-14,1.096117844e-14
0.4296875,2.969121065e-14,1.064780045e-14,4.489749698e-14,1.575497137e-13,2.237674752e-14,7.217585797e-14,7.942862341e-15,1.422016411e-15,1.627799234e-14,3.227648649e-14,5.367683209e-15,1.061369454e-14,1.953696319e-14,2.634781155e-14,2.31141621e-14,1.846387652e-14,2.572030583e-14,3.762534676e-14,3.29102929e-15,7.29986423e-15,7.088143241e-15,1.388845962e-14,1.307408985e-14,3.088264377e-14,9.681644677e-15,6.890799697e-15,1.709179841e-14,1.371332496e-14,2.76131945e-14,2.937179428e-15,3.313566075e-14,1.168386964e-14
0.4375,3.726207837e-14,9.746209151e-15,3.747739676e-14,1.60396283e-13,2.632848809e-14,7.399128536e-14,7.481817894e-15,1.564158982e-15,1.597736162e-14,2.800662368e-14,5.095835904e-15,9.117529163e-15,1.927463182e-14,2.985197611e-14,2.209807815e-14,1.721618956e-14,2.516438123e-14,4.09391295e-14,3.369809291e-15,1.214823824e-14,6.93259209e-15,1.463824901e-14,1.327706375e-14,2.693139536e-14,9.677353357e-15,7.965299009e-15,2.008553694e-14,1.173991018e-14,2.75362825e-14,2.82997026e-15,3.240467676e-14,1.242629402e-14
0.4453125,4.555252748e-14,9.820998249e-15,2.998215184e-14,1.535269996e-13,3.065493247e-14,7.193769195e-14,7.003890478e-15,1.844788472e-15,1.529380819e-14,2.437536559e-14,4.822743685e-15,7.430934211e-15,1.829880771e-14,3.313161104e-14,1.977164485e-14,1.530276408e-14,2.325107156e-14,4.217483031e-14,3.588913631e-15,2.008646733e-14,7.098466586e-15,1.514631654e-14,1.325022031e-14,2.265765624e-14,9.520826549e-15,9.660959637e-15,2.266923308e-14,1.037765125e-14,2.932435878e-14,2.743153128e-15,3.066587175e-14,1.284435632e-14
0.453125,5.386921256e-14,1.090714363e-14,2.28118397e-14,1.391674122e-13,3.456961777e-14,6.615374854e-14,6.535003871e-15,2.140908762e-15,1.402256575e-14,2.144153271e-14,4.737203476e-15,5.553582486e-15,1.641757969e-14,3.554275431e-14,1.686804743e-14,1.380918369e-14,2.066890379e-14,4.140234488e-14,3.720461917e-15,3.132482505e-14,7.541279017e-15,1.509719438e-14,1.291307551e-14,1.806410959e-14,9.172441644e-15,1.185092405e-14,2.464944285e-14,9.470300665e-15,3.261099715e-14,2.60085592e-15,2.769800808e-14,1.275870603e-14
0.4609375,6.109293656e-14,1.37008134e-14,1.732718774e-14,1.202496619e-13,3.785454752e-14,5.787581739e-14,6.09982144e-15,2.5632652e-15,1.231971397e-14,1.924702497e-14,5.326016351e-15,3.9338976e-15,1.407709666e-14,3.708394123e-14,1.374180292e-14,1.2114752e-14,1.730399575e-14,3.836250508e-14,3.782726103e-15,4.498245207e-14,8.410697649e-15,1.446627922e-14,1.198897388e-14,1.400485559e-14,8.546637582e-15,1.403379373e-14,2.55855262e-14,9.276673242e-15,3.770382135e-14,2.435782943e-15,2.453703936e-14,1.204631089e-14
0.46875,6.633799799e-14,1.801493656e-14,1.358154731e-14,1.018832894e-13,4.121286906e-14,4.89063103e-14,5.765882183e-15,2.896053873e-15,1.080052112e-14,1.779147384e-14,6.449331066e-15,2.753137456e-15,1.153730166e-14,3.839111677e-14,1.099624331e-14,1.125635051e-14,1.36113338e-14,3.365895125e-14,3.802926726e-15,6.235218718e-14,9.242986756e-15,1.36130225e-14,1.066118528e-14,1.136970685e-14,7.721306829e-15,1.608944877e-14,2.552002371e-14,9.81013439e-15,4.296354064e-14,2.248874485e-15,2.133535772e-14,1.089280815e-14
0.4765625,6.993840569e-14,2.376256419e-14,1.122905717e-14,8.872781784e-14,4.432891408e-14,4.010327846e-14,5.49613666e-15,2.949182532e-15,9.223250905e-15,1.651308857e-14,7.777733261e-15,1.916241044e-15,9.205501978e-15,3.943271926e-14,9.394704672e-15,1.189742496e-14,1.066799555e-14,2.88159908e-14,3.805158243e-15,8.071092275e-14,9.735191804e-15,1.231916526e-14,8.873538715e-15,9.316069809e-15,6.816312914e-15,1.725781568e-14,2.446900956e-14,1.087148777e-14,4.700829892e-14,2.028491449e-15,1.791395635e-14,9.231893712e-15
0.484375,7.19811223e-14,3.045080108e-14,9.999357693e-15,8.292574686e-14,4.738286923e-14,3.290045462e-14,5.293600976e-15,3.065512837e-15,7.643922325e-15,1.528225487e-14,9.383692518e-15,1.403704696e-15,7.092542317e-15,4.016623397e-14,9.033964778e-15,1.307852846e-14,8.621401599e-15,2.374032636e-14,3.784563759e-15,9.819950489e-14,9.936086233e-15,1.074897773e-14,6.944377768e-15,7.761008707e-15,5.745448217e-15,1.731054379e-14,2.210388934e-14,1.258884555e-14,4.965568355e-14,1.784060508e-15,1.49023604e-14,7.374732839e-15
0.4921875,7.169929984e-14,3.734756059e-14,9.141914583e-15,8.444455186e-14,5.048402415e-14,2.785776893e-14,5.17965628e-15,3.228964586e-15,6.460166144e-15,1.39012752e-14,1.053739681e-14,1.227276314e-15,5.669982656e-15,4.096448438e-14,1.002294109e-14,1.52553702e-14,7.454757656e-15,1.870706342e-14,3.864655615e-15,1.140826742e-13,9.598011721e-15,9.278924863e-15,5.066218202e-15,6.943120289e-15,4.620437035e-15,1.661052566e-14,1.905908986e-14,1.452443304e-14,5.086094686e-14,1.58126939e-15,1.331301899e-14,5.628064205e-15
0.5,6.918405221e-14,4.263283365e-14,8.623275203e-15,9.178890364e-14,5.344317699e-14,2.53284964e-14,5.086355824e-15,3.295266015e-15,5.784613731e-15,1.232960082e-14,1.073233886e-14,1.309027852e-15,5.055674104e-15,4.202616541e-14,1.222456314e-14,1.839260295e-14,7.302167399e-15,1.459922588e-14,4.17409632e-15,1.269270072e-13,8.541064824e-15,8.083190372e-15,3.428069848e-15,6.362894457e-15,3.582750648e-15,1.50383118e-14,1.616094334e-14,1.652248909e-14,4.885278675e-14,1.475452366e-15,1.318872499e-14,4.198775257e-15
0.5078125,6.556170165e-14,4.567834464e-14,8.83892446e-15,1.015628425e-13,5.635822786e-14,2.47656719e-14,4.929693416e-15,3.382411131e-15,5.42321418e-15,1.043425212e-14,1.006189086e-14,1.621422933e-15,5.026773793e-15,4.297601485e-14,1.526720293e-14,2.197569555e-14,8.431046033e-15,1.180526446e-14,4.720498335e-15,1.356755339e-13,6.969189313e-15,7.16830581e-15,2.186419528e-15,5.586636034e-15,2.688245496e-15,1.274307583e-14,1.384568873e-14,1.819263875e-14,4.353950609e-14,1.51083881e-15,1.43500502e-14,3.115963054e-15
0.515625,6.096247582e-14,4.668316236e-14,1.015901699e-14,1.107847794e-13,5.878677195e-14,2.546722248e-14,4.632783219e-15,3.759706085e-15,5.381634234e-15,8.739479977e-15,8.923991932e-15,2.277841082e-15,5.598295807e-15,4.31984546e-14,1.919356903e-14,2.667751809e-14,1.088456038e-14,1.040316429e-14,5.454705037e-15,1.399212391e-13,5.362822483e-15,6.595497794e-15,1.383425056e-15,5.254420353e-15,2.014828056e-15,1.036504232e-14,1.291798128e-14,1.97493046e-14,3.760582969e-14,1.742012686e-15,1.70246671e-14,2.565292248e-15
0.5234375,5.585960396e-14,4.580792262e-14,1.238175141e-14,1.175276308e-13,6.035301514e-14,2.677973767e-14,4.262135381e-15,4.483222652e-15,5.816052087e-15,7.408784448e-15,7.482956018e-15,3.251524395e-15,6.311438547e-15,4.315928935e-14,2.333302739e-14,3.208534233e-14,1.414886758e-14,1.014817211e-14,6.210485479e-15,1.407976183e-13,3.88523201e-15,6.5296143e-15,9.067159021e-16,5.399894513e-15,1.525848091e-15,8.184471033e-15,1.360941438e-14,2.120457773e-14,3.072691006e-14,2.155461291e-15,2.153026719e-14,2.583872019e-15
0.53125,5.059330548e-14,4.386488252e-14,1.576365317e-14,1.187394016e-13,6.14887753e-14,2.792448895e-14,3.80568896e-15,5.58313093e-15,6.699552991e-15,6.684716229e-15,6.098442705e-15,4.513313989e-15,6.926675863e-15,4.267841883e-14,2.711033174e-14,3.797884287e-14,1.791314634e-14,1.088465799e-14,6.843071439e-15,1.406858154e-13,2.656444453e-15,6.876211102e-15,7.102141373e-16,6.1459385e-15,1.214266646e-15,6.22709557e-15,1.594127613e-14,2.242808885e-14,2.326069449e-14,2.68940981e-15,2.774997442e-14,3.171893834e-15
0.5390625,4.560642732e-14,4.286961791e-14,1.997477371e-14,1.142689502e-13,6.258135439e-14,2.861117523e-14,3.236290328e-15,6.801707515e-15,8.078264063e-15,6.762007489e-15,5.38887857e-15,6.17035991e-15,7.637520828e-15,4.146420543e-14,3.008162489e-14,4.400872075e-14,2.216485411e-14,1.247253454e-14,7.439112064e-15,1.388801341e-13,1.811781967e-15,7.667612651e-15,7.176866148e-16,7.841090933e-15,1.032795291e-15,4.686536699e-15,2.00041352e-14,2.373410383e-14,1.672874289e-14,3.269504683e-15,3.460895973e-14,4.18907254e-15
0.546875,4.070721682e-14,4.30325866e-14,2.344570794e-14,1.046224994e-13,6.350548086e-14,2.788196626e-14,2.656839552e-15,8.251640687e-15,9.767925478e-15,7.675891742e-15,5.349890516e-15,7.849685618e-15,8.128354834e-15,3.940655102e-14,3.159443371e-14,4.939984857e-14,2.602863928e-14,1.43346646e-14,7.684482193e-15,1.357196969e-13,1.242243665e-15,8.608311296e-15,8.72940837e-16,1.085516194e-14,9.237478875e-16,3.639931614e-15,2.498864788e-14,2.454312098e-14,1.188438754e-14,3.738877066e-15,4.112134753e-14,5.599885518e-15
0.5546875,3.632946838e-14,4.473256003e-14,2.623186207e-14,9.240170331e-14,6.523000528e-14,2.620587902e-14,2.16463276e-15,9.684407363e-15,1.204077157e-14,9.248539399e-15,6.002819918e-15,9.764438166e-15,8.728844344e-15,3.759224505e-14,3.109307904e-14,5.298447553e-14,2.891155307e-14,1.618789135e-14,7.505967556e-15,1.330953791e-13,8.923032614e-16,9.819284878e-15,1.146058e-15,1.543062891e-14,8.411125944e-16,2.968647721e-15,3.017227875e-14,2.477758886e-14,8.747118574e-15,4.090001702e-15,4.744014029e-14,7.296443617e-15
0.5625,3.290389555e-14,4.656915663e-14,2.795720276e-14,7.899767836e-14,6.859309322e-14,2.378025193e-14,1.851887568e-15,1.089630781e-14,1.484407473e-14,1.136199865e-14,7.367421049e-15,1.191995903e-14,9.874826237e-15,3.67362014e-14,2.854622546e-14,5.421329187e-14,3.065610215e-14,1.78772839e-14,7.078076464e-15,1.307750154e-13,7.507052848e-16,1.119223617e-14,1.481832569e-15,2.127985373e-14,8.093072845e-16,2.53204705e-15,3.505915481e-14,2.432028629e-14,6.965493749e-15,4.269177484e-15,5.283835487e-14,9.095707823e-15
0.5703125,3.074217601e-14,4.799935669e-14,2.807635e-14,6.86808308e-14,7.317750763e-14,2.139449018e-14,1.779258056e-15,1.169844931e-14,1.825402668e-14,1.334905616e-14,9.268078194e-15,1.437152291e-14,1.190480817e-14,3.682650851e-14,2.488590376e-14,5.337316682e-14,3.176445081e-14,1.954645225e-14,6.725731288e-15,1.273563161e-13,7.41193908e-16,1.269906263e-14,1.898069571e-15,2.798998559e-14,8.377242805e-16,2.281045546e-15,3.922355859e-14,2.344128355e-14,6.376854277e-15,4.240185017e-15,5.641113172e-14,1.085782726e-14
0.578125,2.914940233e-14,4.844744734e-14,2.623849749e-14,6.27801832e-14,7.776579771e-14,1.883012675e-14,1.944099326e-15,1.20655038e-14,2.195990357e-14,1.481808393e-14,1.147949609e-14,1.672267389e-14,1.443045406e-14,3.729208847e-14,2.08426305e-14,5.092967047e-14,3.1937314e-14,2.064170883e-14,6.350495089e-15,1.234077818e-13,8.263585325e-16,1.402769896e-14,2.402116026e-15,3.485705172e-14,9.070202017e-16,2.212739614e-15,4.195063608e-14,2.178449901e-14,6.640587989e-15,4.007595723e-15,5.708466489e-14,1.24688552e-14
0.5859375,2.878126996e-14,4.691995606e-14,2.374925737e-14,6.131895188e-14,8.222198869e-14,1.666135593e-14,2.261669784e-15,1.223666494e-14,2.57492362e-14,1.583408779e-14,1.374825923e-14,1.880078717e-14,1.724884196e-14,3.829384115e-14,1.686571561e-14,4.7058546e-14,3.100326098e-14,2.107849802e-14,5.965437438e-15,1.202174496e-13,1.036945748e-15,1.513973234e-14,2.934362433e-15,4.09854377e-14,1.01374138e-15,2.38439811e-15,4.277576346e-14,1.970680238e-14,7.277193031e-15,3.741041053e-15,5.527792691e-14,1.403141626e-14
0.59375,3.016985967e-14,4.292423513e-14,2.103031833e-14,6.217617663e-14,8.604925084e-14,1.46838876e-14,2.702695834e-15,1.242856618e-14,2.939728984e-14,1.58886127e-14,1.637084779e-14,2.038489602e-14,1.980549123e-14,3.979647768e-14,1.371195437e-14,4.317978663e-14,2.97489338e-14,2.117853768e-14,5.753032732e-15,1.177106466e-13,1.327042958e-15,1.603575231e-14,3.460428221e-15,4.53206283e-14,1.2425412e-15,2.857129862e-15,4.219812439e-14,1.740277283e-14,8.297433939e-15,3.500436695e-15,5.149937634e-14,1.564667796e-14
0.6015625,3.381844337e-14,3.78266064e-14,1.921236366e-14,6.432244245e-14,8.828672847e-14,1.330788741e-14,3.138005573e-15,1.292782908e-14,3.268634708e-14,1.493924481e-14,1.950679426e-14,2.110433063e-14,2.137940726e-14,4.112436216e-14,1.22821057e-14,4.040115683e-14,2.877696739e-14,2.082299484e-14,5.906567332e-15,1.157270071e-13,1.554584437e-15,1.66889975e-14,3.900184498e-15,4.723615386e-14,1.617249591e-15,3.800201654e-15,4.005437577e-14,1.529395246e-14,9.86775903e-15,3.372248263e-15,4.560747624e-14,1.73321856e-14
0.609375,3.991522504e-14,3.196958106e-14,1.908355345e-14,6.37667624e-14,8.845055411e-14,1.196765902e-14,3.495213193e-15,1.395255733e-14,3.506981433e-14,1.326184125e-14,2.297152775e-14,2.055100379e-14,2.141019305e-14,4.206362474e-14,1.294378902e-14,3.917509121e-14,2.797800096e-14,1.988172106e-14,6.273477254e-15,1.156868769e-13,1.761345156e-15,1.694027021e-14,4.256910419e-15,4.62586467e-14,2.154321777e-15,5.385842151e-15,3.665660779e-14,1.320110943e-14,1.210855743e-14,3.377149431e-15,3.815006819e-14,1.921513797e-14
0.6171875,4.898991117e-14,2.625002383e-14,2.24264121e-14,6.091603954e-14,8.699810129e-14,1.106668133e-14,3.821703898e-15,1.572430841e-14,3.65897698e-14,1.148050084e-14,2.627360828e-14,1.937413634e-14,2.036243665e-14,4.312998949e-14,1.581886979e-14,3.990620004e-14,2.743298858e-14,1.901224101e-14,6.852483473e-15,1.174651699e-13,1.96210623e-15,1.692630904e-14,4.42271892e-15,4.303531421e-14,2.889345435e-15,7.477005837e-15,3.317050396e-14,1.159818471e-14,1.52268205e-14,3.53648074e-15,3.135593601e-14,2.123476741e-14
0.625,6.130928043e-14,2.259498752e-14,2.921660688e-14,5.58614862e-14,8.483353766e-14,1.109803692e-14,4.082390859e-15,1.820568047e-14,3.714522327e-14,9.772899423e-15,2.978878388e-14,1.757283401e-14,1.833056116e-14,4.438815311e-14,2.071579426e-14,4.296856469e-14,2.7627144e-14,1.852907679e-14,7.703950662e-15,1.210626643e-13,2.088416271e-15,1.675363713e-14,4.352089978e-15,3.757062419e-14,3.817946199e-15,1.001457646e-14,3.021901218e-14,1.072836385e-14,1.991228727e-14,3.847500324e-15,2.545044444e-14,2.344393931e-14
0.6328125,7.708180534e-14,2.078168662e-14,4.011837416e-14,5.028155532e-14,8.248893339e-14,1.240024453e-14,4.399068604e-15,2.128787127e-14,3.676094629e-14,8.532856625e-15,3.323122242e-14,1.553223992e-14,1.571231049e-14,4.598910286e-14,2.760926951e-14,4.81982497e-14,2.878144446e-14,1.847923298e-14,8.961626858e-15,1.263358517e-13,2.37916518e-15,1.649161556e-14,4.109708935e-15,3.110412494e-14,4.944122566e-15,1.30126824e-14,2.814250757e-14,1.059823366e-14,2.608711693e-14,4.255456064e-15,2.060117543e-14,2.573839424e-14
0.640625,9.408501456e-14,2.139135554e-14,5.514864404e-14,4.802787843e-14,8.045087096e-14,1.585936596e-14,4.897980105e-15,2.487053971e-14,3.599593361e-14,8.084642974e-15,3.593574713e-14,1.417030049e-14,1.344053302e-14,4.825448196e-14,3.555266854e-14,5.426493589e-14,2.999701799e-14,1.878020291e-14,1.045134565e-14,1.323541104e-13,3.033487129e-15,1.628590218e-14,3.82278194e-15,2.529393423e-14,6.109501018e-15,1.577240765e-14,2.734340382e-14,1.114209903e-14,3.324828515e-14,4.618908894e-15,1.811258841e-14,2.763145572e-14
0.6484375,1.111442936e-13,2.3795842e-14,7.15375275e-14,5.060137226e-14,7.954834219e-14,2.162652225e-14,5.443112299e-15,2.90064427e-14,3.535024104e-14,8.447530207e-15,3.70130063e-14,1.396027955e-14,1.195897901e-14,5.153574427e-14,4.289445282e-14,5.915741241e-14,3.107867079e-14,1.98964711e-14,1.210453887e-14,1.374798895e-13,4.291999341e-15,1.62852225e-14,3.615659165e-15,2.084606799e-14,7.087480151e-15,1.766868156e-14,2.787666102e-14,1.25833536e-14,4.062126252e-14,4.833112882e-15,1.820830453e-14,2.888846182e-14
0.65625,1.271311008e-13,2.834843906e-14,8.850705684e-14,5.936906866e-14,8.031801017e-14,2.98793395e-14,6.110955275e-15,3.391917537e-14,3.563641193e-14,9.706408576e-15,3.694307407e-14,1.538305673e-14,1.162390492e-14,5.582241499e-14,4.867407748e-14,6.221378141e-14,3.220455734e-14,2.204212628e-14,1.383842162e-14,1.405400608e-13,6.340832398e-15,1.661754739e-14,3.591117848e-15,1.8654287e-14,7.92580516e-15,1.854787443e-14,2.974234663e-14,1.520060939e-14,4.80338033e-14,4.99891348e-15,2.102919455e-14,2.938259804e-14
0.6640625,1.409507961e-13,3.462828884e-14,1.051011596e-13,7.198986937e-14,8.227065031e-14,4.022664566e-14,6.803267029e-15,3.957126791e-14,3.71662874e-14,1.189612744e-14,3.579192684e-14,1.81889022e-14,1.204564061e-14,6.028647219e-14,5.230258493e-14,6.329000427e-14,3.324828019e-14,2.466628245e-14,1.576129351e-14,1.413562585e-13,9.253194538e-15,1.724844765e-14,3.8760447e-15,1.877747897e-14,8.462162929e-15,1.834626404e-14,3.202739865e-14,1.913504447e-14,5.433470392e-14,5.24859609e-15,2.60839884e-14,2.923856544e-14
0.671875,1.506883608e-13,4.163622963e-14,1.190664149e-13,8.588008381e-14,8.544430746e-14,5.160981349e-14,7.435181896e-15,4.562445956e-14,4.013048903e-14,1.467046863e-14,3.32117716e-14,2.220904922e-14,1.296756907e-14,6.450661524e-14,5.276508174e-14,6.079434594e-14,3.341909038e-14,2.749000217e-14,1.778437702e-14,1.396589964e-13,1.284419404e-14,1.806425687e-14,4.513973637e-15,2.078031497e-14,8.556529347e-15,1.699491847e-14,3.373808087e-14,2.391810545e-14,5.825960773e-14,5.533762354e-15,3.252837966e-14,2.82664089e-14
0.6796875,1.558501558e-13,4.947183179e-14,1.276849543e-13,9.848886692e-14,8.8577497e-14,6.260988921e-14,7.981062754e-15,5.120822761e-14,4.396607497e-14,1.757789721e-14,2.932076249e-14,2.679739752e-14,1.408325832e-14,6.742140505e-14,5.031012524e-14,5.524460906e-14,3.302295942e-14,3.03714638e-14,1.965433966e-14,1.341074838e-13,1.656989507e-14,1.880716785e-14,5.349554412e-15,2.402555024e-14,8.32332232e-15,1.489312953e-14,3.462091626e-14,2.911441191e-14,5.910301525e-14,5.774438629e-15,3.89184632e-14,2.647311406e-14
0.6875,1.580685997e-13,5.775718191e-14,1.306523244e-13,1.054337158e-13,9.134167354e-14,7.166849909e-14,8.185915335e-15,5.607051666e-14,4.830412421e-14,2.031302098e-14,2.538511066e-14,3.112466997e-14,1.478075068e-14,6.887943365e-14,4.489637944e-14,4.699124893e-14,3.19862269e-14,3.297594274e-14,2.121291684e-14,1.254346876e-13,2.006318855e-14,1.930535807e-14,6.248881773e-15,2.710265577e-14,7.701351764e-15,1.234342107e-14,3.395500079e-14,3.484728122e-14,5.646483747e-14,6.099993058e-15,4.437231003e-14,2.420297949e-14
0.6953125,1.578812642e-13,6.529939718e-14,1.297327071e-13,1.060658315e-13,9.346135503e-14,7.926414467e-14,8.133951072e-15,5.907361792e-14,5.229630266e-14,2.262723164e-14,2.227248722e-14,3.46898381e-14,1.511126968e-14,6.911830009e-14,3.812692688e-14,3.800865245e-14,3.111560311e-14,3.521512704e-14,2.256250657e-14,1.153725014e-13,2.272418041e-14,1.948043955e-14,7.011345851e-15,2.901560306e-14,6.81998634e-15,9.711422012e-15,3.203855317e-14,4.033896725e-14,5.123115786e-14,6.479769333e-15,4.849768925e-14,2.166702667e-14
0.703125,1.561789153e-13,7.193784481e-14,1.235375995e-13,1.005199388e-13,9.466779119e-14,8.367247377e-14,7.808116518e-15,5.899315688e-14,5.485905963e-14,2.396905379e-14,1.990967086e-14,3.7022874e-14,1.531741351e-14,6.807913926e-14,3.084973997e-14,2.923928295e-14,3.009096113e-14,3.674287055e-14,2.359938364e-14,1.050315867e-13,2.412914556e-14,1.908108241e-14,7.408579478e-15,2.952282555e-14,5.865860062e-15,7.584102446e-15,2.913359842e-14,4.469653887e-14,4.403687861e-14,6.710636935e-15,4.993496407e-14,1.900504329e-14
0.7109375,1.539320432e-13,7.640946147e-14,1.12716052e-13,9.11758004e-14,9.455806577e-14,8.528438305e-14,7.214346596e-15,5.549469789e-14,5.500498549e-14,2.410456967e-14,1.862758659e-14,3.755016027e-14,1.50356428e-14,6.528519336e-14,2.408500405e-14,2.180261532e-14,2.922159245e-14,3.758142975e-14,2.417494773e-14,9.418946228e-14,2.365001647e-14,1.811288437e-14,7.284450651e-15,2.812673782e-14,4.943417214e-15,6.138857383e-15,2.611224976e-14,4.744795667e-14,3.599103138e-14,6.651811875e-15,4.776177951e-14,1.640650981e-14
0.71875,1.528261447e-13,7.949149946e-14,9.936895161e-14,7.89030698e-14,9.272983425e-14,8.449147864e-14,6.552197207e-15,4.933817423e-14,5.267949485e-14,2.272067627e-14,1.904229289e-14,3.603501385e-14,1.414241113e-14,6.109214182e-14,1.834160429e-14,1.60086924e-14,2.837860399e-14,3.750478031e-14,2.389191029e-14,8.354827462e-14,2.126838559e-14,1.662377146e-14,6.669717221e-15,2.495835836e-14,4.061966702e-15,5.522469694e-15,2.332765328e-14,4.80991322e-14,2.813445403e-14,6.325253743e-15,4.311570329e-14,1.427750965e-14
0.7265625,1.526869549e-13,8.149506799e-14,8.409237812e-14,6.583136751e-14,8.886888269e-14,8.165051007e-14,5.835186375e-15,4.102951993e-14,4.789597048e-14,2.037749952e-14,2.09811864e-14,3.267659457e-14,1.312684493e-14,5.609406846e-14,1.388847175e-14,1.22721671e-14,2.754297506e-14,3.631327548e-14,2.278878818e-14,7.40312858e-14,1.771446969e-14,1.475093069e-14,5.656291122e-15,2.076769219e-14,3.248239403e-15,5.68815807e-15,2.168771368e-14,4.680397103e-14,2.175563381e-14,5.732394318e-15,3.677394177e-14,1.26573347e-14
0.734375,1.538085985e-13,8.148293721e-14,6.787422367e-14,5.501414986e-14,8.404727502e-14,7.725032097e-14,5.061283357e-15,3.16724498e-14,4.159323692e-14,1.755377196e-14,2.39520449e-14,2.850068753e-14,1.234040412e-14,5.149544542e-14,1.098187281e-14,1.055011835e-14,2.694464218e-14,3.475102321e-14,2.121552005e-14,6.609692018e-14,1.387018338e-14,1.268428788e-14,4.484937364e-15,1.658028245e-14,2.514771102e-15,6.539423707e-15,2.190304152e-14,4.426006413e-14,1.750328217e-14,5.085796069e-15,2.936232472e-14,1.152637681e-14
0.7421875,1.542316453e-13,8.050930489e-14,5.238150716e-14,4.802276876e-14,7.825714568e-14,7.240006384e-14,4.576230557e-15,2.281702348e-14,3.471475618e-14,1.40750304e-14,2.757172513e-14,2.420407714e-14,1.185665301e-14,4.761007857e-14,1.01590525e-14,1.093612595e-14,2.661531033e-14,3.30364295e-14,1.920872622e-14,5.930516388e-14,1.018285563e-14,1.061372329e-14,3.360659816e-15,1.30175526e-14,1.956831353e-15,7.970348715e-15,2.440717771e-14,4.038835499e-14,1.573709661e-14,4.54807177e-15,2.263392068e-14,1.092517231e-14
0.75,1.54616462e-13,7.952504493e-14,3.88050081e-14,4.694325158e-14,7.244911943e-14,6.926445682e-14,4.562017283e-15,1.547903419e-14,2.883340942e-14,1.059873274e-14,3.112071088e-14,2.090445884e-14,1.24182462e-14,4.602794592e-14,1.151333217e-14,1.322545288e-14,2.695087458e-14,3.170020243e-14,1.709392839e-14,5.299678817e-14,7.205598426e-15,9.019521026e-15,2.417096354e-15,1.063896154e-14,1.532069905e-15,9.908640972e-15,2.927294227e-14,3.692247734e-14,1.603136349e-14,4.263622187e-15,1.831983991e-14,1.086122499e-14
0.7578125,1.522458287e-13,7.853828797e-14,2.754068937e-14,5.207995974e-14,6.647234993e-14,6.711802035e-14,4.939269063e-15,1.032267754e-14,2.4516763e-14,7.725189296e-15,3.402405829e-14,1.909523396e-14,1.42700421e-14,4.651449054e-14,1.518761598e-14,1.752022416e-14,2.810303916e-14,3.110486856e-14,1.531900193e-14,4.713855446e-14,5.428890594e-15,7.892150184e-15,1.913417625e-15,9.554005491e-15,1.296597642e-15,1.199500882e-14,3.627619571e-14,3.453511247e-14,1.796098768e-14,4.35205327e-15,1.682314326e-14,1.091002409e-14
0.765625,1.487973546e-13,7.807960303e-14,1.937663276e-14,6.5242963e-14,6.274379501e-14,6.754596722e-14,5.806125047e-15,7.311104353e-15,2.291065247e-14,5.514799792e-15,3.573401535e-14,1.967390036e-14,1.816298954e-14,5.091521427e-14,2.145688472e-14,2.349988765e-14,3.144593675e-14,3.248328637e-14,1.489153673e-14,4.189598611e-14,4.812883168e-15,7.719261557e-15,1.804628773e-15,9.657521731e-15,1.310768477e-15,1.375597163e-14,4.461296455e-14,3.430540871e-14,2.063591227e-14,4.878090754e-15,1.873904573e-14,1.112411407e-14
0.7734375,1.422878825e-13,7.773913282e-14,1.407577494e-14,8.564756797e-14,6.114367494e-14,7.084565906e-14,7.220546424e-15,6.110186571e-15,2.357929613e-14,3.977562738e-15,3.612866453e-14,2.213410046e-14,2.398198408e-14,5.839947016e-14,2.99457371e-14,3.100727616e-14,3.691554395e-14,3.506935404e-14,1.577578198e-14,3.704858514e-14,4.979138141e-15,8.402732321e-15,2.105796724e-15,1.045015673e-14,1.626543743e-15,1.491115474e-14,5.413978926e-14,3.624678811e-14,2.351241754e-14,5.734144584e-15,2.346990275e-14,1.133505567e-14
0.78125,1.341531509e-13,7.752062922e-14,1.12051645e-14,1.106492046e-13,6.167059366e-14,7.596439839e-14,8.899977369e-15,6.187510273e-15,2.640035548e-14,3.228879825e-15,3.520160177e-14,2.590063692e-14,3.147085507e-14,6.791239564e-14,3.932804311e-14,3.914683981e-14,4.458061918e-14,3.873015473e-14,1.787677511e-14,3.17275468e-14,5.589772234e-15,9.912894572e-15,2.658370961e-15,1.176070559e-14,2.212047292e-15,1.535747918e-14,6.418500937e-14,3.998991937e-14,2.637941536e-14,6.723797416e-15,3.033885913e-14,1.164204548e-14
0.7890625,1.259335113e-13,7.813304009e-14,1.025669821e-14,1.396603442e-13,6.495672176e-14,8.239174672e-14,1.061397786e-14,6.817999451e-15,3.066948239e-14,3.052511074e-15,3.27020779e-14,3.054792743e-14,4.063174303e-14,7.935685254e-14,4.94650816e-14,4.801844508e-14,5.570020232e-14,4.359299608e-14,2.157709422e-14,2.649690077e-14,6.219277228e-15,1.229579943e-14,3.335976315e-15,1.320395743e-14,3.114429465e-15,1.487616099e-14,7.342817154e-14,4.517901655e-14,2.8839194e-14,7.625428104e-15,3.815900993e-14,1.20065074e-14
0.796875,1.194320971e-13,7.741512465e-14,1.006801549e-14,1.669952245e-13,7.011319624e-14,8.812746889e-14,1.212269645e-14,7.664781361e-15,3.515203049e-14,3.338951077e-15,2.937868206e-14,3.428002021e-14,4.96889136e-14,9.002471525e-14,5.789120246e-14,5.566686445e-14,6.872124086e-14,4.797581479e-14,2.588670884e-14,2.213040984e-14,6.463181724e-15,1.49996059e-14,3.959727121e-15,1.445990747e-14,4.180615782e-15,1.343500706e-14,8.028841509e-14,4.998982293e-14,3.013585799e-14,8.357638196e-15,4.468649103e-14,1.276530233e-14
0.8046875,1.126427553e-13,7.691185934e-14,1.008679737e-14,1.895586812e-13,7.420857882e-14,9.163175237e-14,1.318078425e-14,8.50571986e-15,3.846635805e-14,4.235131062e-15,2.616668192e-14,3.606027546e-14,5.726447247e-14,9.671611007e-14,6.337988347e-14,6.232438841e-14,8.197221777e-14,5.051513536e-14,2.933787398e-14,1.927244494e-14,6.411533869e-15,1.737375853e-14,4.401448863e-15,1.558428263e-14,5.207934691e-15,1.14301133e-14,8.497193595e-14,5.37692976e-14,3.045709411e-14,8.987109852e-15,4.894541629e-14,1.38841993e-14
0.8125,1.084595229e-13,7.801125381e-14,1.010916719e-14,2.045988078e-13,7.663819624e-14,9.158266193e-14,1.348315634e-14,9.242092958e-15,4.032853726e-14,5.939992775e-15,2.346681297e-14,3.583103615e-14,6.266013859e-14,9.934074374e-14,6.619476377e-14,6.898032117e-14,9.595724083e-14,5.178297738e-14,3.16173631e-14,1.794659417e-14,6.31096349e-15,1.923749246e-14,4.663595932e-15,1.650345822e-14,6.155741269e-15,9.376861334e-15,8.763966537e-14,5.647602392e-14,3.02289893e-14,9.714968502e-15,5.095793871e-14,1.558833302e-14
0.8203125,1.067466797e-13,8.140007332e-14,1.045698256e-14,2.112062499e-13,7.658860662e-14,8.871271752e-14,1.307256579e-14,9.946077264e-15,4.005706906e-14,8.667520182e-15,2.120563724e-14,3.368492665e-14,6.534903933e-14,9.764083391e-14,6.730548112e-14,7.669403856e-14,1.10337905e-13,5.192251482e-14,3.272669831e-14,1.938848006e-14,6.392551894e-15,2.035295155e-14,4.793464622e-15,1.714614355e-14,7.057806696e-15,7.720069109e-15,8.747947656e-14,5.833863415e-14,2.985760713e-14,1.077496987e-14,5.00721403e-14,1.790568228e-14
0.828125,1.074023884e-13,8.708147358e-14,1.17943869e-14,2.09959554e-13,7.323797344e-14,8.368923973e-14,1.211253865e-14,1.053048031e-14,3.774146699e-14,1.248291259e-14,1.958323996e-14,3.009586392e-14,6.488488098e-14,9.155258494e-14,6.707507947e-14,8.635390043e-14,1.238207678e-13,5.130520225e-14,3.228741328e-14,2.36578742e-14,6.769856137e-15,2.039918996e-14,4.697455925e-15,1.737548315e-14,7.738949638e-15,6.758986308e-15,8.440211643e-14,6.019584091e-14,2.937683831e-14,1.246892467e-14,4.623811771e-14,2.038048003e-14
0.8359375,1.082568435e-13,9.564724507e-14,1.515320651e-14,2.013877856e-13,6.573698713e-14,7.652947386e-14,1.071921722e-14,1.107400304e-14,3.341858234e-14,1.765360977e-14,1.950826994e-14,2.57310635e-14,6.138499764e-14,8.158542455e-14,6.67700337e-14,9.894121121e-14,1.355257455e-13,5.069966808e-14,3.022301141e-14,3.099780552e-14,7.774799889e-15,1.934868831e-14,4.487343689e-15,1.708204682e-14,8.239117003e-15,6.698609964e-15,7.946847773e-14,6.298034211e-14,2.93868084e-14,1.509166962e-14,4.090828039e-14,2.257809121e-14
0.84375,1.100670052e-13,1.063785927e-13,2.197993414e-14,1.910906144e-13,5.635285051e-14,7.068792223e-14,9.114832186e-15,1.149492601e-14,2.833239873e-14,2.392963676e-14,2.082370721e-14,2.225899071e-14,5.622598877e-14,7.026669772e-14,6.848337638e-14,1.150885358e-13,1.468551232e-13,5.145877205e-14,2.79822246e-14,4.068591648e-14,9.361645763e-15,1.776870668e-14,4.217647946e-15,1.625939891e-14,8.656946065e-15,7.555131918e-15,7.349056688e-14,6.866682018e-14,3.069509995e-14,1.846649549e-14,3.617392479e-14,2.413856654e-14
0.8515625,1.109958769e-13,1.17352665e-13,3.236557375e-14,1.806815453e-13,4.575686673e-14,6.63974845e-14,7.50537742e-15,1.166239622e-14,2.283171416e-14,3.112528647e-14,2.266760108e-14,2.004285088e-14,5.017288677e-14,5.856763443e-14,7.24031276e-14,1.332712614e-13,1.563855948e-13,5.357765213e-14,2.606526641e-14,5.163331605e-14,1.123749619e-14,1.578703364e-14,3.948995678e-15,1.485795634e-14,9.128699499e-15,9.279194829e-15,6.714573646e-14,7.624738359e-14,3.369564979e-14,2.242793857e-14,3.244073788e-14,2.491720379e-14
0.859375,1.080461851e-13,1.254333649e-13,4.676223153e-14,1.720417374e-13,3.499197618e-14,6.387045448e-14,6.100540594e-15,1.147878324e-14,1.783496009e-14,3.845693054e-14,2.509883501e-14,1.961464294e-14,4.406410233e-14,4.78122841e-14,7.749210664e-14,1.500708463e-13,1.613109563e-13,5.598630863e-14,2.462848823e-14,6.232232557e-14,1.322609918e-14,1.37555935e-14,3.665251848e-15,1.335841022e-14,9.606684941e-15,1.148374505e-14,6.096326538e-14,8.470772746e-14,3.842371328e-14,2.667591373e-14,3.102737042e-14,2.452524081e-14
0.8671875,1.01672286e-13,1.298979347e-13,6.367482865e-14,1.641457612e-13,2.486111496e-14,6.226089423e-14,4.882559847e-15,1.080540872e-14,1.374899454e-14,4.491804521e-14,2.795327912e-14,2.083898869e-14,3.817519063e-14,3.862851626e-14,8.256706422e-14,1.633894877e-13,1.6176404e-13,5.857625535e-14,2.38015537e-14,7.124772418e-14,1.512982548e-14,1.185063995e-14,3.330636089e-15,1.209399701e-14,9.99387225e-15,1.380151875e-14,5.566369855e-14,9.354381789e-14,4.396129058e-14,3.056961076e-14,3.259798101e-14,2.285189286e-14
0.875,9.277017418e-14,1.286396794e-13,8.126531757e-14,1.572617116e-13,1.672996073e-14,6.184968294e-14,3.859841432e-15,9.785856403e-15,1.099901444e-14,4.956711336e-14,3.050432625e-14,2.32901824e-14,3.349663771e-14,3.178201493e-14,8.696559727e-14,1.709848177e-13,1.577437747e-13,6.073194736e-14,2.386698055e-14,7.668629042e-14,1.665233856e-14,1.030327126e-14,3.04632442e-15,1.149874325e-14,1.037601002e-14,1.60382034e-14,5.146824433e-14,1.004685622e-13,4.987458151e-14,3.339091766e-14,3.714737632e-14,2.028285053e-14
0.8828125,8.080841288e-14,1.204781076e-13,9.552748826e-14,1.477992239e-13,1.051355006e-14,6.02003944e-14,3.100756525e-15,8.690909457e-15,9.331144713e-15,5.123001793e-14,3.152951687e-14,2.559222517e-14,2.942793736e-14,2.667268531e-14,8.784825592e-14,1.690687138e-13,1.473165171e-13,6.06415597e-14,2.384633654e-14,7.725212531e-14,1.706773869e-14,8.980723025e-15,2.875932751e-15,1.170282072e-14,1.068736259e-14,1.773696965e-14,4.784525533e-14,1.017625304e-13,5.528118201e-14,3.444369413e-14,4.30214576e-14,1.715596296e-14
0.890625,6.603900816e-14,1.060369415e-13,1.055110001e-13,1.34521156e-13,6.094139783e-15,5.613694627e-14,2.485383001e-15,7.735018732e-15,8.502296255e-15,5.026402405e-14,3.130099348e-14,2.720168546e-14,2.540409987e-14,2.274332063e-14,8.411863672e-14,1.568661185e-13,1.304195269e-13,5.769865713e-14,2.321392883e-14,7.302728954e-14,1.697872419e-14,7.796082802e-15,2.834769563e-15,1.278759344e-14,1.081991956e-14,1.879561678e-14,4.447087484e-14,9.770894155e-14,5.824117991e-14,3.396041724e-14,4.933202998e-14,1.391189229e-14
0.8984375,5.163598671e-14,8.983948677e-14,1.105628317e-13,1.19571125e-13,3.456871355e-15,5.167870955e-14,2.099536542e-15,7.094800481e-15,8.357432783e-15,4.696099462e-14,2.993336008e-14,2.786172351e-14,2.210038641e-14,2.035961948e-14,7.742324969e-14,1.384868763e-13,1.106393968e-13,5.348847931e-14,2.20362051e-14,6.584296134e-14,1.64821877e-14,6.845094482e-15,2.970473357e-15,1.470315788e-14,1.089066441e-14,1.916100866e-14,4.14488717e-14,9.044482056e-14,5.979949556e-14,3.182663269e-14,5.560412051e-14,1.075307111e-14
0.90625,3.898741471e-14,7.408429907e-14,1.07387817e-13,1.045219954e-13,2.390986703e-15,4.636353097e-14,1.899452842e-15,6.973374703e-15,8.373807504e-15,4.129246885e-14,2.707753714e-14,2.680038612e-14,1.920160114e-14,1.847061182e-14,6.801794168e-14,1.159538773e-13,8.974225422e-14,4.824173496e-14,2.013163372e-14,5.676038548e-14,1.516014805e-14,5.982275636e-15,3.365745778e-15,1.709671119e-14,1.090824031e-14,1.868620707e-14,3.824776265e-14,8.015323834e-14,5.93441962e-14,2.782223208e-14,5.938999201e-14,8.085949595e-15
0.9140625,2.876773358e-14,6.044397586e-14,9.587638717e-14,9.062472528e-14,2.740371605e-15,4.035330612e-14,1.855116427e-15,7.322810953e-15,7.952022471e-15,3.432847424e-14,2.272536275e-14,2.391261342e-14,1.617353479e-14,1.619487709e-14,5.669941345e-14,9.169122952e-14,6.91751598e-14,4.289715967e-14,1.751209339e-14,4.785949514e-14,1.317971048e-14,5.051371325e-15,4.036516237e-15,1.916022808e-14,1.098460373e-14,1.742378173e-14,3.517829062e-14,6.80965087e-14,5.703406741e-14,2.259745093e-14,5.858257428e-14,5.996877885e-15
0.921875,2.149111735e-14,5.209475353e-14,8.088745925e-14,8.133976225e-14,4.404530834e-15,3.547873062e-14,1.85184719e-15,8.037629157e-15,7.494044076e-15,2.786363124e-14,1.849002544e-14,2.060109544e-14,1.368545985e-14,1.437307972e-14,4.540983488e-14,6.934129728e-14,5.121352116e-14,3.857084824e-14,1.464143226e-14,4.160080751e-14,1.142934773e-14,4.245379808e-15,4.774305353e-15,2.069503765e-14,1.103908577e-14,1.576065724e-14,3.200776484e-14,5.889870003e-14,5.270399129e-14,1.744300888e-14,5.557985224e-14,4.578649106e-15
0.9296875,1.733998896e-14,4.933406137e-14,6.415848023e-14,7.647891147e-14,7.150087494e-15,3.216887028e-14,1.862336921e-15,9.06298027e-15,6.781906475e-15,2.2448029e-14,1.472764633e-14,1.728005844e-14,1.203953747e-14,1.297928303e-14,3.569373704e-14,5.183921775e-14,3.775707976e-14,3.644310989e-14,1.204704226e-14,3.891645502e-14,9.797091777e-15,3.585636245e-15,5.496243375e-15,2.129901982e-14,1.116680774e-14,1.381040387e-14,2.932404428e-14,5.271719316e-14,4.777997885e-14,1.256992551e-14,5.090717259e-14,3.758271766e-15
0.9375,1.560659686e-14,5.204202966e-14,4.784423901e-14,7.709182671e-14,1.073625241e-14,3.028667159e-14,1.782286644e-15,9.896036649e-15,6.047742211e-15,1.813248239e-14,1.204239927e-14,1.50625814e-14,1.165842537e-14,1.256485624e-14,2.883642804e-14,3.993997649e-14,2.892521702e-14,3.677532436e-14,1.035555391e-14,3.986888233e-14,8.513074487e-15,3.213688369e-15,6.03894198e-15,2.094368389e-14,1.123145689e-14,1.202240328e-14,2.732262157e-14,4.97044052e-14,4.29102909e-14,8.408082259e-15,4.473271684e-14,3.43668775e-15
0.9453125,1.566204868e-14,6.019759127e-14,3.438316329e-14,8.042051225e-14,1.437608233e-14,2.946861908e-14,1.65474927e-15,1.030617836e-14,5.436846231e-15,1.516011675e-14,1.058557638e-14,1.416228279e-14,1.278901815e-14,1.339872364e-14,2.574130106e-14,3.422788629e-14,2.437193424e-14,3.938923689e-14,9.757550611e-15,4.437471381e-14,7.670735739e-15,3.199079219e-15,6.231245481e-15,1.976435784e-14,1.127475718e-14,1.064315455e-14,2.652119955e-14,4.942074986e-14,3.913168311e-14,5.250398299e-15,3.856756775e-14,3.415715381e-15
0.953125,1.628031881e-14,7.269117823e-14,2.434575683e-14,8.421438214e-14,1.770730569e-14,2.873746257e-14,1.443523054e-15,1.042901583e-14,5.372702611e-15,1.326267369e-14,1.019342532e-14,1.466289828e-14,1.585046445e-14,1.56633577e-14,2.580206827e-14,3.34503073e-14,2.28583475e-14,4.360654189e-14,1.017285098e-14,5.094795897e-14,6.949899335e-15,3.712610148e-15,6.04621004e-15,1.869043754e-14,1.125148691e-14,9.840749727e-15,2.71843628e-14,4.995844967e-14,3.805814237e-14,3.111080473e-15,3.477119207e-14,3.703945404e-15
0.9609375,1.729646708e-14,8.971715456e-14,1.844189271e-14,8.955517158e-14,2.012824719e-14,2.82051553e-14,1.210475741e-15,1.016313346e-14,6.062785417e-15,1.175303531e-14,1.06005761e-14,1.664129805e-14,2.103690052e-14,1.954347932e-14,2.926942613e-14,3.699813587e-14,2.395412321e-14,4.871457692e-14,1.155435701e-14,5.880586706e-14,6.60763305e-15,4.84040076e-15,5.523678604e-15,1.811862727e-14,1.109888842e-14,9.641366857e-15,2.973059689e-14,5.039905856e-14,4.110565564e-14,1.887522957e-15,3.406216059e-14,4.225866889e-15
0.96875,1.846515396e-14,1.10288969e-13,1.539069056e-14,9.476388042e-14,2.062938427e-14,2.725885759e-14,1.046824624e-15,9.444383633e-15,7.720000468e-15,1.008444496e-14,1.118805979e-14,1.935122999e-14,2.774952095e-14,2.401841435e-14,3.43174464e-14,4.253649517e-14,2.596736529e-14,5.297585395e-14,1.322243164e-14,6.576987032e-14,6.247368281e-15,6.619161806e-15,4.849486342e-15,1.877667635e-14,1.071904211e-14,9.868838061e-15,3.430703167e-14,4.928858899e-14,4.897423126e-14,1.442722487e-15,3.659621478e-14,4.947610942e-15
0.9765625,1.991503881e-14,1.353980763e-13,1.378208336e-14,1.003716266e-13,1.949503517e-14,2.599735049e-14,9.943207726e-16,8.402682513e-15,1.040528036e-14,8.76580658e-15,1.133026868e-14,2.234762111e-14,3.530411375e-14,2.810850644e-14,3.943998645e-14,4.875069129e-14,2.782220195e-14,5.546593861e-14,1.476839349e-14,7.169048714e-14,5.8178312e-15,8.987167448e-15,4.362594043e-15,2.082236937e-14,1.024937603e-14,1.033529887e-14,4.079241505e-14,4.730112386e-14,6.160423288e-14,1.595540854e-15,4.155087448e-14,5.932400662e-15
0.984375,2.15617817e-14,1.623034053e-13,1.290288352e-14,1.081637109e-13,1.735711605e-14,2.499823097e-14,1.058146658e-15,7.146653998e-15,1.407431148e-14,7.86776415e-15,1.095700058e-14,2.539492353e-14,4.26302246e-14,3.127006355e-14,4.358193644e-14,5.36920744e-14,2.878063806e-14,5.597120184e-14,1.603925618e-14,7.515856836e-14,5.394543929e-15,1.186178565e-14,4.325268635e-15,2.430026789e-14,9.703595746e-15,1.088769996e-14,4.844880543e-14,4.493982069e-14,7.754048451e-14,2.35493366e-15,4.79573571e-14,7.319188219e-15
0.9921875,2.392474916e-14,1.901190722e-13,1.17521736e-14,1.184265467e-13,1.470741433e-14,2.483624942e-14,1.206525022e-15,5.864551468e-15,1.847553403e-14,7.328062788e-15,9.950364603e-15,2.822012223e-14,4.878120154e-14,3.313225944e-14,4.565025552e-14,5.633282475e-14,2.871535302e-14,5.410818406e-14,1.667594001e-14,7.594733648e-14,5.097233727e-15,1.504435694e-14,4.855678159e-15,2.873509243e-14,9.068215716e-15,1.115847441e-14,5.631665597e-14,4.262735202e-14,9.465565918e-14,3.779581846e-15,5.450261662e-14,8.955819014e-15
1,2.657874433e-14,2.16064659e-13,1.090845484e-14,1.293638922e-13,1.181359742e-14,2.582987292e-14,1.411494993e-15,4.654292859e-15,2.315928502e-14,7.752429695e-15,8.949537952e-15,3.100546284e-14,5.299330139e-14,3.330741703e-14,4.438423269e-14,5.563692688e-14,2.735174621e-14,4.99675266e-14,1.66187656e-14,7.314855461e-14,5.213379619e-15,1.817951917e-14,5.900632678e-15,3.333240647e-14,8.332449479e-15,1.101078024e-14,6.324266661e-14,4.186968065e-14,1.102011249e-13,5.883740136e-15,6.06759712e-14,1.063663996e-14
1.0078125,2.901218527e-14,2.35930162e-13,1.043118667e-14,1.395970563e-13,9.356734281e-15,2.757955459e-14,1.65714791e-15,3.586554918e-15,2.731704154e-14,9.080097264e-15,7.976731828e-15,3.314543158e-14,5.410916875e-14,3.157098738e-14,4.022752827e-14,5.210373603e-14,2.480980168e-14,4.396763017e-14,1.590216063e-14,6.736631039e-14,5.849645199e-15,2.077166469e-14,7.35221994e-15,3.704045962e-14,7.589333734e-15,1.039520192e-14,6.849341838e-14,4.212837984e-14,1.213320312e-13,8.773945001e-15,6.438645902e-14,1.221573649e-14
1.015625,3.06995847e-14,2.48206799e-13,1.103554036e-14,1.491986045e-13,7.854632101e-15,2.978616222e-14,1.995129106e-15,2.667180217e-15,3.040732911e-14,1.141489662e-14,7.677161827e-15,3.479622411e-14,5.226207549e-14,2.887517709e-14,3.407422073e-14,4.566806439e-14,2.15134071e-14,3.713798074e-14,1.481871616e-14,5.920639379e-14,7.117306271e-15,2.246072741e-14,8.946246421e-15,3.939085276e-14,6.942970804e-15,9.437376778e-15,7.048292792e-14,4.391522388e-14,1.260806485e-13,1.241418607e-14,6.483926428e-14,1.323604886e-14
1.0234375,3.100021112e-14,2.530462939e-13,1.300480484e-14,1.573437083e-13,7.451764283e-15,3.170191608e-14,2.537794718e-15,2.016404407e-15,3.176591134e-14,1.463083202e-14,8.512550584e-15,3.545239196e-14,4.806759599e-14,2.551019536e-14,2.700230998e-14,3.791373026e-14,1.801710944e-14,3.024513189e-14,1.324908656e-14,5.061001863e-14,8.971509412e-15,2.287849513e-14,1.047024032e-14,4.002627265e-14,6.508978077e-15,8.350059113e-15,6.86469915e-14,4.703625819e-14,1.241149355e-13,1.667767582e-14,6.197793146e-14,1.352166803e-14
1.03125,3.023766575e-14,2.522452159e-13,1.637439415e-14,1.631529277e-13,8.468960325e-15,3.247975743e-14,3.325010661e-15,1.707899903e-15,3.12882902e-14,1.900064924e-14,1.03857865e-14,3.497309353e-14,4.202567235e-14,2.197973853e-14,1.977161624e-14,2.994546283e-14,1.461544979e-14,2.380094427e-14,1.134422569e-14,4.412061835e-14,1.113058528e-14,2.203194999e-14,1.17309861e-14,3.898473465e-14,6.305246947e-15,7.338537938e-15,6.42277872e-14,5.166177387e-14,1.165625424e-13,2.115042412e-14,5.683208777e-14,1.308716538e-14
1.0390625,2.912703765e-14,2.477967388e-13,2.102440763e-14,1.664009143e-13,1.158842504e-14,3.201213027e-14,4.461850685e-15,1.82536331e-15,2.913055143e-14,2.416385956e-14,1.337433377e-14,3.317917943e-14,3.497490377e-14,1.943878001e-14,1.370739259e-14,2.318357848e-14,1.204219846e-14,1.854770008e-14,9.534541807e-15,4.162865083e-14,1.328120129e-14,1.997409862e-14,1.246517363e-14,3.643590303e-14,6.427183855e-15,6.508898791e-15,5.718678081e-14,5.725267839e-14,1.043950252e-13,2.549858473e-14,4.9132151e-14,1.190259211e-14
1.046875,2.780931101e-14,2.414325528e-13,2.643185491e-14,1.666584093e-13,1.708900106e-14,2.965075347e-14,6.093555611e-15,2.484794778e-15,2.557795066e-14,3.006517093e-14,1.707552693e-14,3.006618627e-14,2.780313191e-14,1.818755259e-14,9.227162656e-15,1.808132333e-14,1.02585026e-14,1.460034078e-14,7.762345863e-15,4.448403712e-14,1.502134978e-14,1.696114588e-14,1.273601364e-14,3.345385423e-14,6.862866679e-15,5.962214476e-15,4.828306979e-14,6.276627856e-14,9.025896432e-14,2.927018487e-14,3.98534867e-14,1.020846681e-14
1.0546875,2.717715774e-14,2.339126363e-13,3.216961336e-14,1.618753735e-13,2.529635065e-14,2.610633108e-14,8.135560508e-15,3.842661702e-15,2.143713451e-14,3.660446409e-14,2.108360421e-14,2.591552478e-14,2.111032841e-14,1.876337605e-14,6.342889012e-15,1.478880873e-14,9.479294855e-15,1.221545812e-14,6.051420063e-15,5.282019497e-14,1.625278644e-14,1.353866905e-14,1.276950919e-14,3.083329749e-14,7.625127579e-15,5.578595104e-15,3.885537436e-14,6.774717351e-14,7.513326305e-14,3.190913245e-14,3.078620264e-14,8.554411928e-15
1.0625,2.798614544e-14,2.265365741e-13,3.752206793e-14,1.508835938e-13,3.521886452e-14,2.263739845e-14,1.040825071e-14,5.918517936e-15,1.758919347e-14,4.287958684e-14,2.494647619e-14,2.160509914e-14,1.553894957e-14,2.106903038e-14,5.209489655e-15,1.37441912e-14,9.846454048e-15,1.128313136e-14,4.87492193e-15,6.462808014e-14,1.68663848e-14,1.040406794e-14,1.233352301e-14,2.891512953e-14,8.445792456e-15,5.424139899e-15,3.066251925e-14,7.12603219e-14,6.171512265e-14,3.308996908e-14,2.337017348e-14,7.194703503e-15
1.0703125,3.031049463e-14,2.172155935e-13,4.18137341e-14,1.351017903e-13,4.618359963e-14,1.99006614e-14,1.281099943e-14,8.67073881e-15,1.452603683e-14,4.838873731e-14,2.810473777e-14,1.73306977e-14,1.14030483e-14,2.47883438e-14,5.750174367e-15,1.487352415e-14,1.144343875e-14,1.162526032e-14,4.184286796e-15,7.785649417e-14,1.661437956e-14,7.91676634e-15,1.16888892e-14,2.841513463e-14,9.28709562e-15,5.281824586e-15,2.403133191e-14,7.202787094e-14,5.072746933e-14,3.274212271e-14,1.772167005e-14,6.49711549e-15
1.078125,3.343398243e-14,2.054853972e-13,4.518127398e-14,1.142255305e-13,5.652122207e-14,1.857441777e-14,1.52607712e-14,1.194419843e-14,1.263714595e-14,5.288868983e-14,3.059480252e-14,1.376232827e-14,8.725638911e-15,2.920694694e-14,7.892810381e-15,1.810628665e-14,1.392325376e-14,1.266674454e-14,3.972741171e-15,9.035463697e-14,1.581970713e-14,6.363716606e-15,1.092106435e-14,2.912412242e-14,1.00104795e-14,5.135124673e-15,2.002446217e-14,7.03877577e-14,4.26067066e-14,3.106052078e-14,1.466682153e-14,6.466061188e-15
1.0859375,3.624159734e-14,1.905153621e-13,4.63174943e-14,9.048328694e-14,6.437485664e-14,1.898324139e-14,1.740702557e-14,1.541222313e-14,1.210219946e-14,5.583966795e-14,3.153470627e-14,1.106791889e-14,7.262127735e-15,3.309844398e-14,1.142941435e-14,2.321518859e-14,1.689696565e-14,1.388975431e-14,4.067198426e-15,1.002142457e-13,1.455572192e-14,5.796239653e-15,1.018245211e-14,3.066657416e-14,1.054777977e-14,5.029656979e-15,1.900650585e-14,6.623013949e-14,3.635984007e-14,2.789125422e-14,1.362816084e-14,7.199554545e-15
1.09375,3.732349582e-14,1.723341838e-13,4.505737415e-14,6.63166266e-14,6.806655247e-14,2.040381693e-14,1.898044477e-14,1.872300409e-14,1.251590536e-14,5.617727821e-14,3.084998917e-14,9.082367072e-15,6.728897964e-15,3.518297297e-14,1.613987575e-14,3.029946302e-14,1.988067493e-14,1.452756154e-14,4.19550496e-15,1.058332259e-13,1.287628929e-14,5.959774103e-15,9.31134776e-15,3.270229299e-14,1.064256922e-14,5.101150692e-15,2.097160841e-14,5.949700557e-14,3.187687614e-14,2.377355746e-14,1.391259462e-14,8.498680382e-15
1.1015625,3.677499054e-14,1.522529377e-13,4.206717108e-14,4.55260765e-14,6.760425073e-14,2.225486027e-14,1.991921001e-14,2.147718682e-14,1.362817629e-14,5.473801439e-14,2.868632994e-14,7.725306499e-15,6.700728001e-15,3.516855579e-14,2.193231083e-14,3.90621012e-14,2.304686609e-14,1.46597872e-14,4.222294816e-15,1.073166465e-13,1.100718612e-14,6.635976887e-15,8.52472343e-15,3.481470807e-14,1.038895636e-14,5.644411758e-15,2.541039135e-14,5.186165171e-14,2.808358209e-14,1.937500985e-14,1.478391037e-14,1.006482253e-14
1.109375,3.527260099e-14,1.318909826e-13,3.754382747e-14,2.917212118e-14,6.320122799e-14,2.352353515e-14,2.013425913e-14,2.325341761e-14,1.496084825e-14,5.179151369e-14,2.545599597e-14,6.905124358e-15,6.737409056e-15,3.300094163e-14,2.847224184e-14,4.926622599e-14,2.658075804e-14,1.422221549e-14,4.185206872e-15,1.061007691e-13,9.200171085e-15,7.552611667e-15,7.91955694e-15,3.628940005e-14,9.898347978e-15,6.796616021e-15,3.186937554e-14,4.42620885e-14,2.437249973e-14,1.514035705e-14,1.558716152e-14,1.144144179e-14
1.1171875,3.401655744e-14,1.145084599e-13,3.13272712e-14,1.866592291e-14,5.604833357e-14,2.380501107e-14,1.959631265e-14,2.388086213e-14,1.621870331e-14,4.72976566e-14,2.130580504e-14,6.432561634e-15,6.944068517e-15,2.929411736e-14,3.527812072e-14,6.04055492e-14,3.085934332e-14,1.403329811e-14,4.311707045e-15,1.025755686e-13,7.49756255e-15,8.556951344e-15,7.588374072e-15,3.663116794e-14,9.350595222e-15,8.734589416e-15,3.937825111e-14,3.804583823e-14,2.068112755e-14,1.125107933e-14,1.589983385e-14,1.2545105e-14
1.125,3.533164544e-14,1.027135458e-13,2.48361393e-14,1.456004707e-14,4.75704297e-14,2.334538274e-14,1.826842801e-14,2.316735316e-14,1.693592511e-14,4.164956885e-14,1.667109443e-14,6.180973797e-15,7.424923159e-15,2.492009635e-14,4.162111195e-14,7.193785969e-14,3.683330326e-14,1.494892534e-14,4.76547754e-15,9.723172987e-14,5.866974618e-15,9.485849363e-15,7.477452376e-15,3.570238005e-14,8.787001049e-15,1.14882946e-14,4.677974182e-14,3.371403353e-14,1.732756338e-14,8.064459851e-15,1.551774813e-14,1.307109826e-14
1.1328125,4.155227953e-14,9.664004472e-14,1.878625828e-14,1.666588472e-14,3.970877853e-14,2.293219319e-14,1.624973319e-14,2.125469163e-14,1.726018932e-14,3.605204193e-14,1.234744833e-14,6.357343736e-15,8.526314786e-15,2.144562843e-14,4.716168538e-14,8.288553996e-14,4.463217885e-14,1.791299556e-14,5.85021451e-15,9.032901436e-14,4.47211526e-15,1.04780385e-14,7.691717185e-15,3.351273059e-14,8.314133147e-15,1.47248034e-14,5.252448121e-14,3.24339941e-14,1.467005192e-14,5.876499608e-15,1.530739755e-14,1.293962028e-14
1.140625,5.435496305e-14,9.790281527e-14,1.33352553e-14,2.514231817e-14,3.378587443e-14,2.407467253e-14,1.384599138e-14,1.847410862e-14,1.728605835e-14,3.055010523e-14,8.810551613e-15,7.062096651e-15,1.062841288e-14,1.981358854e-14,5.10086565e-14,9.220036612e-14,5.395183724e-14,2.330182685e-14,7.68823674e-15,8.302545511e-14,3.428754244e-15,1.161308891e-14,8.237533869e-15,2.979421736e-14,7.9561666e-15,1.811120186e-14,5.593182198e-14,3.456616436e-14,1.304665411e-14,4.533698855e-15,1.550788772e-14,1.23118344e-14
1.1484375,7.345196375e-14,1.053455807e-13,8.937133623e-15,3.937190138e-14,3.005187118e-14,2.813153835e-14,1.129669892e-14,1.562775534e-14,1.743882811e-14,2.547679902e-14,6.121657277e-15,8.34327886e-15,1.409828735e-14,2.046823143e-14,5.294963089e-14,9.947430292e-14,6.379813289e-14,3.07412186e-14,9.988048406e-15,7.494706742e-14,2.76731967e-15,1.297770982e-14,9.000857537e-15,2.543534905e-14,7.608089633e-15,2.09649949e-14,5.568117149e-14,4.007144447e-14,1.243560244e-14,3.896717526e-15,1.642115327e-14,1.15742983e-14
1.15625,9.796042011e-14,1.1904597e-13,5.882735296e-15,5.819421643e-14,2.834535612e-14,3.554773766e-14,8.88868772e-15,1.297110908e-14,1.778303616e-14,2.136568067e-14,4.533274263e-15,1.026906396e-14,1.897349767e-14,2.361848751e-14,5.275678359e-14,1.032979286e-13,7.289889256e-14,3.95606041e-14,1.257507651e-14,6.553819547e-14,2.57302247e-15,1.449729631e-14,9.812993308e-15,2.055996062e-14,7.149070491e-15,2.279215002e-14,5.237811717e-14,4.84018565e-14,1.290858394e-14,3.988139864e-15,1.817890258e-14,1.084199595e-14
1.1640625,1.238584635e-13,1.366830419e-13,4.039073475e-15,7.986158962e-14,2.767759913e-14,4.601501643e-14,6.933423539e-15,1.112837629e-14,1.833953391e-14,1.839174409e-14,3.815955409e-15,1.248805987e-14,2.494617105e-14,2.834792902e-14,5.086911624e-14,1.033023214e-13,7.888739938e-14,4.7810795e-14,1.486158498e-14,5.581364151e-14,2.918680927e-15,1.593495973e-14,1.076196593e-14,1.576348497e-14,6.461750964e-15,2.305448718e-14,4.588306859e-14,5.833650703e-14,1.35693585e-14,4.437174626e-15,2.038216601e-14,1.03006848e-14
1.171875,1.477221606e-13,1.57779392e-13,3.287641643e-15,1.01194332e-13,2.719156073e-14,5.793973384e-14,5.596318579e-15,1.038723503e-14,1.91333275e-14,1.655393143e-14,3.751698527e-15,1.501749429e-14,3.148899052e-14,3.419857867e-14,4.895021539e-14,1.016790861e-13,8.128692582e-14,5.410259683e-14,1.658790021e-14,4.67622672e-14,3.851309354e-15,1.709869908e-14,1.156804406e-14,1.15284949e-14,5.564279707e-15,2.154307825e-14,3.745187651e-14,6.845319821e-14,1.42686837e-14,4.945368692e-15,2.310864866e-14,9.932406175e-15
1.1796875,1.659905507e-13,1.814737155e-13,3.460809794e-15,1.18728461e-13,2.635182909e-14,6.864289463e-14,4.951213652e-15,1.048425778e-14,2.019006134e-14,1.577126869e-14,4.097254381e-15,1.773466802e-14,3.782455945e-14,4.012349855e-14,4.734029749e-14,9.798703273e-14,7.9312408e-14,5.735917898e-14,1.732167283e-14,3.910070369e-14,5.318906862e-15,1.775664387e-14,1.212284603e-14,8.062278784e-15,4.577227255e-15,1.881480133e-14,2.847588179e-14,7.718251617e-14,1.489603045e-14,5.399339362e-15,2.592712913e-14,9.847810082e-15
1.1875,1.762185392e-13,2.074198219e-13,4.684569845e-15,1.298577288e-13,2.494438085e-14,7.614601956e-14,4.892508323e-15,1.118019912e-14,2.102912926e-14,1.585180208e-14,4.50462471e-15,2.054488004e-14,4.368857682e-14,4.589128684e-14,4.738369512e-14,9.304904169e-14,7.317994058e-14,5.708561672e-14,1.746662818e-14,3.351878801e-14,7.436646603e-15,1.768693633e-14,1.233930983e-14,5.539710474e-15,3.579996129e-15,1.528607807e-14,2.047633939e-14,8.366322582e-14,1.593280554e-14,5.580928497e-15,2.844837211e-14,9.774222938e-15
1.1953125,1.760078085e-13,2.33844312e-13,6.463384726e-15,1.337240364e-13,2.281807398e-14,7.927472481e-14,5.213058554e-15,1.215449812e-14,2.136124508e-14,1.628261251e-14,4.809763551e-15,2.322895657e-14,4.808564321e-14,5.045086597e-14,4.935398214e-14,8.816908601e-14,6.37356735e-14,5.337214461e-14,1.699139855e-14,3.083986955e-14,1.003349764e-14,1.683438402e-14,1.21949826e-14,3.939044344e-15,2.673628635e-15,1.170003743e-14,1.4023885e-14,8.68456113e-14,1.785628272e-14,5.482553147e-15,3.060189906e-14,9.495450732e-15
1.203125,1.667344564e-13,2.579806782e-13,8.654479329e-15,1.291064676e-13,2.039690342e-14,7.717785726e-14,5.565605324e-15,1.266074704e-14,2.10270974e-14,1.657495211e-14,4.930082113e-15,2.575933506e-14,5.057294845e-14,5.408625187e-14,5.236640697e-14,8.319986155e-14,5.360503774e-14,4.747314985e-14,1.610026454e-14,3.050756202e-14,1.303439867e-14,1.528819834e-14,1.162849107e-14,3.104659732e-15,2.075881598e-15,8.71018522e-15,9.41749121e-15,8.597784019e-14,2.134546796e-14,5.012142707e-15,3.243520342e-14,8.806899114e-15
1.2109375,1.506635456e-13,2.788196981e-13,1.053076661e-14,1.171225033e-13,1.820480082e-14,7.006738252e-14,5.65117407e-15,1.246159421e-14,2.020188431e-14,1.685529419e-14,4.730969335e-15,2.793686808e-14,5.089830971e-14,5.642429192e-14,5.378000843e-14,7.642398444e-14,4.327553806e-14,4.034667043e-14,1.481850395e-14,3.139747189e-14,1.61784575e-14,1.33009243e-14,1.077843805e-14,2.748863651e-15,1.715050774e-15,6.676453003e-15,6.63938132e-15,8.24848121e-14,2.573558719e-14,4.411282349e-15,3.37494938e-14,7.800472829e-15
1.21875,1.297524079e-13,2.896202112e-13,1.19795689e-14,9.9512748e-14,1.666304212e-14,5.926046848e-14,5.44083146e-15,1.147197508e-14,1.863804651e-14,1.697235434e-14,4.301816626e-15,2.916196412e-14,4.852049902e-14,5.671204874e-14,5.295410715e-14,6.805135456e-14,3.409061289e-14,3.261959675e-14,1.322643629e-14,3.234964565e-14,1.922255084e-14,1.099962886e-14,9.661286681e-15,2.722657014e-15,1.580694929e-15,5.592291801e-15,5.531090908e-15,7.626302904e-14,2.988918315e-14,3.742900632e-15,3.390728355e-14,6.500009709e-15
1.2265625,1.069500996e-13,2.882453985e-13,1.269169283e-14,8.155181654e-14,1.618314557e-14,4.761278515e-14,5.042463238e-15,1.025390032e-14,1.664256836e-14,1.653899627e-14,3.675438416e-15,2.960197487e-14,4.42474702e-14,5.59999766e-14,5.023258887e-14,5.906054938e-14,2.761503058e-14,2.529693751e-14,1.163824716e-14,3.272894849e-14,2.200003356e-14,8.807096084e-15,8.440214504e-15,2.734302995e-15,1.651854227e-15,5.113868769e-15,5.846669328e-15,6.825478846e-14,3.274219216e-14,3.231240091e-15,3.297429701e-14,5.055901607e-15
1.234375,8.589071191e-14,2.735877007e-13,1.268664759e-14,6.499913541e-14,1.684383139e-14,3.669703702e-14,4.36096303e-15,8.924005667e-15,1.445532557e-14,1.518937033e-14,2.915585024e-15,2.915097712e-14,3.877779487e-14,5.489639082e-14,4.473697818e-14,4.960132e-14,2.458140306e-14,1.913895866e-14,1.005660102e-14,3.123530628e-14,2.427451722e-14,6.963477097e-15,7.241739242e-15,2.829584453e-15,1.803540738e-15,4.937777007e-15,7.709249097e-15,5.919418611e-14,3.350525749e-14,2.880666547e-15,3.081979184e-14,3.724211779e-15
1.2421875,6.83664162e-14,2.44472967e-13,1.224200391e-14,5.266247369e-14,1.855150875e-14,2.82698241e-14,3.617055332e-15,7.998712203e-15,1.228526733e-14,1.330475691e-14,2.186426938e-15,2.765857719e-14,3.234147945e-14,5.330403054e-14,3.842857731e-14,4.209836682e-14,2.544275809e-14,1.41224848e-14,8.721664003e-15,2.821747865e-14,2.568892123e-14,5.622664785e-15,6.168652306e-15,2.802202755e-15,1.980956273e-15,4.694076501e-15,1.122574572e-14,4.996190512e-14,3.127635499e-14,2.663309082e-15,2.723746306e-14,2.634339028e-15
1.25,5.482655049e-14,2.054279381e-13,1.168312551e-14,4.558930486e-14,2.029258218e-14,2.295285164e-14,2.990073484e-15,8.008775482e-15,1.013576479e-14,1.132987016e-14,1.599432069e-15,2.525662569e-14,2.57402761e-14,5.082545719e-14,3.315605771e-14,3.775600054e-14,2.929129092e-14,1.030518953e-14,7.908795359e-15,2.418647146e-14,2.62701785e-14,4.693352532e-15,5.291563207e-15,2.977319438e-15,2.232402788e-15,4.420522043e-15,1.631849451e-14,4.143498809e-14,2.753310524e-14,2.605962262e-15,2.274681472e-14,1.917016873e-15
1.2578125,4.590953604e-14,1.620182344e-13,1.112338703e-14,4.378153359e-14,2.247584397e-14,2.138761474e-14,2.636591682e-15,9.292266126e-15,8.229694613e-15,9.080308153e-15,1.288044628e-15,2.226159303e-14,1.983757735e-14,4.7968964e-14,2.992490554e-14,3.702742846e-14,3.51324932e-14,7.485632567e-15,7.61122227e-15,2.075806441e-14,2.56893399e-14,4.202200231e-15,4.693377284e-15,3.609396243e-15,2.428947097e-15,4.448860278e-15,2.258861571e-14,3.365915641e-14,2.325537061e-14,2.724942193e-15,1.772530807e-14,1.509604917e-15
1.265625,4.064189223e-14,1.203424769e-13,1.064050479e-14,4.516609414e-14,2.417249945e-14,2.339809846e-14,2.644960864e-15,1.196132726e-14,6.560915571e-15,6.813852471e-15,1.208120241e-15,1.875209409e-14,1.48898136e-14,4.401409439e-14,2.956078832e-14,4.009477556e-14,4.19702913e-14,5.605589794e-15,7.888037174e-15,1.8698036e-14,2.376914756e-14,3.987491055e-15,4.432300084e-15,5.227292032e-15,2.61139383e-15,5.122262143e-15,2.937444502e-14,2.663242841e-14,2.006811326e-14,2.865257407e-15,1.282729389e-14,1.37601884e-15
1.2734375,3.875077669e-14,8.654160722e-14,1.05932386e-14,4.794775977e-14,2.580199766e-14,2.86304647e-14,3.033136721e-15,1.597076179e-14,5.443024368e-15,4.959740321e-15,1.491812342e-15,1.534137849e-14,1.12135201e-14,3.945410556e-14,3.096460715e-14,4.472144102e-14,4.742909948e-14,4.604028965e-15,8.417539519e-15,1.854460435e-14,2.095546666e-14,3.991214386e-15,4.422208202e-15,8.007539055e-15,2.687019598e-15,6.786350864e-15,3.482220173e-14,2.079689391e-14,1.881704681e-14,3.170348362e-15,9.364281891e-15,1.453445979e-15
1.28125,3.961638178e-14,6.208432959e-14,1.137792222e-14,5.018985169e-14,2.745691909e-14,3.595201756e-14,3.695708291e-15,2.098732583e-14,5.098805759e-15,3.702218988e-15,2.235405307e-15,1.23040441e-14,8.691630434e-15,3.432098397e-14,3.268986982e-14,4.927249952e-14,5.104520571e-14,4.420448942e-15,8.808018733e-15,2.040431943e-14,1.774868016e-14,4.098181511e-15,4.602113553e-15,1.252400779e-14,2.687300052e-15,9.370412764e-15,3.85444972e-14,1.614987777e-14,1.932922507e-14,3.779121833e-15,8.176346538e-15,1.662573311e-15
1.2890625,4.3644916e-14,4.68523341e-14,1.403714234e-14,5.153033896e-14,3.098555584e-14,4.556182129e-14,4.695210059e-15,2.640728826e-14,6.002454661e-15,3.073774527e-15,3.761003578e-15,1.058207649e-14,7.687461467e-15,3.041634883e-14,3.408536429e-14,5.237604307e-14,5.326125931e-14,5.339221023e-15,9.311707899e-15,2.343325332e-14,1.464115402e-14,4.647515335e-15,4.831512921e-15,1.892729372e-14,2.619207749e-15,1.26938206e-14,4.00882417e-14,1.29368154e-14,2.095720116e-14,4.860088259e-15,1.04637982e-14,1.904214781e-15
1.296875,4.819498876e-14,3.798648847e-14,1.965439014e-14,5.243618233e-14,3.631490682e-14,5.58666656e-14,5.806644708e-15,3.156227622e-14,8.416706705e-15,2.997326523e-15,6.43364532e-15,1.081271467e-14,8.436413551e-15,2.864627738e-14,3.443903927e-14,5.235598887e-14,5.380949104e-14,7.863542002e-15,9.917376834e-15,2.641956641e-14,1.231304192e-14,5.748933166e-15,5.041625252e-15,2.703450907e-14,2.654909473e-15,1.606409823e-14,3.978474227e-14,1.094572025e-14,2.304279256e-14,6.451716103e-15,1.704503311e-14,2.135853449e-15
1.3046875,5.369136561e-14,3.275672899e-14,2.94427967e-14,5.743403251e-14,4.489850446e-14,6.707655933e-14,6.902417761e-15,3.604487081e-14,1.279606894e-14,3.296743227e-15,1.047436775e-14,1.404306043e-14,1.187447538e-14,3.128968424e-14,3.501887261e-14,5.040196457e-14,5.427337296e-14,1.264296006e-14,1.134546371e-14,2.875332227e-14,1.160849621e-14,7.864210972e-15,5.110284445e-15,3.671540615e-14,2.960713604e-15,1.878346812e-14,3.854256688e-14,1.11086856e-14,2.553952761e-14,8.483077265e-15,2.888026021e-14,2.33447776e-15
1.3125,5.958535606e-14,2.8947583e-14,4.4358151e-14,6.903624385e-14,5.759281263e-14,7.856012361e-14,7.817880551e-15,3.917406945e-14,1.918171179e-14,3.771219318e-15,1.60659847e-14,2.089712017e-14,1.865017017e-14,4.019227891e-14,3.729649036e-14,4.811175543e-14,5.627127593e-14,2.013315432e-14,1.427515694e-14,3.025997002e-14,1.311944234e-14,1.127662443e-14,4.914560877e-15,4.776511309e-14,3.724346753e-15,2.056062619e-14,3.821814262e-14,1.377138584e-14,2.898815045e-14,1.0739674e-14,4.622649765e-14,2.51925383e-15
1.3203125,6.607349047e-14,2.619782339e-14,6.347009493e-14,9.005460242e-14,7.455961294e-14,9.03570987e-14,8.592862366e-15,4.040437654e-14,2.742070309e-14,4.293498007e-15,2.252756979e-14,3.157249652e-14,2.922862279e-14,5.623809019e-14,4.332312225e-14,4.757129779e-14,6.061096569e-14,3.080123172e-14,1.964921575e-14,3.075072763e-14,1.641447075e-14,1.626494575e-14,4.50648253e-15,5.935938887e-14,5.131543607e-15,2.119560511e-14,3.9910236e-14,1.928493687e-14,3.424649011e-14,1.290475312e-14,6.837909899e-14,2.714743871e-15
1.328125,7.140283594e-14,2.429596127e-14,8.588472671e-14,1.217410175e-13,9.479869757e-14,1.019796993e-13,9.153550288e-15,3.939285621e-14,3.698087978e-14,4.777010827e-15,2.96539691e-14,4.562319615e-14,4.38607236e-14,7.889890842e-14,5.386262396e-14,4.90443474e-14,6.659499851e-14,4.47560731e-14,2.785698847e-14,3.053227913e-14,2.134071062e-14,2.268367106e-14,3.903450955e-15,7.056596701e-14,7.344454634e-15,2.054627477e-14,4.436839955e-14,2.735422184e-14,4.263297131e-14,1.470303285e-14,9.449108973e-14,2.913662888e-15
1.3359375,7.690346692e-14,2.377414869e-14,1.086668477e-13,1.616548319e-13,1.174398269e-13,1.136349477e-13,9.533553958e-15,3.670099669e-14,4.706868801e-14,5.163975706e-15,3.650795705e-14,6.158161147e-14,6.115214191e-14,1.067148302e-13,6.885948944e-14,5.431382498e-14,7.482752044e-14,6.135613163e-14,3.847383257e-14,3.081123538e-14,2.73388062e-14,3.020992238e-14,3.243274241e-15,7.989882277e-14,1.030130489e-14,1.902420801e-14,5.150851323e-14,3.722977173e-14,5.393925942e-14,1.588634274e-14,1.219502092e-13,3.114730288e-15
1.34375,8.344421565e-14,2.530124642e-14,1.288599727e-13,2.047570517e-13,1.409685808e-13,1.243816899e-13,9.727937725e-15,3.268950206e-14,5.670616505e-14,5.435257727e-15,4.234349034e-14,7.77583653e-14,7.930925035e-14,1.372216368e-13,8.677456444e-14,6.253584754e-14,8.424545154e-14,7.933773111e-14,5.077455195e-14,3.195230349e-14,3.343526845e-14,3.826027606e-14,2.66133638e-15,8.701676533e-14,1.370858056e-14,1.706638739e-14,6.027597376e-14,4.777177082e-14,6.707615179e-14,1.6220919e-14,1.47878372e-13,3.377412693e-15
1.3515625,9.024436772e-14,2.815239447e-14,1.436909849e-13,2.440046127e-13,1.618404311e-13,1.335634289e-13,9.875975198e-15,2.764972915e-14,6.439299375e-14,5.635585018e-15,4.593204064e-14,9.14095285e-14,9.624878076e-14,1.655480998e-13,1.03957304e-13,7.13138289e-14,9.260766015e-14,9.656100001e-14,6.294069961e-14,3.357083813e-14,3.843094161e-14,4.566828454e-14,2.220856466e-15,9.098237957e-14,1.73254447e-14,1.512138875e-14,6.926491665e-14,5.691764292e-14,8.024382903e-14,1.577836072e-14,1.685508616e-13,3.700687754e-15
1.359375,9.662595111e-14,3.182297558e-14,1.528235224e-13,2.754089999e-13,1.779146857e-13,1.412379438e-13,9.969051912e-15,2.228535535e-14,6.959926796e-14,5.867772543e-15,4.812980315e-14,1.015871276e-13,1.0996791e-13,1.890038242e-13,1.183988637e-13,7.988556006e-14,9.926031223e-14,1.118265162e-13,7.345876534e-14,3.573765718e-14,4.234777224e-14,5.182340245e-14,2.038363211e-15,9.139278004e-14,2.076432783e-14,1.329015985e-14,7.702078991e-14,6.444827184e-14,9.147536295e-14,1.494368419e-14,1.831475167e-13,4.000585631e-15
1.3671875,1.034588266e-13,3.529888261e-14,1.5394209e-13,2.912054977e-13,1.877169935e-13,1.453687279e-13,9.831518303e-15,1.719025677e-14,7.166689083e-14,5.922332032e-15,4.885627674e-14,1.064474987e-13,1.176191761e-13,2.045911135e-13,1.269196772e-13,8.63835149e-14,1.039879228e-13,1.236528254e-13,8.066512579e-14,3.863330514e-14,4.438826773e-14,5.601206926e-14,2.114492089e-15,8.763817469e-14,2.359227858e-14,1.162079385e-14,8.257629347e-14,6.891530399e-14,9.847587877e-14,1.373648205e-14,1.891741537e-13,4.308656744e-15
1.375,1.081701365e-13,3.712914759e-14,1.484258087e-13,2.902880077e-13,1.894268127e-13,1.452970254e-13,9.460105955e-15,1.257262515e-14,7.019918951e-14,6.047356921e-15,4.810104461e-14,1.056357736e-13,1.184235111e-13,2.095984489e-13,1.274077318e-13,8.826114443e-14,1.046567063e-13,1.299900341e-13,8.301141345e-14,4.093125814e-14,4.448544886e-14,5.741056293e-14,2.465312019e-15,8.074719745e-14,2.526803785e-14,1.009658499e-14,8.481369763e-14,7.021852197e-14,9.964984824e-14,1.233923181e-14,1.853527241e-13,4.544675321e-15
1.3828125,1.089971232e-13,3.751218794e-14,1.369175512e-13,2.739872789e-13,1.812100308e-13,1.407029678e-13,8.814207874e-15,8.702715844e-15,6.495432012e-14,6.271231116e-15,4.630277853e-14,9.879952609e-14,1.126241406e-13,2.022135697e-13,1.204513533e-13,8.615013931e-14,1.013148679e-13,1.297154664e-13,8.035357681e-14,4.216259556e-14,4.249452166e-14,5.5706591e-14,3.039005218e-15,7.132142482e-14,2.569717328e-14,8.680065344e-15,8.3989324e-14,6.864755276e-14,9.516003659e-14,1.098194057e-14,1.720862897e-13,4.597340269e-15
1.390625,1.056124869e-13,3.694454621e-14,1.218368254e-13,2.457169698e-13,1.653446303e-13,1.3157036e-13,7.859797535e-15,5.877795829e-15,5.756221818e-14,6.611180306e-15,4.438597378e-14,8.792183678e-14,1.015686951e-13,1.854430146e-13,1.068159754e-13,7.993431316e-14,9.386873167e-14,1.231188844e-13,7.299365786e-14,4.338343765e-14,3.916606335e-14,5.160747234e-14,3.733464976e-15,6.11404717e-14,2.477103611e-14,7.228536961e-15,8.041355917e-14,6.524756629e-14,8.574230918e-14,9.916787612e-15,1.530985798e-13,4.550843324e-15
1.3984375,9.853852428e-14,3.687456683e-14,1.042052972e-13,2.089853652e-13,1.444430615e-13,1.172538913e-13,6.577368942e-15,3.892317541e-15,4.893407538e-14,6.973754937e-15,4.230144434e-14,7.461298841e-14,8.689383813e-14,1.620391434e-13,8.824486064e-14,7.000351843e-14,8.346211792e-14,1.117961993e-13,6.260237747e-14,4.447084858e-14,3.447160036e-14,4.564579071e-14,4.422600265e-15,5.109861273e-14,2.269920533e-14,5.858509437e-15,7.567571071e-14,6.064572878e-14,7.332274745e-14,9.157151519e-15,1.306608358e-13,4.413721519e-15
1.40625,8.702055561e-14,3.657202513e-14,8.609161299e-14,1.710861583e-13,1.20246213e-13,1.003657639e-13,5.348748397e-15,2.581093514e-15,3.941416482e-14,7.253962481e-15,3.981839948e-14,5.984975009e-14,7.02985583e-14,1.336239287e-13,6.838203541e-14,5.785679405e-14,7.014845421e-14,9.615581137e-14,5.060161918e-14,4.500694009e-14,2.91621305e-14,3.834467957e-14,5.153780041e-15,4.196591943e-14,1.967747344e-14,4.568709938e-15,6.993936885e-14,5.481132856e-14,5.900803045e-14,8.553467876e-15,1.05722648e-13,4.101366669e-15
1.4140625,7.275648397e-14,3.769361492e-14,6.952888253e-14,1.378583885e-13,9.507521709e-14,8.264685057e-14,4.341557338e-15,1.910781807e-15,3.023224958e-14,7.398832055e-15,3.757498826e-14,4.554147632e-14,5.43176852e-14,1.042371268e-13,5.082308478e-14,4.665630605e-14,5.654921123e-14,7.849827274e-14,3.931986076e-14,4.49762898e-14,2.387212039e-14,3.07914917e-14,5.964492649e-15,3.485338861e-14,1.642949011e-14,3.709735423e-15,6.434122722e-14,4.88372134e-14,4.5951128e-14,8.293923934e-15,8.175222581e-14,3.704207037e-15
1.421875,5.873401712e-14,4.070300847e-14,5.483752857e-14,1.12202682e-13,7.238381815e-14,6.474933178e-14,3.484756452e-15,1.637089425e-15,2.262195824e-14,7.567635399e-15,3.528337983e-14,3.324272206e-14,4.062392888e-14,7.721516126e-14,3.553654439e-14,3.631791852e-14,4.324343257e-14,6.062348279e-14,2.996016647e-14,4.503281868e-14,1.899809315e-14,2.397110844e-14,6.945546935e-15,3.053566797e-14,1.318715139e-14,3.232321328e-15,5.89664454e-14,4.34938144e-14,3.488177797e-14,8.356312112e-15,6.110755043e-14,3.401404567e-15
1.4296875,4.619177948e-14,4.42952241e-14,4.291958888e-14,9.648283241e-14,5.369193097e-14,4.859504879e-14,2.964750648e-15,1.576687395e-15,1.693971759e-14,7.569731943e-15,3.272856573e-14,2.361321797e-14,2.996049684e-14,5.477484994e-14,2.466729345e-14,2.849424729e-14,3.210342691e-14,4.455308972e-14,2.344875759e-14,4.496670001e-14,1.488145845e-14,1.839810099e-14,8.222152294e-15,2.905837357e-14,1.032614529e-14,3.371752252e-15,5.495519532e-14,3.826686219e-14,2.767452069e-14,8.680245453e-15,4.47284283e-14,3.247288774e-15
1.4375,3.618447832e-14,4.804367692e-14,3.376774811e-14,9.073418823e-14,4.014091739e-14,3.556960077e-14,2.673434108e-15,1.676407423e-15,1.304177012e-14,6.969510866e-15,2.953658458e-14,1.639213999e-14,2.231100967e-14,3.755074441e-14,1.82387924e-14,2.337535504e-14,2.394467923e-14,3.099260414e-14,1.995337241e-14,4.55478138e-14,1.159036067e-14,1.426872214e-14,9.916326596e-15,3.004238934e-14,8.065490962e-15,4.071794906e-15,5.162991315e-14,3.248665061e-14,2.410317128e-14,8.936364875e-15,3.212051842e-14,3.334891722e-15
1.4453125,2.917260292e-14,5.19393984e-14,2.799787745e-14,9.424147488e-14,3.164039456e-14,2.627435008e-14,2.525970009e-15,1.78312632e-15,1.08903222e-14,6.307857109e-15,2.64594984e-14,1.175848896e-14,1.764251573e-14,2.567786287e-14,1.517827321e-14,2.126467911e-14,1.924479413e-14,2.068625907e-14,1.889154566e-14,4.594961577e-14,9.249571508e-15,1.171643244e-14,1.201573126e-14,3.282115461e-14,6.59162969e-15,5.20900347e-15,4.908606392e-14,2.71735255e-14,2.465463389e-14,9.232942031e-15,2.346153153e-14,3.639507682e-15
1.453125,2.567195019e-14,5.525558418e-14,2.427915449e-14,1.035872749e-13,2.779216071e-14,2.0284068e-14,2.484284196e-15,1.834231269e-15,1.020201829e-14,5.747733904e-15,2.31569241e-14,8.970787474e-15,1.550419513e-14,1.825370819e-14,1.480480318e-14,2.20875004e-14,1.840293276e-14,1.359936617e-14,1.927741832e-14,4.669869049e-14,7.425959709e-15,1.052727294e-14,1.442751738e-14,3.69439528e-14,5.906794503e-15,6.492855464e-15,4.747386952e-14,2.193179598e-14,2.844952516e-14,9.255116083e-15,1.791917669e-14,4.207895879e-15
1.4609375,2.455690517e-14,5.839315567e-14,2.184113353e-14,1.14595763e-13,2.741876119e-14,1.670600274e-14,2.394439001e-15,1.783001483e-15,1.057202723e-14,5.284229458e-15,1.985947206e-14,7.589152105e-15,1.511170978e-14,1.433730362e-14,1.59979247e-14,2.484378491e-14,2.022697847e-14,9.079868429e-15,2.05462988e-14,4.816701504e-14,6.066620539e-15,1.030596452e-14,1.693106079e-14,4.128338377e-14,5.802993443e-15,7.917917016e-15,4.673565185e-14,1.689600554e-14,3.49793819e-14,8.953779007e-15,1.45844771e-14,4.932202061e-15
1.46875,2.52291634e-14,6.236786519e-14,1.990276648e-14,1.240872907e-13,2.970613167e-14,1.508174733e-14,2.195101514e-15,1.632188725e-15,1.154860912e-14,4.849373874e-15,1.684513524e-14,7.140247899e-15,1.578260328e-14,1.314002898e-14,1.82128415e-14,2.953403582e-14,2.488787105e-14,6.825081846e-15,2.212346721e-14,5.086318054e-14,4.951591885e-15,1.071290972e-14,1.91816496e-14,4.476090939e-14,6.183703187e-15,9.456977065e-15,4.722957052e-14,1.226674322e-14,4.357491559e-14,8.093453917e-15,1.2794709e-14,5.690386504e-15
1.4765625,2.684785805e-14,6.762202604e-14,1.814378337e-14,1.279429439e-13,3.313439595e-14,1.41533277e-14,1.941669658e-15,1.400340657e-15,1.256931295e-14,4.573526195e-15,1.469104217e-14,7.191181269e-15,1.667215436e-14,1.368229464e-14,2.140682108e-14,3.600925293e-14,3.186350125e-14,6.304248652e-15,2.356881242e-14,5.457103866e-14,4.075500828e-15,1.116735584e-14,2.087521907e-14,4.659014387e-14,6.904923328e-15,1.134460343e-14,4.870485427e-14,8.555021793e-15,5.31233896e-14,6.957359681e-15,1.186445406e-14,6.358558803e-15
1.484375,2.890813802e-14,7.560415354e-14,1.644440227e-14,1.250904119e-13,3.662054158e-14,1.362221102e-14,1.727079532e-15,1.193412849e-15,1.323203656e-14,4.372411891e-15,1.402251944e-14,7.483957262e-15,1.767736492e-14,1.544008845e-14,2.598721433e-14,4.419774317e-14,4.054823164e-14,7.283423862e-15,2.511968837e-14,5.918492285e-14,3.517409394e-15,1.14511449e-14,2.18780708e-14,4.63314459e-14,7.854740676e-15,1.393828192e-14,5.160894545e-14,6.011846229e-15,6.386797324e-14,5.846214628e-15,1.167929931e-14,6.840020137e-15
1.4921875,3.064873813e-14,8.650993347e-14,1.535084609e-14,1.161359299e-13,3.859027622e-14,1.292412494e-14,1.598262193e-15,9.46735731e-16,1.320135739e-14,4.198104187e-15,1.5454991e-14,7.861825338e-15,1.826714446e-14,1.762427393e-14,3.255684476e-14,5.429319672e-14,5.034889224e-14,9.557495894e-15,2.66861356e-14,6.413357928e-14,3.525289988e-15,1.118936163e-14,2.217516074e-14,4.379824808e-14,8.987816088e-15,1.733423582e-14,5.593668261e-14,4.833887241e-15,7.534636194e-14,4.953214463e-15,1.21956514e-14,7.059375748e-15
1.5,3.148237127e-14,1.008633697e-13,1.556306619e-14,1.015063689e-13,3.852730016e-14,1.213849699e-14,1.564068487e-15,7.164253597e-16,1.244368728e-14,4.029104092e-15,1.9406815e-14,8.355711253e-15,1.830958396e-14,1.998071527e-14,4.156538981e-14,6.661880736e-14,6.100312196e-14,1.291117777e-14,2.821626793e-14,7.008362554e-14,4.302819459e-15,1.038610604e-14,2.159347038e-14,3.905759223e-14,1.017549813e-14,2.191877381e-14,6.206396622e-14,5.257903604e-15,8.784632034e-14,4.515731282e-15,1.345127806e-14,7.118282828e-15
1.5078125,3.107978976e-14,1.192729054e-13,1.891149595e-14,8.445821488e-14,3.623635632e-14,1.180788902e-14,1.646448394e-15,5.482227479e-16,1.100475379e-14,3.82525007e-15,2.621451082e-14,9.165718346e-15,1.757819372e-14,2.185576257e-14,5.331800987e-14,8.111325376e-14,7.157995953e-14,1.689560047e-14,2.93168316e-14,7.684553953e-14,6.150793001e-15,9.103224414e-15,2.033021423e-14,3.275710698e-14,1.119713269e-14,2.779384655e-14,6.894075651e-14,7.540499575e-15,1.011252469e-13,4.969635629e-15,1.565489974e-14,7.215310458e-15
1.515625,2.970393526e-14,1.392037658e-13,2.600507029e-14,6.935428438e-14,3.219308478e-14,1.221289929e-14,1.715291098e-15,4.497422643e-16,9.115000694e-15,3.92551374e-15,3.54401825e-14,1.037461461e-14,1.6517445e-14,2.323983832e-14,6.653754941e-14,9.591616171e-14,8.079798423e-14,2.092335715e-14,2.987123101e-14,8.37483254e-14,8.873950063e-15,7.635304949e-15,1.84338927e-14,2.606571394e-14,1.190523763e-14,3.367419263e-14,7.604172734e-14,1.135461724e-14,1.14996435e-13,6.211890282e-15,1.872430424e-14,7.311240492e-15
1.5234375,2.705526767e-14,1.595210695e-13,3.789676668e-14,5.932553557e-14,2.63436286e-14,1.376396056e-14,1.799696068e-15,3.680599955e-16,7.079389763e-15,4.764940654e-15,4.641176915e-14,1.231318841e-14,1.536539549e-14,2.426386423e-14,8.106479589e-14,1.098315373e-13,8.723402318e-14,2.46923633e-14,2.973692408e-14,8.99240115e-14,1.237837734e-14,6.178820277e-15,1.614503528e-14,1.961980656e-14,1.221799485e-14,3.898317223e-14,8.277040352e-14,1.652057297e-14,1.296175499e-13,8.047512244e-15,2.268660556e-14,7.446087958e-15
1.53125,2.359308507e-14,1.782208371e-13,5.37921782e-14,5.459165853e-14,2.012389481e-14,1.658751766e-14,1.881299977e-15,3.364287012e-16,5.35125483e-15,6.553372197e-15,5.78479211e-14,1.471793776e-14,1.428393812e-14,2.453885563e-14,9.426613316e-14,1.212489749e-13,9.049519494e-14,2.71739087e-14,2.844610787e-14,9.58420939e-14,1.594848439e-14,5.074802935e-15,1.357375978e-14,1.43019903e-14,1.195653669e-14,4.281132185e-14,8.853760201e-14,2.271802482e-14,1.435779924e-13,1.025421347e-14,2.715696089e-14,7.574447972e-15
1.5390625,1.9737533e-14,1.920366117e-13,7.184492402e-14,5.578471788e-14,1.459896912e-14,2.036389037e-14,1.911697721e-15,3.682862413e-16,4.133549627e-15,9.663182233e-15,6.842459848e-14,1.727466099e-14,1.308898169e-14,2.410700301e-14,1.044553911e-13,1.286644932e-13,8.982729236e-14,2.797990442e-14,2.60683168e-14,1.00543709e-13,1.92313645e-14,4.489012731e-15,1.102482104e-14,1.040723233e-14,1.110500137e-14,4.456908974e-14,9.208449475e-14,2.915728181e-14,1.546988914e-13,1.262772078e-14,3.097708504e-14,7.749911436e-15
1.546875,1.61362363e-14,1.98827779e-13,8.941429902e-14,6.121084393e-14,1.025245378e-14,2.448182945e-14,1.874017825e-15,4.094939254e-16,3.466275206e-15,1.406788812e-14,7.654609468e-14,1.958932702e-14,1.177021596e-14,2.303717431e-14,1.094257036e-13,1.294718432e-13,8.486925701e-14,2.711818795e-14,2.320506781e-14,1.026618377e-13,2.127865432e-14,4.457276643e-15,8.662804017e-15,7.867893526e-15,9.751775124e-15,4.331122488e-14,9.261730845e-14,3.51866748e-14,1.621967481e-13,1.485327698e-14,3.364714575e-14,7.811008156e-15
1.5546875,1.291816923e-14,1.953665535e-13,1.026118394e-13,6.592998092e-14,7.057651426e-15,2.773410975e-14,1.87719451e-15,4.675480222e-16,3.216433862e-15,1.928286523e-14,8.023793677e-14,2.073510226e-14,1.024389937e-14,2.096965517e-14,1.072760117e-13,1.220141223e-13,7.520312201e-14,2.426852309e-14,1.978237837e-14,1.006022805e-13,2.160539809e-14,4.768990921e-15,6.680954292e-15,6.40050956e-15,8.044084651e-15,3.919101735e-14,8.960415849e-14,3.916597954e-14,1.636290034e-13,1.646716713e-14,3.41922378e-14,7.721784295e-15
1.5625,1.04629848e-14,1.834137721e-13,1.092089719e-13,6.757670085e-14,5.30422534e-15,2.918779617e-14,1.961418174e-15,6.453578098e-16,3.193161752e-15,2.483986698e-14,7.948743928e-14,2.049543537e-14,8.693434774e-15,1.809753387e-14,9.846138677e-14,1.087287457e-13,6.337518886e-14,2.018889155e-14,1.622712469e-14,9.537435033e-14,2.018529828e-14,5.171453498e-15,5.093718455e-15,5.483244146e-15,6.29462121e-15,3.314350536e-14,8.361688123e-14,4.098052515e-14,1.5816437e-13,1.741226714e-14,3.267587602e-14,7.503637466e-15
1.5703125,9.044298018e-15,1.636452521e-13,1.077671638e-13,6.640670528e-14,4.546596029e-15,2.881977521e-14,2.210105204e-15,9.786596004e-16,3.139370799e-15,2.973190321e-14,7.448913069e-14,1.870206769e-14,7.098120549e-15,1.458431711e-14,8.477324716e-14,9.206439535e-14,5.09896551e-14,1.557142419e-14,1.274565777e-14,8.695349745e-14,1.73672117e-14,5.398328656e-15,4.036780829e-15,5.066711911e-15,4.727917343e-15,2.626485728e-14,7.524180755e-14,3.993139973e-14,1.459449627e-13,1.753439909e-14,2.906265817e-14,7.411551041e-15
1.578125,7.951169401e-15,1.386667332e-13,9.85813255e-14,6.161881247e-14,4.379281344e-15,2.646403429e-14,2.668032197e-15,1.565308596e-15,2.944395232e-15,3.35295781e-14,6.588602087e-14,1.576601023e-14,5.58332895e-15,1.141072662e-14,6.836808101e-14,7.371132669e-14,3.904446141e-14,1.093840447e-14,9.570825979e-15,7.519331785e-14,1.407639245e-14,5.314864329e-15,3.321400237e-15,4.587475767e-15,3.433582764e-15,1.933879734e-14,6.533338591e-14,3.651490236e-14,1.275073201e-13,1.691577075e-14,2.376815338e-14,7.489000171e-15
1.5859375,7.283951997e-15,1.117795964e-13,8.322449906e-14,5.424263039e-14,4.808290058e-15,2.27310222e-14,3.506549236e-15,2.433983588e-15,2.575498918e-15,3.524278107e-14,5.483747502e-14,1.225453016e-14,4.411906237e-15,9.103639045e-15,5.20137283e-14,5.652906296e-14,2.879479279e-14,6.845813329e-15,6.80371405e-15,6.167158692e-14,1.089643369e-14,4.815096655e-15,2.882292265e-15,4.026410098e-15,2.617820776e-15,1.340281274e-14,5.506479262e-14,3.070460065e-14,1.054744753e-13,1.542930404e-14,1.7746529e-14,7.778777135e-15
1.59375,6.811630992e-15,8.696296141e-14,6.554602038e-14,4.746896488e-14,6.027011501e-15,1.848059444e-14,4.816594393e-15,3.620317598e-15,2.099205115e-15,3.494681357e-14,4.384867723e-14,9.227433003e-15,3.760494797e-15,8.543739602e-15,3.858763664e-14,4.33692814e-14,2.1194978e-14,3.76463401e-15,4.519043844e-15,4.821623102e-14,8.78687429e-15,3.996719882e-15,2.560869145e-15,3.610203895e-15,2.210617043e-15,9.202723832e-15,4.534464017e-14,2.390190522e-14,8.265817467e-14,1.325160558e-14,1.236659157e-14,8.310124623e-15
1.6015625,6.543923549e-15,6.625043139e-14,4.973025037e-14,4.374591441e-14,8.195217207e-15,1.49991922e-14,6.687393165e-15,5.084775026e-15,1.659750415e-15,3.337133791e-14,3.49241678e-14,7.339384388e-15,3.600769446e-15,9.910104997e-15,2.976481942e-14,3.529902004e-14,1.653304142e-14,1.823515387e-15,2.851281413e-15,3.582408006e-14,8.142975531e-15,3.100044797e-15,2.29622851e-15,3.52217114e-15,2.103622546e-15,6.624986719e-15,3.733756508e-14,1.739383557e-14,6.178393173e-14,1.071766285e-14,8.583844617e-15,8.94729047e-15
1.609375,7.128306248e-15,5.042004525e-14,3.895539879e-14,4.344947083e-14,1.177579158e-14,1.28522495e-14,9.142655015e-15,6.831624576e-15,1.362370694e-15,3.106761934e-14,2.894819277e-14,6.945902323e-15,3.862486689e-15,1.300568647e-14,2.524692818e-14,3.155358577e-14,1.423891131e-14,8.936587894e-16,1.878526249e-15,2.523420472e-14,8.99948394e-15,2.238729903e-15,2.001285305e-15,3.82379432e-15,2.18475886e-15,5.544643435e-15,3.101333156e-14,1.244547048e-14,4.359815776e-14,8.304995234e-15,6.52896018e-15,9.614314299e-15
1.6171875,9.253969465e-15,4.117197417e-14,3.457562383e-14,4.606732353e-14,1.680641672e-14,1.186124289e-14,1.194350486e-14,8.538181028e-15,1.217271011e-15,2.876302989e-14,2.677453866e-14,7.884388298e-15,4.376854217e-15,1.700734299e-14,2.371036667e-14,3.079295081e-14,1.372274807e-14,9.410882045e-16,1.716615727e-15,1.703268626e-14,1.110885426e-14,1.537841645e-15,1.733896337e-15,4.601264777e-15,2.26407293e-15,5.395908673e-15,2.67901215e-14,9.963818849e-15,2.933960091e-14,6.399474442e-15,6.416991806e-15,1.002071825e-14
1.625,1.365890731e-14,3.874126666e-14,3.647571355e-14,4.934134962e-14,2.269844475e-14,1.176738043e-14,1.484579007e-14,1.010410866e-14,1.246093256e-15,2.736762548e-14,2.834168234e-14,9.752437421e-15,4.898170038e-15,2.087390076e-14,2.346836132e-14,3.168336509e-14,1.471453742e-14,1.880996971e-15,2.412523022e-15,1.08926618e-14,1.394169039e-14,1.152924562e-15,1.547720096e-15,5.862648169e-15,2.284452024e-15,5.801629989e-15,2.422942075e-14,1.085770856e-14,1.913497387e-14,5.28869325e-15,8.274762643e-15,1.021041508e-14
1.6328125,2.134105128e-14,4.29586438e-14,4.334512125e-14,5.131057988e-14,2.873429025e-14,1.194890581e-14,1.781248258e-14,1.140835444e-14,1.357567747e-15,2.778189969e-14,3.307456503e-14,1.179627015e-14,5.163462201e-15,2.337089021e-14,2.299336006e-14,3.300047857e-14,1.681401285e-14,3.60335435e-15,3.959940528e-15,6.628598323e-15,1.67733782e-14,1.037951927e-15,1.370194782e-15,7.200228856e-15,2.218867906e-15,6.368367932e-15,2.342852689e-14,1.55260935e-14,1.216786214e-14,5.324356176e-15,1.134222954e-14,1.010424082e-14
1.640625,3.269835524e-14,5.352248313e-14,5.182508483e-14,5.086129121e-14,3.378031783e-14,1.198773288e-14,2.041435143e-14,1.228312492e-14,1.540135568e-15,2.951509265e-14,3.869427376e-14,1.346416524e-14,5.271850213e-15,2.393338922e-14,2.145134795e-14,3.416471921e-14,1.977304131e-14,6.009952411e-15,6.112881655e-15,3.980946226e-15,1.905420272e-14,1.12846429e-15,1.228783923e-15,8.477801334e-15,2.134604008e-15,6.991966919e-15,2.336004851e-14,2.341071996e-14,7.492621555e-15,6.367621366e-15,1.46415712e-14,9.736497287e-15
1.6484375,4.733303796e-14,7.094070243e-14,5.971050817e-14,4.722763179e-14,3.638858915e-14,1.164601715e-14,2.222201175e-14,1.264140918e-14,1.875664744e-15,3.197417837e-14,4.424280899e-14,1.441620815e-14,5.174166984e-15,2.236483096e-14,1.836269021e-14,3.440867591e-14,2.315457826e-14,8.642176233e-15,8.477544735e-15,2.58472852e-15,2.064151105e-14,1.417557953e-15,1.168701096e-15,9.594477312e-15,2.065678665e-15,7.60968392e-15,2.384331343e-14,3.358635146e-14,4.735788162e-15,8.029958405e-15,1.765186057e-14,9.254888452e-15
1.65625,6.450241469e-14,9.361665092e-14,6.499898606e-14,4.083059644e-14,3.637829504e-14,1.081861222e-14,2.317027329e-14,1.250321639e-14,2.473585276e-15,3.501259773e-14,4.875388884e-14,1.46113003e-14,4.947227526e-15,1.962663184e-14,1.457494231e-14,3.368268363e-14,2.616883914e-14,1.115097576e-14,1.06706279e-14,2.257369132e-15,2.151968349e-14,1.881081079e-15,1.180453823e-15,1.025601414e-14,2.10422234e-15,8.383702935e-15,2.367489159e-14,4.50447155e-14,3.064890743e-15,9.974478192e-15,2.0023719e-14,8.827626452e-15
1.6640625,8.271917603e-14,1.20278297e-13,6.585532738e-14,3.288353841e-14,3.384869899e-14,9.673213493e-15,2.330405165e-14,1.195305936e-14,3.472387864e-15,3.78117331e-14,5.163811504e-14,1.403521371e-14,4.536287165e-15,1.645550354e-14,1.056894921e-14,3.200236822e-14,2.808992532e-14,1.326659913e-14,1.245795487e-14,3.197797765e-15,2.162289721e-14,2.503445502e-15,1.312782313e-15,1.018552745e-14,2.332408824e-15,9.303163571e-15,2.320984553e-14,5.684836465e-14,2.153203361e-15,1.176616395e-14,2.125711743e-14,8.517637881e-15
1.671875,1.007239076e-13,1.460696069e-13,6.138425012e-14,2.577592287e-14,2.963200197e-14,8.894645442e-15,2.254075648e-14,1.113026902e-14,4.888020619e-15,3.888795008e-14,5.122154844e-14,1.276877427e-14,3.934353672e-15,1.399306991e-14,7.419053791e-15,2.9781245e-14,2.894055881e-14,1.450548322e-14,1.335434631e-14,5.74333756e-15,2.111079147e-14,3.207351565e-15,1.661822223e-15,9.733612837e-15,2.845497324e-15,1.025061262e-14,2.17441461e-14,6.669157043e-14,1.821738895e-15,1.277786891e-14,2.05755466e-14,8.361036263e-15
1.6796875,1.166991555e-13,1.671856659e-13,5.428827811e-14,2.040557078e-14,2.495010528e-14,8.435958225e-15,2.086067163e-14,1.024382175e-14,6.670959991e-15,3.798286296e-14,4.89729359e-14,1.116114793e-14,3.413533844e-15,1.300523718e-14,5.015584215e-15,2.637893377e-14,2.828734403e-14,1.46327743e-14,1.33096716e-14,1.001833529e-14,2.02062959e-14,3.90710841e-15,2.254145849e-15,9.127852823e-15,3.706414876e-15,1.113706962e-14,1.975128255e-14,7.310781598e-14,1.967962132e-15,1.284779341e-14,1.860376748e-14,8.326265525e-15
1.6875,1.288411819e-13,1.801726485e-13,4.559976416e-14,1.746668098e-14,2.147720706e-14,8.230081012e-15,1.849393055e-14,9.556554352e-15,8.64773934e-15,3.554560887e-14,4.533570822e-14,9.386743446e-15,3.232916821e-15,1.372612672e-14,3.509886072e-15,2.216888008e-14,2.574247628e-14,1.381174542e-14,1.246747587e-14,1.643661939e-14,1.886095085e-14,4.520996486e-15,3.08794128e-15,8.562195512e-15,4.903179813e-15,1.191214501e-14,1.75334638e-14,7.558640095e-14,2.507324365e-15,1.202818515e-14,1.590758283e-14,8.340635375e-15
1.6953125,1.354905003e-13,1.822181338e-13,3.67672196e-14,1.673814521e-14,2.038402044e-14,8.021341782e-15,1.566238686e-14,9.129994479e-15,1.046463621e-14,3.17471434e-14,4.154037543e-14,7.724776815e-15,3.7104492e-15,1.597108848e-14,2.612680956e-15,1.754526688e-14,2.168037102e-14,1.273882563e-14,1.133330144e-14,2.474181353e-14,1.71462628e-14,4.940428569e-15,4.118672658e-15,8.308006668e-15,6.315121075e-15,1.245763236e-14,1.676443591e-14,7.399260199e-14,3.875395404e-15,1.069770326e-14,1.34621487e-14,8.20937849e-15
1.703125,1.375191418e-13,1.744586044e-13,2.834795253e-14,1.820853445e-14,2.173378288e-14,7.73514786e-15,1.270506663e-14,9.162356367e-15,1.187284227e-14,2.684369721e-14,3.749618591e-14,6.166220062e-15,4.865725559e-15,1.913928499e-14,2.233981537e-15,1.349486107e-14,1.730990396e-14,1.187512832e-14,1.040859669e-14,3.396567606e-14,1.503853562e-14,5.13907451e-15,5.200181001e-15,8.711056482e-15,7.803545415e-15,1.237201525e-14,1.79625742e-14,6.875736944e-14,6.221061069e-15,8.904910255e-15,1.175836754e-14,7.857383016e-15
1.7109375,1.356992599e-13,1.558266967e-13,2.225336512e-14,2.116542535e-14,2.530342349e-14,7.178807899e-15,9.699905369e-15,9.650446749e-15,1.274444015e-14,2.120354182e-14,3.405376633e-14,4.967972368e-15,7.148248814e-15,2.270263779e-14,2.14271001e-15,9.845195633e-15,1.303452998e-14,1.166799762e-14,9.942125626e-15,4.30461781e-14,1.26200381e-14,5.10583932e-15,6.172123977e-15,1.02804208e-14,9.23600676e-15,1.181200247e-14,2.18532788e-14,5.998766363e-14,9.929063847e-15,7.022935749e-15,1.155721252e-14,7.326714397e-15
1.71875,1.301488744e-13,1.29882749e-13,1.837809878e-14,2.590508136e-14,2.994190076e-14,6.41825524e-15,6.939870817e-15,1.053662189e-14,1.296109032e-14,1.565144218e-14,3.155552574e-14,4.28799648e-15,1.062169916e-14,2.565891018e-14,2.3880085e-15,7.118481057e-15,9.450798918e-15,1.245033777e-14,1.021291769e-14,5.125409751e-14,1.001617747e-14,4.858721773e-15,6.992264319e-15,1.326987273e-14,1.04794776e-14,1.117380943e-14,2.881712771e-14,4.910188742e-14,1.512875301e-14,5.287122175e-15,1.307648578e-14,6.58385333e-15
1.7265625,1.214502728e-13,1.016386682e-13,1.652889932e-14,3.258748585e-14,3.41583941e-14,5.699271556e-15,4.726226975e-15,1.156026242e-14,1.247906725e-14,1.085136969e-14,2.986930774e-14,4.253146175e-15,1.455093228e-14,2.748738025e-14,3.008794809e-15,5.369097966e-15,6.546831705e-15,1.396572804e-14,1.109906485e-14,5.672442708e-14,7.459191325e-15,4.464336508e-15,7.601577325e-15,1.751061408e-14,1.117571331e-14,1.047185677e-14,3.77111608e-14,3.777274776e-14,2.154314179e-14,3.902567048e-15,1.57757996e-14,5.645921634e-15
1.734375,1.125668141e-13,7.51936092e-14,1.63296462e-14,4.122132523e-14,3.739852779e-14,5.176329952e-15,3.039540872e-15,1.241504668e-14,1.164840752e-14,7.036406097e-15,2.851261512e-14,4.967988133e-15,1.858640613e-14,2.851038457e-14,3.884022405e-15,4.256070813e-15,4.675882897e-15,1.632171274e-14,1.248163803e-14,5.827531615e-14,5.236796767e-15,4.113832227e-15,8.048551404e-15,2.302475454e-14,1.140694371e-14,9.83353519e-15,4.718799805e-14,2.747545477e-14,2.825561565e-14,2.878911374e-15,1.919690059e-14,4.612095678e-15
1.7421875,1.040446843e-13,5.306485645e-14,1.779835171e-14,5.17369891e-14,3.879381755e-14,4.865082671e-15,1.865252039e-15,1.292579739e-14,1.067440195e-14,4.167892245e-15,2.728586829e-14,6.23653005e-15,2.24591949e-14,2.837607376e-14,5.063073318e-15,3.565481869e-15,3.727799703e-15,1.89109111e-14,1.39655884e-14,5.595922615e-14,3.414483579e-15,3.831338495e-15,8.285713802e-15,2.941451341e-14,1.124784474e-14,9.530302749e-15,5.617758366e-14,1.84860715e-14,3.454594053e-14,2.136554855e-15,2.254566275e-14,3.624161911e-15
1.75,9.665989112e-14,3.799646072e-14,2.073208728e-14,6.45918537e-14,3.801352391e-14,4.941849231e-15,1.126757281e-15,1.303600298e-14,9.761926571e-15,2.384303296e-15,2.606647263e-14,7.868421856e-15,2.539242093e-14,2.698829575e-14,6.325413154e-15,3.246354334e-15,3.452364625e-15,2.128292565e-14,1.508727049e-14,5.105292583e-14,2.13095481e-15,3.66300759e-15,8.400824696e-15,3.606407883e-14,1.065283488e-14,9.534844052e-15,6.36324925e-14,1.156019241e-14,3.927988596e-14,1.64284476e-15,2.506862889e-14,2.756105756e-15
1.7578125,9.016415661e-14,3.129541733e-14,2.436426507e-14,7.812114405e-14,3.57234304e-14,5.398327906e-15,7.732698092e-16,1.245590383e-14,8.996129493e-15,1.546270256e-15,2.44230271e-14,9.416664528e-15,2.657318414e-14,2.499058851e-14,7.413200078e-15,3.168667492e-15,3.526349617e-15,2.277163666e-14,1.542494028e-14,4.437374881e-14,1.235872025e-15,3.594747189e-15,8.280435414e-15,4.210915772e-14,9.714443199e-15,9.565695378e-15,6.792986517e-14,6.729041154e-15,4.125429059e-14,1.302139821e-15,2.574002465e-14,2.01831186e-15
1.765625,8.509368097e-14,3.470722242e-14,2.890910624e-14,9.085783879e-14,3.231182618e-14,6.073624374e-15,6.924938303e-16,1.129414318e-14,8.38101805e-15,1.333455337e-15,2.252400586e-14,1.053558746e-14,2.619577094e-14,2.246906716e-14,8.166327386e-15,3.051309511e-15,3.721465513e-15,2.331350008e-14,1.485008064e-14,3.66663318e-14,7.327309617e-16,3.585017249e-15,7.897930805e-15,4.690137133e-14,8.597303843e-15,9.39137776e-15,6.884931834e-14,3.869831814e-15,4.041207153e-14,1.103550779e-15,2.480128332e-14,1.437114756e-15
1.7734375,8.120811939e-14,4.875195129e-14,3.423689368e-14,1.011500076e-13,2.849930061e-14,6.930596578e-15,8.552363117e-16,9.786463979e-15,8.00027569e-15,1.475670758e-15,2.026139145e-14,1.103527181e-14,2.47575033e-14,1.99355075e-14,8.369774571e-15,2.921079644e-15,3.878932208e-15,2.260597998e-14,1.34582925e-14,2.989995535e-14,4.502797582e-16,3.617320554e-15,7.270928704e-15,5.033266927e-14,7.44261979e-15,8.894700661e-15,6.72885711e-14,2.591628256e-15,3.752971895e-14,1.083625992e-15,2.293312956e-14,1.019042011e-15
1.78125,7.800452587e-14,7.603162735e-14,3.986400046e-14,1.073148923e-13,2.476386703e-14,7.905845715e-15,1.323377534e-15,8.067931854e-15,7.735040384e-15,1.916482369e-15,1.806258413e-14,1.089438534e-14,2.244849051e-14,1.75497761e-14,8.057415605e-15,3.091720178e-15,4.260211278e-15,2.140381984e-14,1.183108039e-14,2.530644938e-14,2.93620736e-16,3.673526777e-15,6.452922749e-15,5.214711996e-14,6.386329268e-15,8.011419915e-15,6.398106426e-14,3.059442991e-15,3.377626484e-14,1.214800274e-15,2.061160935e-14,7.528276984e-16
1.7890625,7.428804956e-14,1.149505538e-13,4.480171071e-14,1.085380811e-13,2.188088329e-14,8.796971944e-15,2.044631151e-15,6.32575702e-15,7.50601734e-15,2.561206892e-15,1.594980766e-14,1.014604056e-14,1.940274495e-14,1.615224022e-14,7.634266518e-15,3.352056952e-15,4.82858909e-15,1.981285677e-14,1.019883341e-14,2.308718694e-14,2.398352863e-16,3.720941429e-15,5.469044241e-15,5.164457716e-14,5.542494027e-15,6.902628154e-15,5.992170929e-14,5.040020357e-15,3.024141973e-14,1.569896666e-15,1.827727629e-14,6.127272954e-16
1.796875,7.103787124e-14,1.642194326e-13,4.918727092e-14,1.04675177e-13,2.02170889e-14,9.524766436e-15,3.036766783e-15,4.912570987e-15,7.292578718e-15,3.475674567e-15,1.43394357e-14,9.225625699e-15,1.662151964e-14,1.610113576e-14,7.428192009e-15,3.912085645e-15,6.266521162e-15,1.90463715e-14,9.400142627e-15,2.335469556e-14,2.710175963e-16,3.809110897e-15,4.56661704e-15,4.936420101e-14,5.13647444e-15,5.790002787e-15,5.639663265e-14,8.739603705e-15,2.886920071e-14,2.102235449e-15,1.721228263e-14,6.261142291e-16
1.8046875,6.844255466e-14,2.190682001e-13,5.177856236e-14,9.558697932e-14,1.960463932e-14,9.89490171e-15,4.203215889e-15,3.856245477e-15,6.997758941e-15,4.754380269e-15,1.300808162e-14,8.159196703e-15,1.426085019e-14,1.739310931e-14,7.592149323e-15,4.934913522e-15,8.98321939e-15,1.986313071e-14,9.542407524e-15,2.566566626e-14,3.683891032e-16,3.875028625e-15,3.782087244e-15,4.57622314e-14,5.165271866e-15,4.778291168e-15,5.328144648e-14,1.3956845e-14,3.020448148e-14,2.693351056e-15,1.726605454e-14,7.302004285e-16
