"Time","Fp1","AF3","F7","F3","FC1","FC5","T7","C3","CP1","CP5","P7","P3","Pz","PO3","O1","Oz","O2","PO4","P4","P8","CP6","CP2","C4","T8","FC6","FC2","F4","F8","AF4","Fp2","Fz","Cz"
0.0078125,1.825533711e-13,1.583657528e-14,5.668332953e-13,1.246953411e-13,6.453297515e-14,7.024332869e-14,7.647448888e-14,1.562388329e-13,7.312409429e-14,8.909178966e-14,3.283321126e-13,1.24252963e-13,4.615702926e-14,1.09231764e-13,2.031760862e-13,4.640558416e-13,2.34902607e-13,1.811066052e-13,7.715523301e-14,3.012308473e-13,9.912185657e-14,4.571787413e-14,2.835415862e-14,3.380931664e-13,5.326502377e-14,3.52289907e-14,7.738885077e-14,8.648811961e-14,7.650326683e-13,4.570011472e-14,2.898022625e-13,1.179620557e-14
0.015625,1.861458754e-13,1.643432883e-14,5.7132318e-13,1.257959271e-13,6.570010957e-14,7.190689393e-14,7.733911518e-14,1.576058102e-13,7.388392749e-14,9.077839174e-14,3.319477298e-13,1.254188684e-13,4.736145843e-14,1.108170339e-13,2.102008653e-13,4.77904902e-13,2.417503654e-13,1.875586345e-13,7.853257359e-14,3.073698706e-13,1.003261192e-13,4.609291544e-14,2.88213401e-14,3.422419877e-13,5.49253583e-14,3.654466597e-14,7.914401525e-14,8.780994495e-14,7.713574975e-13,4.620157189e-14,2.921379125e-13,1.2163687e-14
0.0234375,1.898152844e-13,1.706749974e-14,5.755606298e-13,1.267938984e-13,6.691799562e-14,7.365228189e-14,7.815166034e-14,1.58941971e-13,7.465224325e-14,9.240823072e-14,3.353890352e-13,1.265712624e-13,4.860880066e-14,1.124672443e-13,2.173620103e-13,4.920303745e-13,2.488099638e-13,1.942157515e-13,7.98929055e-14,3.135422659e-13,1.015068346e-13,4.646260679e-14,2.92654811e-14,3.463991851e-13,5.659462782e-14,3.791155146e-14,8.090711743e-14,8.908963384e-14,7.771778832e-13,4.668353396e-14,2.943601224e-13,1.253590458e-14
0.03125,1.934262207e-13,1.774298421e-14,5.796239995e-13,1.27856171e-13,6.817382077e-14,7.543676478e-14,7.888526464e-14,1.603021251e-13,7.543870213e-14,9.399223591e-14,3.387794328e-13,1.277496855e-13,4.986242353e-14,1.14166477e-13,2.245711379e-13,5.062916292e-13,2.559751846e-13,2.009769327e-13,8.127933029e-14,3.197750664e-13,1.027190248e-13,4.682432028e-14,2.970346435e-14,3.50463117e-13,5.825287619e-14,3.932730092e-14,8.268982456e-14,9.035144178e-14,7.827757251e-13,4.71612139e-14,2.964662768e-13,1.29082284e-14
0.0390625,1.970451199e-13,1.842492693e-14,5.834346906e-13,1.290376039e-13,6.937890572e-14,7.714187258e-14,7.952529623e-14,1.616500258e-13,7.617876749e-14,9.554267513e-14,3.421925589e-13,1.288619847e-13,5.108883353e-14,1.157878427e-13,2.317471879e-13,5.206804555e-13,2.632397905e-13,2.07753974e-13,8.261990776e-14,3.259921725e-13,1.039391438e-13,4.713332013e-14,3.013331497e-14,3.543795261e-13,5.990063605e-14,4.07804334e-14,8.45079486e-14,9.157471655e-14,7.880185935e-13,4.764028846e-14,2.983231791e-13,1.327899748e-14
0.046875,2.007616134e-13,1.917280642e-14,5.86983877e-13,1.300912312e-13,7.05593385e-14,7.887224768e-14,8.010044829e-14,1.629057088e-13,7.6883867e-14,9.706486386e-14,3.456190913e-13,1.299208115e-13,5.237313417e-14,1.173938332e-13,2.390770879e-13,5.354118365e-13,2.707413483e-13,2.146709013e-13,8.394434694e-14,3.322307902e-13,1.051488494e-13,4.742637207e-14,3.053405574e-14,3.582215195e-13,6.156310742e-14,4.227370103e-14,8.641666697e-14,9.277447011e-14,7.92859232e-13,4.810884284e-14,3.000127922e-13,1.365229089e-14
0.0546875,2.044411203e-13,1.996106981e-14,5.901492971e-13,1.310407867e-13,7.177565729e-14,8.069177434e-14,8.062646484e-14,1.640943375e-13,7.760131721e-14,9.855210933e-14,3.489190843e-13,1.309379887e-13,5.371283475e-14,1.190462954e-13,2.46534883e-13,5.503200139e-13,2.7837256e-13,2.21738373e-13,8.528829121e-14,3.385873464e-13,1.063348304e-13,4.773582029e-14,3.092175724e-14,3.620048535e-13,6.324706486e-14,4.380737768e-14,8.838516497e-14,9.399542072e-14,7.974192329e-13,4.854041143e-14,3.01541312e-13,1.404269998e-14
0.0625,2.08008931e-13,2.065756734e-14,5.928336214e-13,1.320646278e-13,7.301953931e-14,8.249682623e-14,8.108773104e-14,1.652904769e-13,7.830002001e-14,9.99458521e-14,3.520028681e-13,1.318518547e-13,5.502041681e-14,1.206651786e-13,2.539428e-13,5.651943473e-13,2.860053191e-13,2.288710192e-13,8.658591384e-14,3.449822981e-13,1.074692841e-13,4.800851272e-14,3.131083259e-14,3.656329247e-13,6.494394132e-14,4.537814369e-14,9.030435736e-14,9.514357097e-14,8.015218107e-13,4.893740036e-14,3.02766763e-13,1.444947961e-14
0.0703125,2.116127826e-13,2.133839801e-14,5.951567805e-13,1.330994854e-13,7.426998842e-14,8.424381392e-14,8.147810543e-14,1.664835194e-13,7.895986481e-14,1.012419234e-13,3.549655188e-13,1.327000482e-13,5.631852297e-14,1.222254952e-13,2.61352153e-13,5.802255008e-13,2.937569642e-13,2.361314131e-13,8.783757231e-14,3.513433783e-13,1.085554636e-13,4.823676869e-14,3.1689911e-14,3.691216513e-13,6.664768654e-14,4.69844198e-14,9.220168262e-14,9.620598631e-14,8.050741074e-13,4.932364726e-14,3.037642663e-13,1.484557757e-14
0.078125,2.153203746e-13,2.211500867e-14,5.971393845e-13,1.340534238e-13,7.552185485e-14,8.594962472e-14,8.180369152e-14,1.676331997e-13,7.9616166e-14,1.02504724e-13,3.578662494e-13,1.335413196e-13,5.764430055e-14,1.237667684e-13,2.687731087e-13,5.954501645e-13,3.016417247e-13,2.435075785e-13,8.908088141e-14,3.57792816e-13,1.096155891e-13,4.846096013e-14,3.206059942e-14,3.725894948e-13,6.834278403e-14,4.861289636e-14,9.418942308e-14,9.729729822e-14,8.082778385e-13,4.968972173e-14,3.046414286e-13,1.522996175e-14
0.0859375,2.18995384e-13,2.286760952e-14,5.987316263e-13,1.349576418e-13,7.676005111e-14,8.765260686e-14,8.207558757e-14,1.687409639e-13,8.026454323e-14,1.037215752e-13,3.606796505e-13,1.34331182e-13,5.896941702e-14,1.252830071e-13,2.761272435e-13,6.106986984e-13,3.095432038e-13,2.508514869e-13,9.028184745e-14,3.64361381e-13,1.106562362e-13,4.866094664e-14,3.241808605e-14,3.759969551e-13,7.002453424e-14,5.026844452e-14,9.626134969e-14,9.835819411e-14,8.111592632e-13,5.002355298e-14,3.052978779e-13,1.562935026e-14
0.09375,2.225830105e-13,2.35864274e-14,6.000134771e-13,1.3589765e-13,7.797628811e-14,8.940315943e-14,8.229848578e-14,1.698127772e-13,8.087947763e-14,1.048595146e-13,3.634267725e-13,1.350448275e-13,6.02931348e-14,1.267724585e-13,2.834906169e-13,6.260379114e-13,3.175042369e-13,2.581669174e-13,9.143215486e-14,3.709184919e-13,1.116759278e-13,4.881565329e-14,3.274915102e-14,3.792429148e-13,7.170587387e-14,5.198222104e-14,9.833997352e-14,9.932920141e-14,8.136040652e-13,5.034286666e-14,3.056784362e-13,1.604328185e-14
0.1015625,2.26257175e-13,2.443671719e-14,6.010121784e-13,1.369135929e-13,7.921443095e-14,9.117708464e-14,8.245277512e-14,1.70851517e-13,8.146450587e-14,1.059509014e-13,3.660875195e-13,1.357026283e-13,6.162748086e-14,1.282709222e-13,2.909401291e-13,6.415676922e-13,3.256130472e-13,2.655836582e-13,9.255822166e-14,3.774706204e-13,1.126686556e-13,4.894737694e-14,3.306894194e-14,3.823695613e-13,7.338447166e-14,5.374921213e-14,1.003945703e-13,1.003259879e-13,8.156104291e-13,5.064925744e-14,3.058616549e-13,1.645966499e-14
0.109375,2.301158136e-13,2.537533861e-14,6.017330176e-13,1.379115005e-13,8.051384362e-14,9.297261364e-14,8.251578251e-14,1.718536445e-13,8.201171156e-14,1.070039873e-13,3.686338499e-13,1.363070352e-13,6.298446936e-14,1.297997073e-13,2.984328476e-13,6.572194204e-13,3.338687294e-13,2.731522368e-13,9.365768167e-14,3.840528853e-13,1.136324923e-13,4.905932024e-14,3.338283795e-14,3.853819582e-13,7.505045764e-14,5.5546846e-14,1.024777946e-13,1.013678275e-13,8.17209007e-13,5.0937663e-14,3.059074911e-13,1.688238063e-14
0.1171875,2.339893263e-13,2.625688386e-14,6.021493621e-13,1.389025252e-13,8.181435736e-14,9.481143941e-14,8.248927299e-14,1.728016098e-13,8.251825587e-14,1.080220911e-13,3.711337041e-13,1.368605995e-13,6.437191016e-14,1.31334361e-13,3.058289759e-13,6.728726314e-13,3.422593387e-13,2.808077528e-13,9.472502057e-14,3.90516745e-13,1.145692465e-13,4.914420824e-14,3.367608443e-14,3.88193271e-13,7.6704811e-14,5.739061218e-14,1.046726003e-13,1.024166806e-13,8.183716412e-13,5.123268045e-14,3.057576591e-13,1.731022528e-14
0.125,2.377615994e-13,2.709740101e-14,6.020893515e-13,1.400177395e-13,8.307387911e-14,9.66074206e-14,8.240186678e-14,1.737096237e-13,8.301200029e-14,1.090268323e-13,3.735772979e-13,1.373525651e-13,6.574317967e-14,1.328480996e-13,3.130019221e-13,6.884181731e-13,3.507426758e-13,2.884543302e-13,9.574666643e-14,3.968199078e-13,1.154759189e-13,4.920433221e-14,3.395965582e-14,3.908579893e-13,7.835285336e-14,5.9278141e-14,1.069223588e-13,1.034978169e-13,8.19014875e-13,5.154178514e-14,3.052801728e-13,1.7739653e-14
0.1328125,2.41520561e-13,2.794899945e-14,6.016621029e-13,1.411143358e-13,8.436563606e-14,9.837642104e-14,8.228054763e-14,1.745873024e-13,8.349497544e-14,1.099661862e-13,3.75891466e-13,1.37779202e-13,6.708937176e-14,1.343582094e-13,3.201014646e-13,7.038656256e-13,3.592273695e-13,2.960788982e-13,9.672227171e-14,4.031307524e-13,1.16363169e-13,4.923519805e-14,3.423224957e-14,3.934704336e-13,7.999940518e-14,6.117537541e-14,1.090872036e-13,1.045130173e-13,8.192158497e-13,5.183275121e-14,3.04526841e-13,1.816979429e-14
0.140625,2.453001136e-13,2.883914572e-14,6.011894043e-13,1.420195874e-13,8.569115692e-14,1.002740556e-13,8.210487589e-14,1.753923218e-13,8.3936629e-14,1.107995095e-13,3.781242632e-13,1.381597546e-13,6.846562581e-14,1.35857284e-13,3.273562901e-13,7.193338719e-13,3.676839621e-13,3.037222664e-13,9.767885218e-14,4.095264272e-13,1.172296962e-13,4.9238437e-14,3.446640139e-14,3.959541762e-13,8.163321636e-14,6.309178297e-14,1.112160179e-13,1.053899672e-13,8.192027638e-13,5.208165702e-14,3.036848151e-13,1.85966839e-14
0.1484375,2.490786989e-13,2.979042515e-14,6.005438934e-13,1.429174641e-13,8.696999197e-14,1.022627724e-13,8.184724197e-14,1.761417649e-13,8.43264464e-14,1.115709888e-13,3.803090697e-13,1.384710161e-13,6.986412769e-14,1.373070971e-13,3.347290276e-13,7.349366098e-13,3.762153281e-13,3.114132188e-13,9.859941649e-14,4.159936001e-13,1.180436578e-13,4.92140944e-14,3.467593984e-14,3.982553393e-13,8.324397335e-14,6.505530364e-14,1.134546762e-13,1.062688959e-13,8.1889298e-13,5.229684005e-14,3.027339396e-13,1.902990501e-14
0.15625,2.528552098e-13,3.075435448e-14,5.994959467e-13,1.439371496e-13,8.826229947e-14,1.042332254e-13,8.153500019e-14,1.769089928e-13,8.468730115e-14,1.122675235e-13,3.824140538e-13,1.387174357e-13,7.126917385e-14,1.387567305e-13,3.420916993e-13,7.506286817e-13,3.848886315e-13,3.19188795e-13,9.948031599e-14,4.225056841e-13,1.188233597e-13,4.916150536e-14,3.488688315e-14,4.004393481e-13,8.485175086e-14,6.706080803e-14,1.15771105e-13,1.071811819e-13,8.18043699e-13,5.24991649e-14,3.015764484e-13,1.947108673e-14
0.1640625,2.565253938e-13,3.170400297e-14,5.981142369e-13,1.449808735e-13,8.965359836e-14,1.062278321e-13,8.1179087e-14,1.776631292e-13,8.504109687e-14,1.128455437e-13,3.844636712e-13,1.38964827e-13,7.270730332e-14,1.402654438e-13,3.493031474e-13,7.660555461e-13,3.935636584e-13,3.269961477e-13,1.003775086e-13,4.289132393e-13,1.196190107e-13,4.909877997e-14,3.508497996e-14,4.024659708e-13,8.64559713e-14,6.91099297e-14,1.180691652e-13,1.079836154e-13,8.167028404e-13,5.268690982e-14,3.002150702e-13,1.989658549e-14
0.171875,2.600641841e-13,3.268446211e-14,5.962806413e-13,1.460651126e-13,9.105694601e-14,1.081989826e-13,8.073715064e-14,1.783379452e-13,8.536554109e-14,1.133552032e-13,3.863976782e-13,1.391669958e-13,7.413934475e-14,1.417537476e-13,3.562161303e-13,7.809936768e-13,4.021204304e-13,3.346971612e-13,1.012540365e-13,4.351765624e-13,1.203900592e-13,4.901317074e-14,3.526598338e-14,4.042565984e-13,8.802235327e-14,7.121420738e-14,1.20380503e-13,1.086901532e-13,8.149333544e-13,5.283700795e-14,2.985696012e-13,2.031350204e-14
0.1796875,2.636264525e-13,3.367685251e-14,5.939423997e-13,1.471934133e-13,9.238869218e-14,1.1005438e-13,8.020730075e-14,1.78963436e-13,8.564114825e-14,1.138281693e-13,3.881203194e-13,1.39244713e-13,7.551594207e-14,1.431326399e-13,3.628939254e-13,7.956547285e-13,4.106141181e-13,3.422585661e-13,1.020171829e-13,4.415045302e-13,1.210769148e-13,4.887003196e-14,3.544360602e-14,4.059210503e-13,8.954969681e-14,7.335300682e-14,1.227257444e-13,1.094220582e-13,8.127459121e-13,5.295424628e-14,2.966207179e-13,2.075573852e-14
0.1875,2.671937162e-13,3.461892856e-14,5.915137449e-13,1.482374077e-13,9.369931754e-14,1.119223846e-13,7.962158989e-14,1.795573879e-13,8.591054272e-14,1.14232394e-13,3.897736282e-13,1.392836148e-13,7.686345119e-14,1.4444737e-13,3.69403355e-13,8.100657999e-13,4.190291603e-13,3.496810934e-13,1.027022041e-13,4.479093889e-13,1.217227391e-13,4.869791211e-14,3.560931697e-14,4.075484832e-13,9.104553036e-14,7.549147734e-14,1.250071154e-13,1.101569422e-13,8.103173202e-13,5.306483547e-14,2.945478133e-13,2.121532583e-14
0.1953125,2.706564377e-13,3.552693301e-14,5.890722578e-13,1.492945778e-13,9.504520069e-14,1.139004507e-13,7.897358369e-14,1.800834315e-13,8.616942206e-14,1.145982769e-13,3.915074806e-13,1.393324615e-13,7.821604768e-14,1.457779193e-13,3.756931593e-13,8.240857364e-13,4.273255169e-13,3.569506017e-13,1.033704649e-13,4.541570785e-13,1.223702808e-13,4.852536962e-14,3.576016574e-14,4.090046526e-13,9.24936881e-14,7.762843684e-14,1.272117137e-13,1.108267689e-13,8.076415898e-13,5.316676598e-14,2.923747205e-13,2.166120679e-14
0.203125,2.741214086e-13,3.647752623e-14,5.862275515e-13,1.505801527e-13,9.643278837e-14,1.158911275e-13,7.826295906e-14,1.805447971e-13,8.634100189e-14,1.149659106e-13,3.932249158e-13,1.392942515e-13,7.959219234e-14,1.47135138e-13,3.818791537e-13,8.379162248e-13,4.356068836e-13,3.641982818e-13,1.039988544e-13,4.602342233e-13,1.229867789e-13,4.831518068e-14,3.590933955e-14,4.102084971e-13,9.390592849e-14,7.980575475e-14,1.29503315e-13,1.114965165e-13,8.045594137e-13,5.325289581e-14,2.899727073e-13,2.208788598e-14
0.2109375,2.776075655e-13,3.751557338e-14,5.830149666e-13,1.51950943e-13,9.784866033e-14,1.17886089e-13,7.751633081e-14,1.809517889e-13,8.646279016e-14,1.152828356e-13,3.948589445e-13,1.3918837e-13,8.097740296e-14,1.484999964e-13,3.879857557e-13,8.515786938e-13,4.438677041e-13,3.714772576e-13,1.045949061e-13,4.662941404e-13,1.235670594e-13,4.807307455e-14,3.604692363e-14,4.112716823e-13,9.52897032e-14,8.204443268e-14,1.319503912e-13,1.122313194e-13,8.011355293e-13,5.333764495e-14,2.873983759e-13,2.2507798e-14
0.21875,2.809310182e-13,3.858903797e-14,5.796889523e-13,1.531649015e-13,9.926581662e-14,1.199594607e-13,7.672684201e-14,1.812979071e-13,8.663420772e-14,1.155147857e-13,3.964490235e-13,1.39113191e-13,8.232647898e-14,1.498690331e-13,3.937939758e-13,8.64800044e-13,4.519930806e-13,3.785730918e-13,1.051937882e-13,4.723856287e-13,1.241454134e-13,4.785034474e-14,3.615412995e-14,4.122336882e-13,9.661024768e-14,8.429456871e-14,1.344145847e-13,1.129229662e-13,7.973621762e-13,5.341412615e-14,2.847637026e-13,2.293434316e-14
0.2265625,2.840599447e-13,3.960199663e-14,5.761297102e-13,1.543656651e-13,1.006779862e-13,1.220616699e-13,7.587498152e-14,1.816031461e-13,8.680044869e-14,1.157173337e-13,3.979346316e-13,1.390105247e-13,8.365806399e-14,1.512182256e-13,3.993266268e-13,8.776102136e-13,4.600028533e-13,3.853997217e-13,1.057704809e-13,4.785142115e-13,1.247076576e-13,4.762664068e-14,3.624324227e-14,4.130025691e-13,9.787995057e-14,8.652495882e-14,1.368251547e-13,1.134663495e-13,7.931524991e-13,5.345239096e-14,2.820335721e-13,2.336373135e-14
0.234375,2.870669552e-13,4.053993829e-14,5.723005712e-13,1.55738559e-13,1.021128267e-13,1.241539077e-13,7.497795516e-14,1.818546776e-13,8.688225678e-14,1.159108633e-13,3.993009253e-13,1.388190948e-13,8.501506773e-14,1.525236253e-13,4.047448058e-13,8.900134157e-13,4.679094925e-13,3.921159865e-13,1.063181043e-13,4.846010934e-13,1.252244949e-13,4.736591477e-14,3.633829205e-14,4.135448794e-13,9.915877096e-14,8.878554983e-14,1.392657258e-13,1.139569111e-13,7.887165156e-13,5.345635953e-14,2.791609324e-13,2.378150372e-14
0.2421875,2.900010416e-13,4.148094584e-14,5.684630354e-13,1.571403393e-13,1.035966164e-13,1.263177714e-13,7.405204309e-14,1.820055265e-13,8.693969592e-14,1.16037069e-13,4.007096484e-13,1.386240623e-13,8.639383442e-14,1.538614501e-13,4.099927274e-13,9.018788613e-13,4.756932334e-13,3.987507825e-13,1.068878772e-13,4.905189246e-13,1.257256815e-13,4.709914665e-14,3.642930861e-14,4.139118197e-13,1.004364367e-13,9.10970843e-14,1.4176241e-13,1.145061565e-13,7.841815683e-13,5.346166861e-14,2.761784068e-13,2.419546508e-14
0.25,2.929898606e-13,4.249334207e-14,5.646308625e-13,1.584622595e-13,1.05119432e-13,1.285821856e-13,7.307976447e-14,1.820809698e-13,8.700986799e-14,1.160911692e-13,4.022388247e-13,1.384565206e-13,8.77938375e-14,1.552951454e-13,4.149801534e-13,9.133566586e-13,4.83429742e-13,4.051749275e-13,1.074725579e-13,4.963293889e-13,1.262459571e-13,4.684275399e-14,3.648496814e-14,4.141708886e-13,1.016372798e-13,9.340185896e-14,1.442415897e-13,1.150726194e-13,7.793446858e-13,5.347961544e-14,2.731153435e-13,2.461279861e-14
0.2578125,2.960253207e-13,4.353181395e-14,5.605506259e-13,1.598076623e-13,1.066291988e-13,1.308581695e-13,7.20454308e-14,1.821420508e-13,8.704418372e-14,1.161501291e-13,4.03759228e-13,1.382301456e-13,8.916074484e-14,1.566982139e-13,4.196350729e-13,9.244380843e-13,4.910969765e-13,4.113410526e-13,1.079918122e-13,5.020990672e-13,1.267521314e-13,4.656346624e-14,3.650922574e-14,4.143516204e-13,1.027306255e-13,9.566624642e-14,1.4666262e-13,1.155989944e-13,7.74091275e-13,5.34887576e-14,2.69914832e-13,2.501946827e-14
0.265625,2.98884329e-13,4.450239024e-14,5.561846362e-13,1.612245372e-13,1.081082335e-13,1.330724201e-13,7.0961591e-14,1.821876064e-13,8.703904843e-14,1.162422391e-13,4.051473381e-13,1.379276361e-13,9.040766271e-14,1.579654179e-13,4.239958217e-13,9.349760061e-13,4.985979641e-13,4.173256889e-13,1.084287357e-13,5.077402742e-13,1.271965909e-13,4.625054069e-14,3.653201293e-14,4.144001443e-13,1.037679581e-13,9.792523063e-14,1.490873426e-13,1.160994352e-13,7.685020443e-13,5.347482284e-14,2.665246166e-13,2.541975194e-14
0.2734375,3.015373551e-13,4.546964576e-14,5.517342779e-13,1.627058817e-13,1.096306666e-13,1.352687974e-13,6.985001465e-14,1.821804858e-13,8.701472638e-14,1.16325272e-13,4.06449536e-13,1.376228877e-13,9.161223768e-14,1.592297106e-13,4.283533668e-13,9.452026978e-13,5.059775215e-13,4.23240348e-13,1.08863443e-13,5.13306919e-13,1.275994523e-13,4.592432592e-14,3.65547648e-14,4.142771162e-13,1.048071828e-13,1.002367754e-13,1.51613965e-13,1.165918457e-13,7.627427427e-13,5.344484887e-14,2.630562719e-13,2.582655749e-14
0.28125,3.041634646e-13,4.655558948e-14,5.473062032e-13,1.642614128e-13,1.112311441e-13,1.37566292e-13,6.87233213e-14,1.820981251e-13,8.695175277e-14,1.163780207e-13,4.078124145e-13,1.373437316e-13,9.290061072e-14,1.606051871e-13,4.327635593e-13,9.55121369e-13,5.132928554e-13,4.29113563e-13,1.093474837e-13,5.188724074e-13,1.280150083e-13,4.55920525e-14,3.656628373e-14,4.140168484e-13,1.058380755e-13,1.026195796e-13,1.542162036e-13,1.170823881e-13,7.569319372e-13,5.341373123e-14,2.596357379e-13,2.622685665e-14
0.2890625,3.067781651e-13,4.765901324e-14,5.42819941e-13,1.658557199e-13,1.128111269e-13,1.400179107e-13,6.758888116e-14,1.819404789e-13,8.684218456e-14,1.164062603e-13,4.092923425e-13,1.370431798e-13,9.421189264e-14,1.619842667e-13,4.369060028e-13,9.643620245e-13,5.205272306e-13,4.348520993e-13,1.098372097e-13,5.242826031e-13,1.284400688e-13,4.524684492e-14,3.657198858e-14,4.136008724e-13,1.068240791e-13,1.050040727e-13,1.567615228e-13,1.175842889e-13,7.50924957e-13,5.33922784e-14,2.561994895e-13,2.66088136e-14
0.296875,3.092693056e-13,4.861158141e-14,5.38178843e-13,1.674662342e-13,1.143140739e-13,1.425846621e-13,6.645836104e-14,1.817118753e-13,8.670272794e-14,1.1641389e-13,4.10786414e-13,1.366691623e-13,9.544806629e-14,1.632508523e-13,4.406505906e-13,9.728992325e-13,5.276116376e-13,4.403381094e-13,1.102681745e-13,5.295575478e-13,1.288171944e-13,4.489005001e-14,3.657103868e-14,4.129819592e-13,1.077650474e-13,1.073042722e-13,1.592055792e-13,1.180833008e-13,7.446025835e-13,5.336475577e-14,2.526590881e-13,2.697219855e-14
0.3046875,3.116114491e-13,4.945373422e-14,5.333968683e-13,1.690671854e-13,1.15819778e-13,1.452286176e-13,6.534644182e-14,1.814005547e-13,8.653716805e-14,1.164194331e-13,4.121856782e-13,1.362198905e-13,9.664064003e-14,1.644369255e-13,4.441072234e-13,9.808171431e-13,5.344010627e-13,4.455309531e-13,1.106421254e-13,5.349126387e-13,1.291329686e-13,4.452614644e-14,3.656432568e-14,4.122028738e-13,1.086708963e-13,1.095449486e-13,1.616022124e-13,1.185260812e-13,7.381345765e-13,5.330059946e-14,2.490422972e-13,2.731609278e-14
0.3125,3.138070524e-13,5.031059872e-14,5.28588612e-13,1.706323328e-13,1.173554677e-13,1.47890057e-13,6.424525787e-14,1.810140079e-13,8.633394028e-14,1.164461488e-13,4.135031284e-13,1.357431402e-13,9.783771866e-14,1.655937756e-13,4.473748705e-13,9.880879053e-13,5.408870023e-13,4.504753104e-13,1.110155532e-13,5.40250412e-13,1.294370186e-13,4.414578544e-14,3.656869346e-14,4.112955204e-13,1.095346189e-13,1.118086367e-13,1.640167912e-13,1.189064498e-13,7.315889994e-13,5.32153357e-14,2.453911351e-13,2.765405604e-14
0.3203125,3.158410839e-13,5.122040602e-14,5.238831499e-13,1.722440687e-13,1.188695311e-13,1.505215611e-13,6.312240668e-14,1.805864363e-13,8.609276594e-14,1.165053504e-13,4.148133512e-13,1.352803582e-13,9.902324979e-14,1.667119732e-13,4.504984837e-13,9.948159002e-13,5.472164409e-13,4.551995483e-13,1.11408288e-13,5.453560356e-13,1.297450449e-13,4.374883478e-14,3.657642434e-14,4.1023851e-13,1.103433374e-13,1.140940907e-13,1.665100018e-13,1.192986542e-13,7.248795939e-13,5.315342887e-14,2.417399367e-13,2.799671384e-14
0.328125,3.177961208e-13,5.214694066e-14,5.192750635e-13,1.739142661e-13,1.204221479e-13,1.532284023e-13,6.198140661e-14,1.801104068e-13,8.584126693e-14,1.165994094e-13,4.161655967e-13,1.348325799e-13,1.001791981e-13,1.678331303e-13,4.533849315e-13,1.000946855e-12,5.534336338e-13,4.596958107e-13,1.117914439e-13,5.502565051e-13,1.300181115e-13,4.336365224e-14,3.655973042e-14,4.090650963e-13,1.110917844e-13,1.163447416e-13,1.690611801e-13,1.197295915e-13,7.180650255e-13,5.31050473e-14,2.381183901e-13,2.832801577e-14
0.3359375,3.197481506e-13,5.304532926e-14,5.145902723e-13,1.755518544e-13,1.22100398e-13,1.56092355e-13,6.086752367e-14,1.79548344e-13,8.559065254e-14,1.16707268e-13,4.175531498e-13,1.343853866e-13,1.013311993e-13,1.690476027e-13,4.559917961e-13,1.00637593e-12,5.595510706e-13,4.640129022e-13,1.12172903e-13,5.550034156e-13,1.302442155e-13,4.29991583e-14,3.652383033e-14,4.0778168e-13,1.117975044e-13,1.185534788e-13,1.715855836e-13,1.201481672e-13,7.111687596e-13,5.302915321e-14,2.344999104e-13,2.863604746e-14
0.34375,3.215448345e-13,5.391894054e-14,5.097352087e-13,1.772455571e-13,1.238373448e-13,1.590030735e-13,5.97908922e-14,1.789018382e-13,8.531147209e-14,1.168130588e-13,4.189053681e-13,1.339283625e-13,1.025011735e-13,1.703288403e-13,4.584387494e-13,1.011225314e-12,5.655460984e-13,4.681573207e-13,1.125713177e-13,5.596171068e-13,1.304480432e-13,4.262762794e-14,3.649102242e-14,4.062981919e-13,1.124729674e-13,1.207465131e-13,1.740779903e-13,1.205501848e-13,7.040813618e-13,5.292947465e-14,2.308745787e-13,2.892870544e-14
0.3515625,3.230676226e-13,5.477924697e-14,5.048635269e-13,1.79061079e-13,1.255565033e-13,1.619330979e-13,5.873265566e-14,1.782027654e-13,8.500175335e-14,1.169595562e-13,4.201757383e-13,1.334575953e-13,1.036639932e-13,1.715869788e-13,4.607202387e-13,1.015481374e-12,5.712695746e-13,4.720497084e-13,1.129512823e-13,5.641303856e-13,1.306438333e-13,4.224307098e-14,3.645994523e-14,4.046123907e-13,1.131049665e-13,1.229305857e-13,1.765723629e-13,1.209674569e-13,6.968015557e-13,5.283005512e-14,2.272940369e-13,2.921630741e-14
0.359375,3.245052655e-13,5.561352001e-14,5.001393808e-13,1.808572522e-13,1.272840389e-13,1.649817132e-13,5.76949646e-14,1.774900351e-13,8.469677609e-14,1.171869066e-13,4.214495297e-13,1.329822211e-13,1.047910284e-13,1.728313552e-13,4.628280524e-13,1.019158376e-12,5.767612114e-13,4.75712147e-13,1.133083534e-13,5.684692991e-13,1.308302855e-13,4.186734833e-14,3.641933481e-14,4.028526297e-13,1.136962774e-13,1.250972978e-13,1.790351421e-13,1.213938118e-13,6.894138271e-13,5.272942272e-14,2.23766316e-13,2.950498225e-14
0.3671875,3.259114311e-13,5.641306735e-14,4.955372342e-13,1.826700074e-13,1.290360323e-13,1.681076631e-13,5.666494007e-14,1.767831652e-13,8.439915121e-14,1.174529236e-13,4.228363519e-13,1.32510033e-13,1.058718917e-13,1.740883732e-13,4.648613859e-13,1.022394425e-12,5.821512108e-13,4.791524806e-13,1.136860451e-13,5.726546862e-13,1.309985543e-13,4.150436963e-14,3.636701578e-14,4.010474753e-13,1.142496016e-13,1.272287511e-13,1.814235799e-13,1.218177555e-13,6.819474779e-13,5.262424122e-14,2.202519476e-13,2.978965393e-14
0.375,3.270933278e-13,5.715243131e-14,4.909997335e-13,1.846521926e-13,1.308183173e-13,1.712740831e-13,5.5619411e-14,1.760287641e-13,8.407432521e-14,1.177084526e-13,4.242872587e-13,1.320340362e-13,1.069308897e-13,1.753617951e-13,4.667584413e-13,1.025016558e-12,5.87326812e-13,4.823043191e-13,1.140791349e-13,5.768097423e-13,1.311493945e-13,4.114042207e-14,3.630866374e-14,3.99066564e-13,1.147481534e-13,1.29327265e-13,1.837738296e-13,1.222421624e-13,6.743665734e-13,5.252700003e-14,2.167718826e-13,3.005970533e-14
0.3828125,3.282144228e-13,5.790078554e-14,4.865505609e-13,1.867148068e-13,1.326405502e-13,1.745762549e-13,5.458376067e-14,1.751562013e-13,8.369416111e-14,1.179637642e-13,4.256735281e-13,1.315479045e-13,1.080431109e-13,1.766904793e-13,4.685426375e-13,1.027055159e-12,5.923039442e-13,4.853367288e-13,1.144800061e-13,5.808456086e-13,1.312956863e-13,4.076370427e-14,3.625192358e-14,3.968668228e-13,1.152148487e-13,1.314341111e-13,1.861719651e-13,1.226942401e-13,6.666301858e-13,5.243769126e-14,2.133673447e-13,3.031475916e-14
0.390625,3.295196264e-13,5.880734171e-14,4.821918521e-13,1.887301868e-13,1.344522466e-13,1.779880973e-13,5.358354592e-14,1.741829548e-13,8.328399646e-14,1.182061972e-13,4.269813974e-13,1.310580027e-13,1.091855866e-13,1.780149746e-13,4.7028614e-13,1.028723495e-12,5.9714024e-13,4.883159348e-13,1.149094607e-13,5.84716296e-13,1.314281763e-13,4.037840363e-14,3.619312434e-14,3.945800702e-13,1.156546714e-13,1.335152447e-13,1.885687063e-13,1.231823653e-13,6.587980107e-13,5.232912656e-14,2.099794811e-13,3.055377575e-14
0.3984375,3.307163001e-13,5.972508438e-14,4.778677475e-13,1.907055743e-13,1.362479585e-13,1.814182569e-13,5.259791356e-14,1.731569706e-13,8.290761949e-14,1.184083672e-13,4.282749648e-13,1.305791284e-13,1.102269118e-13,1.79227152e-13,4.716028741e-13,1.029475705e-12,6.014973637e-13,4.908360576e-13,1.15328303e-13,5.88527481e-13,1.315422999e-13,4.000703272e-14,3.612345761e-14,3.922479619e-13,1.159948428e-13,1.354393128e-13,1.907603583e-13,1.236054023e-13,6.509466614e-13,5.218110185e-14,2.065357598e-13,3.076726124e-14
0.40625,3.316538607e-13,6.037903781e-14,4.735287762e-13,1.926934183e-13,1.38107142e-13,1.849141267e-13,5.162483663e-14,1.720602242e-13,8.254075722e-14,1.186496031e-13,4.295467232e-13,1.301152061e-13,1.112044752e-13,1.804096141e-13,4.723629321e-13,1.029052018e-12,6.054014182e-13,4.928580626e-13,1.157066408e-13,5.921170843e-13,1.316626785e-13,3.964777812e-14,3.60500354e-14,3.897664008e-13,1.162430651e-13,1.372006715e-13,1.927600811e-13,1.239322103e-13,6.430528561e-13,5.201224444e-14,2.031175077e-13,3.094920837e-14
0.4140625,3.326564101e-13,6.092815712e-14,4.692096735e-13,1.947943282e-13,1.400319493e-13,1.885163057e-13,5.069688355e-14,1.708667659e-13,8.209494313e-14,1.190135647e-13,4.307578549e-13,1.296496595e-13,1.122512731e-13,1.81668895e-13,4.731843974e-13,1.028325015e-12,6.094458432e-13,4.949094351e-13,1.161055577e-13,5.954134518e-13,1.317697209e-13,3.927429808e-14,3.598074112e-14,3.871579968e-13,1.165014807e-13,1.389347314e-13,1.948323389e-13,1.243379235e-13,6.351248195e-13,5.18492303e-14,1.998471847e-13,3.110643237e-14
0.421875,3.336214005e-13,6.159762529e-14,4.650446485e-13,1.97015371e-13,1.419847641e-13,1.921975816e-13,4.982046669e-14,1.696038377e-13,8.160236766e-14,1.194252073e-13,4.319643756e-13,1.291829264e-13,1.132924205e-13,1.829494397e-13,4.742034219e-13,1.027459917e-12,6.135610739e-13,4.969489798e-13,1.165551543e-13,5.987448727e-13,1.318302421e-13,3.889982127e-14,3.590460071e-14,3.844932778e-13,1.167589726e-13,1.406541281e-13,1.96979196e-13,1.248586364e-13,6.272017385e-13,5.168706445e-14,1.966937964e-13,3.126175883e-14
0.4296875,3.342114761e-13,6.223928416e-14,4.610947611e-13,1.992199509e-13,1.439795544e-13,1.959480274e-13,4.897283424e-14,1.682800276e-13,8.113469825e-14,1.198174058e-13,4.33241938e-13,1.287373327e-13,1.142211098e-13,1.842192717e-13,4.748851591e-13,1.025608244e-12,6.171809042e-13,4.984851053e-13,1.170224911e-13,6.020482158e-13,1.318964064e-13,3.855012492e-14,3.581693535e-14,3.816672476e-13,1.169375804e-13,1.422802198e-13,1.989293168e-13,1.253060336e-13,6.192667195e-13,5.151176465e-14,1.935786186e-13,3.142353477e-14
0.4375,3.346909094e-13,6.281157703e-14,4.572656881e-13,2.013459448e-13,1.459853487e-13,1.997280335e-13,4.814087913e-14,1.668519134e-13,8.064074122e-14,1.202700921e-13,4.345416034e-13,1.28312167e-13,1.151149039e-13,1.854943396e-13,4.751936957e-13,1.022715717e-12,6.203739139e-13,4.996097206e-13,1.175015734e-13,6.049204189e-13,1.320078546e-13,3.820589826e-14,3.573225265e-14,3.786668753e-13,1.170586479e-13,1.438503517e-13,2.006593166e-13,1.256761981e-13,6.113772819e-13,5.13287189e-14,1.905298443e-13,3.156085886e-14
0.4453125,3.352961217e-13,6.345015806e-14,4.535201185e-13,2.033989374e-13,1.479846148e-13,2.035134878e-13,4.732741058e-14,1.653139155e-13,8.009600657e-14,1.208190769e-13,4.357866911e-13,1.279048355e-13,1.160427956e-13,1.867592937e-13,4.753970321e-13,1.019290781e-12,6.233943668e-13,5.006222468e-13,1.179913118e-13,6.07506997e-13,1.321188493e-13,3.785837675e-14,3.565550649e-14,3.756540501e-13,1.171585347e-13,1.454038279e-13,2.02397137e-13,1.261098597e-13,6.035903712e-13,5.114441373e-14,1.875977702e-13,3.165717559e-14
0.453125,3.35790248e-13,6.405527514e-14,4.499210543e-13,2.054086452e-13,1.500343849e-13,2.07365995e-13,4.654166377e-14,1.637111062e-13,7.956100132e-14,1.214047136e-13,4.369851504e-13,1.275209585e-13,1.169772107e-13,1.880363659e-13,4.754542452e-13,1.015354493e-12,6.26120715e-13,5.014318344e-13,1.184718608e-13,6.100137101e-13,1.322189028e-13,3.752560113e-14,3.557559628e-14,3.725762258e-13,1.172126877e-13,1.468780519e-13,2.042116175e-13,1.265799287e-13,5.95780721e-13,5.095464329e-14,1.847706223e-13,3.174058395e-14
0.4609375,3.361797819e-13,6.456357826e-14,4.464907715e-13,2.074741428e-13,1.520851555e-13,2.113297064e-13,4.58020978e-14,1.620500491e-13,7.901239773e-14,1.220378818e-13,4.381423628e-13,1.271324159e-13,1.178952659e-13,1.892985547e-13,4.754010054e-13,1.010849965e-12,6.285506071e-13,5.019733062e-13,1.189429015e-13,6.121117947e-13,1.323419582e-13,3.718893278e-14,3.548604194e-14,3.692899563e-13,1.1721223e-13,1.482766855e-13,2.059769998e-13,1.270316124e-13,5.878804457e-13,5.076268038e-14,1.820329993e-13,3.18251769e-14
0.46875,3.366137543e-13,6.512209268e-14,4.432908351e-13,2.095921869e-13,1.540912944e-13,2.153747821e-13,4.512065112e-14,1.603234212e-13,7.841844703e-14,1.227623595e-13,4.393051614e-13,1.267587854e-13,1.187998278e-13,1.90519315e-13,4.753314538e-13,1.005844641e-12,6.30803257e-13,5.023299708e-13,1.194362392e-13,6.137417432e-13,1.324926085e-13,3.683921234e-14,3.538842936e-14,3.659311801e-13,1.17176589e-13,1.496727879e-13,2.076463615e-13,1.274982382e-13,5.800467954e-13,5.058315385e-14,1.79423006e-13,3.189547941e-14
0.4765625,3.3692766e-13,6.570995407e-14,4.403441419e-13,2.116802435e-13,1.562102503e-13,2.194288219e-13,4.44744206e-14,1.585673961e-13,7.784624362e-14,1.235600805e-13,4.405862283e-13,1.264842697e-13,1.197216019e-13,1.918506196e-13,4.751182357e-13,1.000308123e-12,6.328616156e-13,5.024937309e-13,1.19997302e-13,6.153023902e-13,1.326700897e-13,3.651731781e-14,3.528987796e-14,3.626164535e-13,1.171215748e-13,1.51051075e-13,2.09295078e-13,1.27962066e-13,5.723891804e-13,5.042005886e-14,1.769831969e-13,3.194812237e-14
0.484375,3.370994306e-13,6.620191484e-14,4.3741932e-13,2.137698391e-13,1.584523249e-13,2.234569486e-13,4.384640649e-14,1.567773146e-13,7.728342421e-14,1.244166462e-13,4.418552037e-13,1.262404793e-13,1.206609167e-13,1.932718029e-13,4.747587816e-13,9.943041594e-13,6.347625001e-13,5.024770773e-13,1.205895995e-13,6.168283308e-13,1.328236662e-13,3.621138903e-14,3.519948615e-14,3.592003166e-13,1.170532357e-13,1.52353608e-13,2.109174988e-13,1.284039384e-13,5.647940624e-13,5.02550626e-14,1.746513913e-13,3.198965683e-14
0.4921875,3.37275036e-13,6.661792661e-14,4.344172554e-13,2.158680242e-13,1.605647198e-13,2.275407813e-13,4.327207243e-14,1.549012939e-13,7.663539867e-14,1.253333491e-13,4.428494156e-13,1.258500844e-13,1.215571583e-13,1.944615061e-13,4.744029146e-13,9.879306069e-13,6.364951013e-13,5.022928198e-13,1.210997495e-13,6.180734264e-13,1.328584029e-13,3.585976812e-14,3.511660944e-14,3.556067676e-13,1.169570965e-13,1.535533135e-13,2.124373088e-13,1.288636869e-13,5.570984067e-13,5.006979088e-14,1.723311286e-13,3.201708671e-14
0.5,3.373751555e-13,6.700957797e-14,4.316890044e-13,2.179430761e-13,1.625613812e-13,2.317484658e-13,4.276917393e-14,1.529646515e-13,7.594320286e-14,1.26299051e-13,4.437311656e-13,1.253680183e-13,1.224193017e-13,1.954487461e-13,4.740530182e-13,9.81187006e-13,6.379564243e-13,5.018738264e-13,1.215649163e-13,6.191047754e-13,1.328313859e-13,3.548803169e-14,3.504025793e-14,3.519308287e-13,1.168258288e-13,1.546120198e-13,2.138642657e-13,1.293710582e-13,5.49332562e-13,4.987228798e-14,1.70104259e-13,3.202471223e-14
0.5078125,3.373866614e-13,6.741135135e-14,4.294161039e-13,2.200678777e-13,1.647030924e-13,2.360245616e-13,4.22968167e-14,1.510140699e-13,7.53101989e-14,1.273265654e-13,4.447961783e-13,1.249960651e-13,1.23305053e-13,1.965979687e-13,4.736712291e-13,9.740692395e-13,6.391919114e-13,5.012263436e-13,1.221297807e-13,6.201209118e-13,1.329021626e-13,3.516651224e-14,3.497787041e-14,3.48226739e-13,1.166712058e-13,1.555459232e-13,2.151975236e-13,1.299525503e-13,5.416478621e-13,4.968284883e-14,1.681099181e-13,3.201706192e-14
0.515625,3.373700152e-13,6.781666394e-14,4.272950732e-13,2.222468171e-13,1.669475827e-13,2.403096319e-13,4.184248426e-14,1.490040355e-13,7.470833258e-14,1.284288975e-13,4.458724584e-13,1.247297333e-13,1.241908134e-13,1.978955611e-13,4.732315362e-13,9.664658725e-13,6.401801154e-13,5.003765246e-13,1.227392111e-13,6.210575689e-13,1.330556298e-13,3.487217548e-14,3.492160147e-14,3.444848532e-13,1.164804746e-13,1.564673225e-13,2.164020914e-13,1.305783254e-13,5.340284277e-13,4.950910756e-14,1.662663855e-13,3.20055494e-14
0.5234375,3.372399978e-13,6.815967728e-14,4.252151824e-13,2.244141823e-13,1.691089825e-13,2.445841914e-13,4.14400463e-14,1.469100959e-13,7.406166529e-14,1.295830216e-13,4.467886887e-13,1.244603495e-13,1.250723956e-13,1.991434997e-13,4.727126016e-13,9.583481505e-13,6.408845982e-13,4.993516818e-13,1.232832181e-13,6.216969215e-13,1.331765696e-13,3.455118343e-14,3.48559227e-14,3.406907604e-13,1.162425643e-13,1.574107919e-13,2.175845508e-13,1.311661339e-13,5.26423505e-13,4.935813719e-14,1.644688685e-13,3.197864074e-14
0.53125,3.371705141e-13,6.850376794e-14,4.234564721e-13,2.266260255e-13,1.712816663e-13,2.488574491e-13,4.109770156e-14,1.447890103e-13,7.337884222e-14,1.307716145e-13,4.477539407e-13,1.242057449e-13,1.260053531e-13,2.004523395e-13,4.722522546e-13,9.500548721e-13,6.41651627e-13,4.983132801e-13,1.238697849e-13,6.219897013e-13,1.332751298e-13,3.42250582e-14,3.479411176e-14,3.36848198e-13,1.159977078e-13,1.582801649e-13,2.188272862e-13,1.317637051e-13,5.189736087e-13,4.923774299e-14,1.628338765e-13,3.190686825e-14
0.5390625,3.373334241e-13,6.89257777e-14,4.220824725e-13,2.289048465e-13,1.735826911e-13,2.531758451e-13,4.079771539e-14,1.42647514e-13,7.270556741e-14,1.320120217e-13,4.487918603e-13,1.239890378e-13,1.269492983e-13,2.018846563e-13,4.719136093e-13,9.417226344e-13,6.425906853e-13,4.972567427e-13,1.245627409e-13,6.220954383e-13,1.333943868e-13,3.392579182e-14,3.475071578e-14,3.329693639e-13,1.157736181e-13,1.590346389e-13,2.199862711e-13,1.324451316e-13,5.116667394e-13,4.912780211e-14,1.614190493e-13,3.179933705e-14
0.546875,3.373339521e-13,6.92913461e-14,4.208534504e-13,2.31158705e-13,1.759004858e-13,2.574924372e-13,4.052873718e-14,1.404515953e-13,7.205323901e-14,1.333346869e-13,4.49697266e-13,1.237648241e-13,1.278197771e-13,2.032684942e-13,4.714736355e-13,9.329461447e-13,6.43140165e-13,4.958964774e-13,1.252326751e-13,6.221347431e-13,1.335114464e-13,3.36387088e-14,3.470301267e-14,3.290284123e-13,1.155237946e-13,1.597191777e-13,2.209509058e-13,1.331243862e-13,5.042868014e-13,4.900509265e-14,1.600937345e-13,3.169118506e-14
0.5546875,3.370287227e-13,6.959532505e-14,4.196546785e-13,2.333250781e-13,1.781459984e-13,2.617137773e-13,4.0290163e-14,1.382116526e-13,7.140212456e-14,1.34715091e-13,4.505070484e-13,1.235367596e-13,1.286482265e-13,2.045795463e-13,4.708149212e-13,9.235501474e-13,6.430825584e-13,4.942174718e-13,1.258601616e-13,6.220826063e-13,1.336289038e-13,3.335433058e-14,3.463208918e-14,3.250452452e-13,1.151946592e-13,1.603357091e-13,2.218075603e-13,1.337822734e-13,4.969297127e-13,4.888704826e-14,1.588415039e-13,3.157910863e-14
0.5625,3.368344761e-13,7.002080813e-14,4.185558587e-13,2.354020146e-13,1.803494188e-13,2.659005297e-13,4.009494758e-14,1.359124632e-13,7.073157096e-14,1.360818075e-13,4.512905402e-13,1.233261798e-13,1.295098248e-13,2.058900814e-13,4.700845974e-13,9.138846773e-13,6.428503649e-13,4.92483459e-13,1.265354044e-13,6.218646391e-13,1.33758003e-13,3.307713372e-14,3.455892182e-14,3.210857248e-13,1.148145989e-13,1.608653515e-13,2.22659247e-13,1.345054623e-13,4.898094028e-13,4.878745197e-14,1.577412425e-13,3.14406274e-14
0.5703125,3.366806345e-13,7.044603143e-14,4.176548206e-13,2.375162471e-13,1.825136629e-13,2.701319138e-13,3.995134104e-14,1.335338375e-13,7.004906076e-14,1.374780338e-13,4.519635213e-13,1.231109235e-13,1.303993103e-13,2.071512141e-13,4.694162854e-13,9.041834818e-13,6.426498229e-13,4.906807723e-13,1.272288341e-13,6.214359031e-13,1.338651393e-13,3.279951807e-14,3.45076816e-14,3.170852578e-13,1.144578984e-13,1.613202346e-13,2.23504853e-13,1.352199277e-13,4.827476756e-13,4.868062092e-14,1.567529016e-13,3.128056702e-14
0.578125,3.363139246e-13,7.066248958e-14,4.170205895e-13,2.397714505e-13,1.846657033e-13,2.743872576e-13,3.985423191e-14,1.311619038e-13,6.93819019e-14,1.390184716e-13,4.525613222e-13,1.229000881e-13,1.312727138e-13,2.084162513e-13,4.688924557e-13,8.944265069e-13,6.424512793e-13,4.886748872e-13,1.279018958e-13,6.208541368e-13,1.339538046e-13,3.252707621e-14,3.447141438e-14,3.130056174e-13,1.141319471e-13,1.616865567e-13,2.242468897e-13,1.358615367e-13,4.755782459e-13,4.855909545e-14,1.558704199e-13,3.111547496e-14
0.5859375,3.361627485e-13,7.086151041e-14,4.165964622e-13,2.419913839e-13,1.869254142e-13,2.786741219e-13,3.980217316e-14,1.288477512e-13,6.872936815e-14,1.406261382e-13,4.531370755e-13,1.227241163e-13,1.321298984e-13,2.098533099e-13,4.685356816e-13,8.846056379e-13,6.422997529e-13,4.866136827e-13,1.286083865e-13,6.20185647e-13,1.340641508e-13,3.227577967e-14,3.443044978e-14,3.089864309e-13,1.137815673e-13,1.619458851e-13,2.248359374e-13,1.365592656e-13,4.684919252e-13,4.844647423e-14,1.551781476e-13,3.095257436e-14
0.59375,3.364350891e-13,7.123374725e-14,4.16253659e-13,2.441470191e-13,1.893521084e-13,2.829585888e-13,3.978421574e-14,1.264817713e-13,6.806226362e-14,1.42123299e-13,4.536355675e-13,1.225717603e-13,1.329832903e-13,2.114285787e-13,4.682533997e-13,8.746460226e-13,6.420211579e-13,4.846708703e-13,1.293660334e-13,6.193396653e-13,1.34190423e-13,3.203710624e-14,3.438425114e-14,3.049748298e-13,1.133980587e-13,1.621348311e-13,2.253759411e-13,1.373415524e-13,4.615795158e-13,4.834620791e-14,1.546374674e-13,3.078686955e-14
0.6015625,3.366222508e-13,7.165800897e-14,4.160309037e-13,2.46553725e-13,1.918356042e-13,2.871415103e-13,3.978012818e-14,1.240073759e-13,6.738159663e-14,1.435226684e-13,4.541014568e-13,1.224365163e-13,1.338028403e-13,2.129811747e-13,4.680309021e-13,8.645216979e-13,6.414436911e-13,4.827499412e-13,1.30144542e-13,6.182911873e-13,1.343277199e-13,3.179981482e-14,3.434554509e-14,3.007432605e-13,1.130147587e-13,1.62282952e-13,2.259119408e-13,1.381091609e-13,4.547215034e-13,4.825163395e-14,1.541710758e-13,3.060319721e-14
0.609375,3.365379812e-13,7.204395278e-14,4.160535506e-13,2.491224322e-13,1.942208216e-13,2.912392311e-13,3.979310371e-14,1.215169551e-13,6.671551647e-14,1.449448918e-13,4.545227473e-13,1.223216954e-13,1.345888773e-13,2.144934199e-13,4.678965896e-13,8.544157169e-13,6.407180803e-13,4.806306775e-13,1.309069413e-13,6.171847849e-13,1.345099296e-13,3.156791873e-14,3.431201232e-14,2.964018505e-13,1.126241312e-13,1.623736154e-13,2.263440817e-13,1.388625924e-13,4.47927127e-13,4.81671777e-14,1.538309601e-13,3.039581515e-14
0.6171875,3.364860203e-13,7.238124539e-14,4.16228075e-13,2.513947452e-13,1.964828561e-13,2.952974491e-13,3.984078625e-14,1.190406762e-13,6.605617267e-14,1.464230354e-13,4.546849584e-13,1.221901241e-13,1.354145832e-13,2.160266554e-13,4.677323727e-13,8.44367702e-13,6.399105835e-13,4.78235348e-13,1.316019648e-13,6.159477624e-13,1.347307599e-13,3.133279956e-14,3.427587731e-14,2.921911516e-13,1.12203971e-13,1.623972918e-13,2.266561874e-13,1.395896931e-13,4.412282177e-13,4.808625375e-14,1.536385188e-13,3.017454397e-14
0.625,3.365892196e-13,7.264198414e-14,4.163550273e-13,2.534443397e-13,1.987139832e-13,2.992898949e-13,3.993204273e-14,1.165245896e-13,6.537917997e-14,1.479144039e-13,4.545507903e-13,1.220154142e-13,1.362958996e-13,2.175854485e-13,4.675350986e-13,8.34265137e-13,6.38985499e-13,4.757195158e-13,1.322429141e-13,6.144094229e-13,1.349386727e-13,3.108335459e-14,3.424756449e-14,2.880367258e-13,1.117701243e-13,1.623574075e-13,2.269030135e-13,1.402321489e-13,4.345168702e-13,4.800026577e-14,1.535105616e-13,2.99461682e-14
0.6328125,3.367706183e-13,7.291939421e-14,4.164797784e-13,2.556510029e-13,2.009693573e-13,3.032298988e-13,4.006302057e-14,1.139854277e-13,6.470642925e-14,1.493602541e-13,4.543122667e-13,1.218278301e-13,1.371506673e-13,2.191454765e-13,4.674895015e-13,8.24212524e-13,6.380634696e-13,4.732271354e-13,1.328979778e-13,6.127580713e-13,1.351207156e-13,3.083462088e-14,3.423420301e-14,2.83839608e-13,1.113360697e-13,1.622385244e-13,2.270523545e-13,1.408396833e-13,4.277744522e-13,4.791606416e-14,1.534264949e-13,2.970285569e-14
0.640625,3.369213775e-13,7.326484683e-14,4.168168916e-13,2.579674587e-13,2.032299184e-13,3.071053612e-13,4.021310318e-14,1.114615065e-13,6.407074954e-14,1.507743632e-13,4.540539588e-13,1.216654915e-13,1.379449807e-13,2.206904704e-13,4.675574244e-13,8.142702339e-13,6.371023103e-13,4.706766907e-13,1.335740404e-13,6.11156745e-13,1.353151255e-13,3.060683782e-14,3.42220568e-14,2.79661258e-13,1.108819264e-13,1.620238137e-13,2.270689515e-13,1.414624603e-13,4.211167285e-13,4.78432583e-14,1.534638898e-13,2.943112413e-14
0.6484375,3.369935519e-13,7.356800735e-14,4.17386445e-13,2.602069079e-13,2.054806109e-13,3.108457112e-13,4.036665579e-14,1.089398971e-13,6.345653107e-14,1.522395699e-13,4.537596748e-13,1.215329684e-13,1.387329045e-13,2.222238179e-13,4.675402e-13,8.042782255e-13,6.35926475e-13,4.679761051e-13,1.342517435e-13,6.093944411e-13,1.355509336e-13,3.03980445e-14,3.420170872e-14,2.75480719e-13,1.103937696e-13,1.617375417e-13,2.270043218e-13,1.420938162e-13,4.145644441e-13,4.779474761e-14,1.536640845e-13,2.914386197e-14
0.65625,3.37087611e-13,7.384722339e-14,4.180122878e-13,2.62430649e-13,2.077142952e-13,3.144643365e-13,4.052521667e-14,1.064292903e-13,6.283486538e-14,1.537277229e-13,4.533860458e-13,1.214021926e-13,1.39552918e-13,2.237618563e-13,4.674688167e-13,7.94301021e-13,6.346123122e-13,4.651758321e-13,1.349281541e-13,6.074287772e-13,1.358128246e-13,3.018993417e-14,3.417894462e-14,2.712666945e-13,1.098907083e-13,1.614389878e-13,2.269406951e-13,1.42755198e-13,4.080548528e-13,4.777340574e-14,1.539520439e-13,2.887802565e-14
0.6640625,3.372098716e-13,7.417900208e-14,4.186531238e-13,2.647005887e-13,2.099174641e-13,3.179994998e-13,4.069230114e-14,1.039471617e-13,6.221421481e-14,1.551401863e-13,4.528426413e-13,1.212571389e-13,1.403957029e-13,2.253106104e-13,4.67478183e-13,7.845297371e-13,6.332468442e-13,4.623201504e-13,1.355739399e-13,6.054514462e-13,1.36076645e-13,2.997198904e-14,3.415854984e-14,2.670875445e-13,1.093924698e-13,1.611468663e-13,2.268733775e-13,1.433845104e-13,4.016074324e-13,4.775385459e-14,1.542407284e-13,2.862871618e-14
0.671875,3.3729617e-13,7.447451604e-14,4.194524658e-13,2.669604332e-13,2.121024192e-13,3.214606134e-13,4.089012428e-14,1.014653325e-13,6.162061481e-14,1.565118163e-13,4.521545865e-13,1.211302464e-13,1.412438804e-13,2.268945788e-13,4.675531934e-13,7.748725711e-13,6.31754834e-13,4.594241142e-13,1.361945661e-13,6.033316581e-13,1.363474605e-13,2.975667348e-14,3.413882355e-14,2.629512388e-13,1.088872676e-13,1.608139436e-13,2.266916394e-13,1.439085179e-13,3.952886774e-13,4.772712993e-14,1.545832381e-13,2.835179451e-14
0.6796875,3.374567382e-13,7.471970775e-14,4.2046058e-13,2.691977588e-13,2.142713563e-13,3.248783347e-13,4.113592287e-14,9.897915691e-14,6.105689989e-14,1.579072771e-13,4.514151269e-13,1.210348858e-13,1.420926867e-13,2.285396773e-13,4.676309801e-13,7.652465457e-13,6.301485549e-13,4.564945309e-13,1.368306101e-13,6.008645325e-13,1.366308461e-13,2.95547279e-14,3.41179965e-14,2.588132153e-13,1.083677616e-13,1.604145303e-13,2.264012704e-13,1.44449485e-13,3.890824169e-13,4.772141173e-14,1.550738973e-13,2.805056784e-14
0.6875,3.37669042e-13,7.501000379e-14,4.215677596e-13,2.71461137e-13,2.164044037e-13,3.281804326e-13,4.13855352e-14,9.652948593e-14,6.050965409e-14,1.592798864e-13,4.505748393e-13,1.209430749e-13,1.429534465e-13,2.302201998e-13,4.677471158e-13,7.558333831e-13,6.284928247e-13,4.535100618e-13,1.374574573e-13,5.98260979e-13,1.369284321e-13,2.935575217e-14,3.410050189e-14,2.546677237e-13,1.078604403e-13,1.599801157e-13,2.261540978e-13,1.4507833e-13,3.829176043e-13,4.774667171e-14,1.556787982e-13,2.776231104e-14
0.6953125,3.377616061e-13,7.534118562e-14,4.226970676e-13,2.737647559e-13,2.185419005e-13,3.3124783e-13,4.160624276e-14,9.412778929e-14,5.998598692e-14,1.605946674e-13,4.496058039e-13,1.208762971e-13,1.438400314e-13,2.319331775e-13,4.679835318e-13,7.467807117e-13,6.268339509e-13,4.50533726e-13,1.380695786e-13,5.957851557e-13,1.372628264e-13,2.91617814e-14,3.409210857e-14,2.505411868e-13,1.073682768e-13,1.595282074e-13,2.259474859e-13,1.456597977e-13,3.768073993e-13,4.778696707e-14,1.563371711e-13,2.748187626e-14
0.703125,3.378472263e-13,7.571313278e-14,4.238719806e-13,2.760889896e-13,2.207101402e-13,3.34142299e-13,4.184222484e-14,9.175577745e-14,5.949970902e-14,1.618802755e-13,4.48585277e-13,1.208552553e-13,1.447488821e-13,2.336974091e-13,4.683127075e-13,7.380121169e-13,6.251703942e-13,4.476015845e-13,1.387137286e-13,5.93399382e-13,1.376238035e-13,2.899076559e-14,3.408876153e-14,2.464940154e-13,1.068531992e-13,1.590397804e-13,2.25658198e-13,1.461684998e-13,3.70839155e-13,4.78355878e-14,1.570742628e-13,2.719227466e-14
0.7109375,3.380259164e-13,7.613527028e-14,4.251230701e-13,2.784310738e-13,2.22787101e-13,3.369540221e-13,4.211242934e-14,8.940120984e-14,5.902562766e-14,1.63164866e-13,4.474564765e-13,1.208000446e-13,1.456644325e-13,2.354233116e-13,4.686185426e-13,7.29372824e-13,6.233133807e-13,4.445474953e-13,1.393299443e-13,5.909692273e-13,1.379621793e-13,2.883180087e-14,3.408357329e-14,2.425069524e-13,1.063102816e-13,1.585029238e-13,2.252821297e-13,1.467072064e-13,3.65001836e-13,4.788724122e-14,1.579289611e-13,2.690926388e-14
0.71875,3.381879452e-13,7.653930295e-14,4.264177155e-13,2.807611315e-13,2.246924e-13,3.396330573e-13,4.237374253e-14,8.7048909e-14,5.853505896e-14,1.644652542e-13,4.461251182e-13,1.206675746e-13,1.465798825e-13,2.370631333e-13,4.689022526e-13,7.208760296e-13,6.212399034e-13,4.41343759e-13,1.398554831e-13,5.883810394e-13,1.382887557e-13,2.866428013e-14,3.407613464e-14,2.384674661e-13,1.057701534e-13,1.579205658e-13,2.248412957e-13,1.472707405e-13,3.591868419e-13,4.794218575e-14,1.589168637e-13,2.663801991e-14
0.7265625,3.384840099e-13,7.695454588e-14,4.27730545e-13,2.83053251e-13,2.265835812e-13,3.421524644e-13,4.261754947e-14,8.469162717e-14,5.805089392e-14,1.657331955e-13,4.446826139e-13,1.205456194e-13,1.475137243e-13,2.387916037e-13,4.692515836e-13,7.126655091e-13,6.192766726e-13,4.382343472e-13,1.403973254e-13,5.855451297e-13,1.386463413e-13,2.850363033e-14,3.406639436e-14,2.343866883e-13,1.05241276e-13,1.57294892e-13,2.243217487e-13,1.478306894e-13,3.533890875e-13,4.80233749e-14,1.600322124e-13,2.635776276e-14
0.734375,3.390278116e-13,7.743056576e-14,4.291584743e-13,2.854038465e-13,2.285881233e-13,3.445432012e-13,4.287192365e-14,8.234718749e-14,5.759175862e-14,1.668842898e-13,4.432078475e-13,1.204800915e-13,1.484888844e-13,2.406848141e-13,4.69653961e-13,7.046735102e-13,6.174016934e-13,4.352394352e-13,1.41002276e-13,5.824698847e-13,1.390145173e-13,2.836445032e-14,3.405721503e-14,2.30336109e-13,1.047198752e-13,1.566533396e-13,2.237520302e-13,1.484058147e-13,3.477147594e-13,4.814126902e-14,1.612434435e-13,2.606513188e-14
0.7421875,3.394614005e-13,7.789461391e-14,4.307435872e-13,2.878272237e-13,2.305523589e-13,3.467846335e-13,4.313545347e-14,8.003746876e-14,5.713350367e-14,1.67967071e-13,4.416278967e-13,1.204064392e-13,1.494659783e-13,2.424984571e-13,4.70021361e-13,6.966958963e-13,6.152063599e-13,4.321069054e-13,1.415397418e-13,5.792000675e-13,1.393673586e-13,2.822716498e-14,3.405541053e-14,2.262790483e-13,1.04194497e-13,1.560532931e-13,2.231201592e-13,1.489645162e-13,3.421955349e-13,4.82740059e-14,1.625356974e-13,2.577654709e-14
0.75,3.395996026e-13,7.838878677e-14,4.322721645e-13,2.901422595e-13,2.323061346e-13,3.488334485e-13,4.338887245e-14,7.777463659e-14,5.668359608e-14,1.691161176e-13,4.398907731e-13,1.202919882e-13,1.503857155e-13,2.440972612e-13,4.702786863e-13,6.887750128e-13,6.127241919e-13,4.287628098e-13,1.419745419e-13,5.758074135e-13,1.397167309e-13,2.808331023e-14,3.4057112e-14,2.222309599e-13,1.036385971e-13,1.554820815e-13,2.223852236e-13,1.494641812e-13,3.367738507e-13,4.839897784e-14,1.638843725e-13,2.549657424e-14
0.7578125,3.396660279e-13,7.896622326e-14,4.336312941e-13,2.924159039e-13,2.339219953e-13,3.507072173e-13,4.363466665e-14,7.5559681e-14,5.627989408e-14,1.703477604e-13,4.380233208e-13,1.201714581e-13,1.51326452e-13,2.457131137e-13,4.704689364e-13,6.811237174e-13,6.103380583e-13,4.253341699e-13,1.424000477e-13,5.724532603e-13,1.400567812e-13,2.795138809e-14,3.405182121e-14,2.182621424e-13,1.030752972e-13,1.548402099e-13,2.215870135e-13,1.499015878e-13,3.31435362e-13,4.851056859e-14,1.652396244e-13,2.521821285e-14
0.765625,3.397802591e-13,7.947897245e-14,4.350542989e-13,2.949253792e-13,2.355141942e-13,3.524950254e-13,4.389270336e-14,7.338352487e-14,5.590948803e-14,1.715750372e-13,4.360477527e-13,1.200639783e-13,1.524085038e-13,2.475260508e-13,4.708144766e-13,6.73903304e-13,6.081456187e-13,4.219337797e-13,1.428257222e-13,5.691907014e-13,1.403905729e-13,2.783614477e-14,3.403836771e-14,2.143264814e-13,1.025651426e-13,1.541268032e-13,2.207797692e-13,1.503089464e-13,3.262189156e-13,4.862764544e-14,1.666346306e-13,2.494249849e-14
0.7734375,3.400000236e-13,7.994309471e-14,4.366470998e-13,2.975419386e-13,2.370538227e-13,3.541950188e-13,4.416346906e-14,7.125624824e-14,5.555013482e-14,1.727331104e-13,4.339597782e-13,1.199600793e-13,1.535401089e-13,2.49406478e-13,4.714143899e-13,6.671735519e-13,6.060049314e-13,4.185997147e-13,1.432163579e-13,5.658648503e-13,1.407573789e-13,2.773000343e-14,3.402084321e-14,2.1039782e-13,1.020920663e-13,1.534547281e-13,2.199699151e-13,1.507509971e-13,3.21124276e-13,4.878220163e-14,1.681560839e-13,2.467836138e-14
0.78125,3.403782372e-13,8.053934433e-14,4.382337412e-13,2.999798292e-13,2.385080366e-13,3.556460631e-13,4.441889019e-14,6.920324483e-14,5.522148532e-14,1.738228665e-13,4.317823572e-13,1.198466113e-13,1.545893005e-13,2.51218089e-13,4.720852642e-13,6.608265345e-13,6.03788339e-13,4.152837056e-13,1.435964194e-13,5.623788845e-13,1.411585138e-13,2.76377774e-14,3.400411785e-14,2.065382734e-13,1.016033575e-13,1.528258144e-13,2.191119791e-13,1.512162431e-13,3.161260486e-13,4.896874518e-14,1.698063214e-13,2.44300992e-14
0.7890625,3.407389952e-13,8.119181479e-14,4.397720255e-13,3.023212031e-13,2.398954971e-13,3.568211765e-13,4.464722895e-14,6.720160187e-14,5.490956455e-14,1.74912033e-13,4.295897481e-13,1.196918053e-13,1.556482879e-13,2.529816647e-13,4.727384281e-13,6.547610528e-13,6.014778612e-13,4.119504428e-13,1.439705478e-13,5.58803744e-13,1.415476322e-13,2.7558946e-14,3.399540676e-14,2.027421339e-13,1.011201878e-13,1.52171204e-13,2.181606277e-13,1.516109271e-13,3.112603987e-13,4.915257615e-14,1.715274183e-13,2.419406526e-14
0.796875,3.409648927e-13,8.176854995e-14,4.412842135e-13,3.046160251e-13,2.411879634e-13,3.578592597e-13,4.487148197e-14,6.52015085e-14,5.457820756e-14,1.760463023e-13,4.273502105e-13,1.194581144e-13,1.567733512e-13,2.547002686e-13,4.734443275e-13,6.490341031e-13,5.991343607e-13,4.085930234e-13,1.442944097e-13,5.552291503e-13,1.418989197e-13,2.748195509e-14,3.399824577e-14,1.989826581e-13,1.006698537e-13,1.515446986e-13,2.172144815e-13,1.519008115e-13,3.065531952e-13,4.933260989e-14,1.732573437e-13,2.396352642e-14
0.8046875,3.411526052e-13,8.228952301e-14,4.426782441e-13,3.067466762e-13,2.423812945e-13,3.587417092e-13,4.511549865e-14,6.323324654e-14,5.426644023e-14,1.77176853e-13,4.248782535e-13,1.19173272e-13,1.578439225e-13,2.563692828e-13,4.741545629e-13,6.436357542e-13,5.967258765e-13,4.051221337e-13,1.445589082e-13,5.516744441e-13,1.422238946e-13,2.741074903e-14,3.401113668e-14,1.95279249e-13,1.002223555e-13,1.509947738e-13,2.163595144e-13,1.520851462e-13,3.019225155e-13,4.952626194e-14,1.749745594e-13,2.373930057e-14
0.8125,3.412919432e-13,8.273503619e-14,4.440486378e-13,3.088678233e-13,2.435339764e-13,3.593999031e-13,4.537886142e-14,6.13707041e-14,5.402074191e-14,1.782721592e-13,4.221429048e-13,1.189154937e-13,1.588770967e-13,2.580714696e-13,4.74855089e-13,6.38533018e-13,5.942502427e-13,4.015239753e-13,1.447956592e-13,5.481057193e-13,1.425519977e-13,2.735178059e-14,3.402898889e-14,1.916187231e-13,9.976635073e-14,1.504468705e-13,2.154378661e-13,1.521745505e-13,2.973026148e-13,4.97330977e-14,1.767647225e-13,2.35325765e-14
0.8203125,3.413415534e-13,8.31832839e-14,4.455499001e-13,3.111226133e-13,2.446375177e-13,3.59902464e-13,4.56325337e-14,5.959662509e-14,5.381042996e-14,1.793695441e-13,4.193398484e-13,1.18695019e-13,1.599778102e-13,2.598259374e-13,4.756470171e-13,6.338173916e-13,5.918412656e-13,3.979392862e-13,1.450104077e-13,5.445751969e-13,1.429087269e-13,2.729413098e-14,3.404122852e-14,1.879758579e-13,9.93152737e-14,1.498701288e-13,2.143425344e-13,1.522734563e-13,2.927070992e-13,4.995821205e-14,1.786814063e-13,2.3342603e-14
0.828125,3.41410438e-13,8.381681984e-14,4.470270873e-13,3.133437671e-13,2.456621842e-13,3.602588214e-13,4.585425098e-14,5.784606464e-14,5.361023346e-14,1.804657716e-13,4.16576737e-13,1.184544298e-13,1.610899797e-13,2.61558824e-13,4.764903246e-13,6.294382335e-13,5.894623484e-13,3.944002976e-13,1.451908843e-13,5.411963021e-13,1.432955943e-13,2.724011608e-14,3.404021351e-14,1.843516238e-13,9.885981493e-14,1.493131546e-13,2.132086978e-13,1.524529316e-13,2.881362676e-13,5.020555687e-14,1.806383702e-13,2.315673532e-14
0.8359375,3.415525607e-13,8.457196222e-14,4.483851954e-13,3.155175788e-13,2.46634916e-13,3.604694126e-13,4.60747395e-14,5.61240044e-14,5.343006964e-14,1.815361374e-13,4.138305383e-13,1.181778153e-13,1.621997271e-13,2.632869534e-13,4.773608458e-13,6.253302566e-13,5.870108737e-13,3.908622622e-13,1.453602416e-13,5.378748078e-13,1.436914023e-13,2.720833369e-14,3.402898059e-14,1.807645057e-13,9.840836963e-14,1.487916154e-13,2.12110632e-13,1.526355652e-13,2.836565547e-13,5.0461741e-14,1.826235047e-13,2.298737341e-14
0.84375,3.416854829e-13,8.527202311e-14,4.498042263e-13,3.177830613e-13,2.475405619e-13,3.606178681e-13,4.633080629e-14,5.445310189e-14,5.326415489e-14,1.826057917e-13,4.110663852e-13,1.178843672e-13,1.633850794e-13,2.650735351e-13,4.7838941e-13,6.217046484e-13,5.846005507e-13,3.873642391e-13,1.45529029e-13,5.344858777e-13,1.440658187e-13,2.719592876e-14,3.401401751e-14,1.772466473e-13,9.799178203e-14,1.483019801e-13,2.110037734e-13,1.527195136e-13,2.793857453e-13,5.072694259e-14,1.847182557e-13,2.285089401e-14
0.8515625,3.417547158e-13,8.590708312e-14,4.512493405e-13,3.200348518e-13,2.483662876e-13,3.606331789e-13,4.660090303e-14,5.282591532e-14,5.31274033e-14,1.836796286e-13,4.081819775e-13,1.175704169e-13,1.64577183e-13,2.669054427e-13,4.795008813e-13,6.185620943e-13,5.822314939e-13,3.838583519e-13,1.456424022e-13,5.311624319e-13,1.444092729e-13,2.719052377e-14,3.399857842e-14,1.737805395e-13,9.760515334e-14,1.478244894e-13,2.098486897e-13,1.526642707e-13,2.752450538e-13,5.099846849e-14,1.868724924e-13,2.272098466e-14
0.859375,3.418519386e-13,8.655594216e-14,4.524825309e-13,3.22167348e-13,2.491262812e-13,3.604284854e-13,4.684720538e-14,5.1276716e-14,5.304154052e-14,1.847368491e-13,4.051002708e-13,1.172227303e-13,1.657333827e-13,2.687252594e-13,4.80492908e-13,6.15595405e-13,5.797765236e-13,3.802563416e-13,1.456759934e-13,5.27883507e-13,1.447391035e-13,2.719147327e-14,3.398190298e-14,1.70350494e-13,9.722472287e-14,1.473200615e-13,2.085776807e-13,1.525169143e-13,2.710953416e-13,5.124595215e-14,1.890288377e-13,2.258304058e-14
0.8671875,3.420673417e-13,8.731703217e-14,4.535352639e-13,3.242878021e-13,2.497541352e-13,3.601143138e-13,4.706787399e-14,4.984082696e-14,5.296298287e-14,1.857822909e-13,4.018837397e-13,1.168340778e-13,1.669665357e-13,2.704327034e-13,4.814630159e-13,6.12879677e-13,5.773429763e-13,3.766497769e-13,1.456859984e-13,5.244405532e-13,1.450539223e-13,2.719119806e-14,3.396235077e-14,1.670183846e-13,9.684941121e-14,1.468181959e-13,2.072471828e-13,1.523569765e-13,2.670179848e-13,5.146807608e-14,1.912630598e-13,2.24693424e-14
0.875,3.422689046e-13,8.816870118e-14,4.546100199e-13,3.264957603e-13,2.503190101e-13,3.596955275e-13,4.728208923e-14,4.846363403e-14,5.286642147e-14,1.867847447e-13,3.986318648e-13,1.164382377e-13,1.682597832e-13,2.720087508e-13,4.825892475e-13,6.107170026e-13,5.750152432e-13,3.731609321e-13,1.457178989e-13,5.210647594e-13,1.453520068e-13,2.719329165e-14,3.39428002e-14,1.637561393e-13,9.648921935e-14,1.463720482e-13,2.060546999e-13,1.521514223e-13,2.631083655e-13,5.170391383e-14,1.935730013e-13,2.23745255e-14
0.8828125,3.423539962e-13,8.895359544e-14,4.557324788e-13,3.288319448e-13,2.51011027e-13,3.590658685e-13,4.750071317e-14,4.709565642e-14,5.280412337e-14,1.877097764e-13,3.954465209e-13,1.160988317e-13,1.695189046e-13,2.736147909e-13,4.837968708e-13,6.090381554e-13,5.727103201e-13,3.697892975e-13,1.457693253e-13,5.180608656e-13,1.45666088e-13,2.722598152e-14,3.392589975e-14,1.604591144e-13,9.61489898e-14,1.459596863e-13,2.04996554e-13,1.518731203e-13,2.593297384e-13,5.196736296e-14,1.958946427e-13,2.226127322e-14
0.890625,3.423959836e-13,8.970925863e-14,4.567270054e-13,3.312120047e-13,2.516370691e-13,3.582388469e-13,4.771193942e-14,4.577859007e-14,5.278953892e-14,1.88623116e-13,3.923184245e-13,1.157741026e-13,1.707975423e-13,2.752597272e-13,4.849307584e-13,6.076311163e-13,5.703941533e-13,3.664148017e-13,1.457906186e-13,5.151614916e-13,1.459745507e-13,2.728198905e-14,3.390839669e-14,1.571861646e-13,9.581977828e-14,1.455693077e-13,2.039105173e-13,1.515895679e-13,2.556743207e-13,5.223306575e-14,1.98266641e-13,2.215989311e-14
0.8984375,3.423140041e-13,9.053408993e-14,4.574513563e-13,3.334119187e-13,2.519716026e-13,3.571926006e-13,4.790940384e-14,4.45552933e-14,5.279174069e-14,1.895825741e-13,3.890291393e-13,1.153678797e-13,1.721125051e-13,2.76777666e-13,4.859495624e-13,6.064160711e-13,5.679419744e-13,3.628794245e-13,1.457191694e-13,5.121348696e-13,1.462155859e-13,2.73275554e-14,3.3887542e-14,1.540315334e-13,9.549158639e-14,1.452271557e-13,2.027694838e-13,1.512253577e-13,2.521281875e-13,5.247008882e-14,2.006665187e-13,2.211455564e-14
0.90625,3.421484763e-13,9.132518484e-14,4.581120111e-13,3.354673922e-13,2.523890004e-13,3.559928579e-13,4.81212232e-14,4.342175559e-14,5.282448029e-14,1.905371582e-13,3.855747578e-13,1.149411095e-13,1.733942897e-13,2.783059306e-13,4.870361874e-13,6.054441134e-13,5.653734727e-13,3.593392425e-13,1.456187959e-13,5.090952892e-13,1.464446818e-13,2.738589338e-14,3.386387759e-14,1.50943285e-13,9.518697856e-14,1.449125943e-13,2.016015715e-13,1.506938776e-13,2.486592202e-13,5.268094119e-14,2.030374795e-13,2.209801461e-14
0.9140625,3.422456234e-13,9.213985743e-14,4.590573675e-13,3.376557367e-13,2.531049221e-13,3.549054401e-13,4.836419468e-14,4.23687578e-14,5.288432044e-14,1.914342628e-13,3.822860867e-13,1.145848452e-13,1.746822429e-13,2.800403316e-13,4.885199585e-13,6.04985757e-13,5.631110186e-13,3.561592577e-13,1.456098988e-13,5.059520657e-13,1.467440098e-13,2.749146141e-14,3.383740384e-14,1.47885025e-13,9.493714716e-14,1.44619583e-13,2.004219381e-13,1.501534815e-13,2.453190948e-13,5.29074806e-14,2.055250724e-13,2.208700138e-14
0.921875,3.424367449e-13,9.311759632e-14,4.601349904e-13,3.399682597e-13,2.536977257e-13,3.538414376e-13,4.861757609e-14,4.138143087e-14,5.293236413e-14,1.922846957e-13,3.791851231e-13,1.142195607e-13,1.760247312e-13,2.817647013e-13,4.903590368e-13,6.051336802e-13,5.611772943e-13,3.532385656e-13,1.456229871e-13,5.026528276e-13,1.470425718e-13,2.761161339e-14,3.380812143e-14,1.4488181e-13,9.473392516e-14,1.443905517e-13,1.993012086e-13,1.49628136e-13,2.421158046e-13,5.315361315e-14,2.081951414e-13,2.209947598e-14
0.9296875,3.422634943e-13,9.405453149e-14,4.608896857e-13,3.42212309e-13,2.540570446e-13,3.524375515e-13,4.886356033e-14,4.044615823e-14,5.299577558e-14,1.931343321e-13,3.759832541e-13,1.137850808e-13,1.773796803e-13,2.833256797e-13,4.920873422e-13,6.054978311e-13,5.59072808e-13,3.502022342e-13,1.455233856e-13,4.994807956e-13,1.4725225e-13,2.772150098e-14,3.377737898e-14,1.419418722e-13,9.455000331e-14,1.442083987e-13,1.98227559e-13,1.48920312e-13,2.390066389e-13,5.336687713e-14,2.108084978e-13,2.213188597e-14
0.9375,3.41934007e-13,9.485092693e-14,4.61362022e-13,3.444125932e-13,2.544451496e-13,3.507872071e-13,4.908585712e-14,3.957872808e-14,5.31142132e-14,1.940249508e-13,3.726892184e-13,1.133412996e-13,1.787371551e-13,2.848470353e-13,4.935547093e-13,6.058682262e-13,5.567511911e-13,3.470416413e-13,1.453548887e-13,4.96484199e-13,1.474010475e-13,2.784810284e-14,3.37471613e-14,1.39094324e-13,9.436919239e-14,1.440361422e-13,1.970787948e-13,1.481167265e-13,2.36034744e-13,5.354394573e-14,2.132732956e-13,2.21749961e-14
0.9453125,3.416067864e-13,9.574684772e-14,4.619276332e-13,3.466659568e-13,2.547312015e-13,3.491547136e-13,4.926905138e-14,3.879987301e-14,5.325478552e-14,1.949113937e-13,3.694491412e-13,1.128966093e-13,1.801022893e-13,2.862727141e-13,4.950716127e-13,6.064940925e-13,5.544218498e-13,3.43836914e-13,1.452019108e-13,4.935186503e-13,1.475451873e-13,2.799213565e-14,3.371558054e-14,1.36331675e-13,9.418449037e-14,1.439071474e-13,1.958207835e-13,1.474318444e-13,2.33182999e-13,5.373803985e-14,2.157991652e-13,2.223931649e-14
0.953125,3.410095778e-13,9.677486652e-14,4.626074114e-13,3.489734613e-13,2.548127495e-13,3.474490104e-13,4.943836642e-14,3.810800858e-14,5.340752386e-14,1.957004833e-13,3.662232193e-13,1.124470999e-13,1.814663443e-13,2.875956539e-13,4.967911839e-13,6.074894716e-13,5.519902591e-13,3.405622689e-13,1.450692822e-13,4.906632372e-13,1.477309166e-13,2.813615684e-14,3.367593048e-14,1.335921761e-13,9.400702456e-14,1.438436855e-13,1.945290418e-13,1.467756199e-13,2.303782404e-13,5.395889738e-14,2.184762095e-13,2.232040569e-14
0.9609375,3.404093796e-13,9.781427542e-14,4.631608707e-13,3.512958536e-13,2.549513123e-13,3.45586333e-13,4.962139147e-14,3.748958771e-14,5.360773862e-14,1.964048368e-13,3.630045377e-13,1.120295213e-13,1.828637548e-13,2.890250808e-13,4.985731778e-13,6.087554504e-13,5.495400072e-13,3.37387395e-13,1.449530105e-13,4.878770473e-13,1.479442526e-13,2.830000097e-14,3.363186579e-14,1.3088258e-13,9.38592294e-14,1.438331135e-13,1.93283111e-13,1.460171299e-13,2.276911327e-13,5.417056162e-14,2.212137333e-13,2.241732947e-14
0.96875,3.400516266e-13,9.883234994e-14,4.635755342e-13,3.535165585e-13,2.551183191e-13,3.435940007e-13,4.978672811e-14,3.692462571e-14,5.383283529e-14,1.971200118e-13,3.598144231e-13,1.115846419e-13,1.842888421e-13,2.904025373e-13,5.003373187e-13,6.103400852e-13,5.472986939e-13,3.34359618e-13,1.448144396e-13,4.851077861e-13,1.480785879e-13,2.849060513e-14,3.359868892e-14,1.28286622e-13,9.374203732e-14,1.438776244e-13,1.920554186e-13,1.452108328e-13,2.251406123e-13,5.43772959e-14,2.239482787e-13,2.254563869e-14
0.9765625,3.393487203e-13,9.978182791e-14,4.639220207e-13,3.55636965e-13,2.551222429e-13,3.415075444e-13,4.994709726e-14,3.644097511e-14,5.404798285e-14,1.978034209e-13,3.565746142e-13,1.110578714e-13,1.856773653e-13,2.91464657e-13,5.020076767e-13,6.120764001e-13,5.450029602e-13,3.312496288e-13,1.446086042e-13,4.824506451e-13,1.481357393e-13,2.86823729e-14,3.358048632e-14,1.257151331e-13,9.364321674e-14,1.439658003e-13,1.908845345e-13,1.442871664e-13,2.226262351e-13,5.455407751e-14,2.266101853e-13,2.268709002e-14
0.984375,3.382206897e-13,1.005586437e-13,4.642604705e-13,3.578051771e-13,2.550907763e-13,3.393547692e-13,5.010880496e-14,3.602700768e-14,5.427251098e-14,1.984455243e-13,3.533738312e-13,1.105419793e-13,1.870765451e-13,2.924675534e-13,5.036653906e-13,6.139076977e-13,5.425757331e-13,3.280834534e-13,1.444072827e-13,4.800118335e-13,1.48235145e-13,2.887526027e-14,3.355712786e-14,1.231864454e-13,9.356023958e-14,1.440440546e-13,1.897082367e-13,1.433047249e-13,2.201963231e-13,5.471963143e-14,2.292223694e-13,2.282065057e-14
0.9921875,3.371916878e-13,1.013144706e-13,4.644753214e-13,3.600350497e-13,2.551395383e-13,3.371429385e-13,5.026444246e-14,3.566408571e-14,5.452351491e-14,1.99056229e-13,3.502860302e-13,1.100508075e-13,1.885193066e-13,2.935980369e-13,5.054146189e-13,6.15981092e-13,5.401679137e-13,3.250071663e-13,1.442141479e-13,4.775792464e-13,1.483458394e-13,2.908283316e-14,3.351993174e-14,1.207371801e-13,9.349476468e-14,1.441526244e-13,1.885069159e-13,1.423266706e-13,2.179545345e-13,5.48721693e-14,2.318896853e-13,2.297120888e-14
1,3.361922381e-13,1.021519864e-13,4.645224031e-13,3.622698461e-13,2.55168413e-13,3.348481169e-13,5.039413553e-14,3.537765673e-14,5.479386106e-14,1.996479719e-13,3.471864746e-13,1.095202624e-13,1.899483726e-13,2.946543917e-13,5.072386483e-13,6.183936808e-13,5.377649864e-13,3.219312607e-13,1.439750025e-13,4.750799538e-13,1.4838401e-13,2.929750175e-14,3.347869882e-14,1.183019586e-13,9.345059816e-14,1.443552229e-13,1.873358982e-13,1.413243196e-13,2.158212682e-13,5.50063517e-14,2.346142584e-13,2.315097001e-14
1.0078125,3.350056686e-13,1.030630121e-13,4.645037356e-13,3.645349198e-13,2.551737124e-13,3.324319975e-13,5.048922112e-14,3.520234652e-14,5.508435639e-14,2.002239244e-13,3.440720771e-13,1.089971567e-13,1.913917154e-13,2.956181298e-13,5.091201994e-13,6.211174922e-13,5.354477168e-13,3.189172206e-13,1.437595068e-13,4.726698212e-13,1.48418702e-13,2.951803029e-14,3.344883224e-14,1.158710302e-13,9.344384733e-14,1.446214975e-13,1.862462724e-13,1.402599616e-13,2.137513561e-13,5.51359247e-14,2.373342026e-13,2.334565555e-14
1.015625,3.338189094e-13,1.040189502e-13,4.645020049e-13,3.668076069e-13,2.551985798e-13,3.299247505e-13,5.057248131e-14,3.511727739e-14,5.539285354e-14,2.007947094e-13,3.410892475e-13,1.085066901e-13,1.928872962e-13,2.965888524e-13,5.110802104e-13,6.240540159e-13,5.333206006e-13,3.161242616e-13,1.435960393e-13,4.704168315e-13,1.484605431e-13,2.975177623e-14,3.343684896e-14,1.134933107e-13,9.34826999e-14,1.449176836e-13,1.851952166e-13,1.391652171e-13,2.117889571e-13,5.526138764e-14,2.400778791e-13,2.355223197e-14
1.0234375,3.326389773e-13,1.048591237e-13,4.644296992e-13,3.690064265e-13,2.55195983e-13,3.273918435e-13,5.066350122e-14,3.508771773e-14,5.572131929e-14,2.013590153e-13,3.382201745e-13,1.079829073e-13,1.943818974e-13,2.975149505e-13,5.130226816e-13,6.270283696e-13,5.311455004e-13,3.133846945e-13,1.433836563e-13,4.683570742e-13,1.484302444e-13,2.999822518e-14,3.342640021e-14,1.111779778e-13,9.354637149e-14,1.452684792e-13,1.841163592e-13,1.380702657e-13,2.098796728e-13,5.536947468e-14,2.428742879e-13,2.375870071e-14
1.03125,3.313560764e-13,1.056196125e-13,4.642181991e-13,3.711656411e-13,2.551739122e-13,3.248104376e-13,5.074640865e-14,3.511155321e-14,5.608304416e-14,2.018661661e-13,3.353897329e-13,1.074470526e-13,1.958821466e-13,2.984178227e-13,5.148971955e-13,6.300122778e-13,5.287693658e-13,3.105685442e-13,1.431350878e-13,4.664706761e-13,1.483710781e-13,3.026073691e-14,3.339904936e-14,1.089295428e-13,9.361516846e-14,1.456773642e-13,1.830573662e-13,1.369434222e-13,2.079923599e-13,5.545090279e-14,2.457024217e-13,2.395810715e-14
1.0390625,3.300158963e-13,1.0653926e-13,4.640519164e-13,3.734006946e-13,2.551695074e-13,3.221828524e-13,5.082028418e-14,3.519255295e-14,5.646595769e-14,2.022841943e-13,3.326027434e-13,1.069417171e-13,1.974159922e-13,2.9930664e-13,5.168691805e-13,6.331792012e-13,5.263877174e-13,3.078200663e-13,1.429231844e-13,4.645845922e-13,1.483115768e-13,3.053427556e-14,3.336113922e-14,1.067217403e-13,9.370424751e-14,1.461153679e-13,1.820833653e-13,1.357397031e-13,2.061969944e-13,5.550044932e-14,2.485603343e-13,2.417616398e-14
1.046875,3.285864545e-13,1.074765745e-13,4.64050749e-13,3.757367514e-13,2.551801911e-13,3.196045831e-13,5.09010474e-14,3.533197789e-14,5.685157214e-14,2.026612624e-13,3.298478182e-13,1.064264346e-13,1.989380248e-13,3.000813968e-13,5.19018064e-13,6.366131113e-13,5.241528401e-13,3.051710938e-13,1.42709394e-13,4.626690727e-13,1.481934204e-13,3.080695294e-14,3.33273382e-14,1.045480282e-13,9.383030939e-14,1.465784206e-13,1.81159923e-13,1.344982492e-13,2.045101746e-13,5.554756154e-14,2.514408287e-13,2.441730007e-14
1.0546875,3.270696889e-13,1.082520454e-13,4.64064772e-13,3.780826939e-13,2.55217951e-13,3.17028767e-13,5.096348653e-14,3.55254429e-14,5.724896328e-14,2.030353125e-13,3.271683286e-13,1.05915582e-13,2.004776342e-13,3.007768519e-13,5.211895527e-13,6.402362275e-13,5.220361616e-13,3.0256443e-13,1.425015464e-13,4.608676211e-13,1.480694544e-13,3.109106335e-14,3.330241341e-14,1.024722837e-13,9.397331235e-14,1.470848678e-13,1.802780597e-13,1.333176916e-13,2.029397859e-13,5.562758772e-14,2.543621163e-13,2.465407496e-14
1.0625,3.254748854e-13,1.091107754e-13,4.640280783e-13,3.803602851e-13,2.552205486e-13,3.143266743e-13,5.099758462e-14,3.575944473e-14,5.765335414e-14,2.033657936e-13,3.246184783e-13,1.054334246e-13,2.020927634e-13,3.014057355e-13,5.233008134e-13,6.439662437e-13,5.199143649e-13,3.000265565e-13,1.423465095e-13,4.591984672e-13,1.479777007e-13,3.139250595e-14,3.32855144e-14,1.004642631e-13,9.411425848e-14,1.476525579e-13,1.794765678e-13,1.321718484e-13,2.015305754e-13,5.569957501e-14,2.573481696e-13,2.489120299e-14
1.0703125,3.236311699e-13,1.100974816e-13,4.639068893e-13,3.825746814e-13,2.551172444e-13,3.114937833e-13,5.10442249e-14,3.605371978e-14,5.804942345e-14,2.036039401e-13,3.221031978e-13,1.049010678e-13,2.036998727e-13,3.018369369e-13,5.254083821e-13,6.477879297e-13,5.176583798e-13,2.975084423e-13,1.421575185e-13,4.576098922e-13,1.478202144e-13,3.16864355e-14,3.326789637e-14,9.846345058e-14,9.42643084e-14,1.482962074e-13,1.787306972e-13,1.308963263e-13,2.002273194e-13,5.571157242e-14,2.602795506e-13,2.516198871e-14
1.078125,3.215624775e-13,1.109795583e-13,4.6354636e-13,3.847390784e-13,2.55034676e-13,3.084998675e-13,5.110177029e-14,3.643267566e-14,5.845477627e-14,2.037674355e-13,3.195690541e-13,1.04312544e-13,2.052384568e-13,3.021442936e-13,5.274807948e-13,6.516646689e-13,5.152476797e-13,2.949703099e-13,1.418828225e-13,4.560458848e-13,1.476165576e-13,3.196519397e-14,3.323469514e-14,9.653088633e-14,9.442591734e-14,1.490023804e-13,1.780231698e-13,1.294758708e-13,1.989618933e-13,5.570157466e-14,2.630655283e-13,2.546519816e-14
1.0859375,3.194808913e-13,1.117744506e-13,4.630955253e-13,3.868804679e-13,2.550636449e-13,3.05416423e-13,5.113993586e-14,3.685877718e-14,5.887778849e-14,2.038955776e-13,3.171002269e-13,1.037547221e-13,2.067765847e-13,3.024814286e-13,5.294548357e-13,6.554766632e-13,5.127278095e-13,2.924863722e-13,1.416123848e-13,4.544392197e-13,1.47463879e-13,3.224263997e-14,3.318468021e-14,9.463875141e-14,9.458721017e-14,1.497215397e-13,1.773702142e-13,1.281029823e-13,1.97784166e-13,5.571364008e-14,2.658405411e-13,2.575807773e-14
1.09375,3.17327538e-13,1.124825598e-13,4.627918522e-13,3.890426286e-13,2.550288318e-13,3.02512566e-13,5.11741786e-14,3.730427458e-14,5.929745277e-14,2.039603756e-13,3.146764915e-13,1.031908617e-13,2.083115884e-13,3.026799911e-13,5.313801361e-13,6.592331169e-13,5.101959367e-13,2.90008088e-13,1.413574124e-13,4.529068244e-13,1.472783251e-13,3.251947338e-14,3.313932103e-14,9.269753715e-14,9.475653886e-14,1.50434321e-13,1.766977896e-13,1.268087394e-13,1.966803846e-13,5.5719634e-14,2.686465375e-13,2.602684394e-14
1.1015625,3.149157079e-13,1.130096689e-13,4.623760778e-13,3.911349639e-13,2.548107329e-13,2.996543076e-13,5.120530041e-14,3.779593634e-14,5.971380606e-14,2.039136619e-13,3.122012621e-13,1.025516384e-13,2.097718105e-13,3.025392107e-13,5.332414726e-13,6.630254067e-13,5.07675803e-13,2.874134307e-13,1.41037127e-13,4.515328368e-13,1.46963809e-13,3.279471818e-14,3.311826117e-14,9.081569693e-14,9.494357577e-14,1.511855521e-13,1.759387105e-13,1.253862448e-13,1.955744691e-13,5.569458659e-14,2.713523077e-13,2.631036729e-14
1.109375,3.122513601e-13,1.135194536e-13,4.616612959e-13,3.930717944e-13,2.545829718e-13,2.964493043e-13,5.120649325e-14,3.833357519e-14,6.014671084e-14,2.037397072e-13,3.097201548e-13,1.019239097e-13,2.112088796e-13,3.022420163e-13,5.349240485e-13,6.666918814e-13,5.049699478e-13,2.848120696e-13,1.406740623e-13,4.501313957e-13,1.465964026e-13,3.307922035e-14,3.311004407e-14,8.908121945e-14,9.513662025e-14,1.520054916e-13,1.752011818e-13,1.238023801e-13,1.945706574e-13,5.565771827e-14,2.740573697e-13,2.661620505e-14
1.1171875,3.095643052e-13,1.141376303e-13,4.609440967e-13,3.950499622e-13,2.545479524e-13,2.931262439e-13,5.118917903e-14,3.891026499e-14,6.061453108e-14,2.033777724e-13,3.073620386e-13,1.014044237e-13,2.127465801e-13,3.021094317e-13,5.365343843e-13,6.702044269e-13,5.021357727e-13,2.824279148e-13,1.403742804e-13,4.487346152e-13,1.462508806e-13,3.339038689e-14,3.309065096e-14,8.739817695e-14,9.533560089e-14,1.528712273e-13,1.746276015e-13,1.222555908e-13,1.937814485e-13,5.562372362e-14,2.769791695e-13,2.69085347e-14
1.125,3.07063317e-13,1.148033751e-13,4.603147311e-13,3.972209876e-13,2.546243048e-13,2.90054821e-13,5.115782312e-14,3.954801858e-14,6.110805781e-14,2.028198348e-13,3.051673454e-13,1.009362747e-13,2.143966857e-13,3.02104378e-13,5.38306835e-13,6.739332834e-13,4.995591606e-13,2.802506644e-13,1.401709474e-13,4.475763839e-13,1.459154053e-13,3.373301912e-14,3.305997896e-14,8.573326702e-14,9.555746102e-14,1.537704746e-13,1.741872354e-13,1.208102958e-13,1.930911957e-13,5.558781508e-14,2.800404246e-13,2.719067561e-14
1.1328125,3.045229622e-13,1.15502146e-13,4.595715813e-13,3.993959467e-13,2.545897969e-13,2.869707162e-13,5.108621594e-14,4.021875869e-14,6.157140005e-14,2.022226106e-13,3.03064935e-13,1.004267116e-13,2.16061873e-13,3.019055073e-13,5.401448129e-13,6.778357231e-13,4.971053754e-13,2.780751339e-13,1.399915325e-13,4.464928557e-13,1.455814209e-13,3.407895092e-14,3.302990794e-14,8.41208554e-14,9.579625781e-14,1.547131751e-13,1.737501954e-13,1.193889706e-13,1.924293598e-13,5.554739463e-14,2.830766721e-13,2.747783379e-14
1.140625,3.016961731e-13,1.161285134e-13,4.586907391e-13,4.014302029e-13,2.544954538e-13,2.836457913e-13,5.098749627e-14,4.088591113e-14,6.200478913e-14,2.016223815e-13,3.009998514e-13,9.989926138e-14,2.176832257e-13,3.015030115e-13,5.417822385e-13,6.814496539e-13,4.943391339e-13,2.758425712e-13,1.397701769e-13,4.453070779e-13,1.452505079e-13,3.441233428e-14,3.300426632e-14,8.254284599e-14,9.603115161e-14,1.556978647e-13,1.732843537e-13,1.179770729e-13,1.918891146e-13,5.550372256e-14,2.861203858e-13,2.775171267e-14
1.1484375,2.989065442e-13,1.166386289e-13,4.577142657e-13,4.034035468e-13,2.545399243e-13,2.802983116e-13,5.089213233e-14,4.158398393e-14,6.249003178e-14,2.008633008e-13,2.990114222e-13,9.942899477e-14,2.193017965e-13,3.012089604e-13,5.432516245e-13,6.848291793e-13,4.914419263e-13,2.736732959e-13,1.395329204e-13,4.442364225e-13,1.44903092e-13,3.475978189e-14,3.298718337e-14,8.099805957e-14,9.626773629e-14,1.567284783e-13,1.728557928e-13,1.165716935e-13,1.914627718e-13,5.545398752e-14,2.892098878e-13,2.801832474e-14
1.15625,2.962223013e-13,1.171942322e-13,4.56629733e-13,4.053839981e-13,2.546254361e-13,2.770773352e-13,5.080690307e-14,4.233426395e-14,6.30251554e-14,2.00012127e-13,2.970722381e-13,9.89900689e-14,2.20956394e-13,3.009721032e-13,5.446544075e-13,6.88175099e-13,4.886169817e-13,2.715605414e-13,1.393018576e-13,4.433087618e-13,1.445127468e-13,3.511769388e-14,3.297754483e-14,7.946807308e-14,9.651738665e-14,1.578268315e-13,1.726074026e-13,1.151449225e-13,1.910845211e-13,5.538731068e-14,2.922365942e-13,2.829285257e-14
1.1640625,2.933983009e-13,1.178961679e-13,4.555710392e-13,4.073754372e-13,2.544867413e-13,2.73842956e-13,5.067232044e-14,4.307317713e-14,6.347053103e-14,1.990967294e-13,2.952138365e-13,9.852447522e-14,2.22626342e-13,3.005217329e-13,5.460890645e-13,6.915556009e-13,4.859362136e-13,2.694236049e-13,1.390972758e-13,4.422366743e-13,1.440859119e-13,3.54464336e-14,3.2964629e-14,7.797652265e-14,9.676514911e-14,1.589636787e-13,1.724119096e-13,1.137643169e-13,1.907989506e-13,5.532537965e-14,2.952045413e-13,2.854605024e-14
1.171875,2.903922693e-13,1.184689019e-13,4.545513093e-13,4.093771263e-13,2.542868709e-13,2.705601738e-13,5.051256337e-14,4.383449977e-14,6.387997227e-14,1.980754299e-13,2.934280471e-13,9.803316615e-14,2.243101848e-13,2.999418735e-13,5.474660751e-13,6.948232847e-13,4.832180118e-13,2.672822472e-13,1.388846057e-13,4.411272521e-13,1.436530335e-13,3.57507406e-14,3.295869622e-14,7.653181647e-14,9.700144761e-14,1.601468625e-13,1.722770832e-13,1.124117703e-13,1.906040153e-13,5.526990374e-14,2.981243688e-13,2.878993893e-14
1.1796875,2.874857894e-13,1.189590499e-13,4.53556696e-13,4.113172615e-13,2.542229648e-13,2.672545258e-13,5.035414451e-14,4.469361298e-14,6.439448008e-14,1.968378352e-13,2.917086192e-13,9.757541045e-14,2.260537831e-13,2.99451557e-13,5.488121841e-13,6.980959696e-13,4.80463025e-13,2.652390969e-13,1.386698329e-13,4.402232194e-13,1.431985042e-13,3.607919872e-14,3.297170732e-14,7.511834676e-14,9.725505753e-14,1.613991942e-13,1.722110477e-13,1.110333917e-13,1.904632238e-13,5.521486253e-14,3.010970606e-13,2.908416852e-14
1.1875,2.845840889e-13,1.195132304e-13,4.526289382e-13,4.132477122e-13,2.541317251e-13,2.639858598e-13,5.020210786e-14,4.564076982e-14,6.495222266e-14,1.954457622e-13,2.900203268e-13,9.713141234e-14,2.27828199e-13,2.9889021e-13,5.502736021e-13,7.015201689e-13,4.777756609e-13,2.632963609e-13,1.384711886e-13,4.394548895e-13,1.427040394e-13,3.641917625e-14,3.29985184e-14,7.374316284e-14,9.754760033e-14,1.627090959e-13,1.721835727e-13,1.09664321e-13,1.903943607e-13,5.51587047e-14,3.041388303e-13,2.940164083e-14
1.1953125,2.815513144e-13,1.200307812e-13,4.517648476e-13,4.152446982e-13,2.539288727e-13,2.608378267e-13,5.003183102e-14,4.661613294e-14,6.545118976e-14,1.939808286e-13,2.884342796e-13,9.668142563e-14,2.295468142e-13,2.981220255e-13,5.518707509e-13,7.050985798e-13,4.752891596e-13,2.614297785e-13,1.383074664e-13,4.38721293e-13,1.422213335e-13,3.674589204e-14,3.302918354e-14,7.246489511e-14,9.786414849e-14,1.640647474e-13,1.72173e-13,1.083748505e-13,1.903889019e-13,5.511221764e-14,3.071023157e-13,2.968229905e-14
1.203125,2.784408281e-13,1.205021303e-13,4.508810574e-13,4.171743293e-13,2.537213093e-13,2.576350632e-13,4.981983266e-14,4.758148399e-14,6.591937124e-14,1.924250446e-13,2.869986141e-13,9.624991664e-14,2.312228459e-13,2.972699631e-13,5.534148609e-13,7.086432758e-13,4.728560566e-13,2.596110612e-13,1.381598617e-13,4.38001987e-13,1.417692287e-13,3.706654654e-14,3.305970576e-14,7.125887008e-14,9.81893361e-14,1.654751106e-13,1.721872793e-13,1.071203323e-13,1.90443598e-13,5.507753824e-14,3.099332465e-13,2.995305591e-14
1.2109375,2.752666387e-13,1.20975292e-13,4.4992826e-13,4.190458271e-13,2.535258186e-13,2.542493037e-13,4.95941971e-14,4.854203628e-14,6.63757897e-14,1.907478728e-13,2.856196685e-13,9.583239425e-14,2.329303501e-13,2.963716153e-13,5.548075798e-13,7.120254414e-13,4.702833493e-13,2.578283277e-13,1.379892643e-13,4.372861142e-13,1.412908615e-13,3.738679662e-14,3.309601455e-14,7.002044252e-14,9.852738044e-14,1.669400702e-13,1.722611972e-13,1.05837568e-13,1.905920507e-13,5.503865171e-14,3.127995225e-13,3.024656705e-14
1.21875,2.721217629e-13,1.213513907e-13,4.48930615e-13,4.209894898e-13,2.532893907e-13,2.509406947e-13,4.938586102e-14,4.952583921e-14,6.680389551e-14,1.889619517e-13,2.842447954e-13,9.541343059e-14,2.346825404e-13,2.953980603e-13,5.561581476e-13,7.153998043e-13,4.677682438e-13,2.56104608e-13,1.378101269e-13,4.367248754e-13,1.40796744e-13,3.770391779e-14,3.314687707e-14,6.875959247e-14,9.888141736e-14,1.684411787e-13,1.724081725e-13,1.045894081e-13,1.907873551e-13,5.498942145e-14,3.157563164e-13,3.053317942e-14
1.2265625,2.690428732e-13,1.21641061e-13,4.479801295e-13,4.228531919e-13,2.529745529e-13,2.47818051e-13,4.916506908e-14,5.052573945e-14,6.721001682e-14,1.870824354e-13,2.828872337e-13,9.498732887e-14,2.364767622e-13,2.94400186e-13,5.575457111e-13,7.188430274e-13,4.654143438e-13,2.54399703e-13,1.3765819e-13,4.363891968e-13,1.403414394e-13,3.80053527e-14,3.320149346e-14,6.757421499e-14,9.924507064e-14,1.699502939e-13,1.726006678e-13,1.034369893e-13,1.909915945e-13,5.494590132e-14,3.186536112e-13,3.079504223e-14
1.234375,2.659000316e-13,1.220104017e-13,4.471362967e-13,4.24513972e-13,2.526056147e-13,2.446358625e-13,4.889080391e-14,5.151447385e-14,6.760281728e-14,1.850435875e-13,2.815519795e-13,9.455383439e-14,2.383124833e-13,2.933766274e-13,5.588868369e-13,7.221444666e-13,4.629745222e-13,2.526896452e-13,1.375262977e-13,4.36007504e-13,1.399006263e-13,3.829306771e-14,3.324851738e-14,6.645909948e-14,9.960434729e-14,1.714653153e-13,1.728376791e-13,1.023245555e-13,1.912646296e-13,5.492230114e-14,3.215164898e-13,3.105439046e-14
1.2421875,2.627055295e-13,1.225089719e-13,4.46272099e-13,4.260806031e-13,2.521805197e-13,2.413299689e-13,4.856496307e-14,5.248588408e-14,6.799439872e-14,1.828030736e-13,2.802890576e-13,9.411711627e-14,2.40143453e-13,2.922381e-13,5.599198894e-13,7.250395966e-13,4.603279584e-13,2.509954539e-13,1.373503881e-13,4.35405338e-13,1.39446645e-13,3.858577519e-14,3.330443909e-14,6.532242508e-14,9.993627585e-14,1.730307967e-13,1.731241407e-13,1.012050606e-13,1.915937827e-13,5.492395785e-14,3.244540388e-13,3.131962417e-14
1.25,2.594638713e-13,1.230020266e-13,4.452497789e-13,4.276118158e-13,2.515417232e-13,2.38035443e-13,4.820673603e-14,5.342611361e-14,6.836062388e-14,1.804620965e-13,2.791082275e-13,9.364334864e-14,2.419679605e-13,2.908949097e-13,5.604457354e-13,7.273968366e-13,4.575223195e-13,2.492252265e-13,1.370700107e-13,4.347510964e-13,1.389876519e-13,3.885591742e-14,3.337641289e-14,6.414759902e-14,1.002347727e-13,1.746812257e-13,1.734414391e-13,1.001044881e-13,1.919317247e-13,5.495418156e-14,3.272898591e-13,3.157155373e-14
1.2578125,2.560684559e-13,1.23365095e-13,4.44192721e-13,4.291646261e-13,2.507188119e-13,2.347577118e-13,4.783227293e-14,5.434205135e-14,6.865860711e-14,1.780510615e-13,2.77917992e-13,9.312358313e-14,2.438588451e-13,2.893649465e-13,5.607513593e-13,7.29458592e-13,4.546736288e-13,2.473867701e-13,1.36763198e-13,4.341721729e-13,1.384838191e-13,3.907826984e-14,3.344978789e-14,6.301154411e-14,1.005376036e-13,1.76411058e-13,1.738292745e-13,9.903433743e-14,1.923461888e-13,5.499311459e-14,3.298984875e-13,3.180971119e-14
1.265625,2.52638191e-13,1.236771951e-13,4.432502002e-13,4.306802742e-13,2.499932893e-13,2.314574867e-13,4.746391886e-14,5.529331041e-14,6.893446607e-14,1.754909151e-13,2.766812637e-13,9.262304087e-14,2.458202352e-13,2.877968093e-13,5.612407725e-13,7.316367533e-13,4.52002227e-13,2.456806208e-13,1.365559933e-13,4.336518415e-13,1.379105847e-13,3.929748154e-14,3.353218797e-14,6.195717724e-14,1.008861018e-13,1.781957044e-13,1.743211154e-13,9.797105679e-14,1.928635955e-13,5.500651954e-14,3.324647424e-13,3.206355446e-14
1.2734375,2.49252396e-13,1.240420322e-13,4.422970074e-13,4.319077202e-13,2.493164434e-13,2.281288071e-13,4.711104358e-14,5.629503047e-14,6.923024543e-14,1.728570825e-13,2.754604173e-13,9.213711538e-14,2.477986948e-13,2.862233774e-13,5.61756776e-13,7.338696627e-13,4.495053718e-13,2.440453143e-13,1.363866337e-13,4.332332718e-13,1.37326265e-13,3.95228432e-14,3.363561097e-14,6.095753056e-14,1.012668111e-13,1.799978878e-13,1.748609689e-13,9.688450601e-14,1.934008951e-13,5.500184405e-14,3.350196984e-13,3.234403143e-14
1.28125,2.45764461e-13,1.243741603e-13,4.412396384e-13,4.329712624e-13,2.484738627e-13,2.247611663e-13,4.675659888e-14,5.729026595e-14,6.949661238e-14,1.702288923e-13,2.743297637e-13,9.162160794e-14,2.497999651e-13,2.845285922e-13,5.620150439e-13,7.358748068e-13,4.46970891e-13,2.4227276e-13,1.361477681e-13,4.329209689e-13,1.367677244e-13,3.971455697e-14,3.374098532e-14,5.99858488e-14,1.016403496e-13,1.818165541e-13,1.754577889e-13,9.577946326e-14,1.939369568e-13,5.501291252e-14,3.374442662e-13,3.262886719e-14
1.2890625,2.422936438e-13,1.246290678e-13,4.402702304e-13,4.341598632e-13,2.476192096e-13,2.214494672e-13,4.639747337e-14,5.824267983e-14,6.973779157e-14,1.674831358e-13,2.733108998e-13,9.114247919e-14,2.518226889e-13,2.827678897e-13,5.621360055e-13,7.376459109e-13,4.443604097e-13,2.405083542e-13,1.359044058e-13,4.325702112e-13,1.362170123e-13,3.989830474e-14,3.383918072e-14,5.901345437e-14,1.020039729e-13,1.836900837e-13,1.761608463e-13,9.472238798e-14,1.945099285e-13,5.503890325e-14,3.398921795e-13,3.289509792e-14
1.296875,2.390339268e-13,1.249029015e-13,4.395003919e-13,4.352022671e-13,2.468853012e-13,2.182770622e-13,4.605412447e-14,5.914952042e-14,6.999830987e-14,1.645873183e-13,2.723459923e-13,9.073452762e-14,2.538304298e-13,2.810907923e-13,5.622159656e-13,7.391026283e-13,4.416698058e-13,2.389378733e-13,1.357272619e-13,4.320923062e-13,1.356802042e-13,4.010989835e-14,3.39497005e-14,5.802001143e-14,1.023786593e-13,1.855881981e-13,1.768644823e-13,9.37311254e-14,1.951321791e-13,5.506975447e-14,3.425092779e-13,3.313989422e-14
1.3046875,2.357856172e-13,1.252171314e-13,4.388208499e-13,4.359104053e-13,2.461358663e-13,2.151307108e-13,4.572886452e-14,6.001465951e-14,7.023605407e-14,1.616663299e-13,2.714030954e-13,9.033183647e-14,2.558644345e-13,2.794513597e-13,5.622183539e-13,7.40195829e-13,4.388728732e-13,2.3746898e-13,1.355870716e-13,4.315898498e-13,1.351782898e-13,4.032207126e-14,3.407711357e-14,5.704180777e-14,1.027731101e-13,1.874625272e-13,1.774989189e-13,9.275099577e-14,1.958120512e-13,5.512424e-14,3.451526408e-13,3.33842291e-14
1.3125,2.323651211e-13,1.2549943e-13,4.382316681e-13,4.367253003e-13,2.453161635e-13,2.11961639e-13,4.54186187e-14,6.085700248e-14,7.040845681e-14,1.587230712e-13,2.705140341e-13,8.992128027e-14,2.579809219e-13,2.777413823e-13,5.622787757e-13,7.41313657e-13,4.361741785e-13,2.360287982e-13,1.354546778e-13,4.312223997e-13,1.346944654e-13,4.050894148e-14,3.420609465e-14,5.609291818e-14,1.031879859e-13,1.893900219e-13,1.782246806e-13,9.181345132e-14,1.965549836e-13,5.52118592e-14,3.477132673e-13,3.364262936e-14
1.3203125,2.288929846e-13,1.256708478e-13,4.377618911e-13,4.377772914e-13,2.44418937e-13,2.08897276e-13,4.513616159e-14,6.169455238e-14,7.053728548e-14,1.557018836e-13,2.69644901e-13,8.950137747e-14,2.601314189e-13,2.759367513e-13,5.624047354e-13,7.426382715e-13,4.337341285e-13,2.345914508e-13,1.352997926e-13,4.309993314e-13,1.341868827e-13,4.066503339e-14,3.433813809e-14,5.513920742e-14,1.036152655e-13,1.914475459e-13,1.791552458e-13,9.097655792e-14,1.973782544e-13,5.531631552e-14,3.501947899e-13,3.389765829e-14
1.328125,2.254913467e-13,1.257802588e-13,4.372337806e-13,4.385614906e-13,2.433963763e-13,2.058942087e-13,4.486859372e-14,6.252672219e-14,7.064766049e-14,1.526216218e-13,2.687550496e-13,8.904330937e-14,2.622663096e-13,2.740258357e-13,5.623668639e-13,7.43824161e-13,4.314077541e-13,2.33086039e-13,1.351230055e-13,4.306792281e-13,1.336385657e-13,4.079477118e-14,3.449521037e-14,5.420318402e-14,1.040432106e-13,1.935636245e-13,1.802021579e-13,9.017432409e-14,1.983137005e-13,5.542618828e-14,3.525822306e-13,3.414088435e-14
1.3359375,2.221389816e-13,1.260322144e-13,4.365750512e-13,4.389004126e-13,2.422471355e-13,2.028085017e-13,4.458861674e-14,6.333392252e-14,7.074141043e-14,1.494696886e-13,2.679201836e-13,8.859079442e-14,2.644053337e-13,2.720371425e-13,5.621560372e-13,7.446931842e-13,4.290561767e-13,2.315640191e-13,1.349779354e-13,4.300356635e-13,1.330914049e-13,4.091165073e-14,3.467593524e-14,5.330563752e-14,1.044755031e-13,1.956557406e-13,1.813012871e-13,8.937201561e-14,1.993312243e-13,5.554631032e-14,3.549332574e-13,3.438063469e-14
1.34375,2.187166201e-13,1.26405042e-13,4.35982083e-13,4.392382855e-13,2.40929494e-13,1.997420601e-13,4.430378615e-14,6.411664788e-14,7.07949698e-14,1.462417648e-13,2.672138353e-13,8.817189936e-14,2.665383184e-13,2.700329638e-13,5.619497783e-13,7.453724497e-13,4.26697374e-13,2.300818407e-13,1.348483758e-13,4.292873351e-13,1.326027341e-13,4.100302997e-14,3.483610571e-14,5.240686936e-14,1.049057107e-13,1.977473816e-13,1.824971315e-13,8.865986359e-14,2.003792891e-13,5.569536295e-14,3.572955565e-13,3.4605216e-14
1.3515625,2.151710095e-13,1.266341207e-13,4.355325312e-13,4.398270069e-13,2.395050782e-13,1.96793423e-13,4.402849446e-14,6.494743937e-14,7.082661145e-14,1.430191318e-13,2.665967117e-13,8.774011884e-14,2.686236326e-13,2.680247811e-13,5.617915606e-13,7.459847548e-13,4.243707276e-13,2.285656643e-13,1.346849193e-13,4.288335404e-13,1.321571503e-13,4.106829677e-14,3.495608834e-14,5.153534805e-14,1.053172877e-13,1.999006109e-13,1.837958162e-13,8.806637198e-14,2.014674024e-13,5.58855294e-14,3.595810369e-13,3.482129067e-14
1.359375,2.11676297e-13,1.26685811e-13,4.350696304e-13,4.403500788e-13,2.38168208e-13,1.938403226e-13,4.376906463e-14,6.586044387e-14,7.089875691e-14,1.398335381e-13,2.659438644e-13,8.72892892e-14,2.70669084e-13,2.660083535e-13,5.616329407e-13,7.466166519e-13,4.221170588e-13,2.270393018e-13,1.345121021e-13,4.285913179e-13,1.31688957e-13,4.114382311e-14,3.508176728e-14,5.073318219e-14,1.057437684e-13,2.021440896e-13,1.851085051e-13,8.751143803e-14,2.025731326e-13,5.609896765e-14,3.617378892e-13,3.505923441e-14
1.3671875,2.084109902e-13,1.266678241e-13,4.345216875e-13,4.406145866e-13,2.368688344e-13,1.90879282e-13,4.353258824e-14,6.673978516e-14,7.096550016e-14,1.366282137e-13,2.651825248e-13,8.68277567e-14,2.727194488e-13,2.639856352e-13,5.613370103e-13,7.471028172e-13,4.199279744e-13,2.256081852e-13,1.343471907e-13,4.282213366e-13,1.311945179e-13,4.122414907e-14,3.524487084e-14,4.991472591e-14,1.062214422e-13,2.044573602e-13,1.86381161e-13,8.695303916e-14,2.036421025e-13,5.631997389e-14,3.638178237e-13,3.530460921e-14
1.375,2.052545808e-13,1.265964342e-13,4.339879216e-13,4.408358909e-13,2.354532303e-13,1.879762286e-13,4.328145178e-14,6.749956381e-14,7.094250494e-14,1.333653195e-13,2.644258111e-13,8.633910182e-14,2.74831516e-13,2.619385757e-13,5.607028072e-13,7.471270643e-13,4.176781885e-13,2.242168446e-13,1.341775247e-13,4.277545594e-13,1.307163849e-13,4.127618566e-14,3.542362541e-14,4.902857314e-14,1.067031263e-13,2.068207959e-13,1.877196466e-13,8.643637242e-14,2.047399338e-13,5.655713696e-14,3.658399157e-13,3.55348608e-14
1.3828125,2.019053997e-13,1.265530959e-13,4.334903213e-13,4.409721655e-13,2.339469447e-13,1.849377387e-13,4.297517443e-14,6.820566567e-14,7.08759959e-14,1.300331817e-13,2.637384864e-13,8.583433557e-14,2.770375015e-13,2.598396645e-13,5.597609163e-13,7.468227307e-13,4.152819554e-13,2.22739504e-13,1.339901281e-13,4.273842421e-13,1.30235267e-13,4.129114804e-14,3.561255007e-14,4.816195691e-14,1.071501637e-13,2.09254881e-13,1.892505917e-13,8.599318431e-14,2.059541072e-13,5.680901071e-14,3.677691236e-13,3.577079691e-14
1.390625,1.983672469e-13,1.265577328e-13,4.329377334e-13,4.407939727e-13,2.32343003e-13,1.816935181e-13,4.266326983e-14,6.890184046e-14,7.080932082e-14,1.266354211e-13,2.629715585e-13,8.531980335e-14,2.792586846e-13,2.576744792e-13,5.587396718e-13,7.465465616e-13,4.128820681e-13,2.212014249e-13,1.337450015e-13,4.270911208e-13,1.297249236e-13,4.12629926e-14,3.582958264e-14,4.735496596e-14,1.076040855e-13,2.117477301e-13,1.909162257e-13,8.558082528e-14,2.072039685e-13,5.707216299e-14,3.696133799e-13,3.601424249e-14
1.3984375,1.95046127e-13,1.264983334e-13,4.32418574e-13,4.404925391e-13,2.306708234e-13,1.785717426e-13,4.239470091e-14,6.956332133e-14,7.071331555e-14,1.232158801e-13,2.62146402e-13,8.480741076e-14,2.813940092e-13,2.555059283e-13,5.577117547e-13,7.462298139e-13,4.106984396e-13,2.197260706e-13,1.334708228e-13,4.267977563e-13,1.292512217e-13,4.122451519e-14,3.60628273e-14,4.655308013e-14,1.080747041e-13,2.142512083e-13,1.926214893e-13,8.519169179e-14,2.083923029e-13,5.73667252e-14,3.714384822e-13,3.624359024e-14
1.40625,1.919930898e-13,1.263660005e-13,4.320798792e-13,4.402482349e-13,2.290280667e-13,1.756763417e-13,4.213121353e-14,7.019779127e-14,7.058816216e-14,1.197977567e-13,2.614482948e-13,8.43133012e-14,2.835049673e-13,2.5338736e-13,5.566031821e-13,7.456904764e-13,4.08694354e-13,2.183082303e-13,1.332428517e-13,4.264721278e-13,1.288459585e-13,4.120835198e-14,3.629314227e-14,4.573656894e-14,1.085264444e-13,2.167823543e-13,1.944259829e-13,8.487730633e-14,2.095730327e-13,5.769120096e-14,3.731852647e-13,3.646819707e-14
1.4140625,1.887654713e-13,1.261648454e-13,4.317043921e-13,4.399033319e-13,2.27284236e-13,1.727009052e-13,4.185819418e-14,7.081011938e-14,7.041797606e-14,1.163532467e-13,2.607530935e-13,8.378058135e-14,2.856863849e-13,2.51203382e-13,5.553774314e-13,7.450193395e-13,4.066422598e-13,2.168363588e-13,1.330008669e-13,4.261639134e-13,1.284412864e-13,4.115170012e-14,3.652597905e-14,4.492827495e-14,1.089773235e-13,2.193840179e-13,1.963441881e-13,8.4616031e-14,2.107852006e-13,5.80179121e-14,3.746831794e-13,3.670476102e-14
1.421875,1.854451303e-13,1.259073206e-13,4.311218851e-13,4.394858617e-13,2.254351121e-13,1.696217774e-13,4.161717564e-14,7.139980686e-14,7.020873426e-14,1.128822982e-13,2.599031315e-13,8.321273305e-14,2.878764308e-13,2.489403441e-13,5.540683927e-13,7.442688774e-13,4.045050202e-13,2.153610074e-13,1.326916779e-13,4.260317189e-13,1.28064471e-13,4.103996791e-14,3.676372635e-14,4.413389815e-14,1.094517142e-13,2.220401847e-13,1.982355862e-13,8.439249682e-14,2.119670703e-13,5.83615347e-14,3.760307366e-13,3.69584535e-14
1.4296875,1.82481471e-13,1.25712478e-13,4.306859301e-13,4.391028934e-13,2.237163224e-13,1.667461287e-13,4.140887658e-14,7.199244807e-14,7.002546121e-14,1.094235969e-13,2.590888592e-13,8.271247892e-14,2.900533328e-13,2.468199691e-13,5.528482636e-13,7.434956134e-13,4.024720053e-13,2.140093762e-13,1.324210834e-13,4.25986699e-13,1.278083774e-13,4.095742184e-14,3.700187271e-14,4.334471905e-14,1.099314465e-13,2.247257488e-13,2.001028396e-13,8.427849792e-14,2.131386028e-13,5.87568016e-14,3.774988974e-13,3.723028794e-14
1.4375,1.796626493e-13,1.255409546e-13,4.305393355e-13,4.386072448e-13,2.219454909e-13,1.640620895e-13,4.121854315e-14,7.255930125e-14,6.980854375e-14,1.060141039e-13,2.583789487e-13,8.223082484e-14,2.923452174e-13,2.448209122e-13,5.518742935e-13,7.429643303e-13,4.006765471e-13,2.127121787e-13,1.322202096e-13,4.25703484e-13,1.275896518e-13,4.087357946e-14,3.724764768e-14,4.256878509e-14,1.104290315e-13,2.274286866e-13,2.021240246e-13,8.42565646e-14,2.144095675e-13,5.91856553e-14,3.790263551e-13,3.750060634e-14
1.4453125,1.76738868e-13,1.253251778e-13,4.302654623e-13,4.379672389e-13,2.199419724e-13,1.61325121e-13,4.10661674e-14,7.30547277e-14,6.949199924e-14,1.026672056e-13,2.575689007e-13,8.168198636e-14,2.947458405e-13,2.427496578e-13,5.509158167e-13,7.426016559e-13,3.990863049e-13,2.113976289e-13,1.320027258e-13,4.253284157e-13,1.272924547e-13,4.072359746e-14,3.750586998e-14,4.180948161e-14,1.109648348e-13,2.301332617e-13,2.043029685e-13,8.426017727e-14,2.157848664e-13,5.959824516e-14,3.80415576e-13,3.775177586e-14
1.453125,1.740044677e-13,1.251545939e-13,4.298183141e-13,4.37270151e-13,2.180712736e-13,1.585472592e-13,4.093927554e-14,7.355659361e-14,6.924668297e-14,9.935516631e-14,2.567033604e-13,8.117036413e-14,2.971279387e-13,2.407069453e-13,5.497456838e-13,7.421394046e-13,3.975118432e-13,2.1011736e-13,1.317645823e-13,4.252720343e-13,1.26991504e-13,4.058766044e-14,3.77810882e-14,4.11070265e-14,1.115011871e-13,2.328696255e-13,2.064863915e-13,8.432957415e-14,2.171649206e-13,6.001162661e-14,3.816840622e-13,3.802807274e-14
1.4609375,1.714347165e-13,1.25012263e-13,4.294976275e-13,4.364420888e-13,2.162887416e-13,1.558329598e-13,4.080999473e-14,7.40880663e-14,6.909675745e-14,9.599313339e-14,2.558997301e-13,8.06975657e-14,2.994546137e-13,2.38719872e-13,5.48451387e-13,7.415180791e-13,3.958936901e-13,2.087916835e-13,1.314990017e-13,4.255258688e-13,1.267582319e-13,4.048252706e-14,3.806003261e-14,4.04274797e-14,1.120155682e-13,2.35666985e-13,2.087396009e-13,8.444612329e-14,2.185198402e-13,6.044010289e-14,3.82867541e-13,3.834642707e-14
1.46875,1.686676803e-13,1.248221666e-13,4.292653504e-13,4.354856575e-13,2.141455019e-13,1.531186643e-13,4.069762368e-14,7.458216753e-14,6.884292317e-14,9.262209154e-14,2.551040324e-13,8.01200897e-14,3.017807396e-13,2.365296822e-13,5.471224889e-13,7.408498397e-13,3.942611617e-13,2.073172067e-13,1.311697791e-13,4.257531992e-13,1.265627497e-13,4.03065236e-14,3.834000801e-14,3.973712321e-14,1.125316023e-13,2.384790959e-13,2.111634592e-13,8.456849197e-14,2.198955091e-13,6.089304336e-14,3.839240457e-13,3.867542754e-14
1.4765625,1.658657161e-13,1.247725066e-13,4.289684271e-13,4.345184387e-13,2.118116943e-13,1.5039767e-13,4.062702723e-14,7.501671332e-14,6.847760028e-14,8.932935949e-14,2.542924266e-13,7.950567795e-14,3.041329869e-13,2.342058677e-13,5.45684766e-13,7.400527551e-13,3.926532433e-13,2.058262846e-13,1.308418229e-13,4.258337647e-13,1.264160771e-13,4.007362371e-14,3.862516951e-14,3.905749432e-14,1.130530477e-13,2.412922061e-13,2.1366367e-13,8.478425492e-14,2.213112839e-13,6.137284936e-14,3.849339892e-13,3.900900593e-14
1.484375,1.632514668e-13,1.248270177e-13,4.287421497e-13,4.335283089e-13,2.096030542e-13,1.477792274e-13,4.058241922e-14,7.539473851e-14,6.810337308e-14,8.611707263e-14,2.535261573e-13,7.896919223e-14,3.064992336e-13,2.320022724e-13,5.442610921e-13,7.391607928e-13,3.911612995e-13,2.044372823e-13,1.305668949e-13,4.258014365e-13,1.262729456e-13,3.9853529e-14,3.892295226e-14,3.839383985e-14,1.135831736e-13,2.441507475e-13,2.161841872e-13,8.510022477e-14,2.227506713e-13,6.186070616e-14,3.859438328e-13,3.935451963e-14
1.4921875,1.606414089e-13,1.247213298e-13,4.286266239e-13,4.32447329e-13,2.072980019e-13,1.452248167e-13,4.054958128e-14,7.570472698e-14,6.768234319e-14,8.298245285e-14,2.52802446e-13,7.842814197e-14,3.088502027e-13,2.297978103e-13,5.429493698e-13,7.382858177e-13,3.898514717e-13,2.030959409e-13,1.302859402e-13,4.255902013e-13,1.260344163e-13,3.961739821e-14,3.923004374e-14,3.772959673e-14,1.141451151e-13,2.470291739e-13,2.187687554e-13,8.542858523e-14,2.242267061e-13,6.235445566e-14,3.86876558e-13,3.969702957e-14
1.5,1.579727833e-13,1.24577938e-13,4.284751787e-13,4.312228856e-13,2.047917626e-13,1.426244645e-13,4.05388836e-14,7.598320527e-14,6.721956655e-14,7.993016728e-14,2.521117794e-13,7.785269125e-14,3.111751274e-13,2.274727162e-13,5.415556909e-13,7.372896678e-13,3.885953227e-13,2.017567158e-13,1.299748918e-13,4.251914556e-13,1.257807074e-13,3.934080374e-14,3.953678101e-14,3.709608222e-14,1.147206543e-13,2.49894507e-13,2.213780683e-13,8.582390586e-14,2.25774531e-13,6.288782506e-14,3.877102064e-13,4.00347676e-14
1.5078125,1.553821138e-13,1.246059083e-13,4.283204872e-13,4.298110473e-13,2.023222934e-13,1.400520951e-13,4.056836654e-14,7.62612565e-14,6.679420416e-14,7.69268057e-14,2.514688691e-13,7.733143237e-14,3.135030368e-13,2.251876732e-13,5.400724805e-13,7.361494056e-13,3.87243794e-13,2.00412052e-13,1.296726257e-13,4.248429125e-13,1.256451927e-13,3.906387434e-14,3.984213441e-14,3.653119229e-14,1.152708732e-13,2.528079999e-13,2.240094219e-13,8.634742453e-14,2.273996736e-13,6.346322189e-14,3.885056449e-13,4.038915587e-14
1.515625,1.528623852e-13,1.247258912e-13,4.282582574e-13,4.282537149e-13,1.999407096e-13,1.375992553e-13,4.06485241e-14,7.652036707e-14,6.638522754e-14,7.400376529e-14,2.508383941e-13,7.684340237e-14,3.158265826e-13,2.229708792e-13,5.386550899e-13,7.349886885e-13,3.85801167e-13,1.990254941e-13,1.293618456e-13,4.247390623e-13,1.255766783e-13,3.880509036e-14,4.014534667e-14,3.600823365e-14,1.15798705e-13,2.557593168e-13,2.267328039e-13,8.693203607e-14,2.290776253e-13,6.403103972e-14,3.893059639e-13,4.076485435e-14
1.5234375,1.503126597e-13,1.248573502e-13,4.281930765e-13,4.265739901e-13,1.97551973e-13,1.35140611e-13,4.07567615e-14,7.675590348e-14,6.593835984e-14,7.122050508e-14,2.501780877e-13,7.631796391e-14,3.181186846e-13,2.20767473e-13,5.37148602e-13,7.336673197e-13,3.84329379e-13,1.975979958e-13,1.29001274e-13,4.247240946e-13,1.254846147e-13,3.85310628e-14,4.045086751e-14,3.548496092e-14,1.163225141e-13,2.586311472e-13,2.29506207e-13,8.755889791e-14,2.307681459e-13,6.457296434e-14,3.900627942e-13,4.114200689e-14
1.53125,1.47767458e-13,1.249474381e-13,4.280650739e-13,4.24748761e-13,1.951735303e-13,1.325792998e-13,4.086455279e-14,7.695903573e-14,6.545976553e-14,6.853866171e-14,2.495081948e-13,7.57973155e-14,3.204264863e-13,2.187112836e-13,5.354841651e-13,7.322253517e-13,3.830075953e-13,1.962338516e-13,1.286354614e-13,4.246036126e-13,1.253690665e-13,3.821402254e-14,4.077691826e-14,3.496883757e-14,1.168656669e-13,2.614545791e-13,2.323167874e-13,8.826743925e-14,2.324642636e-13,6.513307066e-14,3.90727568e-13,4.151256027e-14
1.5390625,1.454546206e-13,1.249599934e-13,4.280138458e-13,4.228779367e-13,1.928323585e-13,1.300774611e-13,4.100115386e-14,7.711763235e-14,6.498391863e-14,6.594543632e-14,2.489044924e-13,7.532885553e-14,3.227720454e-13,2.168131637e-13,5.339574853e-13,7.310544942e-13,3.820202031e-13,1.950352239e-13,1.283264279e-13,4.244514329e-13,1.252606606e-13,3.788778059e-14,4.112396181e-14,3.44849626e-14,1.174663086e-13,2.643754201e-13,2.352517797e-13,8.904103276e-14,2.342428005e-13,6.573908568e-14,3.913992129e-13,4.189953252e-14
1.546875,1.43450241e-13,1.249729326e-13,4.280830884e-13,4.21052511e-13,1.904506265e-13,1.277450223e-13,4.120293284e-14,7.727637794e-14,6.452956312e-14,6.351014412e-14,2.483922903e-13,7.484358073e-14,3.250869403e-13,2.148199411e-13,5.326280048e-13,7.301278614e-13,3.811844602e-13,1.939151491e-13,1.280181293e-13,4.243636549e-13,1.251961982e-13,3.758731652e-14,4.147223302e-14,3.40404814e-14,1.181150169e-13,2.673779302e-13,2.382339225e-13,8.985821409e-14,2.361273502e-13,6.636830033e-14,3.921124269e-13,4.232617147e-14
1.5546875,1.414982605e-13,1.249788355e-13,4.28114658e-13,4.192187444e-13,1.879579484e-13,1.25439176e-13,4.144270462e-14,7.746404252e-14,6.407562012e-14,6.123374556e-14,2.4785554e-13,7.429311278e-14,3.273751563e-13,2.126618551e-13,5.312837881e-13,7.291493231e-13,3.80249727e-13,1.927257663e-13,1.276382084e-13,4.243467807e-13,1.251686477e-13,3.727974912e-14,4.182561651e-14,3.365450852e-14,1.187606262e-13,2.703611771e-13,2.411442997e-13,9.075542506e-14,2.379987765e-13,6.701202382e-14,3.927327759e-13,4.278416061e-14
1.5625,1.395526896e-13,1.249783488e-13,4.280992643e-13,4.174050492e-13,1.854958115e-13,1.231095794e-13,4.169477594e-14,7.764843888e-14,6.363377715e-14,5.906696387e-14,2.472427003e-13,7.378756028e-14,3.297349579e-13,2.106212842e-13,5.299353136e-13,7.282062097e-13,3.793726221e-13,1.915672095e-13,1.272648179e-13,4.244184595e-13,1.251476447e-13,3.69607613e-14,4.219835657e-14,3.33493198e-14,1.194072861e-13,2.733386586e-13,2.440954475e-13,9.17950216e-14,2.398468727e-13,6.769016765e-14,3.933352688e-13,4.324878591e-14
1.5703125,1.378765727e-13,1.25165642e-13,4.281646555e-13,4.156975532e-13,1.832330937e-13,1.208887096e-13,4.196980266e-14,7.782440633e-14,6.325306666e-14,5.699772477e-14,2.467012582e-13,7.341470962e-14,3.321831298e-13,2.088690706e-13,5.286451906e-13,7.273768241e-13,3.787056249e-13,1.905976316e-13,1.269886632e-13,4.244899427e-13,1.251613856e-13,3.668189703e-14,4.257842737e-14,3.308857597e-14,1.20084876e-13,2.76354593e-13,2.472141168e-13,9.297959331e-14,2.418277496e-13,6.839163479e-14,3.941138544e-13,4.371660417e-14
1.578125,1.364155224e-13,1.255550041e-13,4.281946164e-13,4.139327e-13,1.809894498e-13,1.187318063e-13,4.226025576e-14,7.800648949e-14,6.289093241e-14,5.501653326e-14,2.462304843e-13,7.305347604e-14,3.345931186e-13,2.071514463e-13,5.272926972e-13,7.26488982e-13,3.780503405e-13,1.89670508e-13,1.26724069e-13,4.24511396e-13,1.251835492e-13,3.641875296e-14,4.295434512e-14,3.280587235e-14,1.207587906e-13,2.794061266e-13,2.504672812e-13,9.422053092e-14,2.439206061e-13,6.908767315e-14,3.94887425e-13,4.421599793e-14
1.5859375,1.349394817e-13,1.259100789e-13,4.280591333e-13,4.118692898e-13,1.785502928e-13,1.164790714e-13,4.257045671e-14,7.817568707e-14,6.248483665e-14,5.312639205e-14,2.456276648e-13,7.257658498e-14,3.368252319e-13,2.052199971e-13,5.258359895e-13,7.255347222e-13,3.772749962e-13,1.885845117e-13,1.263478608e-13,4.24681623e-13,1.251301495e-13,3.61097536e-14,4.332745294e-14,3.24999761e-14,1.213883992e-13,2.824728915e-13,2.537672783e-13,9.545945337e-14,2.459603909e-13,6.978962872e-14,3.953794432e-13,4.476347905e-14
1.59375,1.335403571e-13,1.261972102e-13,4.279602963e-13,4.096415264e-13,1.760515062e-13,1.142103691e-13,4.294292179e-14,7.831242856e-14,6.206487927e-14,5.135961065e-14,2.44934291e-13,7.204797454e-14,3.389306495e-13,2.032310725e-13,5.244000929e-13,7.246010048e-13,3.765202292e-13,1.874333074e-13,1.258968062e-13,4.25019041e-13,1.250464565e-13,3.577656039e-14,4.36883146e-14,3.221822972e-14,1.220030175e-13,2.854949465e-13,2.570157472e-13,9.675817427e-14,2.479767897e-13,7.051677673e-14,3.957000811e-13,4.532522725e-14
1.6015625,1.3231734e-13,1.26563775e-13,4.279966725e-13,4.075796023e-13,1.736084164e-13,1.120896576e-13,4.338118641e-14,7.841717269e-14,6.163114999e-14,4.973172532e-14,2.443144632e-13,7.155256867e-14,3.410921415e-13,2.013647603e-13,5.231043326e-13,7.237309209e-13,3.759316655e-13,1.863879702e-13,1.254844427e-13,4.252147382e-13,1.249815322e-13,3.54445396e-14,4.404013803e-14,3.196664231e-14,1.226500044e-13,2.884460841e-13,2.602360942e-13,9.818720912e-14,2.500650933e-13,7.124871393e-14,3.960385697e-13,4.586541059e-14
1.609375,1.311505371e-13,1.269610476e-13,4.279772191e-13,4.056487829e-13,1.711838706e-13,1.10050096e-13,4.384863655e-14,7.851665324e-14,6.11545972e-14,4.823286386e-14,2.436698226e-13,7.106699321e-14,3.432930284e-13,1.995380202e-13,5.219528894e-13,7.230141083e-13,3.754674298e-13,1.85415023e-13,1.251102637e-13,4.252155257e-13,1.248603617e-13,3.508144501e-14,4.440616006e-14,3.171876359e-14,1.23333169e-13,2.914018241e-13,2.635898869e-13,9.969271813e-14,2.521623259e-13,7.196347343e-14,3.963096098e-13,4.640193898e-14
1.6171875,1.300436549e-13,1.272292781e-13,4.279041861e-13,4.035935609e-13,1.688271425e-13,1.079363144e-13,4.433468144e-14,7.864912741e-14,6.068980013e-14,4.684090149e-14,2.429555618e-13,7.057415139e-14,3.453654915e-13,1.976992939e-13,5.207943302e-13,7.223239092e-13,3.74927135e-13,1.843857517e-13,1.24675734e-13,4.252795524e-13,1.247010992e-13,3.468186539e-14,4.477925981e-14,3.14833085e-14,1.24010131e-13,2.943963159e-13,2.670590394e-13,1.011883136e-13,2.542221138e-13,7.267210672e-14,3.963888879e-13,4.696972581e-14
1.625,1.291299651e-13,1.274813481e-13,4.278912206e-13,4.014738876e-13,1.664593503e-13,1.057570614e-13,4.484399677e-14,7.880224182e-14,6.027526908e-14,4.555567694e-14,2.423326867e-13,7.009661771e-14,3.47325588e-13,1.9584182e-13,5.19494052e-13,7.214222393e-13,3.742271957e-13,1.832712127e-13,1.241566971e-13,4.255140454e-13,1.245890559e-13,3.428489554e-14,4.513588572e-14,3.129108827e-14,1.246336856e-13,2.973806537e-13,2.704724609e-13,1.02726076e-13,2.562823448e-13,7.338978128e-14,3.963617918e-13,4.757625081e-14
1.6328125,1.283901488e-13,1.279349193e-13,4.278213775e-13,3.994232881e-13,1.639359765e-13,1.036140802e-13,4.538831185e-14,7.893124045e-14,5.98787006e-14,4.440818905e-14,2.417473019e-13,6.962361107e-14,3.49260962e-13,1.938767905e-13,5.181548268e-13,7.204948363e-13,3.735724048e-13,1.821438011e-13,1.236143876e-13,4.258420006e-13,1.244805306e-13,3.391202026e-14,4.54937786e-14,3.114065674e-14,1.252289519e-13,3.00345544e-13,2.738423706e-13,1.043703165e-13,2.583504418e-13,7.411130671e-14,3.963488313e-13,4.821287484e-14
1.640625,1.277288362e-13,1.28452801e-13,4.276767189e-13,3.972349372e-13,1.614420474e-13,1.015354957e-13,4.599434963e-14,7.901194084e-14,5.948456935e-14,4.338429781e-14,2.410630577e-13,6.914046437e-14,3.511369348e-13,1.91894678e-13,5.169508765e-13,7.198415067e-13,3.731393876e-13,1.810727041e-13,1.230789457e-13,4.261373028e-13,1.243520368e-13,3.354790154e-14,4.587996697e-14,3.100545954e-14,1.258720857e-13,3.032759188e-13,2.772513288e-13,1.060364902e-13,2.604614155e-13,7.482137174e-14,3.963109687e-13,4.886755816e-14
1.6484375,1.272003955e-13,1.28884069e-13,4.276534333e-13,3.948237167e-13,1.591329817e-13,9.951267714e-14,4.66560883e-14,7.904358241e-14,5.909489383e-14,4.245411136e-14,2.404241465e-13,6.867929853e-14,3.529627516e-13,1.900881304e-13,5.158688083e-13,7.193266826e-13,3.728315124e-13,1.800638043e-13,1.225720985e-13,4.263390008e-13,1.242677269e-13,3.318005454e-14,4.628007907e-14,3.087473216e-14,1.265614097e-13,3.061045611e-13,2.806443607e-13,1.077110523e-13,2.626629868e-13,7.551336018e-14,3.962374489e-13,4.95382846e-14
1.65625,1.269039725e-13,1.294471514e-13,4.27733726e-13,3.924691038e-13,1.568634406e-13,9.754297098e-14,4.73375444e-14,7.908803556e-14,5.873745857e-14,4.165682592e-14,2.399282524e-13,6.826133645e-14,3.547769153e-13,1.88400319e-13,5.147864581e-13,7.1871024e-13,3.72474094e-13,1.790648792e-13,1.221136316e-13,4.266115121e-13,1.242065288e-13,3.283132383e-14,4.66719918e-14,3.076531457e-14,1.272268861e-13,3.088485424e-13,2.839993584e-13,1.09507839e-13,2.648919992e-13,7.619807807e-14,3.96220576e-13,5.024363885e-14
1.6640625,1.267600608e-13,1.301875298e-13,4.277685906e-13,3.902168517e-13,1.546413859e-13,9.556041132e-14,4.803750096e-14,7.921238346e-14,5.845266454e-14,4.100747509e-14,2.394318023e-13,6.785877756e-14,3.565239995e-13,1.867393177e-13,5.136680275e-13,7.179982295e-13,3.719868195e-13,1.780315306e-13,1.216331136e-13,4.271001215e-13,1.241099282e-13,3.250724892e-14,4.705960821e-14,3.07049893e-14,1.278575551e-13,3.116070661e-13,2.874016433e-13,1.114021713e-13,2.670824146e-13,7.689413078e-14,3.961763023e-13,5.099112532e-14
1.671875,1.266788407e-13,1.308799544e-13,4.278449526e-13,3.878795713e-13,1.525432306e-13,9.355603942e-14,4.878066669e-14,7.93490505e-14,5.819509336e-14,4.046361493e-14,2.38887912e-13,6.745955474e-14,3.581994842e-13,1.851402838e-13,5.126059184e-13,7.172987052e-13,3.714321475e-13,1.770038133e-13,1.210793054e-13,4.276992427e-13,1.239807638e-13,3.217013981e-14,4.745214012e-14,3.06933225e-14,1.284896464e-13,3.144066377e-13,2.908843497e-13,1.133472544e-13,2.692824226e-13,7.761193833e-14,3.959659625e-13,5.176079329e-14
1.6796875,1.267545957e-13,1.315510976e-13,4.280780552e-13,3.855709621e-13,1.503596617e-13,9.166865848e-14,4.957251837e-14,7.9416053e-14,5.790839576e-14,4.003379026e-14,2.383729816e-13,6.707471309e-14,3.59817449e-13,1.834718501e-13,5.116915107e-13,7.16759158e-13,3.709876793e-13,1.760339138e-13,1.205211627e-13,4.283481272e-13,1.238272923e-13,3.181977863e-14,4.785160196e-14,3.068449862e-14,1.291303966e-13,3.172018047e-13,2.944020684e-13,1.154209783e-13,2.715520381e-13,7.834724061e-14,3.957011029e-13,5.254289131e-14
1.6875,1.270067898e-13,1.322804392e-13,4.28338631e-13,3.834151157e-13,1.479942595e-13,8.989957348e-14,5.040333925e-14,7.947218172e-14,5.763199332e-14,3.973247898e-14,2.378803224e-13,6.667594383e-14,3.613013767e-13,1.815964123e-13,5.108686951e-13,7.164679685e-13,3.70697735e-13,1.750929697e-13,1.199722639e-13,4.290831673e-13,1.236806139e-13,3.148432931e-14,4.825842723e-14,3.064855016e-14,1.297844929e-13,3.199590436e-13,2.9792898e-13,1.175760563e-13,2.738929934e-13,7.908761622e-14,3.954464385e-13,5.335009236e-14
1.6953125,1.273254228e-13,1.330305774e-13,4.285330708e-13,3.812186137e-13,1.45656972e-13,8.809646238e-14,5.126918326e-14,7.956486043e-14,5.738614903e-14,3.953310562e-14,2.373894564e-13,6.625282686e-14,3.6271e-13,1.797301031e-13,5.100614467e-13,7.163007292e-13,3.704388952e-13,1.741980246e-13,1.193770431e-13,4.298062842e-13,1.235902412e-13,3.114656463e-14,4.866729043e-14,3.061656608e-14,1.304703739e-13,3.226525789e-13,3.014867559e-13,1.197387595e-13,2.762753493e-13,7.982791566e-14,3.951041412e-13,5.418525007e-14
1.703125,1.278057287e-13,1.339114149e-13,4.288346266e-13,3.789241814e-13,1.434390663e-13,8.631086568e-14,5.217685564e-14,7.966086182e-14,5.714444944e-14,3.945602071e-14,2.369473087e-13,6.586578295e-14,3.641891676e-13,1.780954973e-13,5.09356088e-13,7.161573131e-13,3.702188486e-13,1.734353877e-13,1.187926546e-13,4.304786581e-13,1.235288793e-13,3.080358752e-14,4.907109264e-14,3.06114987e-14,1.311824531e-13,3.252703038e-13,3.050873431e-13,1.220337926e-13,2.78661262e-13,8.057165844e-14,3.947810316e-13,5.503799466e-14
1.7109375,1.286058625e-13,1.34914555e-13,4.293245007e-13,3.766675348e-13,1.412619475e-13,8.46468982e-14,5.312440512e-14,7.976230088e-14,5.692938475e-14,3.952161793e-14,2.365801713e-13,6.552412446e-14,3.656393588e-13,1.76550789e-13,5.087841167e-13,7.161185854e-13,3.700969718e-13,1.727453493e-13,1.182766974e-13,4.311994104e-13,1.234227529e-13,3.049092986e-14,4.947465031e-14,3.06057174e-14,1.319008818e-13,3.278433861e-13,3.087089453e-13,1.244754161e-13,2.810509037e-13,8.131430619e-14,3.94590956e-13,5.591019762e-14
1.71875,1.29580763e-13,1.358718141e-13,4.297642433e-13,3.743764842e-13,1.391209236e-13,8.298228311e-14,5.409103695e-14,7.985881715e-14,5.676334922e-14,3.968818178e-14,2.362274688e-13,6.517312735e-14,3.669208929e-13,1.749092911e-13,5.081461121e-13,7.16143139e-13,3.699259879e-13,1.719901534e-13,1.177469105e-13,4.319527606e-13,1.232508698e-13,3.020038091e-14,4.988674565e-14,3.060669532e-14,1.326154579e-13,3.303709251e-13,3.123428873e-13,1.269235557e-13,2.835014748e-13,8.20456191e-14,3.943813637e-13,5.680648396e-14
1.7265625,1.305352415e-13,1.368565052e-13,4.300492547e-13,3.719467017e-13,1.370642777e-13,8.126727737e-14,5.506821886e-14,7.990443486e-14,5.664719794e-14,3.996288144e-14,2.358271618e-13,6.484185324e-14,3.681293649e-13,1.732194461e-13,5.073299751e-13,7.160594591e-13,3.696023219e-13,1.711918475e-13,1.171553759e-13,4.327340169e-13,1.230640011e-13,2.991537443e-14,5.030369072e-14,3.068273066e-14,1.333189492e-13,3.327712015e-13,3.159846239e-13,1.294215489e-13,2.860723322e-13,8.276653343e-14,3.941232834e-13,5.771228976e-14
1.734375,1.315393115e-13,1.379087965e-13,4.304038974e-13,3.694887322e-13,1.350628434e-13,7.961678048e-14,5.606608605e-14,7.993068865e-14,5.659006908e-14,4.039493564e-14,2.35454112e-13,6.457113741e-14,3.693081781e-13,1.715417138e-13,5.065011294e-13,7.159316687e-13,3.692639458e-13,1.70401962e-13,1.165461513e-13,4.336172107e-13,1.229200983e-13,2.964717816e-14,5.07217575e-14,3.083693876e-14,1.340112658e-13,3.35032901e-13,3.196006731e-13,1.320372542e-13,2.8874197e-13,8.34827654e-14,3.939029321e-13,5.862357594e-14
1.7421875,1.32704745e-13,1.388690403e-13,4.309205308e-13,3.671464781e-13,1.329979368e-13,7.801761071e-14,5.708872056e-14,7.998551957e-14,5.652760059e-14,4.094624427e-14,2.352088988e-13,6.428459693e-14,3.703389454e-13,1.698215757e-13,5.058357768e-13,7.159598189e-13,3.690088493e-13,1.695730371e-13,1.159159221e-13,4.344669947e-13,1.227885911e-13,2.936411365e-14,5.114870089e-14,3.097450093e-14,1.347021203e-13,3.372797788e-13,3.231847386e-13,1.346675074e-13,2.914240339e-13,8.419529586e-14,3.935702545e-13,5.956791463e-14
1.75,1.340248424e-13,1.397540875e-13,4.31493151e-13,3.649629644e-13,1.308650741e-13,7.642386724e-14,5.814486032e-14,8.005422709e-14,5.639970352e-14,4.155289532e-14,2.350169061e-13,6.394721592e-14,3.712130716e-13,1.680930961e-13,5.053157981e-13,7.161034142e-13,3.687793652e-13,1.687283923e-13,1.152447473e-13,4.351687852e-13,1.225967979e-13,2.905008638e-14,5.158017432e-14,3.1059489e-14,1.353930719e-13,3.395613128e-13,3.267596701e-13,1.372838873e-13,2.941186915e-13,8.490942596e-14,3.930777118e-13,6.055557358e-14
1.7578125,1.355333343e-13,1.406520848e-13,4.321383414e-13,3.628044809e-13,1.288685207e-13,7.489422583e-14,5.924396243e-14,8.014465807e-14,5.631210808e-14,4.224103733e-14,2.347832371e-13,6.364320478e-14,3.720087938e-13,1.664972791e-13,5.047939623e-13,7.16188427e-13,3.685106544e-13,1.679494432e-13,1.145595312e-13,4.359460605e-13,1.223552166e-13,2.877327451e-14,5.200435718e-14,3.116446205e-14,1.36074814e-13,3.41786537e-13,3.30303669e-13,1.399580898e-13,2.968949375e-13,8.562557089e-14,3.926532334e-13,6.156378901e-14
1.765625,1.372765385e-13,1.416144282e-13,4.328931647e-13,3.604868563e-13,1.270558154e-13,7.341889723e-14,6.037033724e-14,8.025397968e-14,5.633849367e-14,4.305244874e-14,2.345763082e-13,6.339495297e-14,3.727479429e-13,1.650417844e-13,5.042023039e-13,7.162237251e-13,3.681891165e-13,1.672255528e-13,1.138716208e-13,4.368932364e-13,1.220967785e-13,2.855069073e-14,5.244350241e-14,3.132230936e-14,1.367491462e-13,3.439148118e-13,3.338145163e-13,1.426865607e-13,2.997325924e-13,8.632539232e-14,3.923309318e-13,6.25873303e-14
1.7734375,1.392019505e-13,1.427691653e-13,4.33703831e-13,3.581280674e-13,1.252154522e-13,7.194808505e-14,6.151246916e-14,8.030869675e-14,5.636375572e-14,4.396087502e-14,2.344473911e-13,6.315701231e-14,3.734555002e-13,1.636074361e-13,5.036504144e-13,7.163273323e-13,3.678775693e-13,1.665170459e-13,1.131790176e-13,4.377664735e-13,1.217900481e-13,2.831843152e-14,5.29156341e-14,3.149634955e-14,1.374294229e-13,3.459752474e-13,3.373695103e-13,1.454562037e-13,3.026170474e-13,8.700229532e-14,3.919761187e-13,6.363679181e-14
1.78125,1.412857567e-13,1.439851469e-13,4.345751381e-13,3.559189075e-13,1.233323473e-13,7.05053251e-14,6.267566538e-14,8.031181266e-14,5.634772305e-14,4.493487707e-14,2.343319131e-13,6.293645487e-14,3.741074269e-13,1.621739292e-13,5.032120164e-13,7.165203647e-13,3.676371596e-13,1.658057435e-13,1.124895542e-13,4.385107541e-13,1.214255569e-13,2.807634872e-14,5.336933454e-14,3.168761177e-14,1.381069479e-13,3.479581354e-13,3.409671119e-13,1.482818523e-13,3.055831635e-13,8.768055782e-14,3.916006261e-13,6.470447995e-14
1.7890625,1.43494479e-13,1.449741459e-13,4.355146388e-13,3.537571399e-13,1.215602115e-13,6.909806694e-14,6.384453997e-14,8.036336152e-14,5.638266138e-14,4.598489544e-14,2.342198997e-13,6.273431665e-14,3.745954792e-13,1.60798474e-13,5.028440861e-13,7.167960435e-13,3.67417396e-13,1.650761111e-13,1.117821774e-13,4.392847425e-13,1.210490918e-13,2.785774861e-14,5.376548214e-14,3.190863257e-14,1.387624128e-13,3.49863672e-13,3.44481305e-13,1.511316915e-13,3.085555598e-13,8.837464656e-14,3.912115492e-13,6.577926698e-14
1.796875,1.457046942e-13,1.458519073e-13,4.365036423e-13,3.515678096e-13,1.198149076e-13,6.77121114e-14,6.5012848e-14,8.045861789e-14,5.644996015e-14,4.712959812e-14,2.341680006e-13,6.252047068e-14,3.749057722e-13,1.594482795e-13,5.025574395e-13,7.171608276e-13,3.671712401e-13,1.643587601e-13,1.110360941e-13,4.400304885e-13,1.2067299e-13,2.763872019e-14,5.416360439e-14,3.21280564e-14,1.394144696e-13,3.517375611e-13,3.479109334e-13,1.539849607e-13,3.115232382e-13,8.907453069e-14,3.907628404e-13,6.685890537e-14
1.8046875,1.480415756e-13,1.468381998e-13,4.375944947e-13,3.493510519e-13,1.180101557e-13,6.635008743e-14,6.621679049e-14,8.049522206e-14,5.650762312e-14,4.83846105e-14,2.341601173e-13,6.231123772e-14,3.750967911e-13,1.580788349e-13,5.023139043e-13,7.174850917e-13,3.668815436e-13,1.636610194e-13,1.102630301e-13,4.406407468e-13,1.202740423e-13,2.741730259e-14,5.460803447e-14,3.234467713e-14,1.400783993e-13,3.536044146e-13,3.513960405e-13,1.568744202e-13,3.146260458e-13,8.977866958e-14,3.902829535e-13,6.79554866e-14
