"Time","Fp1","AF3","F7","F3","FC1","FC5","T7","C3","CP1","CP5","P7","P3","Pz","PO3","O1","Oz","O2","PO4","P4","P8","CP6","CP2","C4","T8","FC6","FC2","F4","F8","AF4","Fp2","Fz","Cz"
0.0078125,1.011842847e-13,1.00322036e-13,9.618040598e-14,8.858798965e-14,9.720918468e-14,5.959078892e-14,4.614145564e-14,1.371255891e-13,3.559781953e-14,4.91799157e-14,1.633674037e-13,8.227160757e-14,1.693353068e-13,4.121039267e-13,3.36021378e-13,5.427809564e-13,4.664144495e-13,5.460558422e-13,7.821596919e-14,1.103394069e-13,3.805600448e-14,2.408803556e-14,3.447969052e-14,4.701151431e-14,1.90277151e-13,3.894113302e-14,2.545627922e-13,3.000831103e-13,2.386673098e-13,1.681712541e-13,1.117200713e-13,5.605087801e-14
0.015625,1.120026466e-13,1.121660821e-13,1.009968247e-13,9.481925466e-14,1.095272565e-13,6.339014983e-14,5.303295204e-14,1.49955596e-13,4.061100143e-14,5.229646798e-14,1.70808645e-13,8.396277443e-14,1.913520829e-13,4.316915166e-13,3.58888856e-13,6.154536088e-13,5.22532524e-13,6.217501978e-13,8.587075624e-14,1.210951799e-13,3.851341483e-14,2.700758091e-14,3.734103164e-14,5.302320252e-14,1.962058217e-13,4.28865876e-14,2.710968866e-13,3.078619296e-13,2.473055045e-13,1.769946592e-13,1.235885916e-13,6.257616524e-14
0.0234375,1.235913375e-13,1.252031994e-13,1.057055781e-13,1.01769644e-13,1.229903715e-13,6.760103105e-14,6.08822703e-14,1.636470616e-13,4.63625341e-14,5.571890551e-14,1.771744704e-13,8.527768648e-14,2.159538998e-13,4.516199958e-13,3.831886968e-13,6.971510067e-13,5.854424085e-13,7.063293195e-13,9.444306032e-14,1.335991286e-13,3.867554405e-14,3.021955761e-14,4.033581961e-14,5.970847907e-14,2.015997216e-13,4.733136272e-14,2.87858418e-13,3.141071718e-13,2.55466683e-13,1.863656129e-13,1.36655974e-13,6.958724652e-14
0.03125,1.360057586e-13,1.393449493e-13,1.104230832e-13,1.094236325e-13,1.375772362e-13,7.231455532e-14,6.988026207e-14,1.782296475e-13,5.29465775e-14,5.946580777e-14,1.824876853e-13,8.620912736e-14,2.431850838e-13,4.718132871e-13,4.089999893e-13,7.882112283e-13,6.554662053e-13,7.996081774e-13,1.038453751e-13,1.480932012e-13,3.853140795e-14,3.371360213e-14,4.340140446e-14,6.725750777e-14,2.063917834e-13,5.214434101e-14,3.046211819e-13,3.187853477e-13,2.629922485e-13,1.962459264e-13,1.507904075e-13,7.708199113e-14
0.0390625,1.492290428e-13,1.546622651e-13,1.150026607e-13,1.176786009e-13,1.533020682e-13,7.746802e-14,8.006195411e-14,1.936804289e-13,6.043295605e-14,6.376028815e-14,1.868310843e-13,8.688763869e-14,2.732606486e-13,4.92568245e-13,4.366321444e-13,8.890593974e-13,7.327407499e-13,9.016894994e-13,1.140885974e-13,1.646285016e-13,3.819823074e-14,3.754450074e-14,4.658204918e-14,7.583403677e-14,2.106685443e-13,5.730987555e-14,3.213314927e-13,3.222942238e-13,2.699970504e-13,2.066288916e-13,1.660193357e-13,8.507636916e-14
0.046875,1.632951511e-13,1.712410117e-13,1.194971961e-13,1.266951198e-13,1.700839435e-13,8.313501098e-14,9.170133082e-14,2.100688729e-13,6.891691888e-14,6.870487003e-14,1.902692861e-13,8.731128383e-14,3.065634969e-13,5.143981309e-13,4.667050745e-13,1.000426763e-12,8.177608243e-13,1.013222771e-12,1.254224839e-13,1.833404948e-13,3.771474823e-14,4.179076654e-14,4.995492442e-14,8.529133143e-14,2.14653167e-13,6.28956638e-14,3.379814675e-13,3.248113647e-13,2.768500757e-13,2.176811736e-13,1.824074552e-13,9.362106325e-14
0.0546875,1.783446055e-13,1.89044378e-13,1.242718136e-13,1.366458795e-13,1.878900552e-13,8.944493298e-14,1.051061519e-13,2.273940198e-13,7.838657106e-14,7.427264466e-14,1.930252393e-13,8.751666969e-14,3.431947832e-13,5.374325604e-13,4.994619491e-13,1.122771125e-12,9.110994486e-13,1.134769549e-12,1.3812094e-13,2.04565089e-13,3.701674296e-14,4.644561354e-14,5.352693575e-14,9.548013419e-14,2.185011204e-13,6.889916358e-14,3.544655212e-13,3.263590748e-13,2.836625815e-13,2.293859999e-13,1.999813216e-13,1.026655571e-13
0.0625,1.942195462e-13,2.081148069e-13,1.295133529e-13,1.475819948e-13,2.069556286e-13,9.647035794e-14,1.201231411e-13,2.459929957e-13,8.893872714e-14,8.038210481e-14,1.950735337e-13,8.765726693e-14,3.829335689e-13,5.618789636e-13,5.353812555e-13,1.256586415e-12,1.013068005e-12,1.265573895e-12,1.520941977e-13,2.287418639e-13,3.613425801e-14,5.150410566e-14,5.728217867e-14,1.065704604e-13,2.223070722e-13,7.532465187e-14,3.707944959e-13,3.274544948e-13,2.904797313e-13,2.417116268e-13,2.187718504e-13,1.123010723e-13
0.0703125,2.105792048e-13,2.282674597e-13,1.35027246e-13,1.595062095e-13,2.271759994e-13,1.042897469e-13,1.36653762e-13,2.658939897e-13,1.007086148e-13,8.716887039e-14,1.960896079e-13,8.780988981e-14,4.257012134e-13,5.880070008e-13,5.74819431e-13,1.401804605e-12,1.123552042e-12,1.404502145e-12,1.670831521e-13,2.557827192e-13,3.51766318e-14,5.702542607e-14,6.113643497e-14,1.186959999e-13,2.261831703e-13,8.21441398e-14,3.870789994e-13,3.282410755e-13,2.975252065e-13,2.548437111e-13,2.386249081e-13,1.225284783e-13
0.078125,2.274579104e-13,2.49158683e-13,1.407696161e-13,1.724331413e-13,2.48400584e-13,1.130155796e-13,1.548550378e-13,2.870474115e-13,1.136954445e-13,9.463003209e-14,1.960817414e-13,8.79974302e-14,4.715124316e-13,6.156621838e-13,6.174536255e-13,1.558066777e-12,1.242687781e-12,1.55165586e-12,1.831467226e-13,2.854963039e-13,3.427839377e-14,6.303296666e-14,6.506388164e-14,1.317052947e-13,2.303618258e-13,8.936008481e-14,4.032052913e-13,3.287653969e-13,3.047498209e-13,2.689285994e-13,2.594511303e-13,1.332812303e-13
0.0859375,2.449461232e-13,2.707867484e-13,1.472171265e-13,1.863958547e-13,2.708184354e-13,1.228095437e-13,1.749280574e-13,3.097841667e-13,1.279046344e-13,1.027119516e-13,1.956916064e-13,8.82547763e-14,5.200806344e-13,6.447014885e-13,6.633756278e-13,1.725192334e-12,1.370351929e-12,1.706479934e-12,2.004113567e-13,3.183314279e-13,3.34604112e-14,6.950510717e-14,6.904730897e-14,1.455444196e-13,2.34858807e-13,9.694688417e-14,4.187281821e-13,3.29418025e-13,3.120306875e-13,2.837779409e-13,2.812128958e-13,1.446976257e-13
0.09375,2.626730988e-13,2.930972601e-13,1.542736169e-13,2.014022529e-13,2.943220909e-13,1.33786471e-13,1.966677447e-13,3.339258756e-13,1.43219315e-13,1.114591436e-13,1.953452602e-13,8.864178648e-14,5.707441561e-13,6.752037723e-13,7.127197617e-13,1.901827813e-12,1.505384333e-12,1.866649054e-12,2.186494142e-13,3.545982798e-13,3.272267815e-14,7.634164048e-14,7.299096758e-14,1.600950267e-13,2.395325671e-13,1.047557895e-13,4.334438715e-13,3.302146365e-13,3.194785225e-13,2.992040241e-13,3.036795224e-13,1.566410922e-13
0.1015625,2.803379143e-13,3.158192942e-13,1.615346927e-13,2.1742123e-13,3.18577752e-13,1.4584242e-13,2.197396807e-13,3.592663373e-13,1.595054935e-13,1.203701332e-13,1.951419737e-13,8.911638544e-14,6.229381989e-13,7.069275507e-13,7.651261327e-13,2.086366787e-12,1.6468305e-12,2.03042259e-12,2.37667277e-13,3.939088603e-13,3.206509439e-14,8.353427973e-14,7.688385158e-14,1.747787589e-13,2.443132199e-13,1.127307098e-13,4.475157337e-13,3.311642936e-13,3.27076627e-13,3.151350963e-13,3.266238886e-13,1.689844049e-13
0.109375,2.980908546e-13,3.389238949e-13,1.694259375e-13,2.344437939e-13,3.434332372e-13,1.588733025e-13,2.444554584e-13,3.860005657e-13,1.76746358e-13,1.292445059e-13,1.95490785e-13,8.9710452e-14,6.766167947e-13,7.397539562e-13,8.206566327e-13,2.278595239e-12,1.794636067e-12,2.197800313e-12,2.577209432e-13,4.356920891e-13,3.141502994e-14,9.123563729e-14,8.0670432e-14,1.893875239e-13,2.491799984e-13,1.209065281e-13,4.610099482e-13,3.325966302e-13,3.350473011e-13,3.313666135e-13,3.500244362e-13,1.818990581e-13
0.1171875,3.158041778e-13,3.620813221e-13,1.781419856e-13,2.524832175e-13,3.689783099e-13,1.729134151e-13,2.708716693e-13,4.142371666e-13,1.948286988e-13,1.385108686e-13,1.964347833e-13,9.060203086e-14,7.312019562e-13,7.736249374e-13,8.79168006e-13,2.477553546e-12,1.948388366e-12,2.367891895e-12,2.787947467e-13,4.799936273e-13,3.087461754e-14,9.934830658e-14,8.432721352e-14,2.045338269e-13,2.54361708e-13,1.29286328e-13,4.739602288e-13,3.346856496e-13,3.437291578e-13,3.476896612e-13,3.739162495e-13,1.954379918e-13
0.125,3.327944007e-13,3.845714808e-13,1.872392047e-13,2.712691728e-13,3.950760006e-13,1.877939692e-13,2.984448793e-13,4.438140276e-13,2.135870127e-13,1.479301914e-13,1.98075997e-13,9.17161096e-14,7.851279899e-13,8.075225227e-13,9.395756167e-13,2.679849231e-12,2.105793003e-12,2.537157482e-12,3.001527736e-13,5.27325839e-13,3.056148188e-14,1.076575063e-13,8.802693168e-14,2.202035559e-13,2.59786919e-13,1.37751151e-13,4.862145117e-13,3.373211593e-13,3.526048016e-13,3.636493694e-13,3.978127444e-13,2.096412621e-13
0.1328125,3.484571998e-13,4.060545173e-13,1.965737814e-13,2.902050992e-13,4.210789263e-13,2.031938447e-13,3.267597532e-13,4.741805258e-13,2.327657754e-13,1.568930736e-13,2.01131987e-13,9.286079487e-14,8.373751297e-13,8.403338137e-13,1.000837305e-12,2.881788031e-12,2.263511019e-12,2.702202627e-12,3.212397432e-13,5.770992916e-13,3.040059117e-14,1.161518772e-13,9.173497741e-14,2.35573185e-13,2.64954041e-13,1.460242688e-13,4.973957079e-13,3.403479445e-13,3.61037989e-13,3.786292757e-13,4.209954156e-13,2.244101242e-13
0.140625,3.626694845e-13,4.264450655e-13,2.063506213e-13,3.088449592e-13,4.466331565e-13,2.187547385e-13,3.556433555e-13,5.049658235e-13,2.520416567e-13,1.652082669e-13,2.058690355e-13,9.404468741e-14,8.876173021e-13,8.716686021e-13,1.06232079e-12,3.08122352e-12,2.419554968e-12,2.861656589e-12,3.420005276e-13,6.279007913e-13,3.034216931e-14,1.248391519e-13,9.537960665e-14,2.504999004e-13,2.699433528e-13,1.539995141e-13,5.073651564e-13,3.437933503e-13,3.691125853e-13,3.924288972e-13,4.433800901e-13,2.395589635e-13
0.1484375,3.755819548e-13,4.45693263e-13,2.166439178e-13,3.270925688e-13,4.715349017e-13,2.34207771e-13,3.850841075e-13,5.359484356e-13,2.711722114e-13,1.728080083e-13,2.122679488e-13,9.527513621e-14,9.351039453e-13,9.012140275e-13,1.123297294e-12,3.276059981e-12,2.572714976e-12,3.013803031e-12,3.622699729e-13,6.791192786e-13,3.040668659e-14,1.336664378e-13,9.904372753e-14,2.647653151e-13,2.748539992e-13,1.616151897e-13,5.159478668e-13,3.475365078e-13,3.768267804e-13,4.049473805e-13,4.648832731e-13,2.54936481e-13
0.15625,3.869620599e-13,4.635639354e-13,2.273842049e-13,3.448369561e-13,4.952424565e-13,2.495709955e-13,4.144661696e-13,5.665055346e-13,2.89809431e-13,1.796527732e-13,2.20447423e-13,9.64406534e-14,9.7872307e-13,9.284935773e-13,1.182710429e-12,3.462764398e-12,2.720331112e-12,3.155014306e-12,3.816007092e-13,7.302094509e-13,3.052531575e-14,1.424669204e-13,1.025282972e-13,2.775779692e-13,2.790767368e-13,1.686678736e-13,5.229903936e-13,3.510917427e-13,3.839868252e-13,4.159524151e-13,4.850657715e-13,2.701451087e-13
0.1640625,3.963454839e-13,4.795586015e-13,2.383113332e-13,3.617441708e-13,5.175046327e-13,2.645461647e-13,4.427410865e-13,5.959916805e-13,3.076267604e-13,1.855392977e-13,2.304127055e-13,9.749553803e-14,1.017601167e-12,9.529516694e-13,1.239722008e-12,3.63811576e-12,2.859139472e-12,3.282092084e-12,3.995869382e-13,7.803246767e-13,3.059282146e-14,1.510770751e-13,1.056926325e-13,2.890800701e-13,2.823795319e-13,1.752479098e-13,5.286980147e-13,3.540905732e-13,3.905864656e-13,4.253079215e-13,5.038381659e-13,2.850390787e-13
0.171875,4.03736889e-13,4.934808648e-13,2.489037017e-13,3.776205396e-13,5.382665566e-13,2.786311565e-13,4.694935678e-13,6.240347441e-13,3.24464965e-13,1.901846056e-13,2.420637037e-13,9.840233351e-14,1.051000469e-12,9.741151039e-13,1.293822258e-12,3.799788894e-12,2.986870608e-12,3.393462276e-12,4.160498053e-13,8.292151857e-13,3.063584375e-14,1.594048109e-13,1.085829074e-13,2.995775175e-13,2.847893412e-13,1.814328342e-13,5.328518584e-13,3.563668864e-13,3.963621142e-13,4.32785897e-13,5.211478609e-13,2.996840006e-13
0.1796875,4.089566325e-13,5.051650605e-13,2.590871535e-13,3.922777938e-13,5.571610288e-13,2.916251575e-13,4.944158072e-13,6.50145824e-13,3.399444926e-13,1.937443386e-13,2.555173538e-13,9.90258798e-14,1.077641835e-12,9.913168591e-13,1.343685509e-12,3.944117182e-12,3.100865748e-12,3.48616527e-12,4.306144029e-13,8.765514762e-13,3.064268517e-14,1.671802219e-13,1.111583892e-13,3.085698344e-13,2.859872311e-13,1.869596561e-13,5.349052116e-13,3.576187916e-13,4.008920742e-13,4.379969468e-13,5.36583887e-13,3.136867833e-13
0.1875,4.113687909e-13,5.142394907e-13,2.687387174e-13,4.051479838e-13,5.735589309e-13,3.030584579e-13,5.167154251e-13,6.733780524e-13,3.535460735e-13,1.961126447e-13,2.712605369e-13,9.933150723e-14,1.096410221e-12,1.003691789e-12,1.387814744e-12,4.067253084e-12,3.197768494e-12,3.556396492e-12,4.425521215e-13,9.215047682e-13,3.055659918e-14,1.741708059e-13,1.135158592e-13,3.157035142e-13,2.859411804e-13,1.917167152e-13,5.348773124e-13,3.57579309e-13,4.040312332e-13,4.406378803e-13,5.497324637e-13,3.265956935e-13
0.1953125,4.10904079e-13,5.205982534e-13,2.77302327e-13,4.15792437e-13,5.868087856e-13,3.124616728e-13,5.357854477e-13,6.929764739e-13,3.64963391e-13,1.969450598e-13,2.890943921e-13,9.932597736e-14,1.107442666e-12,1.011109192e-12,1.425490257e-12,4.167191869e-12,3.275367118e-12,3.603559662e-12,4.515171792e-13,9.628107054e-13,3.041069046e-14,1.8033907e-13,1.156065437e-13,3.208201227e-13,2.845935637e-13,1.956205535e-13,5.328501985e-13,3.560696855e-13,4.057369175e-13,4.405331333e-13,5.60304608e-13,3.38147698e-13
0.203125,4.079458858e-13,5.243055765e-13,2.84995087e-13,4.241407493e-13,5.966527056e-13,3.197477908e-13,5.517465291e-13,7.088121753e-13,3.740196465e-13,1.965955617e-13,3.082846554e-13,9.901263261e-14,1.110995875e-12,1.014014877e-12,1.455889647e-12,4.242252053e-12,3.332303235e-12,3.628648246e-12,4.577829627e-13,9.991983087e-13,3.017855344e-14,1.85603891e-13,1.172921929e-13,3.240142364e-13,2.817335665e-13,1.984889132e-13,5.287293538e-13,3.527983121e-13,4.060252108e-13,4.376510415e-13,5.681496087e-13,3.479729539e-13
0.2109375,4.026638331e-13,5.25629091e-13,2.92298923e-13,4.302415772e-13,6.032294086e-13,3.248181933e-13,5.648475706e-13,7.206904341e-13,3.806035515e-13,1.952782422e-13,3.288294755e-13,9.846895048e-14,1.10682475e-12,1.012616169e-12,1.478730372e-12,4.291327556e-12,3.367991305e-12,3.63141643e-12,4.615365362e-13,1.03131695e-12,2.985272586e-14,1.897945399e-13,1.186814796e-13,3.254926788e-13,2.774128888e-13,2.004386402e-13,5.228111609e-13,3.477140017e-13,4.050158943e-13,4.322298117e-13,5.733524735e-13,3.558253089e-13
0.21875,3.950089358e-13,5.250486563e-13,2.991643524e-13,4.344319491e-13,6.068550894e-13,3.278763849e-13,5.747187135e-13,7.282626828e-13,3.844972012e-13,1.92761912e-13,3.507339644e-13,9.762093709e-14,1.094840697e-12,1.006879364e-12,1.494462028e-12,4.314525221e-12,3.382783011e-12,3.61171102e-12,4.626565721e-13,1.060922403e-12,2.950716214e-14,1.926387557e-13,1.197361078e-13,3.248196002e-13,2.715396398e-13,2.017184563e-13,5.15319313e-13,3.407560476e-13,4.027114219e-13,4.244185373e-13,5.762037048e-13,3.617846904e-13
0.2265625,3.849530873e-13,5.229542175e-13,3.055563053e-13,4.371644376e-13,6.078010552e-13,3.291476546e-13,5.809584827e-13,7.313989892e-13,3.855230601e-13,1.892890548e-13,3.735398451e-13,9.636292282e-14,1.075031855e-12,9.96795867e-13,1.50301534e-12,4.311428428e-12,3.376223048e-12,3.569855349e-12,4.611878573e-13,1.088244416e-12,2.915407463e-14,1.940669255e-13,1.204391117e-13,3.222969239e-13,2.641812495e-13,2.023466369e-13,5.060106068e-13,3.316574523e-13,3.989503516e-13,4.141331635e-13,5.768963058e-13,3.660228433e-13
0.234375,3.728120997e-13,5.194719928e-13,3.114575286e-13,4.3849074e-13,6.058420046e-13,3.284118322e-13,5.837814322e-13,7.298827465e-13,3.838687533e-13,1.850512403e-13,3.969798715e-13,9.47643808e-14,1.047839584e-12,9.825734603e-13,1.504110982e-12,4.281284773e-12,3.347826722e-12,3.506215929e-12,4.573252522e-13,1.112370454e-12,2.872502249e-14,1.943381624e-13,1.209430987e-13,3.189643293e-13,2.55649736e-13,2.02174837e-13,4.947656571e-13,3.206181456e-13,3.937557727e-13,4.016292243e-13,5.753173382e-13,3.684680407e-13
0.2421875,3.588355439e-13,5.143584244e-13,3.167015631e-13,4.382592967e-13,6.007136041e-13,3.256799042e-13,5.834023087e-13,7.235109727e-13,3.796430567e-13,1.798639245e-13,4.208166402e-13,9.286320195e-14,1.01407022e-12,9.645428824e-13,1.497582465e-12,4.224075813e-12,3.298203238e-12,3.421674606e-12,4.510566611e-13,1.132820627e-12,2.81708053e-14,1.934930465e-13,1.212080128e-13,3.146219134e-13,2.459339245e-13,2.012335724e-13,4.818296567e-13,3.077544129e-13,3.873651553e-13,3.873141637e-13,5.714452391e-13,3.68903686e-13
0.25,3.431002905e-13,5.078446916e-13,3.213267688e-13,4.364897489e-13,5.926003754e-13,3.212122252e-13,5.796800996e-13,7.12755814e-13,3.729578252e-13,1.742354322e-13,4.447821123e-13,9.068154129e-14,9.743455472e-13,9.431805541e-13,1.483560828e-12,4.141080346e-12,3.227592617e-12,3.317455403e-12,4.424021295e-13,1.150400582e-12,2.757458172e-14,1.914544862e-13,1.211395731e-13,3.096259682e-13,2.352059015e-13,1.996443003e-13,4.67462004e-13,2.931797936e-13,3.798425949e-13,3.714714488e-13,5.654358406e-13,3.674209335e-13
0.2578125,3.262064512e-13,5.005330866e-13,3.254134109e-13,4.333173153e-13,5.816956246e-13,3.150592945e-13,5.725190794e-13,6.981954321e-13,3.641953346e-13,1.687819172e-13,4.685162126e-13,8.832378757e-14,9.294546362e-13,9.191734247e-13,1.462748112e-12,4.034709247e-12,3.136744167e-12,3.19531392e-12,4.316504998e-13,1.166226489e-12,2.70485283e-14,1.883210193e-13,1.206846989e-13,3.054382077e-13,2.239888128e-13,1.97317343e-13,4.516958336e-13,2.776773253e-13,3.712716503e-13,3.546241291e-13,5.57352895e-13,3.641556919e-13
0.265625,3.087115575e-13,4.923335433e-13,3.286496178e-13,4.289842499e-13,5.682986188e-13,3.071928121e-13,5.620770218e-13,6.79674869e-13,3.534990886e-13,1.63111047e-13,4.912886526e-13,8.579095689e-14,8.801795736e-13,8.929200983e-13,1.435665866e-12,3.906847791e-12,3.027765011e-12,3.057684333e-12,4.190995877e-13,1.180477964e-12,2.66016603e-14,1.841545127e-13,1.199106341e-13,3.018793046e-13,2.12427889e-13,1.943527695e-13,4.345359314e-13,2.614409458e-13,3.618397244e-13,3.371421196e-13,5.474139532e-13,3.590275246e-13
0.2734375,2.906239377e-13,4.836423771e-13,3.311723242e-13,4.237931798e-13,5.528938933e-13,2.977956944e-13,5.487232338e-13,6.57031668e-13,3.408830445e-13,1.570921573e-13,5.126299833e-13,8.307868754e-14,8.276551424e-13,8.64731493e-13,1.402644305e-12,3.759845778e-12,2.902881162e-12,2.907350185e-12,4.051237207e-13,1.193440875e-12,2.623303382e-14,1.79070597e-13,1.190086856e-13,2.985024605e-13,2.005123542e-13,1.91035732e-13,4.162695126e-13,2.442445691e-13,3.517389863e-13,3.191847381e-13,5.360838311e-13,3.52125753e-13
0.28125,2.722175381e-13,4.753430401e-13,3.334377746e-13,4.181215774e-13,5.359317377e-13,2.872329121e-13,5.328797201e-13,6.308831759e-13,3.265190282e-13,1.513288499e-13,5.323415102e-13,8.034753866e-14,7.7320315e-13,8.354591597e-13,1.364700154e-12,3.597699445e-12,2.764942239e-12,2.747176994e-12,3.902379983e-13,1.205439585e-12,2.599106922e-14,1.731650168e-13,1.180329053e-13,2.961444845e-13,1.885893528e-13,1.87434941e-13,3.97333455e-13,2.264524913e-13,3.41339057e-13,3.011450402e-13,5.238501518e-13,3.437243357e-13
0.2890625,2.540102772e-13,4.673061017e-13,3.352005105e-13,4.123615414e-13,5.178432906e-13,2.757033334e-13,5.150889612e-13,6.022611926e-13,3.107242844e-13,1.45914154e-13,5.498435583e-13,7.763768072e-14,7.172772966e-13,8.058793745e-13,1.323074809e-12,3.423608857e-12,2.617154503e-12,2.579990352e-12,3.748724847e-13,1.215812289e-12,2.58575263e-14,1.665279031e-13,1.170369226e-13,2.949973177e-13,1.768435293e-13,1.835936117e-13,3.779859439e-13,2.083605672e-13,3.308112456e-13,2.832607871e-13,5.109851713e-13,3.340615248e-13
0.296875,2.360989509e-13,4.595287799e-13,3.365518661e-13,4.066339935e-13,4.989202212e-13,2.634580982e-13,4.95912214e-13,5.718238574e-13,2.94002256e-13,1.406824779e-13,5.649635778e-13,7.493637179e-14,6.607781811e-13,7.762198572e-13,1.278335705e-12,3.240164364e-12,2.462385107e-12,2.409262392e-12,3.594933837e-13,1.22426665e-12,2.580744228e-14,1.594214053e-13,1.160677037e-13,2.94862505e-13,1.652822859e-13,1.796049379e-13,3.584398784e-13,1.902026307e-13,3.202476254e-13,2.656994117e-13,4.976135609e-13,3.233233971e-13
0.3046875,2.185620363e-13,4.524437979e-13,3.37959726e-13,4.01071789e-13,4.794513806e-13,2.510261584e-13,4.756882966e-13,5.399991855e-13,2.767530981e-13,1.359855675e-13,5.778630076e-13,7.239594349e-14,6.051178207e-13,7.467584105e-13,1.231085784e-12,3.0509098e-12,2.303792251e-12,2.238262527e-12,3.445119176e-13,1.231503257e-12,2.594842975e-14,1.519549953e-13,1.1504643e-13,2.963931082e-13,1.541454944e-13,1.754920311e-13,3.390258948e-13,1.72367505e-13,3.099312558e-13,2.488149093e-13,4.840487045e-13,3.117647458e-13
0.3125,2.01870816e-13,4.461222076e-13,3.39390945e-13,3.960317408e-13,4.597549124e-13,2.388139955e-13,4.547085327e-13,5.076249818e-13,2.59197511e-13,1.321086735e-13,5.879752096e-13,7.006143044e-14,5.507345954e-13,7.180771945e-13,1.18226582e-12,2.85862971e-12,2.143819226e-12,2.068991974e-12,3.302360562e-13,1.237791482e-12,2.634990183e-14,1.441728275e-13,1.139652086e-13,3.000083548e-13,1.435989336e-13,1.712658327e-13,3.200102045e-13,1.552089219e-13,3.000114824e-13,2.329541138e-13,4.706282633e-13,2.995710726e-13
0.3203125,1.862403715e-13,4.408822518e-13,3.411188963e-13,3.917525667e-13,4.400708945e-13,2.269644915e-13,4.332059615e-13,4.752611524e-13,2.415263005e-13,1.288130238e-13,5.950038313e-13,6.785797925e-14,4.980699894e-13,6.9062918e-13,1.132557609e-12,2.66546157e-12,1.984348618e-12,1.903535749e-12,3.170622069e-13,1.242875734e-12,2.701542861e-14,1.363146895e-13,1.129617132e-13,3.054172121e-13,1.338314487e-13,1.670366767e-13,3.016229424e-13,1.389835103e-13,2.906417292e-13,2.184617606e-13,4.575917871e-13,2.867180717e-13
0.328125,1.71409026e-13,4.365577431e-13,3.430206789e-13,3.881660496e-13,4.205945968e-13,2.157027751e-13,4.114330093e-13,4.43066928e-13,2.239066161e-13,1.262082664e-13,5.989901176e-13,6.562350538e-14,4.477017529e-13,6.642086902e-13,1.082706024e-12,2.474189283e-12,1.827647318e-12,1.743424434e-12,3.049737437e-13,1.245956663e-12,2.798593156e-14,1.285680009e-13,1.121882244e-13,3.125880477e-13,1.248809833e-13,1.628329097e-13,2.838614922e-13,1.233243331e-13,2.816730177e-13,2.049368957e-13,4.44970478e-13,2.734493468e-13
0.3359375,1.576383244e-13,4.326522434e-13,3.441620863e-13,3.850694486e-13,4.013947084e-13,2.050887785e-13,3.89654014e-13,4.116964347e-13,2.067574166e-13,1.249850526e-13,5.995859753e-13,6.356508724e-14,4.002558637e-13,6.389107692e-13,1.033003963e-12,2.286551228e-12,1.675049103e-12,1.590091302e-12,2.93967416e-13,1.246194253e-12,2.917260804e-14,1.210834544e-13,1.115643338e-13,3.215379684e-13,1.168559846e-13,1.586350388e-13,2.666366424e-13,1.090776829e-13,2.730733853e-13,1.925729428e-13,4.326592447e-13,2.601893269e-13
0.34375,1.452082674e-13,4.29373373e-13,3.450343537e-13,3.826103174e-13,3.826481401e-13,1.953083333e-13,3.682303487e-13,3.818821596e-13,1.902687203e-13,1.251751225e-13,5.968498476e-13,6.162179894e-14,3.560834074e-13,6.146376912e-13,9.833392971e-13,2.1040733e-12,1.528501002e-12,1.445344067e-12,2.845072699e-13,1.244488112e-12,3.06220499e-14,1.138525583e-13,1.108566642e-13,3.320772047e-13,1.097740608e-13,1.5451039e-13,2.502981382e-13,9.635986302e-14,2.649999605e-13,1.815608429e-13,4.207653676e-13,2.470243306e-13
0.3515625,1.340947801e-13,4.268414691e-13,3.456233882e-13,3.810827658e-13,3.647634725e-13,1.866451275e-13,3.474431887e-13,3.539439114e-13,1.746044568e-13,1.262449575e-13,5.913749556e-13,5.981848945e-14,3.154972453e-13,5.915718241e-13,9.340014552e-13,1.928933134e-12,1.390324575e-12,1.310988255e-12,2.768651108e-13,1.240894759e-12,3.253760246e-14,1.069020897e-13,1.101073287e-13,3.440424614e-13,1.038254037e-13,1.505378705e-13,2.352285426e-13,8.507477228e-14,2.576627069e-13,1.720467069e-13,4.096261589e-13,2.339333811e-13
0.359375,1.241242161e-13,4.246018753e-13,3.450150764e-13,3.803761896e-13,3.479069266e-13,1.792569895e-13,3.27067179e-13,3.280540095e-13,1.598198025e-13,1.278324598e-13,5.822704143e-13,5.804533274e-14,2.785741659e-13,5.699449667e-13,8.857446934e-13,1.763106301e-12,1.261415274e-12,1.187468991e-12,2.708619626e-13,1.234184832e-12,3.49158694e-14,1.003143079e-13,1.092782076e-13,3.568751248e-13,9.891675184e-14,1.46657442e-13,2.214135778e-13,7.509712423e-14,2.51040315e-13,1.638083996e-13,3.992762123e-13,2.210339583e-13
0.3671875,1.152790932e-13,4.226516332e-13,3.43761328e-13,3.803375642e-13,3.321022131e-13,1.728678145e-13,3.068745119e-13,3.043461405e-13,1.459826795e-13,1.301299765e-13,5.695489648e-13,5.633865801e-14,2.453125042e-13,5.493936875e-13,8.386331496e-13,1.606922334e-12,1.141690689e-12,1.074153484e-12,2.664879984e-13,1.225145244e-12,3.772201298e-14,9.420446831e-14,1.082693967e-13,3.709635514e-13,9.487684773e-14,1.429488276e-13,2.088446633e-13,6.64719297e-14,2.449817256e-13,1.568246837e-13,3.896673263e-13,2.084483984e-13
0.375,1.076736905e-13,4.21149399e-13,3.42479984e-13,3.814063182e-13,3.176767642e-13,1.677240131e-13,2.876711172e-13,2.829763995e-13,1.332471583e-13,1.332608587e-13,5.541463484e-13,5.475721632e-14,2.160539168e-13,5.301814989e-13,7.928614894e-13,1.461689456e-12,1.032532599e-12,9.729766058e-13,2.642673344e-13,1.214450962e-12,4.106541501e-14,8.873080455e-14,1.072423085e-13,3.864414691e-13,9.167696392e-14,1.39562674e-13,1.97631625e-13,5.921302312e-14,2.396051653e-13,1.51149945e-13,3.810626019e-13,1.962579954e-13
0.3828125,1.009925612e-13,4.196129271e-13,3.403484822e-13,3.83306658e-13,3.04515268e-13,1.640044524e-13,2.696055313e-13,2.641225009e-13,1.217283481e-13,1.372524305e-13,5.362320783e-13,5.327265617e-14,1.907036244e-13,5.121961494e-13,7.487844954e-13,1.328205497e-12,9.343759122e-13,8.83804314e-13,2.638086981e-13,1.200758421e-12,4.495444695e-14,8.37922706e-14,1.061977479e-13,4.028494683e-13,8.946773764e-14,1.364296155e-13,1.878095849e-13,5.338072053e-14,2.349288195e-13,1.466724487e-13,3.732398352e-13,1.845175359e-13
0.390625,9.518959612e-14,4.175027666e-13,3.368891311e-13,3.856343303e-13,2.92556307e-13,1.616305127e-13,2.520764574e-13,2.477774378e-13,1.112511561e-13,1.422405623e-13,5.159582299e-13,5.171304889e-14,1.688921902e-13,4.950553798e-13,7.067619685e-13,1.206688863e-12,8.46965704e-13,8.054873203e-13,2.645170961e-13,1.183722744e-12,4.954118425e-14,7.922825744e-14,1.048987333e-13,4.211405535e-13,8.81275418e-14,1.335393447e-13,1.792878097e-13,4.894144949e-14,2.308517244e-13,1.431076984e-13,3.659329264e-13,1.733593604e-13
0.3984375,9.023989783e-14,4.149666192e-13,3.325654719e-13,3.885890557e-13,2.822926896e-13,1.605442411e-13,2.35154002e-13,2.340834197e-13,1.017906053e-13,1.48495402e-13,4.936599294e-13,5.018171176e-14,1.503242063e-13,4.784376247e-13,6.66679455e-13,1.096521362e-12,7.702851058e-13,7.377042103e-13,2.666157585e-13,1.165033741e-12,5.505834016e-14,7.501121377e-14,1.033625412e-13,4.413669791e-13,8.73916883e-14,1.311036274e-13,1.719969727e-13,4.568516585e-14,2.27493539e-13,1.401385416e-13,3.595355387e-13,1.629668649e-13
0.40625,8.631176062e-14,4.124871075e-13,3.27713985e-13,3.925621171e-13,2.74176509e-13,1.60932262e-13,2.193640917e-13,2.228850373e-13,9.339155616e-14,1.55551047e-13,4.696839467e-13,4.884161064e-14,1.349230095e-13,4.628447159e-13,6.286933739e-13,9.977827547e-13,7.044620025e-13,6.809159949e-13,2.706145641e-13,1.146087679e-12,6.15279129e-14,7.119542047e-14,1.017064997e-13,4.623975218e-13,8.718971061e-14,1.294437166e-13,1.661549746e-13,4.349579433e-14,2.251585934e-13,1.378477164e-13,3.546077057e-13,1.534669906e-13
0.4140625,8.354019019e-14,4.101668119e-13,3.216830657e-13,3.978451881e-13,2.684172906e-13,1.628994069e-13,2.045474584e-13,2.141112322e-13,8.58898907e-14,1.630941229e-13,4.446016012e-13,4.773966428e-14,1.224524984e-13,4.490345493e-13,5.936897209e-13,9.110117692e-13,6.493638396e-13,6.344626396e-13,2.761062136e-13,1.126816702e-12,6.906146342e-14,6.772402379e-14,1.000523013e-13,4.846948241e-13,8.7519742e-14,1.288727741e-13,1.620414402e-13,4.24860905e-14,2.240305308e-13,1.364781119e-13,3.514769507e-13,1.450166218e-13
0.421875,8.144674033e-14,4.07511958e-13,3.140732583e-13,4.037486082e-13,2.648531904e-13,1.659313668e-13,1.903455621e-13,2.079099832e-13,7.933238621e-14,1.714713079e-13,4.189900595e-13,4.690269736e-14,1.125383818e-13,4.364307545e-13,5.61847865e-13,8.354092276e-13,6.038994324e-13,5.967969034e-13,2.821606153e-13,1.106350861e-12,7.792723253e-14,6.44555043e-14,9.857573525e-14,5.083342451e-13,8.864788289e-14,1.293738418e-13,1.596686542e-13,4.287214023e-14,2.239175934e-13,1.360336396e-13,3.497568744e-13,1.376911664e-13
0.4296875,7.998276144e-14,4.046175937e-13,3.057162707e-13,4.102858681e-13,2.635328777e-13,1.699180104e-13,1.767995861e-13,2.038990429e-13,7.384082561e-14,1.803146864e-13,3.941188125e-13,4.635875699e-14,1.049330145e-13,4.251152282e-13,5.329818217e-13,7.699739729e-13,5.671162539e-13,5.669177791e-13,2.889476915e-13,1.085083191e-12,8.817448963e-14,6.13915775e-14,9.732908003e-14,5.322430402e-13,9.057013831e-14,1.309533312e-13,1.588267042e-13,4.415704916e-14,2.248314029e-13,1.362780888e-13,3.494524471e-13,1.315223823e-13
0.4375,7.936584661e-14,4.020515867e-13,2.971865509e-13,4.182990307e-13,2.646852191e-13,1.752867634e-13,1.641371251e-13,2.017759521e-13,6.930761997e-14,1.896047172e-13,3.701426944e-13,4.592119392e-14,9.974154221e-14,4.149648869e-13,5.067321971e-13,7.14598652e-13,5.392282856e-13,5.451104067e-13,2.972429215e-13,1.065481646e-12,9.968499469e-14,5.874126772e-14,9.62236499e-14,5.571291028e-13,9.291094668e-14,1.337520623e-13,1.594929083e-13,4.612530228e-14,2.267597439e-13,1.369881503e-13,3.510248533e-13,1.265052231e-13
0.4453125,7.954795354e-14,3.999866479e-13,2.879565252e-13,4.280382521e-13,2.688111638e-13,1.820101645e-13,1.521926566e-13,2.017608508e-13,6.558413422e-14,1.995710394e-13,3.472226205e-13,4.567663543e-14,9.689557143e-14,4.060943661e-13,4.832900909e-13,6.691745968e-13,5.200915546e-13,5.315248808e-13,3.068879755e-13,1.048806025e-12,1.122665677e-13,5.641985658e-14,9.529876849e-14,5.820019318e-13,9.573011394e-14,1.380637767e-13,1.620102847e-13,4.882559452e-14,2.300609303e-13,1.382720719e-13,3.549467623e-13,1.22739992e-13
0.453125,8.047800355e-14,3.98220274e-13,2.784400857e-13,4.391382223e-13,2.760046998e-13,1.896669209e-13,1.411205172e-13,2.03487494e-13,6.271352119e-14,2.103022932e-13,3.263574559e-13,4.588493467e-14,9.60133433e-14,3.990108628e-13,4.630087566e-13,6.32858118e-13,5.086546039e-13,5.251863052e-13,3.171978621e-13,1.034565349e-12,1.257357685e-13,5.420072325e-14,9.456436732e-14,6.071037469e-13,9.9374127e-14,1.441235522e-13,1.663651711e-13,5.233969434e-14,2.349059547e-13,1.404074159e-13,3.613096222e-13,1.204290014e-13
0.4609375,8.209452704e-14,3.969368636e-13,2.696558918e-13,4.516076559e-13,2.857758529e-13,1.980700886e-13,1.314660122e-13,2.063059586e-13,6.063034345e-14,2.216812992e-13,3.074597059e-13,4.642825804e-14,9.682469343e-14,3.934434798e-13,4.454812261e-13,6.04547371e-13,5.041207622e-13,5.24966358e-13,3.282934886e-13,1.022456584e-12,1.403549855e-13,5.217855496e-14,9.41838889e-14,6.327421982e-13,1.038999299e-13,1.51726874e-13,1.721169446e-13,5.639933842e-14,2.407779248e-13,1.432063781e-13,3.69700495e-13,1.194275964e-13
0.46875,8.449378677e-14,3.959642108e-13,2.607251395e-13,4.654886699e-13,2.980245257e-13,2.07333928e-13,1.230464665e-13,2.10145851e-13,5.907524585e-14,2.330691606e-13,2.907925562e-13,4.71062084e-14,9.939327002e-14,3.886594091e-13,4.301685918e-13,5.837146916e-13,5.062419914e-13,5.305684547e-13,3.401204088e-13,1.011694482e-12,1.560242173e-13,5.049308568e-14,9.435739195e-14,6.566409503e-13,1.091136872e-13,1.607808418e-13,1.792246422e-13,6.075326378e-14,2.473862782e-13,1.463083956e-13,3.799132375e-13,1.196276546e-13
0.4765625,8.74479213e-14,3.948330055e-13,2.512626673e-13,4.804364411e-13,3.127675732e-13,2.171067731e-13,1.15407609e-13,2.147045336e-13,5.795501845e-14,2.444084635e-13,2.770077095e-13,4.80640453e-14,1.034553172e-13,3.842069245e-13,4.170376863e-13,5.69840994e-13,5.141317973e-13,5.410437251e-13,3.517378741e-13,1.001891355e-12,1.723560525e-13,4.899702904e-14,9.509407412e-14,6.804275774e-13,1.148866908e-13,1.71489417e-13,1.878531788e-13,6.554732393e-14,2.548626374e-13,1.496640489e-13,3.92055853e-13,1.212093504e-13
0.484375,9.068573676e-14,3.938667568e-13,2.426935009e-13,4.961236785e-13,3.297280781e-13,2.269929076e-13,1.089293196e-13,2.197555986e-13,5.736468278e-14,2.563165476e-13,2.655387277e-13,4.936858818e-14,1.086603571e-13,3.797901299e-13,4.057859424e-13,5.619056229e-13,5.264242042e-13,5.553043898e-13,3.632592375e-13,9.938584599e-13,1.898471447e-13,4.766150128e-14,9.636788796e-14,7.058656289e-13,1.213514527e-13,1.836033097e-13,1.975852369e-13,7.084319941e-14,2.629419745e-13,1.532360241e-13,4.05831929e-13,1.239945864e-13
0.4921875,9.464734694e-14,3.938015027e-13,2.349721739e-13,5.130815222e-13,3.492282775e-13,2.374717376e-13,1.039091587e-13,2.257467168e-13,5.724399759e-14,2.682459046e-13,2.561867982e-13,5.099137372e-14,1.150864591e-13,3.763715785e-13,3.965131622e-13,5.598611511e-13,5.433667344e-13,5.736437412e-13,3.75464754e-13,9.88208103e-13,2.085970748e-13,4.657848345e-14,9.834397837e-14,7.309934909e-13,1.283826193e-13,1.969590297e-13,2.08107233e-13,7.645579401e-14,2.715326891e-13,1.568793451e-13,4.21409124e-13,1.278361542e-13
0.5,9.930708062e-14,3.943307841e-13,2.271903317e-13,5.311768523e-13,3.71192707e-13,2.48274548e-13,9.997044846e-14,2.325235923e-13,5.750804229e-14,2.79666471e-13,2.495772013e-13,5.275599214e-14,1.224266439e-13,3.727141767e-13,3.887452783e-13,5.625179074e-13,5.641082471e-13,5.94208546e-13,3.875623953e-13,9.844223179e-13,2.282107481e-13,4.5653886e-14,1.012075474e-13,7.560281851e-13,1.354023232e-13,2.116447404e-13,2.195905349e-13,8.194492191e-14,2.801671108e-13,1.600336966e-13,4.385884707e-13,1.328083587e-13
0.5078125,1.041302283e-13,3.948081503e-13,2.196278006e-13,5.496425599e-13,3.94814716e-13,2.585112515e-13,9.70357507e-14,2.394199896e-13,5.810838437e-14,2.914222971e-13,2.459491197e-13,5.470799499e-14,1.300550415e-13,3.682023828e-13,3.819685395e-13,5.676791811e-13,5.857417949e-13,6.14311452e-13,3.986444202e-13,9.806886279e-13,2.487629613e-13,4.480717976e-14,1.050717802e-13,7.805093713e-13,1.429188589e-13,2.272795394e-13,2.317324342e-13,8.74500416e-14,2.884254353e-13,1.628272661e-13,4.56538301e-13,1.386018436e-13
0.515625,1.090042638e-13,3.95369822e-13,2.130384631e-13,5.682656836e-13,4.195064266e-13,2.682149602e-13,9.558834035e-14,2.462630015e-13,5.885726813e-14,3.034580079e-13,2.442370936e-13,5.663689247e-14,1.378596071e-13,3.622376438e-13,3.749451987e-13,5.736708849e-13,6.067483194e-13,6.331035247e-13,4.090847669e-13,9.761105234e-13,2.699932486e-13,4.420684163e-14,1.098863121e-13,8.032348538e-13,1.508693919e-13,2.431579736e-13,2.436697234e-13,9.265983902e-14,2.955872431e-13,1.648165215e-13,4.746815576e-13,1.447549989e-13
0.5234375,1.143219992e-13,3.967804422e-13,2.077895889e-13,5.875569953e-13,4.453796926e-13,2.777959641e-13,9.57089404e-14,2.528965016e-13,5.955406714e-14,3.145746032e-13,2.439689932e-13,5.83493226e-14,1.461057039e-13,3.54759686e-13,3.671893885e-13,5.81148745e-13,6.283065821e-13,6.522619977e-13,4.197076025e-13,9.715950431e-13,2.913515022e-13,4.395180811e-14,1.15646358e-13,8.245384499e-13,1.585551269e-13,2.593753228e-13,2.554423931e-13,9.692667495e-14,3.018031495e-13,1.6570118e-13,4.933976694e-13,1.512624917e-13
0.53125,1.201363885e-13,3.991674104e-13,2.037136854e-13,6.0735109e-13,4.723520893e-13,2.868023456e-13,9.721848609e-14,2.590951867e-13,6.017413141e-14,3.249934659e-13,2.459391486e-13,6.006975258e-14,1.548418158e-13,3.468159215e-13,3.597778838e-13,5.910428073e-13,6.507660575e-13,6.722091627e-13,4.300402682e-13,9.667684652e-13,3.12072783e-13,4.397942236e-14,1.223078012e-13,8.435672002e-13,1.658835118e-13,2.763622442e-13,2.675874389e-13,1.003858191e-13,3.076825418e-13,1.660426296e-13,5.13028241e-13,1.582774725e-13
0.5390625,1.26227148e-13,4.01988612e-13,2.009836437e-13,6.267832041e-13,4.995528375e-13,2.948473993e-13,1.005219469e-13,2.647779511e-13,6.075435177e-14,3.352396863e-13,2.497553593e-13,6.199291784e-14,1.640254788e-13,3.388635122e-13,3.531389895e-13,6.027943751e-13,6.728501386e-13,6.917042342e-13,4.391688986e-13,9.602008592e-13,3.315903963e-13,4.436977665e-14,1.298844293e-13,8.594587126e-13,1.7316472e-13,2.935827272e-13,2.798477423e-13,1.034586194e-13,3.130227936e-13,1.662089098e-13,5.327658906e-13,1.655012028e-13
0.546875,1.327629579e-13,4.050685777e-13,2.002064397e-13,6.458391874e-13,5.265826598e-13,3.024941615e-13,1.058230486e-13,2.6987531e-13,6.123886764e-14,3.449313112e-13,2.545897799e-13,6.390706622e-14,1.73629746e-13,3.305863504e-13,3.468375349e-13,6.161977252e-13,6.94782279e-13,7.114177544e-13,4.478406228e-13,9.52778315e-13,3.505191425e-13,4.52296118e-14,1.384863753e-13,8.720939671e-13,1.805080116e-13,3.103303209e-13,2.919961527e-13,1.059567658e-13,3.176856078e-13,1.660992882e-13,5.519075833e-13,1.726020697e-13
0.5546875,1.396724361e-13,4.086333474e-13,2.010878183e-13,6.647562045e-13,5.537235879e-13,3.098384615e-13,1.125115496e-13,2.742971185e-13,6.152943495e-14,3.535866125e-13,2.608106819e-13,6.571844938e-14,1.832619195e-13,3.220631119e-13,3.411446691e-13,6.312078821e-13,7.170392435e-13,7.315431463e-13,4.561862492e-13,9.46014138e-13,3.688176933e-13,4.648033067e-14,1.482331973e-13,8.821343566e-13,1.875978759e-13,3.265937147e-13,3.041096687e-13,1.07773884e-13,3.216937707e-13,1.655714149e-13,5.706648306e-13,1.797995936e-13
0.5625,1.463679888e-13,4.123141556e-13,2.028495022e-13,6.822866923e-13,5.80193479e-13,3.156927121e-13,1.204996692e-13,2.774971483e-13,6.151156973e-14,3.602566017e-13,2.687022131e-13,6.755780957e-14,1.923453319e-13,3.127833107e-13,3.355366372e-13,6.453593148e-13,7.368506476e-13,7.490669337e-13,4.62490369e-13,9.386346655e-13,3.852636994e-13,4.810286866e-14,1.59161377e-13,8.903714979e-13,1.939533295e-13,3.42097864e-13,3.156149975e-13,1.090584314e-13,3.245688739e-13,1.645890895e-13,5.88399492e-13,1.871490684e-13
0.5703125,1.527403865e-13,4.154450325e-13,2.05562469e-13,6.974137428e-13,6.046608688e-13,3.196084363e-13,1.305780835e-13,2.791245979e-13,6.109871637e-14,3.649793016e-13,2.776409976e-13,6.945082403e-14,2.007653307e-13,3.02272968e-13,3.287752899e-13,6.564017256e-13,7.519003261e-13,7.623740067e-13,4.666627639e-13,9.289342999e-13,3.998162042e-13,5.02472154e-14,1.71100476e-13,8.944723759e-13,1.995783255e-13,3.56012457e-13,3.25967917e-13,1.09651431e-13,3.261528338e-13,1.631400401e-13,6.039466807e-13,1.94021525e-13
0.578125,1.590673351e-13,4.179787664e-13,2.094031064e-13,7.10441596e-13,6.268288336e-13,3.223487916e-13,1.426404521e-13,2.798730325e-13,6.043075744e-14,3.688098496e-13,2.865483881e-13,7.119453711e-14,2.086802215e-13,2.908444389e-13,3.207571886e-13,6.648820582e-13,7.63074203e-13,7.724750565e-13,4.69787285e-13,9.17158681e-13,4.128164303e-13,5.290900131e-14,1.835634724e-13,8.934467043e-13,2.043638178e-13,3.677563304e-13,3.349080672e-13,1.096324013e-13,3.262167651e-13,1.61093384e-13,6.169854892e-13,1.999553679e-13
0.5859375,1.653342995e-13,4.203407873e-13,2.139331013e-13,7.214142891e-13,6.468175002e-13,3.237087988e-13,1.559921195e-13,2.799536905e-13,5.951874758e-14,3.708860144e-13,2.951279016e-13,7.244884566e-14,2.159843203e-13,2.783201646e-13,3.116554456e-13,6.715615685e-13,7.709129862e-13,7.799032388e-13,4.71614306e-13,9.027797703e-13,4.236093127e-13,5.595002335e-14,1.960913062e-13,8.887605623e-13,2.075994497e-13,3.775974276e-13,3.422921547e-13,1.090541441e-13,3.2431443e-13,1.583717209e-13,6.276051984e-13,2.052088692e-13
0.59375,1.716877643e-13,4.228287495e-13,2.19195594e-13,7.304761652e-13,6.643927869e-13,3.236644898e-13,1.712462786e-13,2.788705814e-13,5.807586606e-14,3.709298146e-13,3.040724452e-13,7.334418312e-14,2.227048604e-13,2.652791039e-13,3.021202927e-13,6.76916927e-13,7.755790175e-13,7.848540219e-13,4.720519368e-13,8.850438344e-13,4.31946688e-13,5.953955842e-14,2.08729394e-13,8.790668083e-13,2.091591901e-13,3.859329108e-13,3.484799258e-13,1.078173156e-13,3.208687687e-13,1.554077578e-13,6.360439688e-13,2.099887407e-13
0.6015625,1.780486827e-13,4.248599995e-13,2.253350547e-13,7.375959351e-13,6.789761653e-13,3.228347835e-13,1.886643735e-13,2.767051045e-13,5.612153054e-14,3.701467683e-13,3.128641368e-13,7.415498309e-14,2.288756548e-13,2.527012891e-13,2.93228777e-13,6.813028221e-13,7.776273178e-13,7.867445335e-13,4.712374364e-13,8.64459164e-13,4.381354681e-13,6.376402925e-14,2.214160678e-13,8.638129383e-13,2.094170101e-13,3.922227839e-13,3.533323624e-13,1.062680393e-13,3.160164494e-13,1.52718914e-13,6.420190455e-13,2.139024406e-13
0.609375,1.839171949e-13,4.258701341e-13,2.319107767e-13,7.418241441e-13,6.898053284e-13,3.206761682e-13,2.073922321e-13,2.736085962e-13,5.387836478e-14,3.674396088e-13,3.205974823e-13,7.462078311e-14,2.340850057e-13,2.399058646e-13,2.847424233e-13,6.839514057e-13,7.766303991e-13,7.848939754e-13,4.688649729e-13,8.407692981e-13,4.422017245e-13,6.84708183e-14,2.338506846e-13,8.443758799e-13,2.081495098e-13,3.96098355e-13,3.566080698e-13,1.04236931e-13,3.094661649e-13,1.500289796e-13,6.448882746e-13,2.167817411e-13
0.6171875,1.894516005e-13,4.261843768e-13,2.392148233e-13,7.428542372e-13,6.965925607e-13,3.173690776e-13,2.276711075e-13,2.695732724e-13,5.138021087e-14,3.625200731e-13,3.279189878e-13,7.471607186e-14,2.384364867e-13,2.269289106e-13,2.765388986e-13,6.844833553e-13,7.7238733e-13,7.803958431e-13,4.652879617e-13,8.149663266e-13,4.441109618e-13,7.381474729e-14,2.46220694e-13,8.209648955e-13,2.053859938e-13,3.978796244e-13,3.586681526e-13,1.014843768e-13,3.018301304e-13,1.473361566e-13,6.447418142e-13,2.189365122e-13
0.625,1.94815998e-13,4.252619988e-13,2.475333537e-13,7.405246133e-13,6.993875009e-13,3.133116187e-13,2.496254258e-13,2.645507952e-13,4.872505445e-14,3.569012653e-13,3.348001865e-13,7.473265823e-14,2.42186241e-13,2.147550738e-13,2.688950171e-13,6.825099964e-13,7.646934799e-13,7.733673594e-13,4.604582901e-13,7.88306202e-13,4.441446239e-13,7.979180084e-14,2.5853008e-13,7.940909978e-13,2.01894298e-13,3.97220902e-13,3.591204138e-13,9.856841309e-14,2.9336009e-13,1.452911253e-13,6.41281851e-13,2.20245654e-13
0.6328125,1.998102088e-13,4.223419165e-13,2.56440862e-13,7.343299279e-13,6.981473334e-13,3.078304178e-13,2.723966083e-13,2.586071053e-13,4.613427613e-14,3.502799062e-13,3.405866126e-13,7.470793301e-14,2.447740569e-13,2.032446436e-13,2.611124178e-13,6.769143224e-13,7.529058827e-13,7.629473848e-13,4.540236219e-13,7.601990188e-13,4.428902098e-13,8.619473493e-14,2.701995865e-13,7.648157152e-13,1.978471919e-13,3.93853478e-13,3.577595497e-13,9.577234746e-14,2.839158079e-13,1.440385548e-13,6.339980348e-13,2.205644771e-13
0.640625,2.04476098e-13,4.182588954e-13,2.660113624e-13,7.247759726e-13,6.932209669e-13,3.012336422e-13,2.958818859e-13,2.524718058e-13,4.374075851e-14,3.42594951e-13,3.455508532e-13,7.464727453e-14,2.459064766e-13,1.92351935e-13,2.530449479e-13,6.677108866e-13,7.374963197e-13,7.498907046e-13,4.466085473e-13,7.32143095e-13,4.404913411e-13,9.309766223e-14,2.809515096e-13,7.347901493e-13,1.92909218e-13,3.883693168e-13,3.553159922e-13,9.30858187e-14,2.739228658e-13,1.435852295e-13,6.236266743e-13,2.203335617e-13
0.6484375,2.087217211e-13,4.134227312e-13,2.756870347e-13,7.122379091e-13,6.851292589e-13,2.938205006e-13,3.201220447e-13,2.464165372e-13,4.15460492e-14,3.337922517e-13,3.498305494e-13,7.455531067e-14,2.456660642e-13,1.822584004e-13,2.448958855e-13,6.548728812e-13,7.188487016e-13,7.344210552e-13,4.383439878e-13,7.052913296e-13,4.367325303e-13,1.004823534e-13,2.907248909e-13,7.049537817e-13,1.871931199e-13,3.809147175e-13,3.518244953e-13,9.064308758e-14,2.633248575e-13,1.440089257e-13,6.106308038e-13,2.198299396e-13
0.65625,2.125737188e-13,4.074732113e-13,2.849567262e-13,6.964357159e-13,6.738574465e-13,2.853637531e-13,3.450013844e-13,2.400366631e-13,3.949558582e-14,3.236410485e-13,3.53467607e-13,7.441285192e-14,2.440844822e-13,1.726061637e-13,2.361337941e-13,6.376463177e-13,6.966213117e-13,7.162405029e-13,4.290629708e-13,6.784878028e-13,4.319953323e-13,1.083678629e-13,2.993208474e-13,6.745899282e-13,1.806410906e-13,3.713184652e-13,3.469750974e-13,8.864224711e-14,2.519930167e-13,1.453323645e-13,5.947271952e-13,2.190452059e-13
0.6640625,2.163102053e-13,4.009064341e-13,2.944064359e-13,6.777749455e-13,6.591018803e-13,2.764096051e-13,3.703885936e-13,2.335855863e-13,3.759131438e-14,3.133429327e-13,3.564015363e-13,7.41272334e-14,2.417175531e-13,1.631583244e-13,2.26704403e-13,6.167810529e-13,6.715316491e-13,6.966370223e-13,4.194001061e-13,6.511679132e-13,4.264281512e-13,1.168889522e-13,3.064226729e-13,6.437218358e-13,1.72957737e-13,3.597537742e-13,3.407752073e-13,8.702113965e-14,2.401110879e-13,1.475648805e-13,5.761774274e-13,2.178582959e-13
0.671875,2.199994683e-13,3.937149227e-13,3.032582636e-13,6.565263427e-13,6.410058306e-13,2.676121831e-13,3.952683381e-13,2.272627145e-13,3.59188271e-14,3.029351234e-13,3.583537429e-13,7.366103987e-14,2.390907016e-13,1.542599677e-13,2.171970146e-13,5.936609295e-13,6.448560287e-13,6.765038744e-13,4.095279049e-13,6.228976523e-13,4.194900028e-13,1.25846946e-13,3.1152163e-13,6.124570915e-13,1.643487604e-13,3.462899274e-13,3.332257449e-13,8.561344301e-14,2.276425871e-13,1.506108719e-13,5.551954031e-13,2.160857422e-13
0.6796875,2.237374848e-13,3.858842006e-13,3.111340799e-13,6.327538621e-13,6.203794349e-13,2.592128886e-13,4.192361014e-13,2.210955206e-13,3.463210883e-14,2.925882469e-13,3.595476283e-13,7.329907704e-14,2.363528671e-13,1.464825543e-13,2.081053983e-13,5.688572148e-13,6.170887958e-13,6.560338442e-13,3.994808779e-13,5.94923181e-13,4.116842088e-13,1.351212382e-13,3.146249775e-13,5.808957444e-13,1.550968104e-13,3.312756056e-13,3.248332275e-13,8.482063536e-14,2.152680988e-13,1.54780785e-13,5.322674114e-13,2.139265992e-13
0.6875,2.277906221e-13,3.787849922e-13,3.191896822e-13,6.078307973e-13,5.980045388e-13,2.513726594e-13,4.425326661e-13,2.156427872e-13,3.390297704e-14,2.829830436e-13,3.607166589e-13,7.325417173e-14,2.337500874e-13,1.400127966e-13,1.998236657e-13,5.43246871e-13,5.890152585e-13,6.365254562e-13,3.901235198e-13,5.689258753e-13,4.040079286e-13,1.446485286e-13,3.160919992e-13,5.499903425e-13,1.453738016e-13,3.154873178e-13,3.163655117e-13,8.473199931e-14,2.03823803e-13,1.603647424e-13,5.087527426e-13,2.114851036e-13
0.6953125,2.320901122e-13,3.724951516e-13,3.270060568e-13,5.826674856e-13,5.741540347e-13,2.442942209e-13,4.640575042e-13,2.109476284e-13,3.379456303e-14,2.735205057e-13,3.62322814e-13,7.355419776e-14,2.312321858e-13,1.349084837e-13,1.925507544e-13,5.177324502e-13,5.618615386e-13,6.191008962e-13,3.818332999e-13,5.444167543e-13,3.963696359e-13,1.539214122e-13,3.158226314e-13,5.19849611e-13,1.356885499e-13,2.991995292e-13,3.079193836e-13,8.509518249e-14,1.931798702e-13,1.673601366e-13,4.850153208e-13,2.085549141e-13
0.703125,2.363137306e-13,3.663001606e-13,3.339387473e-13,5.569896976e-13,5.494305965e-13,2.380157409e-13,4.830849938e-13,2.069914859e-13,3.428660624e-14,2.646986229e-13,3.638854536e-13,7.417992429e-14,2.286568051e-13,1.312076963e-13,1.861584625e-13,4.923514209e-13,5.35976794e-13,6.041282836e-13,3.745317909e-13,5.213719313e-13,3.89167156e-13,1.627692846e-13,3.13934178e-13,4.903777456e-13,1.265738211e-13,2.824880596e-13,2.99470499e-13,8.600480611e-14,1.832698516e-13,1.75643045e-13,4.60830223e-13,2.053301541e-13
0.7109375,2.403585254e-13,3.610493467e-13,3.40235962e-13,5.316607367e-13,5.249761676e-13,2.326439737e-13,5.000329975e-13,2.040501904e-13,3.535575732e-14,2.568225454e-13,3.654277793e-13,7.507973741e-14,2.26277158e-13,1.287830179e-13,1.807215371e-13,4.673089849e-13,5.118016369e-13,5.920937908e-13,3.686441987e-13,5.003984462e-13,3.829798269e-13,1.712960085e-13,3.106133904e-13,4.623451311e-13,1.180869851e-13,2.659405459e-13,2.916481671e-13,8.729556656e-14,1.743920963e-13,1.849492947e-13,4.372042314e-13,2.020719893e-13
0.71875,2.440254243e-13,3.570789297e-13,3.452954044e-13,5.073971469e-13,5.013183225e-13,2.282439957e-13,5.142990844e-13,2.018232314e-13,3.69983449e-14,2.491494293e-13,3.674567433e-13,7.626644357e-14,2.242344308e-13,1.274022227e-13,1.762764822e-13,4.432312583e-13,4.90286173e-13,5.835230645e-13,3.641846493e-13,4.814198853e-13,3.769649846e-13,1.791020358e-13,3.056463216e-13,4.363222273e-13,1.102406418e-13,2.499918522e-13,2.848365067e-13,8.891153358e-14,1.665853417e-13,1.954223961e-13,4.148867288e-13,1.988184097e-13
0.7265625,2.472706696e-13,3.540751802e-13,3.485214357e-13,4.839883343e-13,4.785261057e-13,2.248355964e-13,5.250087509e-13,2.002526896e-13,3.92283375e-14,2.424223677e-13,3.698298324e-13,7.774783778e-14,2.226453382e-13,1.267684818e-13,1.722649947e-13,4.201268013e-13,4.715545809e-13,5.785506312e-13,3.607222977e-13,4.638381422e-13,3.707649929e-13,1.860910825e-13,2.992068667e-13,4.121719348e-13,1.034055682e-13,2.345726924e-13,2.788352485e-13,9.09862737e-14,1.597509896e-13,2.070976604e-13,3.937239827e-13,1.956964511e-13
0.734375,2.504067863e-13,3.522750088e-13,3.501731076e-13,4.61836345e-13,4.567398344e-13,2.224609509e-13,5.32517809e-13,1.992341868e-13,4.204079548e-14,2.374473899e-13,3.727774982e-13,7.95754015e-14,2.21590854e-13,1.269951519e-13,1.683005351e-13,3.973913007e-13,4.54948805e-13,5.764326035e-13,3.582292198e-13,4.471472059e-13,3.647613927e-13,1.924285831e-13,2.913699041e-13,3.896061321e-13,9.783859196e-14,2.195699041e-13,2.737979311e-13,9.360203851e-14,1.538623245e-13,2.200781798e-13,3.737531425e-13,1.92514811e-13
0.7421875,2.537552228e-13,3.520118396e-13,3.510300513e-13,4.413189596e-13,4.361451733e-13,2.210932058e-13,5.377794218e-13,1.986238646e-13,4.5463318e-14,2.33731844e-13,3.761479441e-13,8.181651498e-14,2.210273491e-13,1.284427987e-13,1.64539438e-13,3.751888477e-13,4.403338687e-13,5.773061192e-13,3.571585132e-13,4.3224561e-13,3.588467891e-13,1.979986585e-13,2.818218288e-13,3.688846161e-13,9.364344542e-14,2.051694758e-13,2.699589106e-13,9.719619424e-14,1.490875386e-13,2.349265279e-13,3.552633623e-13,1.89025309e-13
0.75,2.574377978e-13,3.536109696e-13,3.517491731e-13,4.228136506e-13,4.174309561e-13,2.211296117e-13,5.412554634e-13,1.987731786e-13,4.949267725e-14,2.311300596e-13,3.798694933e-13,8.463486592e-14,2.212043699e-13,1.312940648e-13,1.614442831e-13,3.545866674e-13,4.28255515e-13,5.817155028e-13,3.578375687e-13,4.202221337e-13,3.532487517e-13,2.028295881e-13,2.709593474e-13,3.504751113e-13,9.108036971e-14,1.917387195e-13,2.6723867e-13,1.019201886e-13,1.456789037e-13,2.51522335e-13,3.387360085e-13,1.854649024e-13
0.7578125,2.607497258e-13,3.564553095e-13,3.515643581e-13,4.066217416e-13,4.01149294e-13,2.219797253e-13,5.424269105e-13,1.992728712e-13,5.404599533e-14,2.30098655e-13,3.849683975e-13,8.815944744e-14,2.2186069e-13,1.354027262e-13,1.591786031e-13,3.357410111e-13,4.182954115e-13,5.881958863e-13,3.595450547e-13,4.102582877e-13,3.480052726e-13,2.065914701e-13,2.590856162e-13,3.344120579e-13,9.037335743e-14,1.794607552e-13,2.657924681e-13,1.075952436e-13,1.436223026e-13,2.694810722e-13,3.243443375e-13,1.818892439e-13
0.765625,2.63253322e-13,3.601975415e-13,3.499673274e-13,3.9256249e-13,3.872023615e-13,2.225749185e-13,5.412627345e-13,1.99757623e-13,5.904795488e-14,2.305840172e-13,3.913863385e-13,9.230060092e-14,2.224614951e-13,1.403858587e-13,1.574703899e-13,3.184411585e-13,4.098830367e-13,5.961188659e-13,3.615465063e-13,4.013158033e-13,3.424643971e-13,2.088558541e-13,2.459729195e-13,3.205228193e-13,9.166324022e-14,1.684872022e-13,2.657610776e-13,1.143852399e-13,1.426734588e-13,2.887455693e-13,3.11980446e-13,1.781890134e-13
0.7734375,2.652148362e-13,3.651120201e-13,3.477583751e-13,3.803748159e-13,3.751812801e-13,2.232883438e-13,5.383534228e-13,2.003848128e-13,6.443347733e-14,2.324620616e-13,3.987494145e-13,9.713924011e-14,2.232062147e-13,1.460304884e-13,1.563251256e-13,3.030189684e-13,4.032597741e-13,6.056937886e-13,3.638691409e-13,3.933869588e-13,3.365517114e-13,2.098901785e-13,2.32242242e-13,3.084808738e-13,9.506200956e-14,1.586972026e-13,2.668613736e-13,1.224470549e-13,1.425403291e-13,3.092272499e-13,3.014328442e-13,1.744284137e-13
0.78125,2.661623425e-13,3.701184737e-13,3.442152455e-13,3.694187266e-13,3.646732065e-13,2.240189925e-13,5.333226523e-13,2.009934222e-13,7.013839109e-14,2.36065265e-13,4.075911499e-13,1.026549903e-13,2.240211036e-13,1.520981957e-13,1.556426682e-13,2.892098462e-13,3.979749425e-13,6.154237508e-13,3.660261838e-13,3.859489281e-13,3.303448278e-13,2.095892173e-13,2.184738677e-13,2.977339396e-13,1.005744913e-13,1.498870001e-13,2.692128921e-13,1.316448202e-13,1.431808924e-13,3.309830505e-13,2.922935205e-13,1.705199235e-13
0.7890625,2.658991379e-13,3.752276088e-13,3.38645531e-13,3.598031969e-13,3.559668474e-13,2.243845528e-13,5.268040134e-13,2.017648338e-13,7.6116476e-14,2.414398846e-13,4.183242338e-13,1.087079104e-13,2.24489443e-13,1.586315392e-13,1.555914188e-13,2.769307866e-13,3.937656477e-13,6.244657673e-13,3.674617587e-13,3.786273303e-13,3.237599201e-13,2.076281041e-13,2.049365593e-13,2.883152237e-13,1.082243791e-13,1.425271403e-13,2.733590087e-13,1.418067535e-13,1.447673581e-13,3.542061668e-13,2.849676647e-13,1.665463276e-13
0.796875,2.648689758e-13,3.811165423e-13,3.322019765e-13,3.521289173e-13,3.492898415e-13,2.249117147e-13,5.205652741e-13,2.029627864e-13,8.239651029e-14,2.483248766e-13,4.31285354e-13,1.152904166e-13,2.246563035e-13,1.657041287e-13,1.565610368e-13,2.663715504e-13,3.906892774e-13,6.327410341e-13,3.684940701e-13,3.717408562e-13,3.173288492e-13,2.045223333e-13,1.923946175e-13,2.806202017e-13,1.180168455e-13,1.366965508e-13,2.788861674e-13,1.527512935e-13,1.47008303e-13,3.788823616e-13,2.796887907e-13,1.62724162e-13
0.8046875,2.631023824e-13,3.86552318e-13,3.252608261e-13,3.457998135e-13,3.442513584e-13,2.255932026e-13,5.149029812e-13,2.045051609e-13,8.886913256e-14,2.570450346e-13,4.466423897e-13,1.222384808e-13,2.24674735e-13,1.728728009e-13,1.581869379e-13,2.572112521e-13,3.883619211e-13,6.397630491e-13,3.692635218e-13,3.654285328e-13,3.109552269e-13,2.00548322e-13,1.808124969e-13,2.740328149e-13,1.299555903e-13,1.319201162e-13,2.851543795e-13,1.644769859e-13,1.495691819e-13,4.047631148e-13,2.756360991e-13,1.590122474e-13
0.8125,2.603996228e-13,3.914391842e-13,3.177056635e-13,3.402885287e-13,3.405552543e-13,2.258546697e-13,5.098500092e-13,2.061372655e-13,9.534726896e-14,2.677237633e-13,4.644513921e-13,1.295579508e-13,2.244620566e-13,1.800876085e-13,1.603539998e-13,2.493862522e-13,3.866499072e-13,6.45091273e-13,3.692466495e-13,3.593074105e-13,3.039209227e-13,1.954246696e-13,1.699580625e-13,2.679214484e-13,1.44126044e-13,1.281468236e-13,2.922956321e-13,1.771847684e-13,1.525482165e-13,4.317042611e-13,2.725829051e-13,1.553205497e-13
0.8203125,2.562209656e-13,3.95947721e-13,3.096849602e-13,3.352552534e-13,3.374960322e-13,2.252704773e-13,5.055073921e-13,2.076563633e-13,1.0185605e-13,2.796057533e-13,4.841182469e-13,1.372267609e-13,2.236522218e-13,1.871695183e-13,1.62878537e-13,2.425462569e-13,3.848318202e-13,6.477253878e-13,3.681269653e-13,3.52002572e-13,2.961951501e-13,1.891821145e-13,1.599685246e-13,2.625687645e-13,1.601190091e-13,1.251204708e-13,2.998574512e-13,1.90631774e-13,1.555744084e-13,4.589614386e-13,2.702640968e-13,1.514588069e-13
0.828125,2.505480202e-13,3.98782049e-13,3.017303403e-13,3.298777429e-13,3.343033081e-13,2.23939165e-13,5.024416829e-13,2.094321158e-13,1.08309001e-13,2.929847702e-13,5.053071653e-13,1.451635588e-13,2.222454881e-13,1.937328638e-13,1.653280113e-13,2.363695534e-13,3.826355805e-13,6.477344635e-13,3.661970442e-13,3.432987787e-13,2.879210207e-13,1.820600896e-13,1.507102566e-13,2.576469734e-13,1.776372485e-13,1.226060081e-13,3.07304434e-13,2.047341274e-13,1.582496102e-13,4.854226119e-13,2.679214323e-13,1.473534281e-13
0.8359375,2.440408331e-13,4.000542918e-13,2.949171511e-13,3.241259454e-13,3.311494921e-13,2.22228544e-13,5.025427668e-13,2.119427979e-13,1.146414083e-13,3.083019451e-13,5.289971424e-13,1.535619862e-13,2.206904505e-13,2.000175056e-13,1.680039221e-13,2.311999349e-13,3.808746279e-13,6.460686581e-13,3.637194957e-13,3.34581274e-13,2.794666375e-13,1.743624107e-13,1.426076115e-13,2.527730542e-13,1.971704931e-13,1.20790378e-13,3.148313141e-13,2.198204593e-13,1.608356582e-13,5.109158611e-13,2.656093193e-13,1.431779487e-13
0.84375,2.365983243e-13,4.000833135e-13,2.89250875e-13,3.18134778e-13,3.281942103e-13,2.201245159e-13,5.059539303e-13,2.150807089e-13,1.208723409e-13,3.24706356e-13,5.54645232e-13,1.622295108e-13,2.18923848e-13,2.058571528e-13,1.709019155e-13,2.269483168e-13,3.792430043e-13,6.419625512e-13,3.6041957e-13,3.257381834e-13,2.710425527e-13,1.662387773e-13,1.358779573e-13,2.483263118e-13,2.185874007e-13,1.195091978e-13,3.22047737e-13,2.354474383e-13,1.631748122e-13,5.352017414e-13,2.632310505e-13,1.389230468e-13
0.8515625,2.281039112e-13,3.985508133e-13,2.842115154e-13,3.116522092e-13,3.249947078e-13,2.176224289e-13,5.113536864e-13,2.185848975e-13,1.268335454e-13,3.421408752e-13,5.808833165e-13,1.708962977e-13,2.16901493e-13,2.108235418e-13,1.736403861e-13,2.234031211e-13,3.772717891e-13,6.353529189e-13,3.563909534e-13,3.159696635e-13,2.625806295e-13,1.577946595e-13,1.30408318e-13,2.439974953e-13,2.412538979e-13,1.184191241e-13,3.285232278e-13,2.511885723e-13,1.648617131e-13,5.578744949e-13,2.602985181e-13,1.344565404e-13
0.859375,2.191010865e-13,3.95923916e-13,2.799403031e-13,3.049340452e-13,3.21362085e-13,2.149800324e-13,5.185607072e-13,2.225252622e-13,1.325062894e-13,3.603283007e-13,6.074519104e-13,1.794132221e-13,2.149957595e-13,2.145625243e-13,1.757003884e-13,2.203631144e-13,3.752999722e-13,6.275549374e-13,3.524042503e-13,3.058014371e-13,2.547580554e-13,1.494414496e-13,1.264790257e-13,2.396224858e-13,2.647015507e-13,1.172558615e-13,3.342750024e-13,2.66796318e-13,1.659098536e-13,5.788816596e-13,2.568819936e-13,1.296189931e-13
0.8671875,2.099594125e-13,3.923229332e-13,2.769799221e-13,2.979308148e-13,3.174025164e-13,2.124459725e-13,5.278876633e-13,2.267681039e-13,1.378437377e-13,3.779216046e-13,6.337177089e-13,1.873362461e-13,2.132493951e-13,2.166891332e-13,1.766267342e-13,2.174166213e-13,3.732874707e-13,6.185095596e-13,3.488226332e-13,2.960255295e-13,2.480025092e-13,1.414658386e-13,1.239436143e-13,2.359310237e-13,2.883267853e-13,1.158251135e-13,3.38784262e-13,2.814284088e-13,1.661757597e-13,5.976831044e-13,2.52963206e-13,1.244264856e-13
0.875,2.006749626e-13,3.878048315e-13,2.756301743e-13,2.905425249e-13,3.131693852e-13,2.101443665e-13,5.392198992e-13,2.312792247e-13,1.427876631e-13,3.949526901e-13,6.593453715e-13,1.945874445e-13,2.116567689e-13,2.174892338e-13,1.766958849e-13,2.14604246e-13,3.713362454e-13,6.081310856e-13,3.457000574e-13,2.868791329e-13,2.420770523e-13,1.338783018e-13,1.224811355e-13,2.32870169e-13,3.119469576e-13,1.1419622e-13,3.417085636e-13,2.950633781e-13,1.655402664e-13,6.140736912e-13,2.484909901e-13,1.191432455e-13
0.8828125,1.911263919e-13,3.827033778e-13,2.75702298e-13,2.83204198e-13,3.087131644e-13,2.08266082e-13,5.519794267e-13,2.363977223e-13,1.474060502e-13,4.117163065e-13,6.837759087e-13,2.01121091e-13,2.102595419e-13,2.168824641e-13,1.757113078e-13,2.119604879e-13,3.699392263e-13,5.971075649e-13,3.431707316e-13,2.784400904e-13,2.3683426e-13,1.266725703e-13,1.217437255e-13,2.300879212e-13,3.349079103e-13,1.123046662e-13,3.431044173e-13,3.078165788e-13,1.640285015e-13,6.279118181e-13,2.435236087e-13,1.137785421e-13
0.890625,1.815446803e-13,3.769213052e-13,2.773619729e-13,2.756633027e-13,3.039797822e-13,2.069658504e-13,5.659359095e-13,2.418838008e-13,1.515268551e-13,4.272365532e-13,7.057656263e-13,2.065673698e-13,2.091068336e-13,2.145352827e-13,1.73458247e-13,2.095051362e-13,3.694307315e-13,5.859946423e-13,3.413243758e-13,2.709251291e-13,2.321391436e-13,1.199577356e-13,1.214063756e-13,2.279079639e-13,3.563482649e-13,1.100481596e-13,3.42818647e-13,3.189274238e-13,1.616962366e-13,6.383758082e-13,2.379564991e-13,1.083789488e-13
0.8984375,1.723111711e-13,3.705922411e-13,2.804324716e-13,2.677809832e-13,2.990624288e-13,2.062279829e-13,5.80640796e-13,2.476711894e-13,1.551962482e-13,4.409582905e-13,7.255610365e-13,2.110996365e-13,2.085281888e-13,2.110904853e-13,1.706073366e-13,2.075882782e-13,3.700873237e-13,5.753802367e-13,3.40307371e-13,2.645514429e-13,2.281696021e-13,1.138094395e-13,1.216478866e-13,2.261762311e-13,3.768573823e-13,1.075341694e-13,3.409995403e-13,3.28616749e-13,1.588541438e-13,6.455748122e-13,2.319626453e-13,1.031678809e-13
0.90625,1.633801777e-13,3.641472268e-13,2.842324324e-13,2.602875758e-13,2.942511035e-13,2.063592508e-13,5.94758309e-13,2.539381409e-13,1.585279064e-13,4.527426816e-13,7.432773191e-13,2.148258694e-13,2.084531642e-13,2.068593452e-13,1.673244396e-13,2.06236477e-13,3.720871287e-13,5.656226984e-13,3.401891588e-13,2.594879203e-13,2.251745723e-13,1.08195429e-13,1.224605132e-13,2.246932249e-13,3.962926407e-13,1.045607265e-13,3.375943173e-13,3.373853374e-13,1.553959279e-13,6.497098017e-13,2.255382966e-13,9.805349731e-14
0.9140625,1.546945051e-13,3.581867229e-13,2.890493436e-13,2.537126193e-13,2.899072053e-13,2.075157942e-13,6.078199717e-13,2.600740881e-13,1.611463704e-13,4.618776401e-13,7.579307998e-13,2.17353934e-13,2.087295956e-13,2.017433999e-13,1.636334352e-13,2.056568768e-13,3.758333434e-13,5.575769048e-13,3.412103882e-13,2.564687252e-13,2.229385101e-13,1.031645397e-13,1.23495228e-13,2.241825583e-13,4.133142626e-13,1.010794457e-13,3.323234092e-13,3.444998762e-13,1.511533004e-13,6.498739722e-13,2.187994683e-13,9.302159249e-14
0.921875,1.464911368e-13,3.532657617e-13,2.952618423e-13,2.484686383e-13,2.864861331e-13,2.095495424e-13,6.199650727e-13,2.657717292e-13,1.628535567e-13,4.680018064e-13,7.697690827e-13,2.187726261e-13,2.097542898e-13,1.961426886e-13,1.599607234e-13,2.065059366e-13,3.819604355e-13,5.522398681e-13,3.437400534e-13,2.563192454e-13,2.213880521e-13,9.869149324e-14,1.246595351e-13,2.247396718e-13,4.279773291e-13,9.754178788e-14,3.25917588e-13,3.494229973e-13,1.467229502e-13,6.459290389e-13,2.125187658e-13,8.823965199e-14
0.9296875,1.388371414e-13,3.494065382e-13,3.023856306e-13,2.448545542e-13,2.841328559e-13,2.125840118e-13,6.30227559e-13,2.710441721e-13,1.637850699e-13,4.711902324e-13,7.788775279e-13,2.192524588e-13,2.116311476e-13,1.900431543e-13,1.561686108e-13,2.088660633e-13,3.906860472e-13,5.494941222e-13,3.476347176e-13,2.590167162e-13,2.205763975e-13,9.469966551e-14,1.258382104e-13,2.260417873e-13,4.402543319e-13,9.400033245e-14,3.189328483e-13,3.52353387e-13,1.423722211e-13,6.383811931e-13,2.069191917e-13,8.370800683e-14
0.9375,1.316641956e-13,3.4679932e-13,3.099141932e-13,2.427592379e-13,2.826715352e-13,2.164109482e-13,6.376129373e-13,2.756575128e-13,1.639896987e-13,4.712224053e-13,7.839864267e-13,2.185830347e-13,2.141595126e-13,1.831464938e-13,1.520313565e-13,2.126155538e-13,4.019686433e-13,5.490727611e-13,3.524622351e-13,2.64450631e-13,2.202721557e-13,9.115144164e-14,1.266430363e-13,2.287434996e-13,4.490752869e-13,9.02208648e-14,3.108579234e-13,3.533779645e-13,1.377390444e-13,6.272247072e-13,2.017743222e-13,7.940488895e-14
0.9453125,1.252164346e-13,3.454699408e-13,3.178073518e-13,2.420104758e-13,2.818523092e-13,2.208980616e-13,6.423027201e-13,2.798503537e-13,1.634974865e-13,4.683230067e-13,7.850571891e-13,2.168099087e-13,2.171800424e-13,1.756436752e-13,1.477059369e-13,2.176606707e-13,4.155980504e-13,5.509982017e-13,3.582261081e-13,2.727022714e-13,2.206718735e-13,8.8056978e-14,1.269691896e-13,2.328249164e-13,4.544893354e-13,8.619098832e-14,3.015747988e-13,3.525725345e-13,1.328373144e-13,6.126551479e-13,1.970717779e-13,7.52358492e-14
0.953125,1.196937253e-13,3.446533684e-13,3.2658949e-13,2.423930397e-13,2.814963085e-13,2.263119168e-13,6.448535556e-13,2.836951575e-13,1.623376951e-13,4.630952594e-13,7.830878747e-13,2.140294593e-13,2.204547811e-13,1.678905645e-13,1.43225338e-13,2.234045395e-13,4.309275343e-13,5.552415191e-13,3.652438916e-13,2.836818347e-13,2.221788799e-13,8.559538089e-14,1.269716352e-13,2.373882012e-13,4.569860089e-13,8.197085754e-14,2.914141966e-13,3.500822111e-13,1.279953118e-13,5.951950071e-13,1.926643221e-13,7.112989599e-14
0.9609375,1.150206985e-13,3.444021502e-13,3.363302154e-13,2.438571966e-13,2.816841889e-13,2.324097911e-13,6.453621403e-13,2.868112571e-13,1.606094029e-13,4.551269847e-13,7.778810899e-13,2.101301791e-13,2.241246278e-13,1.602287432e-13,1.386802588e-13,2.296610393e-13,4.475828683e-13,5.618637617e-13,3.734158913e-13,2.973728657e-13,2.246136691e-13,8.378143751e-14,1.264358042e-13,2.424244217e-13,4.563193726e-13,7.761004279e-14,2.804914994e-13,3.45811596e-13,1.233168845e-13,5.753869921e-13,1.885990145e-13,6.717229541e-14
0.96875,1.110502464e-13,3.452839757e-13,3.462811256e-13,2.466087476e-13,2.825415746e-13,2.388763277e-13,6.43517702e-13,2.891333054e-13,1.584653862e-13,4.439974663e-13,7.688916316e-13,2.051930561e-13,2.282556926e-13,1.52768673e-13,1.34100928e-13,2.366524702e-13,4.658083498e-13,5.705751405e-13,3.822722707e-13,3.137917496e-13,2.275712978e-13,8.238920755e-14,1.249248955e-13,2.48323658e-13,4.522157746e-13,7.312883064e-14,2.688687982e-13,3.397248592e-13,1.187387993e-13,5.534063331e-13,1.851477245e-13,6.349136911e-14
0.9765625,1.074948677e-13,3.469208519e-13,3.565724878e-13,2.506100828e-13,2.841216563e-13,2.456418026e-13,6.396332591e-13,2.907070576e-13,1.558803186e-13,4.305157737e-13,7.56885203e-13,1.995021276e-13,2.32261601e-13,1.454611485e-13,1.29506679e-13,2.441546344e-13,4.853422657e-13,5.808064373e-13,3.915753928e-13,3.329275659e-13,2.310009706e-13,8.132198805e-14,1.22522548e-13,2.552461126e-13,4.449542029e-13,6.878451553e-14,2.567056814e-13,3.321101162e-13,1.143213147e-13,5.293203252e-13,1.823356695e-13,6.036172194e-14
0.984375,1.042935543e-13,3.492964e-13,3.676016385e-13,2.558726952e-13,2.865672307e-13,2.526515066e-13,6.34113826e-13,2.916673362e-13,1.529194649e-13,4.148351687e-13,7.427634034e-13,1.933188521e-13,2.359530678e-13,1.386811428e-13,1.253589672e-13,2.522360686e-13,5.057794703e-13,5.925159541e-13,4.013383064e-13,3.552456993e-13,2.352985119e-13,8.056451451e-14,1.195083055e-13,2.636324401e-13,4.352100109e-13,6.487112524e-14,2.443976979e-13,3.234379242e-13,1.102933797e-13,5.039921534e-13,1.802632028e-13,5.793173827e-14
0.9921875,1.015144425e-13,3.524937506e-13,3.789125489e-13,2.624974586e-13,2.89779599e-13,2.599490928e-13,6.26508819e-13,2.922363471e-13,1.497522519e-13,3.968387926e-13,7.268442979e-13,1.8699327e-13,2.394840156e-13,1.327998479e-13,1.218152624e-13,2.610014252e-13,5.271909122e-13,6.05500961e-13,4.112749035e-13,3.809310553e-13,2.40579465e-13,7.999353734e-14,1.15724232e-13,2.737344764e-13,4.231182541e-13,6.123648803e-14,2.322532548e-13,3.141366029e-13,1.067125473e-13,4.780461959e-13,1.789974843e-13,5.601743009e-14
1,9.893999131e-14,3.557288473e-13,3.904304237e-13,2.699376086e-13,2.932656858e-13,2.673649624e-13,6.173302992e-13,2.924186955e-13,1.463018894e-13,3.77483857e-13,7.102436258e-13,1.808665105e-13,2.423687762e-13,1.278482818e-13,1.188070136e-13,2.69769713e-13,5.488162655e-13,6.188984468e-13,4.209988266e-13,4.089352416e-13,2.466610091e-13,7.959030541e-14,1.113680123e-13,2.849415066e-13,4.087605033e-13,5.781274503e-14,2.202583022e-13,3.042671243e-13,1.032895157e-13,4.514515765e-13,1.780940453e-13,5.45257782e-14
1.0078125,9.661816574e-14,3.590103578e-13,4.022356277e-13,2.778395453e-13,2.968539494e-13,2.746334553e-13,6.075497456e-13,2.922501501e-13,1.425689403e-13,3.56920265e-13,6.931050398e-13,1.748985324e-13,2.443684349e-13,1.239582721e-13,1.165758989e-13,2.78354611e-13,5.701148734e-13,6.326179759e-13,4.306103815e-13,4.39010747e-13,2.533518912e-13,7.952726737e-14,1.067577041e-13,2.966632988e-13,3.92518226e-13,5.483133994e-14,2.084766872e-13,2.937685224e-13,9.999813116e-14,4.2458604e-13,1.774405155e-13,5.349137937e-14
1.015625,9.480117145e-14,3.627135331e-13,4.136282921e-13,2.864497886e-13,3.003787474e-13,2.816318975e-13,5.968026175e-13,2.917401849e-13,1.387602632e-13,3.351254788e-13,6.743664841e-13,1.690773099e-13,2.458903782e-13,1.209892484e-13,1.147001227e-13,2.869388232e-13,5.909738554e-13,6.466467178e-13,4.39964343e-13,4.709090588e-13,2.603043071e-13,7.9827283e-14,1.017446597e-13,3.091786396e-13,3.745480648e-13,5.224984761e-14,1.971824815e-13,2.829585949e-13,9.717997419e-14,3.980216537e-13,1.773758362e-13,5.277885545e-14
1.0234375,9.334097014e-14,3.662336288e-13,4.239577727e-13,2.952617092e-13,3.033347346e-13,2.879498739e-13,5.845824448e-13,2.907472727e-13,1.350616177e-13,3.129586515e-13,6.551689174e-13,1.637123402e-13,2.469252008e-13,1.186776556e-13,1.126318713e-13,2.945979553e-13,6.098466159e-13,6.595735671e-13,4.484018565e-13,5.026389857e-13,2.67537732e-13,8.036998814e-14,9.644899086e-14,3.230606738e-13,3.552857881e-13,4.995308611e-14,1.865750509e-13,2.723239793e-13,9.485719727e-14,3.721813015e-13,1.77651018e-13,5.228696847e-14
1.03125,9.199822401e-14,3.691741458e-13,4.330548194e-13,3.036170082e-13,3.058832879e-13,2.930763792e-13,5.709467774e-13,2.89302186e-13,1.315835922e-13,2.908464855e-13,6.366066984e-13,1.589090273e-13,2.471687877e-13,1.173265655e-13,1.107836081e-13,3.007437191e-13,6.261292331e-13,6.703079278e-13,4.555879001e-13,5.337516287e-13,2.750864452e-13,8.112726837e-14,9.103389474e-14,3.380362942e-13,3.351380814e-13,4.81334551e-14,1.766821181e-13,2.620873186e-13,9.290649185e-14,3.473233305e-13,1.780483203e-13,5.21173909e-14
1.0390625,9.074669505e-14,3.715289519e-13,4.403793275e-13,3.115640337e-13,3.080770508e-13,2.96979915e-13,5.560345331e-13,2.874192043e-13,1.283503847e-13,2.690416851e-13,6.178835383e-13,1.546536679e-13,2.464946746e-13,1.170483381e-13,1.0925768e-13,3.057232393e-13,6.402196835e-13,6.785527636e-13,4.613422227e-13,5.645157999e-13,2.826727818e-13,8.214827114e-14,8.558198694e-14,3.532554443e-13,3.145121525e-13,4.683723603e-14,1.674858928e-13,2.5222549e-13,9.132823897e-14,3.236333101e-13,1.78669514e-13,5.22457955e-14
1.046875,8.953625766e-14,3.727743687e-13,4.45253534e-13,3.186626942e-13,3.091569073e-13,2.994199744e-13,5.397193964e-13,2.849233718e-13,1.255364885e-13,2.477162804e-13,5.990310289e-13,1.511547164e-13,2.44700656e-13,1.176494041e-13,1.077082491e-13,3.090298579e-13,6.50742126e-13,6.83391324e-13,4.651852552e-13,5.932533299e-13,2.900401376e-13,8.347259279e-14,8.018268941e-14,3.684557829e-13,2.938101952e-13,4.586337327e-14,1.587358079e-13,2.426864378e-13,9.0002969e-14,3.012470891e-13,1.790577497e-13,5.255619362e-14
1.0546875,8.823717567e-14,3.725090669e-13,4.476968316e-13,3.243012953e-13,3.089182513e-13,3.000223878e-13,5.221801011e-13,2.819152988e-13,1.231886938e-13,2.272399598e-13,5.80311922e-13,1.484665601e-13,2.417661459e-13,1.192109435e-13,1.063784209e-13,3.102693689e-13,6.571201989e-13,6.844199951e-13,4.668714794e-13,6.18826323e-13,2.968131677e-13,8.51067352e-14,7.48171553e-14,3.827722315e-13,2.730443197e-13,4.523990031e-14,1.50236227e-13,2.334641002e-13,8.890803642e-14,2.800557861e-13,1.789069656e-13,5.303125408e-14
1.0625,8.698292626e-14,3.712312062e-13,4.47940022e-13,3.286359695e-13,3.076042547e-13,2.992126732e-13,5.040229649e-13,2.782682746e-13,1.210391686e-13,2.078701877e-13,5.616841208e-13,1.463999526e-13,2.381927993e-13,1.215962065e-13,1.05295692e-13,3.100701679e-13,6.600901922e-13,6.824640383e-13,4.668360803e-13,6.412995881e-13,3.026629651e-13,8.71677104e-14,6.96692858e-14,3.949550477e-13,2.525428972e-13,4.50300728e-14,1.423717311e-13,2.246609224e-13,8.821977257e-14,2.601810358e-13,1.785746933e-13,5.358528237e-14
1.0703125,8.6101464e-14,3.694094709e-13,4.459065571e-13,3.316571358e-13,3.051310431e-13,2.969033278e-13,4.848681846e-13,2.732729107e-13,1.19217798e-13,1.888052732e-13,5.437061815e-13,1.450857746e-13,2.343320782e-13,1.24630473e-13,1.040477633e-13,3.083306659e-13,6.588634876e-13,6.774995079e-13,4.652387178e-13,6.60136719e-13,3.074260251e-13,8.974138904e-14,6.467279571e-14,4.05891002e-13,2.324610508e-13,4.513101562e-14,1.353942378e-13,2.164368666e-13,8.801092288e-14,2.420519037e-13,1.781868742e-13,5.416907347e-14
1.078125,8.547987941e-14,3.666583352e-13,4.416001853e-13,3.328699554e-13,3.011474378e-13,2.923147148e-13,4.641447808e-13,2.668805567e-13,1.180791771e-13,1.70343228e-13,5.266054433e-13,1.447512012e-13,2.299166125e-13,1.282132526e-13,1.024505729e-13,3.044784287e-13,6.525790076e-13,6.684957396e-13,4.614059562e-13,6.744885916e-13,3.111473072e-13,9.261427209e-14,5.979842325e-14,4.163812791e-13,2.130671151e-13,4.560344939e-14,1.292046754e-13,2.089651801e-13,8.820357055e-14,2.260430378e-13,1.774868273e-13,5.472882144e-14
1.0859375,8.4847015e-14,3.628029892e-13,4.354535102e-13,3.320252139e-13,2.952732367e-13,2.85824997e-13,4.425812169e-13,2.595265058e-13,1.176329062e-13,1.534732307e-13,5.101628832e-13,1.451470903e-13,2.249259513e-13,1.318718877e-13,1.003094331e-13,2.984637047e-13,6.412180688e-13,6.554079285e-13,4.552847537e-13,6.844669578e-13,3.13808563e-13,9.567362266e-14,5.534911858e-14,4.254258781e-13,1.950294191e-13,4.64406893e-14,1.237960913e-13,2.023339874e-13,8.870420749e-14,2.12247422e-13,1.763238266e-13,5.503982617e-14
1.09375,8.433240327e-14,3.58034816e-13,4.277330775e-13,3.29201547e-13,2.876206256e-13,2.779758071e-13,4.208152968e-13,2.511594627e-13,1.178706622e-13,1.377411283e-13,4.93991188e-13,1.459901489e-13,2.197394001e-13,1.35511724e-13,9.769758784e-14,2.901683533e-13,6.24657757e-13,6.389061304e-13,4.475965858e-13,6.905496619e-13,3.153629773e-13,9.9072071e-14,5.126129686e-14,4.330860977e-13,1.781892712e-13,4.745528088e-14,1.189575882e-13,1.962549209e-13,8.942193131e-14,2.002939009e-13,1.747320296e-13,5.50974431e-14
1.1015625,8.393996446e-14,3.521759634e-13,4.180622258e-13,3.24433783e-13,2.785062261e-13,2.68512614e-13,3.985127783e-13,2.417210476e-13,1.187710576e-13,1.230658875e-13,4.776596413e-13,1.471545103e-13,2.143038118e-13,1.394132104e-13,9.496487748e-14,2.796755501e-13,6.031405944e-13,6.191448401e-13,4.383959002e-13,6.922887263e-13,3.160421459e-13,1.028070715e-13,4.747738957e-14,4.399692074e-13,1.624125914e-13,4.86431167e-14,1.146538667e-13,1.905633352e-13,9.031110375e-14,1.898447543e-13,1.726929135e-13,5.507267858e-14
1.109375,8.35776368e-14,3.45552185e-13,4.060739443e-13,3.176795328e-13,2.681054529e-13,2.576491973e-13,3.754648852e-13,2.312550007e-13,1.201823482e-13,1.097512085e-13,4.61394839e-13,1.485818067e-13,2.087208237e-13,1.435786422e-13,9.210575037e-14,2.67377669e-13,5.770557352e-13,5.963328214e-13,4.277666913e-13,6.886742886e-13,3.155419684e-13,1.0687517e-13,4.406707399e-14,4.45804352e-13,1.478178309e-13,5.000356856e-14,1.11191195e-13,1.856053294e-13,9.154120445e-14,1.808541962e-13,1.702596224e-13,5.490215119e-14
1.1171875,8.350416204e-14,3.389295186e-13,3.920316395e-13,3.092540769e-13,2.566446632e-13,2.456899428e-13,3.519879702e-13,2.197154758e-13,1.22077957e-13,9.748107486e-14,4.454383436e-13,1.504724421e-13,2.036546964e-13,1.482856028e-13,8.919730838e-14,2.535014317e-13,5.473097221e-13,5.713268253e-13,4.164572367e-13,6.79538947e-13,3.13255606e-13,1.113243993e-13,4.096670848e-14,4.500358142e-13,1.341734178e-13,5.151780381e-14,1.085803624e-13,1.813132088e-13,9.327844709e-14,1.733857793e-13,1.677209076e-13,5.449470554e-14
1.125,8.377954832e-14,3.32580885e-13,3.761209681e-13,2.998504167e-13,2.44421625e-13,2.326382347e-13,3.282917065e-13,2.074069539e-13,1.244042063e-13,8.644506483e-14,4.292320776e-13,1.528200574e-13,1.992721763e-13,1.537346507e-13,8.658547428e-14,2.385391209e-13,5.154617576e-13,5.450801041e-13,4.046305656e-13,6.658257025e-13,3.091844626e-13,1.159206799e-13,3.822534062e-14,4.515121253e-13,1.215776911e-13,5.328281182e-14,1.066832324e-13,1.772279288e-13,9.544669504e-14,1.673523568e-13,1.653227924e-13,5.393271358e-14
1.1328125,8.415513766e-14,3.265957728e-13,3.583850633e-13,2.898152538e-13,2.318119116e-13,2.188496829e-13,3.045468436e-13,1.948374799e-13,1.271322882e-13,7.687104947e-14,4.12489191e-13,1.553689006e-13,1.952658067e-13,1.593122625e-13,8.426840396e-14,2.233585447e-13,4.825267652e-13,5.181258634e-13,3.921185505e-13,6.47920803e-13,3.035192045e-13,1.205375982e-13,3.589618039e-14,4.50395917e-13,1.101546407e-13,5.521797403e-14,1.053296785e-13,1.734848538e-13,9.80283771e-14,1.623672399e-13,1.631654167e-13,5.332923489e-14
1.140625,8.464746471e-14,3.210207573e-13,3.397784077e-13,2.791088882e-13,2.188346922e-13,2.048636441e-13,2.815889281e-13,1.822075687e-13,1.303829091e-13,6.854302525e-14,3.955986707e-13,1.580420083e-13,1.916883924e-13,1.64500138e-13,8.18912931e-14,2.085690806e-13,4.490907163e-13,4.908481831e-13,3.794323482e-13,6.25745798e-13,2.963819504e-13,1.252685907e-13,3.404737274e-14,4.47769305e-13,9.990502074e-14,5.714630492e-14,1.043455979e-13,1.702223488e-13,1.009590606e-13,1.582379841e-13,1.610595821e-13,5.263955483e-14
1.1484375,8.530728345e-14,3.159403972e-13,3.207694428e-13,2.680166277e-13,2.05596472e-13,1.911406063e-13,2.59628493e-13,1.696316794e-13,1.34035265e-13,6.124654184e-14,3.781913576e-13,1.606640443e-13,1.887065362e-13,1.692589153e-13,7.932086258e-14,1.943076844e-13,4.156937696e-13,4.638329766e-13,3.670520186e-13,6.001499368e-13,2.878735983e-13,1.300151237e-13,3.263155315e-14,4.426306745e-13,9.081423738e-14,5.908138361e-14,1.037745656e-13,1.669969653e-13,1.04075088e-13,1.549194564e-13,1.589408011e-13,5.179788184e-14
1.15625,8.590336897e-14,3.115168271e-13,3.012502954e-13,2.567184103e-13,1.925245231e-13,1.775035075e-13,2.378592547e-13,1.569799199e-13,1.378747122e-13,5.466864262e-14,3.596865315e-13,1.629084451e-13,1.861304902e-13,1.732418944e-13,7.664956985e-14,1.808174164e-13,3.826966442e-13,4.372037525e-13,3.547884765e-13,5.718678036e-13,2.782046107e-13,1.347327611e-13,3.148059518e-14,4.345244507e-13,8.252524711e-14,6.096667337e-14,1.036612091e-13,1.635278605e-13,1.074384487e-13,1.520910868e-13,1.57100965e-13,5.090069046e-14
1.1640625,8.631280665e-14,3.076045207e-13,2.822116398e-13,2.450325276e-13,1.79447974e-13,1.638310912e-13,2.166940481e-13,1.442062667e-13,1.418704351e-13,4.891865349e-14,3.409489988e-13,1.645622621e-13,1.837169245e-13,1.760460912e-13,7.3794646e-14,1.683240078e-13,3.501049872e-13,4.105520426e-13,3.425899036e-13,5.411978876e-13,2.680567566e-13,1.394284119e-13,3.072048217e-14,4.247985836e-13,7.491488691e-14,6.247259787e-14,1.038243396e-13,1.599017335e-13,1.108567083e-13,1.494257643e-13,1.552612612e-13,4.98717912e-14
1.171875,8.652435321e-14,3.039155982e-13,2.640270147e-13,2.331724618e-13,1.663300965e-13,1.507465957e-13,1.968634242e-13,1.320201224e-13,1.459867969e-13,4.426791074e-14,3.227453995e-13,1.655858987e-13,1.814528142e-13,1.778529161e-13,7.089303629e-14,1.567242355e-13,3.182096061e-13,3.8400539e-13,3.307162613e-13,5.091431015e-13,2.579659301e-13,1.438592456e-13,3.045687365e-14,4.139612356e-13,6.811329961e-14,6.359297218e-14,1.040177301e-13,1.56295634e-13,1.139675167e-13,1.468734109e-13,1.531108005e-13,4.863955665e-14
1.1796875,8.644503669e-14,3.002556712e-13,2.464182289e-13,2.213352985e-13,1.535060552e-13,1.383854865e-13,1.782442566e-13,1.206982126e-13,1.501838876e-13,4.048593775e-14,3.047225344e-13,1.660505806e-13,1.792684072e-13,1.787661995e-13,6.824066114e-14,1.463366577e-13,2.87825284e-13,3.578792354e-13,3.18942958e-13,4.766663036e-13,2.478717227e-13,1.47840887e-13,3.060250441e-14,4.019131364e-13,6.206566728e-14,6.448470356e-14,1.040836223e-13,1.527211385e-13,1.167598509e-13,1.442890088e-13,1.507405111e-13,4.740337487e-14
1.1875,8.609027304e-14,2.966491963e-13,2.300835713e-13,2.095930611e-13,1.412183006e-13,1.269290472e-13,1.609679209e-13,1.10245443e-13,1.544183823e-13,3.754718226e-14,2.870893753e-13,1.658823702e-13,1.769274925e-13,1.785577254e-13,6.586652531e-14,1.375550837e-13,2.594918753e-13,3.322684633e-13,3.071408736e-13,4.44328071e-13,2.378643605e-13,1.513852315e-13,3.120068706e-14,3.89338745e-13,5.67979139e-14,6.479521477e-14,1.037452451e-13,1.490405311e-13,1.190144041e-13,1.412442257e-13,1.478779546e-13,4.626837773e-14
1.1953125,8.560885005e-14,2.933996592e-13,2.155625854e-13,1.985107525e-13,1.300189927e-13,1.168898716e-13,1.45175261e-13,1.010551181e-13,1.585402541e-13,3.548177261e-14,2.705000515e-13,1.649049098e-13,1.744185429e-13,1.774783625e-13,6.402378436e-14,1.30421848e-13,2.342006641e-13,3.079483987e-13,2.958897221e-13,4.134510663e-13,2.283045445e-13,1.545513058e-13,3.227118271e-14,3.768747591e-13,5.221397015e-14,6.459400364e-14,1.029004681e-13,1.453203002e-13,1.205776966e-13,1.376839478e-13,1.446883463e-13,4.532557732e-14
1.203125,8.511159106e-14,2.906197005e-13,2.028012598e-13,1.885527743e-13,1.200571322e-13,1.080958802e-13,1.308515676e-13,9.305932892e-14,1.624077001e-13,3.406353396e-14,2.55054355e-13,1.632648122e-13,1.720234334e-13,1.7597332e-13,6.30216403e-14,1.251540782e-13,2.129494357e-13,2.858082461e-13,2.854757248e-13,3.85292226e-13,2.193650846e-13,1.573575427e-13,3.366762117e-14,3.637527378e-13,4.815886753e-14,6.442132663e-14,1.017958208e-13,1.417174093e-13,1.218157972e-13,1.338835654e-13,1.417281421e-13,4.468926613e-14
1.2109375,8.450927584e-14,2.88190406e-13,1.920213933e-13,1.797168606e-13,1.111492144e-13,1.005087851e-13,1.180500056e-13,8.634842334e-14,1.662004771e-13,3.344427547e-14,2.404966694e-13,1.613457716e-13,1.698645411e-13,1.741935463e-13,6.274989581e-14,1.218159044e-13,1.958864457e-13,2.657407343e-13,2.756352367e-13,3.60079634e-13,2.10956538e-13,1.598506387e-13,3.534822528e-14,3.501234015e-13,4.48453158e-14,6.421706425e-14,1.005935694e-13,1.38486738e-13,1.22875898e-13,1.300304802e-13,1.389568102e-13,4.444496072e-14
1.21875,8.360879894e-14,2.861295377e-13,1.837992905e-13,1.720072743e-13,1.034103601e-13,9.458569828e-14,1.070664136e-13,8.126354332e-14,1.702306631e-13,3.36897091e-14,2.263770443e-13,1.591796655e-13,1.677354632e-13,1.722789128e-13,6.295177553e-14,1.202645816e-13,1.832562518e-13,2.474306338e-13,2.664885383e-13,3.387074699e-13,2.030813101e-13,1.621356346e-13,3.741340443e-14,3.369282099e-13,4.235250071e-14,6.378627382e-14,9.924795776e-14,1.356212522e-13,1.236631158e-13,1.261036687e-13,1.362358828e-13,4.467002626e-14
1.2265625,8.228275004e-14,2.84404249e-13,1.784553543e-13,1.655196788e-13,9.689232597e-14,9.038472717e-14,9.787173307e-14,7.784014326e-14,1.744660023e-13,3.44955824e-14,2.12674847e-13,1.565997247e-13,1.652911243e-13,1.70124719e-13,6.349838549e-14,1.202542294e-13,1.748642102e-13,2.308390428e-13,2.583078298e-13,3.22298886e-13,1.960700734e-13,1.640439589e-13,3.976809794e-14,3.23738156e-13,4.04457454e-14,6.319436042e-14,9.740386699e-14,1.326970163e-13,1.240941043e-13,1.216817394e-13,1.335279992e-13,4.534145114e-14
1.234375,8.055722279e-14,2.828892659e-13,1.755275139e-13,1.60185407e-13,9.165919042e-14,8.755163553e-14,8.976932385e-14,7.605450968e-14,1.786825478e-13,3.588495188e-14,1.997579778e-13,1.537344135e-13,1.623211118e-13,1.67508047e-13,6.438412752e-14,1.213517919e-13,1.700844174e-13,2.155200144e-13,2.506361439e-13,3.102276195e-13,1.901359251e-13,1.653627524e-13,4.216084771e-14,3.111541131e-13,3.900796664e-14,6.248151728e-14,9.495998975e-14,1.298164954e-13,1.240197625e-13,1.167266278e-13,1.307425632e-13,4.653154476e-14
1.2421875,7.854354005e-14,2.813303012e-13,1.743442638e-13,1.558261681e-13,8.770162616e-14,8.598450351e-14,8.273907949e-14,7.573994684e-14,1.827195333e-13,3.796655058e-14,1.874401335e-13,1.506947257e-13,1.588548107e-13,1.644286656e-13,6.559787559e-14,1.235581627e-13,1.687433544e-13,2.009968413e-13,2.429273515e-13,3.019843969e-13,1.852225147e-13,1.66132416e-13,4.447261823e-14,2.995157961e-13,3.808992502e-14,6.15798735e-14,9.213299432e-14,1.271691005e-13,1.2340156e-13,1.116011501e-13,1.278208079e-13,4.822571031e-14
1.25,7.620393903e-14,2.792518597e-13,1.749491418e-13,1.523001483e-13,8.49142903e-14,8.570280206e-14,7.705259069e-14,7.680197621e-14,1.867105558e-13,4.051583342e-14,1.755610217e-13,1.473694627e-13,1.549926152e-13,1.608043393e-13,6.719215787e-14,1.271546198e-13,1.707512013e-13,1.873582249e-13,2.35402273e-13,2.980367321e-13,1.812433232e-13,1.664247325e-13,4.680283947e-14,2.883349165e-13,3.767931575e-14,6.045253676e-14,8.88081629e-14,1.244797206e-13,1.221901283e-13,1.062362751e-13,1.246140355e-13,5.046248504e-14
1.2578125,7.357573624e-14,2.766328193e-13,1.778205155e-13,1.495608678e-13,8.334567845e-14,8.662875269e-14,7.256326802e-14,7.913662757e-14,1.908207676e-13,4.349151887e-14,1.645096664e-13,1.436619585e-13,1.508501177e-13,1.566816871e-13,6.929325338e-14,1.320848034e-13,1.760545185e-13,1.747101196e-13,2.285133573e-13,2.987998274e-13,1.783455836e-13,1.66270312e-13,4.931019745e-14,2.784928014e-13,3.762309778e-14,5.929408644e-14,8.498896102e-14,1.216028688e-13,1.202354732e-13,1.005233899e-13,1.211177852e-13,5.35062222e-14
1.265625,7.083379457e-14,2.736986714e-13,1.829765133e-13,1.476474365e-13,8.30121012e-14,8.864937927e-14,6.920454673e-14,8.266491064e-14,1.947591178e-13,4.708987299e-14,1.544629762e-13,1.397100221e-13,1.464200983e-13,1.52374636e-13,7.198647562e-14,1.38206058e-13,1.845624532e-13,1.628620564e-13,2.22164126e-13,3.047533392e-13,1.766000768e-13,1.654810489e-13,5.184200128e-14,2.704317063e-13,3.793981787e-14,5.817999609e-14,8.078258812e-14,1.186271127e-13,1.174627194e-13,9.458860408e-14,1.175002451e-13,5.720612175e-14
1.2734375,6.799742531e-14,2.702402421e-13,1.896347712e-13,1.463955183e-13,8.379916689e-14,9.135806267e-14,6.673942567e-14,8.734257828e-14,1.985164096e-13,5.104193954e-14,1.452112178e-13,1.3583002e-13,1.417083137e-13,1.48177028e-13,7.519386632e-14,1.454676178e-13,1.959717868e-13,1.516824468e-13,2.159004064e-13,3.148613506e-13,1.755138601e-13,1.640115725e-13,5.416352745e-14,2.643327984e-13,3.872892501e-14,5.699121413e-14,7.632140018e-14,1.158256944e-13,1.140010547e-13,8.869451019e-14,1.137410119e-13,6.129653823e-14
1.28125,6.50484613e-14,2.662645411e-13,1.970380474e-13,1.456705657e-13,8.571220585e-14,9.449389082e-14,6.488556532e-14,9.279469163e-14,2.023322897e-13,5.495446362e-14,1.366356891e-13,1.319131283e-13,1.36986655e-13,1.44125253e-13,7.874464684e-14,1.536915642e-13,2.096780133e-13,1.413490605e-13,2.096323239e-13,3.277024994e-13,1.749082388e-13,1.621405712e-13,5.633257932e-14,2.598157972e-13,3.98888852e-14,5.577315285e-14,7.174417573e-14,1.131381775e-13,1.099599224e-13,8.287519864e-14,1.097810498e-13,6.588427152e-14
1.2890625,6.217946037e-14,2.620602951e-13,2.049519331e-13,1.454639862e-13,8.8801422e-14,9.792879853e-14,6.366681954e-14,9.880405594e-14,2.058514311e-13,5.892838853e-14,1.289429293e-13,1.277367924e-13,1.325690273e-13,1.40101173e-13,8.249830516e-14,1.623600074e-13,2.245641679e-13,1.321806465e-13,2.036082099e-13,3.430058947e-13,1.750601517e-13,1.598779496e-13,5.831344843e-14,2.570000232e-13,4.140537346e-14,5.464046989e-14,6.689944849e-14,1.104838891e-13,1.053168038e-13,7.688680444e-14,1.05716254e-13,7.09415317e-14
1.296875,5.961016713e-14,2.577693686e-13,2.129314288e-13,1.45594918e-13,9.282963959e-14,1.014512367e-13,6.318538476e-14,1.052061625e-13,2.088869045e-13,6.300398865e-14,1.220635857e-13,1.237814438e-13,1.288495956e-13,1.366836398e-13,8.61620551e-14,1.706894337e-13,2.397343436e-13,1.243456288e-13,1.980363802e-13,3.597461095e-13,1.759277969e-13,1.572463263e-13,5.985593075e-14,2.571764085e-13,4.336392907e-14,5.365291331e-14,6.205474616e-14,1.084318272e-13,1.005122891e-13,7.106536365e-14,1.018106598e-13,7.620957711e-14
1.3046875,5.723423351e-14,2.535752283e-13,2.207723378e-13,1.460524162e-13,9.764226897e-14,1.050577172e-13,6.333418002e-14,1.118177657e-13,2.11821254e-13,6.710516466e-14,1.154089952e-13,1.206119619e-13,1.259903983e-13,1.345181424e-13,8.972568254e-14,1.783916267e-13,2.551729902e-13,1.177230806e-13,1.928874512e-13,3.774587618e-13,1.773960425e-13,1.543633253e-13,6.088917461e-14,2.593637106e-13,4.578791442e-14,5.287781172e-14,5.760781785e-14,1.072751155e-13,9.607329678e-14,6.596894165e-14,9.841136607e-14,8.162612009e-14
1.3125,5.498595607e-14,2.493832867e-13,2.285875593e-13,1.467086266e-13,1.030755641e-13,1.084456008e-13,6.401338136e-14,1.186895753e-13,2.147676305e-13,7.142173566e-14,1.088116279e-13,1.182754382e-13,1.237940197e-13,1.332229396e-13,9.333479564e-14,1.857486897e-13,2.709065174e-13,1.12058017e-13,1.878610283e-13,3.958086395e-13,1.792573043e-13,1.510366184e-13,6.145082905e-14,2.631004151e-13,4.867927164e-14,5.225795768e-14,5.351544258e-14,1.068524276e-13,9.185491598e-14,6.158601085e-14,9.54014332e-14,8.714324015e-14
1.3203125,5.302752443e-14,2.448136586e-13,2.360012158e-13,1.471897553e-13,1.088006598e-13,1.113883718e-13,6.532693178e-14,1.253965054e-13,2.175035985e-13,7.580571164e-14,1.022360379e-13,1.166429373e-13,1.2241372e-13,1.325913974e-13,9.662581446e-14,1.92627871e-13,2.86433159e-13,1.073500338e-13,1.828484564e-13,4.133384881e-13,1.810940412e-13,1.471564742e-13,6.139102316e-14,2.68788188e-13,5.193021509e-14,5.160898814e-14,4.978367181e-14,1.068945592e-13,8.770783665e-14,5.774379762e-14,9.247784236e-14,9.250252651e-14
1.328125,5.143033788e-14,2.397538064e-13,2.427863442e-13,1.474584295e-13,1.147752338e-13,1.139807367e-13,6.726712016e-14,1.315556745e-13,2.198322921e-13,8.000852856e-14,9.540464489e-14,1.156055164e-13,1.218537976e-13,1.32863586e-13,9.954989334e-14,1.987292182e-13,3.013834471e-13,1.036590762e-13,1.778933173e-13,4.297488281e-13,1.827367582e-13,1.427649207e-13,6.058185006e-14,2.755671769e-13,5.540857218e-14,5.092175409e-14,4.643320203e-14,1.071285667e-13,8.371541109e-14,5.441280458e-14,8.976117936e-14,9.751504101e-14
1.3359375,5.018447356e-14,2.343475813e-13,2.489688263e-13,1.474671951e-13,1.208098976e-13,1.159754608e-13,6.974877451e-14,1.373122036e-13,2.215246391e-13,8.445748668e-14,8.869491744e-14,1.149976471e-13,1.216778538e-13,1.337371659e-13,1.023663883e-13,2.041703338e-13,3.153431598e-13,1.009292983e-13,1.72917664e-13,4.444489809e-13,1.844471972e-13,1.378640718e-13,5.925693345e-14,2.835756218e-13,5.906050919e-14,5.024235151e-14,4.341530791e-14,1.075580847e-13,7.984291036e-14,5.152509221e-14,8.72717336e-14,1.019784843e-13
1.34375,4.915887976e-14,2.288323627e-13,2.545330942e-13,1.471431015e-13,1.26845779e-13,1.17356153e-13,7.279460492e-14,1.42457079e-13,2.225331452e-13,8.917598917e-14,8.248887037e-14,1.146678538e-13,1.219817496e-13,1.350609697e-13,1.049134963e-13,2.090764611e-13,3.27763778e-13,9.926602023e-14,1.680555947e-13,4.565750868e-13,1.864979201e-13,1.325835186e-13,5.776292804e-14,2.926317766e-13,6.296328281e-14,4.95449781e-14,4.072574375e-14,1.081638139e-13,7.615417131e-14,4.91141567e-14,8.497150936e-14,1.059245179e-13
1.3515625,4.8443972e-14,2.231791445e-13,2.596243196e-13,1.464647159e-13,1.331089362e-13,1.181261196e-13,7.664476509e-14,1.468952687e-13,2.231268402e-13,9.369759708e-14,7.666510027e-14,1.146081659e-13,1.229810837e-13,1.36990444e-13,1.072247278e-13,2.137773359e-13,3.390244647e-13,9.880306281e-14,1.63444735e-13,4.668455879e-13,1.887415801e-13,1.269587636e-13,5.611092572e-14,3.022648326e-13,6.728265244e-14,4.889724115e-14,3.844736619e-14,1.08957152e-13,7.266686306e-14,4.73655564e-14,8.297595994e-14,1.096010653e-13
1.359375,4.828089152e-14,2.16928825e-13,2.641570359e-13,1.450362618e-13,1.391178509e-13,1.178099139e-13,8.154232337e-14,1.50738245e-13,2.233463038e-13,9.803032166e-14,7.127907867e-14,1.146751307e-13,1.243949378e-13,1.390185711e-13,1.094740842e-13,2.187050571e-13,3.49500937e-13,9.951121307e-14,1.587827398e-13,4.746366777e-13,1.907705981e-13,1.209074708e-13,5.427234443e-14,3.118740835e-13,7.194550722e-14,4.831638335e-14,3.663944106e-14,1.098605377e-13,6.916188254e-14,4.618209992e-14,8.106495908e-14,1.128291332e-13
1.3671875,4.845303818e-14,2.098926906e-13,2.678180846e-13,1.426647484e-13,1.444354349e-13,1.164389262e-13,8.729301579e-14,1.536402533e-13,2.229490309e-13,1.021666631e-13,6.618927364e-14,1.14587006e-13,1.261179031e-13,1.406894073e-13,1.115993636e-13,2.23720411e-13,3.585193884e-13,1.011480537e-13,1.537217816e-13,4.784470034e-13,1.921512357e-13,1.145023203e-13,5.238911868e-14,3.210972276e-13,7.690001302e-14,4.780985208e-14,3.519160348e-14,1.107233951e-13,6.549933967e-14,4.538033767e-14,7.901600064e-14,1.154832456e-13
1.375,4.875773288e-14,2.023027562e-13,2.707245152e-13,1.395455051e-13,1.491115854e-13,1.14407744e-13,9.36594131e-14,1.556216827e-13,2.218418878e-13,1.064187938e-13,6.122835899e-14,1.14362826e-13,1.281551448e-13,1.422390644e-13,1.136804157e-13,2.286231926e-13,3.65825321e-13,1.035633542e-13,1.483576352e-13,4.786452269e-13,1.929905354e-13,1.077740651e-13,5.042551283e-14,3.310158743e-13,8.242427435e-14,4.728963789e-14,3.395799926e-14,1.118350519e-13,6.17274599e-14,4.505043644e-14,7.684820843e-14,1.174879079e-13
1.3828125,4.939789078e-14,1.943224319e-13,2.732447894e-13,1.357277704e-13,1.527834625e-13,1.117746457e-13,1.009546643e-13,1.569367044e-13,2.200173976e-13,1.112043269e-13,5.671861327e-14,1.141588106e-13,1.303789874e-13,1.438684446e-13,1.158793122e-13,2.334538298e-13,3.717074964e-13,1.069166862e-13,1.430685333e-13,4.75447621e-13,1.939222322e-13,1.008276383e-13,4.854192501e-14,3.403043394e-13,8.848187387e-14,4.647895112e-14,3.287624151e-14,1.132031668e-13,5.795462685e-14,4.526107253e-14,7.451389729e-14,1.184977775e-13
1.390625,5.051119233e-14,1.860689729e-13,2.752501189e-13,1.313100498e-13,1.552179652e-13,1.085764864e-13,1.095029611e-13,1.574479484e-13,2.173478095e-13,1.161057161e-13,5.297867391e-14,1.138933154e-13,1.328125302e-13,1.455793536e-13,1.184316365e-13,2.38107154e-13,3.761197388e-13,1.113633952e-13,1.380963014e-13,4.684480941e-13,1.948665599e-13,9.394121473e-14,4.713895354e-14,3.471664723e-13,9.470669781e-14,4.541670991e-14,3.206276499e-14,1.144526959e-13,5.424860196e-14,4.587121611e-14,7.204078022e-14,1.185566606e-13
1.3984375,5.190800881e-14,1.776552674e-13,2.764322127e-13,1.263919488e-13,1.56611132e-13,1.048647184e-13,1.188345977e-13,1.571490753e-13,2.13680574e-13,1.207296558e-13,4.992509601e-14,1.133853009e-13,1.353636185e-13,1.473080042e-13,1.215977863e-13,2.425510956e-13,3.790848671e-13,1.170116613e-13,1.333749263e-13,4.578973282e-13,1.953994623e-13,8.714829452e-14,4.617298062e-14,3.524147428e-13,1.011991892e-13,4.427402424e-14,3.160543803e-14,1.156177668e-13,5.060262381e-14,4.672258046e-14,6.948558772e-14,1.177764942e-13
1.40625,5.344376302e-14,1.690645777e-13,2.766570504e-13,1.208758116e-13,1.569452606e-13,1.005212157e-13,1.284294007e-13,1.56030066e-13,2.091277059e-13,1.250063877e-13,4.746892923e-14,1.126619859e-13,1.378564483e-13,1.491704037e-13,1.253808886e-13,2.467829368e-13,3.806854447e-13,1.233819879e-13,1.285442499e-13,4.438587465e-13,1.954550054e-13,8.041190098e-14,4.557274604e-14,3.560668773e-13,1.081685581e-13,4.301673741e-14,3.14748092e-14,1.16707521e-13,4.701944421e-14,4.799169618e-14,6.678032273e-14,1.161263542e-13
1.4140625,5.513914989e-14,1.602770016e-13,2.758852277e-13,1.148128067e-13,1.561614838e-13,9.541783681e-14,1.381357147e-13,1.540443404e-13,2.038712998e-13,1.291322745e-13,4.582570395e-14,1.11757561e-13,1.400759896e-13,1.512536924e-13,1.298098713e-13,2.506375356e-13,3.809175402e-13,1.295913053e-13,1.233491622e-13,4.267342663e-13,1.948777437e-13,7.388591603e-14,4.557162983e-14,3.57644553e-13,1.153694923e-13,4.163507882e-14,3.169057587e-14,1.1756787e-13,4.351426842e-14,4.979033152e-14,6.389684808e-14,1.138180598e-13
1.421875,5.702500753e-14,1.514697176e-13,2.747481751e-13,1.08405013e-13,1.543713044e-13,8.985384285e-14,1.479205248e-13,1.514529171e-13,1.978664349e-13,1.335446873e-13,4.500199376e-14,1.106731338e-13,1.417550223e-13,1.53732947e-13,1.352409696e-13,2.544190721e-13,3.80149973e-13,1.359623832e-13,1.182364143e-13,4.07633339e-13,1.942608977e-13,6.768717833e-14,4.629471102e-14,3.574617445e-13,1.228736703e-13,4.009915533e-14,3.232218523e-14,1.184242893e-13,4.016148342e-14,5.196134719e-14,6.09186853e-14,1.107929136e-13
1.4296875,5.924951058e-14,1.428089225e-13,2.737635753e-13,1.017326613e-13,1.517140553e-13,8.435427743e-14,1.581894999e-13,1.484709076e-13,1.912653384e-13,1.379569344e-13,4.515312467e-14,1.096790882e-13,1.430773733e-13,1.574495358e-13,1.422491044e-13,2.588103674e-13,3.788559336e-13,1.432646776e-13,1.137599824e-13,3.870964735e-13,1.943674124e-13,6.19727626e-14,4.784027696e-14,3.560119901e-13,1.311338874e-13,3.848309071e-14,3.347099191e-14,1.194403899e-13,3.7055e-14,5.467132796e-14,5.792703714e-14,1.069523829e-13
1.4375,6.160369865e-14,1.34173274e-13,2.721879152e-13,9.475481994e-14,1.481220288e-13,7.880346509e-14,1.685137206e-13,1.448964637e-13,1.842830689e-13,1.416840873e-13,4.636650092e-14,1.087831424e-13,1.441362113e-13,1.625272169e-13,1.509598391e-13,2.637816438e-13,3.767436642e-13,1.510841377e-13,1.096864055e-13,3.650881265e-13,1.945600627e-13,5.698022669e-14,5.020198021e-14,3.52917138e-13,1.400304937e-13,3.689422999e-14,3.511477343e-14,1.202910567e-13,3.414257784e-14,5.796103661e-14,5.484032706e-14,1.026202731e-13
1.4453125,6.376490469e-14,1.255768311e-13,2.697506988e-13,8.752929215e-14,1.435230086e-13,7.296316152e-14,1.781347599e-13,1.405317625e-13,1.768277665e-13,1.447211768e-13,4.836743649e-14,1.077948182e-13,1.446312199e-13,1.686454038e-13,1.612245915e-13,2.69029738e-13,3.735747287e-13,1.59013984e-13,1.057659796e-13,3.422153978e-13,1.945421055e-13,5.270699301e-14,5.336936087e-14,3.471730366e-13,1.492600434e-13,3.530077357e-14,3.732408263e-14,1.208172435e-13,3.145786654e-14,6.155935165e-14,5.163535111e-14,9.787463515e-14
1.453125,6.594625195e-14,1.172588679e-13,2.673101845e-13,8.026689061e-14,1.38283399e-13,6.712395243e-14,1.876471966e-13,1.357058776e-13,1.691027532e-13,1.474296764e-13,5.137933258e-14,1.069442216e-13,1.446850311e-13,1.760774219e-13,1.73268712e-13,2.747482591e-13,3.698400973e-13,1.672910767e-13,1.022132746e-13,3.196456888e-13,1.950370051e-13,4.913169739e-14,5.753548549e-14,3.400282682e-13,1.58779923e-13,3.380991204e-14,4.021982669e-14,1.212580973e-13,2.908347762e-14,6.547134203e-14,4.84978313e-14,9.264925988e-14
1.4609375,6.809866805e-14,1.092432358e-13,2.647406881e-13,7.308062638e-14,1.325827766e-13,6.139448558e-14,1.968141757e-13,1.305884963e-13,1.613602922e-13,1.495773787e-13,5.530913158e-14,1.063729778e-13,1.444337301e-13,1.845402348e-13,1.869420439e-13,2.806850305e-13,3.652143752e-13,1.753964806e-13,9.891435275e-14,2.974611161e-13,1.961430437e-13,4.648285518e-14,6.270564419e-14,3.32868972e-13,1.684286302e-13,3.248569775e-14,4.363986488e-14,1.216159509e-13,2.697334467e-14,6.976567826e-14,4.547676523e-14,8.719903379e-14
1.46875,6.987496413e-14,1.016253031e-13,2.612836709e-13,6.61307658e-14,1.263490491e-13,5.572948795e-14,2.046449535e-13,1.249592299e-13,1.53331296e-13,1.505973871e-13,6.019055895e-14,1.059992153e-13,1.435399049e-13,1.938499004e-13,2.021328616e-13,2.864127541e-13,3.592350864e-13,1.824387895e-13,9.565523759e-14,2.757538731e-13,1.977210828e-13,4.48422083e-14,6.89158617e-14,3.248167771e-13,1.781905889e-13,3.128149381e-14,4.762471302e-14,1.216590968e-13,2.519835397e-14,7.449982862e-14,4.256811112e-14,8.171429474e-14
1.4765625,7.130531272e-14,9.458519763e-14,2.570637533e-13,5.968163996e-14,1.198765472e-13,5.025467653e-14,2.113576211e-13,1.190247135e-13,1.451036479e-13,1.508276681e-13,6.627860288e-14,1.058450231e-13,1.419697447e-13,2.040188547e-13,2.189936689e-13,2.921566005e-13,3.525576532e-13,1.88386709e-13,9.25757537e-14,2.556617747e-13,1.997994713e-13,4.415803783e-14,7.61612317e-14,3.161198853e-13,1.879828904e-13,3.03274125e-14,5.235940962e-14,1.215110146e-13,2.378489354e-14,7.978417333e-14,3.986329623e-14,7.632665477e-14
1.484375,7.241329663e-14,8.796197235e-14,2.521827282e-13,5.364675614e-14,1.134403932e-13,4.495215966e-14,2.170856831e-13,1.130727768e-13,1.370532562e-13,1.507010402e-13,7.292747117e-14,1.059268888e-13,1.39871897e-13,2.147268012e-13,2.37066719e-13,2.978935877e-13,3.45573801e-13,1.93397369e-13,8.962656211e-14,2.375260763e-13,2.022579057e-13,4.44747113e-14,8.427260415e-14,3.074830283e-13,1.97388089e-13,2.982560236e-14,5.775913851e-14,1.211551423e-13,2.259313118e-14,8.551457069e-14,3.738212181e-14,7.134553242e-14
1.4921875,7.296770646e-14,8.169090331e-14,2.461977555e-13,4.790558627e-14,1.071213859e-13,3.98587241e-14,2.213975985e-13,1.06977566e-13,1.289554168e-13,1.494764289e-13,8.010607108e-14,1.062177278e-13,1.369848914e-13,2.260783307e-13,2.563936143e-13,3.035806261e-13,3.38559761e-13,1.972460124e-13,8.660975394e-14,2.212134462e-13,2.05192897e-13,4.575940433e-14,9.333958341e-14,2.979411822e-13,2.063811098e-13,2.982070437e-14,6.375071102e-14,1.201177937e-13,2.158274295e-14,9.156164343e-14,3.520368159e-14,6.681366519e-14
1.5,7.294090164e-14,7.604535929e-14,2.390288172e-13,4.270791401e-14,1.010105542e-13,3.513077314e-14,2.241286571e-13,1.007715136e-13,1.207440173e-13,1.472760759e-13,8.786419838e-14,1.067942346e-13,1.333166015e-13,2.378930076e-13,2.772072917e-13,3.095981338e-13,3.319205995e-13,1.997741118e-13,8.365214942e-14,2.06735298e-13,2.086394592e-13,4.791714553e-14,1.031112448e-13,2.882393629e-13,2.150738872e-13,3.018942475e-14,7.032721472e-14,1.185850804e-13,2.086830905e-14,9.803680699e-14,3.342598776e-14,6.247667325e-14
1.5078125,7.252046759e-14,7.113700806e-14,2.312108001e-13,3.814728554e-14,9.52005975e-14,3.076979254e-14,2.256678591e-13,9.481324724e-14,1.128511285e-13,1.453649901e-13,9.586338532e-14,1.078822614e-13,1.292302679e-13,2.499708418e-13,2.99080455e-13,3.16174453e-13,3.25771487e-13,2.0122818e-13,8.104803527e-14,1.94200708e-13,2.126726831e-13,5.090439135e-14,1.134076499e-13,2.799437883e-13,2.233984058e-13,3.093724222e-14,7.749466672e-14,1.169844234e-13,2.053120501e-14,1.050242543e-13,3.201901401e-14,5.839515243e-14
1.515625,7.167903473e-14,6.674202188e-14,2.229472745e-13,3.402902455e-14,8.969855811e-14,2.677467001e-14,2.262356534e-13,8.918433482e-14,1.053546486e-13,1.433532044e-13,1.04385644e-13,1.094631314e-13,1.248268843e-13,2.624950998e-13,3.220856521e-13,3.238412288e-13,3.206728488e-13,2.019087326e-13,7.873210995e-14,1.841029518e-13,2.173905375e-13,5.465771827e-14,1.245096726e-13,2.720539694e-13,2.317085852e-13,3.211124839e-14,8.525935323e-14,1.151204646e-13,2.050156169e-14,1.124208905e-13,3.09302939e-14,5.468621167e-14
1.5234375,7.032971616e-14,6.257317939e-14,2.135460378e-13,3.025428913e-14,8.44964793e-14,2.31513774e-14,2.252742153e-13,8.354770006e-14,9.814422189e-14,1.404462835e-13,1.132766452e-13,1.113419658e-13,1.201681034e-13,2.750990343e-13,3.462531683e-13,3.329609951e-13,3.164686958e-13,2.013023704e-13,7.62446521e-14,1.761630836e-13,2.224864254e-13,5.907497836e-14,1.361297264e-13,2.646230432e-13,2.401856217e-13,3.371143117e-14,9.352598101e-14,1.131380604e-13,2.078649547e-14,1.201461781e-13,3.016912855e-14,5.130001781e-14
1.53125,6.851249e-14,5.860400381e-14,2.028364027e-13,2.68730301e-14,7.985985543e-14,1.984566748e-14,2.228206829e-13,7.780595276e-14,9.132815969e-14,1.371665259e-13,1.226327636e-13,1.135956971e-13,1.153283723e-13,2.87499399e-13,3.712704617e-13,3.433977651e-13,3.125600049e-13,1.988901726e-13,7.365601875e-14,1.700761319e-13,2.281286135e-13,6.420319973e-14,1.481654307e-13,2.590026172e-13,2.485026902e-13,3.598635996e-14,1.022311194e-13,1.114351448e-13,2.146020566e-14,1.282429163e-13,2.988947514e-14,4.848419747e-14
1.5390625,6.632714571e-14,5.495890644e-14,1.917461145e-13,2.391524828e-14,7.588043249e-14,1.686500504e-14,2.196945053e-13,7.22083139e-14,8.491357667e-14,1.335245653e-13,1.328430348e-13,1.162681051e-13,1.10381132e-13,2.99526297e-13,3.969699366e-13,3.554118522e-13,3.096908581e-13,1.954280642e-13,7.152144526e-14,1.662980323e-13,2.343199155e-13,7.005364254e-14,1.608153133e-13,2.542333278e-13,2.564915449e-13,3.901557084e-14,1.113643606e-13,1.098486864e-13,2.249337603e-14,1.367438009e-13,3.018672223e-14,4.637337561e-14
1.546875,6.378770669e-14,5.159703298e-14,1.806490343e-13,2.136292827e-14,7.231377618e-14,1.428979116e-14,2.160720652e-13,6.679156546e-14,7.879891119e-14,1.293712862e-13,1.433557518e-13,1.191505751e-13,1.053939041e-13,3.103223631e-13,4.225801265e-13,3.688310418e-13,3.079764192e-13,1.912768802e-13,6.972932104e-14,1.647064437e-13,2.402447361e-13,7.630681997e-14,1.735744217e-13,2.498737995e-13,2.638079297e-13,4.261550578e-14,1.207898634e-13,1.080903807e-13,2.385693471e-14,1.454583375e-13,3.09650548e-14,4.479635668e-14
1.5546875,6.082051237e-14,4.84961722e-14,1.693978413e-13,1.930402574e-14,6.927494778e-14,1.219232535e-14,2.116325498e-13,6.152231608e-14,7.306222959e-14,1.252444653e-13,1.540395407e-13,1.220768948e-13,1.002068018e-13,3.194087605e-13,4.476686278e-13,3.834298268e-13,3.070091293e-13,1.856996505e-13,6.801649515e-14,1.652713008e-13,2.460963338e-13,8.278545586e-14,1.861831067e-13,2.467934345e-13,2.704441217e-13,4.681772788e-14,1.304087909e-13,1.062833178e-13,2.552467374e-14,1.543290482e-13,3.222283088e-14,4.377748997e-14
1.5625,5.765632234e-14,4.570772073e-14,1.583889871e-13,1.772069995e-14,6.689180155e-14,1.049928325e-14,2.067065329e-13,5.655852846e-14,6.783366636e-14,1.211629462e-13,1.650982573e-13,1.249956136e-13,9.488502722e-14,3.269079985e-13,4.723560898e-13,3.996796339e-13,3.076945171e-13,1.791552937e-13,6.672377878e-14,1.682012718e-13,2.522430239e-13,8.95863294e-14,1.986730305e-13,2.448240476e-13,2.768269267e-13,5.160289199e-14,1.402717606e-13,1.046626236e-13,2.746673072e-14,1.636416686e-13,3.396712004e-14,4.330867532e-14
1.5703125,5.446376549e-14,4.304917369e-14,1.478801858e-13,1.637609077e-14,6.497227357e-14,9.150147262e-15,2.020234954e-13,5.195381346e-14,6.313947436e-14,1.171392318e-13,1.75841606e-13,1.278042242e-13,8.979507263e-14,3.324262604e-13,4.958057427e-13,4.173159893e-13,3.103591846e-13,1.726308884e-13,6.588988183e-14,1.728695862e-13,2.576518588e-13,9.660877066e-14,2.10513569e-13,2.439780527e-13,2.82492917e-13,5.694557756e-14,1.502521013e-13,1.031258974e-13,2.967958447e-14,1.73460736e-13,3.613390174e-14,4.331535313e-14
1.578125,5.118310012e-14,4.036103899e-14,1.376017902e-13,1.526413046e-14,6.368184419e-14,8.226553105e-15,1.973883484e-13,4.772021166e-14,5.90652257e-14,1.136513857e-13,1.856482116e-13,1.304244912e-13,8.499754841e-14,3.358836063e-13,5.174754977e-13,4.359922867e-13,3.144674797e-13,1.655882426e-13,6.51578973e-14,1.788317738e-13,2.62055738e-13,1.036426027e-13,2.213337129e-13,2.445134491e-13,2.871971477e-13,6.301996128e-14,1.601707589e-13,1.015807706e-13,3.220480944e-14,1.836465063e-13,3.885962353e-14,4.386032048e-14
1.5859375,4.80173003e-14,3.783978599e-14,1.274790332e-13,1.448704582e-14,6.329924301e-14,7.722278123e-15,1.921617026e-13,4.39465983e-14,5.559673237e-14,1.107084647e-13,1.946060345e-13,1.329980319e-13,8.035120947e-14,3.381330219e-13,5.379482507e-13,4.56155016e-13,3.203452024e-13,1.575739067e-13,6.465738111e-14,1.864969003e-13,2.662199273e-13,1.106036251e-13,2.311905913e-13,2.460652807e-13,2.914032818e-13,6.984651098e-14,1.700938687e-13,1.001988146e-13,3.514112857e-14,1.941620704e-13,4.229373231e-14,4.491153556e-14
1.59375,4.512385514e-14,3.567630338e-14,1.180142798e-13,1.3909727e-14,6.367663505e-14,7.638301605e-15,1.866295481e-13,4.060947665e-14,5.253507634e-14,1.081870951e-13,2.031061795e-13,1.356270359e-13,7.597858851e-14,3.396933798e-13,5.575985243e-13,4.783273718e-13,3.290845081e-13,1.492341773e-13,6.461291252e-14,1.963883038e-13,2.696493804e-13,1.17413136e-13,2.399410314e-13,2.484850671e-13,2.950897893e-13,7.738882483e-14,1.799771741e-13,9.913216165e-14,3.847522856e-14,2.049757223e-13,4.639143116e-14,4.645381767e-14
1.6015625,4.243348635e-14,3.376731999e-14,1.096994893e-13,1.350565251e-14,6.472793544e-14,8.087308413e-15,1.812858618e-13,3.766602861e-14,4.986773815e-14,1.06221267e-13,2.111150175e-13,1.380428199e-13,7.200286182e-14,3.4038221e-13,5.762031012e-13,5.027280749e-13,3.412735935e-13,1.409218248e-13,6.490201558e-14,2.085008743e-13,2.71605447e-13,1.238631696e-13,2.472221444e-13,2.520549526e-13,2.98070402e-13,8.570632151e-14,1.895406931e-13,9.83504213e-14,4.207887936e-14,2.158461746e-13,5.120883384e-14,4.854599269e-14
1.609375,3.999837451e-14,3.201388643e-14,1.024730846e-13,1.338831595e-14,6.660822456e-14,9.059133452e-15,1.758963331e-13,3.513863244e-14,4.760585722e-14,1.04805928e-13,2.180532876e-13,1.400266621e-13,6.833989333e-14,3.402331104e-13,5.932753764e-13,5.289007269e-13,3.566250459e-13,1.326805236e-13,6.565200349e-14,2.224445322e-13,2.723125026e-13,1.298127963e-13,2.529472202e-13,2.563227247e-13,3.001871618e-13,9.47508057e-14,1.987931399e-13,9.762252749e-14,4.600099399e-14,2.264231194e-13,5.686330943e-14,5.114712276e-14
1.6171875,3.808417932e-14,3.050757444e-14,9.629607643e-14,1.346711753e-14,6.922260971e-14,1.047427268e-14,1.706597253e-13,3.300806031e-14,4.567507725e-14,1.037127961e-13,2.241104288e-13,1.418401251e-13,6.520344468e-14,3.398194685e-13,6.088587671e-13,5.566303144e-13,3.75105592e-13,1.249440464e-13,6.703712896e-14,2.379028906e-13,2.717636177e-13,1.353319757e-13,2.573824238e-13,2.609290854e-13,3.016176167e-13,1.043641411e-13,2.080141399e-13,9.69433117e-14,5.038621569e-14,2.367443376e-13,6.322453087e-14,5.422475317e-14
1.625,3.670049481e-14,2.924553479e-14,9.114609674e-14,1.363190385e-14,7.238783615e-14,1.237936917e-14,1.659598921e-13,3.118117129e-14,4.414484726e-14,1.026862807e-13,2.297441347e-13,1.436475273e-13,6.275791663e-14,3.392870132e-13,6.231706469e-13,5.860004597e-13,3.96536948e-13,1.179111626e-13,6.877595384e-14,2.546070231e-13,2.697191254e-13,1.402984266e-13,2.604442294e-13,2.668546856e-13,3.027375861e-13,1.144238665e-13,2.170703739e-13,9.664049625e-14,5.51520367e-14,2.469790313e-13,7.014228719e-14,5.769683953e-14
1.6328125,3.569528221e-14,2.817769372e-14,8.691243755e-14,1.395009828e-14,7.622873527e-14,1.484252839e-14,1.611617684e-13,2.959636086e-14,4.295714601e-14,1.020041784e-13,2.347497151e-13,1.453013899e-13,6.072879767e-14,3.383890903e-13,6.360201534e-13,6.164559496e-13,4.204934827e-13,1.112802604e-13,7.073622726e-14,2.728739898e-13,2.664435165e-13,1.446005908e-13,2.620849769e-13,2.738744429e-13,3.035937392e-13,1.24811529e-13,2.257274082e-13,9.667926128e-14,6.020154181e-14,2.569793036e-13,7.760542177e-14,6.145802246e-14
1.640625,3.530049047e-14,2.737157414e-14,8.407324805e-14,1.449459609e-14,8.079124252e-14,1.785719488e-14,1.563976409e-13,2.832777407e-14,4.20712922e-14,1.019318107e-13,2.391607915e-13,1.468773284e-13,5.924690383e-14,3.374290633e-13,6.475812306e-13,6.476710456e-13,4.473258363e-13,1.05400596e-13,7.316567717e-14,2.930880092e-13,2.62410564e-13,1.484775481e-13,2.626198039e-13,2.810171615e-13,3.042171243e-13,1.353812209e-13,2.341333555e-13,9.677084243e-14,6.556636128e-14,2.664700255e-13,8.554525035e-14,6.557901432e-14
1.6484375,3.546349812e-14,2.671337958e-14,8.295181426e-14,1.524360072e-14,8.593596098e-14,2.13933234e-14,1.521658032e-13,2.747694024e-14,4.16955757e-14,1.020174773e-13,2.426655246e-13,1.484325387e-13,5.862785279e-14,3.365220437e-13,6.57447045e-13,6.791943641e-13,4.767663347e-13,1.009136166e-13,7.607979984e-14,3.143323398e-13,2.573443889e-13,1.516801464e-13,2.615605701e-13,2.884718579e-13,3.042321055e-13,1.460534681e-13,2.42182635e-13,9.704551923e-14,7.112590539e-14,2.75262514e-13,9.381699961e-14,7.004022123e-14
1.65625,3.592419079e-14,2.605222024e-14,8.302357047e-14,1.615441205e-14,9.153560589e-14,2.536679968e-14,1.477219813e-13,2.705858015e-14,4.182028272e-14,1.024009516e-13,2.446788835e-13,1.498543186e-13,5.863513349e-14,3.355165957e-13,6.643860092e-13,7.094429566e-13,5.075283586e-13,9.743530664e-14,7.927072917e-14,3.354434613e-13,2.510206854e-13,1.537323554e-13,2.58491706e-13,2.959277359e-13,3.03465021e-13,1.565714668e-13,2.496201939e-13,9.758487526e-14,7.669276106e-14,2.832874953e-13,1.021889857e-13,7.45872503e-14
1.6640625,3.681113145e-14,2.545098152e-14,8.386097276e-14,1.727667133e-14,9.737769122e-14,2.973405456e-14,1.431063281e-13,2.695286269e-14,4.224795191e-14,1.035026251e-13,2.452305965e-13,1.511855202e-13,5.912933238e-14,3.349422673e-13,6.680245976e-13,7.368510638e-13,5.386572581e-13,9.462575708e-14,8.27498383e-14,3.561494493e-13,2.441229936e-13,1.548623623e-13,2.53778802e-13,3.035661255e-13,3.021356873e-13,1.665273616e-13,2.563214466e-13,9.803068194e-14,8.216377425e-14,2.902460873e-13,1.104820339e-13,7.904906397e-14
1.671875,3.810701929e-14,2.494947553e-14,8.56445987e-14,1.864070946e-14,1.03366159e-13,3.464435157e-14,1.387842639e-13,2.700666813e-14,4.292877001e-14,1.047452708e-13,2.44107809e-13,1.524531424e-13,6.03344382e-14,3.352785805e-13,6.687608754e-13,7.611295961e-13,5.696904396e-13,9.27661246e-14,8.651259629e-14,3.765422949e-13,2.367323275e-13,1.552316723e-13,2.473883818e-13,3.116453056e-13,3.000312866e-13,1.757169935e-13,2.619378518e-13,9.838758505e-14,8.742564563e-14,2.960062666e-13,1.186269757e-13,8.33756695e-14
1.6796875,3.973081988e-14,2.458704083e-14,8.864224733e-14,2.018703366e-14,1.095552739e-13,4.01875493e-14,1.344015103e-13,2.724884443e-14,4.393516963e-14,1.058782208e-13,2.412344999e-13,1.537789746e-13,6.236847825e-14,3.36516582e-13,6.671147619e-13,7.825488345e-13,6.00627094e-13,9.189807153e-14,9.036594972e-14,3.967863336e-13,2.288693036e-13,1.546454098e-13,2.394381387e-13,3.195422156e-13,2.975290637e-13,1.839879376e-13,2.664763809e-13,9.897843312e-14,9.248538047e-14,3.01057568e-13,1.264967059e-13,8.7462921e-14
1.6875,4.168073181e-14,2.442079501e-14,9.279028973e-14,2.197195876e-14,1.159552949e-13,4.626416176e-14,1.298921748e-13,2.776542877e-14,4.530236439e-14,1.072703684e-13,2.367544708e-13,1.554728646e-13,6.526228269e-14,3.389541464e-13,6.631326854e-13,8.004279479e-13,6.312592551e-13,9.234436546e-14,9.433530139e-14,4.171585272e-13,2.211662971e-13,1.531740338e-13,2.304295429e-13,3.279754862e-13,2.949519709e-13,1.911555949e-13,2.70285141e-13,9.962680578e-14,9.742953989e-14,3.052918406e-13,1.340518823e-13,9.124436279e-14
1.6953125,4.384212224e-14,2.438250445e-14,9.791846087e-14,2.405838075e-14,1.223683723e-13,5.281219437e-14,1.254363453e-13,2.845621163e-14,4.688449591e-14,1.088744812e-13,2.307463659e-13,1.576128493e-13,6.90451873e-14,3.431596897e-13,6.566406973e-13,8.141149552e-13,6.606265142e-13,9.456448593e-14,9.849757894e-14,4.372261038e-13,2.135557082e-13,1.510922914e-13,2.208206466e-13,3.367795164e-13,2.918894046e-13,1.971222944e-13,2.733196784e-13,1.000957894e-13,1.021600083e-13,3.081773229e-13,1.411811926e-13,9.480012845e-14
1.703125,4.608088246e-14,2.436519482e-14,1.037840757e-13,2.634143264e-14,1.284096008e-13,5.966788326e-14,1.211085693e-13,2.913076872e-14,4.860870893e-14,1.103898612e-13,2.239096865e-13,1.601365598e-13,7.366787301e-14,3.492111895e-13,6.48422511e-13,8.240110888e-13,6.878304994e-13,9.819605022e-14,1.024886598e-13,4.55752049e-13,2.055809155e-13,1.485130449e-13,2.109536426e-13,3.443150894e-13,2.885968407e-13,2.018207373e-13,2.755775103e-13,1.005065798e-13,1.06549858e-13,3.100552417e-13,1.475176088e-13,9.819952692e-14
1.7109375,4.827615721e-14,2.43518656e-14,1.100785249e-13,2.880109114e-14,1.340862814e-13,6.673256488e-14,1.167429426e-13,2.980537795e-14,5.057446958e-14,1.117002383e-13,2.165357437e-13,1.631370829e-13,7.896713029e-14,3.567626281e-13,6.392277857e-13,8.302031701e-13,7.12437609e-13,1.0270478e-13,1.058586947e-13,4.727310891e-13,1.975170654e-13,1.452404494e-13,2.008281753e-13,3.507404805e-13,2.854173235e-13,2.052537352e-13,2.772582113e-13,1.009918976e-13,1.106084078e-13,3.113467069e-13,1.530118008e-13,1.013563689e-13
1.71875,5.050466254e-14,2.443531967e-14,1.169536382e-13,3.164568366e-14,1.397393692e-13,7.437474899e-14,1.123726444e-13,3.06451913e-14,5.27386996e-14,1.132136246e-13,2.085567613e-13,1.666443592e-13,8.481482789e-14,3.658789792e-13,6.291781462e-13,8.32718221e-13,7.344280317e-13,1.082294374e-13,1.087095232e-13,4.893036508e-13,1.901498598e-13,1.412155668e-13,1.906712934e-13,3.569769342e-13,2.822806609e-13,2.076669599e-13,2.78419955e-13,1.016184255e-13,1.144311557e-13,3.121102395e-13,1.579973966e-13,1.041830326e-13
1.7265625,5.281647497e-14,2.462784791e-14,1.247467914e-13,3.503420329e-14,1.453523836e-13,8.281601348e-14,1.08215395e-13,3.164295285e-14,5.499371987e-14,1.149274661e-13,2.000821213e-13,1.703953038e-13,9.129733983e-14,3.767134793e-13,6.184833063e-13,8.320541034e-13,7.539415659e-13,1.152704385e-13,1.113881083e-13,5.057200593e-13,1.835544584e-13,1.36633703e-13,1.805087597e-13,3.628033092e-13,2.788958794e-13,2.092175669e-13,2.790976556e-13,1.022663005e-13,1.181104401e-13,3.124026378e-13,1.625614839e-13,1.066664244e-13
1.734375,5.507098468e-14,2.482796053e-14,1.331940984e-13,3.895620369e-14,1.507646236e-13,9.183117602e-14,1.041720907e-13,3.283156578e-14,5.734063177e-14,1.161105551e-13,1.911852246e-13,1.742548148e-13,9.840784255e-14,3.889439053e-13,6.073362293e-13,8.28285083e-13,7.706866679e-13,1.240454388e-13,1.140522055e-13,5.216624814e-13,1.77978218e-13,1.316495972e-13,1.703552463e-13,3.677845394e-13,2.750141345e-13,2.098183666e-13,2.794388405e-13,1.028645147e-13,1.216530003e-13,3.121862833e-13,1.666097964e-13,1.087327391e-13
1.7421875,5.715825947e-14,2.505035287e-14,1.419440651e-13,4.347327688e-14,1.559168302e-13,1.012782012e-13,1.006168797e-13,3.43376627e-14,5.974338241e-14,1.16892115e-13,1.826394658e-13,1.784469421e-13,1.05994734e-13,4.025198001e-13,5.95962734e-13,8.209338089e-13,7.837775827e-13,1.345863167e-13,1.168939712e-13,5.367694053e-13,1.739371181e-13,1.264523693e-13,1.608435532e-13,3.720435842e-13,2.710730013e-13,2.095609423e-13,2.796595087e-13,1.03464646e-13,1.250851261e-13,3.114762945e-13,1.700307691e-13,1.102539222e-13
1.75,5.899466976e-14,2.53376062e-14,1.511172988e-13,4.862448411e-14,1.604201308e-13,1.111179776e-13,9.800847393e-14,3.602677919e-14,6.210718251e-14,1.176147383e-13,1.747617999e-13,1.83029196e-13,1.141106829e-13,4.176609769e-13,5.840683169e-13,8.089840011e-13,7.920225202e-13,1.47067625e-13,1.200129888e-13,5.502862475e-13,1.707476227e-13,1.211209897e-13,1.519507768e-13,3.750371757e-13,2.670603052e-13,2.082081659e-13,2.795753763e-13,1.039930914e-13,1.282711862e-13,3.10247397e-13,1.72493856e-13,1.110493707e-13
1.7578125,6.060692289e-14,2.56480249e-14,1.606234739e-13,5.432236577e-14,1.639968788e-13,1.212478552e-13,9.629643055e-14,3.779371384e-14,6.436748404e-14,1.179359618e-13,1.670485477e-13,1.878524183e-13,1.227593198e-13,4.344140755e-13,5.714180078e-13,7.922366708e-13,7.952304225e-13,1.614503076e-13,1.233211239e-13,5.61771723e-13,1.680690181e-13,1.156550997e-13,1.434492523e-13,3.766886312e-13,2.628500328e-13,2.053029001e-13,2.788883098e-13,1.04567231e-13,1.310358432e-13,3.088685536e-13,1.738530142e-13,1.109763253e-13
1.765625,6.198853112e-14,2.601985226e-14,1.703440669e-13,6.06401843e-14,1.669409525e-13,1.317436111e-13,9.54072394e-14,3.973209433e-14,6.646001731e-14,1.176893083e-13,1.595397276e-13,1.927745768e-13,1.318179923e-13,4.526755755e-13,5.591530867e-13,7.72094545e-13,7.943516294e-13,1.775980383e-13,1.268356019e-13,5.716395807e-13,1.661240677e-13,1.102200779e-13,1.356553847e-13,3.778719963e-13,2.589918041e-13,2.01106116e-13,2.779767081e-13,1.051201225e-13,1.335896962e-13,3.078618707e-13,1.743203594e-13,1.101786657e-13
1.7734375,6.312349442e-14,2.65763693e-14,1.804422484e-13,6.775359006e-14,1.696451381e-13,1.429274179e-13,9.560635052e-14,4.200429513e-14,6.842581237e-14,1.168859842e-13,1.524949055e-13,1.976591269e-13,1.414011085e-13,4.717699113e-13,5.48004614e-13,7.497574942e-13,7.899211043e-13,1.960188276e-13,1.30755662e-13,5.808226809e-13,1.648709954e-13,1.049829462e-13,1.286012325e-13,3.782663353e-13,2.553910249e-13,1.961715885e-13,2.772506963e-13,1.0564442e-13,1.361821253e-13,3.072543963e-13,1.74273077e-13,1.089727807e-13
1.78125,6.419451943e-14,2.736175701e-14,1.907734338e-13,7.578642335e-14,1.724102159e-13,1.546863214e-13,9.715477618e-14,4.481725917e-14,7.03579521e-14,1.159515511e-13,1.460714631e-13,2.024128533e-13,1.515465477e-13,4.909017918e-13,5.373787235e-13,7.256802746e-13,7.824238227e-13,2.175074576e-13,1.352628088e-13,5.899507632e-13,1.643748758e-13,9.988365187e-14,1.221223564e-13,3.781205554e-13,2.51795019e-13,1.908287588e-13,2.767808886e-13,1.065608543e-13,1.389432197e-13,3.074455081e-13,1.741322867e-13,1.074153367e-13
1.7890625,6.524190452e-14,2.833576433e-14,2.01238624e-13,8.478258315e-14,1.751872871e-13,1.665514206e-13,9.995256304e-14,4.807401051e-14,7.209145529e-14,1.150815784e-13,1.404735965e-13,2.066746262e-13,1.618620139e-13,5.095463514e-13,5.268419361e-13,6.997708788e-13,7.719682216e-13,2.420383154e-13,1.403949943e-13,5.989854321e-13,1.646087905e-13,9.485965513e-14,1.162722335e-13,3.778571127e-13,2.4822998e-13,1.852032801e-13,2.766403983e-13,1.075455881e-13,1.418941364e-13,3.085159086e-13,1.73884051e-13,1.053346016e-13
1.796875,6.616878987e-14,2.95080333e-14,2.118746721e-13,9.461457519e-14,1.77895979e-13,1.784745199e-13,1.042487551e-13,5.159640015e-14,7.346740448e-14,1.13619985e-13,1.355942839e-13,2.101338879e-13,1.719841181e-13,5.270104844e-13,5.161183078e-13,6.719153484e-13,7.579463907e-13,2.688764855e-13,1.462814615e-13,6.087266236e-13,1.659264028e-13,9.009012547e-14,1.111542829e-13,3.774175824e-13,2.446653558e-13,1.795403785e-13,2.767442507e-13,1.081922615e-13,1.449471299e-13,3.099007773e-13,1.734985849e-13,1.027591775e-13
1.8046875,6.69868427e-14,3.093416579e-14,2.227933502e-13,1.05243527e-13,1.808545762e-13,1.905061766e-13,1.099822572e-13,5.552079305e-14,7.461132477e-14,1.116774404e-13,1.311094587e-13,2.129770463e-13,1.819463349e-13,5.432534652e-13,5.049399681e-13,6.426647465e-13,7.407685434e-13,2.976790102e-13,1.53007608e-13,6.203013807e-13,1.687784892e-13,8.56661915e-14,1.065726489e-13,3.778163539e-13,2.413308732e-13,1.739832871e-13,2.769412287e-13,1.088006296e-13,1.481275205e-13,3.117132164e-13,1.732466232e-13,9.975287538e-14
