"Time","Fp1","AF3","F7","F3","FC1","FC5","T7","C3","CP1","CP5","P7","P3","Pz","PO3","O1","Oz","O2","PO4","P4","P8","CP6","CP2","C4","T8","FC6","FC2","F4","F8","AF4","Fp2","Fz","Cz"
0.0078125,2.417718912e-13,3.34322766e-13,1.868871333e-13,3.066148851e-13,3.410249704e-13,2.159775532e-13,1.934368739e-13,2.454426507e-13,1.679283532e-14,7.760350084e-14,2.348379542e-14,9.070517745e-14,3.255956953e-13,1.156804852e-12,1.20093531e-12,2.053048603e-12,1.796124088e-12,1.340377726e-12,3.605124938e-13,6.846635095e-13,1.509436955e-14,8.511744099e-14,4.792974283e-14,1.532455893e-13,3.634341706e-13,1.587271545e-13,3.670641356e-13,2.307452386e-13,3.706749656e-13,4.288616543e-13,3.503124916e-13,9.267818314e-14
0.015625,2.5747849e-13,3.568081445e-13,1.97315809e-13,3.269599655e-13,3.656328568e-13,2.276271708e-13,2.049731785e-13,2.608946617e-13,1.821937844e-14,7.955246324e-14,2.336941632e-14,9.430691277e-14,3.452274833e-13,1.218465529e-12,1.269455116e-12,2.209309223e-12,1.926976918e-12,1.44338958e-12,3.843463038e-13,7.171596706e-13,1.489550178e-14,8.880074512e-14,5.155939117e-14,1.602602857e-13,3.774625306e-13,1.715743066e-13,3.880209365e-13,2.413674514e-13,3.863222286e-13,4.497904375e-13,3.744075728e-13,1.014300637e-13
0.0234375,2.740015051e-13,3.801848654e-13,2.08142207e-13,3.482829133e-13,3.916401431e-13,2.395339556e-13,2.167384118e-13,2.770593968e-13,1.973939832e-14,8.146067831e-14,2.330717607e-14,9.784987892e-14,3.651695632e-13,1.281466727e-12,1.339603116e-12,2.372335581e-12,2.063056354e-12,1.550957573e-12,4.091913357e-13,7.502037092e-13,1.476990999e-14,9.25126939e-14,5.531592311e-14,1.671583519e-13,3.912193743e-13,1.852583989e-13,4.095445529e-13,2.520435459e-13,4.021992932e-13,4.710887187e-13,3.996142189e-13,1.107964206e-13
0.03125,2.912623504e-13,4.048220627e-13,2.193013438e-13,3.707773587e-13,4.192095538e-13,2.519484145e-13,2.28708928e-13,2.938962205e-13,2.140625131e-14,8.342177216e-14,2.327424854e-14,1.014087273e-13,3.856837533e-13,1.345945424e-12,1.411539169e-12,2.5423536e-12,2.204479909e-12,1.663315337e-12,4.350752361e-13,7.841230883e-13,1.471080796e-14,9.624235992e-14,5.919508851e-14,1.741006475e-13,4.046504683e-13,1.998080567e-13,4.316898036e-13,2.628904772e-13,4.185522723e-13,4.927594441e-13,4.261771767e-13,1.2086542e-13
0.0390625,3.090419281e-13,4.302323512e-13,2.304327677e-13,3.943096023e-13,4.480436227e-13,2.646038198e-13,2.406964467e-13,3.112250666e-13,2.31680204e-14,8.541364745e-14,2.32961841e-14,1.050211972e-13,4.064865544e-13,1.411274739e-12,1.484640571e-12,2.717911451e-12,2.349989883e-12,1.779503887e-12,4.616156879e-13,8.182137071e-13,1.467601428e-14,9.977213257e-14,6.326138937e-14,1.809009013e-13,4.177991239e-13,2.150340391e-13,4.541972899e-13,2.7371178e-13,4.350403855e-13,5.145246788e-13,4.537771971e-13,1.315683559e-13
0.046875,3.272561438e-13,4.560448108e-13,2.415399265e-13,4.1852604e-13,4.777104673e-13,2.77142774e-13,2.526213639e-13,3.289174823e-13,2.498128426e-14,8.734099654e-14,2.338368593e-14,1.085063978e-13,4.269673465e-13,1.476404394e-12,1.557947137e-12,2.897599415e-12,2.498076788e-12,1.898380652e-12,4.88547011e-13,8.511584947e-13,1.467791852e-14,1.030582021e-13,6.746927598e-14,1.872365695e-13,4.303980965e-13,2.30705137e-13,4.764999591e-13,2.842659835e-13,4.508928322e-13,5.35924558e-13,4.817919164e-13,1.428293908e-13
0.0546875,3.459239329e-13,4.828548099e-13,2.527774424e-13,4.435181991e-13,5.083943585e-13,2.896780075e-13,2.643967005e-13,3.468708799e-13,2.683747556e-14,8.926924287e-14,2.354925512e-14,1.118053966e-13,4.47241124e-13,1.541332386e-12,1.631454871e-12,3.081779003e-12,2.64918334e-12,2.020121948e-12,5.160636811e-13,8.82964346e-13,1.474532191e-14,1.061948312e-13,7.173011902e-14,1.929802348e-13,4.422725792e-13,2.46917533e-13,4.986056714e-13,2.946869819e-13,4.665138262e-13,5.570359616e-13,5.105858411e-13,1.546370407e-13
0.0625,3.651424554e-13,5.106105468e-13,2.64159306e-13,4.696313845e-13,5.403500716e-13,3.022925507e-13,2.760546632e-13,3.650925255e-13,2.873918545e-14,9.139447792e-14,2.383424387e-14,1.150233112e-13,4.674601893e-13,1.606354435e-12,1.705498497e-12,3.270321488e-12,2.803843577e-12,2.144841955e-12,5.442445134e-13,9.148673223e-13,1.492303783e-14,1.091644762e-13,7.610606887e-14,1.981513961e-13,4.535897642e-13,2.63802205e-13,5.209170332e-13,3.049095555e-13,4.824967957e-13,5.780258702e-13,5.405799396e-13,1.670235834e-13
0.0703125,3.85071005e-13,5.387800264e-13,2.757176505e-13,4.968774668e-13,5.733762333e-13,3.150851542e-13,2.87795071e-13,3.838127906e-13,3.073847998e-14,9.366305988e-14,2.426376876e-14,1.181413376e-13,4.873976653e-13,1.671109205e-12,1.779449659e-12,3.461882861e-12,2.961033549e-12,2.272019203e-12,5.730217056e-13,9.469749198e-13,1.524805413e-14,1.119745932e-13,8.053453786e-14,2.027455236e-13,4.640751978e-13,2.812586395e-13,5.432835503e-13,3.147604837e-13,4.985203499e-13,5.986252897e-13,5.713721745e-13,1.799714689e-13
0.078125,4.055107614e-13,5.676067809e-13,2.874511383e-13,5.251974233e-13,6.074913098e-13,3.281238976e-13,2.993955803e-13,4.030139542e-13,3.284076499e-14,9.581487044e-14,2.485386879e-14,1.211402154e-13,5.070137734e-13,1.73527421e-12,1.852750861e-12,3.655828681e-12,3.120055995e-12,2.40129535e-12,6.023922458e-13,9.789237814e-13,1.569362221e-14,1.145693328e-13,8.492460801e-14,2.067485092e-13,4.734294452e-13,2.993464226e-13,5.655862383e-13,3.242776045e-13,5.144899152e-13,6.187935238e-13,6.029326891e-13,1.934744738e-13
0.0859375,4.261288182e-13,5.971563965e-13,2.992524873e-13,5.546182354e-13,6.427238655e-13,3.411920194e-13,3.104950629e-13,4.223096911e-13,3.500757742e-14,9.781251827e-14,2.563144755e-14,1.240447232e-13,5.261061481e-13,1.798531794e-12,1.925426964e-12,3.851443378e-12,3.280230076e-12,2.531840615e-12,6.321630023e-13,1.011222565e-12,1.624354238e-14,1.168263083e-13,8.935689535e-14,2.102877783e-13,4.818028518e-13,3.180550018e-13,5.878456058e-13,3.333908126e-13,5.303730991e-13,6.385831328e-13,6.353680715e-13,2.07601436e-13
0.09375,4.46875446e-13,6.270656618e-13,3.108766612e-13,5.850029139e-13,6.787201908e-13,3.541303329e-13,3.209941809e-13,4.415035008e-13,3.724643418e-14,9.98007581e-14,2.663905942e-14,1.268080675e-13,5.443086184e-13,1.860343159e-12,1.99692705e-12,4.046917884e-12,3.439930164e-12,2.662436746e-12,6.619919689e-13,1.043489092e-12,1.692426218e-14,1.187767032e-13,9.381307443e-14,2.134134342e-13,4.891897007e-13,3.371057288e-13,6.096524503e-13,3.421509658e-13,5.459390462e-13,6.577589144e-13,6.683331477e-13,2.223141503e-13
0.1015625,4.677398954e-13,6.573030378e-13,3.221860893e-13,6.161412216e-13,7.152546372e-13,3.666818291e-13,3.307569855e-13,4.605726607e-13,3.954074017e-14,1.018095504e-13,2.795029216e-14,1.293928679e-13,5.616173069e-13,1.920439172e-12,2.066704468e-12,4.241073753e-12,3.59840501e-12,2.792274379e-12,6.915194046e-13,1.074810831e-12,1.775573052e-14,1.204404699e-13,9.825486789e-14,2.159771885e-13,4.955634542e-13,3.564615677e-13,6.30972173e-13,3.507099016e-13,5.614439193e-13,6.762586488e-13,7.017376267e-13,2.374853879e-13
0.109375,4.888362815e-13,6.876959831e-13,3.333343275e-13,6.479214798e-13,7.522082648e-13,3.788134411e-13,3.399210464e-13,4.795673413e-13,4.187735769e-14,1.038522308e-13,2.960059204e-14,1.31751176e-13,5.780858675e-13,1.978786136e-12,2.134783157e-12,4.433666737e-12,3.755547361e-12,2.920925522e-12,7.206040941e-13,1.105409748e-12,1.87608306e-14,1.217830902e-13,1.026544268e-13,2.179507119e-13,5.007771375e-13,3.761705384e-13,6.519511043e-13,3.586968282e-13,5.768529107e-13,6.939024529e-13,7.354779036e-13,2.530709898e-13
0.1171875,5.103568039e-13,7.181183115e-13,3.44442494e-13,6.803644151e-13,7.89601027e-13,3.911309874e-13,3.487990265e-13,4.987105921e-13,4.430127311e-14,1.060117937e-13,3.154668053e-14,1.338511707e-13,5.936735764e-13,2.035362407e-12,2.200918029e-12,4.624324247e-12,3.910557589e-12,3.048410304e-12,7.49642827e-13,1.135529517e-12,1.995436337e-14,1.228725841e-13,1.06843981e-13,2.193717191e-13,5.044446725e-13,3.961217982e-13,6.722218341e-13,3.65816055e-13,5.918189082e-13,7.104140554e-13,7.693857038e-13,2.690664144e-13
0.125,5.322408158e-13,7.490281413e-13,3.556539992e-13,7.136387509e-13,8.277773642e-13,4.036642584e-13,3.572542989e-13,5.178691258e-13,4.681667914e-14,1.082262075e-13,3.381127778e-14,1.357496656e-13,6.083983891e-13,2.089890151e-12,2.26487425e-12,4.812637315e-12,4.063153524e-12,3.174717745e-12,7.790085594e-13,1.165542027e-12,2.134709194e-14,1.237582391e-13,1.108110449e-13,2.202345213e-13,5.067563139e-13,4.163259951e-13,6.918761983e-13,3.724759517e-13,6.066114478e-13,7.26186858e-13,8.037157515e-13,2.854567527e-13
0.1328125,5.544255329e-13,7.805259858e-13,3.669904665e-13,7.479811027e-13,8.668305896e-13,4.159197167e-13,3.650732564e-13,5.366401566e-13,4.939537522e-14,1.104611515e-13,3.648880143e-14,1.374729395e-13,6.221743444e-13,2.141850423e-12,2.326601328e-12,4.99770072e-12,4.213308759e-12,3.299243649e-12,8.084835989e-13,1.196051163e-12,2.297217877e-14,1.244036943e-13,1.14638668e-13,2.206690896e-13,5.080678517e-13,4.367617562e-13,7.111065078e-13,3.788794173e-13,6.213543047e-13,7.415203959e-13,8.384900758e-13,3.021925863e-13
0.140625,5.767529613e-13,8.120382264e-13,3.779929332e-13,7.83318699e-13,9.063542259e-13,4.279402834e-13,3.72224912e-13,5.548989176e-13,5.199518822e-14,1.129746763e-13,3.958771005e-14,1.39017338e-13,6.348307141e-13,2.191080522e-12,2.38561038e-12,5.177732484e-12,4.359449035e-12,3.420836045e-12,8.376027886e-13,1.225907513e-12,2.484990191e-14,1.247507697e-13,1.182911381e-13,2.207771683e-13,5.083841855e-13,4.572074494e-13,7.292986714e-13,3.847673549e-13,6.357194025e-13,7.560240398e-13,8.732966862e-13,3.191245242e-13
0.1484375,5.989727974e-13,8.431942551e-13,3.884401891e-13,8.191209685e-13,9.458367505e-13,4.39651856e-13,3.786343128e-13,5.724177678e-13,5.453402234e-14,1.157770844e-13,4.314564407e-14,1.403738716e-13,6.462265034e-13,2.237503123e-12,2.441384498e-12,5.351337371e-12,4.499804659e-12,3.537999917e-12,8.660179537e-13,1.253603919e-12,2.698075985e-14,1.247959651e-13,1.217967221e-13,2.20517419e-13,5.078320882e-13,4.774766535e-13,7.46140727e-13,3.901011801e-13,6.496529348e-13,7.694720801e-13,9.077905821e-13,3.360801401e-13
0.15625,6.212155963e-13,8.739919054e-13,3.984499682e-13,8.551330832e-13,9.851734544e-13,4.508945214e-13,3.842177461e-13,5.890549286e-13,5.701480221e-14,1.184211387e-13,4.728244591e-14,1.415099613e-13,6.562913464e-13,2.28094139e-12,2.493932981e-12,5.51808878e-12,4.634214123e-12,3.650176724e-12,8.936149169e-13,1.279516852e-12,2.936791361e-14,1.246073081e-13,1.251287064e-13,2.198668017e-13,5.062934364e-13,4.976193255e-13,7.61867326e-13,3.948554441e-13,6.632331855e-13,7.818357312e-13,9.418918793e-13,3.530484898e-13
0.1640625,6.434782059e-13,9.044363469e-13,4.079301568e-13,8.914933764e-13,1.024507043e-12,4.618868606e-13,3.888926968e-13,6.050338457e-13,5.952172792e-14,1.208094052e-13,5.193789744e-14,1.424546975e-13,6.650900628e-13,2.321503918e-12,2.543403631e-12,5.677456545e-12,4.762302182e-12,3.757631826e-12,9.204437567e-13,1.304386787e-12,3.202856655e-14,1.24191968e-13,1.282011107e-13,2.187930088e-13,5.03612583e-13,5.176826379e-13,7.765191552e-13,3.990510262e-13,6.764870498e-13,7.930906803e-13,9.756469149e-13,3.700740472e-13
0.171875,6.655735512e-13,9.344886056e-13,4.170855777e-13,9.281256258e-13,1.063524712e-12,4.725937216e-13,3.928239494e-13,6.201968707e-13,6.207972833e-14,1.232901061e-13,5.697011535e-14,1.432376494e-13,6.727630984e-13,2.358898663e-12,2.589460743e-12,5.828142288e-12,4.882623207e-12,3.859636968e-12,9.465938607e-13,1.328367313e-12,3.502876458e-14,1.23582272e-13,1.310207347e-13,2.173451673e-13,5.000952415e-13,5.373001138e-13,7.900127129e-13,4.030578931e-13,6.894438205e-13,8.034651479e-13,1.008752979e-12,3.869484093e-13
0.1796875,6.878130091e-13,9.642403316e-13,4.26160684e-13,9.652850104e-13,1.102187347e-12,4.830639097e-13,3.96303901e-13,6.343429168e-13,6.467684465e-14,1.259048918e-13,6.243911121e-14,1.438962695e-13,6.794269607e-13,2.392682473e-12,2.63165767e-12,5.969045502e-12,4.9951756e-12,3.95560316e-12,9.722514713e-13,1.351549961e-12,3.844899661e-14,1.228800646e-13,1.335096339e-13,2.156864808e-13,4.956655935e-13,5.562636364e-13,8.021464585e-13,4.067869837e-13,7.02099181e-13,8.130563378e-13,1.041158908e-12,4.034572315e-13
0.1875,7.101842474e-13,9.938765345e-13,4.348444455e-13,1.003385181e-12,1.141030745e-12,4.935001601e-13,3.990798419e-13,6.475659451e-13,6.726448412e-14,1.283999101e-13,6.844505685e-14,1.445343777e-13,6.850185051e-13,2.423284516e-12,2.6703104e-12,6.100027278e-12,5.100735258e-12,4.045808497e-12,9.973631384e-13,1.373969795e-12,4.228434034e-14,1.219956892e-13,1.357049583e-13,2.136417477e-13,4.901918947e-13,5.749069378e-13,8.129568171e-13,4.097671987e-13,7.145342655e-13,8.218914107e-13,1.073425433e-12,4.197045833e-13
0.1953125,7.319493946e-13,1.023216115e-12,4.428888355e-13,1.041730456e-12,1.179674123e-12,5.034683195e-13,4.006039143e-13,6.595348123e-13,6.976905257e-14,1.307025648e-13,7.49769858e-14,1.451133917e-13,6.892196044e-13,2.450920137e-12,2.705837218e-12,6.220467953e-12,5.197690061e-12,4.128832311e-12,1.021257564e-12,1.39545809e-12,4.644677186e-14,1.207629811e-13,1.378069352e-13,2.108096639e-13,4.842003864e-13,5.931707405e-13,8.227400952e-13,4.120497184e-13,7.266737453e-13,8.300781411e-13,1.105320724e-12,4.357487075e-13
0.203125,7.527765385e-13,1.051634036e-12,4.501161326e-13,1.079402462e-12,1.217194596e-12,5.12501477e-13,4.006741889e-13,6.700886738e-13,7.222646981e-14,1.329190434e-13,8.200033353e-14,1.454751677e-13,6.916883786e-13,2.474793704e-12,2.737715716e-12,6.328310965e-12,5.283552055e-12,4.202118679e-12,1.0431456e-12,1.415158218e-12,5.088397319e-14,1.192005093e-13,1.397201003e-13,2.074026035e-13,4.778295395e-13,6.105765333e-13,8.311429653e-13,4.136845308e-13,7.38106249e-13,8.371761806e-13,1.135908913e-12,4.514485531e-13
0.2109375,7.728986792e-13,1.078673307e-12,4.56397287e-13,1.116386714e-12,1.253288357e-12,5.207319341e-13,3.995412589e-13,6.795378511e-13,7.470384085e-14,1.351547528e-13,8.949301121e-14,1.455341379e-13,6.92368536e-13,2.493865673e-12,2.764759738e-12,6.421724992e-12,5.357634513e-12,4.265034311e-12,1.062926578e-12,1.432520495e-12,5.566406542e-14,1.173992271e-13,1.412292047e-13,2.038998706e-13,4.706598931e-13,6.269215568e-13,8.376126092e-13,4.145059147e-13,7.485153225e-13,8.426865374e-13,1.16474133e-12,4.665819483e-13
0.21875,7.924554985e-13,1.104336219e-12,4.620694622e-13,1.152798878e-12,1.287870871e-12,5.285047183e-13,3.976714946e-13,6.877986177e-13,7.717655656e-14,1.373873487e-13,9.743552232e-14,1.452763729e-13,6.914988439e-13,2.507480357e-12,2.78603678e-12,6.500114356e-12,5.420082202e-12,4.318328812e-12,1.08115809e-12,1.448549172e-12,6.085231117e-14,1.154203086e-13,1.422776456e-13,2.001428611e-13,4.625557941e-13,6.421237023e-13,8.422390697e-13,4.146115103e-13,7.579677787e-13,8.468705158e-13,1.191743674e-12,4.808137999e-13
0.2265625,8.113185009e-13,1.128771309e-12,4.672041022e-13,1.188617815e-12,1.321085843e-12,5.358791209e-13,3.951161829e-13,6.947747012e-13,7.962769364e-14,1.394037094e-13,1.057787531e-13,1.447812354e-13,6.891282207e-13,2.515893028e-12,2.801715928e-12,6.563242642e-12,5.470682118e-12,4.361913991e-12,1.098016964e-12,1.463941687e-12,6.63675561e-14,1.132501782e-13,1.428158278e-13,1.960022074e-13,4.535052076e-13,6.562157971e-13,8.452133856e-13,4.139735728e-13,7.666070546e-13,8.50051815e-13,1.217102819e-12,4.940647251e-13
0.234375,8.29240673e-13,1.151955769e-12,4.714506679e-13,1.223761677e-12,1.353028249e-12,5.425249914e-13,3.91519311e-13,7.005286671e-13,8.202898372e-14,1.41062109e-13,1.145506983e-13,1.440355481e-13,6.849888842e-13,2.519473689e-12,2.812294272e-12,6.610760167e-12,5.508841136e-12,4.394765479e-12,1.112951377e-12,1.478171822e-12,7.216558047e-14,1.108224282e-13,1.428997207e-13,1.917349779e-13,4.435064474e-13,6.692240391e-13,8.464979443e-13,4.12532367e-13,7.742622018e-13,8.521417565e-13,1.24082569e-12,5.064729033e-13
0.2421875,8.460160762e-13,1.173538381e-12,4.747287761e-13,1.257825432e-12,1.383283477e-12,5.483350045e-13,3.867858625e-13,7.048396543e-13,8.431838313e-14,1.42518553e-13,1.23807785e-13,1.428926028e-13,6.791269094e-13,2.517744052e-12,2.817446435e-12,6.642174866e-12,5.533887274e-12,4.416035213e-12,1.125666683e-12,1.490813455e-12,7.833180749e-14,1.081868559e-13,1.426392604e-13,1.872861148e-13,4.327968301e-13,6.808918137e-13,8.459716003e-13,4.104554683e-13,7.806763893e-13,8.529706624e-13,1.262390299e-12,5.178835602e-13
0.25,8.61547991e-13,1.193026683e-12,4.769789072e-13,1.29046293e-12,1.411504478e-12,5.533625802e-13,3.810786089e-13,7.076723901e-13,8.654314195e-14,1.439101315e-13,1.333402241e-13,1.414423293e-13,6.719074547e-13,2.510497004e-12,2.816943436e-12,6.656882363e-12,5.545567783e-12,4.425502912e-12,1.136258471e-12,1.501461565e-12,8.482536795e-14,1.054745539e-13,1.419398025e-13,1.827772337e-13,4.215212888e-13,6.910902305e-13,8.436062818e-13,4.077300745e-13,7.85825102e-13,8.524515115e-13,1.281505707e-12,5.281352071e-13
0.2578125,8.759840935e-13,1.210403628e-12,4.780682186e-13,1.321646051e-12,1.437414241e-12,5.575622073e-13,3.745237508e-13,7.091794409e-13,8.878422425e-14,1.450823875e-13,1.43022548e-13,1.398372475e-13,6.63510403e-13,2.497928276e-12,2.810916289e-12,6.65493137e-12,5.544035052e-12,4.423656678e-12,1.144603848e-12,1.510140821e-12,9.15596263e-14,1.027510488e-13,1.407150451e-13,1.785813289e-13,4.096284723e-13,6.997861772e-13,8.396666438e-13,4.044424184e-13,7.897809056e-13,8.507551128e-13,1.298123514e-12,5.372419585e-13
0.265625,8.894367493e-13,1.226165331e-12,4.78083943e-13,1.351524175e-12,1.461103999e-12,5.613108018e-13,3.671676407e-13,7.094965251e-13,9.105610124e-14,1.459552625e-13,1.530219565e-13,1.380361903e-13,6.540635079e-13,2.479947131e-12,2.799386127e-12,6.637328987e-12,5.52993277e-12,4.411706372e-12,1.150765622e-12,1.517512683e-12,9.864505918e-14,1.000303533e-13,1.390987985e-13,1.74582709e-13,3.973485587e-13,7.068873166e-13,8.342295296e-13,4.008613981e-13,7.927447224e-13,8.481017858e-13,1.312365489e-12,5.451320036e-13
0.2734375,9.018108239e-13,1.24057846e-12,4.773560529e-13,1.380202395e-12,1.483172778e-12,5.648180472e-13,3.592696794e-13,7.088603254e-13,9.337377131e-14,1.467626367e-13,1.631213776e-13,1.361265483e-13,6.438066388e-13,2.457230025e-12,2.783027824e-12,6.605101672e-12,5.504277722e-12,4.390753686e-12,1.155296646e-12,1.523315168e-12,1.061790916e-13,9.735790059e-14,1.371699912e-13,1.708209164e-13,3.850031385e-13,7.124966984e-13,8.270052837e-13,3.970448567e-13,7.948992933e-13,8.444545263e-13,1.324641074e-12,5.517284754e-13
0.28125,9.133809792e-13,1.253619534e-12,4.762628573e-13,1.407561503e-12,1.503474504e-12,5.67823826e-13,3.513218983e-13,7.072133166e-13,9.568605459e-14,1.475958121e-13,1.730378531e-13,1.342672276e-13,6.329488079e-13,2.430920451e-12,2.762632616e-12,6.558927798e-12,5.46785569e-12,4.361195707e-12,1.158567673e-12,1.527336815e-12,1.141605698e-13,9.4795498e-14,1.348511229e-13,1.675352321e-13,3.725006178e-13,7.16624709e-13,8.180158458e-13,3.931565707e-13,7.961171132e-13,8.399136062e-13,1.33487334e-12,5.569413632e-13
0.2890625,9.24345664e-13,1.265321727e-12,4.746113635e-13,1.433485451e-12,1.521627019e-12,5.703545371e-13,3.431911747e-13,7.043918183e-13,9.794039376e-14,1.482116333e-13,1.831099252e-13,1.324892819e-13,6.215999266e-13,2.401192347e-12,2.738403036e-12,6.499600307e-12,5.421244822e-12,4.323174307e-12,1.160259942e-12,1.530159048e-12,1.226036317e-13,9.230390738e-14,1.322440129e-13,1.64574947e-13,3.599064076e-13,7.192527691e-13,8.077073995e-13,3.894716754e-13,7.963952413e-13,8.348373191e-13,1.342831845e-12,5.608647836e-13
0.296875,9.343374455e-13,1.275496314e-12,4.720078559e-13,1.457727398e-12,1.537751049e-12,5.723459943e-13,3.34400946e-13,7.003972321e-13,1.00212687e-13,1.484707916e-13,1.935542256e-13,1.30823212e-13,6.098352634e-13,2.368060135e-12,2.710832514e-12,6.427929053e-12,5.364796709e-12,4.276983928e-12,1.159868951e-12,1.531056658e-12,1.313532323e-13,8.986091512e-14,1.295363353e-13,1.619217002e-13,3.476750266e-13,7.205430499e-13,7.964356471e-13,3.860571753e-13,7.959413562e-13,8.295058944e-13,1.348626291e-12,5.637838388e-13
0.3046875,9.43334049e-13,1.283901501e-12,4.687597495e-13,1.479920715e-12,1.551524979e-12,5.737854575e-13,3.25224897e-13,6.950980907e-13,1.024667638e-13,1.484452449e-13,2.041386762e-13,1.291626082e-13,5.978165498e-13,2.33193671e-12,2.680293951e-12,6.344625054e-12,5.298917935e-12,4.223341267e-12,1.157521597e-12,1.529291776e-12,1.401453753e-13,8.758414415e-14,1.266527111e-13,1.593689629e-13,3.358514889e-13,7.203998589e-13,7.841503802e-13,3.8273332e-13,7.946519696e-13,8.239494416e-13,1.352094411e-12,5.655092079e-13
0.3125,9.515009901e-13,1.290745172e-12,4.652227209e-13,1.500175643e-12,1.562860126e-12,5.74988589e-13,3.159978207e-13,6.885979601e-13,1.04545632e-13,1.481928368e-13,2.146679536e-13,1.273901282e-13,5.856391562e-13,2.292918696e-12,2.646608128e-12,6.250607981e-12,5.224759816e-12,4.163350736e-12,1.153684921e-12,1.525914293e-12,1.489713784e-13,8.547762453e-14,1.235780531e-13,1.56528017e-13,3.242817628e-13,7.187639546e-13,7.707654557e-13,3.792566531e-13,7.924619389e-13,8.17926108e-13,1.353291894e-12,5.657473662e-13
0.3203125,9.588746353e-13,1.296334871e-12,4.614002616e-13,1.518692085e-12,1.572275167e-12,5.758475722e-13,3.066491635e-13,6.81237967e-13,1.065046088e-13,1.477723852e-13,2.250727766e-13,1.257637543e-13,5.733855007e-13,2.251611096e-12,2.61032398e-12,6.147021328e-12,5.143366354e-12,4.097862273e-12,1.148568432e-12,1.52166627e-12,1.580630543e-13,8.346788827e-14,1.205035286e-13,1.538236174e-13,3.131919235e-13,7.159045931e-13,7.567753544e-13,3.760255099e-13,7.897922975e-13,8.116397672e-13,1.352674276e-12,5.647165938e-13
0.328125,9.657067346e-13,1.300673659e-12,4.572410155e-13,1.535293157e-12,1.579714547e-12,5.763558519e-13,2.972174751e-13,6.731095044e-13,1.084806024e-13,1.471968944e-13,2.355767046e-13,1.245262395e-13,5.613172546e-13,2.209292846e-12,2.572620168e-12,6.034576924e-12,5.054569852e-12,4.026589139e-12,1.142037487e-12,1.516433379e-12,1.675146922e-13,8.163291438e-14,1.174288242e-13,1.516016462e-13,3.027871239e-13,7.118729007e-13,7.426750019e-13,3.735634448e-13,7.868324928e-13,8.058961902e-13,1.350168366e-12,5.625480379e-13
0.3359375,9.714335578e-13,1.303329913e-12,4.522380228e-13,1.549571637e-12,1.584796865e-12,5.764314012e-13,2.874303571e-13,6.640992181e-13,1.104230203e-13,1.463275451e-13,2.462405476e-13,1.234754347e-13,5.493178005e-13,2.165635069e-12,2.53334426e-12,5.912616436e-12,4.95745921e-12,3.948184018e-12,1.133368408e-12,1.509367516e-12,1.770186831e-13,7.996558928e-14,1.142975043e-13,1.495559216e-13,2.930135153e-13,7.064695262e-13,7.281089119e-13,3.713612995e-13,7.829778868e-13,8.005325616e-13,1.345238568e-12,5.591654131e-13
0.34375,9.753034545e-13,1.3036895e-12,4.461730167e-13,1.560986012e-12,1.58721109e-12,5.754712956e-13,2.771909816e-13,6.53948678e-13,1.12246569e-13,1.451562566e-13,2.564827781e-13,1.223111491e-13,5.369747692e-13,2.118915823e-12,2.490898492e-12,5.78038075e-12,4.852122922e-12,3.862755326e-12,1.122253702e-12,1.499096896e-12,1.863429635e-13,7.836878029e-14,1.111786574e-13,1.475967147e-13,2.83653e-13,6.994681829e-13,7.12477418e-13,3.688696758e-13,7.776264825e-13,7.94424833e-13,1.337431359e-12,5.54549638e-13
0.3515625,9.780723603e-13,1.301970947e-12,4.399100136e-13,1.569802525e-12,1.586937328e-12,5.73988009e-13,2.672668855e-13,6.429608308e-13,1.139943416e-13,1.439638782e-13,2.660220889e-13,1.209686309e-13,5.244633081e-13,2.06889989e-12,2.44485775e-12,5.639407801e-12,4.740643537e-12,3.772622462e-12,1.109856239e-12,1.486698287e-12,1.958258757e-13,7.692685018e-14,1.08009297e-13,1.457031391e-13,2.744787627e-13,6.908285415e-13,6.956996757e-13,3.662112998e-13,7.70849921e-13,7.873190797e-13,1.326938486e-12,5.486215606e-13
0.359375,9.802155627e-13,1.298935572e-12,4.337863525e-13,1.576803539e-12,1.584580393e-12,5.726472433e-13,2.578445924e-13,6.320450079e-13,1.157724132e-13,1.42847826e-13,2.750396683e-13,1.195702249e-13,5.121441303e-13,2.016560576e-12,2.396386724e-12,5.49189387e-12,4.624626304e-12,3.678810219e-12,1.096870231e-12,1.47404699e-12,2.056480578e-13,7.571313444e-14,1.047285866e-13,1.439718637e-13,2.655677588e-13,6.809273211e-13,6.781112969e-13,3.634800766e-13,7.628881987e-13,7.79639572e-13,1.314457471e-12,5.415805954e-13
0.3671875,9.810681477e-13,1.294562345e-12,4.269623656e-13,1.581641902e-12,1.580371147e-12,5.707016419e-13,2.48261646e-13,6.211513318e-13,1.176082834e-13,1.414796443e-13,2.834922013e-13,1.182481689e-13,5.000421866e-13,1.962365028e-12,2.345979634e-12,5.338347568e-12,4.503743999e-12,3.580701346e-12,1.082505771e-12,1.459899721e-12,2.154400479e-13,7.467541892e-14,1.014821665e-13,1.426262654e-13,2.571474295e-13,6.70056854e-13,6.601060568e-13,3.608436337e-13,7.538411535e-13,7.715231109e-13,1.300132522e-12,5.338111466e-13
0.375,9.806182116e-13,1.28857985e-12,4.190968811e-13,1.583820329e-12,1.574022108e-12,5.679814708e-13,2.384930686e-13,6.09670889e-13,1.194046101e-13,1.397252527e-13,2.914189847e-13,1.169415592e-13,4.882227792e-13,1.906534995e-12,2.293673862e-12,5.179125487e-12,4.378240141e-12,3.478682567e-12,1.066427027e-12,1.442994955e-12,2.250531351e-13,7.383748863e-14,9.832310243e-14,1.413523569e-13,2.49227181e-13,6.581117364e-13,6.41714599e-13,3.582987424e-13,7.436338128e-13,7.630274458e-13,1.283774006e-12,5.252552784e-13
0.3828125,9.791170338e-13,1.281079594e-12,4.105767564e-13,1.583569451e-12,1.56538867e-12,5.648729026e-13,2.289125105e-13,5.977736875e-13,1.210917081e-13,1.379347317e-13,2.988675729e-13,1.1548265e-13,4.766778866e-13,1.848898422e-12,2.239680518e-12,5.015162712e-12,4.249121023e-12,3.373380508e-12,1.048963988e-12,1.423791111e-12,2.345490181e-13,7.324952185e-14,9.51360605e-14,1.399568893e-13,2.416057054e-13,6.449821834e-13,6.227870313e-13,3.555973667e-13,7.319962302e-13,7.540337817e-13,1.265355201e-12,5.156580374e-13
0.390625,9.764434574e-13,1.272065149e-12,4.01411504e-13,1.580831609e-12,1.554428107e-12,5.612272188e-13,2.194800364e-13,5.856456757e-13,1.227195788e-13,1.362579311e-13,3.05633049e-13,1.139296968e-13,4.654433508e-13,1.789432364e-12,2.183957547e-12,4.847673963e-12,4.117179189e-12,3.265557791e-12,1.030185572e-12,1.402383413e-12,2.437996768e-13,7.28968326e-14,9.198543845e-14,1.387064515e-13,2.342709579e-13,6.308376968e-13,6.036048156e-13,3.530842883e-13,7.193072029e-13,7.4448147e-13,1.245000726e-12,5.050845001e-13
0.3984375,9.728789496e-13,1.262067224e-12,3.916737176e-13,1.575974683e-12,1.541701613e-12,5.574473547e-13,2.101793553e-13,5.732791928e-13,1.243291786e-13,1.345265948e-13,3.11619609e-13,1.125285141e-13,4.550107304e-13,1.729551762e-12,2.127480676e-12,4.678874448e-12,3.984127825e-12,3.157090035e-12,1.010446047e-12,1.379562086e-12,2.528333334e-13,7.281239492e-14,8.902442297e-14,1.376396956e-13,2.27583567e-13,6.160662264e-13,5.845396154e-13,3.510173951e-13,7.064094184e-13,7.348153944e-13,1.223486155e-12,4.937916583e-13
0.40625,9.687959748e-13,1.251862544e-12,3.819506296e-13,1.569686741e-12,1.52765283e-12,5.537253513e-13,2.012809271e-13,5.609425053e-13,1.258737261e-13,1.328359668e-13,3.16715898e-13,1.113585894e-13,4.456848551e-13,1.670308008e-12,2.071311251e-12,4.510241085e-12,3.851354212e-12,3.0488894e-12,9.902897613e-13,1.355778653e-12,2.617672762e-13,7.307703689e-14,8.613787838e-14,1.367485482e-13,2.21587591e-13,6.007596607e-13,5.655934408e-13,3.491547025e-13,6.932042196e-13,7.252212217e-13,1.20128085e-12,4.818094104e-13
0.4140625,9.641532196e-13,1.240958268e-12,3.722554622e-13,1.561470769e-12,1.511670634e-12,5.495257401e-13,1.929130582e-13,5.486084166e-13,1.273030637e-13,1.312647189e-13,3.208739369e-13,1.103195388e-13,4.371947867e-13,1.611277004e-12,2.014836387e-12,4.341600758e-12,3.718820492e-12,2.940940767e-12,9.697055335e-13,1.329655809e-12,2.704515092e-13,7.364882094e-14,8.324441677e-14,1.359611349e-13,2.159613772e-13,5.847277251e-13,5.46822309e-13,3.47661239e-13,6.792224839e-13,7.154728203e-13,1.177766014e-12,4.690733058e-13
0.421875,9.586121422e-13,1.228557292e-12,3.621589186e-13,1.55087327e-12,1.493672384e-12,5.450068894e-13,1.848925096e-13,5.361193358e-13,1.286270923e-13,1.295971284e-13,3.242745032e-13,1.093677479e-13,4.293107221e-13,1.552518513e-12,1.958033556e-12,4.173494267e-12,3.586763881e-12,2.834011841e-12,9.483985224e-13,1.30116205e-12,2.786705212e-13,7.439003915e-14,8.053855794e-14,1.351095488e-13,2.108198812e-13,5.681208921e-13,5.283937383e-13,3.46632664e-13,6.646106176e-13,7.055908909e-13,1.152774151e-12,4.558983538e-13
0.4296875,9.519361502e-13,1.214925639e-12,3.51914046e-13,1.538226639e-12,1.474196879e-12,5.404120665e-13,1.771159117e-13,5.236086795e-13,1.298665565e-13,1.279660586e-13,3.269067071e-13,1.085200143e-13,4.220464637e-13,1.494512529e-12,1.901666351e-12,4.00686034e-12,3.455466228e-12,2.72806444e-12,9.262796145e-13,1.271344272e-12,2.863868715e-13,7.531204746e-14,7.808321573e-14,1.34332776e-13,2.062833737e-13,5.510906371e-13,5.103106678e-13,3.457751246e-13,6.495043737e-13,6.955833763e-13,1.126696393e-12,4.425009918e-13
0.4375,9.443651629e-13,1.200437655e-12,3.417189034e-13,1.52342928e-12,1.453164058e-12,5.353891277e-13,1.69623437e-13,5.110578203e-13,1.309991968e-13,1.266657277e-13,3.287595555e-13,1.077423967e-13,4.153848747e-13,1.437211435e-12,1.845399246e-12,3.841812413e-12,3.324935715e-12,2.622486689e-12,9.03500528e-13,1.239963693e-12,2.936800359e-13,7.649074264e-14,7.579253213e-14,1.33510467e-13,2.020543639e-13,5.336061231e-13,4.926330983e-13,3.449851871e-13,6.339404839e-13,6.852817656e-13,1.099618635e-12,4.286653485e-13
0.4453125,9.360278193e-13,1.185156233e-12,3.31319196e-13,1.506456294e-12,1.430734763e-12,5.297931195e-13,1.623015749e-13,4.98415003e-13,1.319868154e-13,1.254410005e-13,3.298874694e-13,1.069634064e-13,4.092868993e-13,1.380777597e-12,1.789180021e-12,3.67889177e-12,3.196025372e-12,2.518304046e-12,8.803162855e-13,1.207166168e-12,3.004592454e-13,7.785582763e-14,7.366236602e-14,1.323054864e-13,1.980426029e-13,5.159590338e-13,4.754951648e-13,3.441157742e-13,6.180223354e-13,6.74614572e-13,1.071833936e-12,4.145525249e-13
0.453125,9.267810499e-13,1.169225334e-12,3.209658472e-13,1.487720544e-12,1.407331158e-12,5.237197491e-13,1.551958988e-13,4.859188403e-13,1.328107572e-13,1.24086829e-13,3.301010434e-13,1.061326575e-13,4.037922065e-13,1.325333974e-12,1.733387766e-12,3.518723754e-12,3.069471177e-12,2.416633966e-12,8.570005356e-13,1.173615065e-12,3.065651497e-13,7.937212194e-14,7.167033622e-14,1.309720849e-13,1.942814688e-13,4.983017637e-13,4.589512702e-13,3.431129744e-13,6.016459477e-13,6.635254904e-13,1.043576896e-12,4.00567535e-13
0.4609375,9.166325054e-13,1.152555736e-12,3.108422027e-13,1.467259477e-12,1.382850825e-12,5.172067283e-13,1.485507131e-13,4.737524919e-13,1.334795923e-13,1.229136123e-13,3.293651037e-13,1.052458586e-13,3.98859239e-13,1.27055893e-12,1.677668785e-12,3.361199401e-12,2.945149585e-12,2.317268491e-12,8.336611826e-13,1.139113056e-12,3.121839727e-13,8.105856042e-14,6.98441017e-14,1.297894439e-13,1.907018946e-13,4.804684956e-13,4.430493333e-13,3.420807712e-13,5.848356412e-13,6.5188841e-13,1.014745859e-12,3.866252359e-13
0.46875,9.054691185e-13,1.135113369e-12,3.006957818e-13,1.445084144e-12,1.357310884e-12,5.101692954e-13,1.422997118e-13,4.618627102e-13,1.340271427e-13,1.220327215e-13,3.277074547e-13,1.043330897e-13,3.943777434e-13,1.216483288e-12,1.622026553e-12,3.206676851e-12,2.823295392e-12,2.220288086e-12,8.101508394e-13,1.103644404e-12,3.174489987e-13,8.284692398e-14,6.823087574e-14,1.286629764e-13,1.873085159e-13,4.625853729e-13,4.277451315e-13,3.408274734e-13,5.677396189e-13,6.395417559e-13,9.85530395e-13,3.726171891e-13
0.4765625,8.934238614e-13,1.117321668e-12,2.908420277e-13,1.421354875e-12,1.330824246e-12,5.027336561e-13,1.363705342e-13,4.502333064e-13,1.344800884e-13,1.212409192e-13,3.249407385e-13,1.03422764e-13,3.904751322e-13,1.163419235e-12,1.566784784e-12,3.055923808e-12,2.7046338e-12,2.12625102e-12,7.865368144e-13,1.067875703e-12,3.221576077e-13,8.479940283e-14,6.672458011e-14,1.27546077e-13,1.840139175e-13,4.447537259e-13,4.130125738e-13,3.393791227e-13,5.503255166e-13,6.265565214e-13,9.56095846e-13,3.586890836e-13
0.484375,8.80806432e-13,1.099269892e-12,2.814815876e-13,1.395918529e-12,1.30324172e-12,4.951865858e-13,1.308326443e-13,4.389291258e-13,1.348436999e-13,1.205183842e-13,3.211135702e-13,1.025172281e-13,3.872634189e-13,1.111326012e-12,1.511739853e-12,2.90888698e-12,2.589045535e-12,2.034890828e-12,7.63026855e-13,1.032065775e-12,3.262722769e-13,8.702671932e-14,6.527199611e-14,1.263291855e-13,1.807974766e-13,4.268430017e-13,3.990298182e-13,3.379350522e-13,5.326987274e-13,6.132369923e-13,9.263840217e-13,3.448694994e-13
0.4921875,8.671794955e-13,1.080529193e-12,2.720299848e-13,1.368710827e-12,1.274684759e-12,4.87088082e-13,1.2542344e-13,4.277667494e-13,1.351194733e-13,1.199299217e-13,3.16487777e-13,1.016317532e-13,3.845539599e-13,1.060182954e-12,1.456938645e-12,2.765294744e-12,2.475578394e-12,1.945670493e-12,7.393905024e-13,9.955979412e-13,3.297661174e-13,8.938722617e-14,6.390904154e-14,1.24955617e-13,1.777950658e-13,4.089782147e-13,3.859185953e-13,3.363730312e-13,5.1513639e-13,5.996473504e-13,8.965838438e-13,3.311672825e-13
0.5,8.52522693e-13,1.061249889e-12,2.624900817e-13,1.34015172e-12,1.245486765e-12,4.781564702e-13,1.200537382e-13,4.165473329e-13,1.352835767e-13,1.194272311e-13,3.113242399e-13,1.008066685e-13,3.823740065e-13,1.010480454e-12,1.402967111e-12,2.625978667e-12,2.364689068e-12,1.859144138e-12,7.155904912e-13,9.582373803e-13,3.324682497e-13,9.178947476e-14,6.258813679e-14,1.235890801e-13,1.749244466e-13,3.913606188e-13,3.736653484e-13,3.3477096e-13,4.978180099e-13,5.858452902e-13,8.669972048e-13,3.176207712e-13
0.5078125,8.37788042e-13,1.042142463e-12,2.53525865e-13,1.310800253e-12,1.215735924e-12,4.691796418e-13,1.151834743e-13,4.055067649e-13,1.352805693e-13,1.189920568e-13,3.058021353e-13,1.000236225e-13,3.809534954e-13,9.626353055e-13,1.350225043e-12,2.492142273e-12,2.258195529e-12,1.776389097e-12,6.922076211e-13,9.209209168e-13,3.345363067e-13,9.43768115e-14,6.13103921e-14,1.221828328e-13,1.720668688e-13,3.739823124e-13,3.622185094e-13,3.331847287e-13,4.807536531e-13,5.71999056e-13,8.377686895e-13,3.041801408e-13
0.515625,8.230460946e-13,1.023286751e-12,2.452281888e-13,1.28090892e-12,1.185352223e-12,4.604687634e-13,1.110081615e-13,3.948014892e-13,1.350878231e-13,1.18739804e-13,2.998131026e-13,9.925084628e-14,3.801811378e-13,9.166166446e-13,1.298684521e-12,2.363898585e-12,2.156363491e-12,1.697710205e-12,6.695321397e-13,8.842587404e-13,3.361441196e-13,9.718314814e-14,6.013027398e-14,1.205215705e-13,1.692620135e-13,3.568575114e-13,3.515337753e-13,3.314107271e-13,4.639251275e-13,5.579672015e-13,8.088790495e-13,2.908644501e-13
0.5234375,8.076713746e-13,1.004355658e-12,2.373493923e-13,1.250457186e-12,1.154453808e-12,4.516660043e-13,1.072880097e-13,3.842519133e-13,1.347289815e-13,1.187264308e-13,2.932399861e-13,9.850718756e-14,3.798787445e-13,8.725284281e-13,1.248346948e-12,2.240896041e-12,2.058397922e-12,1.622819507e-12,6.474386645e-13,8.482368637e-13,3.371377803e-13,1.001084757e-13,5.898218573e-14,1.185971525e-13,1.66459942e-13,3.40114548e-13,3.417426929e-13,3.295362115e-13,4.475394344e-13,5.4368724e-13,7.804156856e-13,2.77789219e-13
0.53125,7.916297601e-13,9.854500281e-13,2.298509542e-13,1.219503362e-12,1.123392824e-12,4.427468057e-13,1.038569024e-13,3.738473422e-13,1.341936545e-13,1.187658886e-13,2.861306566e-13,9.773671237e-14,3.800190071e-13,8.304170826e-13,1.199330623e-12,2.123284529e-12,1.964503302e-12,1.551402216e-12,6.258900864e-13,8.130609614e-13,3.374878533e-13,1.031459497e-13,5.780834485e-14,1.165884705e-13,1.635887764e-13,3.238839242e-13,3.328839876e-13,3.274787468e-13,4.316701006e-13,5.291690193e-13,7.526994103e-13,2.650699797e-13
0.5390625,7.750885613e-13,9.666190344e-13,2.228012388e-13,1.188133114e-12,1.092243299e-12,4.33678812e-13,1.006472546e-13,3.636152397e-13,1.334347715e-13,1.188234764e-13,2.787048946e-13,9.690656429e-14,3.805444522e-13,7.901641524e-13,1.151727699e-12,2.011484655e-12,1.875021281e-12,1.483388273e-12,6.048400532e-13,7.786432434e-13,3.372221785e-13,1.06317555e-13,5.670730966e-14,1.14640607e-13,1.606810934e-13,3.081867049e-13,3.248226681e-13,3.250684563e-13,4.161199849e-13,5.142465582e-13,7.257460124e-13,2.527506011e-13
0.546875,7.582701783e-13,9.478296279e-13,2.164981132e-13,1.156454231e-12,1.060839357e-12,4.246000333e-13,9.770820036e-14,3.534940017e-13,1.324678723e-13,1.191593685e-13,2.712943114e-13,9.614002944e-14,3.815303367e-13,7.521362064e-13,1.105939552e-12,1.905931616e-12,1.790054564e-12,1.419189229e-12,5.843557059e-13,7.451573418e-13,3.36147477e-13,1.095877744e-13,5.572590057e-14,1.126345611e-13,1.577012328e-13,2.929477001e-13,3.17697656e-13,3.226161631e-13,4.010290657e-13,4.99199599e-13,6.993742894e-13,2.407369688e-13
0.5546875,7.413798007e-13,9.293894914e-13,2.111570433e-13,1.124775849e-12,1.029359605e-12,4.157958775e-13,9.526483696e-14,3.436167411e-13,1.313411137e-13,1.19654258e-13,2.636474962e-13,9.530967441e-14,3.830158842e-13,7.156261712e-13,1.061622403e-12,1.80604782e-12,1.709641198e-12,1.358701033e-12,5.64754942e-13,7.131190937e-13,3.342398475e-13,1.12990584e-13,5.471158878e-14,1.10344829e-13,1.543444146e-13,2.78133012e-13,3.115110565e-13,3.195043672e-13,3.862673868e-13,4.83861793e-13,6.737002365e-13,2.290171661e-13
0.5625,7.240326763e-13,9.109731038e-13,2.063300622e-13,1.09276764e-12,9.978449292e-13,4.068284387e-13,9.321679119e-14,3.339984716e-13,1.301091505e-13,1.20250115e-13,2.555253582e-13,9.442303022e-14,3.847128409e-13,6.803073843e-13,1.017959564e-12,1.710836779e-12,1.632927282e-12,1.300981727e-12,5.458138418e-13,6.818846726e-13,3.315955372e-13,1.165370199e-13,5.364902088e-14,1.07902236e-13,1.508140581e-13,2.637904105e-13,3.060652686e-13,3.15887208e-13,3.719687011e-13,4.68043853e-13,6.48722296e-13,2.177705801e-13
0.5703125,7.061581892e-13,8.92208397e-13,2.017924243e-13,1.060192407e-12,9.663002617e-13,3.975006325e-13,9.131106613e-14,3.245019282e-13,1.287504992e-13,1.209106079e-13,2.472846044e-13,9.346645926e-14,3.865647492e-13,6.465591964e-13,9.750454901e-13,1.620075286e-12,1.559517021e-12,1.245831475e-12,5.273228798e-13,6.512876234e-13,3.282774995e-13,1.201358117e-13,5.251335586e-14,1.052264482e-13,1.47066736e-13,2.500262412e-13,3.013391729e-13,3.118314743e-13,3.582112099e-13,4.518187756e-13,6.243729007e-13,2.071084002e-13
0.578125,6.879567896e-13,8.736120967e-13,1.977377556e-13,1.027419707e-12,9.348029769e-13,3.880318395e-13,8.955118545e-14,3.151740545e-13,1.272581639e-13,1.217820536e-13,2.390571773e-13,9.251053134e-14,3.885862795e-13,6.149864383e-13,9.335993315e-13,1.534140699e-12,1.489610174e-12,1.193698492e-12,5.093390747e-13,6.221924069e-13,3.24273482e-13,1.237214201e-13,5.132720996e-14,1.024130398e-13,1.431494036e-13,2.36907074e-13,2.974113976e-13,3.073865712e-13,3.450592176e-13,4.356698518e-13,6.008473111e-13,1.96981473e-13
0.5859375,6.695324056e-13,8.553124628e-13,1.941076755e-13,9.948047944e-13,9.034452449e-13,3.784094136e-13,8.802506957e-14,3.060059205e-13,1.256279403e-13,1.228724007e-13,2.308643458e-13,9.156313262e-14,3.905826868e-13,5.853369712e-13,8.935692623e-13,1.452826819e-12,1.422785868e-12,1.14428367e-12,4.918818977e-13,5.945401536e-13,3.196079752e-13,1.273716042e-13,5.017331695e-14,9.951766518e-14,1.391590932e-13,2.243356884e-13,2.943189825e-13,3.027104436e-13,3.324750997e-13,4.196179858e-13,5.781102761e-13,1.873723393e-13
0.59375,6.508485113e-13,8.366770675e-13,1.910421734e-13,9.621012406e-13,8.720565842e-13,3.6864395e-13,8.670203431e-14,2.969333218e-13,1.238769949e-13,1.241486031e-13,2.22578279e-13,9.058518726e-14,3.925267227e-13,5.571386234e-13,8.547783145e-13,1.375800561e-12,1.358750745e-12,1.096988649e-12,4.748239974e-13,5.680674244e-13,3.142564084e-13,1.310682491e-13,4.902224689e-14,9.638796618e-14,1.350942497e-13,2.121387651e-13,2.922078745e-13,2.978502912e-13,3.205726807e-13,4.035524454e-13,5.558155504e-13,1.78275494e-13
0.6015625,6.318388155e-13,8.177722415e-13,1.88939342e-13,9.291600811e-13,8.404981183e-13,3.588074058e-13,8.57026149e-14,2.879587145e-13,1.220491386e-13,1.25574641e-13,2.137698481e-13,8.953084284e-14,3.9454893e-13,5.301149295e-13,8.169006144e-13,1.302793829e-12,1.297772856e-12,1.052030067e-12,4.583418253e-13,5.431963835e-13,3.082707695e-13,1.347585974e-13,4.778595184e-14,9.312273347e-14,1.307407424e-13,2.002825755e-13,2.909445542e-13,2.924580508e-13,3.093503584e-13,3.874058478e-13,5.339443926e-13,1.696225137e-13
0.609375,6.126947719e-13,7.990583551e-13,1.876853072e-13,8.963481344e-13,8.090002738e-13,3.490182762e-13,8.521666637e-14,2.79095463e-13,1.201518743e-13,1.270603483e-13,2.046319615e-13,8.842084057e-14,3.966114722e-13,5.041872506e-13,7.796420593e-13,1.233766231e-12,1.240018093e-12,1.00975231e-12,4.42793214e-13,5.201245295e-13,3.020023903e-13,1.385230287e-13,4.657858388e-14,8.985570664e-14,1.261606274e-13,1.888557423e-13,2.902928042e-13,2.864991393e-13,2.986573521e-13,3.711706699e-13,5.127383628e-13,1.613951624e-13
0.6171875,5.933530408e-13,7.802041976e-13,1.869446675e-13,8.634243506e-13,7.774943608e-13,3.391814085e-13,8.510990684e-14,2.703120968e-13,1.18167102e-13,1.286339221e-13,1.955881427e-13,8.728951079e-14,3.984003794e-13,4.790119729e-13,7.4303696e-13,1.168482238e-12,1.18496209e-12,9.691981251e-13,4.2782076e-13,4.987287151e-13,2.955752295e-13,1.423007827e-13,4.550433924e-14,8.656392644e-14,1.216609702e-13,1.778659207e-13,2.903515906e-13,2.80233392e-13,2.884654763e-13,3.548954246e-13,4.92032351e-13,1.536276914e-13
0.625,5.740404823e-13,7.612982594e-13,1.868562169e-13,8.307796577e-13,7.462342837e-13,3.293104582e-13,8.533348464e-14,2.616039947e-13,1.161055285e-13,1.301737657e-13,1.867586257e-13,8.62180168e-14,4.001531876e-13,4.555333991e-13,7.076925049e-13,1.107257221e-12,1.132825082e-12,9.311726032e-13,4.134891818e-13,4.790920696e-13,2.888673796e-13,1.460824381e-13,4.446607691e-14,8.326941658e-14,1.171209571e-13,1.6738991e-13,2.911093225e-13,2.738437003e-13,2.790348406e-13,3.389407784e-13,4.720127438e-13,1.463571324e-13
0.6328125,5.546412549e-13,7.424471334e-13,1.875263861e-13,7.985166732e-13,7.153343219e-13,3.195171512e-13,8.593253682e-14,2.530787366e-13,1.140504911e-13,1.319119891e-13,1.782310726e-13,8.52260835e-14,4.018195392e-13,4.335150249e-13,6.735381792e-13,1.049837365e-12,1.083704805e-12,8.954962117e-13,3.99855481e-13,4.613777924e-13,2.818390095e-13,1.498689305e-13,4.349266987e-14,8.0099231e-14,1.125309587e-13,1.573932463e-13,2.924009202e-13,2.675800702e-13,2.702715894e-13,3.232226345e-13,4.526323753e-13,1.396401962e-13
0.640625,5.353038755e-13,7.238387552e-13,1.891553361e-13,7.667321268e-13,6.846774187e-13,3.10235568e-13,8.700890601e-14,2.445934129e-13,1.120719649e-13,1.337203447e-13,1.698994059e-13,8.437950762e-14,4.034893195e-13,4.127791424e-13,6.408312399e-13,9.964839695e-13,1.037784675e-12,8.621517336e-13,3.869561163e-13,4.456529511e-13,2.744388902e-13,1.536804946e-13,4.260543601e-14,7.689884313e-14,1.081021535e-13,1.477939976e-13,2.942054591e-13,2.616053891e-13,2.621105212e-13,3.079771068e-13,4.337269158e-13,1.335148155e-13
0.6484375,5.160487932e-13,7.054403678e-13,1.920017225e-13,7.354645417e-13,6.540366711e-13,3.013647736e-13,8.878041382e-14,2.359843166e-13,1.10075895e-13,1.35339444e-13,1.613881398e-13,8.357657844e-14,4.052944348e-13,3.932237068e-13,6.093491287e-13,9.466670109e-13,9.947757189e-13,8.312469511e-13,3.74974948e-13,4.316745788e-13,2.666692174e-13,1.575892085e-13,4.177075653e-14,7.357468389e-14,1.037712457e-13,1.385677679e-13,2.963764111e-13,2.552583637e-13,2.54516068e-13,2.929881598e-13,4.152800631e-13,1.279607645e-13
0.65625,4.967025455e-13,6.869142426e-13,1.955494122e-13,7.046503027e-13,6.236553578e-13,2.925107837e-13,9.119344402e-14,2.273426131e-13,1.079760093e-13,1.369269206e-13,1.528944607e-13,8.27269678e-14,4.070181054e-13,3.746938209e-13,5.786665742e-13,8.99754713e-13,9.542813402e-13,8.023020292e-13,3.638858887e-13,4.190458816e-13,2.586807021e-13,1.615505676e-13,4.102009496e-14,7.031486967e-14,9.945412308e-14,1.297732668e-13,2.988770173e-13,2.482647556e-13,2.474170766e-13,2.778980808e-13,3.974725477e-13,1.229099246e-13
0.6640625,4.773349939e-13,6.681678272e-13,1.993712144e-13,6.7425596e-13,5.938231771e-13,2.837979154e-13,9.386424202e-14,2.188191609e-13,1.058471716e-13,1.386014664e-13,1.449667208e-13,8.196699283e-14,4.082834408e-13,3.573301381e-13,5.491041639e-13,8.561452102e-13,9.164946893e-13,7.747362672e-13,3.532103443e-13,4.078793279e-13,2.504770969e-13,1.654007901e-13,4.03169125e-14,6.736658086e-14,9.526678785e-14,1.214566675e-13,3.018266299e-13,2.412747477e-13,2.407740257e-13,2.630768016e-13,3.803748954e-13,1.182970679e-13
0.671875,4.581660404e-13,6.494721578e-13,2.03968413e-13,6.445975677e-13,5.646931286e-13,2.754410837e-13,9.675859018e-14,2.104788366e-13,1.03773919e-13,1.401462722e-13,1.37711811e-13,8.139220785e-14,4.091776826e-13,3.413924044e-13,5.210498864e-13,8.161286132e-13,8.817744711e-13,7.4888597e-13,3.429196353e-13,3.987418953e-13,2.420469124e-13,1.691857264e-13,3.959720485e-14,6.468624939e-14,9.119061402e-14,1.136429798e-13,3.051421629e-13,2.345158914e-13,2.346103035e-13,2.489329935e-13,3.639387339e-13,1.141807245e-13
0.6796875,4.393985225e-13,6.310725746e-13,2.095111434e-13,6.159369608e-13,5.366046239e-13,2.674469871e-13,1.000880279e-13,2.024834402e-13,1.017777808e-13,1.414972865e-13,1.309002513e-13,8.094602812e-14,4.100419981e-13,3.268069053e-13,4.944316353e-13,7.793906757e-13,8.500831372e-13,7.251999649e-13,3.334417729e-13,3.918034631e-13,2.335809932e-13,1.729891802e-13,3.890768082e-14,6.209811882e-14,8.712983207e-14,1.063434088e-13,3.087433538e-13,2.276986538e-13,2.289581426e-13,2.353036003e-13,3.482307681e-13,1.106681936e-13
0.6875,4.212634184e-13,6.131853086e-13,2.157064884e-13,5.882782643e-13,5.096046294e-13,2.598605958e-13,1.037834972e-13,1.948677488e-13,9.99045645e-14,1.427141187e-13,1.244199584e-13,8.072360755e-14,4.109834479e-13,3.136593968e-13,4.692768853e-13,7.456931519e-13,8.212131184e-13,7.035771326e-13,3.248266602e-13,3.866450346e-13,2.251550524e-13,1.767379746e-13,3.826324767e-14,5.978050921e-14,8.317661081e-14,9.954218192e-14,3.126444778e-13,2.210710949e-13,2.238902278e-13,2.222604057e-13,3.333842544e-13,1.077417749e-13
0.6953125,4.034531353e-13,5.954754981e-13,2.227268053e-13,5.613065316e-13,4.831974496e-13,2.523931215e-13,1.078333917e-13,1.874118932e-13,9.811329394e-14,1.438433428e-13,1.183382889e-13,8.057664579e-14,4.11636053e-13,3.015658219e-13,4.453861343e-13,7.146664741e-13,7.949661488e-13,6.833902309e-13,3.16901675e-13,3.830865653e-13,2.167683534e-13,1.80367211e-13,3.76559068e-14,5.798025247e-14,7.936062856e-14,9.321605104e-14,3.16863924e-13,2.146116348e-13,2.193088474e-13,2.098594645e-13,3.191301506e-13,1.054363554e-13
0.703125,3.858695414e-13,5.777599814e-13,2.304363095e-13,5.351591293e-13,4.574141587e-13,2.449713092e-13,1.123457526e-13,1.801517401e-13,9.639383051e-14,1.450315421e-13,1.128625649e-13,8.050316244e-14,4.120795919e-13,2.90504741e-13,4.227756006e-13,6.863054291e-13,7.711392137e-13,6.64554541e-13,3.096752004e-13,3.810760436e-13,2.085259233e-13,1.839587623e-13,3.712465215e-14,5.661903286e-14,7.569970111e-14,8.733332746e-14,3.213358121e-13,2.084001058e-13,2.151684874e-13,1.982390192e-13,3.053219525e-13,1.038104949e-13
0.7109375,3.686864169e-13,5.601864321e-13,2.383338705e-13,5.100393723e-13,4.325900182e-13,2.379890938e-13,1.172270007e-13,1.733981502e-13,9.474812253e-14,1.464178585e-13,1.079785095e-13,8.052181399e-14,4.121988891e-13,2.801973886e-13,4.012257236e-13,6.604838154e-13,7.497161325e-13,6.470014235e-13,3.030885331e-13,3.80464202e-13,2.005953381e-13,1.874444417e-13,3.673646029e-14,5.578134373e-14,7.220744903e-14,8.185077967e-14,3.257959951e-13,2.024829443e-13,2.112857074e-13,1.871557349e-13,2.920795556e-13,1.027559084e-13
0.71875,3.518838082e-13,5.426198688e-13,2.466557336e-13,4.857195963e-13,4.087385135e-13,2.314536658e-13,1.224458612e-13,1.670789253e-13,9.327161798e-14,1.478485867e-13,1.033504881e-13,8.072462716e-14,4.118203972e-13,2.704669192e-13,3.803884135e-13,6.36636685e-13,7.305726539e-13,6.306000723e-13,2.971539181e-13,3.81307052e-13,1.931807701e-13,1.907096861e-13,3.648848041e-14,5.568957264e-14,6.902350573e-14,7.673155432e-14,3.301241599e-13,1.970462318e-13,2.076166456e-13,1.765680538e-13,2.793900901e-13,1.021195113e-13
0.7265625,3.354526753e-13,5.2493146e-13,2.556223619e-13,4.61920574e-13,3.857341136e-13,2.250262783e-13,1.281207834e-13,1.610058531e-13,9.205343629e-14,1.491915643e-13,9.889204605e-14,8.116727547e-14,4.111386275e-13,2.61539872e-13,3.603190875e-13,6.146201304e-13,7.133582095e-13,6.154008572e-13,2.918721492e-13,3.834385382e-13,1.863596561e-13,1.937853886e-13,3.634600771e-14,5.61937607e-14,6.625882216e-14,7.19659229e-14,3.344313992e-13,1.922287936e-13,2.042986355e-13,1.667021412e-13,2.671260954e-13,1.019753874e-13
0.734375,3.196131211e-13,5.07542104e-13,2.649008239e-13,4.390191365e-13,3.636295255e-13,2.189542627e-13,1.342208997e-13,1.55261974e-13,9.107393564e-14,1.504172271e-13,9.488442942e-14,8.172399694e-14,4.104033168e-13,2.533711515e-13,3.411263864e-13,5.949393921e-13,6.984466902e-13,6.019817419e-13,2.872527752e-13,3.866082582e-13,1.799516781e-13,1.968213929e-13,3.632747436e-14,5.715612777e-14,6.377567932e-14,6.760935807e-14,3.386378535e-13,1.878773724e-13,2.01337242e-13,1.5756361e-13,2.554107724e-13,1.02568344e-13
0.7421875,3.045784706e-13,4.90706669e-13,2.746257075e-13,4.174314746e-13,3.425895339e-13,2.136617108e-13,1.40887721e-13,1.498746378e-13,9.033871578e-14,1.514569124e-13,9.130184751e-14,8.228277815e-14,4.097666217e-13,2.456736148e-13,3.226532726e-13,5.779260437e-13,6.867042204e-13,5.911431105e-13,2.836423245e-13,3.91068426e-13,1.739157842e-13,1.999471927e-13,3.644911737e-14,5.868369059e-14,6.135708411e-14,6.369377026e-14,3.426365279e-13,1.838896041e-13,1.986442847e-13,1.490282039e-13,2.443853461e-13,1.040005879e-13
0.75,2.904025476e-13,4.743633357e-13,2.850946657e-13,3.970179621e-13,3.226947655e-13,2.090181975e-13,1.485127312e-13,1.448855034e-13,8.991666182e-14,1.524391634e-13,8.792029286e-14,8.297415082e-14,4.092866296e-13,2.385791302e-13,3.049995164e-13,5.633911666e-13,6.781336607e-13,5.827777616e-13,2.811050982e-13,3.969233296e-13,1.684422723e-13,2.031254714e-13,3.668438939e-14,6.091016233e-14,5.909661134e-14,6.014613638e-14,3.463709119e-13,1.805276919e-13,1.961720822e-13,1.411337091e-13,2.33968156e-13,1.061441732e-13
0.7578125,2.769047903e-13,4.58542172e-13,2.961361333e-13,3.777204036e-13,3.039737671e-13,2.048545501e-13,1.569600756e-13,1.404638577e-13,8.979580069e-14,1.534823766e-13,8.492897999e-14,8.396709881e-14,4.088126655e-13,2.322047653e-13,2.884091395e-13,5.508871828e-13,6.722360414e-13,5.760646241e-13,2.791547931e-13,4.040364181e-13,1.635219602e-13,2.061681239e-13,3.702401804e-14,6.401672327e-14,5.721193596e-14,5.691864429e-14,3.496521144e-13,1.779702809e-13,1.9389654e-13,1.339971168e-13,2.241618261e-13,1.087942464e-13
0.765625,2.639162398e-13,4.432103303e-13,3.076918911e-13,3.59696734e-13,2.864608709e-13,2.012208591e-13,1.657553222e-13,1.365796712e-13,8.990774187e-14,1.543659556e-13,8.251460003e-14,8.525256324e-14,4.081411092e-13,2.263548765e-13,2.726359692e-13,5.399072982e-13,6.686000741e-13,5.705693837e-13,2.776363928e-13,4.124271045e-13,1.590799434e-13,2.089177502e-13,3.747126174e-14,6.803329335e-14,5.566489133e-14,5.397942568e-14,3.524137026e-13,1.760742362e-13,1.917478809e-13,1.276231639e-13,2.150586251e-13,1.117715247e-13
0.7734375,2.514686981e-13,4.281854448e-13,3.197055405e-13,3.428064848e-13,2.700556459e-13,1.980467339e-13,1.749445652e-13,1.331258217e-13,9.02067037e-14,1.549089809e-13,8.059770248e-14,8.666694701e-14,4.069944658e-13,2.210957747e-13,2.570769562e-13,5.298578632e-13,6.666915368e-13,5.660665724e-13,2.767022032e-13,4.21806016e-13,1.552869462e-13,2.113630979e-13,3.803594366e-14,7.288478419e-14,5.439258215e-14,5.125602005e-14,3.545776311e-13,1.748594687e-13,1.8960867e-13,1.219384602e-13,2.064903296e-13,1.150454235e-13
0.78125,2.392312112e-13,4.132784042e-13,3.316286192e-13,3.26691984e-13,2.54557607e-13,1.951794231e-13,1.845546881e-13,1.300832501e-13,9.070074042e-14,1.552084208e-13,7.912604246e-14,8.823542164e-14,4.051740815e-13,2.161744421e-13,2.414456375e-13,5.200749828e-13,6.659436439e-13,5.619958758e-13,2.760276734e-13,4.317345709e-13,1.521297827e-13,2.134904394e-13,3.875567692e-14,7.875208894e-14,5.359153063e-14,4.873489265e-14,3.559432808e-13,1.743116569e-13,1.873250519e-13,1.167474488e-13,1.981650861e-13,1.187465708e-13
0.7890625,2.272175944e-13,3.98754013e-13,3.433128148e-13,3.115376814e-13,2.401397861e-13,1.927103751e-13,1.94438491e-13,1.274514604e-13,9.148968522e-14,1.551649993e-13,7.801653343e-14,8.996879886e-14,4.029768607e-13,2.117698467e-13,2.264553738e-13,5.112176885e-13,6.667472531e-13,5.588714591e-13,2.755439075e-13,4.425969745e-13,1.495098907e-13,2.15209246e-13,3.954368051e-14,8.590839524e-14,5.32264514e-14,4.65132106e-14,3.568264176e-13,1.748123024e-13,1.851423141e-13,1.123969946e-13,1.902548663e-13,1.230000475e-13
0.796875,2.159535323e-13,3.852175176e-13,3.552392779e-13,2.97854001e-13,2.272300224e-13,1.907718685e-13,2.047268957e-13,1.254380639e-13,9.267192281e-14,1.548368967e-13,7.709504155e-14,9.195238659e-14,4.007839767e-13,2.083117571e-13,2.128881626e-13,5.042926111e-13,6.698571313e-13,5.575330601e-13,2.756305876e-13,4.550501744e-13,1.475481707e-13,2.16569303e-13,4.039988927e-14,9.432439102e-14,5.325857647e-14,4.465883693e-14,3.575428679e-13,1.764551541e-13,1.831262525e-13,1.090011043e-13,1.831788064e-13,1.27827624e-13
0.8046875,2.055104185e-13,3.724116137e-13,3.674281426e-13,2.857019657e-13,2.159683996e-13,1.893228357e-13,2.152529223e-13,1.242020909e-13,9.410393907e-14,1.544508763e-13,7.669512924e-14,9.41481782e-14,3.984879432e-13,2.055601527e-13,2.005817585e-13,4.992787264e-13,6.756282187e-13,5.578157061e-13,2.763017846e-13,4.688754581e-13,1.462831954e-13,2.176084073e-13,4.145061575e-14,1.038407392e-13,5.369101869e-14,4.321650432e-14,3.579075429e-13,1.787853618e-13,1.810776598e-13,1.062768691e-13,1.770317334e-13,1.330958188e-13
0.8125,1.954387204e-13,3.599301118e-13,3.793107766e-13,2.747755352e-13,2.060902897e-13,1.881678674e-13,2.255234175e-13,1.23530921e-13,9.566640069e-14,1.537076015e-13,7.710116828e-14,9.642336614e-14,3.957610659e-13,2.030487252e-13,1.890872205e-13,4.954654247e-13,6.834820836e-13,5.591704155e-13,2.773267905e-13,4.831746602e-13,1.456494702e-13,2.182163853e-13,4.268566179e-14,1.14240748e-13,5.444800725e-14,4.211799621e-14,3.578688644e-13,1.817494165e-13,1.790141093e-13,1.042322565e-13,1.716245424e-13,1.386048306e-13
0.8203125,1.857447132e-13,3.484171807e-13,3.906893358e-13,2.651324546e-13,1.974529448e-13,1.874366882e-13,2.357272359e-13,1.233560079e-13,9.747448493e-14,1.521267252e-13,7.784689042e-14,9.87579969e-14,3.924967592e-13,2.008149726e-13,1.7837759e-13,4.925972196e-13,6.929328317e-13,5.61962301e-13,2.789741821e-13,4.97500372e-13,1.45728464e-13,2.184650653e-13,4.399909707e-14,1.25440345e-13,5.545849531e-14,4.121440298e-14,3.575569862e-13,1.856168317e-13,1.770264289e-13,1.030103407e-13,1.668719571e-13,1.443254581e-13
0.828125,1.767360771e-13,3.380672879e-13,4.02023347e-13,2.569458301e-13,1.90136733e-13,1.875201462e-13,2.464700266e-13,1.238389e-13,9.955041745e-14,1.50181064e-13,7.8777799e-14,1.011545864e-13,3.889242039e-13,1.988059334e-13,1.684032095e-13,4.909656365e-13,7.044015022e-13,5.667298627e-13,2.815171822e-13,5.122811081e-13,1.46456464e-13,2.18527296e-13,4.54026182e-14,1.376002147e-13,5.666231782e-14,4.047366336e-14,3.568560411e-13,1.901891015e-13,1.750229278e-13,1.024228762e-13,1.627524457e-13,1.503613967e-13
0.8359375,1.684462757e-13,3.282802294e-13,4.136287271e-13,2.500598787e-13,1.841616274e-13,1.883299933e-13,2.579203962e-13,1.249303986e-13,1.017981544e-13,1.485646985e-13,8.031598165e-14,1.034779679e-13,3.853322115e-13,1.969391184e-13,1.590452934e-13,4.906563891e-13,7.179505325e-13,5.732190796e-13,2.84784865e-13,5.279903504e-13,1.476709425e-13,2.184270335e-13,4.696373527e-14,1.50783478e-13,5.804506161e-14,3.998355791e-14,3.557558942e-13,1.954106309e-13,1.730151252e-13,1.024093082e-13,1.592506212e-13,1.568193616e-13
0.84375,1.607861567e-13,3.191272859e-13,4.253641328e-13,2.443268337e-13,1.794921262e-13,1.896167505e-13,2.697434592e-13,1.26511079e-13,1.04289895e-13,1.468143583e-13,8.222930902e-14,1.056903802e-13,3.818855932e-13,1.954895201e-13,1.503816943e-13,4.914998737e-13,7.333185921e-13,5.811881569e-13,2.887622732e-13,5.44607581e-13,1.494262795e-13,2.182322388e-13,4.867585161e-14,1.650308692e-13,5.953295307e-14,3.979084471e-14,3.544711669e-13,2.016011315e-13,1.711223699e-13,1.031664855e-13,1.564576981e-13,1.637462034e-13
0.8515625,1.537208644e-13,3.108216122e-13,4.369897428e-13,2.397057133e-13,1.759795364e-13,1.915378998e-13,2.816095726e-13,1.286019959e-13,1.071315462e-13,1.444911796e-13,8.416448353e-14,1.080397747e-13,3.787528895e-13,1.945366531e-13,1.423197501e-13,4.933521538e-13,7.503996001e-13,5.906399274e-13,2.935244553e-13,5.61747072e-13,1.517589333e-13,2.179886596e-13,5.049520413e-14,1.804853107e-13,6.098936134e-14,3.97604406e-14,3.528286405e-13,2.086731803e-13,1.691953242e-13,1.046850547e-13,1.542903483e-13,1.709703539e-13
0.859375,1.473282132e-13,3.032449515e-13,4.480208971e-13,2.362039865e-13,1.735154994e-13,1.942049398e-13,2.93629953e-13,1.313180681e-13,1.101782228e-13,1.421307605e-13,8.653667113e-14,1.106228768e-13,3.757579504e-13,1.938319283e-13,1.345524257e-13,4.956401942e-13,7.683407025e-13,6.012064555e-13,2.989125268e-13,5.786794417e-13,1.547119319e-13,2.175372595e-13,5.244434765e-14,1.970590002e-13,6.263274352e-14,3.973098865e-14,3.504003576e-13,2.162474812e-13,1.669688851e-13,1.067694339e-13,1.525202158e-13,1.782324208e-13
0.8671875,1.415941907e-13,2.965008545e-13,4.581580143e-13,2.338318664e-13,1.721833503e-13,1.974494493e-13,3.058460341e-13,1.346432646e-13,1.131844585e-13,1.397619009e-13,8.955603497e-14,1.131604009e-13,3.723415212e-13,1.931338918e-13,1.26999084e-13,4.977671585e-13,7.865597603e-13,6.125182453e-13,3.048555249e-13,5.949949711e-13,1.583984874e-13,2.167605751e-13,5.461667599e-14,2.144263153e-13,6.4685009e-14,3.9762049e-14,3.472336967e-13,2.243090312e-13,1.64499653e-13,1.092637582e-13,1.511754301e-13,1.854991902e-13
0.875,1.36176272e-13,2.903128347e-13,4.678904193e-13,2.323543286e-13,1.719292768e-13,2.011118456e-13,3.180975137e-13,1.384347049e-13,1.162001671e-13,1.369968014e-13,9.312346491e-14,1.155032367e-13,3.684648737e-13,1.924378885e-13,1.198071514e-13,4.999699357e-13,8.054193902e-13,6.24333164e-13,3.112193402e-13,6.113201952e-13,1.626634954e-13,2.157503371e-13,5.709093159e-14,2.325719956e-13,6.697624486e-14,3.993367377e-14,3.435261404e-13,2.33261125e-13,1.619559936e-13,1.122325619e-13,1.502477989e-13,1.929504571e-13
0.8828125,1.309720484e-13,2.842574369e-13,4.773217922e-13,2.316920357e-13,1.727579511e-13,2.051731978e-13,3.304543264e-13,1.428286819e-13,1.194688198e-13,1.341868211e-13,9.728706307e-14,1.177438666e-13,3.645866932e-13,1.921340594e-13,1.130970173e-13,5.024881475e-13,8.247807056e-13,6.362582991e-13,3.17769643e-13,6.284532713e-13,1.672712168e-13,2.146245828e-13,5.985361242e-14,2.522124944e-13,6.952775922e-14,4.01960419e-14,3.392348037e-13,2.431501529e-13,1.593266655e-13,1.158385709e-13,1.495836636e-13,2.007143152e-13
0.890625,1.262980478e-13,2.789020315e-13,4.857660387e-13,2.321691342e-13,1.748812359e-13,2.096306762e-13,3.425408478e-13,1.478867802e-13,1.229783905e-13,1.313439269e-13,1.017336533e-13,1.199463914e-13,3.608296684e-13,1.924266818e-13,1.06816163e-13,5.049252268e-13,8.442262026e-13,6.481853807e-13,3.246571878e-13,6.463366616e-13,1.722480138e-13,2.133389683e-13,6.279962336e-14,2.738121289e-13,7.239745062e-14,4.052249855e-14,3.345593452e-13,2.534133582e-13,1.566419554e-13,1.198882356e-13,1.493396547e-13,2.086142657e-13
0.8984375,1.221523932e-13,2.749474831e-13,4.931162429e-13,2.339220778e-13,1.782848798e-13,2.144667766e-13,3.53755481e-13,1.534159855e-13,1.265703267e-13,1.279451823e-13,1.062880497e-13,1.222257253e-13,3.57064726e-13,1.93038552e-13,1.008609294e-13,5.069896413e-13,8.636055636e-13,6.60313313e-13,3.321977691e-13,6.644661526e-13,1.777950978e-13,2.11803104e-13,6.587917065e-14,2.965791725e-13,7.544784529e-14,4.087048243e-14,3.29662931e-13,2.640247478e-13,1.539377677e-13,1.241988562e-13,1.49730611e-13,2.163409114e-13
0.90625,1.1829942e-13,2.721150859e-13,4.996433987e-13,2.368057632e-13,1.828591437e-13,2.197996803e-13,3.642344901e-13,1.595293181e-13,1.301229689e-13,1.24301821e-13,1.11267073e-13,1.245353603e-13,3.531384818e-13,1.938688086e-13,9.528462696e-14,5.087149362e-13,8.826879033e-13,6.726300702e-13,3.404146457e-13,6.822766663e-13,1.840634951e-13,2.100173357e-13,6.918644053e-14,3.196713622e-13,7.885600993e-14,4.119887651e-14,3.243541145e-13,2.752274197e-13,1.511280341e-13,1.289138423e-13,1.506690121e-13,2.237449583e-13
0.9140625,1.147398343e-13,2.698572758e-13,5.05211308e-13,2.405954939e-13,1.88408414e-13,2.25547289e-13,3.741251345e-13,1.661430682e-13,1.333950274e-13,1.2082279e-13,1.167583397e-13,1.265297152e-13,3.487605924e-13,1.948953339e-13,9.003769973e-14,5.100162123e-13,9.012226904e-13,6.849408888e-13,3.490899053e-13,6.991069747e-13,1.909067231e-13,2.079654342e-13,7.282452097e-14,3.43022212e-13,8.261123073e-14,4.154754109e-14,3.187315972e-13,2.864062442e-13,1.482423144e-13,1.338593418e-13,1.519371594e-13,2.306991444e-13
0.921875,1.114670365e-13,2.680861936e-13,5.098762725e-13,2.45155898e-13,1.946662248e-13,2.315651027e-13,3.835117261e-13,1.730361492e-13,1.363234898e-13,1.171927367e-13,1.227051662e-13,1.281349006e-13,3.43826824e-13,1.957932075e-13,8.492723583e-14,5.106943268e-13,9.18882715e-13,6.972346274e-13,3.581445713e-13,7.15212673e-13,1.981198763e-13,2.056858267e-13,7.676338645e-14,3.66780085e-13,8.632289121e-14,4.190937864e-14,3.129192684e-13,2.973061023e-13,1.452975448e-13,1.387420268e-13,1.53330135e-13,2.371908793e-13
0.9296875,1.08440405e-13,2.669662895e-13,5.139553835e-13,2.506898657e-13,2.017844786e-13,2.383052678e-13,3.927797107e-13,1.80525907e-13,1.391389251e-13,1.133751897e-13,1.289065785e-13,1.295445855e-13,3.385497475e-13,1.963698891e-13,7.999102814e-14,5.109279395e-13,9.360502095e-13,7.097056144e-13,3.678361768e-13,7.319307513e-13,2.058007397e-13,2.033170915e-13,8.089561111e-14,3.910749291e-13,9.000155017e-14,4.227313819e-14,3.066974372e-13,3.082893187e-13,1.421529226e-13,1.435713241e-13,1.549075081e-13,2.434412879e-13
0.9375,1.05749862e-13,2.666226684e-13,5.175233528e-13,2.571873689e-13,2.098158737e-13,2.459565111e-13,4.016308801e-13,1.884356431e-13,1.418646314e-13,1.09621258e-13,1.351398503e-13,1.307144294e-13,3.330828216e-13,1.966445452e-13,7.528240321e-14,5.110642249e-13,9.534454587e-13,7.223139206e-13,3.782321151e-13,7.496320556e-13,2.14090303e-13,2.009151873e-13,8.526729562e-14,4.154996144e-13,9.375909229e-14,4.269280196e-14,3.002287892e-13,3.189588714e-13,1.389021866e-13,1.482363977e-13,1.569076544e-13,2.494756187e-13
0.9453125,1.03369951e-13,2.669926271e-13,5.203760519e-13,2.642394032e-13,2.184668023e-13,2.5403735e-13,4.093767396e-13,1.962946548e-13,1.443883022e-13,1.058635479e-13,1.417414896e-13,1.315491208e-13,3.273694989e-13,1.966704233e-13,7.074126781e-14,5.108146385e-13,9.702116211e-13,7.346619202e-13,3.890048124e-13,7.672925679e-13,2.229245316e-13,1.985274805e-13,9.003875725e-14,4.39741156e-13,9.752793517e-14,4.316701842e-14,2.938929867e-13,3.292004217e-13,1.358189201e-13,1.527720831e-13,1.592806341e-13,2.551053554e-13
0.953125,1.010613748e-13,2.677737975e-13,5.221111207e-13,2.71753165e-13,2.27674107e-13,2.624511057e-13,4.158260732e-13,2.04358575e-13,1.466908128e-13,1.020979717e-13,1.48909466e-13,1.321050518e-13,3.212007406e-13,1.966538151e-13,6.644026615e-14,5.097027556e-13,9.852133824e-13,7.461977519e-13,3.998754199e-13,7.840957847e-13,2.321290038e-13,1.961685246e-13,9.517774429e-14,4.641639433e-13,1.01364711e-13,4.362554042e-14,2.875903732e-13,3.394670124e-13,1.328587149e-13,1.5737607e-13,1.617901507e-13,2.60185079e-13
0.9609375,9.862966016e-14,2.687631652e-13,5.228102413e-13,2.79796272e-13,2.372648496e-13,2.712098964e-13,4.21257644e-13,2.125376605e-13,1.48672036e-13,9.83921411e-14,1.564338313e-13,1.323800807e-13,3.144307269e-13,1.966406983e-13,6.238391223e-14,5.077219056e-13,9.984219274e-13,7.564846869e-13,4.107683659e-13,7.999402959e-13,2.416964955e-13,1.937377008e-13,1.006081812e-13,4.882754092e-13,1.052107463e-13,4.397344475e-14,2.809448258e-13,3.491224179e-13,1.297380966e-13,1.617518964e-13,1.642332304e-13,2.646321893e-13
0.96875,9.62084728e-14,2.702196922e-13,5.233538639e-13,2.883701342e-13,2.471980842e-13,2.803034507e-13,4.264512897e-13,2.206561046e-13,1.503154849e-13,9.473850061e-14,1.642044052e-13,1.322814835e-13,3.072925077e-13,1.963651726e-13,5.85775242e-14,5.050084919e-13,1.009854859e-12,7.659301394e-13,4.22034548e-13,8.154296478e-13,2.51881225e-13,1.913244968e-13,1.063900155e-13,5.118789876e-13,1.08963025e-13,4.422472145e-14,2.738626386e-13,3.576358228e-13,1.264708657e-13,1.656981151e-13,1.666082437e-13,2.686569005e-13
0.9765625,9.409881885e-14,2.723931238e-13,5.239636549e-13,2.9756533e-13,2.578920771e-13,2.900560153e-13,4.315043041e-13,2.29107581e-13,1.51735088e-13,9.128427031e-14,1.719991853e-13,1.317618769e-13,3.001753005e-13,1.957771874e-13,5.51787926e-14,5.018331699e-13,1.019825258e-12,7.752251374e-13,4.34067752e-13,8.311448098e-13,2.627539052e-13,1.891415554e-13,1.12501467e-13,5.360679457e-13,1.126213932e-13,4.453585464e-14,2.668762014e-13,3.657405433e-13,1.234560324e-13,1.694702152e-13,1.69236463e-13,2.72510887e-13
0.984375,9.226344658e-14,2.749489082e-13,5.23767507e-13,3.070614352e-13,2.690860499e-13,3.001023678e-13,4.355315764e-13,2.375533347e-13,1.529100268e-13,8.798380928e-14,1.79831576e-13,1.309027786e-13,2.931126988e-13,1.950902192e-13,5.210924195e-14,4.982174665e-13,1.028324218e-12,7.839360916e-13,4.464115364e-13,8.463905062e-13,2.740803975e-13,1.871923914e-13,1.189490335e-13,5.603760729e-13,1.161270793e-13,4.487999007e-14,2.603171252e-13,3.736041674e-13,1.20829745e-13,1.731009008e-13,1.720763579e-13,2.760062911e-13
0.9921875,9.046951528e-14,2.775472176e-13,5.226343147e-13,3.164166528e-13,2.801295329e-13,3.099016642e-13,4.385163359e-13,2.455932624e-13,1.537597608e-13,8.463730792e-14,1.878569622e-13,1.297581006e-13,2.858791268e-13,1.942861826e-13,4.925467941e-14,4.93647421e-13,1.034364734e-12,7.914771893e-13,4.584782976e-13,8.602230243e-13,2.856220158e-13,1.854043667e-13,1.258670718e-13,5.840331656e-13,1.19597218e-13,4.507383211e-14,2.536455158e-13,3.806121795e-13,1.18279939e-13,1.765181917e-13,1.746322671e-13,2.788963565e-13
1,8.876229959e-14,2.802950028e-13,5.213231512e-13,3.258236911e-13,2.911057772e-13,3.198600365e-13,4.409791942e-13,2.535903521e-13,1.542372795e-13,8.138448471e-14,1.958872665e-13,1.282425996e-13,2.785101434e-13,1.931851041e-13,4.67610571e-14,4.881958052e-13,1.037988058e-12,7.980024813e-13,4.704315396e-13,8.727166904e-13,2.972944495e-13,1.838447115e-13,1.332870609e-13,6.078946992e-13,1.231210137e-13,4.513659576e-14,2.467548075e-13,3.867695797e-13,1.157577717e-13,1.797345353e-13,1.768641073e-13,2.81157401e-13
1.0078125,8.727783199e-14,2.832435207e-13,5.200227638e-13,3.355654437e-13,3.022557275e-13,3.30243743e-13,4.430078823e-13,2.613966578e-13,1.543788252e-13,7.832592014e-14,2.040659959e-13,1.263929956e-13,2.713383093e-13,1.919313984e-13,4.465438996e-14,4.82454999e-13,1.040038527e-12,8.035308789e-13,4.826246451e-13,8.845470732e-13,3.093294326e-13,1.827500025e-13,1.411482809e-13,6.316163358e-13,1.264473687e-13,4.51687946e-14,2.401588988e-13,3.923680799e-13,1.13521864e-13,1.82650629e-13,1.790179746e-13,2.828562842e-13
1.015625,8.601113792e-14,2.866160893e-13,5.187133005e-13,3.456826976e-13,3.136221526e-13,3.410542058e-13,4.447545657e-13,2.687911579e-13,1.543092994e-13,7.545747041e-14,2.124687882e-13,1.243006237e-13,2.644757694e-13,1.908471077e-13,4.288693765e-14,4.765172459e-13,1.040713329e-12,8.081802262e-13,4.952207553e-13,8.965295298e-13,3.219091771e-13,1.822719145e-13,1.49344272e-13,6.545489744e-13,1.295069338e-13,4.518385885e-14,2.337486221e-13,3.972669594e-13,1.116282538e-13,1.852738517e-13,1.811936557e-13,2.841164464e-13
1.0234375,8.494207829e-14,2.908688346e-13,5.174293099e-13,3.561894814e-13,3.252018956e-13,3.524716683e-13,4.457371393e-13,2.760478016e-13,1.539799681e-13,7.301838938e-14,2.207339533e-13,1.218848544e-13,2.576903907e-13,1.898716672e-13,4.146729118e-14,4.701749692e-13,1.03977913e-12,8.118538652e-13,5.080736418e-13,9.085081429e-13,3.349427674e-13,1.822344804e-13,1.578504913e-13,6.773067747e-13,1.325264258e-13,4.517590105e-14,2.273944467e-13,4.012702283e-13,1.100405334e-13,1.876237737e-13,1.835168988e-13,2.848377917e-13
1.03125,8.401410828e-14,2.955527515e-13,5.155395795e-13,3.668432702e-13,3.367339786e-13,3.643191211e-13,4.451531195e-13,2.830768527e-13,1.532515155e-13,7.095833851e-14,2.289348194e-13,1.191939002e-13,2.508705828e-13,1.887697221e-13,4.02958507e-14,4.630106371e-13,1.036359797e-12,8.136211757e-13,5.208315091e-13,9.194727127e-13,3.485580437e-13,1.824774365e-13,1.668013562e-13,6.994680686e-13,1.355591213e-13,4.508786078e-14,2.213968744e-13,4.044500994e-13,1.087216483e-13,1.895496884e-13,1.8580674e-13,2.847958299e-13
1.0390625,8.3199976e-14,2.999570192e-13,5.12776122e-13,3.774471617e-13,3.48022864e-13,3.76551077e-13,4.433397867e-13,2.8973852e-13,1.521429272e-13,6.896295904e-14,2.369387847e-13,1.163534328e-13,2.442144004e-13,1.876180913e-13,3.938642639e-14,4.548304567e-13,1.030264642e-12,8.135221056e-13,5.335129402e-13,9.295528086e-13,3.626961855e-13,1.831339522e-13,1.760811064e-13,7.20649575e-13,1.384058924e-13,4.491055235e-14,2.157616343e-13,4.067287054e-13,1.076402361e-13,1.909850935e-13,1.877919362e-13,2.840595714e-13
1.046875,8.269285509e-14,3.045132016e-13,5.098369671e-13,3.881358787e-13,3.591644636e-13,3.891901444e-13,4.40881737e-13,2.960303138e-13,1.507235948e-13,6.714650602e-14,2.443859679e-13,1.132400303e-13,2.379901154e-13,1.864899325e-13,3.883234077e-14,4.461712811e-13,1.022596817e-12,8.124182765e-13,5.462633129e-13,9.39356399e-13,3.769653515e-13,1.844161807e-13,1.854721626e-13,7.412886957e-13,1.409293276e-13,4.472157351e-14,2.104672106e-13,4.079009868e-13,1.069354572e-13,1.919747032e-13,1.897131854e-13,2.827654373e-13
1.0546875,8.264264594e-14,3.095936642e-13,5.070557449e-13,3.98868898e-13,3.702173494e-13,4.019495988e-13,4.378165232e-13,3.017267236e-13,1.490695404e-13,6.574841289e-14,2.516228031e-13,1.098192147e-13,2.322689168e-13,1.852248942e-13,3.852965236e-14,4.371276903e-13,1.013218027e-12,8.098861109e-13,5.589091027e-13,9.486763599e-13,3.915995679e-13,1.863937763e-13,1.950987024e-13,7.609009405e-13,1.432650643e-13,4.453179896e-14,2.05452342e-13,4.082105699e-13,1.065822098e-13,1.925551911e-13,1.917457496e-13,2.8101613e-13
1.0625,8.288317771e-14,3.148372629e-13,5.042054453e-13,4.095186035e-13,3.810465603e-13,4.15029841e-13,4.339121951e-13,3.067658155e-13,1.471791878e-13,6.477903298e-14,2.585763118e-13,1.062499594e-13,2.26896486e-13,1.838118707e-13,3.836507984e-14,4.272831043e-13,1.001422546e-12,8.053472056e-13,5.711786205e-13,9.573670225e-13,4.069261138e-13,1.889807716e-13,2.050209503e-13,7.795416449e-13,1.454736814e-13,4.437131587e-14,2.004135251e-13,4.076910511e-13,1.063647107e-13,1.926573036e-13,1.937632834e-13,2.789913152e-13
1.0703125,8.328233921e-14,3.201817876e-13,5.010484706e-13,4.201533661e-13,3.914889096e-13,4.284376181e-13,4.287516606e-13,3.112681649e-13,1.449665416e-13,6.423367741e-14,2.647695905e-13,1.025526915e-13,2.218509324e-13,1.824116949e-13,3.833465656e-14,4.167971233e-13,9.876843504e-13,7.992304946e-13,5.829378005e-13,9.652101494e-13,4.227014411e-13,1.92186434e-13,2.151312126e-13,7.978301239e-13,1.473919351e-13,4.427570942e-14,1.954940151e-13,4.058349497e-13,1.063976658e-13,1.921971481e-13,1.957771973e-13,2.766796606e-13
1.078125,8.394868135e-14,3.255772819e-13,4.974446961e-13,4.306547137e-13,4.015597433e-13,4.416309622e-13,4.226563983e-13,3.153658626e-13,1.42584396e-13,6.39567629e-14,2.704906826e-13,9.872506356e-14,2.173269386e-13,1.810829184e-13,3.849682879e-14,4.058992905e-13,9.72141526e-13,7.919836674e-13,5.944424221e-13,9.719539527e-13,4.388906955e-13,1.961144461e-13,2.254028842e-13,8.150007971e-13,1.490098707e-13,4.416778904e-14,1.909585244e-13,4.029763672e-13,1.06892054e-13,1.91441077e-13,1.977170147e-13,2.740674301e-13
1.0859375,8.493027438e-14,3.308555859e-13,4.937124946e-13,4.408236022e-13,4.111625652e-13,4.547267766e-13,4.163624135e-13,3.190437771e-13,1.402257629e-13,6.370929988e-14,2.758287586e-13,9.478793681e-14,2.133882538e-13,1.797432624e-13,3.894583797e-14,3.948119665e-13,9.550564464e-13,7.840063944e-13,6.058909386e-13,9.780835459e-13,4.553135152e-13,2.006922526e-13,2.356959926e-13,8.301223539e-13,1.503054777e-13,4.407125165e-14,1.867241433e-13,3.998176312e-13,1.078286111e-13,1.906293686e-13,1.994554228e-13,2.713694549e-13
1.09375,8.619564828e-14,3.36242868e-13,4.903487401e-13,4.507359778e-13,4.199760003e-13,4.679254334e-13,4.097728833e-13,3.219038613e-13,1.37714766e-13,6.362374433e-14,2.805173932e-13,9.0683188e-14,2.099950784e-13,1.782619284e-13,3.964377831e-14,3.839517138e-13,9.374496733e-13,7.755735732e-13,6.168310376e-13,9.837314585e-13,4.712965445e-13,2.058089386e-13,2.459207862e-13,8.433643095e-13,1.51166305e-13,4.403661884e-14,1.828346942e-13,3.95855941e-13,1.09160545e-13,1.894404236e-13,2.010495613e-13,2.685220718e-13
1.1015625,8.772703668e-14,3.417621886e-13,4.874783303e-13,4.603784449e-13,4.279493247e-13,4.810323731e-13,4.026818673e-13,3.237923979e-13,1.348481207e-13,6.392795346e-14,2.848525055e-13,8.647099587e-14,2.070780995e-13,1.766910143e-13,4.050274504e-14,3.730095093e-13,9.18959959e-13,7.663623837e-13,6.26922574e-13,9.883397372e-13,4.867636451e-13,2.113603432e-13,2.560875944e-13,8.556665012e-13,1.517421744e-13,4.392015871e-14,1.791781883e-13,3.906070517e-13,1.107548156e-13,1.876812074e-13,2.024690296e-13,2.652039561e-13
1.109375,8.945093534e-14,3.472034103e-13,4.849428666e-13,4.694863769e-13,4.351534496e-13,4.939157595e-13,3.951704833e-13,3.249832932e-13,1.317335017e-13,6.442787609e-14,2.889688905e-13,8.224554514e-14,2.045148235e-13,1.752143574e-13,4.153604925e-14,3.615417503e-13,8.986086795e-13,7.560690525e-13,6.362171931e-13,9.916091846e-13,5.019997407e-13,2.172160928e-13,2.660341245e-13,8.670774141e-13,1.520853215e-13,4.36854508e-14,1.754916949e-13,3.846110675e-13,1.12519258e-13,1.857373609e-13,2.036311346e-13,2.614326581e-13
1.1171875,9.145178501e-14,3.525478082e-13,4.8250348e-13,4.780278413e-13,4.415392868e-13,5.06260717e-13,3.873725853e-13,3.255978712e-13,1.285956236e-13,6.48917771e-14,2.925799e-13,7.798891329e-14,2.024966138e-13,1.738255201e-13,4.275401346e-14,3.498947156e-13,8.769524073e-13,7.449564798e-13,6.446701149e-13,9.93459246e-13,5.16967866e-13,2.23499448e-13,2.75827638e-13,8.762609894e-13,1.520828366e-13,4.343498196e-14,1.719654821e-13,3.781890491e-13,1.146147672e-13,1.838700465e-13,2.045120899e-13,2.574465421e-13
1.125,9.392368275e-14,3.578788369e-13,4.804207859e-13,4.863034061e-13,4.473247984e-13,5.183701136e-13,3.797997602e-13,3.25756508e-13,1.255770055e-13,6.553096194e-14,2.958151124e-13,7.378478293e-14,2.013760791e-13,1.725563122e-13,4.422083217e-14,3.382820714e-13,8.548856306e-13,7.33537613e-13,6.525727736e-13,9.943550767e-13,5.319600515e-13,2.303662501e-13,2.857431236e-13,8.841988224e-13,1.519942511e-13,4.313084782e-14,1.687402148e-13,3.713080834e-13,1.170733216e-13,1.820553528e-13,2.050996748e-13,2.533676284e-13
1.1328125,9.681865255e-14,3.635598702e-13,4.793587963e-13,4.944453419e-13,4.527336118e-13,5.308498071e-13,3.725085874e-13,3.254781955e-13,1.226765272e-13,6.65696241e-14,2.98864228e-13,6.971194003e-14,2.010826119e-13,1.716048909e-13,4.605864073e-14,3.266310085e-13,8.325686348e-13,7.219323466e-13,6.603097542e-13,9.951797521e-13,5.4712809e-13,2.377319204e-13,2.956156577e-13,8.928446241e-13,1.519799951e-13,4.277411678e-14,1.656481948e-13,3.641009274e-13,1.197992422e-13,1.803635714e-13,2.056123044e-13,2.492697154e-13
1.140625,1.000244421e-13,3.694550436e-13,4.790858119e-13,5.022533911e-13,4.575280074e-13,5.430560032e-13,3.650223249e-13,3.244001042e-13,1.197803087e-13,6.784763434e-14,3.012455736e-13,6.566238157e-14,2.013754896e-13,1.709151526e-13,4.821035611e-14,3.151026821e-13,8.101256462e-13,7.09898964e-13,6.674950394e-13,9.95853744e-13,5.616143778e-13,2.454801487e-13,3.050948593e-13,9.00114675e-13,1.516882685e-13,4.245814956e-14,1.627231256e-13,3.564137348e-13,1.228654942e-13,1.787660812e-13,2.06218669e-13,2.451163087e-13
1.1484375,1.035218054e-13,3.747218508e-13,4.786611723e-13,5.095423439e-13,4.614471517e-13,5.544551984e-13,3.572893917e-13,3.224418448e-13,1.168167527e-13,6.911732191e-14,3.026026022e-13,6.162061715e-14,2.02250201e-13,1.703570864e-13,5.048777578e-14,3.036693777e-13,7.8754906e-13,6.97434231e-13,6.735178298e-13,9.954078682e-13,5.749152238e-13,2.534102815e-13,3.14119316e-13,9.045849567e-13,1.50963634e-13,4.215968202e-14,1.601276743e-13,3.481964737e-13,1.262512265e-13,1.771731982e-13,2.066928705e-13,2.407240891e-13
1.15625,1.073180906e-13,3.795742026e-13,4.77912953e-13,5.162105525e-13,4.645789176e-13,5.653318687e-13,3.491286772e-13,3.199468303e-13,1.138763278e-13,7.032823473e-14,3.035791617e-13,5.775705621e-14,2.038398877e-13,1.699821146e-13,5.279663873e-14,2.922340357e-13,7.644255355e-13,6.843694603e-13,6.782062872e-13,9.93156068e-13,5.87748058e-13,2.613868088e-13,3.228162315e-13,9.086830422e-13,1.500565427e-13,4.182539496e-14,1.578981269e-13,3.400462002e-13,1.298543081e-13,1.757861969e-13,2.069107989e-13,2.360383257e-13
1.1640625,1.115384818e-13,3.846793913e-13,4.772041237e-13,5.221510977e-13,4.669953541e-13,5.755122774e-13,3.404474571e-13,3.170091382e-13,1.110995147e-13,7.155676291e-14,3.046845414e-13,5.4140175e-14,2.062068332e-13,1.696590835e-13,5.515710665e-14,2.809729288e-13,7.406255058e-13,6.702389681e-13,6.816489631e-13,9.891659271e-13,6.005453301e-13,2.695822664e-13,3.31342796e-13,9.123774891e-13,1.490711552e-13,4.146195583e-14,1.55847807e-13,3.321288887e-13,1.337158155e-13,1.746862135e-13,2.069914838e-13,2.312177751e-13
1.171875,1.161667641e-13,3.894751176e-13,4.763257028e-13,5.274256371e-13,4.686231031e-13,5.848653947e-13,3.31758803e-13,3.135062457e-13,1.084762895e-13,7.287139131e-14,3.053417262e-13,5.065075148e-14,2.090639653e-13,1.692976266e-13,5.763190256e-14,2.698852143e-13,7.164780343e-13,6.552339172e-13,6.840240086e-13,9.839774524e-13,6.128605198e-13,2.780203677e-13,3.396792577e-13,9.138841752e-13,1.478545503e-13,4.111752175e-14,1.537211643e-13,3.237955782e-13,1.377401163e-13,1.735967056e-13,2.069263947e-13,2.264645637e-13
1.1796875,1.209921996e-13,3.935638932e-13,4.750285982e-13,5.32178484e-13,4.696619964e-13,5.934368901e-13,3.230722325e-13,3.095646549e-13,1.059185984e-13,7.43131403e-14,3.05154e-13,4.723617765e-14,2.120671799e-13,1.691352307e-13,6.027863082e-14,2.589470374e-13,6.923243728e-13,6.400739997e-13,6.85495482e-13,9.779773201e-13,6.244607764e-13,2.864554602e-13,3.476080888e-13,9.143222326e-13,1.464214561e-13,4.087720852e-14,1.515881722e-13,3.149586769e-13,1.417492133e-13,1.72453618e-13,2.067433366e-13,2.218889608e-13
1.1875,1.260980568e-13,3.974189154e-13,4.737238092e-13,5.364239782e-13,4.702946187e-13,6.011913249e-13,3.142152764e-13,3.053869211e-13,1.034477246e-13,7.584751111e-14,3.044375514e-13,4.401457778e-14,2.154599277e-13,1.692189512e-13,6.312116021e-14,2.486387486e-13,6.687012289e-13,6.25356038e-13,6.861652973e-13,9.713230471e-13,6.353691252e-13,2.948096534e-13,3.549405551e-13,9.141107772e-13,1.450536287e-13,4.076684512e-14,1.497210293e-13,3.062949212e-13,1.458505685e-13,1.714406746e-13,2.066458903e-13,2.174415423e-13
1.1953125,1.31708386e-13,4.011160123e-13,4.725504415e-13,5.400650633e-13,4.70156751e-13,6.084144534e-13,3.054794996e-13,3.008024069e-13,1.011302002e-13,7.736046274e-14,3.031830729e-13,4.101946063e-14,2.196503808e-13,1.693947804e-13,6.608648167e-14,2.393282142e-13,6.459811235e-13,6.111837053e-13,6.859362865e-13,9.638059982e-13,6.452642793e-13,3.031461593e-13,3.615957677e-13,9.116452654e-13,1.438012108e-13,4.07536622e-14,1.48292623e-13,2.979432234e-13,1.502015464e-13,1.706239155e-13,2.06657975e-13,2.130285965e-13
1.203125,1.377706463e-13,4.044360622e-13,4.712157908e-13,5.428851085e-13,4.690980487e-13,6.147815609e-13,2.967845391e-13,2.955722219e-13,9.892918975e-14,7.887372393e-14,3.013525485e-13,3.818585414e-14,2.245275264e-13,1.69690954e-13,6.907830491e-14,2.306614943e-13,6.235512315e-13,5.968454675e-13,6.845497072e-13,9.547305654e-13,6.541596322e-13,3.113999709e-13,3.676528366e-13,9.076084601e-13,1.424662463e-13,4.078573345e-14,1.471882723e-13,2.894700272e-13,1.546929644e-13,1.699878645e-13,2.065452928e-13,2.086322136e-13
1.2109375,1.441365199e-13,4.072910784e-13,4.69794276e-13,5.448871736e-13,4.675746818e-13,6.199997039e-13,2.880310112e-13,2.899322679e-13,9.677195971e-14,8.04591346e-14,2.994070502e-13,3.557400851e-14,2.298334721e-13,1.702019339e-13,7.218687291e-14,2.222737546e-13,6.008793537e-13,5.819520074e-13,6.820935191e-13,9.442336295e-13,6.626647614e-13,3.194027502e-13,3.731754114e-13,9.038251791e-13,1.410866372e-13,4.080094452e-14,1.460389313e-13,2.809589933e-13,1.591750217e-13,1.695024207e-13,2.062396914e-13,2.042400965e-13
1.21875,1.507569503e-13,4.094691129e-13,4.680427455e-13,5.463671451e-13,4.656822281e-13,6.248783321e-13,2.794200519e-13,2.842386773e-13,9.469602251e-14,8.202225576e-14,2.973468777e-13,3.323323086e-14,2.35516351e-13,1.710035308e-13,7.548110039e-14,2.142575324e-13,5.78442623e-13,5.671185139e-13,6.787913573e-13,9.333746212e-13,6.70615185e-13,3.270705526e-13,3.780089028e-13,8.993564512e-13,1.397921034e-13,4.086773407e-14,1.449087082e-13,2.728713275e-13,1.63699798e-13,1.692116864e-13,2.059157536e-13,1.998668807e-13
1.2265625,1.575733648e-13,4.108777813e-13,4.655217465e-13,5.471987026e-13,4.631075403e-13,6.292444596e-13,2.708750339e-13,2.784778426e-13,9.274168802e-14,8.356663534e-14,2.94851049e-13,3.109431787e-14,2.414259474e-13,1.720382225e-13,7.87927821e-14,2.065987172e-13,5.564845486e-13,5.526008061e-13,6.744728672e-13,9.221613444e-13,6.771373174e-13,3.343584776e-13,3.821388321e-13,8.927496003e-13,1.386410753e-13,4.110600817e-14,1.441505645e-13,2.650863753e-13,1.683096932e-13,1.691675082e-13,2.055619212e-13,1.955667631e-13
1.234375,1.644541579e-13,4.118203329e-13,4.62914114e-13,5.47217616e-13,4.600329499e-13,6.321828559e-13,2.624944752e-13,2.725917824e-13,9.084478243e-14,8.51916582e-14,2.922811044e-13,2.915030288e-14,2.473886701e-13,1.731532014e-13,8.212616113e-14,1.992644111e-13,5.349787891e-13,5.383219799e-13,6.69149385e-13,9.10154318e-13,6.823250467e-13,3.411397038e-13,3.856735729e-13,8.854043833e-13,1.377540668e-13,4.150223614e-14,1.435968309e-13,2.572970562e-13,1.728732432e-13,1.692164127e-13,2.0512413e-13,1.913336713e-13
1.2421875,1.713833806e-13,4.126672199e-13,4.60845769e-13,5.469082692e-13,4.569310933e-13,6.341209164e-13,2.545549048e-13,2.66772918e-13,8.902844514e-14,8.677628584e-14,2.898228311e-13,2.744149899e-14,2.535014926e-13,1.743988599e-13,8.562622932e-14,1.926018068e-13,5.14649156e-13,5.247562356e-13,6.631856263e-13,8.980704635e-13,6.866557664e-13,3.473488427e-13,3.883797075e-13,8.782791592e-13,1.370573086e-13,4.204981487e-14,1.431335135e-13,2.49890152e-13,1.773102157e-13,1.693074652e-13,2.048216994e-13,1.871889907e-13
1.25,1.783341687e-13,4.133010268e-13,4.586451499e-13,5.463573688e-13,4.536529193e-13,6.355071749e-13,2.468937781e-13,2.610326035e-13,8.734579887e-14,8.819144681e-14,2.869859307e-13,2.595448075e-14,2.597152252e-13,1.756732329e-13,8.909052509e-14,1.866381162e-13,4.95732939e-13,5.118979252e-13,6.564337098e-13,8.859088925e-13,6.897123887e-13,3.52888719e-13,3.900502621e-13,8.696672079e-13,1.363947171e-13,4.273625974e-14,1.429688073e-13,2.431521757e-13,1.815604948e-13,1.695816067e-13,2.046250772e-13,1.83135122e-13
1.2578125,1.850268975e-13,4.133267837e-13,4.557370863e-13,5.451222618e-13,4.49742568e-13,6.360455042e-13,2.39225559e-13,2.550498303e-13,8.566952638e-14,8.947351735e-14,2.838606047e-13,2.467071467e-14,2.657682015e-13,1.768207812e-13,9.242535571e-14,1.809528624e-13,4.774756321e-13,4.990887968e-13,6.484495351e-13,8.721572303e-13,6.912835066e-13,3.575743823e-13,3.908382673e-13,8.595109313e-13,1.358884863e-13,4.343352171e-14,1.429115713e-13,2.365957423e-13,1.85487726e-13,1.700239924e-13,2.042394188e-13,1.789572503e-13
1.265625,1.916204822e-13,4.12866464e-13,4.523825331e-13,5.434093042e-13,4.454528088e-13,6.355848038e-13,2.31586928e-13,2.488448568e-13,8.398456667e-14,9.072795533e-14,2.810174292e-13,2.361540809e-14,2.719136893e-13,1.783032662e-13,9.595676625e-14,1.755788258e-13,4.600381665e-13,4.865757378e-13,6.394673294e-13,8.566166858e-13,6.917526482e-13,3.615363891e-13,3.908384888e-13,8.492003317e-13,1.356152019e-13,4.415171597e-14,1.428242011e-13,2.300790352e-13,1.892344186e-13,1.707289856e-13,2.037929711e-13,1.745391897e-13
1.2734375,1.986581085e-13,4.121973139e-13,4.490127882e-13,5.415010177e-13,4.412122074e-13,6.340354569e-13,2.243517471e-13,2.428626946e-13,8.247012165e-14,9.204275669e-14,2.784323514e-13,2.283804135e-14,2.784583296e-13,1.803364109e-13,9.966337391e-14,1.707065275e-13,4.440929971e-13,4.751177365e-13,6.3000495e-13,8.405015332e-13,6.910887803e-13,3.649783813e-13,3.900775193e-13,8.380632302e-13,1.354907176e-13,4.502224307e-14,1.42923847e-13,2.240705987e-13,1.929932126e-13,1.719289059e-13,2.034589962e-13,1.700980158e-13
1.28125,2.058403689e-13,4.110317607e-13,4.45834407e-13,5.391007435e-13,4.367506903e-13,6.31664903e-13,2.176724385e-13,2.372596413e-13,8.10802366e-14,9.334513843e-14,2.757923342e-13,2.232167924e-14,2.848325854e-13,1.823527299e-13,1.031765349e-13,1.660962273e-13,4.291660041e-13,4.643485416e-13,6.19918405e-13,8.240046084e-13,6.893033001e-13,3.677004583e-13,3.886613653e-13,8.262463467e-13,1.355647061e-13,4.599774544e-14,1.431481781e-13,2.186014007e-13,1.964400882e-13,1.734652864e-13,2.029482271e-13,1.65713209e-13
1.2890625,2.126240763e-13,4.090871132e-13,4.426114594e-13,5.361094981e-13,4.318785186e-13,6.28898419e-13,2.112913738e-13,2.318350328e-13,7.966820978e-14,9.457367072e-14,2.729709112e-13,2.199226098e-14,2.905213254e-13,1.841281307e-13,1.06416781e-13,1.617014999e-13,4.148788689e-13,4.535197752e-13,6.088957284e-13,8.069972466e-13,6.866882058e-13,3.695473516e-13,3.865515483e-13,8.149082912e-13,1.359241558e-13,4.702273798e-14,1.434454119e-13,2.134602134e-13,1.993154863e-13,1.750603066e-13,2.021347718e-13,1.612481079e-13
1.296875,2.191158764e-13,4.064478713e-13,4.389116726e-13,5.325563402e-13,4.267705856e-13,6.255230138e-13,2.052566353e-13,2.263030595e-13,7.832103863e-14,9.566820491e-14,2.699980871e-13,2.183785345e-14,2.958149957e-13,1.857903443e-13,1.094102668e-13,1.577459234e-13,4.015547626e-13,4.427980036e-13,5.971950444e-13,7.899719679e-13,6.828169824e-13,3.705500425e-13,3.836338326e-13,8.026255965e-13,1.365867686e-13,4.819369021e-14,1.439958625e-13,2.087759872e-13,2.018871641e-13,1.767583389e-13,2.0126478e-13,1.568159094e-13
1.3046875,2.252388764e-13,4.030079379e-13,4.346189515e-13,5.280915342e-13,4.212298276e-13,6.210029127e-13,1.99640864e-13,2.204287766e-13,7.708311505e-14,9.639569356e-14,2.671066586e-13,2.187148252e-14,3.008256966e-13,1.873134331e-13,1.122246084e-13,1.542011011e-13,3.889133791e-13,4.323353693e-13,5.84952953e-13,7.725171471e-13,6.769653405e-13,3.705411215e-13,3.798920932e-13,7.883807192e-13,1.375883262e-13,4.950267604e-14,1.446944148e-13,2.045066458e-13,2.042285177e-13,1.786265241e-13,2.00346377e-13,1.525875137e-13
1.3125,2.309316041e-13,3.985666159e-13,4.297538784e-13,5.224378309e-13,4.151128275e-13,6.149037499e-13,1.941685105e-13,2.143846649e-13,7.581999198e-14,9.682534201e-14,2.644207814e-13,2.207024992e-14,3.052664301e-13,1.888721168e-13,1.151117214e-13,1.510234297e-13,3.766852359e-13,4.217924822e-13,5.717863115e-13,7.537998259e-13,6.693591596e-13,3.694514351e-13,3.754030696e-13,7.731160347e-13,1.389266122e-13,5.084934094e-14,1.453627918e-13,2.003183383e-13,2.061232305e-13,1.805643332e-13,1.991703503e-13,1.484248961e-13
1.3203125,2.365132233e-13,3.933344386e-13,4.242496527e-13,5.157838315e-13,4.088298978e-13,6.074147313e-13,1.888480726e-13,2.085403203e-13,7.448631052e-14,9.727102698e-14,2.618354769e-13,2.242689497e-14,3.090949152e-13,1.905043245e-13,1.180534914e-13,1.482365478e-13,3.651253744e-13,4.111767227e-13,5.575956492e-13,7.344127203e-13,6.607947939e-13,3.674909674e-13,3.703355754e-13,7.568740226e-13,1.404901302e-13,5.232388627e-14,1.461078462e-13,1.962084641e-13,2.076622784e-13,1.825019817e-13,1.978072628e-13,1.442047794e-13
1.328125,2.418874806e-13,3.876594361e-13,4.184326042e-13,5.085901767e-13,4.027327787e-13,5.993091036e-13,1.838901358e-13,2.029694201e-13,7.310469369e-14,9.77351138e-14,2.593748281e-13,2.294785085e-14,3.124042432e-13,1.919599255e-13,1.208015818e-13,1.457913606e-13,3.541140228e-13,4.008122263e-13,5.428660927e-13,7.154573435e-13,6.516313925e-13,3.648107123e-13,3.648411552e-13,7.39909988e-13,1.422471061e-13,5.407682255e-14,1.470559218e-13,1.925020891e-13,2.090257382e-13,1.844945693e-13,1.964742766e-13,1.399712851e-13
1.3359375,2.469603269e-13,3.816778172e-13,4.129231736e-13,5.011964863e-13,3.968246064e-13,5.909449126e-13,1.795730709e-13,1.976511444e-13,7.166353524e-14,9.815618954e-14,2.57048783e-13,2.364517632e-14,3.15352372e-13,1.932918748e-13,1.233607843e-13,1.437989492e-13,3.437501135e-13,3.913371371e-13,5.28282812e-13,6.971717764e-13,6.418960874e-13,3.615394471e-13,3.589939977e-13,7.227772854e-13,1.444240867e-13,5.602828386e-14,1.481969099e-13,1.893387644e-13,2.102268117e-13,1.866049572e-13,1.952125638e-13,1.357009782e-13
1.34375,2.517839695e-13,3.753767456e-13,4.076120388e-13,4.935241999e-13,3.909710587e-13,5.823965522e-13,1.760450952e-13,1.925258758e-13,7.021600529e-14,9.845774678e-14,2.546876943e-13,2.454186385e-14,3.180997932e-13,1.9455309e-13,1.257792343e-13,1.422580924e-13,3.344098789e-13,3.832462947e-13,5.140947365e-13,6.794881584e-13,6.313303972e-13,3.576896546e-13,3.526720607e-13,7.050793047e-13,1.471016207e-13,5.807077825e-14,1.495011424e-13,1.865488682e-13,2.113435721e-13,1.888440848e-13,1.94036721e-13,1.313883191e-13
1.3515625,2.558859256e-13,3.684956405e-13,4.01981346e-13,4.851195208e-13,3.849083047e-13,5.733842576e-13,1.728306263e-13,1.873723336e-13,6.882152279e-14,9.85663196e-14,2.5223325e-13,2.560961607e-14,3.20336515e-13,1.955306934e-13,1.279570617e-13,1.40865843e-13,3.255980293e-13,3.755886394e-13,4.99628199e-13,6.623742907e-13,6.191917441e-13,3.529444747e-13,3.455775729e-13,6.870418965e-13,1.499728745e-13,6.027338537e-14,1.509820998e-13,1.838803688e-13,2.122694599e-13,1.911923908e-13,1.928563116e-13,1.271077621e-13
1.359375,2.592559703e-13,3.608252705e-13,3.96216788e-13,4.756867937e-13,3.783945766e-13,5.63118259e-13,1.69869286e-13,1.821700379e-13,6.743772366e-14,9.882898146e-14,2.496918508e-13,2.679434378e-14,3.216995119e-13,1.961683962e-13,1.298758795e-13,1.396175236e-13,3.169522562e-13,3.673529075e-13,4.84300956e-13,6.454610508e-13,6.054937163e-13,3.472328602e-13,3.378310186e-13,6.683238238e-13,1.529196774e-13,6.263487289e-14,1.525865969e-13,1.812514107e-13,2.126604617e-13,1.934990949e-13,1.913844079e-13,1.228580424e-13
1.3671875,2.625163124e-13,3.526823252e-13,3.905840943e-13,4.655952305e-13,3.715893885e-13,5.518799225e-13,1.676666369e-13,1.771486465e-13,6.597598265e-14,9.937726812e-14,2.471318436e-13,2.811972052e-14,3.224078587e-13,1.96511429e-13,1.316428487e-13,1.387758788e-13,3.090972543e-13,3.592488668e-13,4.685803039e-13,6.28530386e-13,5.913536521e-13,3.40965835e-13,3.299245035e-13,6.479863229e-13,1.561359464e-13,6.512851848e-14,1.542407602e-13,1.788208839e-13,2.125638762e-13,1.956675491e-13,1.896674876e-13,1.185885803e-13
1.375,2.656414331e-13,3.442626071e-13,3.848849467e-13,4.553108273e-13,3.648987709e-13,5.406729415e-13,1.660021573e-13,1.723932206e-13,6.436683407e-14,9.97878737e-14,2.449202945e-13,2.964945913e-14,3.227316456e-13,1.965599757e-13,1.333781637e-13,1.38321604e-13,3.022260799e-13,3.519567593e-13,4.530065383e-13,6.118903448e-13,5.77214947e-13,3.343608433e-13,3.220151233e-13,6.273510332e-13,1.596729878e-13,6.791662882e-14,1.560474841e-13,1.767099123e-13,2.122991726e-13,1.979339553e-13,1.880046552e-13,1.142431791e-13
1.3828125,2.683746503e-13,3.354068351e-13,3.792887871e-13,4.448437702e-13,3.584464072e-13,5.296283853e-13,1.647055504e-13,1.677943046e-13,6.265979169e-14,1.000191737e-13,2.432188703e-13,3.140096887e-14,3.226991223e-13,1.963652926e-13,1.350603997e-13,1.381020032e-13,2.958573967e-13,3.452042121e-13,4.376751147e-13,5.956425148e-13,5.628138249e-13,3.273902074e-13,3.140751476e-13,6.074477276e-13,1.634277997e-13,7.101896699e-14,1.580649628e-13,1.748477181e-13,2.119338819e-13,2.005123875e-13,1.863702119e-13,1.097953671e-13
1.390625,2.707758925e-13,3.264994425e-13,3.742974322e-13,4.344125353e-13,3.522125246e-13,5.188052983e-13,1.641714981e-13,1.633032925e-13,6.101136256e-14,1.003564046e-13,2.41634396e-13,3.337853967e-14,3.224413282e-13,1.959423748e-13,1.365382942e-13,1.3807645e-13,2.899591105e-13,3.389614736e-13,4.227668725e-13,5.798694589e-13,5.481933711e-13,3.201399317e-13,3.061000456e-13,5.873602359e-13,1.672829048e-13,7.421519098e-14,1.602394468e-13,1.731368648e-13,2.114856987e-13,2.033886161e-13,1.847334187e-13,1.053104316e-13
1.3984375,2.727071843e-13,3.179386628e-13,3.699546914e-13,4.242950691e-13,3.462217975e-13,5.0824272e-13,1.64429196e-13,1.589585589e-13,5.944784195e-14,1.007966183e-13,2.399463398e-13,3.559221327e-14,3.219122045e-13,1.952011449e-13,1.377787534e-13,1.381844751e-13,2.8474742e-13,3.331912165e-13,4.082324537e-13,5.651691263e-13,5.333204828e-13,3.125445954e-13,2.979711893e-13,5.667671825e-13,1.71247624e-13,7.743730653e-14,1.626815178e-13,1.71408674e-13,2.109367063e-13,2.065040299e-13,1.832032835e-13,1.008085751e-13
1.40625,2.739570289e-13,3.091690699e-13,3.658326822e-13,4.140188624e-13,3.402130502e-13,4.973956641e-13,1.653760256e-13,1.546989401e-13,5.785291921e-14,1.012882346e-13,2.383094546e-13,3.803585153e-14,3.207053032e-13,1.939971258e-13,1.388713123e-13,1.383396392e-13,2.799660767e-13,3.274423354e-13,3.936310123e-13,5.514510146e-13,5.181688005e-13,3.043035297e-13,2.897327656e-13,5.456945908e-13,1.755069143e-13,8.07503267e-14,1.653477291e-13,1.69584947e-13,2.100535854e-13,2.096406581e-13,1.815934357e-13,9.624147886e-14
1.4140625,2.745011389e-13,2.997482201e-13,3.616690337e-13,4.031890885e-13,3.34019098e-13,4.862653017e-13,1.668015204e-13,1.505624919e-13,5.617546181e-14,1.018342697e-13,2.367828771e-13,4.07334124e-14,3.186477524e-13,1.923364214e-13,1.398772551e-13,1.385433172e-13,2.752550569e-13,3.214627619e-13,3.788202185e-13,5.379933216e-13,5.028612508e-13,2.953324343e-13,2.814819128e-13,5.249070232e-13,1.800784889e-13,8.420304184e-14,1.679778754e-13,1.679923243e-13,2.0876675e-13,2.126567191e-13,1.797314334e-13,9.163239692e-14
1.421875,2.745219551e-13,2.901453891e-13,3.577801432e-13,3.921710754e-13,3.279714073e-13,4.753403598e-13,1.684881045e-13,1.467827215e-13,5.443012676e-14,1.023328589e-13,2.353870923e-13,4.37132054e-14,3.160287206e-13,1.905283369e-13,1.408413077e-13,1.388667853e-13,2.706636072e-13,3.154619427e-13,3.642194281e-13,5.251754109e-13,4.875275136e-13,2.859489786e-13,2.732351575e-13,5.055794141e-13,1.848093851e-13,8.783293859e-14,1.706380023e-13,1.668154086e-13,2.072084362e-13,2.15755946e-13,1.778024846e-13,8.701555697e-14
1.4296875,2.743296304e-13,2.808642027e-13,3.546355346e-13,3.812871967e-13,3.221596592e-13,4.648372444e-13,1.709710339e-13,1.432576289e-13,5.264753872e-14,1.02755421e-13,2.340929449e-13,4.692422576e-14,3.131148498e-13,1.888385069e-13,1.418190138e-13,1.393994762e-13,2.664156848e-13,3.099575512e-13,3.503802475e-13,5.138615037e-13,4.727399504e-13,2.765258914e-13,2.652677582e-13,4.864985842e-13,1.897174328e-13,9.152528509e-14,1.734532435e-13,1.658467068e-13,2.054335187e-13,2.190593801e-13,1.759852553e-13,8.242356138e-14
1.4375,2.73926575e-13,2.720183828e-13,3.523266997e-13,3.70546847e-13,3.163287465e-13,4.549734373e-13,1.744867925e-13,1.39680276e-13,5.088277389e-14,1.032917099e-13,2.327877242e-13,5.030890782e-14,3.098427014e-13,1.871894664e-13,1.42888945e-13,1.402619105e-13,2.626868353e-13,3.05145953e-13,3.373064938e-13,5.041888789e-13,4.586083721e-13,2.670957548e-13,2.577415957e-13,4.66888253e-13,1.948940288e-13,9.519420515e-14,1.763307726e-13,1.651487144e-13,2.035835752e-13,2.225836446e-13,1.743160716e-13,7.79362592e-14
1.4453125,2.731127064e-13,2.636196396e-13,3.50565275e-13,3.600227643e-13,3.1065454e-13,4.456531568e-13,1.783572378e-13,1.361052826e-13,4.91284678e-14,1.03994008e-13,2.316176648e-13,5.386403619e-14,3.060709861e-13,1.854539014e-13,1.441310702e-13,1.415345292e-13,2.595630027e-13,3.007562756e-13,3.244929363e-13,4.960440144e-13,4.443486244e-13,2.575119244e-13,2.504076436e-13,4.482595201e-13,2.002233037e-13,9.897902733e-14,1.793415603e-13,1.648548614e-13,2.018016968e-13,2.263787711e-13,1.728693396e-13,7.353508829e-14
1.453125,2.718606301e-13,2.555635566e-13,3.49195953e-13,3.497824608e-13,3.053542925e-13,4.365958409e-13,1.824310281e-13,1.325714291e-13,4.732975495e-14,1.046029838e-13,2.307698734e-13,5.757490674e-14,3.018197904e-13,1.836681086e-13,1.45532487e-13,1.43134319e-13,2.568780837e-13,2.968378596e-13,3.118193915e-13,4.893495198e-13,4.299826352e-13,2.478090602e-13,2.43157566e-13,4.304622067e-13,2.055109189e-13,1.02872127e-13,1.824834699e-13,1.648260622e-13,1.999865005e-13,2.302791209e-13,1.716723728e-13,6.914247085e-14
1.4609375,2.702037104e-13,2.476326881e-13,3.487327914e-13,3.395786698e-13,2.999186516e-13,4.281383787e-13,1.872896026e-13,1.28920785e-13,4.550524087e-14,1.051981399e-13,2.301399581e-13,6.14178177e-14,2.970976384e-13,1.818282651e-13,1.469882692e-13,1.448676124e-13,2.54345787e-13,2.934753276e-13,2.99581179e-13,4.842581346e-13,4.161083071e-13,2.381181684e-13,2.361771326e-13,4.125808771e-13,2.109074623e-13,1.066551686e-13,1.855138783e-13,1.651408361e-13,1.979865711e-13,2.342070463e-13,1.704795982e-13,6.484376945e-14
1.46875,2.683225639e-13,2.39756313e-13,3.496388932e-13,3.290095709e-13,2.938092598e-13,4.206552237e-13,1.932808975e-13,1.252340992e-13,4.37021689e-14,1.061690935e-13,2.295027373e-13,6.536352579e-14,2.918725447e-13,1.799337489e-13,1.484436331e-13,1.466974437e-13,2.519324791e-13,2.903255051e-13,2.878369313e-13,4.810155458e-13,4.025728517e-13,2.285599319e-13,2.296025266e-13,3.95153694e-13,2.166127238e-13,1.102362596e-13,1.883520948e-13,1.658856322e-13,1.956879924e-13,2.382196619e-13,1.689987891e-13,6.079276118e-14
1.4765625,2.665809725e-13,2.321646424e-13,3.518131135e-13,3.182854746e-13,2.873783584e-13,4.140677862e-13,2.001916553e-13,1.216744857e-13,4.19240426e-14,1.074245808e-13,2.286949093e-13,6.936062401e-14,2.863556279e-13,1.78238694e-13,1.500429369e-13,1.48989103e-13,2.500794029e-13,2.875738778e-13,2.766434276e-13,4.795624488e-13,3.892561619e-13,2.193356713e-13,2.233628907e-13,3.782459613e-13,2.222935868e-13,1.136401976e-13,1.909254348e-13,1.670199803e-13,1.931082585e-13,2.422225304e-13,1.673952983e-13,5.701233078e-14
1.484375,2.651362374e-13,2.251783971e-13,3.553630052e-13,3.080647461e-13,2.812685861e-13,4.085183538e-13,2.076357301e-13,1.182618566e-13,4.017487855e-14,1.088238179e-13,2.279577965e-13,7.346562711e-14,2.808860407e-13,1.769914263e-13,1.521187314e-13,1.521822395e-13,2.493463364e-13,2.858662811e-13,2.663044106e-13,4.802957536e-13,3.766326193e-13,2.106143056e-13,2.174900998e-13,3.616142032e-13,2.278496909e-13,1.169695345e-13,1.931831163e-13,1.688487552e-13,1.906010617e-13,2.465155443e-13,1.660897477e-13,5.348039883e-14
1.4921875,2.638581833e-13,2.18868059e-13,3.602107324e-13,2.984011069e-13,2.755016874e-13,4.042966847e-13,2.156080131e-13,1.149821969e-13,3.846649672e-14,1.104719508e-13,2.276493621e-13,7.786196136e-14,2.755521931e-13,1.760953008e-13,1.548973049e-13,1.562570582e-13,2.496977976e-13,2.8521058e-13,2.568357565e-13,4.836040126e-13,3.649608818e-13,2.023680244e-13,2.122166845e-13,3.454035401e-13,2.337496967e-13,1.20358948e-13,1.95422759e-13,1.713815062e-13,1.884454909e-13,2.515663763e-13,1.651980618e-13,5.022634498e-14
1.5,2.626392519e-13,2.131366793e-13,3.658675089e-13,2.890810149e-13,2.698029966e-13,4.012954265e-13,2.241604419e-13,1.117550738e-13,3.680570951e-14,1.121117795e-13,2.274942716e-13,8.262161779e-14,2.702784164e-13,1.753767341e-13,1.581824718e-13,1.61036033e-13,2.508583982e-13,2.854444953e-13,2.480195e-13,4.888308247e-13,3.539652735e-13,1.944973878e-13,2.073894638e-13,3.297239333e-13,2.399188606e-13,1.237163918e-13,1.978003101e-13,1.741931361e-13,1.865238002e-13,2.572348998e-13,1.646068311e-13,4.724135143e-14
1.5078125,2.615744748e-13,2.079980301e-13,3.725937064e-13,2.803011757e-13,2.640908359e-13,3.994419968e-13,2.331993931e-13,1.085455681e-13,3.523371895e-14,1.136570694e-13,2.272350367e-13,8.764677207e-14,2.650674877e-13,1.748569177e-13,1.616469296e-13,1.665251621e-13,2.529484227e-13,2.867603223e-13,2.400577991e-13,4.958836147e-13,3.435433178e-13,1.870406986e-13,2.027615464e-13,3.149998177e-13,2.460566205e-13,1.268111442e-13,2.001249718e-13,1.774068594e-13,1.847388531e-13,2.634513434e-13,1.642523659e-13,4.450558721e-14
1.515625,2.607046535e-13,2.034818996e-13,3.807277484e-13,2.720543278e-13,2.582993263e-13,3.988250607e-13,2.428429647e-13,1.054601951e-13,3.380432404e-14,1.154246133e-13,2.271235922e-13,9.284318254e-14,2.598649546e-13,1.745932992e-13,1.654184121e-13,1.726780388e-13,2.559544127e-13,2.889436817e-13,2.331949431e-13,5.054554602e-13,3.339178162e-13,1.800350552e-13,1.985306856e-13,3.009932808e-13,2.523638092e-13,1.295702422e-13,2.023394427e-13,1.811866828e-13,1.831233052e-13,2.704082543e-13,1.641501718e-13,4.208190344e-14
1.5234375,2.599469238e-13,1.996112017e-13,3.897995957e-13,2.642090794e-13,2.52487853e-13,3.99187037e-13,2.529675569e-13,1.026136484e-13,3.24964328e-14,1.171992548e-13,2.271886992e-13,9.815199346e-14,2.545551899e-13,1.745764629e-13,1.698435495e-13,1.796486695e-13,2.598392674e-13,2.916503156e-13,2.271697144e-13,5.173100218e-13,3.250174168e-13,1.733797486e-13,1.946977066e-13,2.87024252e-13,2.58743483e-13,1.320550907e-13,2.044314132e-13,1.852344524e-13,1.816459419e-13,2.778222707e-13,1.644199175e-13,3.998489742e-14
1.53125,2.595181015e-13,1.96624054e-13,3.995473024e-13,2.571765254e-13,2.470066858e-13,4.005811535e-13,2.6313549e-13,1.001021527e-13,3.123577521e-14,1.186554134e-13,2.273396454e-13,1.035257636e-13,2.493724487e-13,1.749066566e-13,1.749810007e-13,1.87890039e-13,2.651369274e-13,2.953698783e-13,2.219145827e-13,5.313580147e-13,3.170062682e-13,1.671293392e-13,1.911840997e-13,2.736619882e-13,2.64958096e-13,1.343465621e-13,2.063285395e-13,1.895978612e-13,1.804179387e-13,2.85521738e-13,1.652707838e-13,3.814020607e-14
1.5390625,2.596522244e-13,1.946762981e-13,4.099985216e-13,2.512026417e-13,2.41982985e-13,4.035722763e-13,2.732229275e-13,9.786517581e-14,3.002170732e-14,1.200373127e-13,2.276088578e-13,1.090292914e-13,2.448087201e-13,1.758242143e-13,1.808524214e-13,1.974924742e-13,2.721035986e-13,3.006461972e-13,2.176593551e-13,5.481097337e-13,3.101652594e-13,1.614551107e-13,1.881427266e-13,2.614168753e-13,2.712314541e-13,1.364897197e-13,2.081160997e-13,1.944328201e-13,1.796292751e-13,2.939151497e-13,1.668141443e-13,3.657108853e-14
1.546875,2.60070888e-13,1.935523394e-13,4.21025264e-13,2.459201204e-13,2.371639213e-13,4.079479462e-13,2.833293116e-13,9.56676535e-14,2.892147647e-14,1.214423502e-13,2.279384801e-13,1.147986948e-13,2.408908753e-13,1.772897276e-13,1.874575656e-13,2.081235692e-13,2.802812834e-13,3.072192848e-13,2.142002353e-13,5.669823667e-13,3.038991305e-13,1.563010801e-13,1.853513826e-13,2.496401128e-13,2.775336247e-13,1.384862904e-13,2.098805198e-13,1.99496421e-13,1.791919116e-13,3.030799734e-13,1.689374666e-13,3.537770506e-14
1.5546875,2.605453009e-13,1.93190528e-13,4.327695822e-13,2.412288257e-13,2.324455344e-13,4.132476933e-13,2.937751752e-13,9.350673434e-14,2.79326202e-14,1.227888515e-13,2.284221718e-13,1.207751927e-13,2.371190339e-13,1.788383907e-13,1.94428974e-13,2.194674977e-13,2.893487799e-13,3.147677835e-13,2.114343637e-13,5.876401925e-13,2.982890537e-13,1.516003056e-13,1.82788124e-13,2.380294038e-13,2.8357379e-13,1.403676375e-13,2.116196385e-13,2.045577669e-13,1.789138871e-13,3.124864804e-13,1.715734499e-13,3.457476646e-14
1.5625,2.612637074e-13,1.937492332e-13,4.455288347e-13,2.373386703e-13,2.278676531e-13,4.199719309e-13,3.049466467e-13,9.159173678e-14,2.698127866e-14,1.242714701e-13,2.290474902e-13,1.266962463e-13,2.331675507e-13,1.80245103e-13,2.015971871e-13,2.315862469e-13,2.994614264e-13,3.231892673e-13,2.096317016e-13,6.113407971e-13,2.941815306e-13,1.474071783e-13,1.80823023e-13,2.271953913e-13,2.893917132e-13,1.421396728e-13,2.132605869e-13,2.095212991e-13,1.787341227e-13,3.218163371e-13,1.748330608e-13,3.413953855e-14
1.5703125,2.623311611e-13,1.950333683e-13,4.592027892e-13,2.340727753e-13,2.232864464e-13,4.285214439e-13,3.165273428e-13,8.99350259e-14,2.603557724e-14,1.258353092e-13,2.29576274e-13,1.324059619e-13,2.29135057e-13,1.818170308e-13,2.093624759e-13,2.450500661e-13,3.110187462e-13,3.323092617e-13,2.08587566e-13,6.384328647e-13,2.908263949e-13,1.436815077e-13,1.79155777e-13,2.175194391e-13,2.950188194e-13,1.436910545e-13,2.145632968e-13,2.145646553e-13,1.786065051e-13,3.312965771e-13,1.786482941e-13,3.412174492e-14
1.578125,2.637776183e-13,1.969255038e-13,4.734608644e-13,2.312724586e-13,2.186419448e-13,4.386649624e-13,3.279171357e-13,8.847118751e-14,2.512893487e-14,1.272635238e-13,2.299913317e-13,1.378752909e-13,2.252671157e-13,1.837242745e-13,2.178624542e-13,2.602013827e-13,3.242946082e-13,3.424122053e-13,2.081125534e-13,6.679632372e-13,2.875310098e-13,1.404564984e-13,1.774563946e-13,2.085195281e-13,3.001628697e-13,1.449572321e-13,2.154325668e-13,2.200546555e-13,1.78552327e-13,3.411367604e-13,1.829584938e-13,3.458357788e-14
1.5859375,2.659085748e-13,1.998199281e-13,4.885431721e-13,2.292111443e-13,2.141408148e-13,4.502743657e-13,3.392863724e-13,8.725479947e-14,2.430557303e-14,1.287409983e-13,2.303103286e-13,1.430753086e-13,2.217968467e-13,1.859002242e-13,2.269022149e-13,2.769030404e-13,3.393352283e-13,3.541475406e-13,2.086686129e-13,7.001121026e-13,2.851614826e-13,1.379029476e-13,1.760046269e-13,1.998225155e-13,3.046207288e-13,1.460698569e-13,2.16085755e-13,2.260038747e-13,1.787424393e-13,3.513915117e-13,1.880884449e-13,3.550585265e-14
1.59375,2.68880866e-13,2.03776438e-13,5.047808525e-13,2.279438879e-13,2.099141771e-13,4.630863987e-13,3.510737484e-13,8.624644393e-14,2.357026807e-14,1.301670625e-13,2.307797452e-13,1.480933734e-13,2.187679003e-13,1.885774044e-13,2.3669262e-13,2.951195405e-13,3.561438119e-13,3.676158584e-13,2.103809611e-13,7.35279464e-13,2.837167181e-13,1.360244107e-13,1.747929457e-13,1.915499037e-13,3.087172296e-13,1.471451692e-13,2.166715178e-13,2.323003871e-13,1.793085223e-13,3.622265212e-13,1.941765643e-13,3.685629144e-14
1.6015625,2.722946606e-13,2.083899558e-13,5.214638144e-13,2.272228481e-13,2.059606628e-13,4.767358747e-13,3.62995977e-13,8.53396148e-14,2.290501769e-14,1.311210403e-13,2.317334201e-13,1.529916527e-13,2.159845983e-13,1.918902092e-13,2.47319035e-13,3.146641503e-13,3.744665976e-13,3.825735434e-13,2.128327861e-13,7.727164061e-13,2.825352971e-13,1.346579862e-13,1.735790867e-13,1.836401363e-13,3.12706031e-13,1.481277619e-13,2.171524789e-13,2.388244282e-13,1.802461584e-13,3.734327575e-13,2.009928634e-13,3.865512091e-14
1.609375,2.760119926e-13,2.137228549e-13,5.384832258e-13,2.271656616e-13,2.023268129e-13,4.915634741e-13,3.747684902e-13,8.463486207e-14,2.232502265e-14,1.319274109e-13,2.327043701e-13,1.576368876e-13,2.134852247e-13,1.955714901e-13,2.583989843e-13,3.353606885e-13,3.942182475e-13,3.990396475e-13,2.160350427e-13,8.125886612e-13,2.81914491e-13,1.337688611e-13,1.723833024e-13,1.764161659e-13,3.161589817e-13,1.489875967e-13,2.174131146e-13,2.453309356e-13,1.815202575e-13,3.845927634e-13,2.085722851e-13,4.089953302e-14
1.6171875,2.80579664e-13,2.200940277e-13,5.570543831e-13,2.280358703e-13,1.989847597e-13,5.081461912e-13,3.869311154e-13,8.426836143e-14,2.183915329e-14,1.329828908e-13,2.334045878e-13,1.619948823e-13,2.116079932e-13,1.996843849e-13,2.700482466e-13,3.575537162e-13,4.159120881e-13,4.170672466e-13,2.203603542e-13,8.5557646e-13,2.821356129e-13,1.335249074e-13,1.712729185e-13,1.702701966e-13,3.188879927e-13,1.497422735e-13,2.173205846e-13,2.52059144e-13,1.83118929e-13,3.959568995e-13,2.170666078e-13,4.358031299e-14
1.625,2.860990803e-13,2.273424933e-13,5.769340632e-13,2.29697911e-13,1.958284079e-13,5.260340641e-13,3.996241801e-13,8.413937073e-14,2.142341134e-14,1.338892061e-13,2.343405577e-13,1.661774774e-13,2.103966049e-13,2.045847835e-13,2.826955343e-13,3.813773801e-13,4.396654959e-13,4.366284297e-13,2.257875261e-13,9.006190009e-13,2.829810799e-13,1.339426407e-13,1.702525348e-13,1.646083884e-13,3.213629887e-13,1.503586322e-13,2.169365418e-13,2.594011919e-13,1.850521306e-13,4.078526432e-13,2.263994614e-13,4.674678466e-14
1.6328125,2.921073802e-13,2.351996252e-13,5.968587707e-13,2.319257318e-13,1.928306773e-13,5.44296375e-13,4.120141497e-13,8.413764863e-14,2.10946863e-14,1.344584268e-13,2.354305254e-13,1.702377596e-13,2.097265095e-13,2.102970046e-13,2.962554089e-13,4.067185228e-13,4.651238928e-13,4.576764587e-13,2.319411198e-13,9.469002962e-13,2.842451022e-13,1.347931111e-13,1.692942382e-13,1.591509027e-13,3.237969432e-13,1.508222631e-13,2.164423434e-13,2.672387098e-13,1.873319956e-13,4.201694151e-13,2.365036931e-13,5.042171111e-14
1.640625,2.985251088e-13,2.4363025e-13,6.167241835e-13,2.346711439e-13,1.899524554e-13,5.628942795e-13,4.235119439e-13,8.429887406e-14,2.086971973e-14,1.348115228e-13,2.362221101e-13,1.741572917e-13,2.096567188e-13,2.165924669e-13,3.103774213e-13,4.333222563e-13,4.919418743e-13,4.798198891e-13,2.38580552e-13,9.947572899e-13,2.857794103e-13,1.360279352e-13,1.683031806e-13,1.541830752e-13,3.258115387e-13,1.510213713e-13,2.157856597e-13,2.75499713e-13,1.898843395e-13,4.327908705e-13,2.472652011e-13,5.458415712e-14
1.6484375,3.05307252e-13,2.52530935e-13,6.361944811e-13,2.379087924e-13,1.872435825e-13,5.81935442e-13,4.339523759e-13,8.464230901e-14,2.07060978e-14,1.347043622e-13,2.368443476e-13,1.777991209e-13,2.100984092e-13,2.23250318e-13,3.247716671e-13,4.603198056e-13,5.194546492e-13,5.026390603e-13,2.45629808e-13,1.04351037e-12,2.873882273e-13,1.376649709e-13,1.670630804e-13,1.495680424e-13,3.269699237e-13,1.509357039e-13,2.148572311e-13,2.8409225e-13,1.926571369e-13,4.454491796e-13,2.58580392e-13,5.924806423e-14
1.65625,3.123363301e-13,2.618694801e-13,6.549968513e-13,2.41699869e-13,1.849418139e-13,6.011905e-13,4.436662723e-13,8.523220084e-14,2.060058309e-14,1.342564003e-13,2.375779802e-13,1.811185127e-13,2.11039972e-13,2.303718076e-13,3.395699606e-13,4.875575594e-13,5.476371382e-13,5.264330268e-13,2.531350136e-13,1.092740695e-12,2.889607221e-13,1.395760955e-13,1.655634663e-13,1.454478916e-13,3.276163441e-13,1.509310726e-13,2.138563732e-13,2.926504305e-13,1.957755305e-13,4.580268451e-13,2.706260243e-13,6.440406254e-14
1.6640625,3.199267519e-13,2.717971315e-13,6.742793224e-13,2.460927188e-13,1.83041365e-13,6.211187826e-13,4.537203513e-13,8.615301503e-14,2.058973519e-14,1.340454581e-13,2.38521982e-13,1.84333103e-13,2.12788868e-13,2.381615805e-13,3.550499368e-13,5.156302122e-13,5.770559538e-13,5.515819641e-13,2.61316762e-13,1.143192387e-12,2.908386212e-13,1.418871745e-13,1.641950834e-13,1.419701803e-13,3.284211152e-13,1.510895471e-13,2.129751817e-13,3.011104064e-13,1.992283404e-13,4.70721482e-13,2.83415575e-13,6.996323565e-14
1.671875,3.280498143e-13,2.822173894e-13,6.940980459e-13,2.509516116e-13,1.813355832e-13,6.417806348e-13,4.641772867e-13,8.727215933e-14,2.066478288e-14,1.340997441e-13,2.396041696e-13,1.875220485e-13,2.152837298e-13,2.463404639e-13,3.707813841e-13,5.441268133e-13,6.073220255e-13,5.778152237e-13,2.701099495e-13,1.194461294e-12,2.931590742e-13,1.447096965e-13,1.63027288e-13,1.38789973e-13,3.291436716e-13,1.510913589e-13,2.121542635e-13,3.094924742e-13,2.028571203e-13,4.8330143e-13,2.966949841e-13,7.584287239e-14
1.6796875,3.362163938e-13,2.929354013e-13,7.129491271e-13,2.563050745e-13,1.799041103e-13,6.622574436e-13,4.738680386e-13,8.843363452e-14,2.082574781e-14,1.339741045e-13,2.406705013e-13,1.905141608e-13,2.182672107e-13,2.547462157e-13,3.865118801e-13,5.727944419e-13,6.382495476e-13,6.050738463e-13,2.791256229e-13,1.245715242e-12,2.953195707e-13,1.477772812e-13,1.617602898e-13,1.358704274e-13,3.293997862e-13,1.510589944e-13,2.114786617e-13,3.176896616e-13,2.068515907e-13,4.955781802e-13,3.105577134e-13,8.200869593e-14
1.6875,3.443982985e-13,3.039737726e-13,7.304392673e-13,2.622544062e-13,1.788315013e-13,6.825044687e-13,4.825236512e-13,8.965331426e-14,2.108343624e-14,1.334663811e-13,2.414458412e-13,1.930898677e-13,2.218236356e-13,2.634500601e-13,4.024637727e-13,6.020267927e-13,6.702893544e-13,6.335130265e-13,2.882791215e-13,1.297064356e-12,2.968414674e-13,1.510832415e-13,1.603022258e-13,1.330593399e-13,3.290611457e-13,1.511956389e-13,2.110382273e-13,3.257328857e-13,2.113527719e-13,5.076244244e-13,3.251629039e-13,8.844771069e-14
1.6953125,3.526556057e-13,3.152285222e-13,7.469001113e-13,2.685314594e-13,1.780031542e-13,7.027200402e-13,4.904516686e-13,9.096146231e-14,2.13780263e-14,1.327747887e-13,2.417005011e-13,1.950923961e-13,2.258455259e-13,2.720564056e-13,4.182440677e-13,6.313926499e-13,7.028958066e-13,6.626398898e-13,2.975981109e-13,1.348016835e-12,2.976317263e-13,1.548292954e-13,1.586000126e-13,1.302095288e-13,3.277354525e-13,1.513765531e-13,2.106067584e-13,3.333941197e-13,2.160395554e-13,5.190063662e-13,3.402787728e-13,9.521461545e-14
1.703125,3.608949709e-13,3.266828885e-13,7.622501565e-13,2.750712545e-13,1.774913654e-13,7.224866437e-13,4.975807413e-13,9.241619528e-14,2.166691186e-14,1.320254087e-13,2.419299702e-13,1.967239788e-13,2.301749931e-13,2.805416513e-13,4.338573427e-13,6.607079873e-13,7.356318015e-13,6.923297152e-13,3.070476467e-13,1.397816399e-12,2.980716524e-13,1.588573126e-13,1.567797914e-13,1.277348655e-13,3.259063241e-13,1.51756765e-13,2.102254891e-13,3.404851557e-13,2.208777273e-13,5.29581353e-13,3.558641399e-13,1.024108663e-13
1.7109375,3.693476542e-13,3.386935022e-13,7.765627755e-13,2.822455605e-13,1.774166112e-13,7.420220077e-13,5.042101912e-13,9.402601088e-14,2.201759257e-14,1.310028148e-13,2.426128691e-13,1.983476699e-13,2.350713975e-13,2.894441361e-13,4.499935563e-13,6.903652606e-13,7.69029179e-13,7.231855999e-13,3.168653217e-13,1.446952241e-12,2.987532672e-13,1.63054789e-13,1.55095515e-13,1.253882336e-13,3.243321651e-13,1.525023855e-13,2.101631611e-13,3.474364611e-13,2.261432987e-13,5.398674443e-13,3.721345673e-13,1.100075418e-13
1.71875,3.780234801e-13,3.511991268e-13,7.896736575e-13,2.899707452e-13,1.777042893e-13,7.61296145e-13,5.104381151e-13,9.563999735e-14,2.247705981e-14,1.29688513e-13,2.434465918e-13,1.999414504e-13,2.405768348e-13,2.987354705e-13,4.665704529e-13,7.201901336e-13,8.032732447e-13,7.550302185e-13,3.269884911e-13,1.495640513e-12,2.991446697e-13,1.674940231e-13,1.533661645e-13,1.226556675e-13,3.226279845e-13,1.534337419e-13,2.101761573e-13,3.544644391e-13,2.317215522e-13,5.498827832e-13,3.889475355e-13,1.17861818e-13
1.7265625,3.865112648e-13,3.637349512e-13,8.011091303e-13,2.97861723e-13,1.783152089e-13,7.796303935e-13,5.157169029e-13,9.722906736e-14,2.298131541e-14,1.282297542e-13,2.444008852e-13,2.012678117e-13,2.464835146e-13,3.082256779e-13,4.833465442e-13,7.50067424e-13,8.381396031e-13,7.874388653e-13,3.370178318e-13,1.54278986e-12,2.985973574e-13,1.720814179e-13,1.514836476e-13,1.200036724e-13,3.206685896e-13,1.545842422e-13,2.100374139e-13,3.611578552e-13,2.374647957e-13,5.591728126e-13,4.061238287e-13,1.259792506e-13
1.734375,3.947235104e-13,3.762813756e-13,8.111669937e-13,3.059230361e-13,1.792162292e-13,7.970978616e-13,5.200720736e-13,9.884857502e-14,2.348665058e-14,1.264625741e-13,2.456432056e-13,2.022846e-13,2.528162476e-13,3.179656362e-13,5.002977331e-13,7.79696586e-13,8.730473297e-13,8.206480419e-13,3.470550873e-13,1.588146903e-12,2.976471872e-13,1.767645392e-13,1.496872961e-13,1.178167972e-13,3.187077805e-13,1.56163754e-13,2.101000008e-13,3.672843379e-13,2.435072778e-13,5.675715626e-13,4.237749719e-13,1.344810301e-13
1.7421875,4.027362542e-13,3.888553881e-13,8.203305588e-13,3.141061439e-13,1.802483926e-13,8.136745429e-13,5.238304994e-13,1.004027411e-13,2.403157895e-14,1.244546993e-13,2.470808229e-13,2.03180049e-13,2.59496864e-13,3.277406667e-13,5.170084719e-13,8.082888542e-13,9.06973654e-13,8.541295612e-13,3.570585398e-13,1.632058704e-12,2.965208451e-13,1.81549393e-13,1.480850295e-13,1.159384525e-13,3.166671511e-13,1.58140494e-13,2.105238219e-13,3.731403059e-13,2.497886351e-13,5.752913304e-13,4.416818653e-13,1.433018662e-13
1.75,4.103591625e-13,4.011876976e-13,8.281268836e-13,3.222485142e-13,1.813777083e-13,8.290235075e-13,5.267886395e-13,1.018904438e-13,2.461920056e-14,1.224584669e-13,2.490191611e-13,2.040167744e-13,2.662893372e-13,3.373966796e-13,5.334008333e-13,8.356449885e-13,9.393819011e-13,8.868465602e-13,3.665145768e-13,1.673248168e-12,2.950552385e-13,1.862955937e-13,1.467135802e-13,1.142736777e-13,3.148088201e-13,1.603312283e-13,2.109305404e-13,3.789742885e-13,2.560082287e-13,5.823573145e-13,4.593653411e-13,1.522917003e-13
1.7578125,4.175304443e-13,4.133851582e-13,8.341699181e-13,3.305211472e-13,1.8276818e-13,8.433986278e-13,5.288990054e-13,1.034343808e-13,2.52065021e-14,1.201853391e-13,2.513906343e-13,2.045289393e-13,2.731184457e-13,3.470540398e-13,5.496324658e-13,8.618344968e-13,9.70677814e-13,9.190646048e-13,3.755972095e-13,1.711599536e-12,2.933745019e-13,1.909029957e-13,1.454120852e-13,1.127419913e-13,3.128885008e-13,1.626188658e-13,2.110631265e-13,3.843966631e-13,2.620202993e-13,5.883215549e-13,4.768501448e-13,1.614845948e-13
1.765625,4.244284794e-13,4.256775887e-13,8.390785853e-13,3.389560653e-13,1.844451417e-13,8.568108507e-13,5.304699914e-13,1.050289229e-13,2.578300348e-14,1.174831233e-13,2.533881816e-13,2.046564606e-13,2.800231696e-13,3.567225437e-13,5.653766435e-13,8.867970666e-13,1.00156657e-12,9.513364953e-13,3.84781042e-13,1.749402301e-12,2.914244667e-13,1.953771742e-13,1.439618611e-13,1.11452853e-13,3.103090781e-13,1.650358945e-13,2.110659725e-13,3.889481556e-13,2.679442599e-13,5.931207569e-13,4.943782731e-13,1.709168205e-13
1.7734375,4.3093489e-13,4.37783635e-13,8.431089582e-13,3.472668965e-13,1.862669937e-13,8.691240967e-13,5.315036402e-13,1.065925869e-13,2.635372102e-14,1.146743866e-13,2.548934135e-13,2.046609422e-13,2.870942235e-13,3.661700411e-13,5.80219951e-13,9.102431804e-13,1.031493034e-12,9.829659122e-13,3.937666081e-13,1.78630436e-12,2.895636705e-13,1.997683987e-13,1.426050583e-13,1.106290049e-13,3.07460847e-13,1.676485716e-13,2.111385421e-13,3.928301089e-13,2.738982971e-13,5.970582209e-13,5.118019402e-13,1.8051832e-13
1.78125,4.366096846e-13,4.493766605e-13,8.454284797e-13,3.554053827e-13,1.882248343e-13,8.801919551e-13,5.316366234e-13,1.080668391e-13,2.692168009e-14,1.117503775e-13,2.564466087e-13,2.046147424e-13,2.943085661e-13,3.751470124e-13,5.939831772e-13,9.313693191e-13,1.058963286e-12,1.013057414e-12,4.020501345e-13,1.819989513e-12,2.879893941e-13,2.040844459e-13,1.415508253e-13,1.103073115e-13,3.046364381e-13,1.704843367e-13,2.113649767e-13,3.961842551e-13,2.797919262e-13,5.999346621e-13,5.288563521e-13,1.902513639e-13
1.7890625,4.413251573e-13,4.605747024e-13,8.453281444e-13,3.634721798e-13,1.903119782e-13,8.892725196e-13,5.306490804e-13,1.094814943e-13,2.746948468e-14,1.086463376e-13,2.582908636e-13,2.044877165e-13,3.014378104e-13,3.836947112e-13,6.067522343e-13,9.500955027e-13,1.08396474e-12,1.041600078e-12,4.094784782e-13,1.850344141e-12,2.859092192e-13,2.081286795e-13,1.406622492e-13,1.104056957e-13,3.017076351e-13,1.735070307e-13,2.117307209e-13,3.986466835e-13,2.854507747e-13,6.014888611e-13,5.454098264e-13,1.999545546e-13
1.796875,4.452749888e-13,4.715041525e-13,8.428599156e-13,3.713897737e-13,1.923745592e-13,8.96282453e-13,5.287959947e-13,1.108511313e-13,2.795632052e-14,1.055875105e-13,2.604487594e-13,2.042488651e-13,3.082944717e-13,3.917947631e-13,6.185712726e-13,9.669081961e-13,1.107089837e-12,1.068949943e-12,4.160767779e-13,1.877329503e-12,2.831318157e-13,2.117403886e-13,1.398718351e-13,1.106895389e-13,2.988154019e-13,1.765821893e-13,2.120470719e-13,4.001090675e-13,2.907339561e-13,6.016779043e-13,5.613398747e-13,2.094537977e-13
1.8046875,4.483584519e-13,4.819135992e-13,8.384387572e-13,3.790525172e-13,1.944236043e-13,9.017276552e-13,5.26296942e-13,1.120044334e-13,2.842450709e-14,1.024821327e-13,2.628996512e-13,2.037966802e-13,3.149265459e-13,3.992089119e-13,6.292912627e-13,9.81517854e-13,1.127823936e-12,1.095182275e-12,4.219927909e-13,1.900687166e-12,2.799809865e-13,2.149946988e-13,1.391835301e-13,1.113067772e-13,2.959115749e-13,1.797371103e-13,2.122654214e-13,4.007918992e-13,2.9566091e-13,6.0053051e-13,5.766277738e-13,2.189034074e-13
