"Time","Fp1","AF3","F7","F3","FC1","FC5","T7","C3","CP1","CP5","P7","P3","Pz","PO3","O1","Oz","O2","PO4","P4","P8","CP6","CP2","C4","T8","FC6","FC2","F4","F8","AF4","Fp2","Fz","Cz"
0.0078125,6.353216807e-14,1.445386537e-13,4.820581904e-13,1.23574138e-13,8.157296828e-14,6.511779229e-14,1.982700468e-13,1.029258678e-13,7.429314084e-14,1.068174019e-13,3.734077561e-14,8.379149166e-14,1.272195861e-13,7.493330401e-13,6.411184057e-13,7.346224118e-13,8.02039609e-13,5.3561223e-13,8.791904124e-14,2.718972804e-13,4.152203454e-14,3.21104044e-14,1.847852418e-13,1.611215351e-13,6.543320438e-14,2.41718216e-13,4.893708312e-14,8.168055583e-14,1.195714062e-13,1.347788889e-13,8.820148675e-14,1.072656603e-13
0.015625,6.571583638e-14,1.462869717e-13,4.842196673e-13,1.247620704e-13,8.390291639e-14,6.568557452e-14,2.022261176e-13,1.046253415e-13,7.678247075e-14,1.09526183e-13,3.835768264e-14,8.587099656e-14,1.317338691e-13,7.62822749e-13,6.499520365e-13,7.449421457e-13,8.14755138e-13,5.474992758e-13,8.982792871e-14,2.775031911e-13,4.298318402e-14,3.258544757e-14,1.897803e-13,1.660378689e-13,6.755778632e-14,2.47091527e-13,4.981666822e-14,8.393056804e-14,1.237038236e-13,1.370580005e-13,9.053295031e-14,1.091591519e-13
0.0234375,6.795259139e-14,1.479828399e-13,4.861030998e-13,1.258742306e-13,8.624165947e-14,6.626018516e-14,2.061984987e-13,1.062886082e-13,7.934198852e-14,1.123240487e-13,3.93984101e-14,8.801881639e-14,1.36399726e-13,7.761752079e-13,6.586339135e-13,7.549898795e-13,8.270770309e-13,5.593651413e-13,9.175938059e-14,2.830468109e-13,4.446961871e-14,3.303923914e-14,1.947201551e-13,1.710760122e-13,6.973615165e-14,2.523472029e-13,5.066262251e-14,8.623219198e-14,1.279204353e-13,1.392888573e-13,9.28498927e-14,1.110003363e-13
0.03125,7.025413166e-14,1.496222185e-13,4.876848336e-13,1.269445539e-13,8.865129762e-14,6.682758966e-14,2.101070873e-13,1.079292582e-13,8.198900547e-14,1.150536019e-13,4.04791802e-14,9.019015993e-14,1.412056352e-13,7.892795383e-13,6.669904315e-13,7.64726387e-13,8.388921001e-13,5.711856753e-13,9.370666621e-14,2.885660808e-13,4.60284879e-14,3.346344905e-14,1.996054466e-13,1.762490082e-13,7.195628939e-14,2.575289539e-13,5.146178145e-14,8.854866264e-14,1.32267528e-13,1.415277102e-13,9.519282709e-14,1.128186252e-13
0.0390625,7.261805276e-14,1.511914175e-13,4.890263446e-13,1.279847736e-13,9.10917484e-14,6.73744779e-14,2.139017417e-13,1.095979931e-13,8.47854845e-14,1.177300192e-13,4.158129313e-14,9.233194583e-14,1.460640702e-13,8.019599429e-13,6.748503709e-13,7.740053483e-13,8.502370265e-13,5.82828393e-13,9.560919137e-14,2.94053151e-13,4.76601508e-14,3.390814607e-14,2.045038508e-13,1.815134747e-13,7.419039137e-14,2.626477783e-13,5.2189001e-14,9.09306486e-14,1.367842159e-13,1.437884751e-13,9.754762191e-14,1.14708563e-13
0.046875,7.49762447e-14,1.526819856e-13,4.90153613e-13,1.28964463e-13,9.353207339e-14,6.787997429e-14,2.175215375e-13,1.112995094e-13,8.769174791e-14,1.204391749e-13,4.269699769e-14,9.440609598e-14,1.508639616e-13,8.141262988e-13,6.822148075e-13,7.827464587e-13,8.611238474e-13,5.941182019e-13,9.742072251e-14,2.994313454e-13,4.934340527e-14,3.43929027e-14,2.093794131e-13,1.868806996e-13,7.640865299e-14,2.676412154e-13,5.283772398e-14,9.335016288e-14,1.413757181e-13,1.460078239e-13,9.983887104e-14,1.166332819e-13
0.0546875,7.735478965e-14,1.540833528e-13,4.909548212e-13,1.298493252e-13,9.602345536e-14,6.833311757e-14,2.210341399e-13,1.129881152e-13,9.068572453e-14,1.231578615e-13,4.384974557e-14,9.651025996e-14,1.557046563e-13,8.258730679e-13,6.891492963e-13,7.91037061e-13,8.715025723e-13,6.051245206e-13,9.922895685e-14,3.047765756e-13,5.109788699e-14,3.483864723e-14,2.141248632e-13,1.923999306e-13,7.863985721e-14,2.72578011e-13,5.345076032e-14,9.580173849e-14,1.459860404e-13,1.481502924e-13,1.020904816e-13,1.184752794e-13
0.0625,7.983044023e-14,1.554288894e-13,4.914651603e-13,1.306338375e-13,9.860578794e-14,6.877295687e-14,2.24466635e-13,1.14697407e-13,9.384653247e-14,1.258813466e-13,4.503682728e-14,9.873307302e-14,1.607053528e-13,8.373478682e-13,6.957259913e-13,7.989879853e-13,8.814348306e-13,6.160224835e-13,1.010980715e-13,3.102062654e-13,5.292738537e-14,3.522963018e-14,2.187596231e-13,1.980784958e-13,8.092298613e-14,2.775383467e-13,5.409044172e-14,9.837481456e-14,1.507049873e-13,1.50252552e-13,1.043869572e-13,1.202968229e-13
0.0703125,8.2386146e-14,1.567772559e-13,4.919823298e-13,1.313251295e-13,1.012251083e-13,6.92278121e-14,2.277755531e-13,1.164791615e-13,9.717178314e-14,1.285995524e-13,4.623133525e-14,1.009941232e-13,1.657949684e-13,8.48536899e-13,7.019439162e-13,8.064841164e-13,8.90879764e-13,6.267170857e-13,1.02956672e-13,3.155780726e-13,5.480199861e-14,3.565222297e-14,2.233524691e-13,2.040158988e-13,8.322936146e-14,2.823542549e-13,5.47636043e-14,1.011073658e-13,1.555571102e-13,1.523874559e-13,1.066703349e-13,1.221951739e-13
0.078125,8.500903281e-14,1.581139652e-13,4.925470958e-13,1.319463827e-13,1.038022226e-13,6.96814929e-14,2.309810767e-13,1.182785521e-13,1.005727343e-13,1.312390492e-13,4.743158044e-14,1.03226927e-13,1.709071091e-13,8.592044078e-13,7.076460206e-13,8.132987279e-13,8.996400656e-13,6.370410617e-13,1.04769027e-13,3.207476985e-13,5.673057535e-14,3.611769486e-14,2.278860823e-13,2.10226114e-13,8.558209907e-14,2.868689248e-13,5.54090804e-14,1.039594622e-13,1.604629121e-13,1.545566713e-13,1.08857407e-13,1.240837821e-13
0.0859375,8.774891625e-14,1.59379856e-13,4.929444296e-13,1.325103387e-13,1.06315637e-13,7.014089469e-14,2.340241644e-13,1.200101094e-13,1.04040557e-13,1.337792252e-13,4.865340667e-14,1.054873642e-13,1.760565244e-13,8.692177199e-13,7.127599042e-13,8.194859755e-13,9.077249649e-13,6.469897037e-13,1.06573389e-13,3.258261107e-13,5.870936162e-14,3.656254218e-14,2.323058991e-13,2.164571021e-13,8.802404222e-14,2.91199476e-13,5.598212959e-14,1.069553794e-13,1.654386303e-13,1.567116578e-13,1.110054657e-13,1.258816319e-13
0.09375,9.060048867e-14,1.605316639e-13,4.932646642e-13,1.329702247e-13,1.08778873e-13,7.063920546e-14,2.369268639e-13,1.216822495e-13,1.07641266e-13,1.362756859e-13,4.991914709e-14,1.078211327e-13,1.812494655e-13,8.787938736e-13,7.174881983e-13,8.253023048e-13,9.15361284e-13,6.565820737e-13,1.083649042e-13,3.309441707e-13,6.067863263e-14,3.69681826e-14,2.365883337e-13,2.2268372e-13,9.045123204e-14,2.954444802e-13,5.650313982e-14,1.10150058e-13,1.705410638e-13,1.588831928e-13,1.131179178e-13,1.276239651e-13
0.1015625,9.348550826e-14,1.615063037e-13,4.93598578e-13,1.332959756e-13,1.112145559e-13,7.116260134e-14,2.398584224e-13,1.23350787e-13,1.11374321e-13,1.388179031e-13,5.124486399e-14,1.101979132e-13,1.864426635e-13,8.880237025e-13,7.219578562e-13,8.307734733e-13,9.226360148e-13,6.65858409e-13,1.101132202e-13,3.361011326e-13,6.265255824e-14,3.734471865e-14,2.407617279e-13,2.291386498e-13,9.281996685e-14,2.995023242e-13,5.699295866e-14,1.134208051e-13,1.75720333e-13,1.610496983e-13,1.150963984e-13,1.293091544e-13
0.109375,9.635428918e-14,1.622778925e-13,4.936326295e-13,1.335317749e-13,1.136464767e-13,7.164700891e-14,2.426627634e-13,1.249959751e-13,1.151365131e-13,1.414600147e-13,5.258215684e-14,1.125622706e-13,1.915347938e-13,8.966020008e-13,7.259843508e-13,8.357533606e-13,9.293843453e-13,6.748661691e-13,1.118079434e-13,3.41172582e-13,6.470461212e-14,3.76963496e-14,2.448458741e-13,2.35675858e-13,9.526335325e-14,3.033480011e-13,5.743738999e-14,1.165920908e-13,1.809461689e-13,1.630466767e-13,1.169939784e-13,1.309056858e-13
0.1171875,9.925243685e-14,1.62954147e-13,4.932734863e-13,1.337113319e-13,1.160630516e-13,7.206869984e-14,2.451291955e-13,1.265877456e-13,1.189145478e-13,1.441456163e-13,5.385702078e-14,1.149177121e-13,1.965733323e-13,9.044335683e-13,7.294914546e-13,8.402927594e-13,9.354845771e-13,6.835474945e-13,1.134606157e-13,3.460115235e-13,6.679979783e-14,3.803822435e-14,2.488012501e-13,2.420637937e-13,9.78030686e-14,3.070949174e-13,5.782834856e-14,1.197304305e-13,1.862593006e-13,1.648670869e-13,1.189320526e-13,1.324411177e-13
0.125,1.022721633e-13,1.636735902e-13,4.928836837e-13,1.338520484e-13,1.184507766e-13,7.250118684e-14,2.475249196e-13,1.282027475e-13,1.228491526e-13,1.467967353e-13,5.510266967e-14,1.173316289e-13,2.017963488e-13,9.118001306e-13,7.327392618e-13,8.446021541e-13,9.411272269e-13,6.919174936e-13,1.151231001e-13,3.507110067e-13,6.887046705e-14,3.839209627e-14,2.526188341e-13,2.485282002e-13,1.00375591e-13,3.107456405e-13,5.81624464e-14,1.229321358e-13,1.916389793e-13,1.667148997e-13,1.208505796e-13,1.339533473e-13
0.1328125,1.054216607e-13,1.644494984e-13,4.926592336e-13,1.339812651e-13,1.20842732e-13,7.303052428e-14,2.500102253e-13,1.298794709e-13,1.269661584e-13,1.493603193e-13,5.642119708e-14,1.19829091e-13,2.072209748e-13,9.187861294e-13,7.358311651e-13,8.487181705e-13,9.464741695e-13,7.000898999e-13,1.168333677e-13,3.554223106e-13,7.096333566e-14,3.876450069e-14,2.563024754e-13,2.552252011e-13,1.030200095e-13,3.142190446e-13,5.844376811e-14,1.261377987e-13,1.970621282e-13,1.686580612e-13,1.226651453e-13,1.354623745e-13
0.140625,1.086219298e-13,1.651982843e-13,4.925578255e-13,1.340654136e-13,1.232451266e-13,7.364741774e-14,2.52299372e-13,1.315331995e-13,1.311616145e-13,1.518106939e-13,5.782735597e-14,1.223797201e-13,2.126146772e-13,9.252093376e-13,7.384627003e-13,8.523931042e-13,9.512784331e-13,7.079660604e-13,1.18551461e-13,3.599869407e-13,7.313922847e-14,3.913771857e-14,2.597815888e-13,2.61988337e-13,1.057101331e-13,3.175053387e-13,5.871297904e-14,1.294742496e-13,2.025635555e-13,1.705960446e-13,1.244127431e-13,1.369816509e-13
0.1484375,1.118468062e-13,1.658776867e-13,4.92563141e-13,1.340569461e-13,1.256297253e-13,7.42979792e-14,2.542611485e-13,1.331603438e-13,1.354532939e-13,1.542629382e-13,5.927455195e-14,1.24964924e-13,2.179137418e-13,9.30989289e-13,7.40407056e-13,8.553789354e-13,9.55362154e-13,7.153617467e-13,1.202329034e-13,3.643098649e-13,7.538780237e-14,3.951049702e-14,2.630609501e-13,2.688164147e-13,1.083600549e-13,3.205952149e-13,5.897789324e-14,1.331572177e-13,2.081109115e-13,1.724832618e-13,1.261050271e-13,1.385208279e-13
0.15625,1.151407864e-13,1.665097499e-13,4.925137373e-13,1.339696251e-13,1.28027957e-13,7.495424764e-14,2.560610104e-13,1.348275958e-13,1.398686472e-13,1.56789174e-13,6.076366569e-14,1.275727228e-13,2.232214223e-13,9.361907012e-13,7.417339336e-13,8.576412311e-13,9.588739448e-13,7.223203152e-13,1.218999064e-13,3.685982114e-13,7.768505729e-14,3.989780086e-14,2.662260104e-13,2.758046854e-13,1.110063872e-13,3.234696039e-13,5.917267685e-14,1.370001697e-13,2.136529766e-13,1.743347337e-13,1.277353587e-13,1.401037109e-13
0.1640625,1.184974304e-13,1.670727032e-13,4.921594325e-13,1.3381127e-13,1.304503992e-13,7.557062407e-14,2.578163888e-13,1.364540501e-13,1.443150834e-13,1.592235407e-13,6.23010917e-14,1.301927826e-13,2.285603536e-13,9.408283166e-13,7.424092483e-13,8.591146004e-13,9.616105015e-13,7.288334313e-13,1.2355379e-13,3.728182016e-13,8.000763965e-14,4.025983924e-14,2.691967812e-13,2.82882847e-13,1.136518324e-13,3.26134617e-13,5.925895969e-14,1.406785463e-13,2.192209157e-13,1.761524536e-13,1.293225277e-13,1.416765526e-13
0.171875,1.21846217e-13,1.675203433e-13,4.914979797e-13,1.336219153e-13,1.328153891e-13,7.611699631e-14,2.594680466e-13,1.379392864e-13,1.487850531e-13,1.615002452e-13,6.385314357e-14,1.328025579e-13,2.338555455e-13,9.44786282e-13,7.422935741e-13,8.596741265e-13,9.631337016e-13,7.346593468e-13,1.251159985e-13,3.767316854e-13,8.235859363e-14,4.056756474e-14,2.718614573e-13,2.900232582e-13,1.162085829e-13,3.28525552e-13,5.92596557e-14,1.442010101e-13,2.248237612e-13,1.779307912e-13,1.307967766e-13,1.43075835e-13
0.1796875,1.251886533e-13,1.679010838e-13,4.907039475e-13,1.33468541e-13,1.35115006e-13,7.666511194e-14,2.608941431e-13,1.393837356e-13,1.533589348e-13,1.637361527e-13,6.541964593e-14,1.353764087e-13,2.390420697e-13,9.480374804e-13,7.415799612e-13,8.59533824e-13,9.637083226e-13,7.39805595e-13,1.265814971e-13,3.804682605e-13,8.478736784e-14,4.087497387e-14,2.743164387e-13,2.972817204e-13,1.187129797e-13,3.306126053e-13,5.921099881e-14,1.477184116e-13,2.304314649e-13,1.796822632e-13,1.321064434e-13,1.442869866e-13
0.1875,1.286287264e-13,1.682620998e-13,4.899367892e-13,1.332303016e-13,1.374224489e-13,7.72908503e-14,2.621652117e-13,1.409248946e-13,1.580467224e-13,1.659271675e-13,6.704386432e-14,1.380045007e-13,2.441978266e-13,9.507617998e-13,7.405999388e-13,8.590322607e-13,9.639168469e-13,7.446347519e-13,1.280881073e-13,3.842605087e-13,8.729011705e-14,4.118222351e-14,2.766357257e-13,3.046687601e-13,1.212681722e-13,3.324998794e-13,5.91614937e-14,1.513082974e-13,2.360105837e-13,1.814375857e-13,1.333204134e-13,1.454955867e-13
0.1953125,1.322040908e-13,1.685406921e-13,4.893125644e-13,1.327330699e-13,1.397021635e-13,7.796874403e-14,2.634299075e-13,1.425193316e-13,1.628275616e-13,1.680816703e-13,6.872709143e-14,1.408138688e-13,2.494434069e-13,9.529962156e-13,7.3930991e-13,8.581022068e-13,9.637057336e-13,7.492582687e-13,1.296909931e-13,3.880270254e-13,8.980834204e-14,4.143487964e-14,2.787469286e-13,3.121690974e-13,1.238726521e-13,3.341795148e-13,5.913312471e-14,1.550139465e-13,2.414920959e-13,1.831706403e-13,1.344326578e-13,1.467543404e-13
0.203125,1.358351858e-13,1.687186526e-13,4.887945515e-13,1.320849663e-13,1.418877388e-13,7.86536099e-14,2.64596091e-13,1.440447759e-13,1.676823107e-13,1.702877147e-13,7.043062525e-14,1.437309383e-13,2.547075364e-13,9.545626353e-13,7.374953734e-13,8.565527934e-13,9.627662875e-13,7.534078289e-13,1.312788056e-13,3.916746994e-13,9.235864435e-14,4.168775053e-14,2.806505975e-13,3.197179607e-13,1.264832748e-13,3.355610953e-13,5.90904773e-14,1.587956094e-13,2.469133802e-13,1.848185002e-13,1.35401972e-13,1.479897623e-13
0.2109375,1.394944158e-13,1.688647236e-13,4.882286919e-13,1.314690663e-13,1.440320711e-13,7.934138319e-14,2.65567943e-13,1.454989101e-13,1.726200617e-13,1.724673756e-13,7.215300285e-14,1.466211382e-13,2.598887697e-13,9.554670041e-13,7.351749035e-13,8.544298747e-13,9.610995522e-13,7.569485046e-13,1.327890288e-13,3.952158912e-13,9.499023014e-14,4.200604219e-14,2.823839561e-13,3.272968987e-13,1.290774946e-13,3.367149793e-13,5.901324016e-14,1.625847171e-13,2.524167106e-13,1.8643127e-13,1.36307511e-13,1.492491275e-13
0.21875,1.432564356e-13,1.689846302e-13,4.876169441e-13,1.308756412e-13,1.46198166e-13,8.005577251e-14,2.664521017e-13,1.469953091e-13,1.777173079e-13,1.745454051e-13,7.393401806e-14,1.495343009e-13,2.650546235e-13,9.558931913e-13,7.324637144e-13,8.517992093e-13,9.587869577e-13,7.600237496e-13,1.342719285e-13,3.98572438e-13,9.768028939e-14,4.234287945e-14,2.83891465e-13,3.350306294e-13,1.316373672e-13,3.376564963e-13,5.891472737e-14,1.664027707e-13,2.580051241e-13,1.881167955e-13,1.371510792e-13,1.50541144e-13
0.2265625,1.471852215e-13,1.690645408e-13,4.87118929e-13,1.30282103e-13,1.483943057e-13,8.084591409e-14,2.672868978e-13,1.486233539e-13,1.830072697e-13,1.765829267e-13,7.579066451e-14,1.525674647e-13,2.702611407e-13,9.558927693e-13,7.29370935e-13,8.486687445e-13,9.559113086e-13,7.627664801e-13,1.357771183e-13,4.017279524e-13,1.003941409e-13,4.268367797e-14,2.851558073e-13,3.429360304e-13,1.341872326e-13,3.382844273e-13,5.879554573e-14,1.70272064e-13,2.637024318e-13,1.898699854e-13,1.378579631e-13,1.517577831e-13
0.234375,1.512535347e-13,1.691378012e-13,4.867448069e-13,1.296941639e-13,1.506161371e-13,8.170134653e-14,2.679760083e-13,1.503547177e-13,1.884485262e-13,1.78562164e-13,7.769087409e-14,1.557172319e-13,2.754606131e-13,9.55298418e-13,7.257857372e-13,8.449723565e-13,9.525062304e-13,7.651142167e-13,1.373120772e-13,4.047712174e-13,1.031185991e-13,4.307358614e-14,2.862124541e-13,3.50821274e-13,1.367731566e-13,3.386980893e-13,5.864643254e-14,1.741609249e-13,2.697079482e-13,1.915933103e-13,1.385100912e-13,1.529435537e-13
0.2421875,1.553357746e-13,1.691823502e-13,4.863050113e-13,1.290395625e-13,1.527851542e-13,8.252923881e-14,2.684328979e-13,1.520525431e-13,1.939795863e-13,1.804703905e-13,7.959587399e-14,1.589285432e-13,2.805779504e-13,9.538503859e-13,7.215370847e-13,8.404899336e-13,9.483086811e-13,7.66846624e-13,1.388183184e-13,4.076356256e-13,1.058186527e-13,4.348665274e-14,2.870200752e-13,3.585494162e-13,1.393693942e-13,3.389792057e-13,5.844733943e-14,1.780573759e-13,2.759874561e-13,1.931810827e-13,1.391381879e-13,1.541637857e-13
0.25,1.593597928e-13,1.691731554e-13,4.857362654e-13,1.283280011e-13,1.548016865e-13,8.333219627e-14,2.686806079e-13,1.536157663e-13,1.994875331e-13,1.823633326e-13,8.151264584e-14,1.62134181e-13,2.855539411e-13,9.515848789e-13,7.166850013e-13,8.352060207e-13,9.431229235e-13,7.678724163e-13,1.402438934e-13,4.102084212e-13,1.084846607e-13,4.387525347e-14,2.875234183e-13,3.661600234e-13,1.419215804e-13,3.389235655e-13,5.81876876e-14,1.819421819e-13,2.822686421e-13,1.946213027e-13,1.395828698e-13,1.552621296e-13
0.2578125,1.634258159e-13,1.691859949e-13,4.852074709e-13,1.276719058e-13,1.567179987e-13,8.422515774e-14,2.68847116e-13,1.55116801e-13,2.049318625e-13,1.841721383e-13,8.347867921e-14,1.653364424e-13,2.904419007e-13,9.48930387e-13,7.115623709e-13,8.294325571e-13,9.37230106e-13,7.684410031e-13,1.416724682e-13,4.126193959e-13,1.111641341e-13,4.426368322e-14,2.877453827e-13,3.737924948e-13,1.444447512e-13,3.384779911e-13,5.791403919e-14,1.857759846e-13,2.885713618e-13,1.960659646e-13,1.398525462e-13,1.561908065e-13
0.265625,1.6762003e-13,1.692713262e-13,4.848149553e-13,1.270807221e-13,1.586560663e-13,8.524530922e-14,2.689344024e-13,1.566850092e-13,2.104455003e-13,1.858233057e-13,8.549781587e-14,1.686323234e-13,2.953871927e-13,9.462176095e-13,7.06315048e-13,8.233760152e-13,9.310280429e-13,7.688904528e-13,1.432102801e-13,4.150837442e-13,1.138931478e-13,4.46904495e-14,2.877509682e-13,3.815489632e-13,1.469432726e-13,3.379029618e-13,5.768627438e-14,1.896167038e-13,2.951255359e-13,1.976393198e-13,1.401537716e-13,1.571478615e-13
0.2734375,1.719029476e-13,1.694085098e-13,4.845187599e-13,1.265042183e-13,1.606214072e-13,8.636011697e-14,2.689255414e-13,1.583411044e-13,2.161233238e-13,1.873833344e-13,8.754091667e-14,1.720598052e-13,3.004956737e-13,9.435352103e-13,7.008787597e-13,8.17122273e-13,9.246856195e-13,7.693513363e-13,1.448458295e-13,4.175844537e-13,1.166654684e-13,4.515225753e-14,2.876048033e-13,3.894075756e-13,1.493798377e-13,3.373207506e-13,5.751991599e-14,1.935570182e-13,3.019299155e-13,1.99295222e-13,1.405216071e-13,1.581951002e-13
0.28125,1.762385904e-13,1.696060301e-13,4.843755133e-13,1.259415568e-13,1.625505868e-13,8.756397095e-14,2.690218027e-13,1.600511141e-13,2.21907473e-13,1.889280131e-13,8.961032844e-14,1.755362834e-13,3.057612831e-13,9.407877427e-13,6.953120739e-13,8.107396798e-13,9.181101648e-13,7.697041515e-13,1.465240321e-13,4.199319281e-13,1.194467139e-13,4.563384905e-14,2.873069435e-13,3.97341878e-13,1.518122963e-13,3.365963328e-13,5.738870516e-14,1.975069465e-13,3.087760611e-13,2.009724848e-13,1.408102664e-13,1.592436651e-13
0.2890625,1.805938786e-13,1.698277697e-13,4.844584163e-13,1.253673468e-13,1.644115635e-13,8.883345939e-14,2.692020503e-13,1.617802868e-13,2.27694001e-13,1.905035899e-13,9.172719396e-14,1.789919628e-13,3.109978134e-13,9.374979636e-13,6.895814784e-13,8.040295661e-13,9.110064899e-13,7.696337817e-13,1.481848304e-13,4.220594621e-13,1.222037019e-13,4.613063222e-14,2.867712602e-13,4.053428442e-13,1.54301739e-13,3.35585479e-13,5.722806924e-14,2.013297027e-13,3.155065715e-13,2.026414712e-13,1.409439271e-13,1.602907099e-13
0.296875,1.849532285e-13,1.699414844e-13,4.846935572e-13,1.247384263e-13,1.661893344e-13,9.01381735e-14,2.691985247e-13,1.634789578e-13,2.334581731e-13,1.921074409e-13,9.38711231e-14,1.825078717e-13,3.160403338e-13,9.332882215e-13,6.834267792e-13,7.967228817e-13,9.032522243e-13,7.689214906e-13,1.497841503e-13,4.240441249e-13,1.249731404e-13,4.662657036e-14,2.859445642e-13,4.133369092e-13,1.56749141e-13,3.342489295e-13,5.699928584e-14,2.051100556e-13,3.221803023e-13,2.042554064e-13,1.409578401e-13,1.61320046e-13
0.3046875,1.893890768e-13,1.698983415e-13,4.849449349e-13,1.240770051e-13,1.678812407e-13,9.147136622e-14,2.691124537e-13,1.65143098e-13,2.393208168e-13,1.936739468e-13,9.603053739e-14,1.862280923e-13,3.209688879e-13,9.28379722e-13,6.767254322e-13,7.887916689e-13,8.949814272e-13,7.676384774e-13,1.513668522e-13,4.258845689e-13,1.278232739e-13,4.710828805e-14,2.848664583e-13,4.213033993e-13,1.590745241e-13,3.326401609e-13,5.674162825e-14,2.089433628e-13,3.289623735e-13,2.058182566e-13,1.408837332e-13,1.622725551e-13
0.3125,1.938785993e-13,1.698029917e-13,4.850835744e-13,1.234345651e-13,1.694996071e-13,9.2793536e-14,2.690550383e-13,1.668122217e-13,2.453081249e-13,1.951811535e-13,9.824928707e-14,1.900736129e-13,3.257526379e-13,9.229593692e-13,6.695184205e-13,7.802809287e-13,8.861929071e-13,7.658489823e-13,1.529689403e-13,4.275368304e-13,1.307023212e-13,4.761070231e-14,2.835898462e-13,4.292029203e-13,1.613071983e-13,3.308273746e-13,5.648356392e-14,2.127429034e-13,3.358347772e-13,2.073254548e-13,1.407098195e-13,1.63181622e-13
0.3203125,1.983066157e-13,1.697652097e-13,4.851832168e-13,1.228066231e-13,1.710338096e-13,9.409545867e-14,2.687493504e-13,1.685146416e-13,2.512221083e-13,1.966283682e-13,1.005208732e-13,1.938451237e-13,3.301802194e-13,9.169846304e-13,6.618954492e-13,7.713650866e-13,8.768928693e-13,7.635522868e-13,1.545364901e-13,4.29063645e-13,1.334896762e-13,4.816992862e-14,2.8213896e-13,4.368709813e-13,1.634437425e-13,3.288267735e-13,5.622033862e-14,2.165446665e-13,3.426963161e-13,2.087332282e-13,1.404403137e-13,1.640722615e-13
0.328125,2.027418767e-13,1.698073486e-13,4.855921312e-13,1.221353536e-13,1.724695499e-13,9.544360086e-14,2.681938207e-13,1.702682163e-13,2.570471879e-13,1.980094881e-13,1.027706276e-13,1.97629474e-13,3.343906725e-13,9.106658688e-13,6.540774261e-13,7.623226822e-13,8.672930262e-13,7.609238527e-13,1.560581272e-13,4.304839834e-13,1.362113186e-13,4.876184385e-14,2.805132399e-13,4.443919271e-13,1.655258977e-13,3.266211048e-13,5.599836132e-14,2.205410705e-13,3.496004087e-13,2.101026295e-13,1.400944801e-13,1.648978203e-13
0.3359375,2.072810722e-13,1.698958533e-13,4.863675198e-13,1.214375823e-13,1.738398213e-13,9.684140955e-14,2.676692245e-13,1.72015613e-13,2.629475868e-13,1.993549646e-13,1.050206588e-13,2.01569957e-13,3.386704991e-13,9.040882117e-13,6.461269958e-13,7.530644633e-13,8.57358829e-13,7.58066865e-13,1.576015133e-13,4.316798623e-13,1.389971924e-13,4.936001037e-14,2.786923504e-13,4.520403964e-13,1.676513196e-13,3.241725679e-13,5.586279242e-14,2.246669084e-13,3.566068514e-13,2.115094578e-13,1.396566044e-13,1.656654465e-13
0.34375,2.118181654e-13,1.700006934e-13,4.871393238e-13,1.208233742e-13,1.751586477e-13,9.824890015e-14,2.671587614e-13,1.736384964e-13,2.68826742e-13,2.006373943e-13,1.073663379e-13,2.054778479e-13,3.429395221e-13,8.97094904e-13,6.378407587e-13,7.433469619e-13,8.468449506e-13,7.548352627e-13,1.591932238e-13,4.325625429e-13,1.418576906e-13,4.997207189e-14,2.766761217e-13,4.596773379e-13,1.697537009e-13,3.214494239e-13,5.577882081e-14,2.286288552e-13,3.637044656e-13,2.129112077e-13,1.3911468e-13,1.663968458e-13
0.3515625,2.162935521e-13,1.701167802e-13,4.878356285e-13,1.202684723e-13,1.763314371e-13,9.969602987e-14,2.665902553e-13,1.751303539e-13,2.74582032e-13,2.01823911e-13,1.097712168e-13,2.092436848e-13,3.470756049e-13,8.898593364e-13,6.292049299e-13,7.332356694e-13,8.357586492e-13,7.511741313e-13,1.607771747e-13,4.331145621e-13,1.446948459e-13,5.059716166e-14,2.74476553e-13,4.670195954e-13,1.717115976e-13,3.184549192e-13,5.569988868e-14,2.323617619e-13,3.708839418e-13,2.142926108e-13,1.384694882e-13,1.670627115e-13
0.359375,2.208113885e-13,1.702488811e-13,4.887269164e-13,1.196208981e-13,1.772677218e-13,1.011980916e-13,2.660193438e-13,1.765877204e-13,2.803974515e-13,2.0297044e-13,1.121359643e-13,2.131075366e-13,3.511633194e-13,8.824638226e-13,6.202986118e-13,7.227047724e-13,8.241145883e-13,7.471243774e-13,1.623102726e-13,4.333854972e-13,1.474631972e-13,5.124665425e-14,2.72070155e-13,4.742129278e-13,1.735932023e-13,3.152030978e-13,5.561955902e-14,2.36096978e-13,3.781020585e-13,2.156887167e-13,1.377071301e-13,1.676800495e-13
0.3671875,2.254392145e-13,1.704255547e-13,4.89865317e-13,1.189276903e-13,1.780718404e-13,1.027638595e-13,2.654246798e-13,1.780892212e-13,2.863559236e-13,2.040843055e-13,1.145122236e-13,2.172052631e-13,3.552539706e-13,8.746302082e-13,6.109958318e-13,7.115754031e-13,8.118138965e-13,7.426465981e-13,1.638685047e-13,4.335681313e-13,1.501955021e-13,5.195283613e-14,2.694532624e-13,4.814767784e-13,1.755139975e-13,3.117561067e-13,5.555258188e-14,2.399854716e-13,3.854232383e-13,2.17099383e-13,1.368717202e-13,1.682853734e-13
0.375,2.301278516e-13,1.706845177e-13,4.911640412e-13,1.183875409e-13,1.789721565e-13,1.044561509e-13,2.648078384e-13,1.79691907e-13,2.923574323e-13,2.051979052e-13,1.170105898e-13,2.214352969e-13,3.593073374e-13,8.665044249e-13,6.014033705e-13,7.000913932e-13,7.991231316e-13,7.378431063e-13,1.65525344e-13,4.338456201e-13,1.529465652e-13,5.267905577e-14,2.66688786e-13,4.88775215e-13,1.774262147e-13,3.082210385e-13,5.552755811e-14,2.439378126e-13,3.929624434e-13,2.185180234e-13,1.360353162e-13,1.688381819e-13
0.3828125,2.347430296e-13,1.709910535e-13,4.925369903e-13,1.18001226e-13,1.800494856e-13,1.062093555e-13,2.64176885e-13,1.813633005e-13,2.983482047e-13,2.064010531e-13,1.196001049e-13,2.25708513e-13,3.631775932e-13,8.58384015e-13,5.918769899e-13,6.886551353e-13,7.865020366e-13,7.32937978e-13,1.672014419e-13,4.342039218e-13,1.557456994e-13,5.333897591e-14,2.638095564e-13,4.960261753e-13,1.792089893e-13,3.046141066e-13,5.556896763e-14,2.478413549e-13,4.005260934e-13,2.198652166e-13,1.351741651e-13,1.693265086e-13
0.390625,2.392072041e-13,1.712663303e-13,4.938123043e-13,1.176263589e-13,1.811705616e-13,1.078761995e-13,2.635431574e-13,1.829537835e-13,3.042522877e-13,2.075682232e-13,1.221693949e-13,2.299694435e-13,3.667763548e-13,8.500653697e-13,5.824466009e-13,6.77307636e-13,7.740291649e-13,7.280013192e-13,1.688672892e-13,4.345811705e-13,1.585698632e-13,5.394445898e-14,2.607831731e-13,5.031708249e-13,1.808639927e-13,3.009097955e-13,5.568637979e-14,2.51630034e-13,4.0791956e-13,2.210594422e-13,1.342667799e-13,1.698421224e-13
0.3984375,2.436169278e-13,1.715097714e-13,4.950292207e-13,1.172578124e-13,1.822182543e-13,1.095290495e-13,2.630679493e-13,1.843870954e-13,3.100317462e-13,2.085906988e-13,1.246973722e-13,2.342263251e-13,3.703158014e-13,8.415705873e-13,5.730520859e-13,6.660452187e-13,7.616214037e-13,7.23077265e-13,1.706500621e-13,4.350617309e-13,1.613962962e-13,5.457910462e-14,2.576194782e-13,5.101883594e-13,1.824702507e-13,2.972109796e-13,5.588967436e-14,2.552432665e-13,4.153426792e-13,2.222139891e-13,1.333961666e-13,1.704382489e-13
0.40625,2.480715242e-13,1.718168523e-13,4.964874491e-13,1.170235862e-13,1.832522437e-13,1.113369057e-13,2.627027177e-13,1.857576281e-13,3.157542193e-13,2.096585006e-13,1.272818059e-13,2.385651757e-13,3.738848827e-13,8.332908849e-13,5.639101946e-13,6.550249611e-13,7.494576852e-13,7.182870445e-13,1.725851194e-13,4.357994756e-13,1.642352305e-13,5.525125188e-14,2.543836984e-13,5.170451033e-13,1.840231926e-13,2.936249169e-13,5.619766765e-14,2.58780281e-13,4.229389237e-13,2.2341176e-13,1.326160716e-13,1.710600316e-13
0.4140625,2.525663698e-13,1.723088612e-13,4.98308655e-13,1.169979017e-13,1.843576916e-13,1.133031344e-13,2.621379728e-13,1.8720564e-13,3.214009037e-13,2.108232538e-13,1.300075914e-13,2.429838854e-13,3.772594872e-13,8.251212469e-13,5.550647616e-13,6.442580389e-13,7.376724146e-13,7.136083e-13,1.746060031e-13,4.36789183e-13,1.670736504e-13,5.594402165e-14,2.511012572e-13,5.235782578e-13,1.855460275e-13,2.900737625e-13,5.66412555e-14,2.62371739e-13,4.30649647e-13,2.245509666e-13,1.318913613e-13,1.716458977e-13
0.421875,2.570860198e-13,1.730099558e-13,5.003766867e-13,1.170911213e-13,1.854461863e-13,1.153484708e-13,2.614204742e-13,1.887508517e-13,3.269547773e-13,2.119411407e-13,1.328070901e-13,2.474278306e-13,3.804961561e-13,8.167585338e-13,5.462269565e-13,6.335576928e-13,7.259530491e-13,7.08847334e-13,1.766772009e-13,4.37779404e-13,1.698896787e-13,5.669766259e-14,2.477567451e-13,5.29807326e-13,1.871158202e-13,2.864099585e-13,5.722688537e-14,2.659272718e-13,4.38537452e-13,2.256573465e-13,1.311637338e-13,1.721601322e-13
0.4296875,2.616039641e-13,1.737836612e-13,5.02566751e-13,1.171548953e-13,1.863569179e-13,1.174071409e-13,2.607989551e-13,1.902624925e-13,3.325263334e-13,2.130636834e-13,1.355592672e-13,2.51924983e-13,3.838083947e-13,8.083022142e-13,5.371789247e-13,6.227087423e-13,7.139102174e-13,7.038035313e-13,1.787203012e-13,4.385234668e-13,1.727028178e-13,5.750491976e-14,2.443332534e-13,5.359976136e-13,1.886203564e-13,2.825939594e-13,5.791074553e-14,2.694249522e-13,4.465647128e-13,2.268488095e-13,1.303643769e-13,1.725740814e-13
0.4375,2.661390702e-13,1.745362028e-13,5.048250273e-13,1.171811723e-13,1.870878796e-13,1.19472592e-13,2.602099967e-13,1.916911093e-13,3.381517593e-13,2.142366515e-13,1.383042138e-13,2.565372106e-13,3.870594948e-13,7.998408649e-13,5.278939317e-13,6.115483876e-13,7.015924147e-13,6.983998925e-13,1.807209322e-13,4.390495009e-13,1.755101626e-13,5.830776145e-14,2.40780161e-13,5.421246442e-13,1.899565283e-13,2.786597498e-13,5.868493337e-14,2.730093882e-13,4.54584772e-13,2.280657928e-13,1.294686798e-13,1.729166606e-13
0.4453125,2.707708519e-13,1.753685321e-13,5.071644149e-13,1.172584245e-13,1.877541076e-13,1.216055984e-13,2.595611249e-13,1.931761235e-13,3.438016829e-13,2.153684014e-13,1.411476591e-13,2.613227327e-13,3.901848882e-13,7.913240928e-13,5.18472318e-13,6.000370976e-13,6.891769278e-13,6.927705769e-13,1.828125547e-13,4.395378468e-13,1.782607161e-13,5.912677383e-14,2.370420341e-13,5.479956876e-13,1.912881196e-13,2.746080772e-13,5.959904125e-14,2.766573888e-13,4.627113368e-13,2.29251532e-13,1.285325375e-13,1.732463864e-13
0.453125,2.754013024e-13,1.763548931e-13,5.09497592e-13,1.174021781e-13,1.883884513e-13,1.237245349e-13,2.58929821e-13,1.947605747e-13,3.494727049e-13,2.164716614e-13,1.4403402e-13,2.662356654e-13,3.933658048e-13,7.828180861e-13,5.090323183e-13,5.882467601e-13,6.765554917e-13,6.87062794e-13,1.849812922e-13,4.400688572e-13,1.809533131e-13,6.000461638e-14,2.331636371e-13,5.537277789e-13,1.926367992e-13,2.704401417e-13,6.063717846e-14,2.802762308e-13,4.709896407e-13,2.304441716e-13,1.275942059e-13,1.73572022e-13
0.4609375,2.798139772e-13,1.774137353e-13,5.115847318e-13,1.175799399e-13,1.889747218e-13,1.256602271e-13,2.583332902e-13,1.963313566e-13,3.550370959e-13,2.175339035e-13,1.468662808e-13,2.710419724e-13,3.964924135e-13,7.742821565e-13,4.995175273e-13,5.762449564e-13,6.636846691e-13,6.811862026e-13,1.870669189e-13,4.406152357e-13,1.836613053e-13,6.091557576e-14,2.292484074e-13,5.59391642e-13,1.938071938e-13,2.662371726e-13,6.174165546e-14,2.837631146e-13,4.791617192e-13,2.315688445e-13,1.266486071e-13,1.739082512e-13
0.46875,2.840165009e-13,1.784731475e-13,5.133842843e-13,1.177773502e-13,1.895684431e-13,1.274887706e-13,2.577437395e-13,1.978890906e-13,3.603474841e-13,2.184970972e-13,1.496950463e-13,2.756422918e-13,3.992953453e-13,7.655440866e-13,4.898365533e-13,5.640522766e-13,6.508101241e-13,6.750511893e-13,1.890828532e-13,4.411474498e-13,1.864316192e-13,6.182858306e-14,2.253167055e-13,5.647531617e-13,1.948328396e-13,2.620585357e-13,6.29352182e-14,2.869195123e-13,4.871649829e-13,2.325131853e-13,1.257117989e-13,1.742749161e-13
0.4765625,2.881561557e-13,1.795200962e-13,5.151807259e-13,1.179886215e-13,1.901937771e-13,1.293753545e-13,2.571588883e-13,1.994922221e-13,3.654671711e-13,2.194940664e-13,1.525829214e-13,2.80274938e-13,4.017955206e-13,7.56620192e-13,4.800735479e-13,5.517343837e-13,6.380837369e-13,6.68799168e-13,1.911302986e-13,4.41653641e-13,1.892053091e-13,6.272966941e-14,2.213278486e-13,5.69728655e-13,1.958039248e-13,2.578252735e-13,6.424047519e-14,2.899363032e-13,4.951811838e-13,2.332975971e-13,1.247815791e-13,1.745828772e-13
0.484375,2.922620778e-13,1.805619777e-13,5.171722009e-13,1.182454316e-13,1.907713053e-13,1.312879548e-13,2.565844303e-13,2.010591793e-13,3.705059767e-13,2.206157432e-13,1.554905167e-13,2.850864365e-13,4.041238707e-13,7.476702023e-13,4.703294829e-13,5.39471107e-13,6.254537809e-13,6.625295945e-13,1.932024935e-13,4.421095813e-13,1.918923387e-13,6.361405208e-14,2.172833253e-13,5.745012439e-13,1.966246131e-13,2.534635912e-13,6.560759075e-14,2.9323829e-13,5.032343974e-13,2.339999902e-13,1.23811122e-13,1.747293682e-13
0.4921875,2.963068677e-13,1.816497967e-13,5.192318596e-13,1.185904871e-13,1.912722502e-13,1.331699378e-13,2.560666222e-13,2.024938061e-13,3.754439363e-13,2.217304994e-13,1.584003903e-13,2.898744781e-13,4.063073163e-13,7.388439566e-13,4.606696896e-13,5.273915366e-13,6.128639143e-13,6.561968268e-13,1.952742067e-13,4.424888269e-13,1.945197819e-13,6.449955747e-14,2.131924187e-13,5.791985603e-13,1.973293369e-13,2.490409039e-13,6.702652325e-14,2.966432168e-13,5.111980621e-13,2.346635282e-13,1.228018734e-13,1.747557585e-13
0.5,3.002897802e-13,1.8281979e-13,5.21244501e-13,1.189988565e-13,1.917452964e-13,1.35038375e-13,2.55651136e-13,2.03827314e-13,3.802453182e-13,2.227686245e-13,1.613432666e-13,2.944745761e-13,4.083702232e-13,7.302528485e-13,4.512007976e-13,5.153913732e-13,6.002480355e-13,6.498262681e-13,1.973551254e-13,4.427786661e-13,1.971709494e-13,6.538385636e-14,2.090280881e-13,5.837998728e-13,1.980496894e-13,2.446274862e-13,6.853306171e-14,2.998460319e-13,5.190221132e-13,2.352948904e-13,1.218261363e-13,1.747488768e-13
0.5078125,3.041627202e-13,1.840765123e-13,5.23320661e-13,1.194181954e-13,1.921774124e-13,1.368917311e-13,2.553539655e-13,2.051426017e-13,3.84917165e-13,2.237847409e-13,1.643061958e-13,2.989904966e-13,4.103405988e-13,7.218377453e-13,4.418842332e-13,5.033146711e-13,5.875708156e-13,6.43410428e-13,1.994652958e-13,4.429892214e-13,1.998163704e-13,6.626570918e-14,2.048018427e-13,5.88255434e-13,1.987331765e-13,2.402058042e-13,7.012300924e-14,3.030771435e-13,5.268347494e-13,2.358967956e-13,1.209426003e-13,1.747394037e-13
0.515625,3.078479574e-13,1.854454093e-13,5.254240153e-13,1.19859929e-13,1.925523349e-13,1.387544256e-13,2.551283407e-13,2.064522329e-13,3.894329877e-13,2.248016987e-13,1.672760186e-13,3.03510535e-13,4.121766526e-13,7.134331498e-13,4.32568714e-13,4.912410026e-13,5.749700128e-13,6.368608616e-13,2.016256859e-13,4.432751777e-13,2.024127309e-13,6.716807266e-14,2.005842691e-13,5.925554829e-13,1.992907948e-13,2.35819808e-13,7.180331883e-14,3.063922326e-13,5.347889255e-13,2.364657373e-13,1.201850841e-13,1.747361287e-13
0.5234375,3.113846328e-13,1.869033757e-13,5.273218543e-13,1.204025437e-13,1.929567164e-13,1.406331479e-13,2.548568772e-13,2.076814864e-13,3.937693871e-13,2.258251948e-13,1.702871328e-13,3.079725897e-13,4.138381978e-13,7.050730362e-13,4.233403543e-13,4.794168502e-13,5.626751022e-13,6.303534502e-13,2.038202208e-13,4.439216661e-13,2.050317848e-13,6.804928202e-14,1.964086986e-13,5.966712293e-13,1.997326201e-13,2.316168243e-13,7.362574783e-14,3.095319115e-13,5.428535712e-13,2.369527785e-13,1.196067093e-13,1.747176536e-13
0.53125,3.148868685e-13,1.884051225e-13,5.291055461e-13,1.211041615e-13,1.934424553e-13,1.424762205e-13,2.545254722e-13,2.088034301e-13,3.979811422e-13,2.268624931e-13,1.733440295e-13,3.123757883e-13,4.153744901e-13,6.969903538e-13,4.14421439e-13,4.67941354e-13,5.507722401e-13,6.241625034e-13,2.06038314e-13,4.449302929e-13,2.076929969e-13,6.887204813e-14,1.922374192e-13,6.005769792e-13,2.000843036e-13,2.276463233e-13,7.560582603e-14,3.125635369e-13,5.509609688e-13,2.373342467e-13,1.192345619e-13,1.746560046e-13
0.5390625,3.183166158e-13,1.900208986e-13,5.310154206e-13,1.219171292e-13,1.939227479e-13,1.44310741e-13,2.541876533e-13,2.098906192e-13,4.020613736e-13,2.278950631e-13,1.764161367e-13,3.167805869e-13,4.168256816e-13,6.893111555e-13,4.057834226e-13,4.566485449e-13,5.39125806e-13,6.18176019e-13,2.083120287e-13,4.459091874e-13,2.102943816e-13,6.971914479e-14,1.880513284e-13,6.042856342e-13,2.00351556e-13,2.237905346e-13,7.771491204e-14,3.156444807e-13,5.591074061e-13,2.376595013e-13,1.190166539e-13,1.74557841e-13
0.546875,3.215839135e-13,1.91809787e-13,5.329270354e-13,1.227520753e-13,1.943039164e-13,1.461948963e-13,2.538251191e-13,2.109703705e-13,4.058857852e-13,2.289236116e-13,1.795051946e-13,3.211528553e-13,4.181841687e-13,6.819468223e-13,3.97247305e-13,4.454032872e-13,5.276517102e-13,6.122678771e-13,2.10660704e-13,4.466658558e-13,2.127994015e-13,7.063864636e-14,1.839145163e-13,6.076430363e-13,2.005221752e-13,2.199587025e-13,7.995739958e-14,3.187156504e-13,5.672695713e-13,2.379579437e-13,1.188898497e-13,1.744027243e-13
0.5546875,3.247671673e-13,1.936691512e-13,5.347471623e-13,1.23600129e-13,1.946024468e-13,1.480859747e-13,2.535597623e-13,2.119752681e-13,4.094870258e-13,2.299896784e-13,1.826149886e-13,3.254962639e-13,4.195342912e-13,6.747984154e-13,3.888179042e-13,4.343496865e-13,5.164978886e-13,6.066935517e-13,2.130854e-13,4.474158622e-13,2.152554353e-13,7.155415559e-14,1.798836601e-13,6.105377305e-13,2.006168088e-13,2.161635002e-13,8.237201827e-14,3.217253998e-13,5.75549673e-13,2.382300018e-13,1.188364244e-13,1.741584042e-13
0.5625,3.27874934e-13,1.955091942e-13,5.366422243e-13,1.244928877e-13,1.948915977e-13,1.499293227e-13,2.535674483e-13,2.128161915e-13,4.130136355e-13,2.310829087e-13,1.857100935e-13,3.298736578e-13,4.20929762e-13,6.67903426e-13,3.80611044e-13,4.23611212e-13,5.056545685e-13,6.014799187e-13,2.155464558e-13,4.482363621e-13,2.176673713e-13,7.240522147e-14,1.758973849e-13,6.133655641e-13,2.00667764e-13,2.123845533e-13,8.493554402e-14,3.246027988e-13,5.83992487e-13,2.384579855e-13,1.188263834e-13,1.738484241e-13
0.5703125,3.307696054e-13,1.973934213e-13,5.385591169e-13,1.254197586e-13,1.951890023e-13,1.517293357e-13,2.537367916e-13,2.134640098e-13,4.163794201e-13,2.321210741e-13,1.887776854e-13,3.341641492e-13,4.222449194e-13,6.612824061e-13,3.725895732e-13,4.130370014e-13,4.948465834e-13,5.961946212e-13,2.179606411e-13,4.489624219e-13,2.200282026e-13,7.320700868e-14,1.71886006e-13,6.164071271e-13,2.006497898e-13,2.085649383e-13,8.755867745e-14,3.272855965e-13,5.922438091e-13,2.385871345e-13,1.188043296e-13,1.734805455e-13
0.578125,3.335165104e-13,1.993883659e-13,5.403637118e-13,1.263594084e-13,1.95450703e-13,1.534924731e-13,2.539264108e-13,2.140590284e-13,4.19464042e-13,2.331104018e-13,1.918670816e-13,3.382091435e-13,4.234139238e-13,6.547607903e-13,3.646165213e-13,4.025039773e-13,4.840969496e-13,5.90661328e-13,2.203173703e-13,4.496354445e-13,2.22381246e-13,7.40021775e-14,1.679236179e-13,6.192169913e-13,2.005827446e-13,2.047169988e-13,9.022400228e-14,3.298651223e-13,6.000437199e-13,2.386324106e-13,1.187606515e-13,1.73025008e-13
0.5859375,3.362569925e-13,2.014207141e-13,5.421725708e-13,1.272956503e-13,1.95664275e-13,1.551901256e-13,2.541236797e-13,2.147749946e-13,4.224012894e-13,2.341265323e-13,1.950038268e-13,3.420925839e-13,4.244267186e-13,6.481351293e-13,3.566709141e-13,3.920842438e-13,4.736854483e-13,5.850807677e-13,2.226333794e-13,4.504384543e-13,2.24750384e-13,7.479240222e-14,1.640973821e-13,6.215073266e-13,2.005052028e-13,2.008877314e-13,9.297707387e-14,3.32477569e-13,6.075578765e-13,2.386401519e-13,1.187308697e-13,1.725118791e-13
0.59375,3.389020325e-13,2.033860285e-13,5.440296341e-13,1.281815508e-13,1.958563662e-13,1.567855287e-13,2.541822947e-13,2.155518014e-13,4.252717206e-13,2.351540247e-13,1.980958717e-13,3.459244246e-13,4.251433499e-13,6.41470672e-13,3.488426842e-13,3.818618206e-13,4.636283698e-13,5.795257441e-13,2.248378585e-13,4.513885422e-13,2.270717077e-13,7.554341648e-14,1.603513315e-13,6.235908564e-13,2.003414821e-13,1.971231538e-13,9.580974635e-14,3.35270117e-13,6.148482633e-13,2.385533839e-13,1.187376478e-13,1.720136588e-13
0.6015625,3.413766827e-13,2.053230916e-13,5.458847189e-13,1.289952666e-13,1.960590079e-13,1.583050287e-13,2.540505536e-13,2.162819943e-13,4.279944011e-13,2.362179808e-13,2.01041615e-13,3.496622791e-13,4.255707595e-13,6.350200693e-13,3.412114714e-13,3.719291049e-13,4.539268638e-13,5.739761887e-13,2.269151321e-13,4.525472253e-13,2.292993812e-13,7.6299317e-14,1.566267342e-13,6.256315289e-13,2.000746468e-13,1.935037307e-13,9.875407549e-14,3.382930625e-13,6.217900024e-13,2.383736003e-13,1.187905508e-13,1.715649658e-13
0.609375,3.437409453e-13,2.073325878e-13,5.478253119e-13,1.298407329e-13,1.963576313e-13,1.597886441e-13,2.539340328e-13,2.170452387e-13,4.305556322e-13,2.373850799e-13,2.039337639e-13,3.532640708e-13,4.258647872e-13,6.28863724e-13,3.338009944e-13,3.623631733e-13,4.447585287e-13,5.68512212e-13,2.289629752e-13,4.540767053e-13,2.315538185e-13,7.708943238e-14,1.529802548e-13,6.276166926e-13,1.997781533e-13,1.900685217e-13,1.018860459e-13,3.413874499e-13,6.283730601e-13,2.381870823e-13,1.189266658e-13,1.711557011e-13
0.6171875,3.459864024e-13,2.093873347e-13,5.498257324e-13,1.308391634e-13,1.967999824e-13,1.61194638e-13,2.538982623e-13,2.178274309e-13,4.329080127e-13,2.38528044e-13,2.069401017e-13,3.566971249e-13,4.259427571e-13,6.228727399e-13,3.265631032e-13,3.530814008e-13,4.360175138e-13,5.63157219e-13,2.310204401e-13,4.558085714e-13,2.339541648e-13,7.77948893e-14,1.494588706e-13,6.29636651e-13,1.994025157e-13,1.867583754e-13,1.050987915e-13,3.444917668e-13,6.34605628e-13,2.37931503e-13,1.192040487e-13,1.707438103e-13
0.625,3.480807213e-13,2.113830436e-13,5.517256248e-13,1.319006659e-13,1.972497233e-13,1.624927198e-13,2.538666852e-13,2.184302832e-13,4.349389386e-13,2.3957186e-13,2.10008634e-13,3.599072112e-13,4.257111311e-13,6.169893976e-13,3.194457281e-13,3.440134106e-13,4.274877981e-13,5.578849252e-13,2.330490971e-13,4.57431848e-13,2.36380373e-13,7.837964031e-14,1.460311141e-13,6.315584443e-13,1.989111582e-13,1.835342632e-13,1.08233954e-13,3.476382807e-13,6.405034124e-13,2.375252745e-13,1.196232909e-13,1.702865082e-13
0.6328125,3.500427731e-13,2.132882697e-13,5.535458187e-13,1.328514905e-13,1.975913906e-13,1.637115713e-13,2.538424178e-13,2.188195329e-13,4.366558968e-13,2.406397761e-13,2.130025736e-13,3.628917515e-13,4.253062567e-13,6.112861539e-13,3.124916995e-13,3.352172804e-13,4.192975581e-13,5.527420773e-13,2.350281136e-13,4.591375393e-13,2.387194414e-13,7.894327836e-14,1.426617465e-13,6.332059817e-13,1.983967048e-13,1.804289211e-13,1.113803286e-13,3.506828259e-13,6.461068566e-13,2.370341983e-13,1.201278739e-13,1.697661042e-13
0.640625,3.519077012e-13,2.151671659e-13,5.554128316e-13,1.337548712e-13,1.979227117e-13,1.648883874e-13,2.53805419e-13,2.191134051e-13,4.380834842e-13,2.416404006e-13,2.159884455e-13,3.656731889e-13,4.24779264e-13,6.058441852e-13,3.057681032e-13,3.266617078e-13,4.114977374e-13,5.47759752e-13,2.369832834e-13,4.612192745e-13,2.410836843e-13,7.945215712e-14,1.393532893e-13,6.346534008e-13,1.978815067e-13,1.77445363e-13,1.146661339e-13,3.536429991e-13,6.513825077e-13,2.364917223e-13,1.207458386e-13,1.691629126e-13
0.6484375,3.537276503e-13,2.170981276e-13,5.57366853e-13,1.347531101e-13,1.982940072e-13,1.660960602e-13,2.537662781e-13,2.193178909e-13,4.392120906e-13,2.424189516e-13,2.190318264e-13,3.682956436e-13,4.241056996e-13,6.007235988e-13,2.992862613e-13,3.183154424e-13,4.038641405e-13,5.429571646e-13,2.389506493e-13,4.63316526e-13,2.434521377e-13,7.984241308e-14,1.361535294e-13,6.358321697e-13,1.97320389e-13,1.745316854e-13,1.179934532e-13,3.56774254e-13,6.563715336e-13,2.359005553e-13,1.215547533e-13,1.684524277e-13
0.65625,3.554470086e-13,2.190396822e-13,5.593380245e-13,1.357735579e-13,1.986019351e-13,1.673134895e-13,2.537921694e-13,2.194154144e-13,4.401313882e-13,2.431429785e-13,2.219779964e-13,3.70791784e-13,4.233430784e-13,5.958833136e-13,2.930450527e-13,3.103401985e-13,3.964289777e-13,5.384076185e-13,2.408792281e-13,4.650332643e-13,2.455941508e-13,8.018806528e-14,1.331203764e-13,6.366223829e-13,1.966939496e-13,1.716692064e-13,1.21227597e-13,3.60037146e-13,6.611223395e-13,2.353139214e-13,1.224875847e-13,1.676527499e-13
0.6640625,3.569507007e-13,2.208966208e-13,5.611896938e-13,1.367540243e-13,1.988900432e-13,1.68393603e-13,2.538229602e-13,2.194786115e-13,4.40902715e-13,2.439275711e-13,2.247566234e-13,3.730880538e-13,4.224880243e-13,5.912120949e-13,2.870129874e-13,3.027745134e-13,3.894446361e-13,5.341036642e-13,2.427130096e-13,4.66788524e-13,2.475604201e-13,8.051573038e-14,1.302303896e-13,6.37254868e-13,1.959957523e-13,1.689149139e-13,1.244414724e-13,3.632223665e-13,6.655759944e-13,2.347081457e-13,1.234791862e-13,1.668488442e-13
0.671875,3.583358186e-13,2.22757517e-13,5.629410725e-13,1.378173335e-13,1.9931307e-13,1.693777083e-13,2.53846007e-13,2.195215593e-13,4.414814808e-13,2.44697182e-13,2.275638215e-13,3.751966903e-13,4.215685351e-13,5.867852656e-13,2.811330841e-13,2.953975362e-13,3.829277964e-13,5.299601783e-13,2.445495045e-13,4.690972763e-13,2.496317063e-13,8.079497206e-14,1.2740527e-13,6.379148762e-13,1.952892518e-13,1.66313779e-13,1.278563819e-13,3.664165493e-13,6.698651049e-13,2.340446612e-13,1.246675119e-13,1.661086558e-13
0.6796875,3.597508853e-13,2.247663544e-13,5.648228058e-13,1.389882379e-13,1.997937259e-13,1.704014471e-13,2.540284186e-13,2.194649659e-13,4.418615964e-13,2.45511163e-13,2.305252303e-13,3.772834975e-13,4.206554304e-13,5.827515474e-13,2.754292381e-13,2.881355022e-13,3.766834715e-13,5.259527954e-13,2.464428124e-13,4.71644079e-13,2.518099195e-13,8.104675622e-14,1.24631737e-13,6.384625538e-13,1.946103064e-13,1.637921797e-13,1.31520772e-13,3.69824854e-13,6.740504643e-13,2.333583958e-13,1.260835438e-13,1.653574783e-13
0.6875,3.611096469e-13,2.268515183e-13,5.669666634e-13,1.401387674e-13,2.001305328e-13,1.713831962e-13,2.543550717e-13,2.192810355e-13,4.420285387e-13,2.464046225e-13,2.335116592e-13,3.792932113e-13,4.195822916e-13,5.789748105e-13,2.699660176e-13,2.811378721e-13,3.705197673e-13,5.21965743e-13,2.482503597e-13,4.738708405e-13,2.539167811e-13,8.126176561e-14,1.219371941e-13,6.387793157e-13,1.938816654e-13,1.612402853e-13,1.351730559e-13,3.734647657e-13,6.777107061e-13,2.326067547e-13,1.274803986e-13,1.644881894e-13
0.6953125,3.623081773e-13,2.289137621e-13,5.692920989e-13,1.412523982e-13,2.00353833e-13,1.723280445e-13,2.545531663e-13,2.190208629e-13,4.419114256e-13,2.472833991e-13,2.364159441e-13,3.809964286e-13,4.181549417e-13,5.752441171e-13,2.647578173e-13,2.744988525e-13,3.644800753e-13,5.178278159e-13,2.498986944e-13,4.758714388e-13,2.559535977e-13,8.143226846e-14,1.193122254e-13,6.388450463e-13,1.931173035e-13,1.58687194e-13,1.386738686e-13,3.772265648e-13,6.806431862e-13,2.317221283e-13,1.287675896e-13,1.635714436e-13
0.703125,3.634291205e-13,2.310016626e-13,5.716814687e-13,1.424127979e-13,2.006524106e-13,1.733958373e-13,2.545450017e-13,2.187201983e-13,4.415404306e-13,2.481465513e-13,2.393221542e-13,3.824145014e-13,4.164781635e-13,5.716068408e-13,2.597910133e-13,2.682401896e-13,3.588960426e-13,5.137314363e-13,2.514786694e-13,4.780804084e-13,2.579937763e-13,8.158319963e-14,1.167710507e-13,6.386629793e-13,1.923844929e-13,1.562455166e-13,1.422475451e-13,3.810736704e-13,6.83183746e-13,2.307718225e-13,1.301435496e-13,1.627120694e-13
0.7109375,3.645615423e-13,2.331071497e-13,5.740984978e-13,1.436164041e-13,2.010706724e-13,1.744341239e-13,2.545983711e-13,2.183789523e-13,4.410615394e-13,2.489817378e-13,2.422855624e-13,3.836738613e-13,4.147125162e-13,5.68119915e-13,2.549759554e-13,2.623160027e-13,3.538644655e-13,5.099734059e-13,2.530269876e-13,4.805827741e-13,2.600103689e-13,8.16834812e-14,1.143794228e-13,6.383979279e-13,1.916114502e-13,1.53938272e-13,1.459886248e-13,3.850870676e-13,6.853816927e-13,2.29830887e-13,1.316788233e-13,1.618709653e-13
0.71875,3.656587976e-13,2.351503678e-13,5.766238743e-13,1.447859978e-13,2.015112613e-13,1.752234964e-13,2.548832949e-13,2.180292824e-13,4.405585231e-13,2.49740084e-13,2.451944749e-13,3.847183637e-13,4.128409818e-13,5.646797322e-13,2.502066015e-13,2.565760285e-13,3.490721099e-13,5.063256505e-13,2.544837429e-13,4.83204859e-13,2.61965295e-13,8.172901409e-14,1.121489242e-13,6.382648498e-13,1.907881793e-13,1.517358926e-13,1.496707987e-13,3.893248219e-13,6.869213824e-13,2.28880018e-13,1.332426505e-13,1.61049704e-13
0.7265625,3.666497694e-13,2.371530634e-13,5.793452005e-13,1.458906274e-13,2.019369462e-13,1.759342635e-13,2.552217341e-13,2.177181844e-13,4.399387602e-13,2.504886451e-13,2.479728077e-13,3.854741234e-13,4.107694402e-13,5.612944714e-13,2.455972205e-13,2.510046298e-13,3.444309703e-13,5.024957233e-13,2.558108126e-13,4.859037223e-13,2.638798741e-13,8.175055408e-14,1.100272522e-13,6.38250819e-13,1.900588504e-13,1.496534946e-13,1.532127848e-13,3.937722308e-13,6.878011567e-13,2.278961863e-13,1.347992333e-13,1.603123449e-13
0.734375,3.67547254e-13,2.391429731e-13,5.821692471e-13,1.469699239e-13,2.02394127e-13,1.766958458e-13,2.554804604e-13,2.173823445e-13,4.390258123e-13,2.5120872e-13,2.506917756e-13,3.859320924e-13,4.084664172e-13,5.580807423e-13,2.413152243e-13,2.457446871e-13,3.40159716e-13,4.987283656e-13,2.570330466e-13,4.887282068e-13,2.657884713e-13,8.167952509e-14,1.080039746e-13,6.381911697e-13,1.894444955e-13,1.476942695e-13,1.567654697e-13,3.982919063e-13,6.883040259e-13,2.26875018e-13,1.364334314e-13,1.59562057e-13
0.7421875,3.683026002e-13,2.410455938e-13,5.84881144e-13,1.480598638e-13,2.029103513e-13,1.773061014e-13,2.557479528e-13,2.168737938e-13,4.377499453e-13,2.517696377e-13,2.534038066e-13,3.860238942e-13,4.059575674e-13,5.54938009e-13,2.372106604e-13,2.407379463e-13,3.36264803e-13,4.951832148e-13,2.581636844e-13,4.916775343e-13,2.676862733e-13,8.147171239e-14,1.061091842e-13,6.379934542e-13,1.887928143e-13,1.458227662e-13,1.603460848e-13,4.026288754e-13,6.885136647e-13,2.257650216e-13,1.381929846e-13,1.58695682e-13
0.75,3.687570931e-13,2.428076201e-13,5.873762023e-13,1.491746567e-13,2.034991817e-13,1.776677315e-13,2.559921924e-13,2.161780981e-13,4.361344711e-13,2.522238089e-13,2.560846518e-13,3.856576322e-13,4.031601363e-13,5.516274926e-13,2.330617117e-13,2.358219286e-13,3.326592123e-13,4.916056756e-13,2.59140107e-13,4.947727892e-13,2.695510539e-13,8.117762738e-14,1.043518546e-13,6.376007427e-13,1.879989054e-13,1.440384977e-13,1.638313205e-13,4.068285489e-13,6.882305519e-13,2.244872201e-13,1.400856984e-13,1.578204611e-13
0.7578125,3.689550511e-13,2.44460157e-13,5.897452852e-13,1.503698884e-13,2.041846629e-13,1.779299691e-13,2.561222562e-13,2.154537852e-13,4.341963494e-13,2.527309418e-13,2.58728508e-13,3.848547173e-13,3.999781925e-13,5.481917099e-13,2.289663949e-13,2.311223246e-13,3.294244225e-13,4.880004836e-13,2.599493176e-13,4.980380894e-13,2.713932263e-13,8.077679282e-14,1.027313369e-13,6.36952096e-13,1.8711545e-13,1.42359411e-13,1.672473266e-13,4.112684104e-13,6.873709989e-13,2.230700236e-13,1.421196993e-13,1.570091666e-13
0.765625,3.691326569e-13,2.460689322e-13,5.921640074e-13,1.516862977e-13,2.04950834e-13,1.782014928e-13,2.562517854e-13,2.147921269e-13,4.320069972e-13,2.533471965e-13,2.613461717e-13,3.838209293e-13,3.965992512e-13,5.449457537e-13,2.251171214e-13,2.268508114e-13,3.265812063e-13,4.846279988e-13,2.607034237e-13,5.014020989e-13,2.732138672e-13,8.025669599e-14,1.012352369e-13,6.361517573e-13,1.862593771e-13,1.407626354e-13,1.707704092e-13,4.160179752e-13,6.861998711e-13,2.216488777e-13,1.442773676e-13,1.561642566e-13
0.7734375,3.693206095e-13,2.477282374e-13,5.947586705e-13,1.530480713e-13,2.057638487e-13,1.784892729e-13,2.564846294e-13,2.141211839e-13,4.296634821e-13,2.540569093e-13,2.639455872e-13,3.82794393e-13,3.932793136e-13,5.420213936e-13,2.215301389e-13,2.22974425e-13,3.240918891e-13,4.814767599e-13,2.61462176e-13,5.04811041e-13,2.749985172e-13,7.973999103e-14,9.983396116e-14,6.35404575e-13,1.854715235e-13,1.392361788e-13,1.744524788e-13,4.208816574e-13,6.849142948e-13,2.202715467e-13,1.465355985e-13,1.552697892e-13
0.78125,3.694144031e-13,2.494894083e-13,5.975703948e-13,1.543681021e-13,2.066397754e-13,1.788027198e-13,2.568003388e-13,2.133924446e-13,4.27196611e-13,2.547979729e-13,2.665422665e-13,3.817811992e-13,3.899982013e-13,5.392484336e-13,2.181761761e-13,2.194111119e-13,3.220268501e-13,4.784501284e-13,2.621744999e-13,5.083347253e-13,2.767949198e-13,7.93066183e-14,9.85308865e-14,6.347544368e-13,1.847401371e-13,1.378266331e-13,1.781622719e-13,4.258681604e-13,6.833837023e-13,2.188885007e-13,1.489013985e-13,1.544397893e-13
0.7890625,3.694286242e-13,2.512674805e-13,6.00530622e-13,1.556835892e-13,2.076109252e-13,1.791400615e-13,2.571424068e-13,2.12631063e-13,4.246251428e-13,2.554851994e-13,2.691301419e-13,3.806236887e-13,3.866283306e-13,5.36499858e-13,2.150578987e-13,2.161933296e-13,3.203993421e-13,4.755700383e-13,2.628072641e-13,5.120281335e-13,2.786357715e-13,7.889348492e-14,9.734326085e-14,6.341534091e-13,1.840586051e-13,1.365752021e-13,1.81812628e-13,4.309620034e-13,6.814876949e-13,2.174767178e-13,1.513708317e-13,1.536989165e-13
0.796875,3.693984632e-13,2.529933289e-13,6.03501853e-13,1.57079554e-13,2.086781459e-13,1.794683716e-13,2.573864703e-13,2.117947474e-13,4.219125248e-13,2.560832123e-13,2.717160068e-13,3.792496211e-13,3.831243745e-13,5.338494053e-13,2.121655464e-13,2.133427248e-13,3.191559309e-13,4.728384416e-13,2.633709505e-13,5.158555053e-13,2.804706083e-13,7.842437831e-14,9.625617808e-14,6.335624763e-13,1.834051037e-13,1.354649796e-13,1.85442825e-13,4.360163328e-13,6.792504666e-13,2.160164417e-13,1.539461997e-13,1.529503146e-13
0.8046875,3.693630197e-13,2.547480455e-13,6.064797317e-13,1.585602107e-13,2.098222504e-13,1.79788811e-13,2.57551742e-13,2.108598293e-13,4.189524611e-13,2.566173757e-13,2.74332368e-13,3.776759588e-13,3.79482568e-13,5.313871018e-13,2.095087602e-13,2.108500339e-13,3.183399958e-13,4.703143243e-13,2.638809806e-13,5.198046505e-13,2.823002495e-13,7.789660658e-14,9.526569796e-14,6.328999983e-13,1.828031673e-13,1.344442828e-13,1.890944494e-13,4.410733371e-13,6.767089084e-13,2.145349837e-13,1.56669322e-13,1.521315026e-13
0.8125,3.693594612e-13,2.565504945e-13,6.095906956e-13,1.600597145e-13,2.11023305e-13,1.801295106e-13,2.578032345e-13,2.099694525e-13,4.157715078e-13,2.571418428e-13,2.769466727e-13,3.759302439e-13,3.757090927e-13,5.290523206e-13,2.070698888e-13,2.086907978e-13,3.179520564e-13,4.679851633e-13,2.643117091e-13,5.239067435e-13,2.841456806e-13,7.734823763e-14,9.436975298e-14,6.322212969e-13,1.822937506e-13,1.334555946e-13,1.927625127e-13,4.462742526e-13,6.738946007e-13,2.131110561e-13,1.594836373e-13,1.512757771e-13
0.8203125,3.692981703e-13,2.582907765e-13,6.128692051e-13,1.615606006e-13,2.122899612e-13,1.804850483e-13,2.58044785e-13,2.092175873e-13,4.124719837e-13,2.576842044e-13,2.795186399e-13,3.740140144e-13,3.718094276e-13,5.266687891e-13,2.047716646e-13,2.068026679e-13,3.178765071e-13,4.65590469e-13,2.646083222e-13,5.281609697e-13,2.8593836e-13,7.67891688e-14,9.354785872e-14,6.316418994e-13,1.818498982e-13,1.324657266e-13,1.964324507e-13,4.516647529e-13,6.707805494e-13,2.11677516e-13,1.62243663e-13,1.504356041e-13
0.828125,3.691830702e-13,2.599673e-13,6.163302007e-13,1.631277076e-13,2.136335571e-13,1.80854283e-13,2.581849318e-13,2.084936968e-13,4.090661315e-13,2.582618865e-13,2.820834256e-13,3.718817105e-13,3.678452394e-13,5.24159995e-13,2.026061604e-13,2.051782286e-13,3.180812428e-13,4.630581036e-13,2.648045078e-13,5.325319058e-13,2.876833968e-13,7.620875064e-14,9.284164637e-14,6.310090705e-13,1.815090667e-13,1.315098031e-13,2.001105821e-13,4.572126182e-13,6.673358236e-13,2.101485777e-13,1.64980426e-13,1.496353998e-13
0.8359375,3.691762169e-13,2.615976501e-13,6.200550106e-13,1.647712736e-13,2.150197313e-13,1.812136369e-13,2.584934924e-13,2.077413987e-13,4.056331819e-13,2.58902657e-13,2.846105715e-13,3.695555024e-13,3.638383335e-13,5.216507581e-13,2.006395848e-13,2.038607064e-13,3.18651318e-13,4.606252165e-13,2.649411935e-13,5.369771517e-13,2.894440969e-13,7.56167256e-14,9.228648697e-14,6.303086485e-13,1.812925773e-13,1.30672274e-13,2.037896708e-13,4.628337919e-13,6.636073502e-13,2.086524815e-13,1.678333643e-13,1.489130869e-13
0.84375,3.692053513e-13,2.630636662e-13,6.239779755e-13,1.664229284e-13,2.16468159e-13,1.814711433e-13,2.590471934e-13,2.070497124e-13,4.022536447e-13,2.595221314e-13,2.870260188e-13,3.671341184e-13,3.596122148e-13,5.192543285e-13,1.988971067e-13,2.028434692e-13,3.196844275e-13,4.583406017e-13,2.6493423e-13,5.41528641e-13,2.91127308e-13,7.50045073e-14,9.17960926e-14,6.299459377e-13,1.810138133e-13,1.299918576e-13,2.073960259e-13,4.685637163e-13,6.59568039e-13,2.072425855e-13,1.70776894e-13,1.483096822e-13
0.8515625,3.691107383e-13,2.64393731e-13,6.279926026e-13,1.681066024e-13,2.180938095e-13,1.816509374e-13,2.595976233e-13,2.064368642e-13,3.987922147e-13,2.600330139e-13,2.894106306e-13,3.646093623e-13,3.551633901e-13,5.169362879e-13,1.97378584e-13,2.021434505e-13,3.21234434e-13,4.561213736e-13,2.647819782e-13,5.463222209e-13,2.927005487e-13,7.436577022e-14,9.134596903e-14,6.299656047e-13,1.806628265e-13,1.294211791e-13,2.109018437e-13,4.745374523e-13,6.551940717e-13,2.057762029e-13,1.737534618e-13,1.478072387e-13
0.859375,3.690323386e-13,2.657674719e-13,6.3219683e-13,1.699018108e-13,2.199229942e-13,1.819016053e-13,2.601183682e-13,2.058496567e-13,3.951826828e-13,2.605821092e-13,2.918305991e-13,3.618970571e-13,3.508049264e-13,5.14627264e-13,1.960576411e-13,2.018011767e-13,3.232349601e-13,4.540439263e-13,2.646114332e-13,5.513811686e-13,2.943540839e-13,7.374835116e-14,9.104978572e-14,6.298899541e-13,1.805367755e-13,1.289054696e-13,2.143941264e-13,4.807391139e-13,6.506311435e-13,2.042554121e-13,1.768088262e-13,1.473666719e-13
0.8671875,3.690529852e-13,2.671614909e-13,6.366240156e-13,1.717757248e-13,2.218835869e-13,1.822289522e-13,2.606905485e-13,2.052541577e-13,3.915367846e-13,2.61253754e-13,2.941623721e-13,3.589561221e-13,3.4649188e-13,5.122638544e-13,1.948750059e-13,2.017457299e-13,3.255668475e-13,4.521277869e-13,2.644139697e-13,5.565715793e-13,2.96146551e-13,7.314617094e-14,9.089179248e-14,6.295796797e-13,1.806377328e-13,1.284503255e-13,2.178939054e-13,4.871233142e-13,6.459438792e-13,2.027703921e-13,1.799339015e-13,1.469828726e-13
0.875,3.689832911e-13,2.684940922e-13,6.41170217e-13,1.737040236e-13,2.239869643e-13,1.82591863e-13,2.612925738e-13,2.045980301e-13,3.87785855e-13,2.618551105e-13,2.963977566e-13,3.557607882e-13,3.418537175e-13,5.098294725e-13,1.938800174e-13,2.019233041e-13,3.282165763e-13,4.503383735e-13,2.641373592e-13,5.618831668e-13,2.979652034e-13,7.247368741e-14,9.072789198e-14,6.292748393e-13,1.807023372e-13,1.280719772e-13,2.213323356e-13,4.937154557e-13,6.410650127e-13,2.012738815e-13,1.831105454e-13,1.466373347e-13
0.8828125,3.687883187e-13,2.69817996e-13,6.45916215e-13,1.757677498e-13,2.262745789e-13,1.830605599e-13,2.62023286e-13,2.038965066e-13,3.838127702e-13,2.623663708e-13,2.987323595e-13,3.523872348e-13,3.369855239e-13,5.074315105e-13,1.931503165e-13,2.024027045e-13,3.311880983e-13,4.487666945e-13,2.638563682e-13,5.673421958e-13,2.998045318e-13,7.172461119e-14,9.056013685e-14,6.290360334e-13,1.807453282e-13,1.277524769e-13,2.247078636e-13,5.00393898e-13,6.360353786e-13,1.997574901e-13,1.863960884e-13,1.462959705e-13
0.890625,3.685969098e-13,2.71058491e-13,6.508673742e-13,1.779779985e-13,2.287501265e-13,1.83578421e-13,2.629115234e-13,2.032472051e-13,3.797349858e-13,2.6298326e-13,3.011920653e-13,3.489970032e-13,3.322084568e-13,5.050961818e-13,1.925365229e-13,2.031405851e-13,3.344173703e-13,4.473715237e-13,2.635676364e-13,5.728212971e-13,3.016509529e-13,7.095568678e-14,9.049551445e-14,6.288426985e-13,1.808653311e-13,1.275006263e-13,2.280535034e-13,5.069931446e-13,6.308987476e-13,1.982714237e-13,1.897830687e-13,1.459823785e-13
0.8984375,3.684033933e-13,2.721084589e-13,6.557268144e-13,1.802956799e-13,2.314901448e-13,1.84019643e-13,2.63823606e-13,2.026242904e-13,3.756083761e-13,2.63647358e-13,3.036272092e-13,3.455644158e-13,3.27454507e-13,5.0264136e-13,1.918734313e-13,2.0399755e-13,3.379575996e-13,4.459764061e-13,2.631763199e-13,5.78437852e-13,3.034628908e-13,7.016441803e-14,9.055403004e-14,6.288208726e-13,1.810012378e-13,1.273703368e-13,2.314137322e-13,5.135866801e-13,6.256555235e-13,1.967556952e-13,1.932662165e-13,1.45746443e-13
0.90625,3.682040772e-13,2.731112913e-13,6.605194242e-13,1.827586636e-13,2.345183775e-13,1.844691393e-13,2.648507784e-13,2.019372322e-13,3.713387901e-13,2.642134662e-13,3.060263326e-13,3.419487782e-13,3.225888602e-13,5.000009431e-13,1.913089123e-13,2.050598619e-13,3.42001985e-13,4.446372515e-13,2.627028796e-13,5.845894725e-13,3.053801446e-13,6.934831287e-14,9.069309256e-14,6.290896159e-13,1.81201468e-13,1.273724561e-13,2.348550255e-13,5.203924738e-13,6.203845861e-13,1.951773339e-13,1.969175371e-13,1.455779284e-13
0.9140625,3.680691549e-13,2.741533728e-13,6.656478308e-13,1.853362842e-13,2.376567917e-13,1.850056576e-13,2.660975429e-13,2.012418118e-13,3.669647498e-13,2.647646569e-13,3.084619665e-13,3.381850083e-13,3.176664001e-13,4.973336793e-13,1.910511882e-13,2.065228387e-13,3.466282926e-13,4.434999736e-13,2.622063368e-13,5.912585364e-13,3.074545843e-13,6.854483608e-14,9.088764536e-14,6.295780462e-13,1.815731548e-13,1.274655621e-13,2.383195057e-13,5.274356696e-13,6.150389054e-13,1.935973407e-13,2.006622356e-13,1.454344178e-13
0.921875,3.679792917e-13,2.751240538e-13,6.711070955e-13,1.879639708e-13,2.408219107e-13,1.855794893e-13,2.67347717e-13,2.006356948e-13,3.62570451e-13,2.653201169e-13,3.109392309e-13,3.343987892e-13,3.12704331e-13,4.947228511e-13,1.910684042e-13,2.083379406e-13,3.517286163e-13,4.425415767e-13,2.616996003e-13,5.980270746e-13,3.094761653e-13,6.774900469e-14,9.113867543e-14,6.300299417e-13,1.820724075e-13,1.276412631e-13,2.417197362e-13,5.344886192e-13,6.095247798e-13,1.920218764e-13,2.043757077e-13,1.453099438e-13
0.9296875,3.679392261e-13,2.760723644e-13,6.76646625e-13,1.907621115e-13,2.441765133e-13,1.862645877e-13,2.685390925e-13,2.00143706e-13,3.581752501e-13,2.658001997e-13,3.134643669e-13,3.306606448e-13,3.077531481e-13,4.921493828e-13,1.912482273e-13,2.103260564e-13,3.571239893e-13,4.417350413e-13,2.612110153e-13,6.047075767e-13,3.113957892e-13,6.693659774e-14,9.144956212e-14,6.303227622e-13,1.826476177e-13,1.279151964e-13,2.451314959e-13,5.415188555e-13,6.041034445e-13,1.904572151e-13,2.08177674e-13,1.452301995e-13
0.9375,3.68002914e-13,2.770798873e-13,6.824038078e-13,1.937952929e-13,2.47786371e-13,1.871191914e-13,2.698989608e-13,1.997513376e-13,3.538285641e-13,2.663204551e-13,3.160008641e-13,3.269619405e-13,3.028862029e-13,4.89600202e-13,1.915517997e-13,2.124697075e-13,3.626609365e-13,4.410317511e-13,2.607167773e-13,6.113528694e-13,3.13368946e-13,6.61208318e-14,9.180289708e-14,6.306878633e-13,1.833015472e-13,1.28266371e-13,2.485586373e-13,5.487626779e-13,5.990116497e-13,1.889322046e-13,2.121539836e-13,1.452230753e-13
0.9453125,3.680241471e-13,2.779526921e-13,6.88469662e-13,1.968659172e-13,2.515400677e-13,1.879867576e-13,2.714239254e-13,1.993400462e-13,3.494394746e-13,2.669579292e-13,3.184465003e-13,3.231190546e-13,2.979096305e-13,4.869256883e-13,1.919722082e-13,2.148709253e-13,3.68391569e-13,4.402813695e-13,2.601498278e-13,6.180874104e-13,3.154103383e-13,6.528398795e-14,9.219157972e-14,6.313241817e-13,1.840194414e-13,1.286817006e-13,2.51872327e-13,5.561394644e-13,5.939718442e-13,1.873471987e-13,2.161181541e-13,1.4529866e-13
0.953125,3.67847188e-13,2.785655994e-13,6.945530231e-13,1.998860081e-13,2.554591796e-13,1.888005941e-13,2.729517053e-13,1.987969997e-13,3.44797293e-13,2.675642849e-13,3.208447578e-13,3.189740415e-13,2.926040234e-13,4.839386273e-13,1.92523832e-13,2.175646337e-13,3.745729806e-13,4.39536217e-13,2.595311171e-13,6.251402184e-13,3.174964115e-13,6.438067333e-14,9.26331008e-14,6.321248357e-13,1.848044397e-13,1.291980737e-13,2.551382956e-13,5.633972102e-13,5.88769288e-13,1.856142928e-13,2.200203927e-13,1.454342035e-13
0.9609375,3.676523253e-13,2.790913412e-13,7.005854824e-13,2.030150762e-13,2.59697633e-13,1.896946318e-13,2.745392769e-13,1.982743388e-13,3.399922161e-13,2.681316311e-13,3.233442137e-13,3.147128393e-13,2.871657011e-13,4.807407837e-13,1.93215801e-13,2.204785493e-13,3.812905042e-13,4.39020942e-13,2.588976841e-13,6.325812005e-13,3.196776524e-13,6.345877827e-14,9.312824449e-14,6.330457566e-13,1.856641023e-13,1.298347619e-13,2.58489792e-13,5.706510392e-13,5.837048909e-13,1.838648608e-13,2.240910759e-13,1.456086038e-13
0.96875,3.676209362e-13,2.796126091e-13,7.067373038e-13,2.064184614e-13,2.64268224e-13,1.907496432e-13,2.763115945e-13,1.97933747e-13,3.352992816e-13,2.688630798e-13,3.259021501e-13,3.105689491e-13,2.818345444e-13,4.775619987e-13,1.940635198e-13,2.235770551e-13,3.883653967e-13,4.385777244e-13,2.58178414e-13,6.402548036e-13,3.218652419e-13,6.261762526e-14,9.367733697e-14,6.342378454e-13,1.866036367e-13,1.304613329e-13,2.61904936e-13,5.780324647e-13,5.788618135e-13,1.822140219e-13,2.281241918e-13,1.45829763e-13
0.9765625,3.677274908e-13,2.801150734e-13,7.131287412e-13,2.099443151e-13,2.689936345e-13,1.919062996e-13,2.782745867e-13,1.978628924e-13,3.308454115e-13,2.696415708e-13,3.284251863e-13,3.065710245e-13,2.767199001e-13,4.744294487e-13,1.95039571e-13,2.268317902e-13,3.957292349e-13,4.382051089e-13,2.574922089e-13,6.481059772e-13,3.239977911e-13,6.187937329e-14,9.427016264e-14,6.357260571e-13,1.8765408e-13,1.311631784e-13,2.652598584e-13,5.854818369e-13,5.743356644e-13,1.806753104e-13,2.322388189e-13,1.461680108e-13
0.984375,3.679308316e-13,2.80635311e-13,7.197140292e-13,2.136135802e-13,2.738676147e-13,1.932002845e-13,2.803335049e-13,1.979832934e-13,3.265097973e-13,2.704654604e-13,3.309630472e-13,3.026731018e-13,2.716088978e-13,4.713179612e-13,1.962274215e-13,2.303849335e-13,4.035675068e-13,4.380614152e-13,2.569489341e-13,6.561470606e-13,3.261756295e-13,6.116011656e-14,9.490389721e-14,6.372577513e-13,1.888309916e-13,1.320499162e-13,2.686780337e-13,5.932547666e-13,5.701861087e-13,1.791961334e-13,2.365334494e-13,1.466303144e-13
0.9921875,3.683066648e-13,2.812489323e-13,7.266782874e-13,2.175801568e-13,2.7910583e-13,1.947781791e-13,2.824996502e-13,1.980921183e-13,3.221592418e-13,2.714151296e-13,3.336840285e-13,2.989194314e-13,2.664956294e-13,4.684067422e-13,1.977222127e-13,2.343142854e-13,4.119869573e-13,4.384271512e-13,2.566338817e-13,6.643719475e-13,3.284839413e-13,6.043080511e-14,9.559059688e-14,6.387896124e-13,1.901343838e-13,1.331571e-13,2.722087303e-13,6.013298224e-13,5.665673501e-13,1.777526813e-13,2.412249702e-13,1.4717649e-13
1,3.688199194e-13,2.819231425e-13,7.341446769e-13,2.219375909e-13,2.847782325e-13,1.966122177e-13,2.848720488e-13,1.980517952e-13,3.177360107e-13,2.724190779e-13,3.366258658e-13,2.953380725e-13,2.615572689e-13,4.657823049e-13,1.995026485e-13,2.385669799e-13,4.209939139e-13,4.392658145e-13,2.565232525e-13,6.729444793e-13,3.309524632e-13,5.972844381e-14,9.633560171e-14,6.406268608e-13,1.91563458e-13,1.344334453e-13,2.757860476e-13,6.09349639e-13,5.634439288e-13,1.763192855e-13,2.462780616e-13,1.477782848e-13
1.0078125,3.694337365e-13,2.826005486e-13,7.418992106e-13,2.266017402e-13,2.907907438e-13,1.985074986e-13,2.874863781e-13,1.979300117e-13,3.132945029e-13,2.733847103e-13,3.396728991e-13,2.919171859e-13,2.568617324e-13,4.632544299e-13,2.014483815e-13,2.430706027e-13,4.305249912e-13,4.404633009e-13,2.564998732e-13,6.819998627e-13,3.335919165e-13,5.905382708e-14,9.709749769e-14,6.428722259e-13,1.930751089e-13,1.358427694e-13,2.7942482e-13,6.174672123e-13,5.607887855e-13,1.748828981e-13,2.515156837e-13,1.484042252e-13
1.015625,3.701706983e-13,2.832401273e-13,7.49694067e-13,2.313990853e-13,2.970618429e-13,2.004332979e-13,2.902422043e-13,1.977998698e-13,3.089042942e-13,2.744082973e-13,3.427424528e-13,2.886113712e-13,2.522859136e-13,4.606077338e-13,2.034671752e-13,2.477367426e-13,4.403161895e-13,4.41934886e-13,2.564941446e-13,6.914218956e-13,3.363057109e-13,5.837978288e-14,9.786557893e-14,6.452299867e-13,1.94657614e-13,1.373335428e-13,2.831518931e-13,6.258527972e-13,5.586051426e-13,1.73426799e-13,2.568135394e-13,1.490399845e-13
1.0234375,3.709240652e-13,2.838193864e-13,7.575255268e-13,2.362746008e-13,3.035585933e-13,2.025518706e-13,2.930921145e-13,1.976880737e-13,3.045697991e-13,2.755010885e-13,3.458437576e-13,2.853502938e-13,2.477213886e-13,4.578952696e-13,2.055873738e-13,2.525072942e-13,4.502538519e-13,4.435108678e-13,2.565507889e-13,7.011181447e-13,3.390361435e-13,5.77038257e-14,9.868174419e-14,6.476500474e-13,1.963167365e-13,1.388963874e-13,2.86958034e-13,6.341738825e-13,5.568076536e-13,1.719167291e-13,2.621338772e-13,1.498030756e-13
1.03125,3.716071481e-13,2.843763514e-13,7.654546508e-13,2.41309193e-13,3.103725554e-13,2.048676996e-13,2.962027127e-13,1.977019089e-13,3.002879099e-13,2.765438094e-13,3.490166207e-13,2.82117973e-13,2.431718246e-13,4.552574358e-13,2.078951501e-13,2.574453616e-13,4.605910525e-13,4.452203678e-13,2.567427307e-13,7.111080178e-13,3.418496882e-13,5.704597625e-14,9.95614374e-14,6.503086252e-13,1.98017741e-13,1.406461838e-13,2.908967756e-13,6.423716053e-13,5.554337837e-13,1.703655146e-13,2.675880637e-13,1.508392136e-13
1.0390625,3.72297134e-13,2.849027712e-13,7.733926528e-13,2.465552917e-13,3.176131244e-13,2.072463964e-13,2.996463449e-13,1.978834729e-13,2.959980091e-13,2.776138967e-13,3.523105101e-13,2.78924591e-13,2.386047854e-13,4.525777912e-13,2.104169373e-13,2.626317488e-13,4.715052157e-13,4.472897083e-13,2.570595438e-13,7.213793913e-13,3.447030449e-13,5.640392248e-14,1.004962076e-13,6.530007951e-13,1.997782639e-13,1.426213575e-13,2.949454918e-13,6.506789249e-13,5.546042384e-13,1.688085709e-13,2.732887919e-13,1.520361158e-13
1.046875,3.730505718e-13,2.853885865e-13,7.813061549e-13,2.520241374e-13,3.251779067e-13,2.097621156e-13,3.032269435e-13,1.98135444e-13,2.91620842e-13,2.788563143e-13,3.557433969e-13,2.757946375e-13,2.340344106e-13,4.497659714e-13,2.131452732e-13,2.680507394e-13,4.829401586e-13,4.497543888e-13,2.574529564e-13,7.319838995e-13,3.475205543e-13,5.575932482e-14,1.014619675e-13,6.555933728e-13,2.016201869e-13,1.447185984e-13,2.990606309e-13,6.590796242e-13,5.543249221e-13,1.672558989e-13,2.791945079e-13,1.531653822e-13
1.0546875,3.739028343e-13,2.859340356e-13,7.894108912e-13,2.577164543e-13,3.329881234e-13,2.12530952e-13,3.068885572e-13,1.984550937e-13,2.872565519e-13,2.802349775e-13,3.592868109e-13,2.728503037e-13,2.296436491e-13,4.47014776e-13,2.160881849e-13,2.736669507e-13,4.948336556e-13,4.525135631e-13,2.579890231e-13,7.430222419e-13,3.504237891e-13,5.514930884e-14,1.024133049e-13,6.584821934e-13,2.03497374e-13,1.469717332e-13,3.033960984e-13,6.675244908e-13,5.545995537e-13,1.657318469e-13,2.852913517e-13,1.542978865e-13
1.0625,3.749110601e-13,2.865482516e-13,7.978371459e-13,2.63649904e-13,3.412725556e-13,2.154500236e-13,3.107840094e-13,1.989373468e-13,2.830471097e-13,2.816880152e-13,3.629652577e-13,2.701947336e-13,2.254708927e-13,4.443910683e-13,2.192416727e-13,2.795160811e-13,5.071816675e-13,4.55572435e-13,2.587907485e-13,7.544940024e-13,3.535391574e-13,5.461741413e-14,1.033668319e-13,6.618876866e-13,2.054513647e-13,1.49531372e-13,3.080055324e-13,6.760814911e-13,5.554753718e-13,1.642215428e-13,2.916939378e-13,1.556603461e-13
1.0703125,3.760276413e-13,2.871856607e-13,8.064304866e-13,2.699380519e-13,3.502017266e-13,2.185135902e-13,3.149273561e-13,1.99536697e-13,2.78945591e-13,2.832024168e-13,3.668238352e-13,2.677736959e-13,2.213501377e-13,4.418110489e-13,2.22638686e-13,2.856559304e-13,5.200739628e-13,4.590167162e-13,2.598588835e-13,7.663866147e-13,3.568337958e-13,5.413242109e-14,1.043787403e-13,6.65609154e-13,2.075552633e-13,1.523430993e-13,3.127359962e-13,6.848232835e-13,5.570316175e-13,1.62679849e-13,2.98479645e-13,1.572158603e-13
1.078125,3.771900128e-13,2.879233346e-13,8.150950249e-13,2.765761061e-13,3.595346657e-13,2.218769484e-13,3.193134907e-13,2.001603457e-13,2.748952445e-13,2.847764642e-13,3.708022297e-13,2.6552541e-13,2.172965216e-13,4.39356398e-13,2.26333946e-13,2.920603649e-13,5.335797932e-13,4.628833246e-13,2.611212369e-13,7.787529292e-13,3.602222723e-13,5.367918941e-14,1.054071326e-13,6.695363052e-13,2.097374761e-13,1.552023857e-13,3.17605536e-13,6.937373385e-13,5.593477392e-13,1.611893789e-13,3.055233361e-13,1.587986044e-13
1.0859375,3.784321594e-13,2.886906363e-13,8.238817358e-13,2.833169024e-13,3.69025675e-13,2.254895868e-13,3.240022301e-13,2.009059342e-13,2.70957923e-13,2.864970906e-13,3.748697276e-13,2.634999979e-13,2.134375047e-13,4.370245577e-13,2.302440388e-13,2.986381473e-13,5.475595953e-13,4.670923613e-13,2.625525528e-13,7.916090184e-13,3.636638752e-13,5.327687815e-14,1.063825831e-13,6.736219259e-13,2.119220961e-13,1.580988495e-13,3.226748357e-13,7.026807719e-13,5.623162142e-13,1.598213195e-13,3.126221687e-13,1.604475013e-13
1.09375,3.797634055e-13,2.893497389e-13,8.327343927e-13,2.901172738e-13,3.788690068e-13,2.292041715e-13,3.288692284e-13,2.018436872e-13,2.67107674e-13,2.884226983e-13,3.791104133e-13,2.617394599e-13,2.097301095e-13,4.346811396e-13,2.342385164e-13,3.053478615e-13,5.618853584e-13,4.716275317e-13,2.641703557e-13,8.048905043e-13,3.672345895e-13,5.28861917e-14,1.073684955e-13,6.777039185e-13,2.141207894e-13,1.612543384e-13,3.278946582e-13,7.116420288e-13,5.658413955e-13,1.584344217e-13,3.199492927e-13,1.622882101e-13
1.1015625,3.811549099e-13,2.900764628e-13,8.415442315e-13,2.972208885e-13,3.893440535e-13,2.330778889e-13,3.338824371e-13,2.027977695e-13,2.632009357e-13,2.904206466e-13,3.835283067e-13,2.602010704e-13,2.061008274e-13,4.324075489e-13,2.383960539e-13,3.12227154e-13,5.766495121e-13,4.766484539e-13,2.660379336e-13,8.185577879e-13,3.710008107e-13,5.248866714e-14,1.084517733e-13,6.81737806e-13,2.16374326e-13,1.64800061e-13,3.333900491e-13,7.206033216e-13,5.700811463e-13,1.569465969e-13,3.279181147e-13,1.642999269e-13
1.109375,3.826037294e-13,2.909832374e-13,8.503491938e-13,3.046872341e-13,4.00368225e-13,2.372530668e-13,3.392916255e-13,2.03704984e-13,2.591900825e-13,2.923572979e-13,3.881158178e-13,2.588548163e-13,2.025505459e-13,4.303302361e-13,2.42872119e-13,3.193236846e-13,5.919679461e-13,4.821566802e-13,2.682093017e-13,8.327067596e-13,3.74877092e-13,5.211695558e-14,1.09554579e-13,6.85963178e-13,2.187453682e-13,1.686088233e-13,3.392168591e-13,7.293570361e-13,5.750999097e-13,1.554882376e-13,3.364173151e-13,1.664068505e-13
1.1171875,3.841048586e-13,2.918775563e-13,8.592880864e-13,3.124039275e-13,4.117528426e-13,2.417358763e-13,3.450583623e-13,2.047357423e-13,2.551653807e-13,2.943219967e-13,3.929987067e-13,2.577585781e-13,1.991013297e-13,4.284475033e-13,2.476065028e-13,3.265747479e-13,6.077944813e-13,4.879284915e-13,2.706145818e-13,8.474243638e-13,3.788585651e-13,5.173046305e-14,1.105533215e-13,6.906841439e-13,2.211684811e-13,1.725528817e-13,3.451571049e-13,7.381745058e-13,5.808121896e-13,1.540882056e-13,3.450476043e-13,1.686339417e-13
1.125,3.856720662e-13,2.927486598e-13,8.683535253e-13,3.202972957e-13,4.234630467e-13,2.463595958e-13,3.509074472e-13,2.058826342e-13,2.512480295e-13,2.964723703e-13,3.981476745e-13,2.569709713e-13,1.958557992e-13,4.267704671e-13,2.524444986e-13,3.338203731e-13,6.239880207e-13,4.93954981e-13,2.731685258e-13,8.626705708e-13,3.830577857e-13,5.13067852e-14,1.115105458e-13,6.958033439e-13,2.2352063e-13,1.767045016e-13,3.512927649e-13,7.474573337e-13,5.872673747e-13,1.526441509e-13,3.539280037e-13,1.710202882e-13
1.1328125,3.873400462e-13,2.937772172e-13,8.773186651e-13,3.282938182e-13,4.354719856e-13,2.510326354e-13,3.569648546e-13,2.070624399e-13,2.475304202e-13,2.987897357e-13,4.033734645e-13,2.564846196e-13,1.92899874e-13,4.252033573e-13,2.57421749e-13,3.411014914e-13,6.405735158e-13,5.004651186e-13,2.759586101e-13,8.785306931e-13,3.87453322e-13,5.095652937e-14,1.125611887e-13,7.009597615e-13,2.25939405e-13,1.811463476e-13,3.579696063e-13,7.567456164e-13,5.945121363e-13,1.512038805e-13,3.633183653e-13,1.735076029e-13
1.140625,3.8911942e-13,2.949736321e-13,8.861675844e-13,3.364929952e-13,4.478037385e-13,2.559479466e-13,3.634085803e-13,2.084036306e-13,2.43978486e-13,3.012005619e-13,4.087467493e-13,2.563047715e-13,1.901538907e-13,4.236710139e-13,2.627038055e-13,3.486984204e-13,6.577729055e-13,5.075509144e-13,2.791111484e-13,8.951081141e-13,3.919942964e-13,5.072387181e-14,1.136626889e-13,7.061965943e-13,2.285365834e-13,1.858348556e-13,3.650791838e-13,7.657408444e-13,6.025746884e-13,1.498754854e-13,3.730866377e-13,1.760487286e-13
1.1484375,3.910131262e-13,2.962343867e-13,8.951679809e-13,3.450916016e-13,4.605644139e-13,2.61230164e-13,3.700558026e-13,2.099003101e-13,2.404144166e-13,3.037337412e-13,4.14421182e-13,2.564385894e-13,1.875420575e-13,4.223933368e-13,2.683222127e-13,3.566461782e-13,6.755929717e-13,5.151300422e-13,2.825815677e-13,9.121387774e-13,3.966298478e-13,5.048927789e-14,1.147280318e-13,7.116886947e-13,2.311063267e-13,1.907090506e-13,3.722489792e-13,7.749529436e-13,6.115449133e-13,1.485875225e-13,3.831454601e-13,1.786714029e-13
1.15625,3.930609485e-13,2.974973177e-13,9.040062889e-13,3.539867794e-13,4.736842418e-13,2.666617674e-13,3.769248938e-13,2.115197818e-13,2.368279343e-13,3.063365367e-13,4.202608411e-13,2.568869361e-13,1.851872744e-13,4.214536345e-13,2.740882624e-13,3.645824414e-13,6.937961863e-13,5.231857086e-13,2.863217751e-13,9.294665876e-13,4.01186584e-13,5.019939835e-14,1.158578529e-13,7.170780896e-13,2.336004053e-13,1.957432898e-13,3.795056547e-13,7.84436517e-13,6.212728871e-13,1.472717647e-13,3.937932347e-13,1.813273622e-13
1.1640625,3.951191347e-13,2.987713489e-13,9.123897882e-13,3.629281999e-13,4.869562625e-13,2.721395581e-13,3.84261589e-13,2.130659661e-13,2.332469127e-13,3.08979329e-13,4.261995706e-13,2.575959344e-13,1.830585536e-13,4.206290756e-13,2.800104556e-13,3.724717343e-13,7.124004413e-13,5.316317744e-13,2.903690368e-13,9.475462324e-13,4.058211752e-13,4.995552633e-14,1.171117417e-13,7.225135727e-13,2.361195021e-13,2.009999571e-13,3.873106289e-13,7.937759603e-13,6.317861672e-13,1.458870246e-13,4.050109458e-13,1.840366467e-13
1.171875,3.972533069e-13,3.001640102e-13,9.206951339e-13,3.720192172e-13,5.004746793e-13,2.77934416e-13,3.920699606e-13,2.146644228e-13,2.297887968e-13,3.118182146e-13,4.324433365e-13,2.58724195e-13,1.81136179e-13,4.20057934e-13,2.863236311e-13,3.807182426e-13,7.316951336e-13,5.406762434e-13,2.948630512e-13,9.666301696e-13,4.108449066e-13,4.983099375e-14,1.18390248e-13,7.281889655e-13,2.386746343e-13,2.065462799e-13,3.956764067e-13,8.031344085e-13,6.432938594e-13,1.445467158e-13,4.166131807e-13,1.869388025e-13
1.1796875,3.995949832e-13,3.016592244e-13,9.293110786e-13,3.813570295e-13,5.145259831e-13,2.841691032e-13,4.000696162e-13,2.163970538e-13,2.264214806e-13,3.14893769e-13,4.390527362e-13,2.603097377e-13,1.794779168e-13,4.199790307e-13,2.931093534e-13,3.895580964e-13,7.517550783e-13,5.504908649e-13,2.998380628e-13,9.86305945e-13,4.160121965e-13,4.977386455e-14,1.196544619e-13,7.339090446e-13,2.413305468e-13,2.123898926e-13,4.042398395e-13,8.126356805e-13,6.558478039e-13,1.432203011e-13,4.28434262e-13,1.901232015e-13
1.1875,4.021545494e-13,3.031627288e-13,9.37868263e-13,3.90834852e-13,5.292012523e-13,2.906167097e-13,4.08205083e-13,2.183396894e-13,2.231637001e-13,3.179853925e-13,4.458023511e-13,2.621601561e-13,1.781559053e-13,4.200629817e-13,3.000920969e-13,3.986404863e-13,7.723309668e-13,5.608665965e-13,3.051965971e-13,1.006280778e-12,4.209734822e-13,4.973520596e-14,1.210100941e-13,7.394517898e-13,2.443269491e-13,2.185036961e-13,4.129243166e-13,8.221413412e-13,6.692054709e-13,1.418207859e-13,4.406499549e-13,1.935236653e-13
1.1953125,4.047535167e-13,3.046840643e-13,9.461712573e-13,4.004345533e-13,5.444251898e-13,2.970753863e-13,4.165311008e-13,2.204863815e-13,2.200724284e-13,3.211032288e-13,4.525913063e-13,2.641730977e-13,1.770542734e-13,4.198601184e-13,3.070432192e-13,4.074803957e-13,7.930782574e-13,5.713632852e-13,3.1077674e-13,1.026652676e-12,4.259337883e-13,4.973314279e-14,1.224164347e-13,7.451269059e-13,2.474553201e-13,2.248578596e-13,4.219243142e-13,8.317341189e-13,6.832500846e-13,1.404178693e-13,4.535153671e-13,1.970567209e-13
1.203125,4.072281189e-13,3.062899187e-13,9.544149681e-13,4.102346755e-13,5.600601836e-13,3.037482177e-13,4.250221265e-13,2.227224981e-13,2.170844687e-13,3.243952131e-13,4.595777288e-13,2.664665527e-13,1.760345269e-13,4.196668216e-13,3.141780679e-13,4.16268382e-13,8.141242089e-13,5.820503163e-13,3.165297064e-13,1.047637618e-12,4.310892133e-13,4.977313755e-14,1.237255878e-13,7.511757758e-13,2.502344444e-13,2.314486411e-13,4.313330653e-13,8.413022631e-13,6.981253224e-13,1.390997135e-13,4.669814172e-13,2.00677241e-13
1.2109375,4.09653794e-13,3.080513716e-13,9.624693129e-13,4.202570893e-13,5.760149633e-13,3.108619954e-13,4.33914223e-13,2.25026121e-13,2.140983988e-13,3.277721057e-13,4.669169213e-13,2.691489289e-13,1.751785007e-13,4.200212652e-13,3.217967723e-13,4.255113896e-13,8.359913603e-13,5.93518672e-13,3.226915226e-13,1.069516174e-12,4.363498777e-13,4.984213897e-14,1.250025155e-13,7.574187835e-13,2.527777942e-13,2.383795634e-13,4.411849204e-13,8.506617835e-13,7.140579544e-13,1.378268489e-13,4.810008993e-13,2.044016017e-13
1.21875,4.12234478e-13,3.099840071e-13,9.702807603e-13,4.304420042e-13,5.92313756e-13,3.181517462e-13,4.43464618e-13,2.273876111e-13,2.111506995e-13,3.312080174e-13,4.74581674e-13,2.722423788e-13,1.746277476e-13,4.209491993e-13,3.297838009e-13,4.350947586e-13,8.5858546e-13,6.05922664e-13,3.294746392e-13,1.09224214e-12,4.417120766e-13,4.994111617e-14,1.263897247e-13,7.637361435e-13,2.555091635e-13,2.457412051e-13,4.513911127e-13,8.600713865e-13,7.31021106e-13,1.365927849e-13,4.956968957e-13,2.08325168e-13
1.2265625,4.150817309e-13,3.120364023e-13,9.781258009e-13,4.406813697e-13,6.08979955e-13,3.255177664e-13,4.534574951e-13,2.297770718e-13,2.083799319e-13,3.34807146e-13,4.824417074e-13,2.75763849e-13,1.744374485e-13,4.223594828e-13,3.3790854e-13,4.447219644e-13,8.814568563e-13,6.189619797e-13,3.367339481e-13,1.115502642e-12,4.471814822e-13,5.004965139e-14,1.278583509e-13,7.702435406e-13,2.585070135e-13,2.534356341e-13,4.618283111e-13,8.69622304e-13,7.487879149e-13,1.354601199e-13,5.110324429e-13,2.124397558e-13
1.234375,4.181430636e-13,3.142279539e-13,9.859253666e-13,4.510373423e-13,6.260988254e-13,3.333056733e-13,4.636945446e-13,2.323429546e-13,2.057866358e-13,3.385166108e-13,4.904850723e-13,2.796720246e-13,1.746019802e-13,4.242349268e-13,3.462781518e-13,4.545582724e-13,9.048144501e-13,6.325885388e-13,3.442648492e-13,1.139449481e-12,4.527391104e-13,5.014348203e-14,1.293533075e-13,7.770793342e-13,2.616446062e-13,2.613500152e-13,4.726598845e-13,8.791447463e-13,7.673606069e-13,1.34401779e-13,5.269277416e-13,2.166101002e-13
1.2421875,4.212385434e-13,3.165848579e-13,9.935076295e-13,4.617409844e-13,6.438282826e-13,3.413987766e-13,4.74302691e-13,2.351543517e-13,2.03191562e-13,3.42301709e-13,4.988855189e-13,2.838746928e-13,1.750455023e-13,4.263493251e-13,3.551279941e-13,4.647088311e-13,9.289774842e-13,6.468602738e-13,3.521185154e-13,1.164451369e-12,4.584419814e-13,5.024493205e-14,1.308644899e-13,7.841382389e-13,2.647311078e-13,2.69551103e-13,4.839867049e-13,8.887741565e-13,7.867868826e-13,1.333527154e-13,5.434891665e-13,2.208205873e-13
1.25,4.242599477e-13,3.190748592e-13,1.001061635e-12,4.727911933e-13,6.620545695e-13,3.494681393e-13,4.851988952e-13,2.379809646e-13,2.005138698e-13,3.462037875e-13,5.077281049e-13,2.883013759e-13,1.75746029e-13,4.2862289e-13,3.644495214e-13,4.750281706e-13,9.538167122e-13,6.617368709e-13,3.604164221e-13,1.190497454e-12,4.642460605e-13,5.039939335e-14,1.323615885e-13,7.911296053e-13,2.676242355e-13,2.7814065e-13,4.956548473e-13,8.984907811e-13,8.069754213e-13,1.323101692e-13,5.607837992e-13,2.251184628e-13
1.2578125,4.272848129e-13,3.217471609e-13,1.008483454e-12,4.839597046e-13,6.804382377e-13,3.576986006e-13,4.96210583e-13,2.406693684e-13,1.978266698e-13,3.501746428e-13,5.167935131e-13,2.928818305e-13,1.767539376e-13,4.312660552e-13,3.740470511e-13,4.854967485e-13,9.792432216e-13,6.772541469e-13,3.691013741e-13,1.217379589e-12,4.70124839e-13,5.063417285e-14,1.339084493e-13,7.980453128e-13,2.704914229e-13,2.870602597e-13,5.077254419e-13,9.07987282e-13,8.280304691e-13,1.312433227e-13,5.787454278e-13,2.29440744e-13
1.265625,4.304190554e-13,3.246182578e-13,1.01554911e-12,4.951470712e-13,6.9883619e-13,3.662280732e-13,5.075652883e-13,2.432497465e-13,1.95197443e-13,3.542343314e-13,5.258677106e-13,2.976931889e-13,1.780301045e-13,4.344079642e-13,3.838891356e-13,4.961658528e-13,1.005163311e-12,6.933608972e-13,3.780420118e-13,1.244727188e-12,4.761273527e-13,5.09209196e-14,1.355716461e-13,8.050003475e-13,2.73513627e-13,2.961275746e-13,5.202427529e-13,9.174266365e-13,8.499690824e-13,1.301349586e-13,5.972619193e-13,2.338184734e-13
1.2734375,4.33754079e-13,3.275817432e-13,1.022714898e-12,5.06329799e-13,7.173232789e-13,3.750433876e-13,5.194874214e-13,2.457789064e-13,1.927593118e-13,3.584139086e-13,5.350667492e-13,3.02996885e-13,1.795711335e-13,4.381509412e-13,3.941193124e-13,5.070449766e-13,1.031338989e-12,7.099644145e-13,3.873201964e-13,1.272175403e-12,4.820888582e-13,5.118852968e-14,1.372180482e-13,8.118847943e-13,2.765958966e-13,3.052765285e-13,5.329129117e-13,9.271800702e-13,8.724559395e-13,1.291163979e-13,6.162500007e-13,2.384356185e-13
1.28125,4.373226151e-13,3.306129979e-13,1.030199127e-12,5.174528834e-13,7.360787451e-13,3.842430494e-13,5.318106682e-13,2.484929336e-13,1.905876703e-13,3.625955614e-13,5.445481122e-13,3.088079731e-13,1.814358262e-13,4.424538992e-13,4.046681856e-13,5.180714657e-13,1.057789939e-12,7.271230251e-13,3.970918436e-13,1.299980467e-12,4.878984617e-13,5.142908417e-14,1.387894132e-13,8.188317872e-13,2.796845334e-13,3.146614019e-13,5.456990827e-13,9.370835734e-13,8.953853753e-13,1.282749263e-13,6.358245591e-13,2.432798007e-13
1.2890625,4.409217923e-13,3.337588907e-13,1.037237713e-12,5.28629026e-13,7.553573899e-13,3.935700868e-13,5.443220212e-13,2.516186185e-13,1.884189414e-13,3.667953722e-13,5.542642924e-13,3.148525727e-13,1.835379876e-13,4.469666937e-13,4.154160193e-13,5.292070549e-13,1.084817252e-12,7.448805099e-13,4.072580674e-13,1.328733912e-12,4.937528201e-13,5.170301381e-14,1.404668767e-13,8.260472031e-13,2.828289974e-13,3.24420882e-13,5.589156821e-13,9.467332065e-13,9.189255442e-13,1.274656204e-13,6.562181797e-13,2.481404502e-13
1.296875,4.443834821e-13,3.370498032e-13,1.04347291e-12,5.400199687e-13,7.751414091e-13,4.028057282e-13,5.570118133e-13,2.549361587e-13,1.86073931e-13,3.711382561e-13,5.641903241e-13,3.210928424e-13,1.858726097e-13,4.516335532e-13,4.265424565e-13,5.406423099e-13,1.112582249e-12,7.632781186e-13,4.177286878e-13,1.358478994e-12,4.997290284e-13,5.203138316e-14,1.422839117e-13,8.331892013e-13,2.85976013e-13,3.345365839e-13,5.7261524e-13,9.561063585e-13,9.431013232e-13,1.265620068e-13,6.775079186e-13,2.530010452e-13
1.3046875,4.478635679e-13,3.405015981e-13,1.049506708e-12,5.514247901e-13,7.949481746e-13,4.122175968e-13,5.700132707e-13,2.580821417e-13,1.838618364e-13,3.755607545e-13,5.742804127e-13,3.277191366e-13,1.886118189e-13,4.56722783e-13,4.380144831e-13,5.522926116e-13,1.140676647e-12,7.822168104e-13,4.28581757e-13,1.388612878e-12,5.057142609e-13,5.240108929e-14,1.440793811e-13,8.400984643e-13,2.890744337e-13,3.44940904e-13,5.865842845e-13,9.655568833e-13,9.679079705e-13,1.256407302e-13,6.995951597e-13,2.580101153e-13
1.3125,4.514534714e-13,3.440142874e-13,1.055579269e-12,5.624813002e-13,8.144142772e-13,4.217785398e-13,5.834781807e-13,2.610473051e-13,1.819859885e-13,3.800370029e-13,5.84346093e-13,3.347264988e-13,1.917106233e-13,4.621581175e-13,4.494576227e-13,5.636373786e-13,1.16852066e-12,8.012948952e-13,4.39695167e-13,1.418674245e-12,5.116491396e-13,5.28008358e-14,1.458484298e-13,8.471213986e-13,2.921270786e-13,3.555501374e-13,6.007506752e-13,9.753012132e-13,9.932736097e-13,1.247802168e-13,7.223449296e-13,2.631739314e-13
1.3203125,4.550272739e-13,3.475300243e-13,1.06135702e-12,5.73308905e-13,8.338163482e-13,4.312700853e-13,5.973633702e-13,2.63993145e-13,1.801894719e-13,3.846656714e-13,5.944418407e-13,3.419021728e-13,1.950022298e-13,4.677546856e-13,4.609232467e-13,5.74751536e-13,1.19637828e-12,8.20502819e-13,4.509361611e-13,1.448999782e-12,5.174784614e-13,5.319208699e-14,1.476702758e-13,8.541796273e-13,2.95138528e-13,3.663299264e-13,6.152230093e-13,9.851515774e-13,1.018978575e-12,1.239500883e-13,7.45745492e-13,2.684642451e-13
1.328125,4.586109337e-13,3.51171404e-13,1.066816262e-12,5.843495674e-13,8.535727152e-13,4.408532381e-13,6.114388614e-13,2.669432508e-13,1.783313787e-13,3.893607002e-13,6.048253039e-13,3.491121241e-13,1.985386252e-13,4.736252642e-13,4.727491488e-13,5.862394595e-13,1.224824679e-12,8.403129411e-13,4.624870047e-13,1.479926304e-12,5.231989579e-13,5.356499767e-14,1.495259963e-13,8.609697186e-13,2.981750369e-13,3.773612557e-13,6.299390336e-13,9.949465548e-13,1.045046663e-12,1.231239621e-13,7.699036041e-13,2.739550586e-13
1.3359375,4.623166398e-13,3.54948422e-13,1.072157066e-12,5.955675587e-13,8.735322371e-13,4.506065522e-13,6.255914103e-13,2.698203845e-13,1.765867333e-13,3.939947644e-13,6.153928307e-13,3.565241327e-13,2.024295495e-13,4.79912635e-13,4.849024785e-13,5.981373511e-13,1.253634394e-12,8.606817953e-13,4.744149954e-13,1.510903515e-12,5.287993388e-13,5.39767382e-14,1.51402563e-13,8.675844805e-13,3.01273109e-13,3.886408596e-13,6.446587307e-13,1.00480482e-12,1.071716627e-12,1.223300499e-13,7.947752559e-13,2.795599789e-13
1.34375,4.660774631e-13,3.587528334e-13,1.077404377e-12,6.065177669e-13,8.932238457e-13,4.605334856e-13,6.399573699e-13,2.72522026e-13,1.750022049e-13,3.98669768e-13,6.258791534e-13,3.643675453e-13,2.066448043e-13,4.866239378e-13,4.971984178e-13,6.10105774e-13,1.282387862e-12,8.811372814e-13,4.865329561e-13,1.541542997e-12,5.341554955e-13,5.442790814e-14,1.532546554e-13,8.740669896e-13,3.043544577e-13,4.000166461e-13,6.594917044e-13,1.014758745e-12,1.098934966e-12,1.216011043e-13,8.201371758e-13,2.850323962e-13
1.3515625,4.697753217e-13,3.625824147e-13,1.082456839e-12,6.171167222e-13,9.125245711e-13,4.707107171e-13,6.547217507e-13,2.750409892e-13,1.734019474e-13,4.035314543e-13,6.363418139e-13,3.724677584e-13,2.110481727e-13,4.936417239e-13,5.09619901e-13,6.220441929e-13,1.311072819e-12,9.016671693e-13,4.987622941e-13,1.572259658e-12,5.393359271e-13,5.483678915e-14,1.550207829e-13,8.803588653e-13,3.07372589e-13,4.114359383e-13,6.746883818e-13,1.024680534e-12,1.126307844e-12,1.209057736e-13,8.459185523e-13,2.903448405e-13
1.359375,4.734244277e-13,3.664939977e-13,1.087042581e-12,6.276098666e-13,9.316749605e-13,4.8087992e-13,6.698653102e-13,2.775879001e-13,1.716744416e-13,4.085890861e-13,6.469093534e-13,3.805821571e-13,2.1561921e-13,5.009081876e-13,5.223096351e-13,6.340672368e-13,1.339867062e-12,9.226885437e-13,5.111578935e-13,1.603291295e-12,5.444910079e-13,5.520745785e-14,1.568617387e-13,8.86521285e-13,3.1039772e-13,4.230056131e-13,6.900737048e-13,1.034555834e-12,1.15359245e-12,1.201965744e-13,8.723679613e-13,2.956758109e-13
1.3671875,4.771581482e-13,3.706133802e-13,1.090975762e-12,6.379876645e-13,9.507461165e-13,4.908629922e-13,6.852587843e-13,2.802444757e-13,1.698893898e-13,4.137475251e-13,6.575372431e-13,3.888828876e-13,2.205874502e-13,5.085721554e-13,5.353503959e-13,6.462944165e-13,1.368977577e-12,9.443304335e-13,5.2380963e-13,1.634604916e-12,5.494922487e-13,5.564933673e-14,1.589387094e-13,8.924064363e-13,3.135112336e-13,4.348046409e-13,7.055425566e-13,1.044441307e-12,1.181021857e-12,1.195405389e-13,8.997132265e-13,3.010920749e-13
1.375,4.809996595e-13,3.749762568e-13,1.094512649e-12,6.480621539e-13,9.694371021e-13,5.007943456e-13,7.009559028e-13,2.826691581e-13,1.681687151e-13,4.18892899e-13,6.681533897e-13,3.974370087e-13,2.259887928e-13,5.165776976e-13,5.484292268e-13,6.584769985e-13,1.398063812e-12,9.66097125e-13,5.366824106e-13,1.666134656e-12,5.542853448e-13,5.618781522e-14,1.610869908e-13,8.978579595e-13,3.166619789e-13,4.467737745e-13,7.212490224e-13,1.054306482e-12,1.20883937e-12,1.190097336e-13,9.277061101e-13,3.06507896e-13
1.3828125,4.847683251e-13,3.793886602e-13,1.097860027e-12,6.578990573e-13,9.876975319e-13,5.106538852e-13,7.170148739e-13,2.847135472e-13,1.66561946e-13,4.240088086e-13,6.787232234e-13,4.059636687e-13,2.315614495e-13,5.247550385e-13,5.614241324e-13,6.704453489e-13,1.426788938e-12,9.878008878e-13,5.495802245e-13,1.697517679e-12,5.589717772e-13,5.673503316e-14,1.631815212e-13,9.031150913e-13,3.197729586e-13,4.588467306e-13,7.370407385e-13,1.064073375e-12,1.236835056e-12,1.185243804e-13,9.560753628e-13,3.118786964e-13
1.390625,4.884732455e-13,3.838892236e-13,1.100836227e-12,6.677320961e-13,1.006041032e-12,5.205639839e-13,7.332312468e-13,2.867543522e-13,1.651052992e-13,4.291794098e-13,6.893052444e-13,4.144607819e-13,2.373583127e-13,5.333524611e-13,5.748338638e-13,6.826826349e-13,1.455865961e-12,1.01016441e-12,5.626010526e-13,1.728758831e-12,5.634863837e-13,5.725969765e-14,1.653433887e-13,9.085496426e-13,3.229607559e-13,4.711361202e-13,7.528451526e-13,1.07371444e-12,1.264872114e-12,1.180425625e-13,9.852076432e-13,3.173183631e-13
1.3984375,4.923585454e-13,3.886764875e-13,1.103409188e-12,6.77539017e-13,1.024562631e-12,5.306293189e-13,7.495084977e-13,2.888788368e-13,1.638541963e-13,4.344871112e-13,6.999721575e-13,4.232108286e-13,2.435873232e-13,5.424935641e-13,5.886356623e-13,6.951549029e-13,1.48532151e-12,1.033201785e-12,5.759645656e-13,1.76008715e-12,5.678961957e-13,5.781414108e-14,1.675422102e-13,9.142415656e-13,3.262676935e-13,4.836956005e-13,7.688942126e-13,1.083313671e-12,1.293160962e-12,1.176514798e-13,1.015332022e-12,3.228875064e-13
1.40625,4.963727431e-13,3.935525811e-13,1.105760436e-12,6.870356416e-13,1.042617618e-12,5.404247662e-13,7.660208706e-13,2.907632675e-13,1.62739969e-13,4.399112118e-13,7.106056025e-13,4.322693036e-13,2.501279351e-13,5.518382165e-13,6.022121286e-13,7.07112349e-13,1.513915378e-12,1.055797697e-12,5.893893752e-13,1.790905528e-12,5.723222726e-13,5.841924757e-14,1.696487161e-13,9.196502736e-13,3.294721267e-13,4.962350074e-13,7.850295549e-13,1.093018155e-12,1.321583043e-12,1.173362611e-13,1.045830643e-12,3.283791099e-13
1.4140625,5.002612509e-13,3.983928038e-13,1.107837098e-12,6.961139733e-13,1.060005739e-12,5.49889975e-13,7.828249441e-13,2.924728436e-13,1.616384181e-13,4.45276502e-13,7.210748774e-13,4.414766797e-13,2.569493279e-13,5.613421926e-13,6.157177303e-13,7.187974349e-13,1.541832058e-12,1.077932814e-12,6.026540011e-13,1.820921593e-12,5.764548785e-13,5.906168439e-14,1.717603744e-13,9.241460769e-13,3.325745181e-13,5.085202504e-13,8.0101644e-13,1.102877119e-12,1.349656061e-12,1.170227673e-13,1.076392349e-12,3.336739885e-13
1.421875,5.040350545e-13,4.034280349e-13,1.109506406e-12,7.048935842e-13,1.077015598e-12,5.594722114e-13,7.999231824e-13,2.942423869e-13,1.606505922e-13,4.504818811e-13,7.31373657e-13,4.506991019e-13,2.642200191e-13,5.712638578e-13,6.296246039e-13,7.309262199e-13,1.570075699e-12,1.100545809e-12,6.160617264e-13,1.85088647e-12,5.801181933e-13,5.974856214e-14,1.73963422e-13,9.281006484e-13,3.358016128e-13,5.207134178e-13,8.170507128e-13,1.112694769e-12,1.377265709e-12,1.167996519e-13,1.107460425e-12,3.389836138e-13
1.4296875,5.077702439e-13,4.085695485e-13,1.110769735e-12,7.133533584e-13,1.093511772e-12,5.691124732e-13,8.17352563e-13,2.9596993e-13,1.599672367e-13,4.556988635e-13,7.414168053e-13,4.599131343e-13,2.71839009e-13,5.815791609e-13,6.436921084e-13,7.431683234e-13,1.598052301e-12,1.123351427e-12,6.296435667e-13,1.88087081e-12,5.836378115e-13,6.048117889e-14,1.761585201e-13,9.322158852e-13,3.390684269e-13,5.32976486e-13,8.33100568e-13,1.122087677e-12,1.404635319e-12,1.167351119e-13,1.139124673e-12,3.443963137e-13
1.4375,5.113455307e-13,4.135404716e-13,1.111530091e-12,7.213823235e-13,1.109387786e-12,5.78570884e-13,8.348522876e-13,2.976207086e-13,1.594714913e-13,4.610677626e-13,7.511566556e-13,4.690626306e-13,2.795441946e-13,5.919876453e-13,6.575593499e-13,7.550175029e-13,1.625078576e-12,1.145439304e-12,6.430301997e-13,1.910252828e-12,5.871019825e-13,6.122386911e-14,1.782926962e-13,9.363212669e-13,3.421851675e-13,5.45210395e-13,8.48781201e-13,1.130906933e-12,1.431656399e-12,1.166510331e-13,1.17097589e-12,3.497495537e-13
1.4453125,5.146857789e-13,4.184066941e-13,1.111943246e-12,7.290464342e-13,1.124902632e-12,5.878012194e-13,8.522867367e-13,2.992914081e-13,1.589191339e-13,4.665034829e-13,7.607125795e-13,4.780631621e-13,2.872884721e-13,6.021889218e-13,6.711701541e-13,7.666178025e-13,1.651480306e-12,1.166930634e-12,6.561657251e-13,1.939096673e-12,5.902567325e-13,6.193707368e-14,1.804412898e-13,9.402307768e-13,3.452100593e-13,5.573870652e-13,8.640352315e-13,1.139496706e-12,1.457884297e-12,1.164100073e-13,1.203234406e-12,3.550855665e-13
1.453125,5.179640784e-13,4.23242149e-13,1.111759721e-12,7.362148981e-13,1.13998863e-12,5.966680364e-13,8.7009324e-13,3.006479705e-13,1.582539578e-13,4.719901257e-13,7.7009828e-13,4.869139713e-13,2.950325707e-13,6.12385501e-13,6.846758987e-13,7.779677529e-13,1.677368159e-12,1.188452916e-12,6.692355682e-13,1.967614239e-12,5.931289842e-13,6.261473518e-14,1.82632715e-13,9.44136179e-13,3.482143922e-13,5.694525881e-13,8.792151138e-13,1.148329817e-12,1.483503293e-12,1.161087103e-13,1.235611713e-12,3.604294525e-13
1.4609375,5.21431908e-13,4.281794709e-13,1.11116611e-12,7.428928378e-13,1.154409319e-12,6.054229866e-13,8.883996959e-13,3.015841392e-13,1.57761749e-13,4.775041243e-13,7.792772538e-13,4.959579083e-13,3.030584402e-13,6.230636825e-13,6.983788292e-13,7.893603082e-13,1.702790313e-12,1.210224742e-12,6.823251923e-13,1.995490871e-12,5.958765384e-13,6.333133126e-14,1.848849182e-13,9.477230946e-13,3.513638143e-13,5.813037108e-13,8.945176639e-13,1.157336818e-12,1.508979298e-12,1.159429378e-13,1.268106821e-12,3.657002535e-13
1.46875,5.250275885e-13,4.332413225e-13,1.110321849e-12,7.492736834e-13,1.168184702e-12,6.142294724e-13,9.064222655e-13,3.023370863e-13,1.575361792e-13,4.830019318e-13,7.881818229e-13,5.049256168e-13,3.113140295e-13,6.338547915e-13,7.121155261e-13,8.00865351e-13,1.727763065e-12,1.231630467e-12,6.952389618e-13,2.022314044e-12,5.984422201e-13,6.410368318e-14,1.871060345e-13,9.504550015e-13,3.546907296e-13,5.92776355e-13,9.096514428e-13,1.166309676e-12,1.53406521e-12,1.158518871e-13,1.300468778e-12,3.708792505e-13
1.4765625,5.284037502e-13,4.380724335e-13,1.109137248e-12,7.552980601e-13,1.18133744e-12,6.225263367e-13,9.238790787e-13,3.031191745e-13,1.574519898e-13,4.88537645e-13,7.965551426e-13,5.133100965e-13,3.194934689e-13,6.440861561e-13,7.254604863e-13,8.120859079e-13,1.75186602e-12,1.252048454e-12,7.076996948e-13,2.047863882e-12,6.006182434e-13,6.489201689e-14,1.893223995e-13,9.526320804e-13,3.579919733e-13,6.038608214e-13,9.242224578e-13,1.175196794e-12,1.557947788e-12,1.156959482e-13,1.332498858e-12,3.759513193e-13
1.484375,5.314781177e-13,4.425019096e-13,1.107451149e-12,7.607196392e-13,1.193834902e-12,6.302245504e-13,9.414245223e-13,3.039958243e-13,1.574360327e-13,4.940949598e-13,8.043125245e-13,5.214059743e-13,3.277154685e-13,6.540978366e-13,7.384793285e-13,8.228936098e-13,1.774878028e-12,1.271651892e-12,7.198097376e-13,2.072187179e-12,6.022945953e-13,6.569119906e-14,1.916288915e-13,9.546942059e-13,3.612292257e-13,6.146488935e-13,9.382076928e-13,1.183713925e-12,1.580512652e-12,1.155325092e-13,1.364250155e-12,3.807503037e-13
1.4921875,5.344240882e-13,4.468083829e-13,1.105239114e-12,7.655899079e-13,1.205468556e-12,6.378644339e-13,9.594038648e-13,3.047062925e-13,1.575418484e-13,4.995362741e-13,8.11693841e-13,5.297014713e-13,3.361781423e-13,6.643266716e-13,7.511983224e-13,8.33243662e-13,1.796675342e-12,1.290596335e-12,7.317161707e-13,2.095253473e-12,6.03587095e-13,6.652809543e-14,1.938239122e-13,9.563650393e-13,3.644739769e-13,6.250551622e-13,9.517071993e-13,1.191697291e-12,1.602351863e-12,1.154394328e-13,1.395626119e-12,3.851679329e-13
1.5,5.372573825e-13,4.51060509e-13,1.102586264e-12,7.700706337e-13,1.215981504e-12,6.453685251e-13,9.774507198e-13,3.048893128e-13,1.578270757e-13,5.050242996e-13,8.188135721e-13,5.380348975e-13,3.446489827e-13,6.744598503e-13,7.634699533e-13,8.430263496e-13,1.817206201e-12,1.308723998e-12,7.431847868e-13,2.116794495e-12,6.046292443e-13,6.739665445e-14,1.957002548e-13,9.573262958e-13,3.675677284e-13,6.349491872e-13,9.647198233e-13,1.199674412e-12,1.623721345e-12,1.15372986e-13,1.426501521e-12,3.893736363e-13
1.5078125,5.400380305e-13,4.551804275e-13,1.099813221e-12,7.742220998e-13,1.225711543e-12,6.525595411e-13,9.951879766e-13,3.047267946e-13,1.582588141e-13,5.108598777e-13,8.257161288e-13,5.462146921e-13,3.530654822e-13,6.844448647e-13,7.756762239e-13,8.526677489e-13,1.837110593e-12,1.326426546e-12,7.542649892e-13,2.136989476e-12,6.054358122e-13,6.825883893e-14,1.974497825e-13,9.578040404e-13,3.705176584e-13,6.444359496e-13,9.772231174e-13,1.20814257e-12,1.644236715e-12,1.153490655e-13,1.457161994e-12,3.936394378e-13
1.515625,5.429874545e-13,4.59317316e-13,1.097261433e-12,7.781030273e-13,1.234936543e-12,6.597964083e-13,1.012815158e-12,3.045575983e-13,1.588053187e-13,5.16867497e-13,8.324854173e-13,5.543421178e-13,3.617037055e-13,6.945925021e-13,7.880998346e-13,8.62495938e-13,1.856639686e-12,1.34402027e-12,7.653014128e-13,2.156285606e-12,6.060367818e-13,6.911760408e-14,1.99278959e-13,9.580217352e-13,3.736333501e-13,6.535786111e-13,9.891272847e-13,1.216944233e-12,1.663529197e-12,1.154442063e-13,1.487632725e-12,3.97926399e-13
1.5234375,5.45997663e-13,4.634105582e-13,1.094676089e-12,7.81531402e-13,1.243101715e-12,6.669286832e-13,1.030767432e-12,3.042783472e-13,1.595462419e-13,5.226600446e-13,8.387830421e-13,5.622334705e-13,3.705056219e-13,7.046645115e-13,8.003236801e-13,8.72136764e-13,1.875126482e-12,1.360842456e-12,7.759744481e-13,2.174540834e-12,6.063895889e-13,7.001848406e-14,2.011672048e-13,9.577789768e-13,3.76919917e-13,6.622527688e-13,1.000467343e-12,1.225783941e-12,1.681665216e-12,1.156045212e-13,1.517433369e-12,4.019188051e-13
1.53125,5.486591722e-13,4.671306349e-13,1.091538245e-12,7.841360299e-13,1.249959166e-12,6.732115688e-13,1.048790755e-12,3.038239723e-13,1.605086427e-13,5.282079508e-13,8.441011225e-13,5.694851503e-13,3.790862703e-13,7.141310882e-13,8.11976127e-13,8.812654998e-13,1.892268204e-12,1.37618432e-12,7.856922437e-13,2.191368134e-12,6.063286818e-13,7.093866795e-14,2.031161154e-13,9.570017482e-13,3.800558127e-13,6.704807001e-13,1.011265769e-12,1.234481835e-12,1.698459724e-12,1.15690201e-13,1.546484763e-12,4.05555949e-13
1.5390625,5.5087578e-13,4.704286385e-13,1.08799228e-12,7.859667493e-13,1.255917807e-12,6.785929991e-13,1.066292212e-12,3.033308261e-13,1.615790412e-13,5.336881758e-13,8.48518786e-13,5.760403692e-13,3.873042152e-13,7.229651327e-13,8.230833476e-13,8.899094675e-13,1.908052958e-12,1.390118692e-12,7.945629091e-13,2.206649575e-12,6.058392404e-13,7.180764421e-14,2.051059642e-13,9.560950419e-13,3.829390953e-13,6.783091117e-13,1.021100277e-12,1.242849508e-12,1.713302069e-12,1.156756089e-13,1.574923965e-12,4.090275107e-13
1.546875,5.529589693e-13,4.735926353e-13,1.084655715e-12,7.875521716e-13,1.261113324e-12,6.838227971e-13,1.083377478e-12,3.026785113e-13,1.627719073e-13,5.391811247e-13,8.524938291e-13,5.822090854e-13,3.953974582e-13,7.316399608e-13,8.338894819e-13,8.983259444e-13,1.92255701e-12,1.403231848e-12,8.030269257e-13,2.220429001e-12,6.050817004e-13,7.264488158e-14,2.070138032e-13,9.553180934e-13,3.857876856e-13,6.856353753e-13,1.029939687e-12,1.250904382e-12,1.726582539e-12,1.156790776e-13,1.602662497e-12,4.123694636e-13
1.5546875,5.551377318e-13,4.768893329e-13,1.081778419e-12,7.8926e-13,1.265696706e-12,6.891971231e-13,1.100341955e-12,3.016598592e-13,1.642474036e-13,5.446121067e-13,8.562360444e-13,5.882349525e-13,4.036198164e-13,7.404684636e-13,8.445902373e-13,9.068118522e-13,1.936318555e-12,1.415992085e-12,8.11268508e-13,2.232813219e-12,6.041723506e-13,7.350391544e-14,2.08783333e-13,9.545012661e-13,3.887492472e-13,6.925783381e-13,1.03855285e-12,1.258835597e-12,1.739570768e-12,1.157697745e-13,1.630023884e-12,4.156050572e-13
1.5625,5.572462827e-13,4.801981118e-13,1.079028615e-12,7.907873444e-13,1.269728543e-12,6.941145232e-13,1.117108845e-12,3.00315143e-13,1.660031577e-13,5.498321707e-13,8.595513975e-13,5.940136438e-13,4.118789672e-13,7.49167927e-13,8.548829437e-13,9.150848459e-13,1.949117846e-12,1.428052282e-12,8.191880589e-13,2.2436063e-12,6.03059166e-13,7.438447279e-14,2.104413832e-13,9.534182698e-13,3.916364816e-13,6.992700396e-13,1.04695918e-12,1.26677546e-12,1.75213517e-12,1.158523539e-13,1.657172617e-12,4.188006137e-13
1.5703125,5.590206366e-13,4.830640382e-13,1.075852511e-12,7.914882351e-13,1.272471226e-12,6.981668455e-13,1.133799088e-12,2.988053767e-13,1.678922545e-13,5.548247857e-13,8.621056897e-13,5.993593148e-13,4.198987269e-13,7.573353663e-13,8.64417426e-13,9.227302992e-13,1.960134898e-12,1.438729762e-12,8.264384979e-13,2.252463304e-12,6.015290665e-13,7.529001992e-14,2.120456877e-13,9.516629464e-13,3.942916434e-13,7.053599499e-13,1.054306003e-12,1.274760821e-12,1.762907743e-12,1.158529678e-13,1.68317462e-12,4.21761318e-13
1.578125,5.604953074e-13,4.853671067e-13,1.07203998e-12,7.91300617e-13,1.273616661e-12,7.0171511e-13,1.150420187e-12,2.972170994e-13,1.698284372e-13,5.59663763e-13,8.638952156e-13,6.043424454e-13,4.276244278e-13,7.64950377e-13,8.733923055e-13,9.299813909e-13,1.969785405e-12,1.448117808e-12,8.328167671e-13,2.259660933e-12,5.994938237e-13,7.620069055e-14,2.136539535e-13,9.488150893e-13,3.968840837e-13,7.105934513e-13,1.060525368e-12,1.282533771e-12,1.77161407e-12,1.158234934e-13,1.707400171e-12,4.243218687e-13
1.5859375,5.617832682e-13,4.874576103e-13,1.067846664e-12,7.906881471e-13,1.273922488e-12,7.050148195e-13,1.166411085e-12,2.954736913e-13,1.717955388e-13,5.644181092e-13,8.6517843e-13,6.090074974e-13,4.351933262e-13,7.720316737e-13,8.81932679e-13,9.36983323e-13,1.978745301e-12,1.456633275e-12,8.385341543e-13,2.265632808e-12,5.971117791e-13,7.709600436e-14,2.152479131e-13,9.452864604e-13,3.994651475e-13,7.15283689e-13,1.066148358e-12,1.289775282e-12,1.778895201e-12,1.157528426e-13,1.730469217e-12,4.266722475e-13
1.59375,5.628713618e-13,4.895075615e-13,1.063418807e-12,7.897239055e-13,1.273666411e-12,7.078573966e-13,1.181639306e-12,2.934935539e-13,1.738619704e-13,5.693056444e-13,8.66008691e-13,6.132344212e-13,4.426856635e-13,7.78463217e-13,8.89889382e-13,9.435832145e-13,1.986693192e-12,1.464260402e-12,8.437660452e-13,2.270272573e-12,5.94482351e-13,7.808076347e-14,2.168335964e-13,9.417676371e-13,4.019256318e-13,7.196701086e-13,1.071247464e-12,1.296738383e-12,1.784841096e-12,1.155817741e-13,1.75282894e-12,4.28961092e-13
1.6015625,5.639193081e-13,4.913910628e-13,1.058706708e-12,7.882477e-13,1.272452373e-12,7.102238303e-13,1.196687583e-12,2.913355327e-13,1.761484922e-13,5.744113079e-13,8.663594298e-13,6.171842552e-13,4.50094408e-13,7.843925678e-13,8.973845503e-13,9.500176185e-13,1.993377194e-12,1.470919014e-12,8.484836002e-13,2.27337448e-12,5.916146049e-13,7.921537276e-14,2.184881568e-13,9.379858347e-13,4.044325237e-13,7.235750728e-13,1.075671501e-12,1.303774808e-12,1.789378557e-12,1.154088726e-13,1.774160763e-12,4.310700605e-13
1.609375,5.650633968e-13,4.929759068e-13,1.053936438e-12,7.863337576e-13,1.270111614e-12,7.123491157e-13,1.211774903e-12,2.89004467e-13,1.786665788e-13,5.794337554e-13,8.661939951e-13,6.210672567e-13,4.573645256e-13,7.90124516e-13,9.045132791e-13,9.563331524e-13,1.998597335e-12,1.476453192e-12,8.526429616e-13,2.274590687e-12,5.88478604e-13,8.03596563e-14,2.202019376e-13,9.335044487e-13,4.070501455e-13,7.266925152e-13,1.079213183e-12,1.310651928e-12,1.792589679e-12,1.153380768e-13,1.794098487e-12,4.328158504e-13
1.6171875,5.659703112e-13,4.940937909e-13,1.049358245e-12,7.838359498e-13,1.266576842e-12,7.141391332e-13,1.226503047e-12,2.864962446e-13,1.813652432e-13,5.843031551e-13,8.65190818e-13,6.244916496e-13,4.643597924e-13,7.955784589e-13,9.110366517e-13,9.620961955e-13,2.001943599e-12,1.480572791e-12,8.560340656e-13,2.273408704e-12,5.848547417e-13,8.141668811e-14,2.219293581e-13,9.288234212e-13,4.094923995e-13,7.288053655e-13,1.081544187e-12,1.317164949e-12,1.794122576e-12,1.152549813e-13,1.812402557e-12,4.341198979e-13
1.625,5.663419763e-13,4.946411652e-13,1.044836648e-12,7.805172877e-13,1.261994189e-12,7.152011069e-13,1.240541652e-12,2.839520012e-13,1.84291556e-13,5.892552111e-13,8.631902436e-13,6.270030875e-13,4.709402886e-13,8.004155156e-13,9.16880463e-13,9.67440516e-13,2.00386768e-12,1.483578929e-12,8.585050274e-13,2.270164637e-12,5.807158142e-13,8.242596231e-14,2.236434975e-13,9.243860893e-13,4.117334272e-13,7.301118205e-13,1.08270673e-12,1.323410084e-12,1.793834243e-12,1.150428902e-13,1.829153544e-12,4.351661136e-13
1.6328125,5.663742231e-13,4.947649945e-13,1.040169043e-12,7.766610424e-13,1.256730925e-12,7.155566085e-13,1.253969949e-12,2.813220717e-13,1.875138914e-13,5.940896977e-13,8.605402387e-13,6.288113069e-13,4.771675442e-13,8.046190126e-13,9.222646097e-13,9.729063887e-13,2.005053583e-12,1.485984115e-12,8.603436034e-13,2.265736583e-12,5.764303154e-13,8.341064473e-14,2.252271402e-13,9.19801018e-13,4.139422819e-13,7.310851721e-13,1.08315039e-12,1.329134409e-12,1.792384209e-12,1.147861536e-13,1.844777396e-12,4.361649868e-13
1.640625,5.662618694e-13,4.946665824e-13,1.035312786e-12,7.725878306e-13,1.250625847e-12,7.156605024e-13,1.266889441e-12,2.783256331e-13,1.90986848e-13,5.984675593e-13,8.574956809e-13,6.302413136e-13,4.831796052e-13,8.083830745e-13,9.272254344e-13,9.782714385e-13,2.005080227e-12,1.487332974e-12,8.617108903e-13,2.260110723e-12,5.720484513e-13,8.440880911e-14,2.266446545e-13,9.147256413e-13,4.160109137e-13,7.316212804e-13,1.083134222e-12,1.333997908e-12,1.790015159e-12,1.145658395e-13,1.859219376e-12,4.369115352e-13
1.6484375,5.659876551e-13,4.943932244e-13,1.030321362e-12,7.681990429e-13,1.243341711e-12,7.155866469e-13,1.279015747e-12,2.749341189e-13,1.945969918e-13,6.025555968e-13,8.540116525e-13,6.312816273e-13,4.888414772e-13,8.116258633e-13,9.314687709e-13,9.828479301e-13,2.003189632e-12,1.486772839e-12,8.622913466e-13,2.252617304e-12,5.672597646e-13,8.546356108e-14,2.280230588e-13,9.092430567e-13,4.178699508e-13,7.311261123e-13,1.082410614e-12,1.338250151e-12,1.786067884e-12,1.14333685e-13,1.871876378e-12,4.371426265e-13
1.65625,5.655444628e-13,4.937859471e-13,1.025323932e-12,7.633462439e-13,1.235020984e-12,7.150415062e-13,1.290235916e-12,2.71377409e-13,1.982715952e-13,6.066027282e-13,8.500097955e-13,6.319335601e-13,4.939797342e-13,8.142071468e-13,9.34872378e-13,9.866055271e-13,1.999241648e-12,1.484327375e-12,8.619450677e-13,2.242919628e-12,5.621090263e-13,8.651770449e-14,2.293551413e-13,9.032761939e-13,4.196144526e-13,7.295296973e-13,1.080421006e-12,1.342271256e-12,1.780122926e-12,1.140712113e-13,1.882491161e-12,4.370847922e-13
1.6640625,5.648061194e-13,4.925880762e-13,1.020270921e-12,7.579101472e-13,1.225770799e-12,7.139427797e-13,1.300923639e-12,2.677966402e-13,2.02006805e-13,6.105975587e-13,8.453010859e-13,6.32181101e-13,4.988140823e-13,8.162933343e-13,9.377562694e-13,9.900575841e-13,1.99366412e-12,1.48068049e-12,8.60846392e-13,2.231024139e-12,5.567471678e-13,8.752003531e-14,2.305956671e-13,8.96577011e-13,4.211764233e-13,7.273352706e-13,1.076963517e-12,1.34592673e-12,1.772374295e-12,1.137956417e-13,1.891390088e-12,4.370706963e-13
1.671875,5.636521538e-13,4.908734882e-13,1.014950659e-12,7.518166802e-13,1.215607968e-12,7.1229308e-13,1.311020899e-12,2.641907039e-13,2.058420659e-13,6.144360717e-13,8.397530523e-13,6.318642506e-13,5.036211672e-13,8.180596242e-13,9.403425779e-13,9.933751847e-13,1.987165845e-12,1.476389501e-12,8.59079112e-13,2.217127691e-12,5.509783205e-13,8.852379374e-14,2.319415174e-13,8.892232086e-13,4.22504802e-13,7.248919577e-13,1.072630257e-12,1.348870937e-12,1.763287457e-12,1.134461581e-13,1.899037392e-12,4.370314557e-13
1.6796875,5.622605359e-13,4.89031232e-13,1.009352778e-12,7.452734566e-13,1.204724649e-12,7.101558142e-13,1.320169717e-12,2.604968806e-13,2.098323569e-13,6.18010985e-13,8.335000042e-13,6.309801676e-13,5.082525141e-13,8.193768299e-13,9.4248849e-13,9.963782754e-13,1.979908785e-12,1.471489424e-12,8.566898748e-13,2.201549898e-12,5.447711258e-13,8.959041691e-14,2.334869286e-13,8.816955849e-13,4.237425779e-13,7.220705078e-13,1.068055333e-12,1.351061348e-12,1.753246408e-12,1.129956811e-13,1.90538265e-12,4.367205953e-13
1.6875,5.607138635e-13,4.870663823e-13,1.003437124e-12,7.384578629e-13,1.192948073e-12,7.076728062e-13,1.328804277e-12,2.56645441e-13,2.139906109e-13,6.21445233e-13,8.266090989e-13,6.295896367e-13,5.123713827e-13,8.199554877e-13,9.440086144e-13,9.98955264e-13,1.971162123e-12,1.465354963e-12,8.536360692e-13,2.1844441e-12,5.384498905e-13,9.069922274e-14,2.349581881e-13,8.744216465e-13,4.249477223e-13,7.184173906e-13,1.062911832e-12,1.352622161e-12,1.74178409e-12,1.125238363e-13,1.909723622e-12,4.360511543e-13
1.6953125,5.587919381e-13,4.846012714e-13,9.970346466e-13,7.312011797e-13,1.179969575e-12,7.046216538e-13,1.337350598e-12,2.526051498e-13,2.182603876e-13,6.248960275e-13,8.190093096e-13,6.276168306e-13,5.159053427e-13,8.196882709e-13,9.447442321e-13,1.000996371e-12,1.960533226e-12,1.457433705e-12,8.497037492e-13,2.165817434e-12,5.321085128e-13,9.176411451e-14,2.361611085e-13,8.673614364e-13,4.260233802e-13,7.137763116e-13,1.056507544e-12,1.353525299e-12,1.728145102e-12,1.120504685e-13,1.911830311e-12,4.350810481e-13
1.703125,5.564600054e-13,4.816117633e-13,9.90366268e-13,7.233855423e-13,1.166169875e-12,7.008582817e-13,1.34529137e-12,2.484569356e-13,2.226037604e-13,6.280863391e-13,8.107335345e-13,6.251061248e-13,5.189823173e-13,8.187893317e-13,9.447073041e-13,1.00252743e-12,1.94867854e-12,1.448055241e-12,8.449345e-13,2.145710014e-12,5.255712782e-13,9.275944773e-14,2.372631829e-13,8.602531185e-13,4.26862407e-13,7.08594055e-13,1.049062362e-12,1.353842948e-12,1.712801112e-12,1.114896153e-13,1.912302489e-12,4.339581081e-13
1.7109375,5.538884362e-13,4.783456655e-13,9.837022758e-13,7.152135896e-13,1.152005086e-12,6.966967599e-13,1.352346548e-12,2.443990811e-13,2.270039022e-13,6.309304531e-13,8.018349837e-13,6.220936487e-13,5.215037094e-13,8.173530501e-13,9.441035824e-13,1.003768822e-12,1.936094981e-12,1.437703875e-12,8.395577306e-13,2.124107698e-12,5.188550498e-13,9.374243595e-14,2.384529517e-13,8.530045109e-13,4.273843102e-13,7.031283313e-13,1.041178352e-12,1.353932987e-12,1.696535768e-12,1.107748997e-13,1.911196824e-12,4.32855363e-13
1.71875,5.510755325e-13,4.747402352e-13,9.768607319e-13,7.068569117e-13,1.137163757e-12,6.920517847e-13,1.35883215e-12,2.404440264e-13,2.31361955e-13,6.338995752e-13,7.923453562e-13,6.183722405e-13,5.232313233e-13,8.15112815e-13,9.428107442e-13,1.004633421e-12,1.922348022e-12,1.426251776e-12,8.334883401e-13,2.100978297e-12,5.120497835e-13,9.469870308e-14,2.397206591e-13,8.455147521e-13,4.275947629e-13,6.970801346e-13,1.032655814e-12,1.353946622e-12,1.679097507e-12,1.099183921e-13,1.907934327e-12,4.317071262e-13
1.7265625,5.47955548e-13,4.706341092e-13,9.699596705e-13,6.982554161e-13,1.121245607e-12,6.867260481e-13,1.364538396e-12,2.363386173e-13,2.356185982e-13,6.370137142e-13,7.823492144e-13,6.139733513e-13,5.243384604e-13,8.120584593e-13,9.406695107e-13,1.004957411e-12,1.907130136e-12,1.413579008e-12,8.266125631e-13,2.076504558e-12,5.050700419e-13,9.559484218e-14,2.41058209e-13,8.376622701e-13,4.275776538e-13,6.90391029e-13,1.023190318e-12,1.353714504e-12,1.660363005e-12,1.089995783e-13,1.902582238e-12,4.302209955e-13
1.734375,5.445555468e-13,4.661596943e-13,9.63423194e-13,6.894555504e-13,1.104545104e-12,6.811694301e-13,1.369130577e-12,2.320710225e-13,2.399065052e-13,6.397799201e-13,7.718786314e-13,6.092587487e-13,5.252032541e-13,8.08556847e-13,9.380208984e-13,1.004920082e-12,1.890755092e-12,1.399835989e-12,8.191353431e-13,2.050965922e-12,4.979870172e-13,9.65008497e-14,2.424912958e-13,8.296686532e-13,4.273537899e-13,6.833532956e-13,1.013068075e-12,1.353180652e-12,1.640733911e-12,1.080712857e-13,1.895649804e-12,4.283563e-13
1.7421875,5.408814344e-13,4.614680051e-13,9.568747109e-13,6.806557064e-13,1.087553545e-12,6.754445221e-13,1.372989624e-12,2.278939759e-13,2.443513993e-13,6.421192642e-13,7.609031658e-13,6.043087715e-13,5.258137201e-13,8.046671911e-13,9.349614425e-13,1.004471606e-12,1.873281789e-12,1.385037933e-12,8.112156037e-13,2.024321259e-12,4.910009353e-13,9.743117596e-14,2.438782988e-13,8.217925226e-13,4.268951134e-13,6.759539344e-13,1.002304568e-12,1.352194521e-12,1.620086913e-12,1.070937367e-13,1.88727699e-12,4.263479276e-13
1.75,5.369506371e-13,4.564951922e-13,9.496643487e-13,6.717456793e-13,1.070225527e-12,6.690467675e-13,1.376341469e-12,2.237369668e-13,2.48903219e-13,6.441707086e-13,7.494353529e-13,5.989474535e-13,5.259885507e-13,8.001649614e-13,9.311512785e-13,1.003426238e-12,1.854590375e-12,1.369284061e-12,8.027853416e-13,1.996278989e-12,4.839572461e-13,9.832202164e-14,2.450932938e-13,8.138620831e-13,4.262567109e-13,6.680380828e-13,9.907450133e-13,1.350251207e-12,1.598352746e-12,1.060670018e-13,1.877376782e-12,4.242520031e-13
1.7578125,5.328348912e-13,4.511907833e-13,9.420105804e-13,6.624677526e-13,1.052262934e-12,6.620760082e-13,1.378770377e-12,2.193379051e-13,2.535003375e-13,6.459383771e-13,7.375477131e-13,5.931263465e-13,5.256749842e-13,7.949434873e-13,9.265579298e-13,1.00197989e-12,1.83501618e-12,1.35275848e-12,7.937452989e-13,1.9668962e-12,4.767011641e-13,9.921388836e-14,2.463133271e-13,8.056940421e-13,4.255000778e-13,6.597127847e-13,9.788295419e-13,1.347138408e-12,1.575994684e-12,1.05050634e-13,1.865813586e-12,4.220244188e-13
1.765625,5.285276485e-13,4.456429774e-13,9.342447318e-13,6.529274262e-13,1.033780598e-12,6.548412773e-13,1.380094683e-12,2.147817908e-13,2.581487137e-13,6.475526091e-13,7.253152111e-13,5.868524808e-13,5.248591082e-13,7.889101646e-13,9.212194947e-13,1.000079106e-12,1.814798824e-12,1.335347702e-12,7.840930582e-13,1.936598025e-12,4.69491231e-13,1.001659571e-13,2.476970773e-13,7.97395436e-13,4.245854913e-13,6.510947382e-13,9.667944513e-13,1.343187475e-12,1.553035693e-12,1.039881705e-13,1.85262781e-12,4.197533436e-13
1.7734375,5.239681897e-13,4.399760835e-13,9.261626352e-13,6.432588616e-13,1.015097991e-12,6.472781312e-13,1.380585496e-12,2.102834363e-13,2.628320473e-13,6.490266155e-13,7.127367957e-13,5.80241981e-13,5.237541444e-13,7.821228677e-13,9.151379167e-13,9.975280637e-13,1.793739617e-12,1.317057573e-12,7.73995407e-13,1.905510182e-12,4.623635711e-13,1.011567161e-13,2.490920365e-13,7.889425505e-13,4.235304041e-13,6.421596707e-13,9.542779263e-13,1.338637735e-12,1.529242082e-12,1.02791824e-13,1.838176332e-12,4.17428497e-13
1.78125,5.192150039e-13,4.342297963e-13,9.178731542e-13,6.333355545e-13,9.961157761e-13,6.394198512e-13,1.380445834e-12,2.058292497e-13,2.675710524e-13,6.501741102e-13,6.998513076e-13,5.735471684e-13,5.225982425e-13,7.748852439e-13,9.086456602e-13,9.947882186e-13,1.771739152e-12,1.298119956e-12,7.635792256e-13,1.873467363e-12,4.550145534e-13,1.022065959e-13,2.503950689e-13,7.80156944e-13,4.22420717e-13,6.328868415e-13,9.412326884e-13,1.333548759e-12,1.504751377e-12,1.015346008e-13,1.822391366e-12,4.149516908e-13
1.7890625,5.143509636e-13,4.282301592e-13,9.098161992e-13,6.231324721e-13,9.764757571e-13,6.312037225e-13,1.379637953e-12,2.013575596e-13,2.72394324e-13,6.510665653e-13,6.867833975e-13,5.666869491e-13,5.210352572e-13,7.671084252e-13,9.016929496e-13,9.920931737e-13,1.748886147e-12,1.278282579e-12,7.526497435e-13,1.840600506e-12,4.474985593e-13,1.033394053e-13,2.517305821e-13,7.711265925e-13,4.211320738e-13,6.232300982e-13,9.278289333e-13,1.328081493e-12,1.479474106e-12,1.003056184e-13,1.804650593e-12,4.12365509e-13
1.796875,5.092506494e-13,4.217336803e-13,9.019080631e-13,6.126665805e-13,9.561278194e-13,6.224000655e-13,1.377885222e-12,1.96861816e-13,2.771165262e-13,6.518516054e-13,6.734111216e-13,5.592864837e-13,5.185647292e-13,7.583311966e-13,8.938250754e-13,9.889773852e-13,1.725332558e-12,1.257198357e-12,7.4098831e-13,1.80716357e-12,4.400257017e-13,1.04472726e-13,2.531591497e-13,7.621393e-13,4.194418198e-13,6.131457042e-13,9.139959536e-13,1.322168739e-12,1.453078857e-12,9.903519594e-14,1.784838417e-12,4.097252998e-13
1.8046875,5.037677875e-13,4.147941077e-13,8.938972168e-13,6.01890009e-13,9.353431357e-13,6.131685828e-13,1.375019837e-12,1.923214772e-13,2.815144973e-13,6.524447313e-13,6.594757379e-13,5.513072755e-13,5.153669541e-13,7.487355844e-13,8.853536149e-13,9.855420082e-13,1.701366808e-12,1.235325183e-12,7.287555543e-13,1.773161169e-12,4.324928045e-13,1.055422689e-13,2.546607676e-13,7.532996192e-13,4.174008125e-13,6.027276026e-13,8.997880054e-13,1.315566968e-12,1.4256766e-12,9.761501413e-14,1.763457278e-12,4.070617257e-13
