"Time","Fp1","AF3","F7","F3","FC1","FC5","T7","C3","CP1","CP5","P7","P3","Pz","PO3","O1","Oz","O2","PO4","P4","P8","CP6","CP2","C4","T8","FC6","FC2","F4","F8","AF4","Fp2","Fz","Cz"
0.0078125,5.762290436e-14,6.936292157e-14,1.010418052e-13,1.301818066e-13,2.863271632e-13,1.258890515e-13,1.037526172e-13,3.290570098e-13,1.921484974e-14,1.634002705e-13,1.822296226e-13,2.168876353e-13,1.56384859e-13,2.771528072e-13,1.325418936e-13,1.462073972e-13,1.517291596e-13,2.806179408e-13,1.25212998e-13,1.092682278e-13,1.836470746e-13,2.06208188e-15,4.045208597e-14,5.496135234e-14,6.506791527e-14,1.489090661e-13,2.400461179e-13,8.211077763e-14,1.523634639e-13,2.859102976e-14,3.038653826e-13,1.898006545e-13
0.015625,6.667909372e-14,7.37177845e-14,1.092316651e-13,1.455194539e-13,3.106908864e-13,1.413535827e-13,1.121414733e-13,3.450881984e-13,2.042902004e-14,1.709022984e-13,2.02505677e-13,2.391656952e-13,1.746934013e-13,3.081428156e-13,1.438655119e-13,1.61258954e-13,1.65760105e-13,3.028808516e-13,1.361921218e-13,1.171639915e-13,2.026134787e-13,2.111925155e-15,4.791505869e-14,6.087938503e-14,8.280826627e-14,1.550372741e-13,2.44125184e-13,9.034910679e-14,1.562311045e-13,3.071721364e-14,3.11123452e-13,2.054920734e-13
0.0234375,7.656818533e-14,7.720165006e-14,1.14386574e-13,1.577495717e-13,3.290480365e-13,1.540398258e-13,1.18033285e-13,3.516663232e-13,2.175827802e-14,1.748645817e-13,2.195279933e-13,2.598025495e-13,1.924406109e-13,3.360990471e-13,1.518333024e-13,1.741748835e-13,1.78531052e-13,3.223122735e-13,1.457970319e-13,1.233933236e-13,2.195290685e-13,2.159160854e-15,5.553557719e-14,6.60011547e-14,1.03145709e-13,1.594553649e-13,2.415602346e-13,9.802122355e-14,1.572513948e-13,3.27551362e-14,3.118713043e-13,2.200489994e-13
0.03125,8.708683188e-14,7.975742172e-14,1.165637215e-13,1.65993744e-13,3.406328054e-13,1.6321911e-13,1.207900487e-13,3.486711282e-13,2.344958484e-14,1.754042884e-13,2.317298477e-13,2.779271471e-13,2.087651768e-13,3.598025274e-13,1.559284509e-13,1.844253096e-13,1.893589836e-13,3.381197117e-13,1.535157112e-13,1.277090484e-13,2.337438605e-13,2.289630025e-15,6.286211791e-14,7.043478403e-14,1.258009874e-13,1.623388478e-13,2.33207698e-13,1.04853694e-13,1.557046561e-13,3.444414641e-14,3.064964146e-13,2.335533819e-13
0.0390625,9.787420154e-14,8.123959493e-14,1.164845671e-13,1.693545471e-13,3.447569068e-13,1.686395514e-13,1.204711222e-13,3.372889588e-13,2.569775732e-14,1.730742041e-13,2.382721693e-13,2.927481821e-13,2.226871612e-13,3.778160683e-13,1.558586402e-13,1.915968309e-13,1.977983663e-13,3.497001494e-13,1.591075825e-13,1.305867763e-13,2.44959849e-13,2.596412297e-15,6.905017297e-14,7.461828167e-14,1.497921926e-13,1.642186591e-13,2.200225724e-13,1.10644933e-13,1.519634012e-13,3.586827314e-14,2.96071406e-13,2.461983629e-13
0.046875,1.086220236e-13,8.196280458e-14,1.146487101e-13,1.674277375e-13,3.414779408e-13,1.702131525e-13,1.176161485e-13,3.193876595e-13,2.861076439e-14,1.683908445e-13,2.386309545e-13,3.037924723e-13,2.338446135e-13,3.890560034e-13,1.513257957e-13,1.951917708e-13,2.034151564e-13,3.566109767e-13,1.624557065e-13,1.323127316e-13,2.524945851e-13,3.158566963e-15,7.37164626e-14,7.959057649e-14,1.74239885e-13,1.658189088e-13,2.043477012e-13,1.152454794e-13,1.471620025e-13,3.700666226e-14,2.826840997e-13,2.57086295e-13
0.0546875,1.188991705e-13,8.244788068e-14,1.11569546e-13,1.612182898e-13,3.321748795e-13,1.689868479e-13,1.118301045e-13,2.978486737e-13,3.230306932e-14,1.620725075e-13,2.328522463e-13,3.105576707e-13,2.417951076e-13,3.930156233e-13,1.429436828e-13,1.950099548e-13,2.056999008e-13,3.582788644e-13,1.633969957e-13,1.336607828e-13,2.561062134e-13,4.118314975e-15,7.663980225e-14,8.538183785e-14,1.977484273e-13,1.675549386e-13,1.880991581e-13,1.185932516e-13,1.424418671e-13,3.782155714e-14,2.68134634e-13,2.65207311e-13
0.0625,1.284445115e-13,8.267624735e-14,1.084627423e-13,1.51876075e-13,3.183038562e-13,1.654215384e-13,1.042207012e-13,2.751269747e-13,3.679693981e-14,1.545045848e-13,2.222783089e-13,3.131906195e-13,2.456917017e-13,3.901645382e-13,1.318083682e-13,1.909703051e-13,2.041669993e-13,3.541165571e-13,1.618743093e-13,1.353871867e-13,2.554750262e-13,5.491135253e-15,7.741082104e-14,9.258155344e-14,2.191824718e-13,1.694100383e-13,1.719975369e-13,1.207901401e-13,1.378427354e-13,3.837275651e-14,2.533102578e-13,2.699876536e-13
0.0703125,1.364142594e-13,8.272799971e-14,1.056324659e-13,1.409346133e-13,3.018683567e-13,1.604448511e-13,9.55482053e-14,2.534876399e-13,4.179540376e-14,1.460069692e-13,2.081198659e-13,3.115899674e-13,2.451285565e-13,3.816876375e-13,1.191871826e-13,1.835070048e-13,1.991148827e-13,3.442837372e-13,1.581718162e-13,1.376393899e-13,2.502070587e-13,7.239623058e-15,7.563569055e-14,1.013602359e-13,2.36459519e-13,1.713380981e-13,1.571964621e-13,1.219799301e-13,1.333562031e-13,3.851510883e-14,2.390022071e-13,2.711686955e-13
0.078125,1.423368347e-13,8.296818539e-14,1.033955464e-13,1.300138877e-13,2.839425761e-13,1.553315168e-13,8.569282937e-14,2.344675658e-13,4.640259839e-14,1.369777863e-13,1.918316951e-13,3.058666539e-13,2.402148911e-13,3.683729443e-13,1.061989088e-13,1.737472485e-13,1.91480611e-13,3.295947186e-13,1.526946524e-13,1.403113629e-13,2.404650008e-13,9.361911843e-15,7.187534122e-14,1.109154005e-13,2.488827002e-13,1.732167084e-13,1.442011844e-13,1.22482379e-13,1.29189261e-13,3.831881107e-14,2.261742349e-13,2.675776581e-13
0.0859375,1.461971063e-13,8.316438529e-14,1.019553369e-13,1.19860531e-13,2.649961632e-13,1.499136179e-13,7.538143836e-14,2.189953888e-13,5.013453067e-14,1.273744338e-13,1.748521175e-13,2.969400112e-13,2.309609981e-13,3.507917117e-13,9.333989104e-14,1.619822267e-13,1.813118472e-13,3.102517307e-13,1.45319484e-13,1.422073484e-13,2.264853803e-13,1.170639984e-14,6.679943009e-14,1.202041174e-13,2.55693276e-13,1.738586473e-13,1.328469687e-13,1.225414181e-13,1.253291437e-13,3.785571188e-14,2.146989775e-13,2.581868425e-13
0.09375,1.46896649e-13,8.278886653e-14,1.002223522e-13,1.109011197e-13,2.454123087e-13,1.441336153e-13,6.460879684e-14,2.064955383e-13,5.231757882e-14,1.173587543e-13,1.578420546e-13,2.85222139e-13,2.171728267e-13,3.288882383e-13,8.088588632e-14,1.480836081e-13,1.686315676e-13,2.863664215e-13,1.357943467e-13,1.424841764e-13,2.08723095e-13,1.412752999e-14,6.084245081e-14,1.284133642e-13,2.55755665e-13,1.723535768e-13,1.226107695e-13,1.218056997e-13,1.211494864e-13,3.67827179e-14,2.041014366e-13,2.433913496e-13
0.1015625,1.441663418e-13,8.140818936e-14,9.812097449e-14,1.033657086e-13,2.25347478e-13,1.378435581e-13,5.438293826e-14,1.961084758e-13,5.26852748e-14,1.0710579e-13,1.419879752e-13,2.714287587e-13,1.995856531e-13,3.032026167e-13,6.929669157e-14,1.325771439e-13,1.543776976e-13,2.591871174e-13,1.245793814e-13,1.408826665e-13,1.881976702e-13,1.64751995e-14,5.467839547e-14,1.341662313e-13,2.49116468e-13,1.685528594e-13,1.129949462e-13,1.203604715e-13,1.161131552e-13,3.52724358e-14,1.940655249e-13,2.235746977e-13
0.109375,1.384378024e-13,7.886088297e-14,9.529940224e-14,9.696090052e-14,2.052726492e-13,1.309284283e-13,4.52251062e-14,1.880429275e-13,5.178262577e-14,9.694350865e-14,1.274759872e-13,2.565607316e-13,1.798302518e-13,2.750403333e-13,5.921619531e-14,1.168239924e-13,1.397996961e-13,2.306711727e-13,1.123641489e-13,1.371105151e-13,1.657355716e-13,1.878607142e-14,4.900660889e-14,1.369861332e-13,2.363091885e-13,1.622514142e-13,1.039104733e-13,1.182781224e-13,1.102741044e-13,3.336586207e-14,1.836636253e-13,2.004832399e-13
0.1171875,1.299531082e-13,7.469530494e-14,9.108633741e-14,9.11050989e-14,1.850018272e-13,1.230637052e-13,3.751882544e-14,1.811028199e-13,4.979094674e-14,8.739121313e-14,1.142905302e-13,2.408108027e-13,1.589328232e-13,2.450981126e-13,5.052745861e-14,1.013794625e-13,1.255934649e-13,2.017994392e-13,9.955048434e-14,1.314360134e-13,1.426579858e-13,2.099546005e-14,4.480090462e-14,1.360244666e-13,2.183544045e-13,1.531066868e-13,9.450508393e-14,1.150222365e-13,1.031753281e-13,3.099384871e-14,1.717888371e-13,1.755483513e-13
0.125,1.197861294e-13,6.91069136e-14,8.610610164e-14,8.533060947e-14,1.646783222e-13,1.147956879e-13,3.178086491e-14,1.736703426e-13,4.706463441e-14,7.919029824e-14,1.024888017e-13,2.249681171e-13,1.382379221e-13,2.148910858e-13,4.347756676e-14,8.686165862e-14,1.126094684e-13,1.741331577e-13,8.702879156e-14,1.242847915e-13,1.201720541e-13,2.317233716e-14,4.266242428e-14,1.317588669e-13,1.973021303e-13,1.41492991e-13,8.514452427e-14,1.111523115e-13,9.499485074e-14,2.841353207e-14,1.585205083e-13,1.50334045e-13
0.1328125,1.08816172e-13,6.283950318e-14,8.031423477e-14,7.924391411e-14,1.445870778e-13,1.069810295e-13,2.825399049e-14,1.655995073e-13,4.471311127e-14,7.257959785e-14,9.203632269e-14,2.093275225e-13,1.190739905e-13,1.857963781e-13,3.811035019e-14,7.401108667e-14,1.013827246e-13,1.489023043e-13,7.543351513e-14,1.160328774e-13,9.894460303e-14,2.570776023e-14,4.274536893e-14,1.245490854e-13,1.750600109e-13,1.279866602e-13,7.605665742e-14,1.062921674e-13,8.680242614e-14,2.576666053e-14,1.440818751e-13,1.269116848e-13
0.140625,9.783185753e-14,5.611579111e-14,7.392280291e-14,7.262185912e-14,1.252058326e-13,9.932879949e-14,2.678664573e-14,1.578260049e-13,4.328688085e-14,6.759537484e-14,8.222242695e-14,1.934827214e-13,1.022005314e-13,1.585184422e-13,3.440201576e-14,6.319724824e-14,9.224118828e-14,1.263458596e-13,6.496198949e-14,1.08104874e-13,7.953751511e-14,2.881404914e-14,4.527279533e-14,1.152905768e-13,1.530597668e-13,1.133583415e-13,6.712777938e-14,1.00431876e-13,7.879909648e-14,2.315211659e-14,1.278664694e-13,1.066797055e-13
0.1484375,8.758440737e-14,4.98937529e-14,6.739966335e-14,6.560152758e-14,1.069335885e-13,9.257714724e-14,2.718210467e-14,1.505507863e-13,4.31407156e-14,6.420785288e-14,7.29093972e-14,1.776741292e-13,8.822537209e-14,1.337025395e-13,3.237488178e-14,5.494541841e-14,8.59174213e-14,1.069554802e-13,5.604029228e-14,1.02075265e-13,6.290592862e-14,3.265874604e-14,5.036050455e-14,1.057865344e-13,1.327272668e-13,9.941204683e-14,5.984651541e-14,9.376146764e-14,7.198868596e-14,2.087884537e-14,1.118616951e-13,9.106937259e-14
0.15625,7.871663694e-14,4.499715628e-14,6.108572593e-14,5.884302261e-14,9.082615799e-14,8.692859764e-14,2.93643331e-14,1.442338526e-13,4.429197308e-14,6.202857902e-14,6.426433901e-14,1.621466498e-13,7.745952644e-14,1.119902759e-13,3.214056945e-14,4.934644227e-14,8.253157477e-14,9.12174963e-14,4.892451401e-14,9.847757602e-14,4.935047051e-14,3.730658334e-14,5.764489439e-14,9.676297886e-14,1.151012014e-13,8.665137494e-14,5.446834352e-14,8.690049036e-14,6.719863324e-14,1.916060932e-14,9.673130596e-14,8.053677393e-14
0.1640625,7.180608014e-14,4.17179433e-14,5.550412881e-14,5.298464755e-14,7.674700482e-14,8.269152747e-14,3.302628291e-14,1.393236535e-13,4.684089775e-14,6.112253267e-14,5.595931198e-14,1.471026334e-13,7.000062238e-14,9.380569961e-14,3.380710074e-14,4.649115105e-14,8.177016945e-14,7.88572293e-14,4.359843892e-14,9.743791546e-14,3.860167777e-14,4.285985695e-14,6.668379727e-14,8.925671766e-14,1.007269022e-13,7.526725695e-14,5.041608396e-14,8.082344588e-14,6.420973824e-14,1.818164195e-14,8.220994107e-14,7.43472058e-14
0.171875,6.681863201e-14,4.049451113e-14,5.0962127e-14,4.818989051e-14,6.494575322e-14,7.998623073e-14,3.775271298e-14,1.363550654e-13,5.076180558e-14,6.096102047e-14,4.795162132e-14,1.326106507e-13,6.561639187e-14,7.86962751e-14,3.719074272e-14,4.616844419e-14,8.350921924e-14,6.967230791e-14,3.987313525e-14,9.941522835e-14,3.076944392e-14,4.921874822e-14,7.711581916e-14,8.401484706e-14,8.96897531e-14,6.661910401e-14,4.838895564e-14,7.557121037e-14,6.359615227e-14,1.81160093e-14,7.021053841e-14,7.264513339e-14
0.1796875,6.398496454e-14,4.144569029e-14,4.806577349e-14,4.519306687e-14,5.581922699e-14,7.889426138e-14,4.361024501e-14,1.354913016e-13,5.573852708e-14,6.144496523e-14,4.045595576e-14,1.187616015e-13,6.423051732e-14,6.648198335e-14,4.184760215e-14,4.787829686e-14,8.690125562e-14,6.347530933e-14,3.751957079e-14,1.032437797e-13,2.540037804e-14,5.62837856e-14,8.859999432e-14,8.10597574e-14,8.192798279e-14,6.029436586e-14,4.806678158e-14,7.202920197e-14,6.527442546e-14,1.914017678e-14,6.029599189e-14,7.436295169e-14
0.1875,6.285852523e-14,4.417271186e-14,4.730222438e-14,4.402911141e-14,4.892966923e-14,7.950710234e-14,5.016903231e-14,1.366906193e-13,6.158155682e-14,6.230303677e-14,3.340094357e-14,1.056847354e-13,6.526837107e-14,5.651921563e-14,4.747805991e-14,5.103269314e-14,9.082717486e-14,5.93477497e-14,3.61282226e-14,1.076008479e-13,2.176594681e-14,6.373192182e-14,9.984276744e-14,7.980041295e-14,7.679945721e-14,5.562869193e-14,4.920581179e-14,7.053149065e-14,6.875452083e-14,2.12202503e-14,5.247364916e-14,7.807198123e-14
0.1953125,6.3795496e-14,4.869909898e-14,4.874276342e-14,4.483939698e-14,4.476788766e-14,8.240062216e-14,5.734445806e-14,1.408224593e-13,6.874977552e-14,6.367993706e-14,2.723329239e-14,9.403910197e-14,6.855440161e-14,4.863722222e-14,5.416896468e-14,5.567161624e-14,9.536749101e-14,5.725840434e-14,3.574884003e-14,1.120815545e-13,1.976293645e-14,7.117877558e-14,1.101672432e-13,8.033226515e-14,7.471243293e-14,5.297244853e-14,5.195859417e-14,7.116591878e-14,7.435372654e-14,2.489023423e-14,4.768049112e-14,8.329112181e-14
0.203125,6.677740266e-14,5.503165462e-14,5.23278429e-14,4.758482053e-14,4.301009165e-14,8.77488592e-14,6.514752741e-14,1.491183942e-13,7.771796543e-14,6.575241924e-14,2.203004575e-14,8.431162928e-14,7.392863752e-14,4.274079192e-14,6.133193575e-14,6.064052589e-14,9.907914748e-14,5.657517318e-14,3.631064691e-14,1.153227031e-13,1.880072755e-14,7.837691947e-14,1.187817817e-13,8.266783185e-14,7.480618348e-14,5.150451351e-14,5.63617367e-14,7.425944497e-14,8.262455313e-14,3.044502213e-14,4.57208658e-14,8.862160815e-14
0.2109375,7.131688666e-14,6.237374899e-14,5.87896396e-14,5.155972352e-14,4.256377376e-14,9.542205201e-14,7.294591332e-14,1.599573052e-13,8.824073657e-14,6.810889167e-14,1.797728856e-14,7.638885135e-14,8.074378409e-14,3.847204803e-14,6.851568027e-14,6.551519424e-14,1.011532576e-13,5.682385177e-14,3.748187804e-14,1.167294051e-13,1.84952722e-14,8.50603696e-14,1.252368886e-13,8.679957974e-14,7.703281743e-14,5.055739974e-14,6.139045681e-14,7.940526599e-14,9.223845228e-14,3.757949486e-14,4.573304104e-14,9.381877635e-14
0.21875,7.703964939e-14,7.020071127e-14,6.792521505e-14,5.636852868e-14,4.333851307e-14,1.044782156e-13,8.044510917e-14,1.744353779e-13,1.006871591e-13,7.116874813e-14,1.53280706e-14,7.051684548e-14,8.837795759e-14,3.531132799e-14,7.541313602e-14,7.041404292e-14,1.014856117e-13,5.780630313e-14,3.910306407e-14,1.160763835e-13,1.835280647e-14,9.075706701e-14,1.301730165e-13,9.207604093e-14,8.074270776e-14,4.98146416e-14,6.711470419e-14,8.571725381e-14,1.028564739e-13,4.631423707e-14,4.73470365e-14,9.86990645e-14
0.2265625,8.349338845e-14,7.836152687e-14,7.974680962e-14,6.215206937e-14,4.496367148e-14,1.146272564e-13,8.670552844e-14,1.916282827e-13,1.143606055e-13,7.489718284e-14,1.415323348e-14,6.645848962e-14,9.65202351e-14,3.343728474e-14,8.277738723e-14,7.604594206e-14,1.010799846e-13,5.972004527e-14,4.144382897e-14,1.136662126e-13,1.835123308e-14,9.502123236e-14,1.338159866e-13,9.803936906e-14,8.504358797e-14,4.936504854e-14,7.362310982e-14,9.206052063e-14,1.143975863e-13,5.65237397e-14,5.062081085e-14,1.026557032e-13
0.234375,8.997311256e-14,8.597262029e-14,9.302150739e-14,6.829497789e-14,4.662677467e-14,1.246518493e-13,9.203103532e-14,2.088619771e-13,1.28177889e-13,7.857073138e-14,1.416181536e-14,6.413732199e-14,1.045494744e-13,3.272972536e-14,9.028910098e-14,8.206270947e-14,1.004408716e-13,6.174163407e-14,4.428534655e-14,1.101543912e-13,1.830966486e-14,9.751630321e-14,1.36378275e-13,1.037122666e-13,8.953993449e-14,4.949334281e-14,8.02269218e-14,9.690355231e-14,1.259715715e-13,6.749248776e-14,5.541938264e-14,1.050142407e-13
0.2421875,9.548190237e-14,9.224236143e-14,1.059919391e-13,7.420687703e-14,4.821338852e-14,1.331267326e-13,9.623123054e-14,2.248404976e-13,1.408614588e-13,8.211759214e-14,1.518259813e-14,6.304198177e-14,1.114215072e-13,3.244205747e-14,9.750642598e-14,8.800127935e-14,9.89262044e-14,6.31770929e-14,4.721519238e-14,1.060787256e-13,1.814006084e-14,9.823555493e-14,1.378442989e-13,1.089880179e-13,9.311059357e-14,4.981306257e-14,8.671382359e-14,9.91723127e-14,1.363500801e-13,7.774959874e-14,6.097597952e-14,1.063643623e-13
0.25,9.951908341e-14,9.767738793e-14,1.178758526e-13,8.026661715e-14,4.9578193e-14,1.402641254e-13,9.9299916e-14,2.385003968e-13,1.51286319e-13,8.573534345e-14,1.735510716e-14,6.259996864e-14,1.172331539e-13,3.281563286e-14,1.050804667e-13,9.468403976e-14,9.731758613e-14,6.458313569e-14,5.051907416e-14,1.021476981e-13,1.801491033e-14,9.747044892e-14,1.381439685e-13,1.114828591e-13,9.547836165e-14,5.059976844e-14,9.32603561e-14,9.855931862e-14,1.453183977e-13,8.662251386e-14,6.716267699e-14,1.068505604e-13
0.2578125,1.019491764e-13,1.024768207e-13,1.285974049e-13,8.654897609e-14,5.123368031e-14,1.454981935e-13,1.011105534e-13,2.493985025e-13,1.587978394e-13,8.831116195e-14,2.020351015e-14,6.275227307e-14,1.217910558e-13,3.413526473e-14,1.139500521e-13,1.031748653e-13,9.688181667e-14,6.620886582e-14,5.409491145e-14,9.853867731e-14,1.761789884e-14,9.501816432e-14,1.37853195e-13,1.113591626e-13,9.609046249e-14,5.18532267e-14,9.999897785e-14,9.61973833e-14,1.523624392e-13,9.353154227e-14,7.374158392e-14,1.062112028e-13
0.265625,1.020695113e-13,1.063775877e-13,1.367278661e-13,9.278971671e-14,5.274689241e-14,1.479224508e-13,1.032001833e-13,2.557746239e-13,1.619279986e-13,8.942472049e-14,2.379261627e-14,6.336276483e-14,1.243574544e-13,3.590579836e-14,1.240190817e-13,1.132288716e-13,9.765043579e-14,6.722500783e-14,5.750641601e-14,9.575118183e-14,1.705563279e-14,9.108030461e-14,1.368216089e-13,1.094045536e-13,9.433230225e-14,5.350515984e-14,1.067209435e-13,9.099011044e-14,1.569650235e-13,9.756933379e-14,8.020931277e-14,1.03769596e-13
0.2734375,9.971758099e-14,1.091710316e-13,1.409224551e-13,9.900482349e-14,5.456709695e-14,1.48102583e-13,1.056610502e-13,2.573646997e-13,1.602903842e-13,8.860548805e-14,2.768283856e-14,6.342034334e-14,1.242774822e-13,3.774007995e-14,1.343840374e-13,1.237886836e-13,9.919357472e-14,6.715146427e-14,6.028743198e-14,9.38544719e-14,1.634402987e-14,8.594194291e-14,1.346847079e-13,1.054487101e-13,9.017982467e-14,5.534832141e-14,1.133518775e-13,8.369389196e-14,1.586039577e-13,9.801668293e-14,8.613878852e-14,1.003136329e-13
0.28125,9.49799707e-14,1.103041151e-13,1.409284302e-13,1.056543195e-13,5.726080786e-14,1.469230839e-13,1.081156788e-13,2.556576966e-13,1.533446006e-13,8.636638892e-14,3.247291237e-14,6.296507281e-14,1.2186081e-13,3.948016544e-14,1.45155975e-13,1.352968449e-13,1.013024891e-13,6.672320307e-14,6.254761621e-14,9.286646974e-14,1.574616602e-14,7.988721521e-14,1.318594252e-13,9.976070562e-14,8.398607441e-14,5.68077084e-14,1.191065326e-13,7.543486984e-14,1.569571977e-13,9.497050725e-14,9.061375493e-14,9.583908871e-14
0.2890625,8.853860534e-14,1.103162523e-13,1.381314597e-13,1.128107505e-13,6.056659613e-14,1.451602662e-13,1.101147703e-13,2.51096071e-13,1.421630048e-13,8.28681215e-14,3.839150236e-14,6.237754558e-14,1.175619738e-13,4.128115147e-14,1.560892129e-13,1.477521396e-13,1.038870518e-13,6.623139593e-14,6.403990136e-14,9.287787667e-14,1.552639066e-14,7.328404892e-14,1.287272276e-13,9.261238875e-14,7.668155899e-14,5.794704998e-14,1.239207493e-13,6.728415346e-14,1.531589453e-13,8.915827448e-14,9.384729569e-14,9.06772961e-14
0.296875,8.083368567e-14,1.0890849e-13,1.341302092e-13,1.206972865e-13,6.496072114e-14,1.426849839e-13,1.116351328e-13,2.451491197e-13,1.279960276e-13,7.861534677e-14,4.617348253e-14,6.231336907e-14,1.109954006e-13,4.286497618e-14,1.665835387e-13,1.605667303e-13,1.06027714e-13,6.576242451e-14,6.464836604e-14,9.38554055e-14,1.581381528e-14,6.627059464e-14,1.251777088e-13,8.532197593e-14,6.851751407e-14,5.837237539e-14,1.260040765e-13,6.014676816e-14,1.46755001e-13,8.156004366e-14,9.527207619e-14,8.541692968e-14
0.3046875,7.241335381e-14,1.061481928e-13,1.307723412e-13,1.295004378e-13,7.047913088e-14,1.403876862e-13,1.123494764e-13,2.390801262e-13,1.122695817e-13,7.435906749e-14,5.653841205e-14,6.283542953e-14,1.026063966e-13,4.44672626e-14,1.767296615e-13,1.737038749e-13,1.075713078e-13,6.58042943e-14,6.476593126e-14,9.569000828e-14,1.677155111e-14,5.924366618e-14,1.212886503e-13,7.879208241e-14,6.033179668e-14,5.792972471e-14,1.250172462e-13,5.435590612e-14,1.377681745e-13,7.319668645e-14,9.464774758e-14,8.064780038e-14
0.3125,6.419328416e-14,1.020160961e-13,1.299068093e-13,1.392782308e-13,7.706424032e-14,1.385294656e-13,1.114514203e-13,2.341136082e-13,9.598505774e-14,7.102572543e-14,7.01959393e-14,6.397652925e-14,9.296096073e-14,4.650051778e-14,1.868932041e-13,1.874484825e-13,1.085455402e-13,6.71039963e-14,6.459042297e-14,9.856864171e-14,1.880840914e-14,5.248754594e-14,1.170013096e-13,7.256588482e-14,5.223817245e-14,5.657819332e-14,1.202654414e-13,5.063326969e-14,1.263977231e-13,6.520303913e-14,9.186399874e-14,7.712120291e-14
0.3203125,5.658355799e-14,9.682703894e-14,1.321836504e-13,1.501533392e-13,8.396693324e-14,1.372743734e-13,1.092239822e-13,2.300173544e-13,8.015952511e-14,6.896744168e-14,8.770972796e-14,6.637420899e-14,8.318160987e-14,4.931703022e-14,1.96881809e-13,2.010455768e-13,1.091020259e-13,7.032459396e-14,6.4746331e-14,1.027062796e-13,2.212210086e-14,4.602503168e-14,1.130106894e-13,6.68413923e-14,4.462794344e-14,5.512624233e-14,1.126046957e-13,4.985288782e-14,1.140035293e-13,5.880424232e-14,8.804712509e-14,7.447875834e-14
0.328125,5.003900814e-14,9.117547644e-14,1.369915819e-13,1.614813338e-13,9.029612088e-14,1.367302521e-13,1.058035288e-13,2.25639854e-13,6.572362596e-14,6.849733796e-14,1.082191668e-13,7.026634952e-14,7.353546621e-14,5.29756487e-14,2.061137304e-13,2.134985406e-13,1.090098975e-13,7.534909293e-14,6.534491722e-14,1.076087426e-13,2.658282515e-14,4.01937299e-14,1.091899129e-13,6.218606715e-14,3.827337685e-14,5.380913883e-14,1.025704369e-13,5.164240632e-14,1.016214736e-13,5.458040133e-14,8.363934107e-14,7.279253646e-14
0.3359375,4.462037416e-14,8.510868796e-14,1.436603668e-13,1.726902592e-13,9.591730046e-14,1.37312717e-13,1.014061031e-13,2.210432387e-13,5.332627378e-14,7.000591023e-14,1.313917544e-13,7.550821648e-14,6.450435674e-14,5.730183925e-14,2.136128505e-13,2.235608499e-13,1.087297115e-13,8.242341915e-14,6.66167827e-14,1.131619084e-13,3.207910841e-14,3.516240099e-14,1.053153671e-13,5.873750283e-14,3.316477747e-14,5.274089581e-14,9.133071577e-14,5.599495865e-14,8.972507725e-14,5.262094824e-14,7.88317263e-14,7.267255328e-14
0.34375,4.0429657e-14,7.987794876e-14,1.505320018e-13,1.839053197e-13,1.012393841e-13,1.394542388e-13,9.706039025e-14,2.16613099e-13,4.29322984e-14,7.34429949e-14,1.562825311e-13,8.149408292e-14,5.701358407e-14,6.284601312e-14,2.202089439e-13,2.325361421e-13,1.101887156e-13,9.27877657e-14,6.910564157e-14,1.206062623e-13,3.872834625e-14,3.087505493e-14,1.016927231e-13,5.69336805e-14,2.982120985e-14,5.306660301e-14,8.128392928e-14,6.226487068e-14,7.941329267e-14,5.289968284e-14,7.523953954e-14,7.376463249e-14
0.3515625,3.762427305e-14,7.572107086e-14,1.558914568e-13,1.92284241e-13,1.047274312e-13,1.425318097e-13,9.395342387e-14,2.112191676e-13,3.443696048e-14,7.893016574e-14,1.805682609e-13,8.79928563e-14,5.126480193e-14,6.921859372e-14,2.240235756e-13,2.380899451e-13,1.125600677e-13,1.05461896e-13,7.230124749e-14,1.286884285e-13,4.574086916e-14,2.730625605e-14,9.881557379e-14,5.709556833e-14,2.86855198e-14,5.468246677e-14,7.386207026e-14,6.982503778e-14,7.154896165e-14,5.522750399e-14,7.283541619e-14,7.557093183e-14
0.359375,3.598998635e-14,7.293418147e-14,1.578638845e-13,1.966587181e-13,1.058419702e-13,1.461401778e-13,9.12564716e-14,2.043260729e-13,2.779840347e-14,8.571733854e-14,2.022947111e-13,9.472093192e-14,4.745700819e-14,7.564036622e-14,2.231591914e-13,2.386301658e-13,1.158432832e-13,1.192863215e-13,7.583173204e-14,1.365179633e-13,5.265355763e-14,2.445038184e-14,9.659009004e-14,5.938231044e-14,2.970881505e-14,5.746138403e-14,7.059656178e-14,7.756339069e-14,6.686812254e-14,5.847933285e-14,7.228185209e-14,7.774827788e-14
0.3671875,3.503845973e-14,7.110340475e-14,1.548281429e-13,1.962540502e-13,1.043791108e-13,1.487273206e-13,8.897810067e-14,1.955884729e-13,2.265738062e-14,9.307998099e-14,2.191270863e-13,1.005241981e-13,4.50588323e-14,8.070586482e-14,2.167183357e-13,2.334031323e-13,1.196075408e-13,1.320120946e-13,7.856328782e-14,1.425555176e-13,5.856602325e-14,2.21256248e-14,9.498833684e-14,6.38261235e-14,3.271611908e-14,6.08202731e-14,7.128746965e-14,8.386946349e-14,6.470523241e-14,6.174665303e-14,7.326413374e-14,7.949370541e-14
0.375,3.488745278e-14,6.995028471e-14,1.470797448e-13,1.913622377e-13,1.003423911e-13,1.499072326e-13,8.616321927e-14,1.853755837e-13,1.858415202e-14,9.995460752e-14,2.291845819e-13,1.043384111e-13,4.369738218e-14,8.394278854e-14,2.0521107e-13,2.230565234e-13,1.241001927e-13,1.431770534e-13,7.990442445e-14,1.465146305e-13,6.279811678e-14,2.033154856e-14,9.382658043e-14,6.992297701e-14,3.799317689e-14,6.438925419e-14,7.533273824e-14,8.787132766e-14,6.472809746e-14,6.424913005e-14,7.55142443e-14,8.067870937e-14
0.3828125,3.562877167e-14,6.913457258e-14,1.353335783e-13,1.818629638e-13,9.405102394e-14,1.479388189e-13,8.299819354e-14,1.738552464e-13,1.53518536e-14,1.050919789e-13,2.319937495e-13,1.05816192e-13,4.31970842e-14,8.566872947e-14,1.898003595e-13,2.086524806e-13,1.296105153e-13,1.5231902e-13,7.96315229e-14,1.488871477e-13,6.489069724e-14,1.881744966e-14,9.311225515e-14,7.739606562e-14,4.488080579e-14,6.829103884e-14,8.218421895e-14,8.909335107e-14,6.668141841e-14,6.56977402e-14,7.886626251e-14,8.113779257e-14
0.390625,3.659283307e-14,6.838243509e-14,1.204461872e-13,1.687814845e-13,8.656188891e-14,1.427193539e-13,7.963774928e-14,1.608300487e-13,1.256297253e-14,1.080587912e-13,2.275066593e-13,1.04864671e-13,4.318341208e-14,8.601436315e-14,1.717636357e-13,1.917283794e-13,1.350194238e-13,1.58507674e-13,7.755535265e-14,1.489783361e-13,6.469442429e-14,1.753464522e-14,9.235981591e-14,8.664997206e-14,5.294816375e-14,7.203628246e-14,9.034141051e-14,8.782798637e-14,6.899890652e-14,6.519725578e-14,8.263957812e-14,8.080009267e-14
0.3984375,3.785604076e-14,6.73091899e-14,1.037716695e-13,1.524568186e-13,7.782596271e-14,1.336234159e-13,7.524015946e-14,1.467441236e-13,1.027364445e-14,1.087484949e-13,2.161388929e-13,1.015644587e-13,4.364981093e-14,8.44653081e-14,1.517400997e-13,1.73412773e-13,1.398412763e-13,1.608813453e-13,7.356322167e-14,1.46770736e-13,6.2569561e-14,1.655732018e-14,9.142615634e-14,9.602216568e-14,6.133298352e-14,7.579790977e-14,9.92263407e-14,8.464436711e-14,7.138342878e-14,6.287022185e-14,8.675599704e-14,8.014673716e-14
0.40625,3.86590286e-14,6.540925687e-14,8.639707206e-14,1.341338739e-13,6.855133373e-14,1.213188874e-13,7.021781592e-14,1.320108479e-13,8.591412453e-15,1.066093669e-13,1.989619629e-13,9.587084582e-14,4.43258119e-14,8.101306871e-14,1.306619055e-13,1.550397984e-13,1.435527216e-13,1.591587889e-13,6.753429128e-14,1.423699129e-13,5.864385915e-14,1.575326794e-14,9.07577739e-14,1.051420794e-13,6.900140769e-14,7.950037674e-14,1.068199563e-13,8.006887758e-14,7.305581959e-14,5.863777744e-14,9.079189927e-14,7.929207894e-14
0.4140625,3.908308232e-14,6.253366539e-14,7.011093938e-14,1.161990312e-13,5.958793319e-14,1.073482463e-13,6.487486716e-14,1.172805403e-13,7.240772655e-15,1.018094911e-13,1.775432377e-13,8.804866768e-14,4.55182965e-14,7.638805362e-14,1.109895425e-13,1.387133181e-13,1.467050506e-13,1.545024552e-13,6.027008308e-14,1.365681387e-13,5.365840575e-14,1.520764996e-14,9.021110943e-14,1.12734843e-13,7.565692174e-14,8.306809275e-14,1.120700099e-13,7.534393328e-14,7.36262796e-14,5.303010119e-14,9.421408734e-14,7.866512543e-14
0.421875,3.882396339e-14,5.902758729e-14,5.559537468e-14,9.975379208e-14,5.146118346e-14,9.203941474e-14,5.985104185e-14,1.021455257e-13,6.436913781e-15,9.479792502e-14,1.536970142e-13,7.888910066e-14,4.732358358e-14,7.170998725e-14,9.429220075e-14,1.25583454e-13,1.495028576e-13,1.474214584e-13,5.247455253e-14,1.300264452e-13,4.831409477e-14,1.493997229e-14,8.976762823e-14,1.182900408e-13,8.031632954e-14,8.731459266e-14,1.150321631e-13,7.087712067e-14,7.333366532e-14,4.688932703e-14,9.760653407e-14,7.887032182e-14
0.4296875,3.756387542e-14,5.505631246e-14,4.332209783e-14,8.639119169e-14,4.536246268e-14,7.705896247e-14,5.541998732e-14,8.773709036e-14,6.091074758e-15,8.614739947e-14,1.294298513e-13,6.869699427e-14,4.988746429e-14,6.80707079e-14,8.145886318e-14,1.166452389e-13,1.522286972e-13,1.396616071e-13,4.485749057e-14,1.23062967e-13,4.30818274e-14,1.488397547e-14,8.907121223e-14,1.216966548e-13,8.291654292e-14,9.248927848e-14,1.155802092e-13,6.707521134e-14,7.20234603e-14,4.014732368e-14,1.0123628e-13,8.04956118e-14
0.4375,3.547452596e-14,5.136324111e-14,3.348005554e-14,7.735559493e-14,4.192647484e-14,6.303351671e-14,5.17331727e-14,7.529875656e-14,6.186295805e-15,7.693970876e-14,1.067920353e-13,5.836169341e-14,5.391345763e-14,6.63652105e-14,7.324526984e-14,1.125927085e-13,1.555469735e-13,1.326987744e-13,3.829079187e-14,1.161308577e-13,3.878700952e-14,1.512541542e-14,8.800972375e-14,1.219638619e-13,8.273129512e-14,9.916802333e-14,1.145066105e-13,6.423870034e-14,7.085397898e-14,3.366712131e-14,1.062089283e-13,8.387967311e-14
0.4453125,3.257041069e-14,4.80793262e-14,2.57297479e-14,7.265637846e-14,4.1183475e-14,5.056674946e-14,4.908110483e-14,6.479852489e-14,6.736805431e-15,6.73040008e-14,8.667081374e-14,4.869214595e-14,5.89818738e-14,6.689588469e-14,6.93087849e-14,1.128856959e-13,1.598682736e-13,1.266989121e-13,3.273044029e-14,1.091316758e-13,3.559297375e-14,1.565514071e-14,8.654080113e-14,1.1930215e-13,8.041274203e-14,1.071138006e-13,1.122521454e-13,6.22553034e-14,7.024911214e-14,2.770566896e-14,1.125010499e-13,8.902312461e-14
0.453125,2.921507372e-14,4.575440203e-14,2.020323735e-14,7.294907376e-14,4.348691512e-14,4.087664788e-14,4.728839437e-14,5.661343325e-14,7.635353903e-15,5.789696611e-14,7.012318571e-14,4.035496918e-14,6.506198305e-14,7.008515079e-14,6.960962624e-14,1.177166546e-13,1.66273739e-13,1.230474374e-13,2.885185414e-14,1.025550075e-13,3.372477829e-14,1.645531311e-14,8.388771113e-14,1.135683218e-13,7.650769026e-14,1.160845693e-13,1.094137944e-13,6.118601338e-14,7.058582638e-14,2.246353426e-14,1.202059064e-13,9.615062887e-14
0.4609375,2.540068129e-14,4.463905056e-14,1.662934403e-14,7.742463241e-14,4.858756865e-14,3.326642593e-14,4.611653525e-14,5.064371966e-14,8.797406727e-15,4.881145541e-14,5.717258747e-14,3.379729354e-14,7.214965936e-14,7.562689454e-14,7.367146145e-14,1.268901786e-13,1.750146451e-13,1.218392236e-13,2.679347574e-14,9.699275948e-14,3.30731719e-14,1.745267355e-14,8.068917161e-14,1.059781054e-13,7.133416285e-14,1.262655076e-13,1.07271215e-13,6.067277664e-14,7.188666405e-14,1.814488488e-14,1.292404814e-13,1.052525458e-13
0.46875,2.178787361e-14,4.477663545e-14,1.44578473e-14,8.492029585e-14,5.582222605e-14,2.808505996e-14,4.542139274e-14,4.653037133e-14,9.972720612e-15,4.025843478e-14,4.739030837e-14,2.897621118e-14,8.002705216e-14,8.290142359e-14,8.031438442e-14,1.393351039e-13,1.861633231e-13,1.231133327e-13,2.618435049e-14,9.26561064e-14,3.361309831e-14,1.846181179e-14,7.792222084e-14,9.78090437e-14,6.626684527e-14,1.369669972e-13,1.062636468e-13,6.092295894e-14,7.418678695e-14,1.44774609e-14,1.389381368e-13,1.15260821e-13
0.4765625,1.873731492e-14,4.612568747e-14,1.408639377e-14,9.495921848e-14,6.481091069e-14,2.509429347e-14,4.451205539e-14,4.425925223e-14,1.106021522e-14,3.253209954e-14,4.093362069e-14,2.571430236e-14,8.810069545e-14,9.105519777e-14,8.857167719e-14,1.538560352e-13,1.985990197e-13,1.267971733e-13,2.712668418e-14,8.897656231e-14,3.531130678e-14,1.962975836e-14,7.546281364e-14,8.911457148e-14,6.201970515e-14,1.469403426e-13,1.060314458e-13,6.174392127e-14,7.725856634e-14,1.152848318e-14,1.484438472e-13,1.259267214e-13
0.484375,1.631044676e-14,4.831436457e-14,1.548687805e-14,1.053660294e-13,7.455877622e-14,2.410869522e-14,4.362259646e-14,4.307047674e-14,1.219948605e-14,2.602931148e-14,3.677522431e-14,2.40382207e-14,9.565442834e-14,9.964603691e-14,9.767162745e-14,1.693479981e-13,2.112435115e-13,1.319098355e-13,2.920681752e-14,8.575805857e-14,3.795344526e-14,2.100101153e-14,7.30815627e-14,8.102775308e-14,5.920211466e-14,1.556468539e-13,1.063330089e-13,6.302117626e-14,8.071804295e-14,9.280676726e-15,1.568212717e-13,1.372536102e-13
0.4921875,1.45233939e-14,5.131001317e-14,1.835063553e-14,1.152539341e-13,8.47909115e-14,2.424886789e-14,4.228758641e-14,4.277222363e-14,1.341858732e-14,2.106246415e-14,3.431920373e-14,2.387460285e-14,1.02753878e-13,1.085692622e-13,1.07148201e-13,1.850411601e-13,2.23616417e-13,1.383233405e-13,3.214170122e-14,8.334825704e-14,4.133049245e-14,2.231096165e-14,7.100446286e-14,7.394513195e-14,5.82181607e-14,1.634332408e-13,1.073596898e-13,6.439821922e-14,8.485877285e-14,7.531100775e-15,1.641901626e-13,1.483895458e-13
0.5,1.333011736e-14,5.482338652e-14,2.25725735e-14,1.22880053e-13,9.408430918e-14,2.531949698e-14,4.081946074e-14,4.276892553e-14,1.478836977e-14,1.767549028e-14,3.270975711e-14,2.504185125e-14,1.088873505e-13,1.173150437e-13,1.164525499e-13,2.001849322e-13,2.346376334e-13,1.449704177e-13,3.527094034e-14,8.116783017e-14,4.485067703e-14,2.350652876e-14,6.973734915e-14,6.807857012e-14,5.920213101e-14,1.695380715e-13,1.0865004e-13,6.567458382e-14,8.921136954e-14,6.191031267e-15,1.69353238e-13,1.581810208e-13
0.5078125,1.270622151e-14,5.838331108e-14,2.827902312e-14,1.279105863e-13,1.019488111e-13,2.715853218e-14,3.906199947e-14,4.290187933e-14,1.62790629e-14,1.57878867e-14,3.168356543e-14,2.735664885e-14,1.128585334e-13,1.253404867e-13,1.246463573e-13,2.128530197e-13,2.425289629e-13,1.50238415e-13,3.803297073e-14,7.879110795e-14,4.822884512e-14,2.46690245e-14,6.920304987e-14,6.391692281e-14,6.243899747e-14,1.72634858e-13,1.087788239e-13,6.674080487e-14,9.25790792e-14,5.125870787e-15,1.712274629e-13,1.656646742e-13
0.515625,1.252529315e-14,6.232744143e-14,3.567532295e-14,1.308855074e-13,1.086487881e-13,3.015283049e-14,3.690748876e-14,4.363038593e-14,1.796419877e-14,1.525633366e-14,3.111162758e-14,3.092624348e-14,1.154055357e-13,1.337653232e-13,1.323440169e-13,2.233039866e-13,2.469410876e-13,1.542227562e-13,4.059599456e-14,7.642632e-14,5.117035136e-14,2.574689613e-14,6.835795001e-14,6.092080707e-14,6.746566588e-14,1.726121304e-13,1.080022756e-13,6.812467956e-14,9.544522166e-14,4.25636416e-15,1.703279675e-13,1.703933663e-13
0.5234375,1.260364881e-14,6.589903038e-14,4.438688719e-14,1.3094984e-13,1.133797903e-13,3.431367185e-14,3.478818753e-14,4.472500629e-14,1.9815132e-14,1.595372396e-14,3.065570946e-14,3.551950039e-14,1.16630936e-13,1.41587126e-13,1.381729108e-13,2.297911958e-13,2.46559709e-13,1.55501524e-13,4.240862911e-14,7.362569996e-14,5.296333168e-14,2.662220493e-14,6.701436148e-14,5.916652241e-14,7.395825061e-14,1.690972637e-13,1.053830954e-13,6.907051279e-14,9.774231784e-14,3.651183895e-15,1.668307786e-13,1.711440074e-13
0.53125,1.31691164e-14,6.924053886e-14,5.463702919e-14,1.288539126e-13,1.159340568e-13,4.040861642e-14,3.262685356e-14,4.585532822e-14,2.157005843e-14,1.776146239e-14,3.076303149e-14,4.097498471e-14,1.173025037e-13,1.488012713e-13,1.418880773e-13,2.325970571e-13,2.422469659e-13,1.547883913e-13,4.380474793e-14,7.110049784e-14,5.353258806e-14,2.738543272e-14,6.530540828e-14,5.829232002e-14,8.146180728e-14,1.625904526e-13,1.013353956e-13,6.990875467e-14,9.989952467e-14,3.22721549e-15,1.614790802e-13,1.67392754e-13
0.5390625,1.36673852e-14,7.191705587e-14,6.606711551e-14,1.245926482e-13,1.158819784e-13,4.795184768e-14,3.058927367e-14,4.705940141e-14,2.333860966e-14,2.030196573e-14,3.104564431e-14,4.68173186e-14,1.179056479e-13,1.54749242e-13,1.428984223e-13,2.306300172e-13,2.328453912e-13,1.515685298e-13,4.462984421e-14,6.809629022e-14,5.226222581e-14,2.804564361e-14,6.318338501e-14,5.825560702e-14,8.886799296e-14,1.530050233e-13,9.544701654e-14,7.018447635e-14,1.018082066e-13,2.833798862e-15,1.541523851e-13,1.595851859e-13
0.546875,1.392597341e-14,7.317575694e-14,7.823484259e-14,1.194561397e-13,1.13496702e-13,5.744294222e-14,2.887952912e-14,4.850229708e-14,2.527104136e-14,2.369095512e-14,3.195773891e-14,5.250150305e-14,1.180183894e-13,1.585933218e-13,1.410314572e-13,2.236721901e-13,2.19054697e-13,1.459818174e-13,4.507079777e-14,6.502270424e-14,4.955312451e-14,2.851456622e-14,6.106031524e-14,5.924748279e-14,9.577281577e-14,1.406389954e-13,8.71822417e-14,6.98993097e-14,1.026347858e-13,2.578775983e-15,1.452449458e-13,1.481390562e-13
0.5546875,1.393572129e-14,7.283293094e-14,9.020803679e-14,1.147732114e-13,1.095597099e-13,6.86469033e-14,2.750077605e-14,5.054098622e-14,2.714429617e-14,2.786567048e-14,3.373429271e-14,5.736063701e-14,1.176803954e-13,1.594133653e-13,1.362029192e-13,2.117706621e-13,2.023208865e-13,1.391404738e-13,4.579150859e-14,6.228875621e-14,4.578372245e-14,2.882943512e-14,5.923896362e-14,6.028153239e-14,1.014798866e-13,1.267040429e-13,7.738448443e-14,6.872281844e-14,1.031685416e-13,2.41416408e-15,1.358664281e-13,1.341618159e-13
0.5625,1.3937965e-14,7.079464634e-14,1.010483272e-13,1.111574731e-13,1.046902286e-13,8.058460813e-14,2.659170064e-14,5.348886394e-14,2.877717696e-14,3.272083341e-14,3.608862065e-14,6.073540615e-14,1.167612252e-13,1.56304777e-13,1.283847519e-13,1.955050546e-13,1.838046676e-13,1.315817606e-13,4.711918558e-14,6.025379707e-14,4.10671214e-14,2.907538564e-14,5.768461863e-14,6.105138711e-14,1.058672642e-13,1.123772342e-13,6.726606548e-14,6.611136956e-14,1.036989905e-13,2.419189817e-15,1.272918549e-13,1.187680182e-13
0.5703125,1.383398703e-14,6.80650166e-14,1.10046453e-13,1.092683659e-13,9.986795574e-14,9.270876205e-14,2.603499289e-14,5.684918177e-14,2.98946566e-14,3.798485848e-14,3.902380762e-14,6.242901706e-14,1.155054592e-13,1.501976585e-13,1.187131319e-13,1.77629025e-13,1.663571853e-13,1.252395366e-13,4.927756424e-14,5.928423789e-14,3.584739156e-14,2.93569543e-14,5.66663859e-14,6.114588966e-14,1.088507193e-13,9.927132983e-14,5.86017574e-14,6.293891803e-14,1.04606535e-13,2.572219802e-15,1.207549e-13,1.031005368e-13
0.578125,1.357086485e-14,6.543136605e-14,1.167849893e-13,1.099223361e-13,9.607006105e-14,1.043698966e-13,2.603751391e-14,6.054843447e-14,3.061528367e-14,4.324727706e-14,4.279081347e-14,6.24923971e-14,1.148560165e-13,1.420543671e-13,1.085009072e-13,1.597564652e-13,1.516610517e-13,1.213544512e-13,5.245676097e-14,5.966438945e-14,3.079593025e-14,2.972628717e-14,5.653294019e-14,6.007720304e-14,1.104728286e-13,8.801525763e-14,5.206209582e-14,5.947940128e-14,1.062152951e-13,2.88418085e-15,1.169519381e-13,8.799832828e-14
0.5859375,1.346234856e-14,6.381936053e-14,1.205691612e-13,1.138320189e-13,9.434519372e-14,1.145567582e-13,2.690277704e-14,6.499368349e-14,3.112914302e-14,4.858039572e-14,4.734012586e-14,6.110664692e-14,1.146460413e-13,1.327498978e-13,9.901735076e-14,1.437832378e-13,1.41574353e-13,1.208192132e-13,5.69275013e-14,6.191504056e-14,2.670327287e-14,3.025287141e-14,5.739109918e-14,5.806447566e-14,1.109680964e-13,7.949209364e-14,4.888897204e-14,5.593907424e-14,1.086631487e-13,3.421097495e-15,1.165822633e-13,7.439611346e-14
0.59375,1.368075291e-14,6.409173957e-14,1.215935327e-13,1.21273868e-13,9.525898349e-14,1.221918491e-13,2.853771938e-14,7.025709282e-14,3.139704055e-14,5.380264403e-14,5.239666113e-14,5.855579412e-14,1.149320487e-13,1.236945601e-13,9.13294737e-14,1.313716165e-13,1.371227938e-13,1.242343722e-13,6.267793503e-14,6.637056104e-14,2.377652207e-14,3.110641471e-14,5.920720702e-14,5.483370827e-14,1.106513985e-13,7.427555541e-14,5.025295878e-14,5.248609887e-14,1.124954692e-13,4.201211113e-15,1.195497433e-13,6.314495519e-14
0.6015625,1.439657225e-14,6.639525961e-14,1.2072183e-13,1.318054158e-13,9.846634008e-14,1.265765729e-13,3.093710492e-14,7.596219181e-14,3.148179314e-14,5.832747318e-14,5.788244711e-14,5.525251493e-14,1.154601513e-13,1.156872175e-13,8.567650548e-14,1.222161546e-13,1.374658447e-13,1.301831765e-13,6.905038187e-14,7.335809543e-14,2.225224856e-14,3.229609716e-14,6.163734983e-14,5.129698622e-14,1.097391172e-13,7.158384757e-14,5.591174521e-14,4.936999611e-14,1.16826067e-13,5.245662464e-15,1.245588361e-13,5.427232412e-14
0.609375,1.569618921e-14,7.097627882e-14,1.182016646e-13,1.447801945e-13,1.037998251e-13,1.273651981e-13,3.461898078e-14,8.171381497e-14,3.137559854e-14,6.220998086e-14,6.395319861e-14,5.200386985e-14,1.16297083e-13,1.102701955e-13,8.263183651e-14,1.167523733e-13,1.422347316e-13,1.381413983e-13,7.546357727e-14,8.300505264e-14,2.225585738e-14,3.374812198e-14,6.463040485e-14,4.859391085e-14,1.085603571e-13,7.081686479e-14,6.606191978e-14,4.70495204e-14,1.216110642e-13,6.574875134e-15,1.310061843e-13,4.765321114e-14
0.6171875,1.77079682e-14,7.750022018e-14,1.150601677e-13,1.590621636e-13,1.100206674e-13,1.248353507e-13,3.95143518e-14,8.698977772e-14,3.105578679e-14,6.525236079e-14,7.053497489e-14,4.928616416e-14,1.178363026e-13,1.082618723e-13,8.231188004e-14,1.146157502e-13,1.499141966e-13,1.472465906e-13,8.130790828e-14,9.490061812e-14,2.351002923e-14,3.529582646e-14,6.80981336e-14,4.697425156e-14,1.074754775e-13,7.089205736e-14,7.996010789e-14,4.597179968e-14,1.258626111e-13,8.224072083e-15,1.373532357e-13,4.319417959e-14
0.625,2.040804573e-14,8.569260253e-14,1.119048771e-13,1.728274836e-13,1.15799365e-13,1.197494069e-13,4.572789694e-14,9.111952273e-14,3.041742895e-14,6.742789163e-14,7.75026352e-14,4.728022226e-14,1.198328071e-13,1.093440645e-13,8.370170594e-14,1.143716161e-13,1.584347796e-13,1.558583762e-13,8.575996505e-14,1.083374992e-13,2.550768996e-14,3.67637898e-14,7.140424492e-14,4.762505215e-14,1.06927875e-13,7.140083702e-14,9.742899543e-14,4.637208793e-14,1.292740893e-13,1.016736487e-14,1.428343031e-13,4.032773292e-14
0.6328125,2.368811414e-14,9.504045073e-14,1.094562919e-13,1.844704106e-13,1.199257694e-13,1.131511798e-13,5.295424793e-14,9.348672758e-14,2.93635834e-14,6.907425718e-14,8.464087168e-14,4.635487786e-14,1.220059206e-13,1.130134348e-13,8.580821505e-14,1.145031973e-13,1.654286053e-13,1.627781361e-13,8.858083997e-14,1.22311756e-13,2.813891481e-14,3.809141643e-14,7.406937123e-14,5.052116137e-14,1.067510427e-13,7.174349916e-14,1.171061706e-13,4.870272321e-14,1.315779706e-13,1.220211219e-14,1.463612818e-13,3.868124674e-14
0.640625,2.732719245e-14,1.049029665e-13,1.079233953e-13,1.938644733e-13,1.221787746e-13,1.06355898e-13,6.127370118e-14,9.400420683e-14,2.797682213e-14,7.035136905e-14,9.209422994e-14,4.677269454e-14,1.247487154e-13,1.189386359e-13,8.816356481e-14,1.141773608e-13,1.702753799e-13,1.678347078e-13,8.971323975e-14,1.355640649e-13,3.078798189e-14,3.915989731e-14,7.581668439e-14,5.533936554e-14,1.070345024e-13,7.178855917e-14,1.381767857e-13,5.307938419e-14,1.338180843e-13,1.436833333e-14,1.482068053e-13,3.774925823e-14
0.6484375,3.118156699e-14,1.138744076e-13,1.074007384e-13,2.000844876e-13,1.217891261e-13,9.963386872e-14,7.008288673e-14,9.233320976e-14,2.640196083e-14,7.184323773e-14,9.886633847e-14,4.811782811e-14,1.268653119e-13,1.251750791e-13,8.953927479e-14,1.121430688e-13,1.710986573e-13,1.694675791e-13,8.91074817e-14,1.460037159e-13,3.295708465e-14,3.979900263e-14,7.672201943e-14,6.180905309e-14,1.077177181e-13,7.101315809e-14,1.583966128e-13,5.941379746e-14,1.356446604e-13,1.648974883e-14,1.477413719e-13,3.698363596e-14
0.65625,3.468102557e-14,1.210699321e-13,1.079292137e-13,2.017124321e-13,1.185979737e-13,9.362908656e-14,7.905276794e-14,8.845577598e-14,2.479627846e-14,7.34683282e-14,1.041430667e-13,4.986177182e-14,1.268980524e-13,1.299411495e-13,8.924148248e-14,1.080558562e-13,1.673765165e-13,1.664103537e-13,8.62764557e-14,1.529806649e-13,3.457128825e-14,3.9928833e-14,7.650584463e-14,7.001947149e-14,1.087014171e-13,6.920075192e-14,1.758714653e-13,6.72673215e-14,1.360764404e-13,1.840344874e-14,1.446579431e-13,3.646490922e-14
0.6640625,3.768047572e-14,1.259533585e-13,1.101077769e-13,1.994048908e-13,1.131901069e-13,8.870975253e-14,8.774217154e-14,8.262144142e-14,2.299361424e-14,7.554072557e-14,1.077569607e-13,5.117599599e-14,1.245830283e-13,1.320457996e-13,8.704097422e-14,1.022071107e-13,1.596842265e-13,1.595434024e-13,8.198304988e-14,1.562129594e-13,3.563892866e-14,3.92197427e-14,7.530276009e-14,7.914644908e-14,1.102664699e-13,6.699025216e-14,1.895477802e-13,7.662200643e-14,1.344648504e-13,1.997948383e-14,1.394273084e-13,3.588237495e-14
0.671875,4.009356153e-14,1.282004816e-13,1.141287686e-13,1.928602251e-13,1.053646594e-13,8.480506255e-14,9.562849242e-14,7.508047389e-14,2.110268346e-14,7.816770747e-14,1.0923174e-13,5.181693116e-14,1.195987502e-13,1.306295786e-13,8.256603387e-14,9.422314034e-14,1.477816697e-13,1.491777425e-13,7.635481646e-14,1.545720373e-13,3.571289114e-14,3.798352268e-14,7.339603696e-14,8.761933648e-14,1.122005652e-13,6.385565208e-14,1.97839902e-13,8.726563913e-14,1.310307885e-13,2.117923514e-14,1.317261404e-13,3.481122588e-14
0.6796875,4.178045811e-14,1.270851572e-13,1.207169944e-13,1.828998066e-13,9.598794163e-14,8.189559418e-14,1.020389436e-13,6.685107152e-14,1.942535339e-14,8.121603991e-14,1.084415374e-13,5.181935527e-14,1.121201752e-13,1.258521521e-13,7.628756009e-14,8.497999713e-14,1.331823539e-13,1.363126207e-13,6.979377756e-14,1.485903266e-13,3.507901296e-14,3.630421061e-14,7.102342227e-14,9.516669341e-14,1.140205518e-13,6.011392131e-14,1.994164852e-13,9.874629107e-14,1.2574328e-13,2.198434372e-14,1.220144643e-13,3.370764144e-14
0.6875,4.279463844e-14,1.226361542e-13,1.305844985e-13,1.705386235e-13,8.538633844e-14,7.954269359e-14,1.068088961e-13,5.842434583e-14,1.820471861e-14,8.412011594e-14,1.047552075e-13,5.124712199e-14,1.02941625e-13,1.188478455e-13,6.920840254e-14,7.526265761e-14,1.16905508e-13,1.219165696e-13,6.266860361e-14,1.38803629e-13,3.360522515e-14,3.434212376e-14,6.834603022e-14,1.014488763e-13,1.156045972e-13,5.606896634e-14,1.943980291e-13,1.111471556e-13,1.184302277e-13,2.243451953e-14,1.106864418e-13,3.257196092e-14
0.6953125,4.329598989e-14,1.148186585e-13,1.435520969e-13,1.568692166e-13,7.427832913e-14,7.724370065e-14,1.100760287e-13,5.057916986e-14,1.750644917e-14,8.683370788e-14,9.861898788e-14,4.955808317e-14,9.213612905e-14,1.104292472e-13,6.183118378e-14,6.563647632e-14,1.000865396e-13,1.065364524e-13,5.527679249e-14,1.272867633e-13,3.198510863e-14,3.219320563e-14,6.518290775e-14,1.076898721e-13,1.163744009e-13,5.207393673e-14,1.838190661e-13,1.237403001e-13,1.077345275e-13,2.254071494e-14,9.824509159e-14,3.16999252e-14
0.703125,4.327254789e-14,1.052232533e-13,1.59158569e-13,1.437546256e-13,6.404590943e-14,7.477864204e-14,1.116869926e-13,4.361683572e-14,1.698880895e-14,8.88309377e-14,9.100088515e-14,4.702975581e-14,8.090945656e-14,1.023865369e-13,5.51792879e-14,5.726323419e-14,8.403585062e-14,9.193757102e-14,4.823234534e-14,1.151282338e-13,3.057118954e-14,2.989266401e-14,6.170743567e-14,1.123133078e-13,1.156572894e-13,4.861812751e-14,1.697193261e-13,1.363292413e-13,9.502467474e-14,2.22899099e-14,8.60432039e-14,3.099104256e-14
0.7109375,4.30342198e-14,9.408860145e-14,1.768458271e-13,1.308010099e-13,5.416321147e-14,7.191860648e-14,1.114852101e-13,3.75074492e-14,1.684632545e-14,9.007099536e-14,8.222703628e-14,4.434991653e-14,7.038164169e-14,9.546652313e-14,4.930052191e-14,4.96650798e-14,6.86719489e-14,7.831118375e-14,4.154084718e-14,1.031092091e-13,2.914910159e-14,2.769151764e-14,5.802499838e-14,1.1533792e-13,1.141926156e-13,4.535476576e-14,1.52766312e-13,1.486176251e-13,8.127828593e-14,2.182622505e-14,7.393356091e-14,3.06234746e-14
0.71875,4.299446904e-14,8.27244692e-14,1.961876868e-13,1.19034789e-13,4.526568289e-14,6.932543551e-14,1.102646456e-13,3.261471525e-14,1.728878335e-14,8.982525572e-14,7.309346756e-14,4.225012813e-14,6.157263163e-14,9.123392537e-14,4.508056508e-14,4.340659271e-14,5.486057921e-14,6.622280076e-14,3.55242324e-14,9.203559986e-14,2.793979386e-14,2.607336227e-14,5.381520504e-14,1.173679435e-13,1.11603703e-13,4.261089254e-14,1.347121053e-13,1.607132407e-13,6.717614365e-14,2.148225396e-14,6.257122167e-14,3.092999195e-14
0.7265625,4.300035852e-14,7.160381205e-14,2.157636113e-13,1.093253137e-13,3.777444865e-14,6.678280716e-14,1.084280806e-13,2.914031586e-14,1.834763273e-14,8.799583176e-14,6.420964617e-14,4.095862842e-14,5.54080122e-14,9.058670182e-14,4.274916245e-14,3.854310231e-14,4.279940145e-14,5.613807026e-14,3.032211222e-14,8.283497731e-14,2.697941519e-14,2.507212684e-14,4.949502433e-14,1.207381943e-13,1.076449384e-13,4.08168316e-14,1.167260148e-13,1.721304212e-13,5.344931171e-14,2.137833205e-14,5.254696851e-14,3.181223415e-14
0.734375,4.32151141e-14,6.139501441e-14,2.317907187e-13,1.013562258e-13,3.166758531e-14,6.409486547e-14,1.059379978e-13,2.660667821e-14,1.971865821e-14,8.459655825e-14,5.589097623e-14,4.006950772e-14,5.160860843e-14,9.27913707e-14,4.167175889e-14,3.47770286e-14,3.278736422e-14,4.783511891e-14,2.590980485e-14,7.605223779e-14,2.633658783e-14,2.455514362e-14,4.512452211e-14,1.245384654e-13,1.028842285e-13,3.941002379e-14,9.994443443e-14,1.824800097e-13,4.078717156e-14,2.14213774e-14,4.39562447e-14,3.321849335e-14
0.7421875,4.360763258e-14,5.318066144e-14,2.441708438e-13,9.513993486e-14,2.736103077e-14,6.193477954e-14,1.026292995e-13,2.478402267e-14,2.128983138e-14,7.9767306e-14,4.886555402e-14,4.004882371e-14,5.062160472e-14,9.808472171e-14,4.21194307e-14,3.230480612e-14,2.483244283e-14,4.180954926e-14,2.258336196e-14,7.142125838e-14,2.592945709e-14,2.457002546e-14,4.048067486e-14,1.290230539e-13,9.763862519e-14,3.831238876e-14,8.526507772e-14,1.912442139e-13,3.010872715e-14,2.173571489e-14,3.702457403e-14,3.532481887e-14
0.75,4.402115476e-14,4.720638277e-14,2.51282573e-13,9.059003205e-14,2.460026889e-14,6.062652292e-14,9.892325374e-14,2.366084714e-14,2.329797131e-14,7.421271272e-14,4.317541561e-14,4.12333009e-14,5.260254857e-14,1.062071029e-13,4.390299352e-14,3.079693923e-14,1.882751045e-14,3.76874376e-14,2.027496393e-14,6.847152467e-14,2.573576601e-14,2.519341901e-14,3.595705856e-14,1.346335649e-13,9.218749509e-14,3.71545649e-14,7.263184835e-14,1.979983526e-13,2.159848143e-14,2.240375388e-14,3.150242085e-14,3.806422364e-14
0.7578125,4.396012874e-14,4.31783181e-14,2.519759851e-13,8.660793837e-14,2.317431047e-14,6.043043306e-14,9.458586167e-14,2.302952585e-14,2.548840126e-14,6.758964043e-14,3.846319335e-14,4.296628486e-14,5.623637314e-14,1.157554655e-13,4.660638408e-14,3.013108808e-14,1.498536721e-14,3.490616593e-14,1.845908219e-14,6.704581399e-14,2.556139824e-14,2.625758546e-14,3.154765599e-14,1.411478796e-13,8.658078709e-14,3.605943467e-14,6.189895473e-14,2.013089028e-13,1.520416469e-14,2.331875456e-14,2.7362787e-14,4.149897789e-14
0.765625,4.357119379e-14,4.108885987e-14,2.473303126e-13,8.326028002e-14,2.313077249e-14,6.192560739e-14,8.913332096e-14,2.296065816e-14,2.765257485e-14,6.080048964e-14,3.479058548e-14,4.510814849e-14,6.100723097e-14,1.261238494e-13,5.03921059e-14,3.080962404e-14,1.340592739e-14,3.376848664e-14,1.733253468e-14,6.695382392e-14,2.547026684e-14,2.746466817e-14,2.737290323e-14,1.484737396e-13,8.101092992e-14,3.516572907e-14,5.278887033e-14,2.015545079e-13,1.12176612e-14,2.443621858e-14,2.468486778e-14,4.540034932e-14
0.7734375,4.282016626e-14,4.051156024e-14,2.384333476e-13,8.003189885e-14,2.385762362e-14,6.518812408e-14,8.26673148e-14,2.327324975e-14,2.976207463e-14,5.393329869e-14,3.187679878e-14,4.761179664e-14,6.646532239e-14,1.370461359e-13,5.496118748e-14,3.269692717e-14,1.400039674e-14,3.409895651e-14,1.680890963e-14,6.790879351e-14,2.547816878e-14,2.872652191e-14,2.35303068e-14,1.56002268e-13,7.549354863e-14,3.399160392e-14,4.484819316e-14,1.988371105e-13,9.437398748e-15,2.565259293e-14,2.288093145e-14,4.884389269e-14
0.78125,4.149593314e-14,4.105860785e-14,2.259414152e-13,7.678561047e-14,2.541605983e-14,7.060001157e-14,7.591177342e-14,2.376848894e-14,3.14541314e-14,4.713818248e-14,2.988556654e-14,4.99190429e-14,7.180356718e-14,1.474841107e-13,6.016951679e-14,3.62290574e-14,1.685491064e-14,3.593396569e-14,1.669882237e-14,6.952030902e-14,2.56724391e-14,2.956180115e-14,1.983907218e-14,1.629455019e-13,7.031928412e-14,3.25886719e-14,3.846100389e-14,1.930943149e-13,9.697950454e-15,2.683257672e-14,2.197558222e-14,5.120735385e-14
0.7890625,3.914966988e-14,4.229280803e-14,2.107312182e-13,7.351422735e-14,2.779286742e-14,7.742567741e-14,6.883395422e-14,2.446959089e-14,3.247439009e-14,4.045971508e-14,2.875407636e-14,5.168773316e-14,7.624722268e-14,1.566798109e-13,6.584811237e-14,4.16307251e-14,2.211368489e-14,3.882782976e-14,1.678025746e-14,7.200140869e-14,2.60492057e-14,2.987573222e-14,1.643929329e-14,1.684120212e-13,6.517208126e-14,3.110758686e-14,3.368018334e-14,1.84253038e-13,1.206804891e-14,2.775814341e-14,2.192046999e-14,5.240226085e-14
0.796875,3.581944348e-14,4.363506242e-14,1.947892455e-13,6.945075361e-14,3.078445923e-14,8.530429001e-14,6.141887657e-14,2.558901508e-14,3.265534443e-14,3.409748286e-14,2.796340261e-14,5.243126103e-14,7.874995937e-14,1.635263298e-13,7.12768183e-14,4.862586417e-14,2.954491678e-14,4.221696251e-14,1.680136726e-14,7.543376843e-14,2.670655371e-14,2.938615584e-14,1.344875004e-14,1.716156123e-13,5.973964624e-14,2.986095631e-14,3.054545257e-14,1.736296384e-13,1.601480613e-14,2.812527537e-14,2.242685139e-14,5.23142404e-14
0.8046875,3.20881277e-14,4.511853737e-14,1.799431514e-13,6.585312637e-14,3.426464693e-14,9.412394077e-14,5.377872671e-14,2.693677721e-14,3.176727727e-14,2.817794813e-14,2.78011393e-14,5.216281207e-14,7.967945533e-14,1.683101413e-13,7.668378995e-14,5.690244419e-14,3.874899478e-14,4.621296992e-14,1.709277544e-14,7.930554777e-14,2.749822745e-14,2.826030091e-14,1.078943996e-14,1.713032191e-13,5.442821013e-14,2.857657744e-14,2.884613587e-14,1.620913527e-13,2.12670042e-14,2.782923547e-14,2.327083151e-14,5.038244074e-14
0.8125,2.805688436e-14,4.639856478e-14,1.670575614e-13,6.277539551e-14,3.831117198e-14,1.038060282e-13,4.64734869e-14,2.841150457e-14,2.996571915e-14,2.282192969e-14,2.828339178e-14,5.086384392e-14,7.873164875e-14,1.712798534e-13,8.162334216e-14,6.597118696e-14,4.94154874e-14,5.029460313e-14,1.758315513e-14,8.350304989e-14,2.825190149e-14,2.649825737e-14,8.585206282e-15,1.680523552e-13,4.90531448e-14,2.753432749e-14,2.860393944e-14,1.507129368e-13,2.751776116e-14,2.701163965e-14,2.437238179e-14,4.707525051e-14
0.8203125,2.411288753e-14,4.755580672e-14,1.562129592e-13,6.042909388e-14,4.274828879e-14,1.134270956e-13,3.916503235e-14,2.988207939e-14,2.729267244e-14,1.78969264e-14,2.912532092e-14,4.860786207e-14,7.625208635e-14,1.720426053e-13,8.553055739e-14,7.509655165e-14,6.115738673e-14,5.434171493e-14,1.831885077e-14,8.791111337e-14,2.898942688e-14,2.440758663e-14,6.806396621e-15,1.605876025e-13,4.404140839e-14,2.657126454e-14,2.96213764e-14,1.396660919e-13,3.469903945e-14,2.551564842e-14,2.570728043e-14,4.242356283e-14
0.828125,2.056557856e-14,4.881581612e-14,1.479843485e-13,5.914021972e-14,4.727047736e-14,1.228705362e-13,3.246248561e-14,3.121888705e-14,2.429148834e-14,1.382396785e-14,3.051516662e-14,4.606120352e-14,7.322528014e-14,1.713237718e-13,8.825906714e-14,8.361153838e-14,7.328840299e-14,5.806954692e-14,1.923701861e-14,9.190971522e-14,2.959392693e-14,2.246194546e-14,5.617864846e-15,1.499975974e-13,3.939312176e-14,2.552167931e-14,3.147878836e-14,1.299054182e-13,4.229753143e-14,2.372246033e-14,2.703074537e-14,3.708097469e-14
0.8359375,1.742346851e-14,4.997685084e-14,1.417729907e-13,5.843602883e-14,5.150679155e-14,1.311777307e-13,2.675368382e-14,3.222253681e-14,2.140027682e-14,1.100518061e-14,3.194837033e-14,4.34838467e-14,6.952086691e-14,1.691796728e-13,8.929711131e-14,9.014494586e-14,8.436848805e-14,6.07014597e-14,2.018911469e-14,9.552333235e-14,2.985708014e-14,2.0845019e-14,5.16981293e-15,1.382116867e-13,3.523701969e-14,2.452166028e-14,3.360353744e-14,1.223158896e-13,4.921300532e-14,2.175242398e-14,2.830746588e-14,3.182752136e-14
0.84375,1.472037002e-14,5.13795244e-14,1.35984503e-13,5.863376484e-14,5.528294814e-14,1.381171806e-13,2.163881333e-14,3.283193158e-14,1.874790795e-14,9.062355044e-15,3.355721259e-14,4.117846713e-14,6.599555879e-14,1.664359305e-13,8.877491502e-14,9.418676072e-14,9.388627632e-14,6.208368572e-14,2.113549078e-14,9.845859354e-14,2.957112029e-14,1.981987956e-14,5.301727805e-15,1.252466287e-13,3.126936543e-14,2.335262237e-14,3.565060994e-14,1.161790141e-13,5.568885959e-14,1.964717002e-14,2.953895677e-14,2.676876919e-14
0.8515625,1.268019979e-14,5.268231254e-14,1.303601275e-13,5.93703144e-14,5.850699562e-14,1.427633561e-13,1.73048346e-14,3.324782759e-14,1.676307741e-14,8.220503268e-15,3.490236194e-14,3.963865177e-14,6.291603165e-14,1.630128679e-13,8.675868674e-14,9.533798415e-14,1.009770835e-13,6.175911984e-14,2.191330715e-14,1.008001837e-13,2.881788433e-14,1.963055427e-14,6.160036009e-15,1.128803156e-13,2.773828397e-14,2.217504499e-14,3.718345739e-14,1.11564401e-13,6.153689364e-14,1.758212721e-14,3.061618624e-14,2.259982089e-14
0.859375,1.133888799e-14,5.410417805e-14,1.248476527e-13,6.040414218e-14,6.08359994e-14,1.454557489e-13,1.381574596e-14,3.345320067e-14,1.554589718e-14,8.42855512e-15,3.59453647e-14,3.914404624e-14,6.068079139e-14,1.59521904e-13,8.375825804e-14,9.388064327e-14,1.047280617e-13,6.000036771e-14,2.242404631e-14,1.018037581e-13,2.759479372e-14,2.029987017e-14,7.592332145e-15,1.018065994e-13,2.476857661e-14,2.096594844e-14,3.807954231e-14,1.083242397e-13,6.680434245e-14,1.571645165e-14,3.132443042e-14,1.921559605e-14
0.8671875,1.038235299e-14,5.5428708e-14,1.179922927e-13,6.128543847e-14,6.172601937e-14,1.45144603e-13,1.12551227e-14,3.313362226e-14,1.51280922e-14,9.455419594e-15,3.640453158e-14,3.947567907e-14,5.939153803e-14,1.556114931e-13,7.977385382e-14,8.976636854e-14,1.041943337e-13,5.648378554e-14,2.254432532e-14,1.00254394e-13,2.577544774e-14,2.184407767e-14,9.371357936e-15,9.163574246e-14,2.188392206e-14,1.956742997e-14,3.784680783e-14,1.056733391e-13,7.046980595e-14,1.406364484e-14,3.122138191e-14,1.644571581e-14
0.875,9.741798497e-15,5.65316154e-14,1.093793734e-13,6.182258483e-14,6.127450665e-14,1.414653107e-13,9.690386388e-15,3.255921805e-14,1.538177939e-14,1.091141943e-14,3.628418893e-14,4.035531944e-14,5.906891439e-14,1.512644365e-13,7.544714631e-14,8.397670744e-14,1.004286764e-13,5.184151459e-14,2.239532421e-14,9.717378023e-14,2.343720666e-14,2.395900812e-14,1.12360111e-14,8.315848458e-14,1.934614972e-14,1.844156592e-14,3.678414702e-14,1.026821482e-13,7.274113541e-14,1.257952672e-14,3.04465852e-14,1.452591548e-14
0.8828125,9.493529068e-15,5.729660858e-14,9.939609824e-14,6.220457921e-14,6.001166228e-14,1.352023428e-13,8.979260287e-15,3.202269597e-14,1.610242001e-14,1.268122615e-14,3.598407312e-14,4.153953573e-14,5.962365831e-14,1.46058125e-13,7.107698094e-14,7.699093666e-14,9.353642453e-14,4.63493922e-14,2.20578616e-14,9.307181741e-14,2.107393887e-14,2.646084992e-14,1.310017523e-14,7.621164837e-14,1.710695896e-14,1.769581027e-14,3.49043635e-14,9.878883516e-14,7.380613426e-14,1.136814651e-14,2.89014501e-14,1.337960728e-14
0.890625,9.677415133e-15,5.778705502e-14,8.828678244e-14,6.249836977e-14,5.833151828e-14,1.261370291e-13,9.161748531e-15,3.167844498e-14,1.719045767e-14,1.450119028e-14,3.549870629e-14,4.294019295e-14,6.110035603e-14,1.401103128e-13,6.665284079e-14,6.937914842e-14,8.461684265e-14,4.077214415e-14,2.174614918e-14,8.791946774e-14,1.879809202e-14,2.917725353e-14,1.458446627e-14,7.078899386e-14,1.502411946e-14,1.730091219e-14,3.287535234e-14,9.406735579e-14,7.414115033e-14,1.041166293e-14,2.688948363e-14,1.28121227e-14
0.8984375,1.034430296e-14,5.835030052e-14,7.719693105e-14,6.2915249e-14,5.706410485e-14,1.154031552e-13,9.967219331e-15,3.147288758e-14,1.861706759e-14,1.62846334e-14,3.5136932e-14,4.432713404e-14,6.355241128e-14,1.338692589e-13,6.261138407e-14,6.224285801e-14,7.504818408e-14,3.614552091e-14,2.186386599e-14,8.253400323e-14,1.707475529e-14,3.188764397e-14,1.552334391e-14,6.714128624e-14,1.31912676e-14,1.76502322e-14,3.095821786e-14,8.895719177e-14,7.39798697e-14,9.775356457e-15,2.479722491e-14,1.294829724e-14
0.90625,1.151265197e-14,5.919588921e-14,6.609214805e-14,6.347054772e-14,5.681388665e-14,1.038706766e-13,1.086804177e-14,3.132815467e-14,2.041600096e-14,1.787857562e-14,3.520722089e-14,4.564391635e-14,6.675172478e-14,1.272308078e-13,5.89639017e-14,5.588091214e-14,6.576991324e-14,3.271963205e-14,2.245536062e-14,7.71203598e-14,1.623196433e-14,3.44901111e-14,1.571638253e-14,6.497142653e-14,1.149581664e-14,1.856252276e-14,2.927525271e-14,8.294354886e-14,7.394583591e-14,9.510463769e-15,2.30508389e-14,1.382001726e-14
0.9140625,1.32142634e-14,6.060442301e-14,5.612605333e-14,6.399228966e-14,5.77943509e-14,9.262468854e-14,1.170232611e-14,3.119015768e-14,2.26541448e-14,1.975557235e-14,3.578095362e-14,4.69996775e-14,7.002645848e-14,1.204538924e-13,5.547835469e-14,5.062315048e-14,5.776100363e-14,3.04672315e-14,2.35796312e-14,7.254185912e-14,1.623314309e-14,3.679864145e-14,1.54001815e-14,6.458272691e-14,9.931168583e-15,1.986700794e-14,2.815953713e-14,7.723834166e-14,7.42583507e-14,9.617489135e-15,2.202445243e-14,1.540575793e-14
0.921875,1.516561142e-14,6.238212428e-14,4.764054508e-14,6.453613724e-14,6.001038052e-14,8.291320286e-14,1.249960004e-14,3.077030665e-14,2.554548041e-14,2.162627772e-14,3.676019736e-14,4.834712442e-14,7.281801698e-14,1.133626626e-13,5.255097405e-14,4.692642837e-14,5.16344229e-14,2.949298226e-14,2.524449418e-14,6.948265092e-14,1.727106987e-14,3.870946352e-14,1.469157311e-14,6.612623382e-14,8.454066758e-15,2.158952244e-14,2.771543283e-14,7.192798489e-14,7.543267628e-14,1.006274908e-14,2.208296942e-14,1.779065263e-14
0.9296875,1.757083848e-14,6.46357038e-14,4.048522042e-14,6.481774388e-14,6.314640744e-14,7.488881256e-14,1.329495767e-14,3.027155717e-14,2.903175421e-14,2.411228717e-14,3.795279754e-14,5.000298221e-14,7.499989114e-14,1.058010266e-13,4.977955362e-14,4.439602287e-14,4.739636538e-14,2.992903865e-14,2.735373867e-14,6.737146533e-14,1.916586604e-14,4.021811305e-14,1.372672053e-14,6.876698223e-14,7.176592297e-15,2.347334187e-14,2.804464528e-14,6.680109623e-14,7.82775468e-14,1.078698244e-14,2.370268326e-14,2.078106599e-14
0.9375,2.046263427e-14,6.688265965e-14,3.541978796e-14,6.433581851e-14,6.627401586e-14,6.941226497e-14,1.363770504e-14,2.994619661e-14,3.323367033e-14,2.719935261e-14,3.890707448e-14,5.232480747e-14,7.580091767e-14,9.824018891e-14,4.753271433e-14,4.314449507e-14,4.468011823e-14,3.094112888e-14,2.938262973e-14,6.667977393e-14,2.175265668e-14,4.143030568e-14,1.283386477e-14,7.282576945e-14,6.223860546e-15,2.539965305e-14,2.910529834e-14,6.258451911e-14,8.192382831e-14,1.172313793e-14,2.664765892e-14,2.441857253e-14
0.9453125,2.364971715e-14,6.825257494e-14,3.252660626e-14,6.281734406e-14,6.861361101e-14,6.639316918e-14,1.373205951e-14,2.998136109e-14,3.839248745e-14,3.03497553e-14,3.906783294e-14,5.511552102e-14,7.521967121e-14,9.079082928e-14,4.591941942e-14,4.280367172e-14,4.292575152e-14,3.173678286e-14,3.099716147e-14,6.730993722e-14,2.478320572e-14,4.255411476e-14,1.201470913e-14,7.890649504e-14,5.566328344e-15,2.711590995e-14,3.056975247e-14,5.907033093e-14,8.617270297e-14,1.273771467e-14,3.061751191e-14,2.871983431e-14
0.953125,2.705602199e-14,6.829263941e-14,3.209404634e-14,6.002875558e-14,6.938399931e-14,6.591626926e-14,1.363344456e-14,3.059516476e-14,4.447238954e-14,3.310757446e-14,3.819021482e-14,5.873631042e-14,7.34995479e-14,8.411807111e-14,4.481015783e-14,4.324100726e-14,4.174953722e-14,3.231649656e-14,3.230419877e-14,6.858716264e-14,2.774178544e-14,4.373183497e-14,1.152905568e-14,8.599303312e-14,5.194642538e-15,2.836901737e-14,3.238354241e-14,5.641708575e-14,9.105972044e-14,1.380787188e-14,3.508633097e-14,3.330133187e-14
0.9609375,3.044033037e-14,6.682053681e-14,3.387765943e-14,5.620954354e-14,6.805888767e-14,6.768365144e-14,1.342431756e-14,3.175785478e-14,5.141499689e-14,3.535669579e-14,3.62587772e-14,6.313877842e-14,7.131755895e-14,7.822554103e-14,4.429659193e-14,4.43687061e-14,4.097539669e-14,3.254574847e-14,3.330541948e-14,7.06614857e-14,3.035758428e-14,4.533665283e-14,1.155641439e-14,9.404176023e-14,4.886340662e-15,2.923893676e-14,3.438278121e-14,5.422986509e-14,9.634728096e-14,1.485520464e-14,3.983669232e-14,3.808993407e-14
0.96875,3.376444809e-14,6.37885481e-14,3.771513164e-14,5.185780293e-14,6.460259896e-14,7.0593344e-14,1.307590112e-14,3.351614685e-14,5.863949277e-14,3.691669954e-14,3.339089043e-14,6.77411932e-14,6.875091767e-14,7.289105484e-14,4.414132874e-14,4.556468038e-14,4.047017045e-14,3.196982796e-14,3.373268598e-14,7.33990107e-14,3.225074311e-14,4.730234132e-14,1.21644504e-14,1.02456775e-13,4.716619186e-15,2.972113783e-14,3.610064446e-14,5.242713378e-14,1.006642495e-13,1.57738558e-14,4.443450719e-14,4.288894055e-14
0.9765625,3.672473168e-14,5.885599983e-14,4.350648678e-14,4.794266578e-14,5.92451304e-14,7.449221981e-14,1.258388026e-14,3.57040228e-14,6.551739534e-14,3.730192445e-14,2.958362626e-14,7.19049077e-14,6.648727857e-14,6.859299164e-14,4.451291418e-14,4.665446205e-14,3.981933221e-14,3.024979458e-14,3.337456117e-14,7.630267541e-14,3.344504588e-14,4.974897992e-14,1.331825837e-14,1.108034261e-13,4.757553606e-15,2.976053069e-14,3.701350439e-14,5.170774033e-14,1.026477226e-13,1.6378692e-14,4.82199259e-14,4.77544653e-14
0.984375,3.913436716e-14,5.232926247e-14,5.081586669e-14,4.432367558e-14,5.223868961e-14,7.851520314e-14,1.239759393e-14,3.775517797e-14,7.19428232e-14,3.629935631e-14,2.523858263e-14,7.576596363e-14,6.509504529e-14,6.523956125e-14,4.477466599e-14,4.743326752e-14,3.921914539e-14,2.758036221e-14,3.239076228e-14,7.970570736e-14,3.390847626e-14,5.275054253e-14,1.495455837e-14,1.187463086e-13,4.976367727e-15,2.933441397e-14,3.732548366e-14,5.210810837e-14,1.022660636e-13,1.688921843e-14,5.070387945e-14,5.231971093e-14
0.9921875,4.088852515e-14,4.486598819e-14,5.840114442e-14,4.071726049e-14,4.426757786e-14,8.220768346e-14,1.254149924e-14,3.970427883e-14,7.763884257e-14,3.470145175e-14,2.083484266e-14,7.945881032e-14,6.487220656e-14,6.276126263e-14,4.449569874e-14,4.751276575e-14,3.875129416e-14,2.446552271e-14,3.08864353e-14,8.312209542e-14,3.362373687e-14,5.61442824e-14,1.695803667e-14,1.253037142e-13,5.341910754e-15,2.840148673e-14,3.727922558e-14,5.356055513e-14,1.004336349e-13,1.723945048e-14,5.173057342e-14,5.643152041e-14
1,4.199458927e-14,3.753548529e-14,6.565566346e-14,3.803212722e-14,3.669060359e-14,8.527613369e-14,1.280101304e-14,4.16338553e-14,8.237307735e-14,3.279656122e-14,1.709662426e-14,8.282083966e-14,6.618331426e-14,6.114274091e-14,4.357311839e-14,4.664744764e-14,3.834639307e-14,2.135274373e-14,2.912277974e-14,8.637998815e-14,3.266204226e-14,5.984739038e-14,1.934688575e-14,1.298316997e-13,5.777386978e-15,2.708590381e-14,3.685635297e-14,5.591890646e-14,9.786345103e-14,1.759826581e-14,5.155051878e-14,6.015497992e-14
1.0078125,4.224126716e-14,3.045561228e-14,7.091962751e-14,3.591915693e-14,2.985529778e-14,8.627458466e-14,1.332536649e-14,4.332853808e-14,8.550951895e-14,3.099442804e-14,1.401809828e-14,8.486522124e-14,6.791096397e-14,5.959119089e-14,4.180853378e-14,4.461009761e-14,3.810722304e-14,1.790079394e-14,2.669563123e-14,8.919759413e-14,3.159704453e-14,6.313501702e-14,2.196951537e-14,1.325545026e-13,6.492859779e-15,2.546531367e-14,3.553238534e-14,5.820345244e-14,9.361492959e-14,1.785362594e-14,4.984400639e-14,6.360816567e-14
1.015625,4.191200666e-14,2.409607368e-14,7.43590506e-14,3.451914628e-14,2.452265491e-14,8.62075906e-14,1.423779957e-14,4.483910733e-14,8.732509638e-14,2.984945913e-14,1.196232515e-14,8.599555729e-14,7.063589585e-14,5.88990682e-14,3.994603554e-14,4.252974301e-14,3.780665802e-14,1.488644877e-14,2.398316391e-14,9.106360655e-14,3.027152401e-14,6.599696816e-14,2.453530676e-14,1.332617499e-13,7.465515919e-15,2.357365544e-14,3.356968886e-14,6.000529932e-14,8.834271158e-14,1.826071167e-14,4.702944839e-14,6.644496059e-14
1.0234375,4.149652219e-14,1.880556915e-14,7.564558012e-14,3.327366556e-14,2.115462156e-14,8.454016418e-14,1.54159647e-14,4.671401315e-14,8.846162954e-14,2.942260341e-14,1.075735335e-14,8.650914306e-14,7.383457575e-14,5.834236171e-14,3.76511018e-14,4.001120906e-14,3.778233246e-14,1.232633352e-14,2.121416555e-14,9.223184225e-14,2.930639166e-14,6.824752144e-14,2.665522824e-14,1.325543448e-13,8.603661147e-15,2.171185287e-14,3.111991328e-14,6.140491306e-14,8.219540495e-14,1.891874857e-14,4.335500145e-14,6.92188519e-14
1.03125,4.103148121e-14,1.459123497e-14,7.487352051e-14,3.219340262e-14,2.005396284e-14,8.146243142e-14,1.634314582e-14,4.958084154e-14,8.867561321e-14,3.008536604e-14,1.018278112e-14,8.60992864e-14,7.704944182e-14,5.776286288e-14,3.54960475e-14,3.777673996e-14,3.786140119e-14,1.062528297e-14,1.865303085e-14,9.233547418e-14,2.900412205e-14,6.940080609e-14,2.836516522e-14,1.301649563e-13,9.754571871e-15,2.000907187e-14,2.875423704e-14,6.212410158e-14,7.589600081e-14,1.979493982e-14,3.903614223e-14,7.186255453e-14
1.0390625,4.076904448e-14,1.154468013e-14,7.252903475e-14,3.114695689e-14,2.142575599e-14,7.657851118e-14,1.710928376e-14,5.421306774e-14,8.877222668e-14,3.164413998e-14,9.925580651e-15,8.447327326e-14,7.987290747e-14,5.696615261e-14,3.363198829e-14,3.604000693e-14,3.856470366e-14,9.912664332e-15,1.64757737e-14,9.202354155e-14,2.927221154e-14,6.931378345e-14,2.939128951e-14,1.268186538e-13,1.094802714e-14,1.874420062e-14,2.6671815e-14,6.249531177e-14,6.976738836e-14,2.099106164e-14,3.484254793e-14,7.517135449e-14
1.046875,4.119771235e-14,9.611677838e-15,6.984854232e-14,3.024898598e-14,2.520424585e-14,7.055343381e-14,1.757841643e-14,6.132478174e-14,8.930862616e-14,3.441176707e-14,9.866109319e-15,8.208845018e-14,8.227958867e-14,5.613941769e-14,3.24635538e-14,3.515429241e-14,4.005848698e-14,1.038419563e-14,1.497986013e-14,9.028530304e-14,2.984803229e-14,6.801079604e-14,2.988942036e-14,1.224672093e-13,1.20268838e-14,1.813759735e-14,2.515291384e-14,6.342791461e-14,6.398017191e-14,2.26291086e-14,3.12041569e-14,7.945095108e-14
1.0546875,4.218494398e-14,8.793166798e-15,6.743958589e-14,2.974815061e-14,3.14123983e-14,6.369975125e-14,1.784001582e-14,7.111592968e-14,9.055821491e-14,3.842117753e-14,9.832027657e-15,7.924337502e-14,8.40915744e-14,5.501802671e-14,3.219658176e-14,3.547971918e-14,4.278681788e-14,1.229258166e-14,1.445554908e-14,8.825964446e-14,3.040912998e-14,6.582934399e-14,2.971396379e-14,1.175804669e-13,1.285870916e-14,1.855500164e-14,2.464911845e-14,6.523707067e-14,5.881173342e-14,2.451911405e-14,2.868556125e-14,8.540460957e-14
1.0625,4.377242004e-14,8.849712396e-15,6.690562538e-14,2.974442019e-14,4.001822599e-14,5.627494702e-14,1.817596146e-14,8.411883514e-14,9.331063742e-14,4.368105954e-14,9.693566098e-15,7.622513796e-14,8.514046694e-14,5.321051601e-14,3.273256066e-14,3.671759048e-14,4.717663601e-14,1.570129539e-14,1.493702509e-14,8.614816186e-14,3.072478919e-14,6.295884884e-14,2.897881289e-14,1.129945588e-13,1.331908871e-14,2.029336155e-14,2.497428397e-14,6.89989708e-14,5.373393274e-14,2.679118649e-14,2.723841706e-14,9.34514929e-14
1.0703125,4.585685794e-14,9.726852329e-15,6.886442541e-14,3.063042054e-14,5.069429686e-14,4.964866078e-14,1.878223162e-14,1.002932795e-13,9.809148634e-14,5.029035792e-14,9.635453816e-15,7.36603585e-14,8.558400688e-14,5.154729118e-14,3.456168536e-14,3.922099182e-14,5.362364185e-14,2.086682373e-14,1.656905988e-14,8.386267645e-14,3.06084441e-14,5.985494247e-14,2.79534542e-14,1.099456038e-13,1.338818214e-14,2.355744242e-14,2.62292726e-14,7.4945238e-14,4.904608074e-14,2.950702369e-14,2.71587524e-14,1.041884877e-13
1.078125,4.80825151e-14,1.167539478e-14,7.234242038e-14,3.306764033e-14,6.359114317e-14,4.376816491e-14,1.982761156e-14,1.188647161e-13,1.042161936e-13,5.726306915e-14,9.756520894e-15,7.150489388e-14,8.597798542e-14,5.08315086e-14,3.797876715e-14,4.326429197e-14,6.257026058e-14,2.822957314e-14,1.986926055e-14,8.209745062e-14,3.021740436e-14,5.672400091e-14,2.701502654e-14,1.081544349e-13,1.32012725e-14,2.853685559e-14,2.82909561e-14,8.239460252e-14,4.498318373e-14,3.208354219e-14,2.898193284e-14,1.179670987e-13
1.0859375,5.041020428e-14,1.489150263e-14,7.773458812e-14,3.709431705e-14,7.820486916e-14,3.883624714e-14,2.182299789e-14,1.388103308e-13,1.114923783e-13,6.390055103e-14,1.054821529e-14,7.011061803e-14,8.651664148e-14,5.139653209e-14,4.322120241e-14,4.867245152e-14,7.361010193e-14,3.786917989e-14,2.485961744e-14,8.13003447e-14,2.97320036e-14,5.385568961e-14,2.636572532e-14,1.074621032e-13,1.288024026e-14,3.520972931e-14,3.080705358e-14,8.995102543e-14,4.142187945e-14,3.439601177e-14,3.260455013e-14,1.348561269e-13
1.09375,5.283770688e-14,1.929902756e-14,8.441729501e-14,4.301108412e-14,9.451635715e-14,3.557125815e-14,2.506604056e-14,1.598710025e-13,1.197794886e-13,6.967430063e-14,1.228642683e-14,6.995612595e-14,8.776207998e-14,5.407466131e-14,5.070053672e-14,5.568022068e-14,8.658352605e-14,4.998032756e-14,3.140855579e-14,8.218448462e-14,2.977624324e-14,5.156019409e-14,2.613304771e-14,1.077930948e-13,1.260837381e-14,4.36933979e-14,3.365730106e-14,9.761230058e-14,3.867615095e-14,3.643850023e-14,3.796147048e-14,1.545054767e-13
1.1015625,5.515234584e-14,2.510325756e-14,9.114608105e-14,5.085424207e-14,1.123774203e-13,3.395703541e-14,2.919610276e-14,1.805280039e-13,1.275959393e-13,7.390740012e-14,1.509840626e-14,7.053845864e-14,8.989617902e-14,5.906009793e-14,6.072739063e-14,6.459975827e-14,1.012183713e-13,6.457423653e-14,3.941039484e-14,8.43279168e-14,3.064264775e-14,4.970867115e-14,2.650471461e-14,1.085065024e-13,1.254375641e-14,5.386812717e-14,3.655618508e-14,1.043081117e-13,3.669814673e-14,3.79126682e-14,4.51181449e-14,1.756249401e-13
1.109375,5.785824364e-14,3.181812357e-14,9.725289733e-14,5.964810265e-14,1.297967509e-13,3.422902349e-14,3.451964645e-14,2.000350611e-13,1.345117164e-13,7.694546873e-14,1.893306456e-14,7.209354582e-14,9.269696119e-14,6.643386216e-14,7.307656198e-14,7.535897397e-14,1.169802621e-13,8.120124864e-14,4.828881245e-14,8.7610676e-14,3.234553601e-14,4.838656865e-14,2.793406835e-14,1.088979812e-13,1.29178284e-14,6.510949015e-14,3.95613238e-14,1.100860539e-13,3.542853828e-14,3.907911355e-14,5.307424169e-14,1.962900292e-13
1.1171875,6.12665022e-14,3.939670153e-14,1.027190744e-13,6.915857372e-14,1.454832799e-13,3.638840438e-14,4.063099993e-14,2.173869836e-13,1.402705311e-13,7.850541323e-14,2.353409785e-14,7.498557274e-14,9.607663613e-14,7.667512365e-14,8.731185422e-14,8.711329639e-14,1.322433301e-13,9.909947814e-14,5.755182705e-14,9.191623956e-14,3.514714684e-14,4.777528585e-14,3.043013901e-14,1.089440696e-13,1.38229004e-14,7.655888387e-14,4.269407498e-14,1.147488746e-13,3.512959726e-14,4.020123554e-14,6.116124906e-14,2.149042948e-13
1.125,6.529458826e-14,4.698985846e-14,1.07578913e-13,7.838232547e-14,1.578370921e-13,4.073392578e-14,4.677544779e-14,2.322527082e-13,1.447133623e-13,7.944673785e-14,2.848406841e-14,7.852635724e-14,9.918693035e-14,8.883535841e-14,1.023894232e-13,9.877239066e-14,1.455622089e-13,1.169117652e-13,6.624131325e-14,9.671726922e-14,3.878939563e-14,4.789728618e-14,3.405792443e-14,1.081840238e-13,1.524770989e-14,8.724245138e-14,4.637753685e-14,1.189385987e-13,3.559446392e-14,4.144679875e-14,6.795728254e-14,2.293723867e-13
1.1328125,6.976683672e-14,5.428890656e-14,1.114677613e-13,8.692552289e-14,1.669201988e-13,4.653831353e-14,5.180493766e-14,2.44697245e-13,1.474591609e-13,7.979249441e-14,3.359464773e-14,8.200289182e-14,1.013951072e-13,1.014401129e-13,1.175099491e-13,1.101811765e-13,1.565471743e-13,1.3368763e-13,7.373929094e-14,1.014795303e-13,4.296970826e-14,4.849730458e-14,3.898804818e-14,1.066981172e-13,1.717097941e-14,9.633283965e-14,5.077166804e-14,1.222726737e-13,3.639817449e-14,4.26729243e-14,7.295283429e-14,2.382053236e-13
1.140625,7.506143354e-14,6.076252148e-14,1.146906341e-13,9.321670558e-14,1.713509507e-13,5.363243994e-14,5.579627154e-14,2.542132264e-13,1.492365475e-13,8.023744181e-14,3.847862063e-14,8.573299759e-14,1.022189026e-13,1.131070591e-13,1.304304188e-13,1.197042438e-13,1.640041954e-13,1.479174491e-13,7.906718079e-14,1.058206298e-13,4.691149385e-14,4.972228115e-14,4.516638755e-14,1.049287257e-13,1.964058585e-14,1.02421929e-13,5.570946251e-14,1.252284801e-13,3.725709425e-14,4.437877845e-14,7.541503575e-14,2.400507462e-13
1.1484375,8.1263814e-14,6.586007964e-14,1.184555718e-13,9.697079125e-14,1.706547538e-13,6.186724957e-14,5.832934671e-14,2.607694037e-13,1.501480883e-13,8.127957181e-14,4.274173844e-14,8.957502242e-14,1.017482493e-13,1.232090415e-13,1.402831397e-13,1.26885006e-13,1.668795531e-13,1.588184073e-13,8.208970597e-14,1.089736585e-13,4.952873558e-14,5.15254279e-14,5.251490549e-14,1.028953614e-13,2.266275873e-14,1.043871055e-13,6.082063577e-14,1.295734455e-13,3.789368649e-14,4.659224808e-14,7.441366481e-14,2.337511796e-13
1.15625,8.792330227e-14,6.927348699e-14,1.232581933e-13,9.826928176e-14,1.656266711e-13,7.135489916e-14,5.926974878e-14,2.63922103e-13,1.507166961e-13,8.243691952e-14,4.621250593e-14,9.293696342e-14,1.001517333e-13,1.307766644e-13,1.465111707e-13,1.316907271e-13,1.651758728e-13,1.660846696e-13,8.305088743e-14,1.113452524e-13,5.059997804e-14,5.369166559e-14,6.033134281e-14,1.00946381e-13,2.623430359e-14,1.020603569e-13,6.576183828e-14,1.347313711e-13,3.818372028e-14,4.908909592e-14,6.999457335e-14,2.206356666e-13
1.1640625,9.482049142e-14,7.066356079e-14,1.289628214e-13,9.711839655e-14,1.569893929e-13,8.147973904e-14,5.850830022e-14,2.639021898e-13,1.516263105e-13,8.358689573e-14,4.875226689e-14,9.523296009e-14,9.707746898e-14,1.348873406e-13,1.486457919e-13,1.340526728e-13,1.598217101e-13,1.690898944e-13,8.179602633e-14,1.141019595e-13,5.004274789e-14,5.602759713e-14,6.80995509e-14,9.912450297e-14,3.021044946e-14,9.600140553e-14,7.038965352e-14,1.409003251e-13,3.796473103e-14,5.159399422e-14,6.250417498e-14,2.02797403e-13
1.171875,1.020612521e-13,7.089917256e-14,1.356523321e-13,9.471210969e-14,1.473400637e-13,9.221651434e-14,5.607602997e-14,2.612589177e-13,1.535023895e-13,8.429711462e-14,5.055833017e-14,9.668895025e-14,9.361965243e-14,1.362668883e-13,1.475378822e-13,1.347618322e-13,1.523115723e-13,1.68703072e-13,7.933960405e-14,1.181071326e-13,4.798739293e-14,5.869751151e-14,7.490116933e-14,9.83353382e-14,3.461678426e-14,8.792347606e-14,7.433360143e-14,1.482512487e-13,3.727333843e-14,5.41250122e-14,5.406454972e-14,1.828054826e-13
1.1796875,1.096581384e-13,7.082226794e-14,1.4388228e-13,9.178541308e-14,1.376510774e-13,1.035575803e-13,5.289318392e-14,2.565499915e-13,1.564914761e-13,8.427807833e-14,5.201004309e-14,9.756071049e-14,9.067803712e-14,1.357589607e-13,1.445447327e-13,1.347542722e-13,1.440974056e-13,1.660725495e-13,7.646435754e-14,1.230971155e-13,4.463216305e-14,6.177195117e-14,8.017186808e-14,9.875049565e-14,3.945832416e-14,7.832704415e-14,7.73338591e-14,1.571860029e-13,3.608447886e-14,5.691194289e-14,4.530136449e-14,1.621606412e-13
1.1875,1.166589298e-13,7.063959973e-14,1.530621902e-13,8.892829941e-14,1.285824721e-13,1.156072939e-13,4.977061806e-14,2.488163732e-13,1.594463501e-13,8.348195872e-14,5.32354057e-14,9.754978707e-14,8.889193969e-14,1.340074417e-13,1.404901718e-13,1.346756789e-13,1.357548759e-13,1.622826139e-13,7.379261056e-14,1.283707464e-13,4.027662105e-14,6.496570603e-14,8.295503871e-14,9.947842304e-14,4.434673567e-14,6.810019288e-14,7.947418739e-14,1.670955384e-13,3.47971171e-14,5.942312279e-14,3.691293887e-14,1.423041717e-13
1.1953125,1.221333776e-13,7.068133405e-14,1.614438766e-13,8.647704532e-14,1.210862227e-13,1.272464873e-13,4.702711355e-14,2.382083953e-13,1.624270712e-13,8.132752944e-14,5.373867599e-14,9.616619208e-14,8.829246787e-14,1.308549158e-13,1.353191045e-13,1.344526999e-13,1.28016937e-13,1.575192393e-13,7.166801295e-14,1.340318055e-13,3.580521027e-14,6.822353581e-14,8.319892536e-14,1.009142653e-13,4.865243346e-14,5.859431459e-14,8.087715422e-14,1.765878624e-13,3.346695328e-14,6.142309811e-14,2.993167984e-14,1.250809812e-13
1.203125,1.268121711e-13,7.206691319e-14,1.699112677e-13,8.552394529e-14,1.156210435e-13,1.387603723e-13,4.537819676e-14,2.262730786e-13,1.659756526e-13,7.898895328e-14,5.425280259e-14,9.499177027e-14,9.005556422e-14,1.281050268e-13,1.306512872e-13,1.34566904e-13,1.214710934e-13,1.523719123e-13,7.07435324e-14,1.391909077e-13,3.203290643e-14,7.207028227e-14,8.098664848e-14,1.035329096e-13,5.251038869e-14,5.07431534e-14,8.225742443e-14,1.864876225e-13,3.25954111e-14,6.382056325e-14,2.511372261e-14,1.109041506e-13
1.2109375,1.297814926e-13,7.466317798e-14,1.778044898e-13,8.611481224e-14,1.125487251e-13,1.496348716e-13,4.521034901e-14,2.12931182e-13,1.69106989e-13,7.66812148e-14,5.499167364e-14,9.382713232e-14,9.425154934e-14,1.257755448e-13,1.266305312e-13,1.34816538e-13,1.160819795e-13,1.47276702e-13,7.090327349e-14,1.434080639e-13,2.915789353e-14,7.613914991e-14,7.617819032e-14,1.071391019e-13,5.573810546e-14,4.478182489e-14,8.35441817e-14,1.961592326e-13,3.212633208e-14,6.634460659e-14,2.248782589e-14,9.979146066e-14
1.21875,1.311150443e-13,7.823944997e-14,1.855944906e-13,8.751738424e-14,1.110968086e-13,1.585782907e-13,4.690053523e-14,1.98929688e-13,1.717815056e-13,7.488036183e-14,5.605101145e-14,9.301351559e-14,1.002361856e-13,1.234331117e-13,1.228834767e-13,1.341076847e-13,1.112517274e-13,1.41666307e-13,7.151739806e-14,1.458461474e-13,2.725833978e-14,8.051694532e-14,6.960901653e-14,1.121096717e-13,5.862156842e-14,4.045821975e-14,8.428668914e-14,2.063462652e-13,3.181562975e-14,6.925192857e-14,2.167097948e-14,9.137321884e-14
1.2265625,1.312147824e-13,8.29488251e-14,1.937266891e-13,9.0009254e-14,1.10627706e-13,1.660127623e-13,5.047404593e-14,1.851415925e-13,1.740353918e-13,7.423136743e-14,5.796204863e-14,9.352986663e-14,1.077441237e-13,1.217942109e-13,1.199656701e-13,1.327351156e-13,1.0667474e-13,1.359909609e-13,7.282940362e-14,1.462578324e-13,2.645339864e-14,8.525652257e-14,6.182715863e-14,1.180498167e-13,6.085158546e-14,3.745698181e-14,8.527136278e-14,2.184000492e-13,3.18489336e-14,7.282595909e-14,2.228876861e-14,8.489698028e-14
1.234375,1.299529585e-13,8.847584889e-14,2.020855218e-13,9.355462871e-14,1.111886975e-13,1.710725923e-13,5.560638488e-14,1.716987084e-13,1.752404085e-13,7.442797652e-14,6.091992784e-14,9.508988433e-14,1.165829709e-13,1.209267053e-13,1.180685156e-13,1.313192782e-13,1.029242524e-13,1.313187957e-13,7.492767356e-14,1.44609551e-13,2.665988736e-14,9.024500524e-14,5.369012278e-14,1.24291206e-13,6.266670733e-14,3.564543139e-14,8.646294663e-14,2.318415739e-13,3.19971623e-14,7.671701779e-14,2.38373443e-14,8.017741813e-14
1.2421875,1.275089878e-13,9.454817861e-14,2.112709514e-13,9.835418735e-14,1.123627829e-13,1.744608865e-13,6.262695348e-14,1.594760287e-13,1.749094236e-13,7.615118429e-14,6.537695419e-14,9.803784757e-14,1.258595007e-13,1.203369271e-13,1.177184102e-13,1.30421701e-13,9.98391276e-14,1.278265387e-13,7.74268537e-14,1.415714734e-13,2.78628422e-14,9.530425673e-14,4.594902517e-14,1.304620866e-13,6.416402124e-14,3.477997644e-14,8.730504391e-14,2.473357035e-13,3.19142e-14,8.111840358e-14,2.606857001e-14,7.649675422e-14
1.25,1.238547565e-13,1.007725769e-13,2.203523424e-13,1.042833768e-13,1.138219453e-13,1.759363078e-13,7.046427706e-14,1.482794854e-13,1.719483396e-13,7.895885242e-14,7.12654106e-14,1.020524545e-13,1.348238409e-13,1.194535468e-13,1.188785548e-13,1.303286681e-13,9.734581282e-14,1.255621315e-13,8.031028015e-14,1.373404881e-13,2.974946201e-14,9.963284826e-14,3.881592084e-14,1.34649943e-13,6.50480625e-14,3.46287423e-14,8.792353695e-14,2.662328641e-13,3.1724141e-14,8.490363414e-14,2.891655405e-14,7.318114297e-14
1.2578125,1.205366209e-13,1.074913807e-13,2.305868254e-13,1.114458721e-13,1.150729577e-13,1.763124676e-13,7.848629196e-14,1.382414474e-13,1.667142114e-13,8.254234589e-14,7.853178095e-14,1.07035432e-13,1.424981736e-13,1.184976269e-13,1.219390351e-13,1.313664717e-13,9.532782864e-14,1.24559599e-13,8.3695841e-14,1.322471491e-13,3.233450621e-14,1.028656859e-13,3.257631955e-14,1.357512892e-13,6.575238893e-14,3.482664295e-14,8.817347873e-14,2.890403998e-13,3.108383302e-14,8.832545187e-14,3.186270589e-14,7.009565418e-14
1.265625,1.177996301e-13,1.147140474e-13,2.427675289e-13,1.200735315e-13,1.152205476e-13,1.768720154e-13,8.562536256e-14,1.294584882e-13,1.592616528e-13,8.690168797e-14,8.738294352e-14,1.133405653e-13,1.482031351e-13,1.183471375e-13,1.275161838e-13,1.342237521e-13,9.423059391e-14,1.250111516e-13,8.76625324e-14,1.279041941e-13,3.555985299e-14,1.044824977e-13,2.74164791e-14,1.340892879e-13,6.592369491e-14,3.506312531e-14,8.850390237e-14,3.158444972e-13,3.048312824e-14,9.152359847e-14,3.43423098e-14,6.675800182e-14
1.2734375,1.1618932e-13,1.229167497e-13,2.569345783e-13,1.30268743e-13,1.142030338e-13,1.781273067e-13,9.18721783e-14,1.221590616e-13,1.498559471e-13,9.196104468e-14,9.74524003e-14,1.207192001e-13,1.519045383e-13,1.19750379e-13,1.359540031e-13,1.392424066e-13,9.440146315e-14,1.273508829e-13,9.260093815e-14,1.242777157e-13,3.918109986e-14,1.044945819e-13,2.353336268e-14,1.292017391e-13,6.577748774e-14,3.546466484e-14,8.884663027e-14,3.450102155e-13,3.019755429e-14,9.475936291e-14,3.670537697e-14,6.268050597e-14
1.28125,1.160011777e-13,1.319588827e-13,2.735143331e-13,1.418062302e-13,1.120380262e-13,1.807603328e-13,9.644273491e-14,1.175088765e-13,1.396836633e-13,9.793554304e-14,1.088875446e-13,1.293193267e-13,1.527755205e-13,1.22005551e-13,1.468207963e-13,1.461142277e-13,9.589316014e-14,1.311574618e-13,9.818046733e-14,1.208387326e-13,4.3241325e-14,1.028164425e-13,2.108709259e-14,1.224673395e-13,6.53234278e-14,3.574096394e-14,8.949628873e-14,3.765373992e-13,3.015279185e-14,9.855550775e-14,3.830858738e-14,5.840768716e-14
1.2890625,1.172716346e-13,1.420198473e-13,2.92243873e-13,1.546337404e-13,1.090786085e-13,1.846502249e-13,9.934386825e-14,1.156547541e-13,1.291718612e-13,1.042459633e-13,1.214645496e-13,1.391099398e-13,1.511485661e-13,1.259546785e-13,1.601698002e-13,1.548816654e-13,9.899380036e-14,1.365965964e-13,1.043629894e-13,1.176588846e-13,4.8037468e-14,9.93093621e-14,2.010080674e-14,1.151179178e-13,6.459311367e-14,3.605821005e-14,9.066230344e-14,4.080571624e-13,3.059862901e-14,1.030951347e-13,3.947971799e-14,5.408963848e-14
1.296875,1.201088567e-13,1.524832455e-13,3.115126923e-13,1.67971373e-13,1.055732446e-13,1.888444995e-13,1.006722056e-13,1.165094399e-13,1.19455376e-13,1.110077151e-13,1.344625452e-13,1.497275849e-13,1.474914376e-13,1.314643168e-13,1.748644189e-13,1.645442246e-13,1.02923453e-13,1.428935978e-13,1.107329397e-13,1.143992589e-13,5.310392548e-14,9.434663726e-14,2.046459219e-14,1.079231332e-13,6.338985205e-14,3.632997708e-14,9.230322262e-14,4.369482308e-13,3.161183686e-14,1.089163549e-13,4.014227858e-14,4.954814695e-14
1.3046875,1.243350699e-13,1.634225543e-13,3.294755691e-13,1.810599887e-13,1.014805578e-13,1.929129316e-13,1.01164851e-13,1.195384336e-13,1.11476335e-13,1.177737606e-13,1.472378823e-13,1.612092441e-13,1.426336847e-13,1.386881066e-13,1.894620561e-13,1.737193504e-13,1.06858678e-13,1.489914182e-13,1.16931999e-13,1.104716692e-13,5.860404515e-14,8.879121025e-14,2.19777335e-14,1.024573744e-13,6.187346692e-14,3.675501348e-14,9.431846774e-14,4.604340588e-13,3.338205367e-14,1.165303246e-13,4.038406176e-14,4.532674667e-14
1.3125,1.292558914e-13,1.738718338e-13,3.439328201e-13,1.918600797e-13,9.623239918e-14,1.9516805e-13,1.015377764e-13,1.240596524e-13,1.05365868e-13,1.239582995e-13,1.590915455e-13,1.729493752e-13,1.370038727e-13,1.46584772e-13,2.014453152e-13,1.798669995e-13,1.094727925e-13,1.534885967e-13,1.221793361e-13,1.059226854e-13,6.372243948e-14,8.308401692e-14,2.422267714e-14,9.909571429e-14,5.994839406e-14,3.706589917e-14,9.596128489e-14,4.773945532e-13,3.57062921e-14,1.254405484e-13,4.008296326e-14,4.116565668e-14
1.3203125,1.347140241e-13,1.8302471e-13,3.527932577e-13,1.996810927e-13,9.02763688e-14,1.954620293e-13,1.015589186e-13,1.303913344e-13,1.016802484e-13,1.29611153e-13,1.692061128e-13,1.84706478e-13,1.312305363e-13,1.54969714e-13,2.104304909e-13,1.826684499e-13,1.107194978e-13,1.559113526e-13,1.262225496e-13,1.01728265e-13,6.808354923e-14,7.778851722e-14,2.684378417e-14,9.782525294e-14,5.731435026e-14,3.75910358e-14,9.739970448e-14,4.87569793e-13,3.870032448e-14,1.355552678e-13,3.994252011e-14,3.729255254e-14
1.328125,1.395028879e-13,1.897461821e-13,3.539624886e-13,2.038405931e-13,8.430649795e-14,1.92984935e-13,1.019855831e-13,1.375086385e-13,9.971221802e-14,1.331696387e-13,1.768001894e-13,1.951790224e-13,1.254039397e-13,1.635277998e-13,2.162292095e-13,1.822559206e-13,1.108416382e-13,1.560504226e-13,1.288104267e-13,9.832108723e-14,7.125409398e-14,7.306102844e-14,2.940556613e-14,9.898204442e-14,5.415606784e-14,3.861424219e-14,9.834009609e-14,4.883525662e-13,4.252541575e-14,1.459906646e-13,4.030261545e-14,3.379834612e-14
1.3359375,1.439935528e-13,1.942217854e-13,3.475106538e-13,2.040355301e-13,7.866130103e-14,1.879409094e-13,1.028360067e-13,1.438631789e-13,9.893865894e-14,1.346667097e-13,1.822427205e-13,2.044888964e-13,1.198062272e-13,1.723677953e-13,2.187635542e-13,1.790414198e-13,1.105698776e-13,1.540284801e-13,1.303373493e-13,9.536215494e-14,7.309996068e-14,6.892063066e-14,3.13493526e-14,1.01623929e-13,5.068995286e-14,4.035035714e-14,9.935086682e-14,4.817029505e-13,4.703151815e-14,1.561941394e-13,4.151259703e-14,3.066607155e-14
1.34375,1.484073892e-13,1.965289533e-13,3.342820131e-13,2.004905679e-13,7.363275102e-14,1.814211658e-13,1.032104536e-13,1.486586271e-13,9.878726495e-14,1.343094048e-13,1.854588866e-13,2.126177508e-13,1.150361771e-13,1.815221146e-13,2.178026584e-13,1.72998664e-13,1.100491374e-13,1.499481214e-13,1.309073994e-13,9.279683716e-14,7.403434781e-14,6.539350424e-14,3.266845025e-14,1.045194417e-13,4.726574276e-14,4.343808141e-14,1.010813974e-13,4.696797987e-13,5.274598863e-14,1.652301715e-13,4.465833916e-14,2.845944052e-14
1.3515625,1.522956958e-13,1.965353535e-13,3.156218372e-13,1.932328909e-13,6.924618384e-14,1.734591559e-13,1.031055116e-13,1.512218947e-13,9.852805286e-14,1.322171472e-13,1.864580916e-13,2.191836837e-13,1.110006085e-13,1.901524892e-13,2.13450937e-13,1.643733967e-13,1.094089288e-13,1.441098656e-13,1.306747986e-13,9.029793526e-14,7.368566342e-14,6.234532417e-14,3.297220743e-14,1.073627755e-13,4.44002519e-14,4.746210841e-14,1.031826886e-13,4.538954794e-13,5.932016123e-14,1.722375029e-13,4.966611598e-14,2.697659606e-14
1.359375,1.55326973e-13,1.94943435e-13,2.936089654e-13,1.839321861e-13,6.591243335e-14,1.65266758e-13,1.021967058e-13,1.516010784e-13,9.754150488e-14,1.289867137e-13,1.852668255e-13,2.241740474e-13,1.078245375e-13,1.98424212e-13,2.073040593e-13,1.551146442e-13,1.09986098e-13,1.378983072e-13,1.301216073e-13,8.815645816e-14,7.242884493e-14,5.96180143e-14,3.232229351e-14,1.089822677e-13,4.245534621e-14,5.229818134e-14,1.060335284e-13,4.353190325e-13,6.660325952e-14,1.764369006e-13,5.653345449e-14,2.646670528e-14
1.3671875,1.572518439e-13,1.918680276e-13,2.699526119e-13,1.735387416e-13,6.347304293e-14,1.570518136e-13,1.000150437e-13,1.500252504e-13,9.58048831e-14,1.246481193e-13,1.820747575e-13,2.270603432e-13,1.055118121e-13,2.057377347e-13,2.000360994e-13,1.464947173e-13,1.118836101e-13,1.316791999e-13,1.290313091e-13,8.667385313e-14,7.081411957e-14,5.708849936e-14,3.089081828e-14,1.0887145e-13,4.199324225e-14,5.76005804e-14,1.096025539e-13,4.140506239e-13,7.424899945e-14,1.773965286e-13,6.487783852e-14,2.712842363e-14
1.375,1.57537665e-13,1.872445863e-13,2.461111458e-13,1.61952244e-13,6.101362045e-14,1.485512837e-13,9.638388065e-14,1.457012684e-13,9.294555334e-14,1.196217441e-13,1.761023977e-13,2.274507655e-13,1.044129933e-13,2.117171145e-13,1.912821564e-13,1.38366881e-13,1.139767498e-13,1.252655762e-13,1.273024665e-13,8.548754071e-14,6.873344027e-14,5.457426634e-14,2.878790118e-14,1.064468352e-13,4.341301232e-14,6.298614198e-14,1.135276998e-13,3.900231847e-13,8.224853068e-14,1.745160313e-13,7.38625221e-14,2.892672722e-14
1.3828125,1.556444959e-13,1.809304936e-13,2.247645796e-13,1.495671152e-13,5.808429639e-14,1.400569775e-13,9.137061126e-14,1.388597787e-13,8.889088785e-14,1.140396916e-13,1.677973428e-13,2.243799989e-13,1.041674882e-13,2.1536584e-13,1.813246414e-13,1.310625454e-13,1.156662653e-13,1.184398843e-13,1.243563112e-13,8.545033308e-14,6.623635971e-14,5.188733679e-14,2.661723063e-14,1.019029391e-13,4.716791789e-14,6.786766922e-14,1.17251664e-13,3.635994987e-13,8.960918641e-14,1.677621658e-13,8.230328666e-14,3.188311976e-14
1.390625,1.521737585e-13,1.733688126e-13,2.077026983e-13,1.370699291e-13,5.534492419e-14,1.318653843e-13,8.524882424e-14,1.30811359e-13,8.411455801e-14,1.077445086e-13,1.581144945e-13,2.179940993e-13,1.047275719e-13,2.163682181e-13,1.711163794e-13,1.257947335e-13,1.170147699e-13,1.119326381e-13,1.201638949e-13,8.665957033e-14,6.342720963e-14,4.923475723e-14,2.460127753e-14,9.577905557e-14,5.38052747e-14,7.184001969e-14,1.19952188e-13,3.36391593e-13,9.488595232e-14,1.580670267e-13,8.943217491e-14,3.575037781e-14
1.3984375,1.48193121e-13,1.654573086e-13,1.979012975e-13,1.250542761e-13,5.257402136e-14,1.246167739e-13,7.870756135e-14,1.219123747e-13,7.918632101e-14,1.015381407e-13,1.481029048e-13,2.095255481e-13,1.062652286e-13,2.148787511e-13,1.614691921e-13,1.231589772e-13,1.183076794e-13,1.062421688e-13,1.147870913e-13,8.846633614e-14,6.019410041e-14,4.673214812e-14,2.256955433e-14,8.890543197e-14,6.314783541e-14,7.421678118e-14,1.217980638e-13,3.111150082e-13,9.732489106e-14,1.465686741e-13,9.45019202e-14,4.011511954e-14
1.40625,1.454614282e-13,1.587466084e-13,1.978370478e-13,1.141636724e-13,4.945741535e-14,1.192579458e-13,7.160536613e-14,1.123751072e-13,7.526216861e-14,9.510003507e-14,1.385818307e-13,1.99990803e-13,1.088694349e-13,2.117271852e-13,1.529246312e-13,1.230278544e-13,1.197234672e-13,1.017189534e-13,1.086420276e-13,9.049869283e-14,5.681085916e-14,4.478775838e-14,2.042438452e-14,8.200207116e-14,7.528415269e-14,7.485014887e-14,1.228708043e-13,2.899546807e-13,9.710708464e-14,1.344273423e-13,9.675983145e-14,4.499490556e-14
1.4140625,1.44697105e-13,1.538561801e-13,2.08041163e-13,1.043861298e-13,4.574010065e-14,1.156400621e-13,6.477294138e-14,1.038172005e-13,7.318823738e-14,8.860818185e-14,1.30006095e-13,1.901331266e-13,1.129706802e-13,2.07239699e-13,1.45478592e-13,1.249344139e-13,1.209647318e-13,9.864362056e-14,1.017368068e-13,9.282737971e-14,5.279229601e-14,4.401692547e-14,1.826695815e-14,7.696166185e-14,8.951043415e-14,7.395624784e-14,1.229744723e-13,2.734348761e-13,9.494741041e-14,1.230804626e-13,9.623270687e-14,4.999143868e-14
1.421875,1.459718389e-13,1.506926536e-13,2.278383368e-13,9.599751367e-14,4.109831136e-14,1.137006076e-13,5.839323719e-14,9.691755561e-14,7.324185491e-14,8.193636422e-14,1.230524063e-13,1.807004092e-13,1.182675255e-13,2.008843676e-13,1.390432642e-13,1.283315383e-13,1.213095424e-13,9.616543215e-14,9.365341022e-14,9.594004039e-14,4.805458629e-14,4.464470882e-14,1.636874942e-14,7.41097196e-14,1.048884234e-13,7.108041684e-14,1.217310011e-13,2.628545969e-13,9.12126647e-14,1.126789362e-13,9.237272926e-14,5.427446699e-14
1.4296875,1.506718667e-13,1.497274765e-13,2.582291347e-13,8.907769302e-14,3.586568795e-14,1.148863579e-13,5.309092193e-14,9.179470166e-14,7.599222776e-14,7.5631765e-14,1.186077778e-13,1.72672819e-13,1.243248161e-13,1.931163593e-13,1.342761962e-13,1.333481618e-13,1.209053236e-13,9.417285957e-14,8.486156701e-14,9.979360074e-14,4.327452901e-14,4.697682455e-14,1.474251325e-14,7.373702057e-14,1.213093046e-13,6.646596811e-14,1.193942629e-13,2.596264345e-13,8.540927646e-14,1.043887154e-13,8.546394107e-14,5.813076647e-14
1.4375,1.58750307e-13,1.508091427e-13,2.977582501e-13,8.360912517e-14,3.091863335e-14,1.193240982e-13,4.866608132e-14,8.84277961e-14,8.134220836e-14,7.012243149e-14,1.170403571e-13,1.670562987e-13,1.310913928e-13,1.852586765e-13,1.314112525e-13,1.393014344e-13,1.202015992e-13,9.315607213e-14,7.612393953e-14,1.037503531e-13,3.865891845e-14,5.07201698e-14,1.312162944e-14,7.608071673e-14,1.373616417e-13,6.106987437e-14,1.175385456e-13,2.648353164e-13,7.789165165e-14,9.839892629e-14,7.662306391e-14,6.196659663e-14
1.4453125,1.697762637e-13,1.541668422e-13,3.422288496e-13,7.979472349e-14,2.670475071e-14,1.257796901e-13,4.539888913e-14,8.720473652e-14,8.960251792e-14,6.65118077e-14,1.174133688e-13,1.649689561e-13,1.390103713e-13,1.782132011e-13,1.294583859e-13,1.441870587e-13,1.181914132e-13,9.305585404e-14,6.829242648e-14,1.066876242e-13,3.481523496e-14,5.631819486e-14,1.153224549e-14,8.145538084e-14,1.515163608e-13,5.575812238e-14,1.168816351e-13,2.772327059e-13,7.020906393e-14,9.468327322e-14,6.70253302e-14,6.598675383e-14
1.453125,1.825390881e-13,1.59785761e-13,3.859592745e-13,7.727484836e-14,2.347920624e-14,1.32517388e-13,4.33506806e-14,8.81904889e-14,1.002385605e-13,6.482680051e-14,1.185439535e-13,1.656813922e-13,1.469497105e-13,1.718651385e-13,1.277341376e-13,1.472161894e-13,1.142852702e-13,9.288852116e-14,6.149853838e-14,1.0819781e-13,3.199583931e-14,6.329173792e-14,1.007274404e-14,8.969200468e-14,1.629173494e-13,5.129762628e-14,1.167787885e-13,2.940348661e-13,6.330247679e-14,9.25541018e-14,5.797249337e-14,6.99433638e-14
1.4609375,1.962167589e-13,1.667273843e-13,4.26492588e-13,7.580530033e-14,2.161579595e-14,1.388607488e-13,4.210733203e-14,9.084937168e-14,1.119919873e-13,6.56105435e-14,1.201521782e-13,1.681557058e-13,1.535496747e-13,1.663550518e-13,1.263090204e-13,1.481909388e-13,1.091520783e-13,9.226195953e-14,5.577471385e-14,1.090269905e-13,3.026214627e-14,7.092513491e-14,8.829871799e-15,9.954415451e-14,1.714198263e-13,4.796804681e-14,1.173592184e-13,3.155446941e-13,5.702587026e-14,9.165827614e-14,4.972348497e-14,7.374020991e-14
1.46875,2.088890156e-13,1.737718379e-13,4.571739172e-13,7.449871003e-14,2.110079562e-14,1.427793261e-13,4.115284445e-14,9.45491151e-14,1.235358124e-13,6.893217281e-14,1.209040715e-13,1.710315578e-13,1.574953601e-13,1.610960085e-13,1.234065128e-13,1.458542479e-13,1.021269264e-13,9.054573397e-14,5.107188993e-14,1.098089248e-13,2.992577976e-14,7.835032076e-14,8.023605608e-15,1.093105347e-13,1.763370634e-13,4.632983632e-14,1.18429156e-13,3.388071658e-13,5.152171589e-14,9.073249714e-14,4.277175666e-14,7.7775031e-14
1.4765625,2.191952069e-13,1.80088152e-13,4.751831915e-13,7.306741492e-14,2.222320301e-14,1.438278637e-13,4.05948312e-14,9.884235538e-14,1.343365798e-13,7.479466062e-14,1.200647696e-13,1.738359675e-13,1.592499441e-13,1.559030944e-13,1.191717439e-13,1.408613026e-13,9.337807539e-14,8.814500793e-14,4.768909161e-14,1.100768562e-13,3.119520725e-14,8.537858397e-14,7.568004125e-15,1.180255716e-13,1.778469872e-13,4.696300566e-14,1.201021182e-13,3.60302353e-13,4.734318445e-14,8.942370842e-14,3.824188037e-14,8.191762209e-14
1.484375,2.254452887e-13,1.843549299e-13,4.772206339e-13,7.068509385e-14,2.505784359e-14,1.409526018e-13,4.020201022e-14,1.033552591e-13,1.420812955e-13,8.314117977e-14,1.169800746e-13,1.745435505e-13,1.571725257e-13,1.492150566e-13,1.133445224e-13,1.326097619e-13,8.33214506e-14,8.454490632e-14,4.531553329e-14,1.100062349e-13,3.451582386e-14,9.054050632e-14,7.6546217e-15,1.250635936e-13,1.755678546e-13,5.006355699e-14,1.220671918e-13,3.784443607e-13,4.463063007e-14,8.704647631e-14,3.707700587e-14,8.492633919e-14
1.4921875,2.27016138e-13,1.860521777e-13,4.618701441e-13,6.746507112e-14,2.927701734e-14,1.341328602e-13,4.001574585e-14,1.069572839e-13,1.452711617e-13,9.291577935e-14,1.114033605e-13,1.711064828e-13,1.506182896e-13,1.402150108e-13,1.062833143e-13,1.219799517e-13,7.272087026e-14,7.934218972e-14,4.370261101e-14,1.111717301e-13,4.007835905e-14,9.320413265e-14,8.286910947e-15,1.291885782e-13,1.692947995e-13,5.576016815e-14,1.235106792e-13,3.926037229e-13,4.24500141e-14,8.304377706e-14,3.955743972e-14,8.627121984e-14
1.5,2.249661843e-13,1.85811116e-13,4.340737433e-13,6.497784227e-14,3.486664806e-14,1.252958227e-13,4.023222731e-14,1.091346888e-13,1.440769943e-13,1.031287048e-13,1.054122285e-13,1.644156222e-13,1.414088581e-13,1.301428584e-13,9.989569131e-14,1.111056508e-13,6.314445788e-14,7.421782133e-14,4.319179925e-14,1.139188922e-13,4.757246797e-14,9.365112105e-14,9.388017182e-15,1.296148301e-13,1.602736483e-13,6.373979013e-14,1.244486752e-13,4.030431652e-13,4.104701365e-14,7.847510549e-14,4.524378302e-14,8.56705383e-14
1.5078125,2.197705815e-13,1.832502702e-13,3.982745833e-13,6.302691842e-14,4.104819157e-14,1.154963198e-13,4.073019427e-14,1.099981658e-13,1.389818516e-13,1.129551458e-13,9.951127288e-14,1.551649847e-13,1.303726963e-13,1.192609434e-13,9.482994663e-14,1.01492793e-13,5.549330419e-14,7.004811123e-14,4.337030129e-14,1.175373352e-13,5.628284244e-14,9.165827309e-14,1.080035546e-14,1.254627657e-13,1.492724272e-13,7.287178325e-14,1.24934255e-13,4.104260787e-13,4.093626613e-14,7.346622454e-14,5.296378079e-14,8.29488833e-14
1.515625,2.116876229e-13,1.778864318e-13,3.597312291e-13,6.136388957e-14,4.665872026e-14,1.059678548e-13,4.154770618e-14,1.089664824e-13,1.302662723e-13,1.213527052e-13,9.362860039e-14,1.42945399e-13,1.178984643e-13,1.077305956e-13,9.169265241e-14,9.416909391e-14,4.991823661e-14,6.654036934e-14,4.350821125e-14,1.209186179e-13,6.563369186e-14,8.719651232e-14,1.235872757e-14,1.176144603e-13,1.364552587e-13,8.191049056e-14,1.242719551e-13,4.152290429e-13,4.118944761e-14,6.806220786e-14,6.149244808e-14,7.838715895e-14
1.5234375,2.01014506e-13,1.698907992e-13,3.212764358e-13,5.988514871e-14,5.137899764e-14,9.7234088e-14,4.301998265e-14,1.061537952e-13,1.189850308e-13,1.272355637e-13,8.81680025e-14,1.292198775e-13,1.04573612e-13,9.646182704e-14,9.001018428e-14,8.876957015e-14,4.660360256e-14,6.360035996e-14,4.326537011e-14,1.237243814e-13,7.516879607e-14,8.055372131e-14,1.38730046e-14,1.083495107e-13,1.223335536e-13,8.95482862e-14,1.216503116e-13,4.167308655e-13,4.169088083e-14,6.269071215e-14,6.979219341e-14,7.219562345e-14
1.53125,1.883110768e-13,1.606910986e-13,2.844342909e-13,5.915793291e-14,5.47371479e-14,9.036627363e-14,4.534723026e-14,1.014259785e-13,1.058994683e-13,1.299782281e-13,8.319058929e-14,1.150990647e-13,9.164774835e-14,8.627725216e-14,9.032726975e-14,8.622727899e-14,4.592765847e-14,6.201582843e-14,4.28259876e-14,1.251924383e-13,8.405330769e-14,7.264910186e-14,1.518051625e-14,9.71747904e-14,1.080238714e-13,9.483676203e-14,1.17530072e-13,4.144259849e-13,4.288110919e-14,5.724332372e-14,7.67140624e-14,6.444709052e-14
1.5390625,1.746985403e-13,1.513797146e-13,2.527718939e-13,5.963267719e-14,5.674857026e-14,8.620264744e-14,4.851827111e-14,9.490705533e-14,9.252233717e-14,1.300445235e-13,7.950504295e-14,1.01910104e-13,8.048144423e-14,7.828370664e-14,9.27996027e-14,8.656633535e-14,4.787248796e-14,6.192088105e-14,4.218585823e-14,1.246062801e-13,9.177985326e-14,6.431953317e-14,1.618627973e-14,8.608109609e-14,9.455862662e-14,9.772447905e-14,1.126758503e-13,4.086735003e-13,4.46182998e-14,5.238179021e-14,8.230892922e-14,5.653560709e-14
1.546875,1.603628362e-13,1.409949841e-13,2.259516258e-13,5.995460777e-14,5.729001784e-14,8.40837953e-14,5.268640052e-14,8.727321223e-14,7.968683856e-14,1.282774276e-13,7.665314821e-14,8.991740523e-14,7.099677927e-14,7.15934021e-14,9.543769238e-14,8.788475702e-14,5.184760998e-14,6.254502891e-14,4.075934274e-14,1.228172625e-13,9.768385223e-14,5.555566689e-14,1.693481011e-14,7.67897235e-14,8.263304424e-14,9.790255583e-14,1.069160311e-13,3.998756124e-13,4.626314029e-14,4.808322929e-14,8.630869265e-14,4.918437172e-14
1.5546875,1.455779125e-13,1.297042511e-13,2.029079268e-13,6.040104151e-14,5.704655249e-14,8.348798917e-14,5.81732469e-14,7.873520494e-14,6.747722824e-14,1.255076908e-13,7.449202128e-14,7.9048184e-14,6.282068071e-14,6.616696181e-14,9.770014974e-14,8.958897479e-14,5.77165151e-14,6.365389726e-14,3.879466748e-14,1.206052194e-13,1.020891448e-13,4.681423539e-14,1.741425534e-14,6.921826361e-14,7.207805729e-14,9.562227975e-14,1.002032873e-13,3.890847416e-13,4.766721545e-14,4.392199175e-14,8.843164961e-14,4.292550064e-14
1.5625,1.309686968e-13,1.178404208e-13,1.836383327e-13,6.085268854e-14,5.580889227e-14,8.428766407e-14,6.503824605e-14,6.999303298e-14,5.685114351e-14,1.222988926e-13,7.313177892e-14,6.991793017e-14,5.662450524e-14,6.245789944e-14,9.885420816e-14,9.145440289e-14,6.484976897e-14,6.483812295e-14,3.613141193e-14,1.176543507e-13,1.041305335e-13,3.884625873e-14,1.76777648e-14,6.396545798e-14,6.318484613e-14,9.034376592e-14,9.20768114e-14,3.765212516e-13,4.794621855e-14,4.041518043e-14,8.689340994e-14,3.802756469e-14
1.5703125,1.168318383e-13,1.05359533e-13,1.673683321e-13,6.089295124e-14,5.363767889e-14,8.580717291e-14,7.396529806e-14,6.157929038e-14,4.84839679e-14,1.192860313e-13,7.246953843e-14,6.290913444e-14,5.286202054e-14,5.966015641e-14,9.79277022e-14,9.271988678e-14,7.265188096e-14,6.589961186e-14,3.301674426e-14,1.148744547e-13,1.040251341e-13,3.219758177e-14,1.776510394e-14,6.170829145e-14,5.601209894e-14,8.293026107e-14,8.286101827e-14,3.628314959e-13,4.742197605e-14,3.772344123e-14,8.252804907e-14,3.490514981e-14
1.578125,1.035715453e-13,9.281710109e-14,1.53186401e-13,6.119210602e-14,5.163000244e-14,8.806964024e-14,8.508693866e-14,5.358495863e-14,4.236491632e-14,1.169422496e-13,7.245546428e-14,5.866412996e-14,5.155261559e-14,5.843136951e-14,9.498423871e-14,9.299830267e-14,8.091243709e-14,6.692043863e-14,3.034426183e-14,1.138396853e-13,1.025202452e-13,2.696106556e-14,1.780755914e-14,6.170912455e-14,5.012298352e-14,7.526229343e-14,7.386265163e-14,3.478763274e-13,4.755670465e-14,3.570239957e-14,7.782178767e-14,3.379961387e-14
1.5859375,9.171099327e-14,8.041563569e-14,1.409110084e-13,6.217095061e-14,5.019614927e-14,9.105713907e-14,9.826984458e-14,4.675711379e-14,3.876010009e-14,1.150114277e-13,7.352681063e-14,5.773983277e-14,5.28274478e-14,5.920847277e-14,9.084518191e-14,9.217235046e-14,8.925544018e-14,6.829568315e-14,2.847184376e-14,1.156372835e-13,1.00039962e-13,2.333999396e-14,1.787564598e-14,6.37327287e-14,4.582613153e-14,6.762353468e-14,6.507069308e-14,3.322479707e-13,4.814801147e-14,3.476467871e-14,7.239271855e-14,3.461608851e-14
1.59375,8.13314647e-14,6.859187657e-14,1.301075402e-13,6.334965491e-14,4.910248058e-14,9.342574579e-14,1.139027779e-13,4.135941113e-14,3.786223553e-14,1.13243123e-13,7.529266715e-14,6.038737305e-14,5.676495963e-14,6.177938738e-14,8.546560862e-14,8.999311102e-14,9.70509546e-14,7.006778597e-14,2.752673523e-14,1.206244927e-13,9.713755973e-14,2.158391193e-14,1.804926534e-14,6.848870796e-14,4.207597195e-14,6.039780768e-14,5.682573819e-14,3.170587861e-13,4.88364041e-14,3.503996444e-14,6.644991538e-14,3.733243912e-14
1.6015625,7.280408367e-14,5.785770751e-14,1.208675823e-13,6.455031453e-14,4.803933073e-14,9.409643045e-14,1.313583242e-13,3.755415917e-14,3.959948841e-14,1.113436647e-13,7.718420336e-14,6.606810414e-14,6.314836946e-14,6.553829126e-14,7.904315557e-14,8.650467609e-14,1.037062577e-13,7.170327809e-14,2.739153408e-14,1.288554949e-13,9.412232307e-14,2.1539894e-14,1.812003931e-14,7.553161611e-14,3.89112271e-14,5.394143395e-14,4.982804726e-14,3.029237717e-13,4.95133607e-14,3.632694415e-14,6.039753689e-14,4.149329076e-14
1.609375,6.619058845e-14,4.847672098e-14,1.131076245e-13,6.541860887e-14,4.690506954e-14,9.253143433e-14,1.496304577e-13,3.569723455e-14,4.372860606e-14,1.092939181e-13,7.905943304e-14,7.488608395e-14,7.153657096e-14,7.066385714e-14,7.201908954e-14,8.145409097e-14,1.084773986e-13,7.30199451e-14,2.809300316e-14,1.397834595e-13,9.125313358e-14,2.297751282e-14,1.818296432e-14,8.452561588e-14,3.619821697e-14,4.812350075e-14,4.419550063e-14,2.912416448e-13,5.017683597e-14,3.849067685e-14,5.448226639e-14,4.647069878e-14
1.6171875,6.130562336e-14,4.069317724e-14,1.063340985e-13,6.60605349e-14,4.605809194e-14,8.876495176e-14,1.686699644e-13,3.579408399e-14,4.98007074e-14,1.06865797e-13,8.061992963e-14,8.620478454e-14,8.189975095e-14,7.693517941e-14,6.490550503e-14,7.547275601e-14,1.117558715e-13,7.450700816e-14,2.992787726e-14,1.537099528e-13,8.891409429e-14,2.5535188e-14,1.815538392e-14,9.616764189e-14,3.43539167e-14,4.330421432e-14,4.057206044e-14,2.827160003e-13,5.116164244e-14,4.122598308e-14,4.924190319e-14,5.173079063e-14
1.625,5.836845755e-14,3.468293721e-14,1.011589107e-13,6.596787655e-14,4.538474802e-14,8.316232999e-14,1.876994842e-13,3.770876369e-14,5.743119791e-14,1.040509704e-13,8.164025102e-14,9.962944667e-14,9.39218367e-14,8.43854364e-14,5.818378479e-14,6.896620633e-14,1.13218844e-13,7.655464531e-14,3.293249981e-14,1.695748086e-13,8.717455528e-14,2.890373707e-14,1.81115221e-14,1.09822124e-13,3.432985577e-14,3.920957564e-14,3.893069122e-14,2.767861137e-13,5.260003831e-14,4.433509583e-14,4.444321822e-14,5.690890473e-14
1.6328125,5.65435488e-14,3.015886398e-14,9.62704612e-14,6.401367967e-14,4.437462886e-14,7.479964442e-14,2.054434551e-13,4.112611182e-14,6.569617529e-14,1.007830682e-13,8.072428094e-14,1.133584948e-13,1.064262178e-13,9.125125253e-14,5.149032506e-14,6.181164048e-14,1.125858754e-13,7.834982476e-14,3.655589248e-14,1.853595395e-13,8.579556345e-14,3.270035409e-14,1.813937066e-14,1.242274581e-13,3.618543879e-14,3.562552453e-14,3.894889599e-14,2.726864215e-13,5.44158774e-14,4.719090389e-14,4.022658711e-14,6.16571059e-14
1.640625,5.62309403e-14,2.751198808e-14,9.201424033e-14,6.073788523e-14,4.303009865e-14,6.539699426e-14,2.2100493e-13,4.600454886e-14,7.452139702e-14,9.760033924e-14,7.834985991e-14,1.274204355e-13,1.191585407e-13,9.797697306e-14,4.490992362e-14,5.410551278e-14,1.101502923e-13,7.965395827e-14,4.065460794e-14,2.008182319e-13,8.505088797e-14,3.680190698e-14,1.842855358e-14,1.39081364e-13,4.001233123e-14,3.25071484e-14,4.071271578e-14,2.719414893e-13,5.682968577e-14,4.982227199e-14,3.661172275e-14,6.588398802e-14
1.6484375,5.744595358e-14,2.66170672e-14,8.799619446e-14,5.645551503e-14,4.14517173e-14,5.567862096e-14,2.33241495e-13,5.247299423e-14,8.3599333e-14,9.489116033e-14,7.446473598e-14,1.41056962e-13,1.314916254e-13,1.039943277e-13,3.873373875e-14,4.659228251e-14,1.064171878e-13,8.10521354e-14,4.517572051e-14,2.158032716e-13,8.457902925e-14,4.098798778e-14,1.897527949e-14,1.538542645e-13,4.611356759e-14,3.005181187e-14,4.398026895e-14,2.730820437e-13,6.006784467e-14,5.210129529e-14,3.349551331e-14,6.963027798e-14
1.65625,5.941138775e-14,2.711494684e-14,8.4488942e-14,5.220676067e-14,4.030205927e-14,4.65457085e-14,2.414636914e-13,6.033412504e-14,9.209025187e-14,9.269500503e-14,6.968692834e-14,1.530843613e-13,1.431112499e-13,1.091632507e-13,3.386970086e-14,4.049291211e-14,1.022746842e-13,8.302144384e-14,4.982246554e-14,2.289507329e-13,8.453370082e-14,4.525564407e-14,1.985565339e-14,1.672823756e-13,5.37714177e-14,2.842270092e-14,4.872140968e-14,2.745296538e-13,6.472533293e-14,5.395722095e-14,3.099675897e-14,7.306894322e-14
1.6640625,6.210726876e-14,2.893422406e-14,8.170017081e-14,4.788719343e-14,3.961875803e-14,3.915420643e-14,2.454463275e-13,6.898969681e-14,9.926942051e-14,9.163944095e-14,6.468729515e-14,1.629743838e-13,1.528341076e-13,1.132481075e-13,3.03959632e-14,3.573741369e-14,9.765705007e-14,8.515311617e-14,5.417307772e-14,2.381084328e-13,8.447557412e-14,4.921293744e-14,2.093422389e-14,1.781793281e-13,6.213090112e-14,2.740617984e-14,5.483289721e-14,2.758907931e-13,7.063779975e-14,5.525991135e-14,2.884299645e-14,7.583607148e-14
1.671875,6.535259577e-14,3.203370936e-14,7.969746599e-14,4.408293288e-14,3.97699303e-14,3.400199858e-14,2.449543839e-13,7.793584401e-14,1.045917459e-13,9.170409277e-14,6.035281455e-14,1.704421233e-13,1.604043824e-13,1.166979605e-13,2.857739056e-14,3.269140248e-14,9.273313087e-14,8.817110193e-14,5.828170005e-14,2.419854677e-13,8.437762403e-14,5.265497474e-14,2.21736726e-14,1.854298758e-13,7.024715246e-14,2.681860434e-14,6.224325169e-14,2.770117946e-13,7.732154009e-14,5.603964134e-14,2.701213781e-14,7.754121835e-14
1.6796875,6.874073123e-14,3.614628011e-14,7.943288512e-14,4.085019945e-14,4.031612401e-14,3.103373389e-14,2.419515608e-13,8.658995333e-14,1.083850229e-13,9.21416701e-14,5.705930973e-14,1.758924588e-13,1.66692857e-13,1.202418285e-13,2.837603352e-14,3.18664645e-14,8.807879145e-14,9.257028534e-14,6.207826413e-14,2.41272376e-13,8.415210761e-14,5.573987275e-14,2.350950298e-14,1.908504039e-13,7.695723191e-14,2.680313578e-14,7.078837181e-14,2.771377579e-13,8.498224582e-14,5.659073026e-14,2.587656801e-14,7.841287414e-14
1.6875,7.159905655e-14,4.092707193e-14,8.011578127e-14,3.885958407e-14,4.129820173e-14,2.989950035e-14,2.369186278e-13,9.468872852e-14,1.105022647e-13,9.249090378e-14,5.459399339e-14,1.788133068e-13,1.709807121e-13,1.230973974e-13,2.948185879e-14,3.296260844e-14,8.35403518e-14,9.707077623e-14,6.499104924e-14,2.359723588e-13,8.373440969e-14,5.822367586e-14,2.461541837e-14,1.937484509e-13,8.145036062e-14,2.736575306e-14,8.018170912e-14,2.763792754e-13,9.252596346e-14,5.669159512e-14,2.526759488e-14,7.802663704e-14
1.6953125,7.40451483e-14,4.649464359e-14,8.189026404e-14,3.810637725e-14,4.243598242e-14,3.060308671e-14,2.299513934e-13,1.024495953e-13,1.112272904e-13,9.29679489e-14,5.325674975e-14,1.801291879e-13,1.732441737e-13,1.255280961e-13,3.125410954e-14,3.546365032e-14,7.924276538e-14,1.015653393e-13,6.712482469e-14,2.265820667e-13,8.22350133e-14,6.015481907e-14,2.539856958e-14,1.94790676e-13,8.347278687e-14,2.803718793e-14,9.014924674e-14,2.754008293e-13,9.960938329e-14,5.648829331e-14,2.529224756e-14,7.625626796e-14
1.703125,7.591253461e-14,5.260270866e-14,8.480305046e-14,3.86546083e-14,4.458361712e-14,3.31869776e-14,2.213694703e-13,1.099875757e-13,1.104422271e-13,9.31072802e-14,5.337361279e-14,1.795283037e-13,1.733265275e-13,1.279083016e-13,3.4072591e-14,3.976970634e-14,7.566025261e-14,1.061597313e-13,6.848145027e-14,2.148673988e-13,8.046948115e-14,6.133943915e-14,2.560613348e-14,1.946764899e-13,8.313697994e-14,2.906377215e-14,1.006931945e-13,2.730133962e-13,1.05912586e-13,5.572503833e-14,2.581184857e-14,7.344519438e-14
1.7109375,7.684445968e-14,5.896388334e-14,8.910508208e-14,4.101461115e-14,4.768142095e-14,3.758801525e-14,2.113328438e-13,1.173087277e-13,1.081148507e-13,9.252257361e-14,5.488476571e-14,1.765459374e-13,1.715890745e-13,1.311079678e-13,3.841707211e-14,4.630506407e-14,7.251406507e-14,1.107984453e-13,6.927461681e-14,2.0090832e-13,7.825654966e-14,6.151032713e-14,2.509212805e-14,1.93152169e-13,8.045268534e-14,3.008072581e-14,1.111107344e-13,2.691257509e-13,1.114552923e-13,5.453994594e-14,2.720682555e-14,6.941973301e-14
1.71875,7.657447001e-14,6.544439712e-14,9.457115441e-14,4.448193133e-14,5.098610216e-14,4.35513148e-14,2.006710837e-13,1.239869502e-13,1.050095517e-13,9.059475123e-14,5.687478804e-14,1.716307453e-13,1.686201408e-13,1.34565177e-13,4.334009347e-14,5.468245968e-14,7.012493438e-14,1.147153289e-13,6.935262508e-14,1.8647345e-13,7.607465777e-14,6.079620888e-14,2.359043456e-14,1.911424832e-13,7.593640564e-14,3.092557434e-14,1.20727677e-13,2.629260381e-13,1.167596944e-13,5.312277287e-14,2.961510587e-14,6.451913594e-14
1.7265625,7.493439772e-14,7.124204475e-14,9.901412308e-14,4.817997909e-14,5.354791399e-14,5.007819373e-14,1.892379562e-13,1.297672555e-13,1.014071885e-13,8.756709425e-14,5.853589518e-14,1.645349022e-13,1.639880703e-13,1.362312918e-13,4.770658762e-14,6.351529747e-14,6.911023319e-14,1.169257654e-13,6.838054066e-14,1.725666315e-13,7.325757187e-14,5.937633042e-14,2.156935807e-14,1.889261044e-13,7.03723861e-14,3.118894286e-14,1.283926281e-13,2.544488959e-13,1.205702769e-13,5.13381805e-14,3.229596153e-14,5.897746479e-14
1.734375,7.254901868e-14,7.612099892e-14,1.024751146e-13,5.214613285e-14,5.556855868e-14,5.746433937e-14,1.770590833e-13,1.347775859e-13,9.740965681e-14,8.387849848e-14,6.009125327e-14,1.56321091e-13,1.583868399e-13,1.360543132e-13,5.16587387e-14,7.327643746e-14,7.032555545e-14,1.186281311e-13,6.679046667e-14,1.6077292e-13,6.960313846e-14,5.738455526e-14,1.947873386e-14,1.869461149e-13,6.483598721e-14,3.130537384e-14,1.336626852e-13,2.45230956e-13,1.234245631e-13,4.941512886e-14,3.543136183e-14,5.322777645e-14
1.7421875,6.941855171e-14,8.000495014e-14,1.049294181e-13,5.653762231e-14,5.759846074e-14,6.585020062e-14,1.640287292e-13,1.387897811e-13,9.315348943e-14,7.941681242e-14,6.144669577e-14,1.470319709e-13,1.525368226e-13,1.340248657e-13,5.560611458e-14,8.43522052e-14,7.43975811e-14,1.208145139e-13,6.48044213e-14,1.529064885e-13,6.611942498e-14,5.503901845e-14,1.754748637e-14,1.857419588e-13,6.001169561e-14,3.168480683e-14,1.363012698e-13,2.347127939e-13,1.253911543e-13,4.726217725e-14,3.908167628e-14,4.782390424e-14
1.75,6.539917136e-14,8.262298986e-14,1.054127917e-13,6.115657983e-14,5.964201128e-14,7.456777882e-14,1.501642488e-13,1.415771456e-13,8.843239791e-14,7.403375761e-14,6.26070728e-14,1.364501115e-13,1.461387241e-13,1.295058888e-13,5.956566576e-14,9.670959754e-14,8.200840367e-14,1.237948365e-13,6.232886103e-14,1.49498334e-13,6.264139784e-14,5.239834865e-14,1.58821465e-14,1.839298391e-13,5.59929435e-14,3.235540171e-14,1.362626529e-13,2.226737061e-13,1.262481099e-13,4.488732301e-14,4.309703617e-14,4.303637982e-14
1.7578125,6.093984822e-14,8.391542752e-14,1.046649049e-13,6.575698155e-14,6.133776743e-14,8.422435203e-14,1.351697947e-13,1.42838427e-13,8.340768731e-14,6.750638125e-14,6.350044352e-14,1.253229253e-13,1.391173935e-13,1.229164157e-13,6.40173122e-14,1.109849358e-13,9.324759334e-14,1.280987699e-13,5.938593098e-14,1.489231389e-13,5.891448973e-14,4.954311526e-14,1.474810875e-14,1.810533284e-13,5.321045379e-14,3.278374755e-14,1.333162073e-13,2.100361062e-13,1.257973287e-13,4.247378891e-14,4.647203495e-14,3.91021296e-14
1.765625,5.626872774e-14,8.349782907e-14,1.032991883e-13,6.950497594e-14,6.199094037e-14,9.423173173e-14,1.198564411e-13,1.425753579e-13,7.90162859e-14,6.036082127e-14,6.337452218e-14,1.144412241e-13,1.327410011e-13,1.144334636e-13,6.89987117e-14,1.265413698e-13,1.075416038e-13,1.334069425e-13,5.603770321e-14,1.496350684e-13,5.446360595e-14,4.70501107e-14,1.449725178e-14,1.78139069e-13,5.2091134e-14,3.289161076e-14,1.266534136e-13,1.970141971e-13,1.240209489e-13,4.016526592e-14,4.817476564e-14,3.636435715e-14
1.7734375,5.124454839e-14,8.176626252e-14,1.008903143e-13,7.283132689e-14,6.216443308e-14,1.048947872e-13,1.04603334e-13,1.402166907e-13,7.494047354e-14,5.281751901e-14,6.257629159e-14,1.039687232e-13,1.272287734e-13,1.046754336e-13,7.414997652e-14,1.425033864e-13,1.246675738e-13,1.398204416e-13,5.263250089e-14,1.516851952e-13,4.962333927e-14,4.512041231e-14,1.512400446e-14,1.757279468e-13,5.242190917e-14,3.322026138e-14,1.169373589e-13,1.83387466e-13,1.217253528e-13,3.775073462e-14,4.875245979e-14,3.463559979e-14
1.78125,4.613192749e-14,7.932179297e-14,9.816990257e-14,7.572371474e-14,6.210148617e-14,1.161487076e-13,9.012790297e-14,1.353776248e-13,7.06783854e-14,4.550968881e-14,6.150260571e-14,9.421625076e-14,1.218983705e-13,9.459244714e-14,7.950019531e-14,1.579825583e-13,1.435863593e-13,1.473746761e-13,4.95087606e-14,1.548954039e-13,4.500071002e-14,4.351249842e-14,1.653542552e-14,1.735984749e-13,5.375506306e-14,3.399079499e-14,1.056995594e-13,1.697010681e-13,1.190643889e-13,3.537059278e-14,4.873301021e-14,3.36755845e-14
1.7890625,4.13315943e-14,7.683646335e-14,9.606471545e-14,7.886279084e-14,6.198535414e-14,1.281173775e-13,7.735103021e-14,1.287317409e-13,6.637751231e-14,3.857012388e-14,6.062104084e-14,8.576653614e-14,1.167560794e-13,8.569225981e-14,8.551747069e-14,1.72820701e-13,1.63505221e-13,1.552351992e-13,4.655645127e-14,1.585815136e-13,4.069056136e-14,4.22850887e-14,1.871091368e-14,1.714448856e-13,5.555480585e-14,3.517544872e-14,9.454764479e-14,1.573075484e-13,1.161964247e-13,3.315970157e-14,4.823672266e-14,3.326332106e-14
1.796875,3.726933369e-14,7.490202573e-14,9.520921008e-14,8.182096389e-14,6.17990899e-14,1.405146833e-13,6.637004673e-14,1.209014903e-13,6.23662283e-14,3.251998411e-14,6.036438737e-14,7.888288326e-14,1.112031894e-13,7.854237717e-14,9.227561902e-14,1.865756757e-13,1.834252567e-13,1.623369902e-13,4.379537232e-14,1.612537489e-13,3.673230516e-14,4.144541443e-14,2.124725752e-14,1.680235393e-13,5.724574489e-14,3.663185832e-14,8.426431889e-14,1.473871126e-13,1.135076502e-13,3.120648089e-14,4.739465724e-14,3.361110374e-14
1.8046875,3.399485905e-14,7.368156019e-14,9.531785426e-14,8.416875478e-14,6.111357312e-14,1.533181058e-13,5.79454681e-14,1.126014277e-13,5.916265056e-14,2.739750154e-14,6.017820257e-14,7.37458321e-14,1.054865087e-13,7.340959607e-14,9.879981678e-14,1.97720516e-13,2.019347998e-13,1.670389829e-13,4.116055149e-14,1.62404056e-13,3.330162212e-14,4.131361388e-14,2.399289892e-14,1.63990646e-13,5.854541821e-14,3.810931574e-14,7.509653296e-14,1.399877787e-13,1.105676e-13,2.976065252e-14,4.615573811e-14,3.471920672e-14
