"Time","Fp1","AF3","F7","F3","FC1","FC5","T7","C3","CP1","CP5","P7","P3","Pz","PO3","O1","Oz","O2","PO4","P4","P8","CP6","CP2","C4","T8","FC6","FC2","F4","F8","AF4","Fp2","Fz","Cz"
0.0078125,1.618622073e-13,2.163426759e-13,3.638059247e-13,6.782378925e-14,2.334446395e-13,7.72447923e-14,1.319150184e-13,2.651847565e-13,2.366064676e-13,2.046216323e-13,1.798613974e-13,3.024703285e-13,3.096352913e-13,2.065730112e-13,1.180334899e-13,1.251254596e-13,2.445815756e-13,4.628780967e-13,1.452458561e-13,1.19055614e-13,7.821129631e-14,3.402896571e-14,9.62785486e-14,1.1808329e-13,5.431226654e-14,3.193764559e-13,2.676292035e-13,4.121430071e-13,3.152936215e-13,1.940975417e-13,5.004790952e-13,2.376146399e-13
0.015625,1.697534973e-13,2.25496349e-13,3.778398656e-13,7.088747201e-14,2.359940868e-13,8.269279209e-14,1.406889151e-13,2.719593304e-13,2.519157753e-13,2.132838506e-13,1.902458395e-13,3.166978465e-13,3.245818056e-13,2.095339747e-13,1.251783581e-13,1.313014283e-13,2.526621442e-13,4.739066085e-13,1.489473028e-13,1.241021359e-13,7.990513842e-14,3.590336603e-14,9.950650579e-14,1.233847696e-13,5.910568184e-14,3.280432101e-13,2.73294854e-13,4.308570016e-13,3.261987899e-13,2.031887568e-13,5.093266746e-13,2.392586746e-13
0.0234375,1.768079004e-13,2.333715846e-13,3.899901965e-13,7.353276793e-14,2.368505717e-13,8.77411868e-14,1.493060811e-13,2.776041711e-13,2.670058581e-13,2.205628702e-13,1.994978588e-13,3.291601405e-13,3.378273981e-13,2.108550039e-13,1.319994071e-13,1.366855988e-13,2.588728115e-13,4.812430297e-13,1.516607275e-13,1.28710413e-13,8.112167988e-14,3.77491153e-14,1.0202711e-13,1.28335747e-13,6.384492173e-14,3.347045062e-13,2.768196258e-13,4.47108258e-13,3.352032097e-13,2.112985432e-13,5.143866387e-13,2.392259592e-13
0.03125,1.829422114e-13,2.398073405e-13,4.002201172e-13,7.544377259e-14,2.356347842e-13,9.228137061e-14,1.574310795e-13,2.822106731e-13,2.817689597e-13,2.262898285e-13,2.072181429e-13,3.393285014e-13,3.490247567e-13,2.101748193e-13,1.380103e-13,1.40803073e-13,2.629751066e-13,4.843534834e-13,1.53120621e-13,1.327047795e-13,8.174317323e-14,3.958008913e-14,1.038876472e-13,1.328856263e-13,6.859599877e-14,3.390570523e-13,2.782254629e-13,4.607195566e-13,3.421894211e-13,2.182953219e-13,5.153904726e-13,2.374130713e-13
0.0390625,1.882163668e-13,2.450201185e-13,4.086975127e-13,7.677115617e-14,2.3240084e-13,9.647284903e-14,1.649606965e-13,2.857318711e-13,2.959950425e-13,2.304787295e-13,2.138406646e-13,3.472832402e-13,3.579398544e-13,2.076511345e-13,1.433026792e-13,1.43874447e-13,2.652904675e-13,4.837390522e-13,1.534502018e-13,1.363369008e-13,8.192653115e-14,4.138388249e-14,1.051183713e-13,1.370123046e-13,7.334017721e-14,3.410894565e-13,2.776966771e-13,4.718516067e-13,3.470907275e-13,2.243254545e-13,5.125687281e-13,2.338180651e-13
0.046875,1.925164994e-13,2.49030615e-13,4.14911322e-13,7.760803121e-14,2.274444174e-13,1.00181323e-13,1.722101089e-13,2.882835174e-13,3.095743863e-13,2.328264109e-13,2.192929504e-13,3.531225944e-13,3.64749979e-13,2.035854783e-13,1.481510015e-13,1.461155289e-13,2.658209779e-13,4.799084424e-13,1.528709505e-13,1.397269754e-13,8.171224751e-14,4.31271553e-14,1.055991417e-13,1.407475347e-13,7.797170022e-14,3.410230502e-13,2.75314242e-13,4.799158263e-13,3.500189589e-13,2.292941675e-13,5.061875698e-13,2.285836122e-13
0.0546875,1.958213571e-13,2.517629472e-13,4.187732867e-13,7.776737473e-14,2.207719053e-13,1.031981056e-13,1.791071108e-13,2.899998776e-13,3.224222327e-13,2.331854304e-13,2.23046959e-13,3.56674871e-13,3.695270691e-13,1.981185431e-13,1.524197335e-13,1.473528903e-13,2.643570209e-13,4.727484283e-13,1.513568107e-13,1.426501561e-13,8.100349312e-14,4.47882016e-14,1.05327942e-13,1.438898047e-13,8.249347237e-14,3.388681076e-13,2.710222194e-13,4.848899882e-13,3.509942528e-13,2.329727746e-13,4.962857403e-13,2.217693001e-13
0.0625,1.982289046e-13,2.53283593e-13,4.20647813e-13,7.731950155e-14,2.125630068e-13,1.05670545e-13,1.85476143e-13,2.911111392e-13,3.343861515e-13,2.320031239e-13,2.253397786e-13,3.579751999e-13,3.721189976e-13,1.914707198e-13,1.559698156e-13,1.476264749e-13,2.612627623e-13,4.62708461e-13,1.49037262e-13,1.453152498e-13,8.001050672e-14,4.639350312e-14,1.045310715e-13,1.463663885e-13,8.693176271e-14,3.348146808e-13,2.651765661e-13,4.869940544e-13,3.501104585e-13,2.354536005e-13,4.832674246e-13,2.136424529e-13
0.0703125,1.998545313e-13,2.537567003e-13,4.204811581e-13,7.648257783e-14,2.032376761e-13,1.076618498e-13,1.913889749e-13,2.917988675e-13,3.454849962e-13,2.291634997e-13,2.265678978e-13,3.573105295e-13,3.727362682e-13,1.839432199e-13,1.589469441e-13,1.470708264e-13,2.569620082e-13,4.505845055e-13,1.461625546e-13,1.480784992e-13,7.88956398e-14,4.797369309e-14,1.033293705e-13,1.483799619e-13,9.132102875e-14,3.292722748e-13,2.582611303e-13,4.858058894e-13,3.477443961e-13,2.368692784e-13,4.678664902e-13,2.046077939e-13
0.078125,2.006999897e-13,2.531168257e-13,4.183071417e-13,7.5198048e-14,1.929698722e-13,1.090016952e-13,1.967988117e-13,2.922787506e-13,3.556646243e-13,2.245242956e-13,2.263851476e-13,3.547111556e-13,3.714068222e-13,1.757164315e-13,1.613094577e-13,1.455129132e-13,2.511498716e-13,4.362151373e-13,1.427629866e-13,1.506831393e-13,7.753907541e-14,4.950911815e-14,1.01682693e-13,1.49945312e-13,9.549631513e-14,3.222414999e-13,2.500372218e-13,4.814829037e-13,3.437923665e-13,2.37124853e-13,4.501949653e-13,1.947805377e-13
0.0859375,2.007290701e-13,2.510900279e-13,4.143834706e-13,7.334902576e-14,1.817985859e-13,1.09586811e-13,2.016905151e-13,2.929499301e-13,3.648117905e-13,2.183843215e-13,2.244849745e-13,3.501062386e-13,3.677287326e-13,1.667360329e-13,1.628427834e-13,1.427455791e-13,2.435458994e-13,4.191777385e-13,1.387498107e-13,1.529961551e-13,7.59875895e-14,5.097635274e-14,9.959772969e-14,1.511866903e-13,9.924301619e-14,3.135950098e-13,2.403238101e-13,4.744397771e-13,3.379924215e-13,2.362501409e-13,4.300920829e-13,1.842513593e-13
0.09375,2.002064166e-13,2.478147987e-13,4.089019155e-13,7.105536411e-14,1.699739072e-13,1.095603165e-13,2.0600946e-13,2.939596385e-13,3.729044349e-13,2.108855689e-13,2.211572475e-13,3.439654345e-13,3.618599903e-13,1.57391039e-13,1.636453813e-13,1.389584014e-13,2.346833252e-13,4.001658661e-13,1.342354694e-13,1.553271919e-13,7.443329877e-14,5.236280913e-14,9.717785646e-14,1.521405493e-13,1.026863991e-13,3.036199098e-13,2.296666395e-13,4.651760922e-13,3.307932869e-13,2.344497244e-13,4.081801243e-13,1.732553059e-13
0.1015625,1.992825645e-13,2.435157026e-13,4.022808277e-13,6.850125925e-14,1.578801078e-13,1.090777897e-13,2.096351941e-13,2.953530098e-13,3.798440303e-13,2.021896106e-13,2.166207518e-13,3.367338535e-13,3.542039353e-13,1.481978575e-13,1.639148386e-13,1.343471969e-13,2.249483281e-13,3.799831418e-13,1.29471199e-13,1.577004757e-13,7.293169028e-14,5.368096737e-14,9.450942431e-14,1.527897286e-13,1.058352894e-13,2.927159462e-13,2.183492738e-13,4.542370123e-13,3.225726026e-13,2.318236798e-13,3.852701859e-13,1.620887866e-13
0.109375,1.980166429e-13,2.382414494e-13,3.950002016e-13,6.57497875e-14,1.458023383e-13,1.081658494e-13,2.126778631e-13,2.972918762e-13,3.857395684e-13,1.923309204e-13,2.108960251e-13,3.287284705e-13,3.449879374e-13,1.393543398e-13,1.637153287e-13,1.289410708e-13,2.144082357e-13,3.589192218e-13,1.245972937e-13,1.600218633e-13,7.144877681e-14,5.496172664e-14,9.155454718e-14,1.535214648e-13,1.086074398e-13,2.810744504e-13,2.064707839e-13,4.417740478e-13,3.134224602e-13,2.284671713e-13,3.617134744e-13,1.510163959e-13
0.1171875,1.965719163e-13,2.321811467e-13,3.871780397e-13,6.283477217e-14,1.338630057e-13,1.069370414e-13,2.152316151e-13,2.998691234e-13,3.907477076e-13,1.816747682e-13,2.04154191e-13,3.203499134e-13,3.345414622e-13,1.31085561e-13,1.630484796e-13,1.229541374e-13,2.033606652e-13,3.374895128e-13,1.19739895e-13,1.624680006e-13,6.999223569e-14,5.617142735e-14,8.842663331e-14,1.542633616e-13,1.111148275e-13,2.687744409e-13,1.943489399e-13,4.283282614e-13,3.035611493e-13,2.245153882e-13,3.377109966e-13,1.400922007e-13
0.125,1.949790892e-13,2.255061399e-13,3.788736433e-13,5.98543803e-14,1.221528972e-13,1.053462591e-13,2.172882809e-13,3.031548552e-13,3.946828068e-13,1.707465765e-13,1.966238021e-13,3.117725081e-13,3.230903285e-13,1.234567172e-13,1.618702826e-13,1.165323975e-13,1.920085897e-13,3.161772299e-13,1.15027951e-13,1.651299899e-13,6.86274652e-14,5.726695729e-14,8.53488884e-14,1.547291697e-13,1.132760292e-13,2.561246796e-13,1.822811747e-13,4.143892255e-13,2.932346568e-13,2.20064989e-13,3.137253113e-13,1.293519305e-13
0.1328125,1.934062483e-13,2.184936837e-13,3.704517237e-13,5.692012293e-14,1.109436046e-13,1.034770744e-13,2.186839756e-13,3.070120454e-13,3.973768806e-13,1.595098381e-13,1.885665727e-13,3.033820844e-13,3.109970731e-13,1.167574588e-13,1.603498343e-13,1.098880489e-13,1.807212456e-13,2.95505555e-13,1.105653702e-13,1.679072086e-13,6.741016121e-14,5.82260352e-14,8.225735923e-14,1.551539824e-13,1.150001531e-13,2.43672763e-13,1.707022964e-13,4.001335501e-13,2.828494291e-13,2.152230384e-13,2.905097223e-13,1.189809966e-13
0.140625,1.919496722e-13,2.113210028e-13,3.623409268e-13,5.402958218e-14,1.004047596e-13,1.016264402e-13,2.193443934e-13,3.111638523e-13,3.988281641e-13,1.481045937e-13,1.801513799e-13,2.954753978e-13,2.985677245e-13,1.112919696e-13,1.585776026e-13,1.032111025e-13,1.697118624e-13,2.758454832e-13,1.064412463e-13,1.707528704e-13,6.63442595e-14,5.900047379e-14,7.915396317e-14,1.555922706e-13,1.16376872e-13,2.315580531e-13,1.597424658e-13,3.860665454e-13,2.725222747e-13,2.10057648e-13,2.682340438e-13,1.09128301e-13
0.1484375,1.906051716e-13,2.039328063e-13,3.549487339e-13,5.123971439e-14,9.046409858e-14,9.984128337e-14,2.195149387e-13,3.155854326e-13,3.99073435e-13,1.368588021e-13,1.715430441e-13,2.88070146e-13,2.857750802e-13,1.068930611e-13,1.56373481e-13,9.64049038e-14,1.58838441e-13,2.571340052e-13,1.026834048e-13,1.736825282e-13,6.545293428e-14,5.960750226e-14,7.62556691e-14,1.560037472e-13,1.174562367e-13,2.196988998e-13,1.493823986e-13,3.727281526e-13,2.62111551e-13,2.046551877e-13,2.467839104e-13,9.981601727e-14
0.15625,1.894997967e-13,1.965534088e-13,3.486227187e-13,4.882166768e-14,8.133281087e-14,9.830943587e-14,2.191006605e-13,3.202664597e-13,3.981485407e-13,1.259052737e-13,1.631007336e-13,2.813874354e-13,2.728570364e-13,1.035361407e-13,1.538894043e-13,8.967213118e-14,1.484302806e-13,2.396418351e-13,9.941023473e-14,1.768269771e-13,6.481826711e-14,6.008313539e-14,7.357565919e-14,1.565581621e-13,1.181927715e-13,2.084723213e-13,1.399577329e-13,3.605047811e-13,2.51863976e-13,1.991127282e-13,2.26730986e-13,9.112273781e-14
0.1640625,1.885500613e-13,1.893550883e-13,3.434596688e-13,4.685742485e-14,7.326265812e-14,9.716141578e-14,2.179775883e-13,3.2483757e-13,3.960396474e-13,1.153154964e-13,1.549224845e-13,2.755225658e-13,2.601621125e-13,1.013391065e-13,1.513442882e-13,8.322996173e-14,1.387747126e-13,2.237346685e-13,9.674680316e-14,1.802330653e-13,6.441536165e-14,6.03721262e-14,7.10900826e-14,1.573569073e-13,1.184691207e-13,1.981729662e-13,1.316239481e-13,3.494939527e-13,2.420221009e-13,1.934100184e-13,2.084587496e-13,8.314709288e-14
0.171875,1.877623831e-13,1.822388299e-13,3.396381339e-13,4.527732437e-14,6.612425144e-14,9.635150761e-14,2.162797617e-13,3.289542791e-13,3.927920934e-13,1.051502134e-13,1.469642067e-13,2.70511848e-13,2.47769464e-13,1.003865801e-13,1.486761851e-13,7.700927347e-14,1.296960856e-13,2.094714054e-13,9.468362811e-14,1.835151342e-13,6.408448347e-14,6.044589491e-14,6.886643987e-14,1.583367468e-13,1.183427367e-13,1.885828819e-13,1.242502936e-13,3.39814746e-13,2.326160352e-13,1.875779773e-13,1.917426391e-13,7.576846032e-14
0.1796875,1.872657682e-13,1.751861426e-13,3.374461298e-13,4.424494601e-14,5.989729484e-14,9.609156633e-14,2.139389904e-13,3.326816049e-13,3.884890694e-13,9.558496864e-14,1.394251148e-13,2.66377018e-13,2.356169172e-13,1.006686244e-13,1.459214398e-13,7.107667709e-14,1.211391017e-13,1.968027302e-13,9.322603107e-14,1.863936552e-13,6.378156516e-14,6.033859793e-14,6.684208194e-14,1.593842331e-13,1.179325355e-13,1.795564134e-13,1.177184331e-13,3.318171173e-13,2.236603801e-13,1.817677267e-13,1.765241035e-13,6.896449657e-14
0.1875,1.868154132e-13,1.681163164e-13,3.369350862e-13,4.377788954e-14,5.470703818e-14,9.641735762e-14,2.110688906e-13,3.360058192e-13,3.831023343e-13,8.673702014e-14,1.323363635e-13,2.628715173e-13,2.236030154e-13,1.018832019e-13,1.431639641e-13,6.548566602e-14,1.132205424e-13,1.855035235e-13,9.228683738e-14,1.889757829e-13,6.357082136e-14,6.002352547e-14,6.500640953e-14,1.606516177e-13,1.171356884e-13,1.712149941e-13,1.119659472e-13,3.254533631e-13,2.149777245e-13,1.760114738e-13,1.62816963e-13,6.286483227e-14
0.1953125,1.861949054e-13,1.609982976e-13,3.380977352e-13,4.368040611e-14,5.04292102e-14,9.729084632e-14,2.077624e-13,3.385426862e-13,3.766019075e-13,7.870492505e-14,1.256440326e-13,2.598878896e-13,2.118102737e-13,1.038995227e-13,1.404717846e-13,6.018685347e-14,1.058855612e-13,1.754443989e-13,9.17303589e-14,1.911073062e-13,6.337644351e-14,5.944737437e-14,6.347283328e-14,1.621734903e-13,1.158480759e-13,1.63544322e-13,1.068885726e-13,3.206297637e-13,2.064717871e-13,1.702177253e-13,1.504352462e-13,5.726524353e-14
0.203125,1.854662276e-13,1.540487463e-13,3.409741125e-13,4.408046623e-14,4.693114029e-14,9.886909703e-14,2.039942339e-13,3.400176607e-13,3.691184151e-13,7.159423569e-14,1.195562018e-13,2.575575364e-13,2.004485627e-13,1.06936297e-13,1.378289039e-13,5.510510331e-14,9.884902471e-14,1.666849708e-13,9.171552281e-14,1.925211228e-13,6.309564067e-14,5.866863656e-14,6.215692194e-14,1.637704809e-13,1.140765506e-13,1.563731639e-13,1.024467101e-13,3.175715214e-13,1.984297456e-13,1.64392658e-13,1.39418453e-13,5.19397389e-14
0.2109375,1.845669437e-13,1.473823759e-13,3.454944485e-13,4.519245551e-14,4.436271338e-14,1.011396911e-13,1.999119149e-13,3.40426097e-13,3.607193916e-13,6.528545813e-14,1.142091693e-13,2.55801563e-13,1.895236808e-13,1.109969107e-13,1.35251776e-13,5.03479188e-14,9.219058085e-14,1.591808099e-13,9.240429131e-14,1.934357917e-13,6.283510414e-14,5.776431104e-14,6.089598709e-14,1.655545993e-13,1.118777719e-13,1.497821522e-13,9.880804882e-14,3.161549273e-13,1.909688899e-13,1.585671137e-13,1.30039421e-13,4.703797223e-14
0.21875,1.833835255e-13,1.41063624e-13,3.514294522e-13,4.69200503e-14,4.279624836e-14,1.041150104e-13,1.953668088e-13,3.395303499e-13,3.512215931e-13,5.96764149e-14,1.096282102e-13,2.543543392e-13,1.7897732e-13,1.158282294e-13,1.330395786e-13,4.613836081e-14,8.625469138e-14,1.528257974e-13,9.365058133e-14,1.940870227e-13,6.271276583e-14,5.668647667e-14,5.970585273e-14,1.673853848e-13,1.093263188e-13,1.440043475e-13,9.601941143e-14,3.160205117e-13,1.839204769e-13,1.526670334e-13,1.223036609e-13,4.269428693e-14
0.2265625,1.819462065e-13,1.352710365e-13,3.587448831e-13,4.918789217e-14,4.203481646e-14,1.078656334e-13,1.903379774e-13,3.370116892e-13,3.406560947e-13,5.489086021e-14,1.059667674e-13,2.53159128e-13,1.689614715e-13,1.213085635e-13,1.312252989e-13,4.238743608e-14,8.09194941e-14,1.476408489e-13,9.541047071e-14,1.94332299e-13,6.268048426e-14,5.543450976e-14,5.863971822e-14,1.68948455e-13,1.064043195e-13,1.390100387e-13,9.393158592e-14,3.171024497e-13,1.773640335e-13,1.467102699e-13,1.160607166e-13,3.882823177e-14
0.234375,1.802605569e-13,1.300104215e-13,3.676611981e-13,5.209473597e-14,4.203464918e-14,1.123354133e-13,1.850379931e-13,3.331607388e-13,3.294150294e-13,5.095164636e-14,1.032554361e-13,2.523049802e-13,1.595520035e-13,1.274481928e-13,1.296733189e-13,3.904887141e-14,7.603447518e-14,1.436382249e-13,9.778274635e-14,1.942279963e-13,6.270431534e-14,5.409918437e-14,5.773526257e-14,1.705509284e-13,1.030499566e-13,1.346966637e-13,9.245158152e-14,3.194183084e-13,1.714563065e-13,1.407959979e-13,1.112787687e-13,3.537504637e-14
0.2421875,1.782362132e-13,1.251476166e-13,3.776887293e-13,5.559123596e-14,4.284151669e-14,1.174659866e-13,1.794208368e-13,3.282665251e-13,3.176110909e-13,4.766578196e-14,1.013210744e-13,2.516640379e-13,1.5055875e-13,1.341154743e-13,1.284955562e-13,3.618367344e-14,7.163706301e-14,1.405018113e-13,1.006405649e-13,1.938963056e-13,6.279404282e-14,5.265269606e-14,5.695642345e-14,1.722557329e-13,9.923701898e-14,1.309845961e-13,9.145246714e-14,3.227208113e-13,1.660792933e-13,1.348702887e-13,1.078122393e-13,3.2316493e-14
0.25,1.759435729e-13,1.206930726e-13,3.880310831e-13,5.949780559e-14,4.431266535e-14,1.23097406e-13,1.736197077e-13,3.220666438e-13,3.051631487e-13,4.500755365e-14,1.000895648e-13,2.510502947e-13,1.420289207e-13,1.410784179e-13,1.276941993e-13,3.368803335e-14,6.763821355e-14,1.380095058e-13,1.038813242e-13,1.930473815e-13,6.294357875e-14,5.108171324e-14,5.618926162e-14,1.735118431e-13,9.507963055e-14,1.277502678e-13,9.075016467e-14,3.265522769e-13,1.61262635e-13,1.289084103e-13,1.05531623e-13,2.95959426e-14
0.2578125,1.737691684e-13,1.168559042e-13,3.98957357e-13,6.380844942e-14,4.632373049e-14,1.292267467e-13,1.678529168e-13,3.145267628e-13,2.923609716e-13,4.302120101e-14,9.959746912e-14,2.506957832e-13,1.342824771e-13,1.485615184e-13,1.273456589e-13,3.158423829e-14,6.402596094e-14,1.364604442e-13,1.076516818e-13,1.915250905e-13,6.319740357e-14,4.952598028e-14,5.539571257e-14,1.742841306e-13,9.082919036e-14,1.250648337e-13,9.03694396e-14,3.308381566e-13,1.574592552e-13,1.230884278e-13,1.04629717e-13,2.716867579e-14
0.265625,1.718975534e-13,1.136954277e-13,4.107550357e-13,6.861159552e-14,4.879220433e-14,1.360364305e-13,1.621812123e-13,3.06036829e-13,2.795349878e-13,4.160051582e-14,9.985771724e-14,2.508489079e-13,1.273118374e-13,1.568529292e-13,1.275996887e-13,2.992393271e-14,6.073263864e-14,1.358880562e-13,1.11975464e-13,1.894411497e-13,6.354028504e-14,4.808928213e-14,5.452038091e-14,1.747509312e-13,8.656859293e-14,1.22792142e-13,9.025920932e-14,3.356978251e-13,1.546978548e-13,1.175054967e-13,1.049922631e-13,2.497286332e-14
0.2734375,1.702257349e-13,1.111032733e-13,4.22767679e-13,7.385521956e-14,5.168012037e-14,1.433434948e-13,1.564512009e-13,2.968400484e-13,2.667565233e-13,4.071446523e-14,1.008323186e-13,2.514008438e-13,1.209686763e-13,1.656675657e-13,1.283939885e-13,2.867693841e-14,5.776124319e-14,1.359340296e-13,1.16691309e-13,1.868543354e-13,6.396427113e-14,4.678936882e-14,5.351499066e-14,1.746731274e-13,8.229420657e-14,1.206045519e-13,9.020057269e-14,3.408562731e-13,1.525939761e-13,1.121029128e-13,1.061989054e-13,2.298957415e-14
0.28125,1.688393965e-13,1.092568433e-13,4.346266885e-13,7.93872106e-14,5.494080739e-14,1.508642188e-13,1.503978968e-13,2.868856181e-13,2.54114366e-13,4.035798072e-14,1.024261015e-13,2.523889281e-13,1.153198687e-13,1.748452781e-13,1.296940723e-13,2.782876345e-14,5.519510982e-14,1.365260052e-13,1.217186954e-13,1.838009468e-13,6.460583614e-14,4.564944706e-14,5.242732073e-14,1.739563521e-13,7.802403583e-14,1.186536425e-13,9.027345251e-14,3.46329936e-13,1.513479033e-13,1.068977652e-13,1.083650748e-13,2.127649687e-14
0.2890625,1.67779706e-13,1.081455422e-13,4.463647419e-13,8.506382319e-14,5.834417726e-14,1.585046332e-13,1.44371448e-13,2.762891904e-13,2.417562936e-13,4.04325733e-14,1.045352113e-13,2.538501528e-13,1.103213752e-13,1.843836512e-13,1.313551312e-13,2.731762591e-14,5.280392589e-14,1.375106914e-13,1.269638479e-13,1.802075724e-13,6.54422281e-14,4.4732374e-14,5.126517287e-14,1.726927187e-13,7.369928455e-14,1.168977457e-13,9.038513032e-14,3.519805741e-13,1.510110203e-13,1.019523196e-13,1.114356737e-13,1.977633799e-14
0.296875,1.669305235e-13,1.074151446e-13,4.574260987e-13,9.078675023e-14,6.185525696e-14,1.661271362e-13,1.387572861e-13,2.654252408e-13,2.297266357e-13,4.077374494e-14,1.070850905e-13,2.55589896e-13,1.057847858e-13,1.940353613e-13,1.331642316e-13,2.71332636e-14,5.059527961e-14,1.385817174e-13,1.322370244e-13,1.762806648e-13,6.639723121e-14,4.401716964e-14,5.001905694e-14,1.709561764e-13,6.940899374e-14,1.149702557e-13,9.023364719e-14,3.569121093e-13,1.510956532e-13,9.725457698e-14,1.149092729e-13,1.846269081e-14
0.3046875,1.663270924e-13,1.071225368e-13,4.671165744e-13,9.643935483e-14,6.56016483e-14,1.736153955e-13,1.333462736e-13,2.544601945e-13,2.179892041e-13,4.1276461e-14,1.100371892e-13,2.575228973e-13,1.016697807e-13,2.036138684e-13,1.351579323e-13,2.729662099e-14,4.881049879e-14,1.397676986e-13,1.374315484e-13,1.724952668e-13,6.759930821e-14,4.341627563e-14,4.872110629e-14,1.687186692e-13,6.532153217e-14,1.130218342e-13,8.999713669e-14,3.608546557e-13,1.516341886e-13,9.280052762e-14,1.188214136e-13,1.739646097e-14
0.3125,1.66162043e-13,1.074199305e-13,4.75424741e-13,1.018555919e-13,6.942257773e-14,1.809247969e-13,1.281567045e-13,2.435441421e-13,2.066877995e-13,4.200716831e-14,1.133296087e-13,2.597432782e-13,9.8050845e-14,2.13007851e-13,1.373116315e-13,2.778520451e-14,4.734125002e-14,1.411187986e-13,1.4254076e-13,1.687422368e-13,6.904436354e-14,4.303176011e-14,4.741082259e-14,1.658807507e-13,6.150702462e-14,1.111265195e-13,8.970740353e-14,3.641196574e-13,1.528357265e-13,8.869721059e-14,1.232248963e-13,1.651276449e-14
0.3203125,1.665146898e-13,1.081947367e-13,4.825173756e-13,1.070779551e-13,7.320859477e-14,1.880776188e-13,1.233615345e-13,2.329957646e-13,1.960810693e-13,4.294476003e-14,1.169040228e-13,2.624278765e-13,9.497141127e-14,2.222815728e-13,1.395476199e-13,2.862316646e-14,4.614476403e-14,1.425365796e-13,1.475472207e-13,1.649350686e-13,7.069774901e-14,4.298330378e-14,4.613928775e-14,1.626497817e-13,5.798218696e-14,1.090505204e-13,8.907556381e-14,3.666712777e-13,1.545254328e-13,8.501522689e-14,1.277891342e-13,1.57967328e-14
0.328125,1.672638823e-13,1.095232957e-13,4.883295043e-13,1.122978965e-13,7.704718099e-14,1.950353327e-13,1.188553582e-13,2.230690749e-13,1.861915362e-13,4.381879511e-14,1.207823823e-13,2.655350121e-13,9.250156723e-14,2.315195999e-13,1.419730856e-13,2.997148421e-14,4.543794582e-14,1.439986789e-13,1.523348729e-13,1.615338259e-13,7.269317881e-14,4.321869146e-14,4.491552854e-14,1.590825021e-13,5.473886869e-14,1.069610432e-13,8.846728089e-14,3.681291964e-13,1.568729788e-13,8.168965948e-14,1.326594522e-13,1.524358781e-14
0.3359375,1.683189037e-13,1.112685002e-13,4.918649261e-13,1.172042908e-13,8.072594876e-14,2.013832394e-13,1.145767694e-13,2.135471748e-13,1.769118526e-13,4.470148872e-14,1.248252803e-13,2.687078156e-13,9.04760794e-14,2.40310907e-13,1.442197197e-13,3.162494845e-14,4.507057032e-14,1.452686904e-13,1.56675536e-13,1.581852523e-13,7.48358629e-14,4.370126288e-14,4.367690448e-14,1.547600639e-13,5.181494535e-14,1.045669517e-13,8.7677174e-14,3.682402762e-13,1.595382074e-13,7.867541767e-14,1.373297011e-13,1.470626147e-14
0.34375,1.696675267e-13,1.131349855e-13,4.930580279e-13,1.214558414e-13,8.397195548e-14,2.069945575e-13,1.106060092e-13,2.047911127e-13,1.685036628e-13,4.556790385e-14,1.28752532e-13,2.717709398e-13,8.862260666e-14,2.481705188e-13,1.459797256e-13,3.351555971e-14,4.486040444e-14,1.460436528e-13,1.603383366e-13,1.544563775e-13,7.696357079e-14,4.441187609e-14,4.244002451e-14,1.499132077e-13,4.922412384e-14,1.017452546e-13,8.649254681e-14,3.668654767e-13,1.621309335e-13,7.604621318e-14,1.414995649e-13,1.424438159e-14
0.3515625,1.711123218e-13,1.151355548e-13,4.920141076e-13,1.252497956e-13,8.705768886e-14,2.12048534e-13,1.071020876e-13,1.969452338e-13,1.609839721e-13,4.624759438e-14,1.326510595e-13,2.747341979e-13,8.689403581e-14,2.551199071e-13,1.475322426e-13,3.581133292e-14,4.507318748e-14,1.464587077e-13,1.634533642e-13,1.509977421e-13,7.926776572e-14,4.526747853e-14,4.122600186e-14,1.450729727e-13,4.689649284e-14,9.887432101e-14,8.526787703e-14,3.63712906e-13,1.647263824e-13,7.378640482e-14,1.454354496e-13,1.400096132e-14
0.359375,1.725158397e-13,1.172694049e-13,4.883726792e-13,1.284950979e-13,9.006506136e-14,2.162301651e-13,1.040351744e-13,1.897861531e-13,1.541771015e-13,4.660885606e-14,1.365238225e-13,2.775140223e-13,8.545005305e-14,2.611475862e-13,1.486516783e-13,3.845953402e-14,4.562998364e-14,1.46528789e-13,1.659872075e-13,1.478222479e-13,8.169742824e-14,4.628558482e-14,4.001031681e-14,1.401272588e-13,4.47681499e-14,9.604899263e-14,8.400748998e-14,3.585766608e-13,1.672971195e-13,7.180404399e-14,1.491602136e-13,1.394397292e-14
0.3671875,1.739063085e-13,1.190453608e-13,4.819421832e-13,1.307942417e-13,9.258111538e-14,2.193676607e-13,1.011763995e-13,1.833409341e-13,1.480399675e-13,4.677571383e-14,1.399375228e-13,2.79833916e-13,8.406453119e-14,2.659918806e-13,1.48982414e-13,4.127531484e-14,4.624934704e-14,1.459222745e-13,1.676042221e-13,1.443409679e-13,8.399234961e-14,4.738014925e-14,3.877558515e-14,1.348518531e-13,4.282938066e-14,9.285811059e-14,8.211534563e-14,3.520488926e-13,1.690806788e-13,6.998768846e-14,1.518969171e-13,1.396153802e-14
0.375,1.751073937e-13,1.203622083e-13,4.741351757e-13,1.324459845e-13,9.456328409e-14,2.218703991e-13,9.850911492e-14,1.773406356e-13,1.42352955e-13,4.671954049e-14,1.428758455e-13,2.813000847e-13,8.255643718e-14,2.696983839e-13,1.48820622e-13,4.450008381e-14,4.706126137e-14,1.446482439e-13,1.683107052e-13,1.408694267e-13,8.625094649e-14,4.848526119e-14,3.7596046e-14,1.296678488e-13,4.110673836e-14,8.942552155e-14,8.006972014e-14,3.444220124e-13,1.701041777e-13,6.829371559e-14,1.537680854e-13,1.40331378e-14
0.3828125,1.760007641e-13,1.214602274e-13,4.651089624e-13,1.338432372e-13,9.641198225e-14,2.23979984e-13,9.596402402e-14,1.717663128e-13,1.369893942e-13,4.639501578e-14,1.456207969e-13,2.818449997e-13,8.100160924e-14,2.723301989e-13,1.48482677e-13,4.838229338e-14,4.842230462e-14,1.428876825e-13,1.682914278e-13,1.377056492e-13,8.860569096e-14,4.962625716e-14,3.642499804e-14,1.244590194e-13,3.949738287e-14,8.598204565e-14,7.83187648e-14,3.354561822e-13,1.707001129e-13,6.672295223e-14,1.549900202e-13,1.421013587e-14
0.390625,1.764938132e-13,1.221115412e-13,4.540490067e-13,1.345851028e-13,9.8002382e-14,2.252289667e-13,9.354132183e-14,1.665827619e-13,1.319259563e-13,4.569280684e-14,1.479071428e-13,2.812117083e-13,7.936601411e-14,2.733529153e-13,1.477522097e-13,5.285333635e-14,5.03853193e-14,1.404223353e-13,1.672935302e-13,1.344277696e-13,9.072374668e-14,5.071923082e-14,3.524957158e-14,1.190221068e-13,3.796947818e-14,8.253648734e-14,7.669823128e-14,3.251339422e-13,1.70522233e-13,6.522956479e-14,1.553071153e-13,1.450064584e-14
0.3984375,1.766136577e-13,1.221232428e-13,4.413079958e-13,1.343670597e-13,9.892180351e-14,2.254130357e-13,9.144569995e-14,1.616345603e-13,1.272526032e-13,4.466524072e-14,1.493556721e-13,2.792107537e-13,7.757942797e-14,2.726093977e-13,1.464716977e-13,5.775633423e-14,5.280290473e-14,1.371091141e-13,1.651616923e-13,1.308631148e-13,9.221870005e-14,5.171108968e-14,3.408816957e-14,1.135732453e-13,3.664604042e-14,7.899510798e-14,7.508871403e-14,3.136421504e-13,1.69390451e-13,6.383922269e-14,1.545214253e-13,1.475708075e-14
0.40625,1.763620414e-13,1.216949586e-13,4.277601759e-13,1.335310657e-13,9.929120794e-14,2.249679441e-13,8.958330043e-14,1.568753904e-13,1.229863904e-13,4.341383973e-14,1.501580746e-13,2.759283871e-13,7.561709518e-14,2.705770975e-13,1.448975225e-13,6.299882285e-14,5.56453763e-14,1.331257321e-13,1.620812897e-13,1.271809696e-13,9.328783503e-14,5.266152926e-14,3.295064194e-14,1.083786439e-13,3.546842797e-14,7.537385517e-14,7.365139312e-14,3.01322038e-13,1.673147872e-13,6.258026049e-14,1.528074296e-13,1.501414517e-14
0.4140625,1.755566564e-13,1.207453562e-13,4.130254081e-13,1.322550511e-13,9.932887234e-14,2.239733587e-13,8.791049602e-14,1.522323144e-13,1.189423438e-13,4.184022005e-14,1.504885908e-13,2.713189616e-13,7.342915285e-14,2.673460976e-13,1.431525506e-13,6.857164398e-14,5.890530972e-14,1.285303635e-13,1.582029336e-13,1.234206753e-13,9.412848728e-14,5.352165261e-14,3.174689468e-14,1.032923072e-13,3.428961566e-14,7.180435206e-14,7.240506914e-14,2.881517182e-13,1.640197168e-13,6.137632778e-14,1.502626588e-13,1.538259749e-14
0.421875,1.739062896e-13,1.190649103e-13,3.971517858e-13,1.303312813e-13,9.894409756e-14,2.222088976e-13,8.650486073e-14,1.47354624e-13,1.149157951e-13,3.983205977e-14,1.501135163e-13,2.650288912e-13,7.097476915e-14,2.62603665e-13,1.410780621e-13,7.438157758e-14,6.247428519e-14,1.233340497e-13,1.534719603e-13,1.195917405e-13,9.44386956e-14,5.420265369e-14,3.045168141e-14,9.836394711e-14,3.318200532e-14,6.841173332e-14,7.161459503e-14,2.737413734e-13,1.595885329e-13,6.010150114e-14,1.469172484e-13,1.581718157e-14
0.4296875,1.715775094e-13,1.165781178e-13,3.80282543e-13,1.277755791e-13,9.808019667e-14,2.198697508e-13,8.518113763e-14,1.42866819e-13,1.111224922e-13,3.768675982e-14,1.489175779e-13,2.573408457e-13,6.816408217e-14,2.561729183e-13,1.386839779e-13,8.046460731e-14,6.627705506e-14,1.175618609e-13,1.478467857e-13,1.155366529e-13,9.415297227e-14,5.467931938e-14,2.912521766e-14,9.350674164e-14,3.221061117e-14,6.505830833e-14,7.099998891e-14,2.587569356e-13,1.542072037e-13,5.884626424e-14,1.425597731e-13,1.631977203e-14
0.4375,1.684812822e-13,1.134172279e-13,3.623436038e-13,1.247845414e-13,9.680634059e-14,2.170494151e-13,8.385019865e-14,1.385575201e-13,1.072996343e-13,3.55742411e-14,1.470725325e-13,2.485883178e-13,6.502100305e-14,2.481699379e-13,1.360054548e-13,8.676501198e-14,7.028665181e-14,1.112571809e-13,1.415185513e-13,1.113244546e-13,9.364450894e-14,5.492271243e-14,2.78297145e-14,8.874593689e-14,3.118477361e-14,6.188497518e-14,7.042261482e-14,2.43691699e-13,1.480820965e-13,5.761498225e-14,1.375421517e-13,1.689758236e-14
0.4453125,1.646312286e-13,1.099856461e-13,3.434900666e-13,1.214963947e-13,9.535043373e-14,2.13778631e-13,8.270255583e-14,1.340488219e-13,1.034114955e-13,3.347752453e-14,1.448699193e-13,2.390552053e-13,6.187529482e-14,2.39143731e-13,1.331636288e-13,9.307316193e-14,7.433624369e-14,1.04761944e-13,1.349363539e-13,1.072662026e-13,9.301895212e-14,5.504951583e-14,2.650530444e-14,8.413840385e-14,3.018556578e-14,5.907513521e-14,7.01017665e-14,2.283714127e-13,1.419496531e-13,5.636260926e-14,1.323805644e-13,1.743285059e-14
0.453125,1.601659128e-13,1.063481421e-13,3.24439084e-13,1.180452018e-13,9.383897639e-14,2.102973649e-13,8.166809713e-14,1.293684806e-13,9.947089664e-14,3.135050032e-14,1.424133063e-13,2.289815079e-13,5.889320767e-14,2.296786199e-13,1.304028409e-13,9.931789446e-14,7.839274345e-14,9.839026075e-14,1.282916569e-13,1.031054116e-13,9.201796507e-14,5.511962283e-14,2.514988516e-14,7.973403701e-14,2.928146847e-14,5.646134925e-14,7.009463041e-14,2.132365259e-13,1.358440406e-13,5.506545559e-14,1.269530611e-13,1.795400064e-14
0.4609375,1.550945104e-13,1.02454232e-13,3.052556383e-13,1.144410188e-13,9.216307868e-14,2.066999586e-13,8.073595554e-14,1.244714676e-13,9.537114727e-14,2.916268212e-14,1.395313791e-13,2.183429222e-13,5.616605952e-14,2.198956214e-13,1.278371507e-13,1.056342959e-13,8.271890724e-14,9.22243763e-14,1.215515128e-13,9.866319365e-14,9.048868169e-14,5.513193829e-14,2.377390231e-14,7.541695531e-14,2.844072944e-14,5.408566181e-14,7.037426894e-14,1.983023415e-13,1.295029946e-13,5.370970403e-14,1.213395019e-13,1.855463273e-14
0.46875,1.493396881e-13,9.832452155e-14,2.859331815e-13,1.104928119e-13,9.024474094e-14,2.027780654e-13,7.99618416e-14,1.194062162e-13,9.119813671e-14,2.695403366e-14,1.361500914e-13,2.068841841e-13,5.358466398e-14,2.095388666e-13,1.253534144e-13,1.119602207e-13,8.733990302e-14,8.611759329e-14,1.146405185e-13,9.418061501e-14,8.84913942e-14,5.512585007e-14,2.241844404e-14,7.13934428e-14,2.765141227e-14,5.202216118e-14,7.091389441e-14,1.834944643e-13,1.22930795e-13,5.233555213e-14,1.156676762e-13,1.924504986e-14
0.4765625,1.432305269e-13,9.386892779e-14,2.672140846e-13,1.062296606e-13,8.80301304e-14,1.984801732e-13,7.929445878e-14,1.143878846e-13,8.696457782e-14,2.486981004e-14,1.322972636e-13,1.948381441e-13,5.09412161e-14,1.986861578e-13,1.228912186e-13,1.18085817e-13,9.198355012e-14,7.995731746e-14,1.07597306e-13,8.959891585e-14,8.622261313e-14,5.509284432e-14,2.116850002e-14,6.786443765e-14,2.694471285e-14,5.005506545e-14,7.155469197e-14,1.694713592e-13,1.159752087e-13,5.106577302e-14,1.096278155e-13,1.996673605e-14
0.484375,1.371670384e-13,8.916116158e-14,2.495082524e-13,1.018069234e-13,8.550360824e-14,1.938897546e-13,7.886005004e-14,1.093659227e-13,8.26001333e-14,2.290880456e-14,1.279985547e-13,1.828686207e-13,4.846706704e-14,1.878059699e-13,1.20510842e-13,1.238466096e-13,9.642185774e-14,7.399356067e-14,1.007067031e-13,8.481866524e-14,8.370507985e-14,5.50824828e-14,2.000927298e-14,6.471200085e-14,2.65065665e-14,4.815659188e-14,7.227335756e-14,1.564138456e-13,1.087225537e-13,4.99074599e-14,1.0340589e-13,2.061225944e-14
0.4921875,1.312261366e-13,8.436316378e-14,2.323745034e-13,9.724062333e-14,8.274335099e-14,1.891320562e-13,7.872022584e-14,1.044642392e-13,7.833982957e-14,2.106886987e-14,1.23482879e-13,1.713827002e-13,4.648414266e-14,1.774472465e-13,1.181883877e-13,1.290401909e-13,1.004849285e-13,6.835906109e-14,9.418112058e-14,7.99621315e-14,8.087407688e-14,5.51718906e-14,1.88753891e-14,6.180735825e-14,2.637372653e-14,4.629870364e-14,7.27911925e-14,1.442916223e-13,1.012668977e-13,4.88633063e-14,9.720622628e-14,2.114148192e-14
0.5,1.251581546e-13,7.955562358e-14,2.162075109e-13,9.27649338e-14,7.992220698e-14,1.846180136e-13,7.876074348e-14,9.927940189e-14,7.406267936e-14,1.932376336e-14,1.188689891e-13,1.600596642e-13,4.502981231e-14,1.678930705e-13,1.161700778e-13,1.334629033e-13,1.040827902e-13,6.316085976e-14,8.803677705e-14,7.5168491e-14,7.789662786e-14,5.539571781e-14,1.78294525e-14,5.931476061e-14,2.64408425e-14,4.456928554e-14,7.338425515e-14,1.330262079e-13,9.372561806e-14,4.780812042e-14,9.121658812e-14,2.167956073e-14
0.5078125,1.19035048e-13,7.483282022e-14,2.012048934e-13,8.852616329e-14,7.726394391e-14,1.802100356e-13,7.898127509e-14,9.408733418e-14,6.975599329e-14,1.768506974e-14,1.141032632e-13,1.489259703e-13,4.403503436e-14,1.589218313e-13,1.146243594e-13,1.374393921e-13,1.073162277e-13,5.85138717e-14,8.235180076e-14,7.04974695e-14,7.478126343e-14,5.582784782e-14,1.694668365e-14,5.719742147e-14,2.675674649e-14,4.302081822e-14,7.413115074e-14,1.225028366e-13,8.64306432e-14,4.673283939e-14,8.561439141e-14,2.224872407e-14
0.515625,1.130258224e-13,7.027213944e-14,1.873864103e-13,8.429020252e-14,7.463244262e-14,1.754178774e-13,7.941191425e-14,8.929124151e-14,6.566274708e-14,1.620817893e-14,1.091125982e-13,1.383478701e-13,4.357143529e-14,1.506453475e-13,1.131734414e-13,1.407115722e-13,1.101091873e-13,5.431219265e-14,7.716640609e-14,6.601122087e-14,7.136287007e-14,5.649509493e-14,1.619803038e-14,5.567088024e-14,2.722100012e-14,4.166879779e-14,7.47116659e-14,1.128855465e-13,7.976123409e-14,4.574133074e-14,8.031877233e-14,2.290856802e-14
0.5234375,1.074735936e-13,6.607418928e-14,1.749845703e-13,8.002121696e-14,7.17695913e-14,1.705993276e-13,8.037296408e-14,8.482778593e-14,6.178018106e-14,1.488050646e-14,1.040225416e-13,1.285674616e-13,4.389276303e-14,1.437158205e-13,1.118199859e-13,1.430619342e-13,1.123823116e-13,5.057117935e-14,7.263515517e-14,6.173955685e-14,6.782230854e-14,5.758593656e-14,1.55281913e-14,5.478201603e-14,2.80238484e-14,4.045025286e-14,7.504900522e-14,1.043361855e-13,7.356072408e-14,4.496524816e-14,7.523948919e-14,2.361925607e-14
0.53125,1.025203774e-13,6.234112507e-14,1.641719606e-13,7.590464924e-14,6.873871722e-14,1.659662531e-13,8.198432374e-14,8.055705575e-14,5.796668858e-14,1.378949926e-14,9.907975681e-14,1.198211687e-13,4.519409396e-14,1.38461103e-13,1.108447458e-13,1.446646526e-13,1.142297356e-13,4.7522425e-14,6.890297345e-14,5.765954889e-14,6.439607887e-14,5.908494517e-14,1.502696031e-14,5.438042149e-14,2.932138547e-14,3.929746048e-14,7.52707768e-14,9.70321179e-14,6.773563969e-14,4.438378699e-14,7.046499717e-14,2.416321071e-14
0.5390625,9.820877895e-14,5.91023916e-14,1.548741805e-13,7.199907362e-14,6.570535712e-14,1.612577218e-13,8.424972417e-14,7.648425556e-14,5.435428299e-14,1.301868281e-14,9.435812449e-14,1.12191047e-13,4.75623088e-14,1.349142721e-13,1.101208501e-13,1.453009699e-13,1.154466513e-13,4.517879361e-14,6.597415465e-14,5.396679872e-14,6.113227622e-14,6.088314711e-14,1.481566077e-14,5.442311982e-14,3.107831278e-14,3.820509308e-14,7.514201715e-14,9.077693462e-14,6.266836393e-14,4.392343764e-14,6.612457848e-14,2.456955623e-14
0.546875,9.457246535e-14,5.632330161e-14,1.470343852e-13,6.82596862e-14,6.270358224e-14,1.566030051e-13,8.720623624e-14,7.285153754e-14,5.114873717e-14,1.241180505e-14,8.976593291e-14,1.054676532e-13,5.089871002e-14,1.328441696e-13,1.096182728e-13,1.451060452e-13,1.160879938e-13,4.352528107e-14,6.37435103e-14,5.062003823e-14,5.790680214e-14,6.309866142e-14,1.48802374e-14,5.49187258e-14,3.34504909e-14,3.71976686e-14,7.462264842e-14,8.502690004e-14,5.836461067e-14,4.35656043e-14,6.215517964e-14,2.506708368e-14
0.5546875,9.159362103e-14,5.383239057e-14,1.406256914e-13,6.460868505e-14,5.967883694e-14,1.521870168e-13,9.064748942e-14,6.991587635e-14,4.84278612e-14,1.198399334e-14,8.529697618e-14,9.971270643e-14,5.505355439e-14,1.320395147e-13,1.092941607e-13,1.444365075e-13,1.16509713e-13,4.254792448e-14,6.207118576e-14,4.734163919e-14,5.463226768e-14,6.572160126e-14,1.513842675e-14,5.60845303e-14,3.636548099e-14,3.633798944e-14,7.384684537e-14,7.994119248e-14,5.455565019e-14,4.335201955e-14,5.836932903e-14,2.570746856e-14
0.5625,8.935149692e-14,5.159851755e-14,1.354609074e-13,6.106093719e-14,5.667704605e-14,1.479091218e-13,9.477179255e-14,6.748576487e-14,4.611109391e-14,1.173215999e-14,8.10878297e-14,9.511994809e-14,6.016089058e-14,1.326338199e-13,1.089563748e-13,1.430722584e-13,1.164630812e-13,4.216856546e-14,6.100283144e-14,4.431061996e-14,5.151411073e-14,6.871945178e-14,1.553959563e-14,5.80529841e-14,3.970141468e-14,3.553204149e-14,7.276351498e-14,7.579187325e-14,5.122756459e-14,4.331577439e-14,5.486052046e-14,2.641580878e-14
0.5703125,8.801835356e-14,4.972347001e-14,1.315749633e-13,5.771557325e-14,5.379746969e-14,1.436495336e-13,9.983233595e-14,6.551004831e-14,4.433313214e-14,1.161069537e-14,7.729952144e-14,9.186300621e-14,6.653179405e-14,1.349100361e-13,1.088060975e-13,1.409232512e-13,1.158019969e-13,4.248011332e-14,6.067722065e-14,4.167125328e-14,4.864072152e-14,7.217191346e-14,1.610697494e-14,6.082251213e-14,4.363549291e-14,3.462225324e-14,7.135444611e-14,7.23515067e-14,4.838924676e-14,4.35060609e-14,5.162608689e-14,2.720416386e-14
0.578125,8.781729489e-14,4.82623284e-14,1.293594804e-13,5.460476938e-14,5.096744432e-14,1.396878672e-13,1.058967816e-13,6.411218864e-14,4.335882518e-14,1.174621489e-14,7.39998357e-14,9.012630517e-14,7.417213521e-14,1.39100934e-13,1.090102634e-13,1.381598413e-13,1.147176178e-13,4.360167543e-14,6.111459642e-14,3.921674472e-14,4.59117651e-14,7.605544727e-14,1.691377373e-14,6.454611749e-14,4.827842531e-14,3.370329649e-14,6.952391135e-14,6.968046369e-14,4.609294047e-14,4.404934867e-14,4.851300026e-14,2.811710475e-14
0.5859375,8.864679186e-14,4.710646124e-14,1.285597294e-13,5.167467314e-14,4.80843595e-14,1.362956748e-13,1.132072412e-13,6.303771655e-14,4.305816945e-14,1.19998825e-14,7.116054117e-14,8.967240394e-14,8.27437739e-14,1.449381258e-13,1.094163158e-13,1.349813448e-13,1.131738398e-13,4.556786573e-14,6.215221326e-14,3.68737318e-14,4.340269721e-14,8.020684045e-14,1.792541488e-14,6.902298471e-14,5.36387884e-14,3.281275728e-14,6.732214353e-14,6.764746632e-14,4.437824166e-14,4.489612705e-14,4.546645519e-14,2.906691843e-14
0.59375,9.027785356e-14,4.612245949e-14,1.288207569e-13,4.890943766e-14,4.520774059e-14,1.332327615e-13,1.216036394e-13,6.219669078e-14,4.330722127e-14,1.227542082e-14,6.883955919e-14,9.030854046e-14,9.237141817e-14,1.523129693e-13,1.101125207e-13,1.315676388e-13,1.112395579e-13,4.846651591e-14,6.367357483e-14,3.475764558e-14,4.121943008e-14,8.449431451e-14,1.905648067e-14,7.441692577e-14,5.973864218e-14,3.19265093e-14,6.488951813e-14,6.605641506e-14,4.3131864e-14,4.600965256e-14,4.238832371e-14,3.007243745e-14
0.6015625,9.297898966e-14,4.544095864e-14,1.307376146e-13,4.647627867e-14,4.245112814e-14,1.307360065e-13,1.311247113e-13,6.169702605e-14,4.423984895e-14,1.265722144e-14,6.716568372e-14,9.220852167e-14,1.033660752e-13,1.61681653e-13,1.113258176e-13,1.278978959e-13,1.090714471e-13,5.239108169e-14,6.578380927e-14,3.294510119e-14,3.93594211e-14,8.894568818e-14,2.035187211e-14,8.117119874e-14,6.675907549e-14,3.117914763e-14,6.218711333e-14,6.524035964e-14,4.229414789e-14,4.757514277e-14,3.935924076e-14,3.132476545e-14
0.609375,9.687678026e-14,4.509378685e-14,1.343472349e-13,4.44851445e-14,3.984794689e-14,1.29109814e-13,1.419167983e-13,6.138174608e-14,4.593343128e-14,1.308741218e-14,6.605605752e-14,9.527957925e-14,1.153906873e-13,1.728074961e-13,1.131064675e-13,1.240719841e-13,1.066632208e-13,5.731792092e-14,6.840812001e-14,3.137048487e-14,3.779754165e-14,9.345593204e-14,2.189484876e-14,8.90848305e-14,7.480153821e-14,3.061359254e-14,5.944158793e-14,6.502789142e-14,4.200070457e-14,4.947229675e-14,3.651101221e-14,3.280109356e-14
0.6171875,1.017365067e-13,4.484691049e-14,1.39158907e-13,4.280236506e-14,3.73613407e-14,1.281608799e-13,1.536068383e-13,6.116524626e-14,4.841264283e-14,1.361468855e-14,6.53788414e-14,9.93877327e-14,1.282502003e-13,1.852321912e-13,1.154502487e-13,1.202987468e-13,1.039925278e-13,6.313026396e-14,7.132399953e-14,3.001299016e-14,3.651301952e-14,9.788951761e-14,2.371085578e-14,9.82567425e-14,8.375881712e-14,3.010210737e-14,5.666165114e-14,6.537987796e-14,4.219793162e-14,5.157529103e-14,3.369142886e-14,3.441535768e-14
0.625,1.076309103e-13,4.475076392e-14,1.456596083e-13,4.147249959e-14,3.498082422e-14,1.282027393e-13,1.663264224e-13,6.110261082e-14,5.174795326e-14,1.424266548e-14,6.525790659e-14,1.047082831e-13,1.421434124e-13,1.990286909e-13,1.182797059e-13,1.165734378e-13,1.011895164e-13,6.975472456e-14,7.456943868e-14,2.893117765e-14,3.549672052e-14,1.023735519e-13,2.568323264e-14,1.088666028e-13,9.368888588e-14,2.959963314e-14,5.364064878e-14,6.6609647e-14,4.262876253e-14,5.410549588e-14,3.083904509e-14,3.629043282e-14
0.6328125,1.145980943e-13,4.494817995e-14,1.540650816e-13,4.068142676e-14,3.274745701e-14,1.293247377e-13,1.800598622e-13,6.123489594e-14,5.601864788e-14,1.47769248e-14,6.573174044e-14,1.111907456e-13,1.569914305e-13,2.140172376e-13,1.215887336e-13,1.128079718e-13,9.825549573e-14,7.711023417e-14,7.814434384e-14,2.811036267e-14,3.474583109e-14,1.068604941e-13,2.768204588e-14,1.210019007e-13,1.045192204e-13,2.928954353e-14,5.06487893e-14,6.849187451e-14,4.336118697e-14,5.706745713e-14,2.810085077e-14,3.845913609e-14
0.640625,1.224539914e-13,4.529957733e-14,1.638952902e-13,4.036065374e-14,3.066932307e-14,1.313623073e-13,1.944189339e-13,6.161971162e-14,6.112822129e-14,1.520989987e-14,6.661912821e-14,1.185456384e-13,1.725053592e-13,2.299364206e-13,1.255007164e-13,1.090583634e-13,9.506187226e-14,8.50399929e-14,8.187678888e-14,2.75798152e-14,3.423364366e-14,1.111455071e-13,2.972275387e-14,1.348319559e-13,1.160801174e-13,2.928489824e-14,4.778689068e-14,7.108647045e-14,4.442834919e-14,6.040463881e-14,2.548592982e-14,4.086043916e-14
0.6484375,1.31212136e-13,4.572343088e-14,1.752181784e-13,4.050402078e-14,2.87404343e-14,1.345281676e-13,2.097048066e-13,6.221237507e-14,6.693970326e-14,1.566456688e-14,6.794187218e-14,1.267694565e-13,1.88438745e-13,2.466640345e-13,1.299811939e-13,1.054551485e-13,9.177580278e-14,9.352794691e-14,8.57434258e-14,2.732627618e-14,3.39308724e-14,1.152329738e-13,3.174098587e-14,1.501812317e-13,1.28362282e-13,2.957772166e-14,4.498714366e-14,7.443498535e-14,4.574977433e-14,6.418882225e-14,2.302563158e-14,4.359746304e-14
0.65625,1.409010795e-13,4.619744569e-14,1.880662135e-13,4.128275454e-14,2.70237886e-14,1.389100046e-13,2.255657381e-13,6.302533124e-14,7.346217733e-14,1.606170707e-14,6.972751856e-14,1.358984513e-13,2.049296469e-13,2.642533922e-13,1.350762109e-13,1.01984253e-13,8.843836715e-14,1.027159418e-13,8.972932933e-14,2.720537319e-14,3.388998632e-14,1.191807447e-13,3.373847577e-14,1.670785511e-13,1.413648737e-13,3.018840349e-14,4.232739063e-14,7.865272163e-14,4.738498958e-14,6.837101085e-14,2.07869729e-14,4.668489063e-14
0.6640625,1.514522782e-13,4.675066193e-14,2.024147145e-13,4.272754202e-14,2.559168065e-14,1.446357187e-13,2.413409889e-13,6.413660879e-14,8.070573325e-14,1.639704857e-14,7.177704211e-14,1.457566611e-13,2.220328418e-13,2.828832773e-13,1.409136764e-13,9.86134416e-14,8.488067159e-14,1.124763569e-13,9.3757184e-14,2.725091493e-14,3.416902613e-14,1.230769066e-13,3.580580726e-14,1.855815114e-13,1.550723081e-13,3.095772987e-14,3.970075835e-14,8.415012748e-14,4.906750233e-14,7.29900402e-14,1.866465824e-14,5.000794734e-14
0.671875,1.629348308e-13,4.745397359e-14,2.189159433e-13,4.480580457e-14,2.444868784e-14,1.513989913e-13,2.577070996e-13,6.543721173e-14,8.875889865e-14,1.671751364e-14,7.410846441e-14,1.564012182e-13,2.392563598e-13,3.023708006e-13,1.474237025e-13,9.554897116e-14,8.121329892e-14,1.225811084e-13,9.786255899e-14,2.761384484e-14,3.475561617e-14,1.268758549e-13,3.77876855e-14,2.060733175e-13,1.692809472e-13,3.177652623e-14,3.712452859e-14,9.058941322e-14,5.061687864e-14,7.817316424e-14,1.667245849e-14,5.361941714e-14
0.6796875,1.753430345e-13,4.813820796e-14,2.374961903e-13,4.746846605e-14,2.361048274e-14,1.589480712e-13,2.748761848e-13,6.679676264e-14,9.763633248e-14,1.688470806e-14,7.670058186e-14,1.678134724e-13,2.564914817e-13,3.226363436e-13,1.54505505e-13,9.287762927e-14,7.748743509e-14,1.330875892e-13,1.020429745e-13,2.823741254e-14,3.562276701e-14,1.303805204e-13,3.95678096e-14,2.287884051e-13,1.839989387e-13,3.275774345e-14,3.474515037e-14,9.778859932e-14,5.221139009e-14,8.380535851e-14,1.484907649e-14,5.745812777e-14
0.6875,1.885276278e-13,4.875007866e-14,2.576628986e-13,5.065987997e-14,2.316907502e-14,1.676292766e-13,2.921175548e-13,6.830184073e-14,1.073407153e-13,1.69565973e-14,7.926360112e-14,1.79717969e-13,2.738993246e-13,3.436611888e-13,1.620548704e-13,9.038439009e-14,7.361734977e-14,1.438669503e-13,1.062838332e-13,2.909519998e-14,3.673478294e-14,1.337264582e-13,4.115729321e-14,2.532680452e-13,1.992847809e-13,3.395668322e-14,3.256813628e-14,1.059070863e-13,5.378491764e-14,8.972430733e-14,1.313808886e-14,6.134632889e-14
0.6953125,2.025696075e-13,4.94952935e-14,2.802375668e-13,5.454579586e-14,2.318835205e-14,1.77545698e-13,3.09179035e-13,7.017488519e-14,1.180550502e-13,1.695415325e-14,8.191058871e-14,1.923092175e-13,2.91275039e-13,3.653201766e-13,1.702553142e-13,8.819161001e-14,6.976666717e-14,1.547339712e-13,1.107042079e-13,3.034500179e-14,3.808463231e-14,1.371523735e-13,4.248811307e-14,2.796499552e-13,2.14683259e-13,3.535980157e-14,3.058497979e-14,1.151409441e-13,5.524646435e-14,9.605925921e-14,1.166235542e-14,6.536806665e-14
0.703125,2.172878398e-13,5.037943728e-14,3.050092038e-13,5.919728653e-14,2.365173017e-14,1.88648411e-13,3.255086069e-13,7.24471003e-14,1.294374154e-13,1.685108801e-14,8.474244303e-14,2.05440898e-13,3.080396099e-13,3.872549647e-13,1.790748945e-13,8.652010262e-14,6.6189354e-14,1.655274343e-13,1.1515235e-13,3.199102792e-14,3.973301647e-14,1.404957966e-13,4.362131149e-14,3.073616498e-13,2.299675711e-13,3.688301138e-14,2.875898308e-14,1.25709548e-13,5.657396731e-14,1.026778873e-13,1.046892793e-14,6.950385156e-14
0.7109375,2.321228783e-13,5.116187643e-14,3.306384013e-13,6.43309419e-14,2.454908975e-14,2.002342081e-13,3.407456851e-13,7.499914582e-14,1.410792242e-13,1.681214843e-14,8.733836495e-14,2.183551743e-13,3.23459347e-13,4.08390278e-13,1.877635878e-13,8.515603453e-14,6.296950603e-14,1.755972844e-13,1.192206366e-13,3.392828143e-14,4.170611846e-14,1.43469062e-13,4.458893487e-14,3.356211762e-13,2.450536174e-13,3.850825387e-14,2.721822575e-14,1.367886779e-13,5.773880322e-14,1.091365179e-13,9.48302091e-15,7.354783574e-14
0.71875,2.471326827e-13,5.177537817e-14,3.577123501e-13,6.996318776e-14,2.59329264e-14,2.119737569e-13,3.554333306e-13,7.789069384e-14,1.532738107e-13,1.672881065e-14,8.966494419e-14,2.312727269e-13,3.378267602e-13,4.286455459e-13,1.963993174e-13,8.414759921e-14,6.006400036e-14,1.848606501e-13,1.230426321e-13,3.605238767e-14,4.388282264e-14,1.461209093e-13,4.518857644e-14,3.650325567e-13,2.596494987e-13,4.033733152e-14,2.615898447e-14,1.480207272e-13,5.892029946e-14,1.155767324e-13,8.788778223e-15,7.74524249e-14
0.7265625,2.62479105e-13,5.248133992e-14,3.866867169e-13,7.636570791e-14,2.786607116e-14,2.246638017e-13,3.693823941e-13,8.124614418e-14,1.661143442e-13,1.651946894e-14,9.19883472e-14,2.446510115e-13,3.517150805e-13,4.486697993e-13,2.056347808e-13,8.387892412e-14,5.764512369e-14,1.93854651e-13,1.269390023e-13,3.819498796e-14,4.618512978e-14,1.486930252e-13,4.543409395e-14,3.95364609e-13,2.737763094e-13,4.230526946e-14,2.542690196e-14,1.599261099e-13,6.000517514e-14,1.22262299e-13,8.387294748e-15,8.12079069e-14
0.734375,2.778910857e-13,5.330650009e-14,4.166884871e-13,8.326306896e-14,3.029559095e-14,2.378417696e-13,3.821569436e-13,8.511042856e-14,1.795357148e-13,1.634650286e-14,9.402268887e-14,2.582437621e-13,3.647007095e-13,4.678359281e-13,2.151116561e-13,8.423291036e-14,5.58393726e-14,2.021887956e-13,1.306597209e-13,4.03829923e-14,4.868949338e-14,1.512317998e-13,4.554029734e-14,4.261954614e-13,2.872431402e-13,4.43385671e-14,2.495526592e-14,1.72044499e-13,6.084686256e-14,1.290066334e-13,8.192422664e-15,8.477285609e-14
0.7421875,2.932078658e-13,5.402327021e-14,4.47200362e-13,9.023422177e-14,3.304526695e-14,2.507075695e-13,3.938019947e-13,8.941779209e-14,1.934536033e-13,1.631027081e-14,9.541940751e-14,2.719471969e-13,3.767275799e-13,4.85774232e-13,2.243793123e-13,8.487052724e-14,5.44580714e-14,2.094624078e-13,1.340947112e-13,4.278464463e-14,5.141093911e-14,1.536756336e-13,4.55364406e-14,4.574756779e-13,2.996793484e-13,4.64690691e-14,2.490513468e-14,1.839315365e-13,6.170795916e-14,1.356652485e-13,8.219739308e-15,8.804266976e-14
0.75,3.080999805e-13,5.470677234e-14,4.776619463e-13,9.731431216e-14,3.597313688e-14,2.633988611e-13,4.040826149e-13,9.394570217e-14,2.074604499e-13,1.635512677e-14,9.6265728e-14,2.85522682e-13,3.879978073e-13,5.024717721e-13,2.333056275e-13,8.592210542e-14,5.37522204e-14,2.159642828e-13,1.374304153e-13,4.535893115e-14,5.435477418e-14,1.560330736e-13,4.542383738e-14,4.880553639e-13,3.111522271e-13,4.864849951e-14,2.529376292e-14,1.953680602e-13,6.253924382e-14,1.420639958e-13,8.437743639e-15,9.092850279e-14
0.7578125,3.224996768e-13,5.540141541e-14,5.08218481e-13,1.044727219e-13,3.906219717e-14,2.7551157e-13,4.131001441e-13,9.846321557e-14,2.216783699e-13,1.631927941e-14,9.669447533e-14,2.98840566e-13,3.980726319e-13,5.172972038e-13,2.4158809e-13,8.736674962e-14,5.383669734e-14,2.21339986e-13,1.40507794e-13,4.797460814e-14,5.758148341e-14,1.582924686e-13,4.515852285e-14,5.178444095e-13,3.213628154e-13,5.091075801e-14,2.615268124e-14,2.061192026e-13,6.31808052e-14,1.481161813e-13,8.857231747e-15,9.354783987e-14
0.765625,3.367470636e-13,5.588879188e-14,5.391111811e-13,1.114281324e-13,4.22658131e-14,2.868480756e-13,4.208859478e-13,1.029032569e-13,2.362259765e-13,1.635095337e-14,9.661636806e-14,3.120309497e-13,4.065582527e-13,5.301279703e-13,2.491582401e-13,8.888945103e-14,5.436345617e-14,2.250440941e-13,1.431717899e-13,5.062170585e-14,6.107112655e-14,1.604079625e-13,4.468035662e-14,5.472800832e-13,3.300232976e-13,5.335831708e-14,2.749958274e-14,2.166402286e-13,6.372339987e-14,1.539426725e-13,9.520013159e-15,9.597864544e-14
0.7734375,3.507982115e-13,5.613125545e-14,5.692218417e-13,1.180614722e-13,4.540903975e-14,2.974407301e-13,4.271926801e-13,1.073245201e-13,2.50643179e-13,1.659809352e-14,9.587150483e-14,3.24709444e-13,4.134353829e-13,5.408437591e-13,2.55900567e-13,9.066115785e-14,5.566104755e-14,2.272174283e-13,1.455445334e-13,5.327212126e-14,6.46911626e-14,1.624413687e-13,4.419161457e-14,5.749716039e-13,3.376213496e-13,5.602892749e-14,2.93414445e-14,2.264412089e-13,6.426376948e-14,1.593902271e-13,1.041545498e-14,9.808780337e-14
0.78125,3.645921071e-13,5.62253623e-14,5.980712761e-13,1.24331124e-13,4.843781728e-14,3.069055441e-13,4.322337047e-13,1.117256395e-13,2.648136206e-13,1.692441448e-14,9.453190023e-14,3.367681832e-13,4.187945947e-13,5.491422431e-13,2.614990616e-13,9.276153703e-14,5.792326671e-14,2.280092605e-13,1.4762193e-13,5.584028566e-14,6.829935236e-14,1.644093683e-13,4.379036787e-14,6.001628958e-13,3.44212198e-13,5.895404697e-14,3.174911217e-14,2.346855703e-13,6.492743193e-14,1.643406526e-13,1.15660357e-14,9.972817532e-14
0.7890625,3.778602526e-13,5.606041756e-14,6.254618153e-13,1.300598786e-13,5.150018455e-14,3.152771412e-13,4.358775459e-13,1.16155123e-13,2.788330799e-13,1.734509444e-14,9.279874871e-14,3.482845672e-13,4.22095709e-13,5.547803645e-13,2.656681845e-13,9.477527286e-14,6.084524953e-14,2.270406406e-13,1.491021724e-13,5.83853933e-14,7.199124926e-14,1.661371968e-13,4.331418025e-14,6.234727988e-13,3.49247496e-13,6.217363445e-14,3.480193545e-14,2.41721938e-13,6.57973071e-14,1.688429962e-13,1.295722438e-14,1.009758538e-13
0.796875,3.904098167e-13,5.552052667e-14,6.504923813e-13,1.35095667e-13,5.462567274e-14,3.222637883e-13,4.38132144e-13,1.207095897e-13,2.928068645e-13,1.786403792e-14,9.072713213e-14,3.590574306e-13,4.23091241e-13,5.573246502e-13,2.683133081e-13,9.66671447e-14,6.461994088e-14,2.24054058e-13,1.49922999e-13,6.101110883e-14,7.587388472e-14,1.676785636e-13,4.278351218e-14,6.44844644e-13,3.527766925e-13,6.578925521e-14,3.854562467e-14,2.47390481e-13,6.706105076e-14,1.72815016e-13,1.466259503e-14,1.019800321e-13
0.8046875,4.02552659e-13,5.480575606e-14,6.731540751e-13,1.395487005e-13,5.762277201e-14,3.277071386e-13,4.391509498e-13,1.252813395e-13,3.066037249e-13,1.845371443e-14,8.835090849e-14,3.691855002e-13,4.226929312e-13,5.573017587e-13,2.698625315e-13,9.880157765e-14,6.948040539e-14,2.197120921e-13,1.503956216e-13,6.366767507e-14,7.982011786e-14,1.691532032e-13,4.233238401e-14,6.633287941e-13,3.55234649e-13,6.972655857e-14,4.289689737e-14,2.514599157e-13,6.881939825e-14,1.762544175e-13,1.668207087e-14,1.025154098e-13
0.8125,4.138351219e-13,5.402806136e-14,6.934478576e-13,1.43615718e-13,6.045666068e-14,3.321193834e-13,4.387106255e-13,1.298662687e-13,3.198359132e-13,1.920065287e-14,8.573736259e-14,3.786030269e-13,4.211631956e-13,5.550405051e-13,2.703121762e-13,1.010717551e-13,7.523686017e-14,2.144620426e-13,1.504561282e-13,6.634652078e-14,8.387264136e-14,1.703672737e-13,4.197480103e-14,6.784216821e-13,3.564552586e-13,7.387044467e-14,4.785356304e-14,2.542676868e-13,7.109388261e-14,1.792272138e-13,1.89082512e-14,1.02446177e-13
0.8203125,4.239078523e-13,5.304206868e-14,7.107887605e-13,1.470650834e-13,6.323556454e-14,3.352374683e-13,4.374790204e-13,1.346318377e-13,3.327524137e-13,2.003999397e-14,8.293409281e-14,3.874510717e-13,4.183963308e-13,5.500679369e-13,2.691366044e-13,1.030150803e-13,8.151564897e-14,2.081183652e-13,1.499754001e-13,6.918661407e-14,8.79786504e-14,1.713140965e-13,4.172252022e-14,6.909066218e-13,3.564418558e-13,7.839505119e-14,5.337265807e-14,2.555329262e-13,7.405229451e-14,1.818510684e-13,2.141913099e-14,1.021570443e-13
0.828125,4.331498469e-13,5.190528183e-14,7.250838179e-13,1.493709672e-13,6.578507788e-14,3.367598558e-13,4.360245223e-13,1.395489133e-13,3.455748351e-13,2.087502219e-14,7.990746191e-14,3.961413371e-13,4.147231152e-13,5.427286834e-13,2.664322714e-13,1.046176234e-13,8.826681953e-14,2.008800043e-13,1.491609752e-13,7.232869739e-14,9.175627275e-14,1.721201582e-13,4.157915816e-14,7.011897698e-13,3.556781876e-13,8.338168189e-14,5.945894191e-14,2.551517846e-13,7.766832152e-14,1.842026432e-13,2.421793889e-14,1.018284061e-13
0.8359375,4.414237958e-13,5.070890878e-14,7.363497666e-13,1.503658023e-13,6.786173227e-14,3.368561123e-13,4.342002253e-13,1.444134993e-13,3.580261629e-13,2.172025863e-14,7.657793597e-14,4.044570026e-13,4.102019409e-13,5.333968352e-13,2.624022274e-13,1.061010696e-13,9.577443368e-14,1.929868113e-13,1.480042117e-13,7.57883163e-14,9.51669379e-14,1.727089244e-13,4.156540466e-14,7.090508498e-13,3.541715022e-13,8.881094639e-14,6.62401102e-14,2.533445227e-13,8.201380563e-14,1.862394462e-13,2.732900895e-14,1.014325809e-13
0.84375,4.484833573e-13,4.941151677e-14,7.441130388e-13,1.502232875e-13,6.944416462e-14,3.356187711e-13,4.319792144e-13,1.488928674e-13,3.69726148e-13,2.257347346e-14,7.307780274e-14,4.119791423e-13,4.04901248e-13,5.221827405e-13,2.569954303e-13,1.074639045e-13,1.03960278e-13,1.84654665e-13,1.464233184e-13,7.942470241e-14,9.828735417e-14,1.729554168e-13,4.173045903e-14,7.140292294e-13,3.520311671e-13,9.461563676e-14,7.348402017e-14,2.500045601e-13,8.6948724e-14,1.878822739e-13,3.08223031e-14,1.010291238e-13
0.8515625,4.539192792e-13,4.796404963e-14,7.475146233e-13,1.489390784e-13,7.066502756e-14,3.328057513e-13,4.291248719e-13,1.529420219e-13,3.801917282e-13,2.340862772e-14,6.945922007e-14,4.182121732e-13,3.982961014e-13,5.087330797e-13,2.500072204e-13,1.084237021e-13,1.125253149e-13,1.757640136e-13,1.442468585e-13,8.334810633e-14,1.009595147e-13,1.727091101e-13,4.197664217e-14,7.15505551e-13,3.491505885e-13,1.007235494e-13,8.11305342e-14,2.451215093e-13,9.200984874e-14,1.888488642e-13,3.469272845e-14,1.004978823e-13
0.859375,4.577440627e-13,4.628283381e-14,7.467799122e-13,1.465349936e-13,7.157540205e-14,3.281060768e-13,4.258330269e-13,1.568399955e-13,3.896743998e-13,2.423026942e-14,6.560277926e-14,4.232884385e-13,3.900517116e-13,4.927830783e-13,2.414339322e-13,1.087671711e-13,1.213042392e-13,1.659491209e-13,1.413346962e-13,8.790585316e-14,1.031868531e-13,1.721013066e-13,4.226680866e-14,7.145743516e-13,3.453098546e-13,1.07333603e-13,8.92665487e-14,2.388790084e-13,9.731072207e-14,1.892594887e-13,3.905345997e-14,9.999407968e-14
0.8671875,4.608377858e-13,4.449365121e-14,7.428494654e-13,1.435340637e-13,7.20230081e-14,3.224128348e-13,4.222742045e-13,1.60391433e-13,3.983515198e-13,2.509976988e-14,6.172658793e-14,4.278778909e-13,3.810617229e-13,4.756162173e-13,2.32025874e-13,1.088213064e-13,1.301996916e-13,1.558171264e-13,1.381056666e-13,9.296944438e-14,1.050167291e-13,1.713331127e-13,4.270282416e-14,7.116158781e-13,3.41132374e-13,1.144378744e-13,9.755432009e-14,2.318076072e-13,1.029891481e-13,1.894981388e-13,4.383369243e-14,9.96904194e-14
0.875,4.629952563e-13,4.270934559e-14,7.352716483e-13,1.402536159e-13,7.215047487e-14,3.160132492e-13,4.180849666e-13,1.632569493e-13,4.055130859e-13,2.598556056e-14,5.804031856e-14,4.315818e-13,3.716170436e-13,4.578188767e-13,2.220411645e-13,1.085503625e-13,1.38970488e-13,1.458247367e-13,1.346636016e-13,9.816809521e-14,1.064839566e-13,1.70172864e-13,4.317207741e-14,7.05727887e-13,3.365039824e-13,1.218085277e-13,1.057468294e-13,2.243077969e-13,1.08907533e-13,1.893070699e-13,4.897019894e-14,9.919951829e-14
0.8828125,4.636442024e-13,4.080980148e-14,7.23628111e-13,1.364426767e-13,7.221656969e-14,3.080553365e-13,4.133151206e-13,1.65507881e-13,4.111769567e-13,2.672952752e-14,5.444732771e-14,4.33895594e-13,3.614916676e-13,4.390022141e-13,2.111105416e-13,1.074469109e-13,1.472297396e-13,1.356523699e-13,1.30651361e-13,1.035267259e-13,1.075320662e-13,1.68554947e-13,4.353273423e-14,6.97547614e-13,3.310658195e-13,1.293924623e-13,1.137976834e-13,2.162884011e-13,1.148742027e-13,1.885526199e-13,5.452069973e-14,9.852847165e-14
0.890625,4.631839515e-13,3.884347185e-14,7.086965203e-13,1.320944294e-13,7.210967494e-14,2.989654067e-13,4.0825304e-13,1.674199382e-13,4.158314779e-13,2.730568281e-14,5.09502265e-14,4.349492405e-13,3.507606636e-13,4.193788679e-13,1.994201763e-13,1.058223952e-13,1.551367721e-13,1.253140043e-13,1.261799669e-13,1.093035821e-13,1.079170013e-13,1.667231035e-13,4.387083503e-14,6.873626385e-13,3.254004148e-13,1.372415253e-13,1.218749384e-13,2.079291207e-13,1.206810674e-13,1.87526647e-13,6.040573926e-14,9.810156563e-14
0.8984375,4.617736153e-13,3.696887305e-14,6.913932903e-13,1.274105998e-13,7.176961996e-14,2.894768784e-13,4.030680483e-13,1.691378137e-13,4.19393814e-13,2.781362532e-14,4.763030746e-14,4.35040812e-13,3.39653262e-13,3.995123151e-13,1.875368371e-13,1.043422644e-13,1.631350932e-13,1.152445179e-13,1.215098524e-13,1.156069464e-13,1.07723658e-13,1.646648124e-13,4.423762047e-14,6.757295079e-13,3.195958933e-13,1.454294657e-13,1.300091726e-13,1.995394022e-13,1.266896928e-13,1.863609627e-13,6.673666883e-14,9.791471707e-14
0.90625,4.58935748e-13,3.521309844e-14,6.722238584e-13,1.225045542e-13,7.1295835e-14,2.797689672e-13,3.97343719e-13,1.703029817e-13,4.215676171e-13,2.827854679e-14,4.454439998e-14,4.344951731e-13,3.286011119e-13,3.802313668e-13,1.758780692e-13,1.028815395e-13,1.707827992e-13,1.059106805e-13,1.167302267e-13,1.222972289e-13,1.071212507e-13,1.621538561e-13,4.456405171e-14,6.635475442e-13,3.132774088e-13,1.537485292e-13,1.376938908e-13,1.914422912e-13,1.330953246e-13,1.849504438e-13,7.353969888e-14,9.779845885e-14
0.9140625,4.54301937e-13,3.346200334e-14,6.509628846e-13,1.17465714e-13,7.086530567e-14,2.695819395e-13,3.909294779e-13,1.708494171e-13,4.222068297e-13,2.864261305e-14,4.165525685e-14,4.327020363e-13,3.174399647e-13,3.611894131e-13,1.641891094e-13,1.01016709e-13,1.774712759e-13,9.719977727e-14,1.118467369e-13,1.291865544e-13,1.060275897e-13,1.590826173e-13,4.47600118e-14,6.501980909e-13,3.065304781e-13,1.619674255e-13,1.448282442e-13,1.838045257e-13,1.395087346e-13,1.830302348e-13,8.070516802e-14,9.768451708e-14
0.921875,4.481782867e-13,3.163187275e-14,6.275404793e-13,1.121516206e-13,7.062771785e-14,2.585676284e-13,3.844795521e-13,1.712425569e-13,4.214880212e-13,2.886099997e-14,3.879671821e-14,4.290505368e-13,3.058865889e-13,3.417205164e-13,1.522064133e-13,9.893669374e-14,1.834314652e-13,8.889898733e-14,1.067547151e-13,1.361870446e-13,1.045021295e-13,1.55595698e-13,4.470612372e-14,6.358326088e-13,2.999028268e-13,1.700921247e-13,1.514657734e-13,1.76087544e-13,1.457383459e-13,1.806208176e-13,8.82972724e-14,9.772183794e-14
0.9296875,4.406086049e-13,2.978662326e-14,6.02588479e-13,1.065476411e-13,7.046339432e-14,2.472924754e-13,3.777512057e-13,1.713580576e-13,4.192638524e-13,2.895502359e-14,3.599325223e-14,4.239168618e-13,2.940634842e-13,3.223264278e-13,1.40238683e-13,9.683808755e-14,1.888184497e-13,8.125616238e-14,1.015013917e-13,1.434592449e-13,1.025318984e-13,1.517225518e-13,4.434676784e-14,6.208303265e-13,2.934263246e-13,1.78156267e-13,1.573251405e-13,1.681732323e-13,1.516303471e-13,1.777672952e-13,9.623937394e-14,9.818659461e-14
0.9375,4.312091388e-13,2.79913769e-14,5.766351571e-13,1.010617275e-13,7.038471794e-14,2.360200907e-13,3.703008637e-13,1.709466083e-13,4.151947469e-13,2.896032834e-14,3.340180891e-14,4.174794577e-13,2.820835375e-13,3.032481191e-13,1.285125365e-13,9.452922267e-14,1.936337329e-13,7.436371201e-14,9.629472915e-14,1.51276636e-13,1.000027274e-13,1.473366097e-13,4.376389675e-14,6.049795681e-13,2.865630752e-13,1.863362603e-13,1.625814239e-13,1.6064808e-13,1.571482386e-13,1.743404731e-13,1.046184515e-13,9.89684691e-14
0.9453125,4.204294369e-13,2.632753555e-14,5.496986916e-13,9.59599294e-14,7.06006671e-14,2.244662906e-13,3.62346663e-13,1.702390309e-13,4.094498946e-13,2.892422888e-14,3.103175517e-14,4.096739405e-13,2.700447041e-13,2.846541059e-13,1.172397473e-13,9.191878339e-14,1.978553399e-13,6.811290303e-14,9.117350567e-14,1.594912748e-13,9.706810939e-14,1.425933587e-13,4.299144557e-14,5.884813949e-13,2.794046852e-13,1.943686097e-13,1.671527822e-13,1.536396238e-13,1.621793615e-13,1.705532433e-13,1.13540682e-13,9.978266502e-14
0.953125,4.084081499e-13,2.473336648e-14,5.216133821e-13,9.102003027e-14,7.111295529e-14,2.12648135e-13,3.537975213e-13,1.692558486e-13,4.01939251e-13,2.885253248e-14,2.882336748e-14,4.003663302e-13,2.575794595e-13,2.664855924e-13,1.06429088e-13,8.90133065e-14,2.012228829e-13,6.225680301e-14,8.590493224e-14,1.677912809e-13,9.383850593e-14,1.375388303e-13,4.194819544e-14,5.71175255e-13,2.720182055e-13,2.016971751e-13,1.707062977e-13,1.469557308e-13,1.659986651e-13,1.663890319e-13,1.22555286e-13,1.005955771e-13
0.9609375,3.948509647e-13,2.314319683e-14,4.928532415e-13,8.61557081e-14,7.187644568e-14,2.007606634e-13,3.444171675e-13,1.676576635e-13,3.924963176e-13,2.864446018e-14,2.679282539e-14,3.894465806e-13,2.447132682e-13,2.485266058e-13,9.613694766e-14,8.614707706e-14,2.040238974e-13,5.682364832e-14,8.047667462e-14,1.760783841e-13,9.033907887e-14,1.319964657e-13,4.059822231e-14,5.530620875e-13,2.643542071e-13,2.084933747e-13,1.73512735e-13,1.404478431e-13,1.683504421e-13,1.615775499e-13,1.314953627e-13,1.015434085e-13
0.96875,3.80318156e-13,2.180621383e-14,4.64297483e-13,8.182102028e-14,7.294408668e-14,1.891193183e-13,3.341018353e-13,1.652359829e-13,3.815461713e-13,2.831346324e-14,2.502624092e-14,3.772490456e-13,2.320680791e-13,2.313810819e-13,8.680554739e-14,8.335479486e-14,2.061702706e-13,5.211292487e-14,7.522608967e-14,1.842143466e-13,8.684036522e-14,1.261109983e-13,3.894764614e-14,5.342650467e-13,2.567050838e-13,2.148375717e-13,1.753073924e-13,1.341084164e-13,1.696479379e-13,1.563558241e-13,1.4064287e-13,1.027485438e-13
0.9765625,3.649425007e-13,2.069985399e-14,4.362677673e-13,7.800679892e-14,7.429461518e-14,1.775127567e-13,3.231350293e-13,1.622750234e-13,3.693885571e-13,2.799858609e-14,2.346890858e-14,3.639125766e-13,2.194645366e-13,2.15090003e-13,7.830688202e-14,8.030375946e-14,2.073318533e-13,4.788891265e-14,7.009196217e-14,1.923066212e-13,8.352658533e-14,1.200186845e-13,3.71144435e-14,5.152987538e-13,2.487706754e-13,2.204611605e-13,1.758497767e-13,1.282296892e-13,1.698453556e-13,1.509421374e-13,1.498683388e-13,1.042190198e-13
0.984375,3.484052288e-13,1.959572674e-14,4.084962063e-13,7.433650516e-14,7.592410404e-14,1.657930814e-13,3.115912674e-13,1.589164523e-13,3.559251272e-13,2.764898108e-14,2.202600723e-14,3.493918959e-13,2.067081471e-13,1.993089926e-13,7.041389643e-14,7.748689228e-14,2.083126407e-13,4.40986445e-14,6.485303716e-14,2.008219253e-13,8.025221641e-14,1.136039054e-13,3.527033894e-14,4.970238557e-13,2.402685687e-13,2.256217896e-13,1.757837414e-13,1.229517668e-13,1.688614846e-13,1.451341564e-13,1.590355893e-13,1.059965398e-13
0.9921875,3.310361743e-13,1.862528843e-14,3.810569112e-13,7.114764394e-14,7.793107334e-14,1.543874419e-13,2.990070244e-13,1.548104997e-13,3.410992509e-13,2.714777785e-14,2.081018974e-14,3.337969605e-13,1.941143576e-13,1.842316433e-13,6.336828954e-14,7.514904234e-14,2.092790087e-13,4.107024266e-14,5.976035222e-14,2.097371118e-13,7.697503152e-14,1.069560828e-13,3.333350648e-14,4.787443422e-13,2.315456545e-13,2.304584732e-13,1.75187605e-13,1.180021708e-13,1.670670498e-13,1.388010047e-13,1.683351915e-13,1.081449937e-13
1,3.133164582e-13,1.782924578e-14,3.548728152e-13,6.850438476e-14,8.021427829e-14,1.434727342e-13,2.858494822e-13,1.501562353e-13,3.254588377e-13,2.655668897e-14,1.982780994e-14,3.175035316e-13,1.819115339e-13,1.699260074e-13,5.715039464e-14,7.286147747e-14,2.096271203e-13,3.864826042e-14,5.499729624e-14,2.184316117e-13,7.383429612e-14,1.003065001e-13,3.125277683e-14,4.603272617e-13,2.229066979e-13,2.347372593e-13,1.739127673e-13,1.133112686e-13,1.64658525e-13,1.322289305e-13,1.776098909e-13,1.10743689e-13
1.0078125,2.955336394e-13,1.712355964e-14,3.302777076e-13,6.596989617e-14,8.258205761e-14,1.331525195e-13,2.726325505e-13,1.454077955e-13,3.096708123e-13,2.59731651e-14,1.891979348e-14,3.011823146e-13,1.703273145e-13,1.565493318e-13,5.16492419e-14,7.077734619e-14,2.095227704e-13,3.669935627e-14,5.054889084e-14,2.268632839e-13,7.087045397e-14,9.370646715e-14,2.917849469e-14,4.427299492e-13,2.1428806e-13,2.383580779e-13,1.721870728e-13,1.091950118e-13,1.617039217e-13,1.256933634e-13,1.865373838e-13,1.138837286e-13
1.015625,2.776812925e-13,1.661352885e-14,3.065095052e-13,6.379383094e-14,8.513045204e-14,1.232331401e-13,2.589498841e-13,1.404423693e-13,2.935460034e-13,2.544061127e-14,1.810642781e-14,2.847597205e-13,1.594015692e-13,1.441324873e-13,4.693324369e-14,6.917732111e-14,2.093145043e-13,3.535195994e-14,4.648470142e-14,2.354705349e-13,6.813732314e-14,8.717297997e-14,2.711692383e-14,4.252021673e-13,2.053751539e-13,2.410753116e-13,1.698446973e-13,1.054928125e-13,1.583414201e-13,1.189694535e-13,1.950507827e-13,1.172767018e-13
1.0234375,2.598519273e-13,1.631319316e-14,2.833566965e-13,6.218585552e-14,8.796316361e-14,1.135486608e-13,2.449052655e-13,1.351937801e-13,2.770166391e-13,2.487158931e-14,1.750656962e-14,2.679785634e-13,1.491647895e-13,1.324545765e-13,4.29804236e-14,6.79019556e-14,2.090209325e-13,3.451903453e-14,4.273942036e-14,2.439690003e-13,6.572682547e-14,8.077954496e-14,2.505247189e-14,4.073653138e-13,1.963303924e-13,2.427179037e-13,1.666654161e-13,1.016943099e-13,1.542679222e-13,1.120200063e-13,2.029590965e-13,1.207321052e-13
1.03125,2.424527152e-13,1.62064348e-14,2.614141032e-13,6.088200272e-14,9.103782839e-14,1.04618069e-13,2.308858291e-13,1.298250296e-13,2.606345517e-13,2.41483923e-14,1.714392729e-14,2.514385755e-13,1.397626213e-13,1.216445434e-13,3.972343769e-14,6.683000166e-14,2.085464297e-13,3.410245442e-14,3.928792829e-14,2.522475693e-13,6.366257786e-14,7.460083105e-14,2.303165524e-14,3.901460502e-13,1.874636473e-13,2.436624642e-13,1.630166286e-13,9.786233793e-14,1.493287701e-13,1.051904753e-13,2.103525486e-13,1.246248491e-13
1.0390625,2.257464971e-13,1.641074126e-14,2.409900285e-13,5.994087405e-14,9.437308574e-14,9.646493779e-14,2.169184162e-13,1.245488197e-13,2.447044813e-13,2.342588488e-14,1.696995904e-14,2.354891181e-13,1.313502766e-13,1.117982245e-13,3.716886072e-14,6.615563054e-14,2.081746913e-13,3.413776685e-14,3.625427132e-14,2.608232197e-13,6.194972788e-14,6.879759452e-14,2.105156207e-14,3.734588459e-13,1.787520024e-13,2.442059145e-13,1.593575639e-13,9.427308089e-14,1.440550132e-13,9.850960746e-14,2.176191174e-13,1.290167383e-13
1.046875,2.099892066e-13,1.695710875e-14,2.220736352e-13,5.944976516e-14,9.786457106e-14,8.877140618e-14,2.0297222e-13,1.19551594e-13,2.293631941e-13,2.288789197e-14,1.695687762e-14,2.201289229e-13,1.241873577e-13,1.028011647e-13,3.528188901e-14,6.600219685e-14,2.081748677e-13,3.46024517e-14,3.363705096e-14,2.693735706e-13,6.043108286e-14,6.348092915e-14,1.919237578e-14,3.567872668e-13,1.704138137e-13,2.440635208e-13,1.556117154e-13,9.097257559e-14,1.384465798e-13,9.1957934e-14,2.243373241e-13,1.33578613e-13
1.0546875,1.95243586e-13,1.77552508e-14,2.048823482e-13,5.922180848e-14,1.012891717e-13,8.171516153e-14,1.891609005e-13,1.146581615e-13,2.146027183e-13,2.244643209e-14,1.70994239e-14,2.055452092e-13,1.182018906e-13,9.464707094e-14,3.402796028e-14,6.631377289e-14,2.083469021e-13,3.543780821e-14,3.139946878e-14,2.774228925e-13,5.89763281e-14,5.856562529e-14,1.753332087e-14,3.402670297e-13,1.624465931e-13,2.431538104e-13,1.518243205e-13,8.805213708e-14,1.323495924e-13,8.563421517e-14,2.301064607e-13,1.382376439e-13
1.0625,1.813367568e-13,1.87974745e-14,1.893932535e-13,5.925626572e-14,1.046614504e-13,7.538876993e-14,1.757880315e-13,1.096464597e-13,2.003079575e-13,2.195838849e-14,1.738647673e-14,1.91779011e-13,1.132872259e-13,8.751817156e-14,3.349523276e-14,6.71889961e-14,2.086777621e-13,3.667206732e-14,2.95914401e-14,2.851107133e-13,5.777115832e-14,5.395128525e-14,1.606324885e-14,3.242792296e-13,1.546528131e-13,2.418087591e-13,1.482526084e-13,8.549036161e-14,1.263655419e-13,7.945674229e-14,2.35303431e-13,1.429558377e-13
1.0703125,1.683031215e-13,2.017683549e-14,1.751790767e-13,5.968479069e-14,1.080646783e-13,6.979260706e-14,1.628595976e-13,1.045690385e-13,1.866356169e-13,2.144991403e-14,1.784007605e-14,1.787645683e-13,1.096613516e-13,8.15249928e-14,3.366790309e-14,6.872447613e-14,2.090599848e-13,3.835586196e-14,2.82598156e-14,2.921575793e-13,5.684564506e-14,4.965258838e-14,1.476423966e-14,3.086249972e-13,1.471749886e-13,2.398500633e-13,1.448365217e-13,8.304235431e-14,1.20675684e-13,7.343580521e-14,2.397298012e-13,1.475637669e-13
1.078125,1.561536306e-13,2.187819536e-14,1.623366732e-13,6.042298712e-14,1.114655781e-13,6.496507497e-14,1.503513323e-13,9.963630934e-14,1.737548547e-13,2.097434685e-14,1.847803153e-14,1.664499151e-13,1.072467024e-13,7.638271618e-14,3.441711317e-14,7.093102796e-14,2.093497612e-13,4.047771198e-14,2.733166237e-14,2.98403103e-13,5.602811553e-14,4.569224497e-14,1.365526364e-14,2.929931512e-13,1.400001896e-13,2.371212034e-13,1.418305615e-13,8.067780755e-14,1.151234772e-13,6.769568989e-14,2.430875467e-13,1.520063306e-13
1.0859375,1.449986547e-13,2.383945536e-14,1.511581096e-13,6.132625733e-14,1.149613066e-13,6.093053154e-14,1.38376004e-13,9.497679048e-14,1.618211767e-13,2.049015797e-14,1.931376968e-14,1.550094168e-13,1.060167318e-13,7.197780538e-14,3.567372161e-14,7.376588465e-14,2.097360253e-13,4.307354199e-14,2.676134429e-14,3.041670937e-13,5.538924962e-14,4.211131075e-14,1.281834293e-14,2.778419075e-13,1.331885082e-13,2.341223021e-13,1.394256546e-13,7.862773013e-14,1.099918173e-13,6.227651608e-14,2.459082559e-13,1.563850545e-13
1.09375,1.350903364e-13,2.611022365e-14,1.414369785e-13,6.236774435e-14,1.184827149e-13,5.778177236e-14,1.268030492e-13,9.04343659e-14,1.510186362e-13,2.010115194e-14,2.032158913e-14,1.447167949e-13,1.063431465e-13,6.861241962e-14,3.743749269e-14,7.724899145e-14,2.100467784e-13,4.621782988e-14,2.668096346e-14,3.092435638e-13,5.495582253e-14,3.902393899e-14,1.228401144e-14,2.631044657e-13,1.268053413e-13,2.307656647e-13,1.372712658e-13,7.708795931e-14,1.052824738e-13,5.719413502e-14,2.480861257e-13,1.606422781e-13
1.1015625,1.263447893e-13,2.878336258e-14,1.331297943e-13,6.364867977e-14,1.21802855e-13,5.540756273e-14,1.158024304e-13,8.591970675e-14,1.413320874e-13,1.991189702e-14,2.148571274e-14,1.355092122e-13,1.084748751e-13,6.634792265e-14,3.983430856e-14,8.160077391e-14,2.101871796e-13,4.997558224e-14,2.715218537e-14,3.133636878e-13,5.457721103e-14,3.646420403e-14,1.201883861e-14,2.48386212e-13,1.206414494e-13,2.266182078e-13,1.354421287e-13,7.603961907e-14,1.007914094e-13,5.242328265e-14,2.489789975e-13,1.6444325e-13
1.109375,1.185268207e-13,3.189909583e-14,1.262627089e-13,6.526448944e-14,1.250962804e-13,5.368229282e-14,1.056701113e-13,8.152482412e-14,1.327341731e-13,1.973191775e-14,2.287860974e-14,1.272981625e-13,1.124485701e-13,6.498748612e-14,4.287004386e-14,8.681773011e-14,2.104035318e-13,5.43735286e-14,2.806247415e-14,3.167978307e-13,5.421871558e-14,3.440063489e-14,1.200259622e-14,2.342774955e-13,1.148691017e-13,2.221108532e-13,1.344180781e-13,7.513095172e-14,9.693923557e-14,4.796922327e-14,2.489594111e-13,1.676210663e-13
1.1171875,1.113823726e-13,3.526645091e-14,1.204007085e-13,6.710546821e-14,1.284510354e-13,5.24816821e-14,9.624883888e-14,7.731574858e-14,1.250901176e-13,1.945525468e-14,2.435238127e-14,1.199230569e-13,1.177776185e-13,6.425716254e-14,4.629553482e-14,9.262251978e-14,2.103757471e-13,5.918008934e-14,2.925031546e-14,3.195589868e-13,5.389094462e-14,3.271293729e-14,1.219641488e-14,2.210673935e-13,1.09497092e-13,2.175666484e-13,1.341829859e-13,7.418530446e-14,9.413241542e-14,4.382781407e-14,2.485673588e-13,1.702516618e-13
1.125,1.04885079e-13,3.872484128e-14,1.15474537e-13,6.91964085e-14,1.316661404e-13,5.165783677e-14,8.733574718e-14,7.341601069e-14,1.18233962e-13,1.921325599e-14,2.570997117e-14,1.131270292e-13,1.239621299e-13,6.394710993e-14,5.000649839e-14,9.887726706e-14,2.097301749e-13,6.417787045e-14,3.071768232e-14,3.212224056e-13,5.355104604e-14,3.133210636e-14,1.260728309e-14,2.08361895e-13,1.043476446e-13,2.127446933e-13,1.342086474e-13,7.340913219e-14,9.208868509e-14,3.996960853e-14,2.475698876e-13,1.723858975e-13
1.1328125,9.937561852e-14,4.245869281e-14,1.119183591e-13,7.175746053e-14,1.347986621e-13,5.154844125e-14,7.897542901e-14,6.98634871e-14,1.123402578e-13,1.908393194e-14,2.71303232e-14,1.071236617e-13,1.313162615e-13,6.428267279e-14,5.424089742e-14,1.05868849e-13,2.088706864e-13,6.962373335e-14,3.260368234e-14,3.218644653e-13,5.317960468e-14,3.037948068e-14,1.327646557e-14,1.961000799e-13,9.980573774e-14,2.077733503e-13,1.344443374e-13,7.299084953e-14,9.075591859e-14,3.651970983e-14,2.459014788e-13,1.739780812e-13
1.140625,9.479655676e-14,4.648896699e-14,1.097623918e-13,7.491969024e-14,1.379141937e-13,5.223448049e-14,7.129259344e-14,6.656786936e-14,1.073127941e-13,1.909550224e-14,2.872073671e-14,1.019656968e-13,1.398297113e-13,6.536340918e-14,5.923441234e-14,1.139144684e-13,2.081403986e-13,7.576943933e-14,3.492005374e-14,3.218810933e-13,5.28387453e-14,2.97669861e-14,1.415669608e-14,1.84312011e-13,9.595985754e-14,2.028951943e-13,1.352120573e-13,7.310929771e-14,9.041239151e-14,3.348216619e-14,2.438585532e-13,1.74871186e-13
1.1484375,9.097240334e-14,5.060852236e-14,1.088335345e-13,7.879982461e-14,1.409009481e-13,5.336419489e-14,6.421061825e-14,6.348356755e-14,1.028526208e-13,1.927482509e-14,3.030025294e-14,9.737098646e-14,1.491737411e-13,6.68932151e-14,6.499373385e-14,1.227240605e-13,2.070863935e-13,8.247119315e-14,3.766614615e-14,3.209261714e-13,5.260112002e-14,2.94298455e-14,1.513141565e-14,1.728991704e-13,9.273148749e-14,1.979654025e-13,1.361344792e-13,7.374782932e-14,9.094222572e-14,3.074152625e-14,2.413931532e-13,1.751201956e-13
1.15625,8.807974862e-14,5.486444625e-14,1.091972164e-13,8.333145222e-14,1.436674461e-13,5.515773218e-14,5.768144478e-14,6.057621681e-14,9.914818456e-14,1.954790357e-14,3.181842498e-14,9.354107778e-14,1.595745956e-13,6.898944685e-14,7.154304965e-14,1.321346953e-13,2.052785696e-13,8.964694142e-14,4.085210505e-14,3.185396452e-13,5.241976162e-14,2.949719922e-14,1.616462803e-14,1.619238845e-13,9.037333277e-14,1.928344191e-13,1.368900205e-13,7.477040764e-14,9.219477751e-14,2.843271243e-14,2.382708666e-13,1.748791122e-13
1.1640625,8.601245853e-14,5.943608889e-14,1.109291473e-13,8.837069291e-14,1.461541322e-13,5.765818356e-14,5.190572645e-14,5.784562823e-14,9.625273065e-14,1.985818787e-14,3.335298724e-14,9.055602047e-14,1.708951911e-13,7.180806592e-14,7.88532885e-14,1.422846684e-13,2.027828814e-13,9.739904989e-14,4.44553371e-14,3.148611825e-13,5.217945553e-14,2.991008348e-14,1.731085598e-14,1.515802541e-13,8.882473059e-14,1.876358518e-13,1.378553094e-13,7.611600024e-14,9.426584008e-14,2.662852195e-14,2.346230947e-13,1.739924741e-13
1.171875,8.455134937e-14,6.430022585e-14,1.137855239e-13,9.394358912e-14,1.483689765e-13,6.047544297e-14,4.673053577e-14,5.531189506e-14,9.392794416e-14,2.02948383e-14,3.486565553e-14,8.810544712e-14,1.826692523e-13,7.500367808e-14,8.676960281e-14,1.530211315e-13,1.996772868e-13,1.057880707e-13,4.8464039e-14,3.100431954e-13,5.18556427e-14,3.058194492e-14,1.859064967e-14,1.418624159e-13,8.79478927e-14,1.826519772e-13,1.392225946e-13,7.775254399e-14,9.725978475e-14,2.519089505e-14,2.309096915e-13,1.725039794e-13
1.1796875,8.370990841e-14,6.932352545e-14,1.175336746e-13,1.001062992e-13,1.504397645e-13,6.374523331e-14,4.183304908e-14,5.303638999e-14,9.213221734e-14,2.09217105e-14,3.633122151e-14,8.612472644e-14,1.947887859e-13,7.854741922e-14,9.541116015e-14,1.6465024e-13,1.962699628e-13,1.149435952e-13,5.288053482e-14,3.04286882e-13,5.153193378e-14,3.146972272e-14,2.004865955e-14,1.326488118e-13,8.767942922e-14,1.780259183e-13,1.409595482e-13,7.998502786e-14,1.011576671e-13,2.408197506e-14,2.273711226e-13,1.706871217e-13
1.1875,8.34595802e-14,7.450328751e-14,1.223360773e-13,1.068711364e-13,1.524904932e-13,6.752561396e-14,3.736152798e-14,5.11183002e-14,9.085669939e-14,2.168182082e-14,3.781084736e-14,8.463093549e-14,2.070387487e-13,8.259495139e-14,1.048522674e-13,1.7739991e-13,1.928953869e-13,1.24763893e-13,5.772428126e-14,2.981235798e-13,5.127327973e-14,3.255815608e-14,2.164711649e-14,1.242897196e-13,8.785385974e-14,1.737612987e-13,1.430356727e-13,8.299709698e-14,1.05895151e-13,2.333003003e-14,2.239785094e-13,1.685463472e-13
1.1953125,8.371399626e-14,7.977300335e-14,1.279790964e-13,1.141956951e-13,1.54462067e-13,7.140061375e-14,3.347511428e-14,4.954165672e-14,9.003217297e-14,2.251046836e-14,3.923696698e-14,8.354415979e-14,2.18973431e-13,8.685271244e-14,1.149006857e-13,1.907527308e-13,1.894537743e-13,1.348842253e-13,6.287382529e-14,2.920958224e-13,5.11996494e-14,3.387118223e-14,2.325281053e-14,1.172994673e-13,8.848699131e-14,1.700356303e-13,1.454052471e-13,8.651262163e-14,1.114691812e-13,2.291292732e-14,2.209926074e-13,1.660827508e-13
1.203125,8.438501271e-14,8.505719444e-14,1.341555845e-13,1.223436821e-13,1.565184726e-13,7.533164267e-14,3.0121195e-14,4.834376877e-14,8.944770702e-14,2.344485555e-14,4.058857968e-14,8.270376253e-14,2.302724975e-13,9.130790777e-14,1.257823047e-13,2.049142589e-13,1.862513105e-13,1.454842062e-13,6.837424111e-14,2.864050151e-13,5.145998568e-14,3.532734791e-14,2.493806291e-14,1.11706747e-13,8.970213286e-14,1.671563586e-13,1.4836104e-13,9.033113811e-14,1.179451378e-13,2.280130578e-14,2.188389109e-13,1.633420276e-13
1.2109375,8.528001267e-14,9.041163284e-14,1.410161134e-13,1.314550634e-13,1.588770042e-13,7.950568552e-14,2.723340934e-14,4.763832259e-14,8.893371544e-14,2.449265254e-14,4.196579167e-14,8.192119246e-14,2.407633573e-13,9.61652644e-14,1.376541058e-13,2.201721631e-13,1.836715117e-13,1.567098141e-13,7.42879412e-14,2.810345572e-13,5.191311989e-14,3.684165355e-14,2.67597271e-14,1.074541394e-13,9.136835508e-14,1.651749418e-13,1.520660446e-13,9.441659397e-14,1.254140755e-13,2.299782888e-14,2.175478205e-13,1.60343474e-13
1.21875,8.609667526e-14,9.565085999e-14,1.48131792e-13,1.409410698e-13,1.611494723e-13,8.365165933e-14,2.46898666e-14,4.736159078e-14,8.860745054e-14,2.550405786e-14,4.324768745e-14,8.111361543e-14,2.502556662e-13,1.011152036e-13,1.499999931e-13,2.359746436e-13,1.814574686e-13,1.682256724e-13,8.035175008e-14,2.761450424e-13,5.23940497e-14,3.839397399e-14,2.869414253e-14,1.0466689e-13,9.314781423e-14,1.639406483e-13,1.562742462e-13,9.858522983e-14,1.33880182e-13,2.348686414e-14,2.169121141e-13,1.572514191e-13
1.2265625,8.671025306e-14,1.007032627e-13,1.549414794e-13,1.505796351e-13,1.630974443e-13,8.753084624e-14,2.24222988e-14,4.738912806e-14,8.846141876e-14,2.646103794e-14,4.428216566e-14,8.024086444e-14,2.58531347e-13,1.060226275e-13,1.626389996e-13,2.522903992e-13,1.796719082e-13,1.801270573e-13,8.65782775e-14,2.719554889e-13,5.300735352e-14,3.994692209e-14,3.08157006e-14,1.032213257e-13,9.49627704e-14,1.633580928e-13,1.609754804e-13,1.025278193e-13,1.434189426e-13,2.421099861e-14,2.168738152e-13,1.541351965e-13
1.234375,8.716786154e-14,1.057699433e-13,1.615680252e-13,1.60565528e-13,1.648028146e-13,9.13156331e-14,2.045316301e-14,4.769982985e-14,8.847845806e-14,2.75299258e-14,4.505881151e-14,7.938964001e-14,2.65590638e-13,1.110920134e-13,1.756813324e-13,2.690590072e-13,1.784246784e-13,1.923986626e-13,9.299428614e-14,2.685289676e-13,5.370335053e-14,4.158848611e-14,3.303572065e-14,1.029325318e-13,9.686684508e-14,1.633097468e-13,1.661197015e-13,1.062538916e-13,1.540557284e-13,2.518831469e-14,2.174126858e-13,1.509806548e-13
1.2421875,8.730482515e-14,1.106835937e-13,1.678980288e-13,1.705428001e-13,1.661149891e-13,9.491567389e-14,1.88655219e-14,4.841769536e-14,8.883749909e-14,2.868760719e-14,4.551371071e-14,7.86580634e-14,2.715744535e-13,1.161857617e-13,1.887505832e-13,2.85723889e-13,1.773906965e-13,2.046377321e-13,9.933143167e-14,2.659944047e-13,5.436771086e-14,4.34482522e-14,3.530435079e-14,1.041317299e-13,9.859060621e-14,1.638474462e-13,1.714868882e-13,1.097086793e-13,1.65664219e-13,2.644094891e-14,2.185124919e-13,1.478901668e-13
1.25,8.694500552e-14,1.151933967e-13,1.733985925e-13,1.801410867e-13,1.6711012e-13,9.800713265e-14,1.769736969e-14,4.97054494e-14,8.945248698e-14,2.975340649e-14,4.559042383e-14,7.786403671e-14,2.761693229e-13,1.21027827e-13,2.015444886e-13,3.022234901e-13,1.766389348e-13,2.167490131e-13,1.054936586e-13,2.646366094e-13,5.519833427e-14,4.531979964e-14,3.772280115e-14,1.071984354e-13,9.99355574e-14,1.652387376e-13,1.772131392e-13,1.124087909e-13,1.783759683e-13,2.787320938e-14,2.204371179e-13,1.449770033e-13
1.2578125,8.614879321e-14,1.193225286e-13,1.77747876e-13,1.893414885e-13,1.679665169e-13,1.006119836e-13,1.687464879e-14,5.161339419e-14,9.020659248e-14,3.08065077e-14,4.522783846e-14,7.68459755e-14,2.788374868e-13,1.255544005e-13,2.141041419e-13,3.185602809e-13,1.76323833e-13,2.286608264e-13,1.114425838e-13,2.646272153e-13,5.630223155e-14,4.709608246e-14,4.030867872e-14,1.120508076e-13,1.010793477e-13,1.675565271e-13,1.835030233e-13,1.142613558e-13,1.923141026e-13,2.943342502e-14,2.235288033e-13,1.424438844e-13
1.265625,8.502671107e-14,1.231908158e-13,1.811728721e-13,1.983307724e-13,1.688735293e-13,1.027659179e-13,1.630773994e-14,5.429296134e-14,9.127563036e-14,3.200500478e-14,4.447784441e-14,7.574331704e-14,2.798394997e-13,1.300250563e-13,2.266251693e-13,3.350758597e-13,1.766559682e-13,2.405703117e-13,1.172673876e-13,2.661046333e-13,5.754976823e-14,4.89848834e-14,4.322036378e-14,1.186566332e-13,1.019640507e-13,1.70947755e-13,1.905342704e-13,1.157780849e-13,2.073901886e-13,3.117002132e-14,2.279160529e-13,1.405817549e-13
1.2734375,8.387675175e-14,1.270152079e-13,1.84194421e-13,2.072774319e-13,1.702418551e-13,1.045142598e-13,1.598054487e-14,5.791465184e-14,9.283385359e-14,3.335122581e-14,4.366108217e-14,7.477529395e-14,2.79927936e-13,1.347748148e-13,2.391920176e-13,3.523616109e-13,1.783350823e-13,2.528898432e-13,1.231915771e-13,2.695433966e-13,5.897994179e-14,5.110389704e-14,4.658060479e-14,1.272060118e-13,1.024095716e-13,1.757333893e-13,1.98431325e-13,1.17370944e-13,2.236651573e-13,3.31615751e-14,2.337361735e-13,1.396263103e-13
1.28125,8.288039422e-14,1.3075521e-13,1.866784576e-13,2.157361324e-13,1.7199048e-13,1.058946721e-13,1.590409204e-14,6.242577575e-14,9.503436468e-14,3.500877719e-14,4.288632163e-14,7.407564399e-14,2.790555162e-13,1.396802807e-13,2.513531699e-13,3.699598433e-13,1.817075233e-13,2.65394206e-13,1.290780695e-13,2.757676749e-13,6.064955155e-14,5.350073815e-14,5.034309956e-14,1.377299011e-13,1.024899211e-13,1.818552699e-13,2.070747805e-13,1.190935155e-13,2.413191879e-13,3.542743663e-14,2.410914641e-13,1.396411838e-13
1.2890625,8.171520906e-14,1.342012902e-13,1.88018628e-13,2.234386282e-13,1.739257e-13,1.065820962e-13,1.605164328e-14,6.79002965e-14,9.792059825e-14,3.702452386e-14,4.198732743e-14,7.357347208e-14,2.768124818e-13,1.445549714e-13,2.629764172e-13,3.87528196e-13,1.867741158e-13,2.777590417e-13,1.346572155e-13,2.853592751e-13,6.247331378e-14,5.613497189e-14,5.455988124e-14,1.501069819e-13,1.019974919e-13,1.891073982e-13,2.166787096e-13,1.207993731e-13,2.604764434e-13,3.786509024e-14,2.498417736e-13,1.405314308e-13
1.296875,8.023311163e-14,1.374456186e-13,1.882194341e-13,2.306920109e-13,1.76374848e-13,1.067135879e-13,1.647501422e-14,7.459497275e-14,1.014545975e-13,3.931431863e-14,4.104871836e-14,7.315136407e-14,2.734462991e-13,1.495301545e-13,2.743658573e-13,4.053436281e-13,1.936114932e-13,2.899020555e-13,1.398398323e-13,2.982254651e-13,6.449572285e-14,5.910654847e-14,5.918854013e-14,1.644463337e-13,1.007607507e-13,1.974626945e-13,2.273460336e-13,1.22200184e-13,2.809531596e-13,4.047604084e-14,2.59652295e-13,1.424844828e-13
1.3046875,7.85151205e-14,1.40311084e-13,1.876037567e-13,2.370038668e-13,1.791702797e-13,1.064415488e-13,1.714161868e-14,8.271329827e-14,1.058947223e-13,4.204172056e-14,4.014799983e-14,7.296866966e-14,2.691752263e-13,1.544786865e-13,2.85090492e-13,4.23096141e-13,2.02092861e-13,3.015539567e-13,1.44390359e-13,3.145928417e-13,6.673221005e-14,6.258938757e-14,6.420958335e-14,1.806883911e-13,9.885782362e-14,2.068457853e-13,2.384947131e-13,1.234977156e-13,3.024407981e-13,4.334477725e-14,2.702256086e-13,1.458737189e-13
1.3125,7.658784861e-14,1.424206405e-13,1.862362163e-13,2.41708765e-13,1.818390747e-13,1.0544496e-13,1.79773558e-14,9.248656997e-14,1.116455287e-13,4.537159574e-14,3.906190563e-14,7.330444542e-14,2.641344034e-13,1.591275387e-13,2.948883727e-13,4.408552806e-13,2.122726666e-13,3.127127714e-13,1.481833026e-13,3.350636121e-13,6.910597755e-14,6.675527661e-14,6.977449864e-14,1.982634364e-13,9.636913313e-14,2.17163766e-13,2.499626018e-13,1.25182716e-13,3.2490916e-13,4.646511812e-14,2.815957708e-13,1.507898721e-13
1.3203125,7.467213383e-14,1.439392262e-13,1.841355828e-13,2.449220693e-13,1.846167986e-13,1.040866479e-13,1.901987799e-14,1.040919923e-13,1.190768542e-13,4.953055266e-14,3.773810696e-14,7.455298245e-14,2.58818365e-13,1.634464727e-13,3.039975129e-13,4.590651015e-13,2.24415117e-13,3.235126051e-13,1.513154428e-13,3.597226919e-13,7.161684036e-14,7.20095568e-14,7.591664325e-14,2.171075366e-13,9.352992825e-14,2.283852071e-13,2.619229441e-13,1.272055829e-13,3.481376625e-13,4.990205007e-14,2.938066729e-13,1.573639653e-13
1.328125,7.286108553e-14,1.450540923e-13,1.81193766e-13,2.465218904e-13,1.87686136e-13,1.02384296e-13,2.022103203e-14,1.176867982e-13,1.285201066e-13,5.474997528e-14,3.62993182e-14,7.716516686e-14,2.53523152e-13,1.673715166e-13,3.119915726e-13,4.77239722e-13,2.386379012e-13,3.337965774e-13,1.536423718e-13,3.886178003e-13,7.410359333e-14,7.858897697e-14,8.272051507e-14,2.37232268e-13,9.026062576e-14,2.404335915e-13,2.740985089e-13,1.295786663e-13,3.716836025e-13,5.370971568e-14,3.066984936e-13,1.658552286e-13
1.3359375,7.115409542e-14,1.458461931e-13,1.77212171e-13,2.465015651e-13,1.909375057e-13,9.997325725e-14,2.159516986e-14,1.333901329e-13,1.400742181e-13,6.11079879e-14,3.473751779e-14,8.128246563e-14,2.486559976e-13,1.71063274e-13,3.188505258e-13,4.953197595e-13,2.551005577e-13,3.438055111e-13,1.552409467e-13,4.217768798e-13,7.651859038e-14,8.673764975e-14,9.026500056e-14,2.581489869e-13,8.651036666e-14,2.532064273e-13,2.864187484e-13,1.322150509e-13,3.95649754e-13,5.781056999e-14,3.203352303e-13,1.762920652e-13
1.34375,6.969090599e-14,1.465989381e-13,1.723170818e-13,2.453016255e-13,1.947021543e-13,9.732528034e-14,2.321463067e-14,1.511571722e-13,1.538272876e-13,6.868441056e-14,3.312907352e-14,8.691585135e-14,2.447092552e-13,1.747374557e-13,3.252575564e-13,5.142461126e-13,2.740070436e-13,3.54055116e-13,1.563619634e-13,4.595301158e-13,7.916750896e-14,9.657717436e-14,9.843793528e-14,2.80122859e-13,8.25179187e-14,2.667972044e-13,2.991930279e-13,1.351740523e-13,4.203093291e-13,6.221016045e-14,3.349208173e-13,1.887266367e-13
1.3515625,6.859714268e-14,1.472239489e-13,1.670590259e-13,2.429028718e-13,1.992042865e-13,9.450443598e-14,2.506509662e-14,1.713551294e-13,1.701053215e-13,7.765040223e-14,3.160464027e-14,9.416264814e-14,2.414738876e-13,1.780303579e-13,3.313488834e-13,5.342775478e-13,2.955440877e-13,3.6428162e-13,1.567018868e-13,5.022654168e-13,8.211493135e-14,1.080179425e-13,1.072510181e-13,3.032377549e-13,7.833207811e-14,2.812254613e-13,3.123055718e-13,1.392154077e-13,4.449587746e-13,6.698959106e-14,3.501435007e-13,2.033858436e-13
1.359375,6.80792659e-14,1.474086236e-13,1.620622809e-13,2.393047005e-13,2.041920801e-13,9.137950747e-14,2.711346859e-14,1.946157949e-13,1.893062946e-13,8.832827968e-14,3.017970655e-14,1.032580303e-13,2.388122242e-13,1.807662226e-13,3.37189514e-13,5.551962786e-13,3.196483512e-13,3.736607044e-13,1.559048956e-13,5.493559314e-13,8.52385775e-14,1.214005707e-13,1.165716273e-13,3.267338556e-13,7.403567672e-14,2.959264813e-13,3.249188932e-13,1.447648651e-13,4.683087389e-13,7.215096623e-14,3.650972582e-13,2.202675916e-13
1.3671875,6.822162607e-14,1.471682641e-13,1.574803098e-13,2.348206249e-13,2.096257455e-13,8.81691155e-14,2.933994858e-14,2.209747722e-13,2.11596213e-13,1.007583098e-13,2.884681064e-14,1.143278612e-13,2.371038293e-13,1.831166165e-13,3.430715611e-13,5.773304127e-13,3.460836565e-13,3.820186859e-13,1.540515499e-13,6.006014456e-13,8.856605191e-14,1.368273192e-13,1.26139665e-13,3.505770619e-13,6.964432045e-14,3.104576605e-13,3.364128614e-13,1.51784532e-13,4.899065827e-13,7.767926267e-14,3.794143014e-13,2.392084114e-13
1.375,6.900462822e-14,1.466604696e-13,1.531903061e-13,2.29553443e-13,2.157232464e-13,8.469458529e-14,3.165530363e-14,2.503717262e-13,2.368616754e-13,1.148891248e-13,2.754338736e-14,1.27268692e-13,2.361853801e-13,1.849214597e-13,3.491141615e-13,6.009689813e-13,3.750381537e-13,3.895381221e-13,1.512627309e-13,6.562874022e-13,9.210305026e-14,1.542674744e-13,1.361378681e-13,3.745335437e-13,6.51720219e-14,3.249831086e-13,3.469908266e-13,1.599662959e-13,5.098999588e-13,8.354832221e-14,3.935053036e-13,2.602642917e-13
1.3828125,7.048228728e-14,1.46059596e-13,1.49228679e-13,2.235748894e-13,2.225463302e-13,8.099324754e-14,3.386332936e-14,2.829798887e-13,2.652368545e-13,1.308617076e-13,2.625461774e-14,1.423619996e-13,2.357504502e-13,1.861801767e-13,3.55431189e-13,6.260127809e-13,4.066008273e-13,3.958408258e-13,1.475536005e-13,7.159086489e-13,9.585575017e-14,1.740720261e-13,1.465558127e-13,3.977444945e-13,6.061707387e-14,3.393891714e-13,3.56569594e-13,1.694313257e-13,5.280812288e-13,8.969196221e-14,4.072434074e-13,2.834133861e-13
1.390625,7.267750939e-14,1.455221471e-13,1.455561597e-13,2.169600186e-13,2.300105339e-13,7.731506176e-14,3.602537197e-14,3.186679616e-13,2.970496138e-13,1.485728391e-13,2.503411694e-14,1.599372431e-13,2.362927995e-13,1.868850112e-13,3.621178991e-13,6.523434363e-13,4.404506339e-13,4.008845031e-13,1.43114815e-13,7.786680017e-13,9.968763485e-14,1.963211306e-13,1.57050512e-13,4.203792787e-13,5.597536603e-14,3.53230939e-13,3.645903107e-13,1.804372499e-13,5.443766694e-13,9.616204031e-14,4.201914798e-13,3.083551532e-13
1.3984375,7.577235867e-14,1.45278904e-13,1.422165304e-13,2.098476262e-13,2.381777234e-13,7.364682305e-14,3.818543831e-14,3.573561445e-13,3.322565223e-13,1.681673648e-13,2.391332644e-14,1.799676691e-13,2.381055163e-13,1.868095479e-13,3.692639409e-13,6.800156996e-13,4.76651018e-13,4.052350998e-13,1.382378157e-13,8.436728955e-13,1.034203282e-13,2.209324912e-13,1.677249684e-13,4.424448576e-13,5.153407318e-14,3.663627405e-13,3.710810301e-13,1.92554757e-13,5.592497637e-13,1.029858101e-13,4.32464861e-13,3.348995197e-13
1.40625,7.982517265e-14,1.455634563e-13,1.393466382e-13,2.02593111e-13,2.472391554e-13,7.012289264e-14,4.004381761e-14,3.988616945e-13,3.705041513e-13,1.896570685e-13,2.298855716e-14,2.023100595e-13,2.410760524e-13,1.862940013e-13,3.772996806e-13,7.094502003e-13,5.15284944e-13,4.092356334e-13,1.330877505e-13,9.104295651e-13,1.07192113e-13,2.477111817e-13,1.78530597e-13,4.628463099e-13,4.740084863e-14,3.78777438e-13,3.764633719e-13,2.056526839e-13,5.730726993e-13,1.099633504e-13,4.441764236e-13,3.629351979e-13
1.4140625,8.468569712e-14,1.46295878e-13,1.369054747e-13,1.953572283e-13,2.571217668e-13,6.691875362e-14,4.165876062e-14,4.424325362e-13,4.114158749e-13,2.124706182e-13,2.227145053e-14,2.266180817e-13,2.453375555e-13,1.855575804e-13,3.864752055e-13,7.408067268e-13,5.559820358e-13,4.130112827e-13,1.277159145e-13,9.781383753e-13,1.109765393e-13,2.763148101e-13,1.890893247e-13,4.811846691e-13,4.363204964e-14,3.902976473e-13,3.808455602e-13,2.194145925e-13,5.856679774e-13,1.170183122e-13,4.551818676e-13,3.922083025e-13
1.421875,9.051386657e-14,1.47439e-13,1.350076077e-13,1.881251148e-13,2.677357441e-13,6.395769817e-14,4.31904925e-14,4.87819511e-13,4.547978555e-13,2.367186636e-13,2.168960834e-14,2.528669972e-13,2.507991197e-13,1.842161188e-13,3.962029142e-13,7.735576401e-13,5.985185505e-13,4.164156773e-13,1.220752578e-13,1.04544297e-12,1.146485462e-13,3.064451858e-13,1.994351324e-13,4.977821693e-13,4.027948565e-14,4.006151747e-13,3.839726262e-13,2.339068789e-13,5.967173902e-13,1.241730407e-13,4.652755586e-13,4.224672393e-13
1.4296875,9.725364466e-14,1.490355905e-13,1.335616998e-13,1.81005258e-13,2.792208681e-13,6.118064235e-14,4.437625173e-14,5.350226455e-13,5.00259588e-13,2.622756864e-13,2.124799988e-14,2.80809989e-13,2.57251962e-13,1.821912517e-13,4.063118495e-13,8.075898289e-13,6.42707764e-13,4.1934994e-13,1.161639631e-13,1.112349343e-12,1.185171402e-13,3.376639497e-13,2.095022088e-13,5.123528172e-13,3.726506673e-14,4.095773619e-13,3.856926933e-13,2.494398583e-13,6.064043073e-13,1.312104677e-13,4.743461609e-13,4.534744115e-13
1.4375,1.044814881e-13,1.510527483e-13,1.323843156e-13,1.740741655e-13,2.91383402e-13,5.870687444e-14,4.521304241e-14,5.831544799e-13,5.472840748e-13,2.881686421e-13,2.092289506e-14,3.096989149e-13,2.646261683e-13,1.796231708e-13,4.171236956e-13,8.426668331e-13,6.877676453e-13,4.217031035e-13,1.100572759e-13,1.178238802e-12,1.226069811e-13,3.697675115e-13,2.189545313e-13,5.245023877e-13,3.462983542e-14,4.170531648e-13,3.861364533e-13,2.651232829e-13,6.149516316e-13,1.380782524e-13,4.824742439e-13,4.848629287e-13
1.4453125,1.121666913e-13,1.537025631e-13,1.317130061e-13,1.673839823e-13,3.040047414e-13,5.658032127e-14,4.581869197e-14,6.316137063e-13,5.957683006e-13,3.144770419e-13,2.070713954e-14,3.395463448e-13,2.72808683e-13,1.765140146e-13,4.281799682e-13,8.775258413e-13,7.32719742e-13,4.229119235e-13,1.039170336e-13,1.241085455e-12,1.26608258e-13,4.026498937e-13,2.277281633e-13,5.344839748e-13,3.226472921e-14,4.22642998e-13,3.851326374e-13,2.80582013e-13,6.221110818e-13,1.449140943e-13,4.89622651e-13,5.16402989e-13
1.453125,1.20284368e-13,1.57001114e-13,1.314660595e-13,1.61172218e-13,3.174676859e-13,5.488774542e-14,4.605356093e-14,6.804184684e-13,6.450564202e-13,3.412168809e-13,2.068266945e-14,3.700884204e-13,2.816454783e-13,1.729685796e-13,4.396767731e-13,9.12148112e-13,7.773664102e-13,4.231620381e-13,9.790415233e-14,1.300683103e-12,1.30728557e-13,4.356868472e-13,2.356302787e-13,5.422592622e-13,3.022275633e-14,4.262746556e-13,3.825039527e-13,2.955800659e-13,6.279358029e-13,1.515311715e-13,4.960950875e-13,5.48064456e-13
1.4609375,1.287251719e-13,1.608632657e-13,1.315253087e-13,1.555727815e-13,3.317382334e-13,5.382234309e-14,4.596325469e-14,7.290329195e-13,6.943528981e-13,3.674678611e-13,2.083993801e-14,4.0074002e-13,2.911355075e-13,1.69282571e-13,4.521854316e-13,9.471604096e-13,8.215783638e-13,4.22880316e-13,9.200164835e-14,1.356911255e-12,1.350972615e-13,4.684306199e-13,2.423492716e-13,5.475341583e-13,2.862976955e-14,4.281142979e-13,3.787618711e-13,3.096962192e-13,6.331754317e-13,1.578695841e-13,5.026000244e-13,5.793762023e-13
1.46875,1.376116859e-13,1.654005952e-13,1.320718328e-13,1.503609775e-13,3.461408817e-13,5.334196167e-14,4.561756956e-14,7.765601648e-13,7.435744772e-13,3.932066632e-13,2.10760157e-14,4.316463264e-13,3.014152666e-13,1.655446126e-13,4.648966723e-13,9.811177648e-13,8.643834924e-13,4.214091553e-13,8.637813847e-14,1.40820997e-12,1.394846215e-13,5.007856166e-13,2.478931287e-13,5.505257994e-13,2.74171842e-14,4.28018932e-13,3.741720256e-13,3.23125455e-13,6.382133049e-13,1.640558923e-13,5.093517274e-13,6.097536173e-13
1.4765625,1.467211912e-13,1.702450388e-13,1.330366945e-13,1.455686353e-13,3.607328664e-13,5.345100876e-14,4.512145804e-14,8.220108529e-13,7.914355707e-13,4.182909932e-13,2.143907108e-14,4.618640679e-13,3.117522727e-13,1.614757495e-13,4.77802807e-13,1.013320027e-12,9.052907155e-13,4.188581238e-13,8.12068481e-14,1.453599029e-12,1.440064525e-13,5.319318998e-13,2.521854976e-13,5.508457667e-13,2.67185818e-14,4.260737796e-13,3.682346378e-13,3.354174109e-13,6.424297578e-13,1.696968759e-13,5.16516628e-13,6.388581486e-13
1.484375,1.558360799e-13,1.751669934e-13,1.343056123e-13,1.414860697e-13,3.754592046e-13,5.436171674e-14,4.472260388e-14,8.643683079e-13,8.363493325e-13,4.419105217e-13,2.197663901e-14,4.903033116e-13,3.215813986e-13,1.571851543e-13,4.914076116e-13,1.044198356e-12,9.440512368e-13,4.158018536e-13,7.628099282e-14,1.492266859e-12,1.485360084e-13,5.609468905e-13,2.551361599e-13,5.483815054e-13,2.654707635e-14,4.222419511e-13,3.608264493e-13,3.461651837e-13,6.454493153e-13,1.745807369e-13,5.241266907e-13,6.656991542e-13
1.4921875,1.649204232e-13,1.804381007e-13,1.35851112e-13,1.379436792e-13,3.892375007e-13,5.603181109e-14,4.439025595e-14,9.027181504e-13,8.783901548e-13,4.638263395e-13,2.259892818e-14,5.174213982e-13,3.316934097e-13,1.529327427e-13,5.042862517e-13,1.071884983e-12,9.79534424e-13,4.113951123e-13,7.162713646e-14,1.524040344e-12,1.527585697e-13,5.879281916e-13,2.569025704e-13,5.442001809e-13,2.685200421e-14,4.163130827e-13,3.524046334e-13,3.553545231e-13,6.480217353e-13,1.789578007e-13,5.320250755e-13,6.895827218e-13
1.5,1.734894262e-13,1.859443316e-13,1.376244143e-13,1.348455703e-13,4.018240073e-13,5.828179608e-14,4.408375125e-14,9.359261501e-13,9.170156008e-13,4.831592216e-13,2.339066821e-14,5.426930544e-13,3.418626571e-13,1.486521841e-13,5.156923663e-13,1.095299133e-12,1.011113266e-12,4.054934328e-13,6.755685557e-14,1.549303381e-12,1.571092968e-13,6.126029945e-13,2.574168993e-13,5.381945812e-13,2.770548659e-14,4.088717592e-13,3.434157804e-13,3.622452747e-13,6.510311709e-13,1.82522548e-13,5.411699948e-13,7.108217779e-13
1.5078125,1.810918908e-13,1.915179435e-13,1.392602976e-13,1.325354146e-13,4.13865404e-13,6.112067462e-14,4.400487828e-14,9.636168736e-13,9.509486902e-13,4.989453071e-13,2.443048261e-14,5.647864722e-13,3.511313708e-13,1.446456676e-13,5.26514558e-13,1.115737408e-12,1.038853073e-12,3.991902421e-13,6.409046704e-14,1.56737313e-12,1.617884178e-13,6.338686125e-13,2.566462165e-13,5.3001795e-13,2.894590531e-14,4.001455825e-13,3.343220193e-13,3.65946629e-13,6.54635108e-13,1.849816334e-13,5.521962762e-13,7.290234753e-13
1.515625,1.877192606e-13,1.972186233e-13,1.406804372e-13,1.310855139e-13,4.253661071e-13,6.45930228e-14,4.417647739e-14,9.862528631e-13,9.801141654e-13,5.117173653e-13,2.563766257e-14,5.837600379e-13,3.596769515e-13,1.411198346e-13,5.364719096e-13,1.133021711e-12,1.062496965e-12,3.92505856e-13,6.111238218e-14,1.578194013e-12,1.66454717e-13,6.516034147e-13,2.548843895e-13,5.204938146e-13,3.042739331e-14,3.896993254e-13,3.252945908e-13,3.666122907e-13,6.586759963e-13,1.866090275e-13,5.646586476e-13,7.437126786e-13
1.5234375,1.9345045e-13,2.030145172e-13,1.424278238e-13,1.302682159e-13,4.357545943e-13,6.870702322e-14,4.45445726e-14,1.003179593e-12,1.004301637e-12,5.214317858e-13,2.70300135e-14,5.997739576e-13,3.675594834e-13,1.379253734e-13,5.444488368e-13,1.145907596e-12,1.081212276e-12,3.847658649e-13,5.868428013e-14,1.581820315e-12,1.711310166e-13,6.660767441e-13,2.522177735e-13,5.096322009e-13,3.232261527e-14,3.777976777e-13,3.162124916e-13,3.648313115e-13,6.632160965e-13,1.87410639e-13,5.788511839e-13,7.549173266e-13
1.53125,1.98122495e-13,2.088534181e-13,1.443097756e-13,1.29986212e-13,4.443657936e-13,7.340720702e-14,4.526821197e-14,1.013489395e-12,1.022637222e-12,5.273761939e-13,2.859981004e-14,6.123659687e-13,3.745123054e-13,1.353245265e-13,5.502484226e-13,1.15387398e-12,1.093860685e-12,3.758374538e-13,5.686605746e-14,1.577098593e-12,1.756608683e-13,6.767608478e-13,2.486657145e-13,4.972776135e-13,3.470198703e-14,3.645371737e-13,3.072419794e-13,3.60308452e-13,6.682361602e-13,1.873123192e-13,5.949023795e-13,7.618105916e-13
1.5390625,2.015604697e-13,2.146766432e-13,1.45983953e-13,1.304721295e-13,4.513145255e-13,7.865434771e-14,4.647613871e-14,1.017689976e-12,1.034798887e-12,5.298653545e-13,3.034515298e-14,6.213968962e-13,3.804384787e-13,1.336933651e-13,5.545784253e-13,1.157186157e-12,1.100701835e-12,3.663655652e-13,5.564449954e-14,1.56467094e-12,1.798219627e-13,6.835382245e-13,2.445347808e-13,4.843704644e-13,3.737639748e-14,3.4997892e-13,2.987228748e-13,3.52581634e-13,6.738055233e-13,1.865111853e-13,6.127323882e-13,7.644101427e-13
1.546875,2.04029341e-13,2.206417498e-13,1.47882045e-13,1.318482136e-13,4.568878908e-13,8.451245815e-14,4.848698284e-14,1.016470486e-12,1.041058877e-12,5.29075879e-13,3.225403435e-14,6.270843204e-13,3.852813479e-13,1.332370273e-13,5.574031693e-13,1.156015074e-12,1.102502485e-12,3.568874564e-13,5.502158708e-14,1.545986905e-12,1.837360127e-13,6.868861288e-13,2.401060327e-13,4.7160142e-13,4.040968924e-14,3.350379203e-13,2.908321442e-13,3.42605451e-13,6.804966465e-13,1.850846117e-13,6.330526285e-13,7.638645083e-13
1.5546875,2.057219195e-13,2.269562427e-13,1.50021901e-13,1.336646427e-13,4.599828296e-13,9.062026945e-14,5.138925496e-14,1.009255351e-12,1.041475752e-12,5.251254144e-13,3.414016442e-14,6.29767088e-13,3.891987378e-13,1.337888878e-13,5.57201945e-13,1.148590092e-12,1.097927838e-12,3.465776134e-13,5.493827103e-14,1.520330241e-12,1.871746939e-13,6.87113154e-13,2.35392733e-13,4.586500297e-13,4.383188949e-14,3.19728198e-13,2.834386815e-13,3.315173788e-13,6.885222513e-13,1.829858229e-13,6.557617084e-13,7.595011634e-13
1.5625,2.062286559e-13,2.334993169e-13,1.518910006e-13,1.357423947e-13,4.598715698e-13,9.653317829e-14,5.490977427e-14,9.95095673e-13,1.035159841e-12,5.183082472e-13,3.600767708e-14,6.293228239e-13,3.919426416e-13,1.349871775e-13,5.535032052e-13,1.133830996e-12,1.085939174e-12,3.350303532e-13,5.540257487e-14,1.487398191e-12,1.899778659e-13,6.841140394e-13,2.305061557e-13,4.44977175e-13,4.736634277e-14,3.036149667e-13,2.764494387e-13,3.18587225e-13,6.975257149e-13,1.800971594e-13,6.804283213e-13,7.503415726e-13
1.5703125,2.055831799e-13,2.402882548e-13,1.537122845e-13,1.383061817e-13,4.572673691e-13,1.025611738e-13,5.942120578e-14,9.753817615e-13,1.022433849e-12,5.085853266e-13,3.805466218e-14,6.25706766e-13,3.932155961e-13,1.37160621e-13,5.473387407e-13,1.113140896e-12,1.067836506e-12,3.232556253e-13,5.646708904e-14,1.448675924e-12,1.921942859e-13,6.778192799e-13,2.258144722e-13,4.310603399e-13,5.095277578e-14,2.874399399e-13,2.702437265e-13,3.040178608e-13,7.073446867e-13,1.76609099e-13,7.070687741e-13,7.374054402e-13
1.578125,2.045894048e-13,2.473764569e-13,1.560077917e-13,1.411445042e-13,4.523567521e-13,1.088221932e-13,6.506928249e-14,9.523113326e-13,1.005424189e-12,4.965569788e-13,4.025149822e-14,6.198328719e-13,3.934488749e-13,1.405702046e-13,5.385830221e-13,1.086809087e-12,1.044335551e-12,3.113504727e-13,5.808400777e-14,1.405013219e-12,1.935419483e-13,6.690872172e-13,2.214342284e-13,4.180013029e-13,5.464755997e-14,2.715171492e-13,2.649468005e-13,2.890512286e-13,7.177460751e-13,1.729923871e-13,7.348468533e-13,7.214141377e-13
1.5859375,2.030123814e-13,2.545049443e-13,1.580493874e-13,1.441288587e-13,4.449376357e-13,1.147099596e-13,7.184336344e-14,9.255465233e-13,9.841687487e-13,4.825771195e-13,4.244545077e-14,6.121663412e-13,3.927596739e-13,1.447789056e-13,5.265834276e-13,1.054733791e-12,1.015277598e-12,2.988210079e-13,6.024206562e-14,1.356423698e-12,1.940974972e-13,6.583873862e-13,2.174682492e-13,4.059892634e-13,5.840364156e-14,2.555610051e-13,2.602736725e-13,2.730646026e-13,7.282583104e-13,1.690923266e-13,7.631207116e-13,7.02021785e-13
1.59375,2.001141562e-13,2.616475149e-13,1.591877658e-13,1.475013939e-13,4.355056673e-13,1.199693092e-13,7.996378797e-14,8.949449113e-13,9.578249152e-13,4.668845164e-13,4.464695322e-14,6.025980788e-13,3.907148073e-13,1.498129791e-13,5.120892594e-13,1.018508941e-12,9.819221364e-13,2.860945002e-13,6.288366038e-14,1.303973409e-12,1.941605095e-13,6.454657371e-13,2.141813657e-13,3.946146022e-13,6.20129139e-14,2.399280851e-13,2.564840255e-13,2.56029122e-13,7.38747324e-13,1.646285649e-13,7.919958169e-13,6.795975569e-13
1.6015625,1.963401099e-13,2.689833675e-13,1.601433712e-13,1.513165428e-13,4.245279892e-13,1.248956358e-13,8.924209277e-14,8.619636902e-13,9.276347871e-13,4.502056899e-13,4.694988132e-14,5.914635172e-13,3.873839879e-13,1.561054578e-13,4.960015711e-13,9.791215088e-13,9.457930226e-13,2.736516658e-13,6.597771054e-14,1.249652453e-12,1.936364954e-13,6.310791046e-13,2.115395229e-13,3.841886558e-13,6.53004108e-14,2.249275431e-13,2.538455263e-13,2.385422829e-13,7.491265627e-13,1.5990643e-13,8.210467173e-13,6.549338547e-13
1.609375,1.9210187e-13,2.766737666e-13,1.612017354e-13,1.556002872e-13,4.120644748e-13,1.295335883e-13,1.000898146e-13,8.27397879e-13,8.948414251e-13,4.328693149e-13,4.936920702e-14,5.793667306e-13,3.833187866e-13,1.635425285e-13,4.781526629e-13,9.366863832e-13,9.074164919e-13,2.616407347e-13,6.962621156e-14,1.194624135e-12,1.92488347e-13,6.161389386e-13,2.098188226e-13,3.752555511e-13,6.846326357e-14,2.106300843e-13,2.52025601e-13,2.208977556e-13,7.589889876e-13,1.551751817e-13,8.498222783e-13,6.282711418e-13
1.6171875,1.874066635e-13,2.84901971e-13,1.619128388e-13,1.603350144e-13,3.980633297e-13,1.334445549e-13,1.125019135e-13,7.91828472e-13,8.6007921e-13,4.157581771e-13,5.188901353e-14,5.673257989e-13,3.790924174e-13,1.718671017e-13,4.582953938e-13,8.916583451e-13,8.671377124e-13,2.499705781e-13,7.376480178e-14,1.139306391e-12,1.906586225e-13,6.010723061e-13,2.095618602e-13,3.674953616e-13,7.14999889e-14,1.971596421e-13,2.509910116e-13,2.041450444e-13,7.681462719e-13,1.504889038e-13,8.778615873e-13,5.998884999e-13
1.625,1.825342173e-13,2.934211044e-13,1.622338389e-13,1.652749911e-13,3.82557105e-13,1.362891084e-13,1.259982836e-13,7.562600962e-13,8.241327509e-13,3.991080572e-13,5.447968343e-14,5.557148138e-13,3.747864344e-13,1.8103236e-13,4.366759395e-13,8.446450381e-13,8.255710336e-13,2.3840874e-13,7.817477533e-14,1.08451089e-12,1.880098609e-13,5.863774513e-13,2.106846851e-13,3.606425854e-13,7.413252056e-14,1.845510375e-13,2.509041142e-13,1.884687146e-13,7.764531813e-13,1.459246146e-13,9.039150098e-13,5.707253787e-13
1.6328125,1.777401966e-13,3.018839968e-13,1.62143101e-13,1.703026372e-13,3.657265937e-13,1.381587611e-13,1.408017618e-13,7.214351396e-13,7.878970581e-13,3.824932672e-13,5.706712053e-14,5.440841761e-13,3.700831787e-13,1.908750684e-13,4.138165871e-13,7.963847376e-13,7.835803541e-13,2.270760767e-13,8.271599966e-14,1.031044295e-12,1.84561889e-13,5.723038476e-13,2.12959616e-13,3.550947741e-13,7.633184834e-14,1.728076512e-13,2.515821452e-13,1.735069761e-13,7.834307329e-13,1.416423489e-13,9.269297843e-13,5.415686861e-13
1.640625,1.732421716e-13,3.102975721e-13,1.615602575e-13,1.753263184e-13,3.476016286e-13,1.39171674e-13,1.56549251e-13,6.875832397e-13,7.522308267e-13,3.667357942e-13,5.958262909e-14,5.329061842e-13,3.653571934e-13,2.013418174e-13,3.90226745e-13,7.475498133e-13,7.417384688e-13,2.161666861e-13,8.738686237e-14,9.793085959e-13,1.802823121e-13,5.592199657e-13,2.164245955e-13,3.508795466e-13,7.81234304e-14,1.618374036e-13,2.527205309e-13,1.596412652e-13,7.887366559e-13,1.378352134e-13,9.464905219e-13,5.126581464e-13
1.6484375,1.691746534e-13,3.183683345e-13,1.606283892e-13,1.800315255e-13,3.284593909e-13,1.39055334e-13,1.729669352e-13,6.554322063e-13,7.176137559e-13,3.522283194e-13,6.19576624e-14,5.228259826e-13,3.61082174e-13,2.122670797e-13,3.658393856e-13,6.987047319e-13,7.006200873e-13,2.057804663e-13,9.217176708e-14,9.29885555e-13,1.751921482e-13,5.474960775e-13,2.211008717e-13,3.477653397e-13,7.965462056e-14,1.517397203e-13,2.538985653e-13,1.475042979e-13,7.922184562e-13,1.345494233e-13,9.619942763e-13,4.846540775e-13
1.65625,1.655262016e-13,3.25699027e-13,1.588545533e-13,1.84357919e-13,3.089780908e-13,1.374849746e-13,1.899780494e-13,6.259789265e-13,6.847410843e-13,3.388866853e-13,6.417184241e-14,5.13909863e-13,3.571742904e-13,2.23126333e-13,3.406878227e-13,6.503908836e-13,6.612202502e-13,1.960809143e-13,9.692669657e-14,8.836607248e-13,1.693581044e-13,5.371585829e-13,2.268468779e-13,3.458441494e-13,8.091139054e-14,1.42681849e-13,2.550050505e-13,1.369338835e-13,7.939072465e-13,1.318357632e-13,9.731418599e-13,4.58046137e-13
1.6640625,1.620276858e-13,3.323309945e-13,1.558333965e-13,1.884738617e-13,2.890554557e-13,1.34811043e-13,2.071054756e-13,5.984918323e-13,6.537070566e-13,3.265669228e-13,6.627066724e-14,5.061425151e-13,3.536969804e-13,2.337756291e-13,3.1545393e-13,6.03261223e-13,6.241758144e-13,1.871309637e-13,1.015574477e-13,8.414361781e-13,1.62856954e-13,5.28279165e-13,2.333739768e-13,3.452120713e-13,8.143025641e-14,1.345539034e-13,2.562005514e-13,1.27154779e-13,7.937842206e-13,1.295814739e-13,9.8014239e-13,4.325543301e-13
1.671875,1.585215533e-13,3.380915316e-13,1.522153889e-13,1.922310337e-13,2.683499853e-13,1.313984829e-13,2.24277753e-13,5.722336328e-13,6.240808896e-13,3.149055821e-13,6.821320636e-14,4.991204476e-13,3.50610917e-13,2.440784936e-13,2.90368576e-13,5.579947079e-13,5.900112372e-13,1.788446277e-13,1.059397603e-13,8.037997397e-13,1.559971185e-13,5.208314876e-13,2.405912524e-13,3.458209597e-13,8.133877894e-14,1.274190695e-13,2.572262421e-13,1.183228403e-13,7.911061684e-13,1.276062031e-13,9.824491517e-13,4.084609784e-13
1.6796875,1.552966524e-13,3.426637852e-13,1.481028194e-13,1.954862515e-13,2.474990174e-13,1.2687893e-13,2.411514157e-13,5.478796603e-13,5.964087094e-13,3.042204725e-13,6.990088153e-14,4.927017708e-13,3.478026744e-13,2.535899144e-13,2.65408242e-13,5.1454386e-13,5.590566256e-13,1.710051716e-13,1.099051794e-13,7.711171837e-13,1.488807546e-13,5.147898705e-13,2.484350577e-13,3.476714153e-13,8.090921664e-14,1.212770024e-13,2.578315587e-13,1.108693365e-13,7.852321291e-13,1.260186173e-13,9.794408342e-13,3.860358857e-13
1.6875,1.521953126e-13,3.460235194e-13,1.43324273e-13,1.98453555e-13,2.271066918e-13,1.214139806e-13,2.573600854e-13,5.25294032e-13,5.706780379e-13,2.944298311e-13,7.13995047e-14,4.870172552e-13,3.452714762e-13,2.624273541e-13,2.412640481e-13,4.729863192e-13,5.31308127e-13,1.637958617e-13,1.135313782e-13,7.433718162e-13,1.413348567e-13,5.101521129e-13,2.565777423e-13,3.508824572e-13,7.97729184e-14,1.159054721e-13,2.579566212e-13,1.043752136e-13,7.762197802e-13,1.248010688e-13,9.715829396e-13,3.64845692e-13
1.6953125,1.488638405e-13,3.479987082e-13,1.385027638e-13,2.014023186e-13,2.074667906e-13,1.157398413e-13,2.729718199e-13,5.041845569e-13,5.464381315e-13,2.851401215e-13,7.298082719e-14,4.816010362e-13,3.42819732e-13,2.706057611e-13,2.187428297e-13,4.344228151e-13,5.074429546e-13,1.577972787e-13,1.168069441e-13,7.206766378e-13,1.33656567e-13,5.065518253e-13,2.648276163e-13,3.554956063e-13,7.802523731e-14,1.113840736e-13,2.573818566e-13,9.858327515e-14,7.637908814e-13,1.238243286e-13,9.590386681e-13,3.452234303e-13
1.703125,1.457471573e-13,3.485275651e-13,1.340064912e-13,2.043486884e-13,1.889979267e-13,1.098769549e-13,2.876574972e-13,4.849282216e-13,5.243200082e-13,2.762911535e-13,7.479907873e-14,4.761054851e-13,3.402541425e-13,2.776435001e-13,1.979484172e-13,3.993746418e-13,4.876263241e-13,1.528621857e-13,1.194974577e-13,7.030289369e-13,1.262610449e-13,5.036829589e-13,2.731730118e-13,3.61390533e-13,7.606465618e-14,1.077215999e-13,2.559092356e-13,9.396128876e-14,7.476248412e-13,1.232015433e-13,9.414363704e-13,3.277870644e-13
1.7109375,1.43323029e-13,3.477647339e-13,1.298506673e-13,2.071089964e-13,1.716652907e-13,1.036778133e-13,3.009018372e-13,4.669521594e-13,5.044866617e-13,2.676315117e-13,7.676397569e-14,4.705628763e-13,3.374429771e-13,2.836439253e-13,1.785247106e-13,3.672201428e-13,4.707390712e-13,1.484897005e-13,1.216176376e-13,6.894101872e-13,1.190019016e-13,5.01543352e-13,2.81503138e-13,3.682614091e-13,7.39548156e-14,1.046853918e-13,2.5329029e-13,9.04524695e-14,7.281926344e-13,1.2304819e-13,9.191989796e-13,3.122253953e-13
1.71875,1.413416515e-13,3.456359877e-13,1.26007117e-13,2.096283104e-13,1.554392294e-13,9.734534317e-14,3.12337771e-13,4.494823625e-13,4.863160664e-13,2.591389058e-13,7.885527519e-14,4.647414849e-13,3.3437898e-13,2.8875072e-13,1.605043611e-13,3.377270626e-13,4.564041283e-13,1.448212209e-13,1.231993968e-13,6.793183183e-13,1.118918552e-13,4.998420573e-13,2.894287044e-13,3.756595897e-13,7.165047616e-14,1.023093876e-13,2.496102768e-13,8.757969738e-14,7.060629593e-13,1.232180649e-13,8.929534677e-13,2.982028952e-13
1.7265625,1.394691888e-13,3.422149799e-13,1.223957621e-13,2.120447926e-13,1.407249035e-13,9.115432088e-14,3.217321155e-13,4.324809225e-13,4.693975602e-13,2.507930542e-13,8.107293623e-14,4.581709451e-13,3.308568773e-13,2.925476658e-13,1.44321401e-13,3.112488859e-13,4.446541701e-13,1.419694517e-13,1.24104842e-13,6.725150144e-13,1.052822649e-13,4.979961363e-13,2.963819789e-13,3.832581667e-13,6.905053543e-14,1.007259396e-13,2.453788438e-13,8.526770735e-14,6.816554853e-13,1.234567705e-13,8.629831198e-13,2.857282558e-13
1.734375,1.378172806e-13,3.379326901e-13,1.193075245e-13,2.147498516e-13,1.276442844e-13,8.539552813e-14,3.290391979e-13,4.160286703e-13,4.534944639e-13,2.424086222e-13,8.343020833e-14,4.506645889e-13,3.264877243e-13,2.950899646e-13,1.301167871e-13,2.87655731e-13,4.345555204e-13,1.397394479e-13,1.243949783e-13,6.67590522e-13,9.918585486e-14,4.958157714e-13,3.02293204e-13,3.909034726e-13,6.627578118e-14,9.980505246e-14,2.406067364e-13,8.341826347e-14,6.5575961e-13,1.237770521e-13,8.300339641e-13,2.744520122e-13
1.7421875,1.365582673e-13,3.33024675e-13,1.170480337e-13,2.17844672e-13,1.160653062e-13,8.008143325e-14,3.341372085e-13,4.002245858e-13,4.387327228e-13,2.339243166e-13,8.60404087e-14,4.42374009e-13,3.215205862e-13,2.967323717e-13,1.17713802e-13,2.665638884e-13,4.256256206e-13,1.38132718e-13,1.241732353e-13,6.641683073e-13,9.354085546e-14,4.933896684e-13,3.073383922e-13,3.987389924e-13,6.344176195e-14,9.93819412e-14,2.352451665e-13,8.177393199e-14,6.290729848e-13,1.243101821e-13,7.948212256e-13,2.640254766e-13
1.75,1.353705554e-13,3.270646454e-13,1.15410197e-13,2.207284154e-13,1.05996397e-13,7.519425286e-14,3.369904418e-13,3.847108415e-13,4.248458434e-13,2.250962332e-13,8.872608805e-14,4.327603089e-13,3.159164371e-13,2.970600779e-13,1.069700529e-13,2.480130081e-13,4.178850893e-13,1.371403696e-13,1.232684096e-13,6.62421988e-13,8.840491234e-14,4.902361237e-13,3.111296615e-13,4.068434863e-13,6.052897115e-14,9.948057155e-14,2.295263012e-13,7.984260326e-14,6.016560454e-13,1.248026458e-13,7.573452425e-13,2.54514492e-13
1.7578125,1.338730801e-13,3.198772453e-13,1.143850157e-13,2.234582173e-13,9.747922617e-14,7.105928209e-14,3.377097218e-13,3.690935345e-13,4.109697729e-13,2.159458716e-13,9.122417967e-14,4.211896362e-13,3.089935434e-13,2.956225943e-13,9.794072488e-14,2.320310701e-13,4.108452735e-13,1.36641357e-13,1.215438711e-13,6.615839792e-13,8.377793475e-14,4.859071233e-13,3.134516565e-13,4.149462293e-13,5.770272639e-14,1.001423047e-13,2.234341757e-13,7.762981726e-14,5.73659632e-13,1.249479084e-13,7.180337812e-13,2.458314936e-13
1.765625,1.322420587e-13,3.122480763e-13,1.143335941e-13,2.267139842e-13,9.060068169e-14,6.796154489e-14,3.363474725e-13,3.535846869e-13,3.971686965e-13,2.066907741e-13,9.361202628e-14,4.083345093e-13,3.01074643e-13,2.930139089e-13,9.081599569e-14,2.184508332e-13,4.04505944e-13,1.366579836e-13,1.1930304e-13,6.617535645e-13,7.967659786e-14,4.80908655e-13,3.145507309e-13,4.232136668e-13,5.500638506e-14,1.012940985e-13,2.170357861e-13,7.549587309e-14,5.455255085e-13,1.249833637e-13,6.779259783e-13,2.376500584e-13
1.7734375,1.306356709e-13,3.047139629e-13,1.153025264e-13,2.305695594e-13,8.549389219e-14,6.601099568e-14,3.332127431e-13,3.379830649e-13,3.838509086e-13,1.970398573e-13,9.595332717e-14,3.947036324e-13,2.928317673e-13,2.899852699e-13,8.57764279e-14,2.070334691e-13,3.984668787e-13,1.372258729e-13,1.169147017e-13,6.625882353e-13,7.607300993e-14,4.75389042e-13,3.141052377e-13,4.314251977e-13,5.233008814e-14,1.027365792e-13,2.10294668e-13,7.338023698e-14,5.174802397e-13,1.250676275e-13,6.375522489e-13,2.297275345e-13
1.78125,1.290245532e-13,2.972302517e-13,1.173982173e-13,2.348947586e-13,8.203104295e-14,6.519542303e-14,3.285735062e-13,3.218703925e-13,3.707768417e-13,1.870550506e-13,9.80657994e-14,3.798842356e-13,2.841468446e-13,2.863693408e-13,8.265178937e-14,1.972375317e-13,3.912358672e-13,1.380854095e-13,1.143662049e-13,6.620769438e-13,7.292843727e-14,4.687750697e-13,3.116871875e-13,4.385635253e-13,4.980087893e-14,1.042697298e-13,2.032117222e-13,7.135590464e-14,4.899682955e-13,1.249251697e-13,5.972019878e-13,2.219803096e-13
1.7890625,1.274149111e-13,2.898177384e-13,1.205542257e-13,2.395480019e-13,8.003641666e-14,6.53377539e-14,3.225378527e-13,3.053230753e-13,3.577268154e-13,1.772203568e-13,9.979596989e-14,3.63830651e-13,2.74874747e-13,2.818183043e-13,8.101953544e-14,1.888224663e-13,3.826630366e-13,1.389878311e-13,1.11561516e-13,6.596664153e-13,7.023584858e-14,4.609066053e-13,3.076458799e-13,4.44960394e-13,4.756323711e-14,1.05913944e-13,1.96254174e-13,6.936095338e-14,4.633476029e-13,1.245309573e-13,5.57473543e-13,2.142828089e-13
1.796875,1.255914802e-13,2.827081203e-13,1.243685273e-13,2.444315228e-13,7.956520199e-14,6.647380303e-14,3.152829412e-13,2.885762312e-13,3.444055208e-13,1.675421898e-13,1.011229295e-13,3.46971048e-13,2.64972681e-13,2.767948757e-13,8.108745491e-14,1.822062202e-13,3.734377074e-13,1.399402203e-13,1.085846955e-13,6.564224483e-13,6.80088373e-14,4.518289096e-13,3.024118627e-13,4.510601362e-13,4.544450674e-14,1.076759462e-13,1.895928981e-13,6.740831072e-14,4.376299552e-13,1.239434891e-13,5.189143512e-13,2.062632007e-13
1.8046875,1.235443222e-13,2.761858728e-13,1.289568066e-13,2.496366408e-13,8.042990463e-14,6.866966943e-14,3.069530476e-13,2.718000478e-13,3.307520302e-13,1.580283762e-13,1.019999989e-13,3.297549636e-13,2.54713724e-13,2.71903196e-13,8.313721703e-14,1.774072155e-13,3.63004666e-13,1.406633988e-13,1.055702441e-13,6.519889726e-13,6.619703749e-14,4.417325285e-13,2.96014327e-13,4.559120666e-13,4.333318655e-14,1.093440042e-13,1.832090143e-13,6.560910477e-14,4.131058367e-13,1.231210951e-13,4.817467508e-13,1.978893102e-13
