"Time","Fp1","AF3","F7","F3","FC1","FC5","T7","C3","CP1","CP5","P7","P3","Pz","PO3","O1","Oz","O2","PO4","P4","P8","CP6","CP2","C4","T8","FC6","FC2","F4","F8","AF4","Fp2","Fz","Cz"
0.0078125,3.194903874e-14,1.061719616e-13,3.288002119e-13,1.380191766e-13,3.666394533e-13,4.939853089e-14,1.361542843e-13,3.269342852e-13,2.17633255e-13,9.241122703e-14,1.979034023e-14,3.144696432e-14,3.197185359e-14,3.466783994e-13,2.091112567e-13,1.791149519e-13,3.385661331e-13,4.435050146e-13,7.869968372e-14,1.856436489e-13,6.604689803e-14,6.427882093e-14,1.67207543e-13,8.219245046e-14,1.582861746e-14,2.244965075e-13,6.466337616e-14,2.019696116e-13,5.628377047e-14,8.456128064e-14,3.104050304e-13,4.959804735e-13
0.015625,3.251931454e-14,1.072275715e-13,3.295127293e-13,1.427208752e-13,3.770305732e-13,5.087969846e-14,1.410622977e-13,3.347043185e-13,2.239246486e-13,9.553075401e-14,2.055548353e-14,3.359606589e-14,3.214024877e-14,3.550186122e-13,2.149934277e-13,1.81133177e-13,3.441512938e-13,4.524575486e-13,8.028745635e-14,1.901850073e-13,6.800162793e-14,6.542839312e-14,1.705002633e-13,8.339620009e-14,1.666392976e-14,2.272705375e-13,6.441680867e-14,2.058029258e-13,5.666735195e-14,8.499060713e-14,3.135474892e-13,5.073097307e-13
0.0234375,3.301441868e-14,1.079554874e-13,3.293920792e-13,1.472280212e-13,3.866433746e-13,5.244590138e-14,1.459955266e-13,3.416570465e-13,2.296995139e-13,9.855248837e-14,2.135832669e-14,3.591943868e-14,3.230344344e-14,3.62754415e-13,2.206918232e-13,1.827256192e-13,3.491729671e-13,4.60597663e-13,8.172534685e-14,1.943826125e-13,6.986282419e-14,6.638820715e-14,1.734778279e-13,8.435844923e-14,1.742503938e-14,2.293713856e-13,6.401150996e-14,2.092491611e-13,5.692732866e-14,8.512937818e-14,3.15720086e-13,5.174884227e-13
0.03125,3.342901477e-14,1.085526498e-13,3.28407547e-13,1.517812935e-13,3.957793815e-13,5.408198836e-14,1.507411267e-13,3.478411718e-13,2.350306211e-13,1.013690892e-13,2.227262063e-14,3.837693337e-14,3.246323694e-14,3.69934027e-13,2.262462452e-13,1.840440756e-13,3.538040114e-13,4.68079204e-13,8.309192971e-14,1.984236308e-13,7.171845203e-14,6.716646298e-14,1.761674759e-13,8.526464171e-14,1.813707057e-14,2.310258767e-13,6.360391607e-14,2.122457803e-13,5.719531511e-14,8.498533999e-14,3.172511498e-13,5.2650548e-13
0.0390625,3.379189197e-14,1.088972074e-13,3.264179443e-13,1.563482444e-13,4.04355561e-13,5.576338625e-14,1.553166308e-13,3.531855949e-13,2.398729257e-13,1.038406759e-13,2.328439814e-14,4.087362232e-14,3.259148525e-14,3.764542591e-13,2.31541316e-13,1.848977416e-13,3.57522168e-13,4.747566786e-13,8.442424972e-14,2.02084608e-13,7.351715806e-14,6.773345081e-14,1.784713275e-13,8.584997268e-14,1.886458067e-14,2.321916029e-13,6.311560191e-14,2.146723836e-13,5.746849483e-14,8.457767172e-14,3.180417685e-13,5.345293389e-13
0.046875,3.41317465e-14,1.089059043e-13,3.237279686e-13,1.607562439e-13,4.120731054e-13,5.753729824e-14,1.597511076e-13,3.575219948e-13,2.44057295e-13,1.060403908e-13,2.433675108e-14,4.338757368e-14,3.26590692e-14,3.821621507e-13,2.364840574e-13,1.85189009e-13,3.601219092e-13,4.803579604e-13,8.563523353e-14,2.050848072e-13,7.518135358e-14,6.812090875e-14,1.803036004e-13,8.606324785e-14,1.961719846e-14,2.328042135e-13,6.247645134e-14,2.165857732e-13,5.769697499e-14,8.393267758e-14,3.180213721e-13,5.415587283e-13
0.0546875,3.44605869e-14,1.086094063e-13,3.208089812e-13,1.649991143e-13,4.189858882e-13,5.941676143e-14,1.638986495e-13,3.608533764e-13,2.475862153e-13,1.079656495e-13,2.542957228e-14,4.598538722e-14,3.269383131e-14,3.870837919e-13,2.411215676e-13,1.850266138e-13,3.618420914e-13,4.849035682e-13,8.671869437e-14,2.075721384e-13,7.675507912e-14,6.83638072e-14,1.8176546e-13,8.624197067e-14,2.038565426e-14,2.330006752e-13,6.178561781e-14,2.181081189e-13,5.790604493e-14,8.310362884e-14,3.173150618e-13,5.476264783e-13
0.0625,3.471007211e-14,1.080457959e-13,3.175186376e-13,1.691937154e-13,4.251361982e-13,6.143254441e-14,1.67840979e-13,3.632478729e-13,2.505023305e-13,1.095724027e-13,2.662019741e-14,4.866312128e-14,3.277233238e-14,3.915028404e-13,2.455989284e-13,1.845181567e-13,3.628740735e-13,4.88759224e-13,8.779044764e-14,2.097939254e-13,7.826128272e-14,6.840586012e-14,1.829944944e-13,8.630326289e-14,2.110255993e-14,2.328247254e-13,6.112209397e-14,2.19247493e-13,5.816723903e-14,8.209209859e-14,3.159159504e-13,5.526921842e-13
0.0703125,3.479961357e-14,1.072323799e-13,3.134568513e-13,1.733331986e-13,4.304466823e-13,6.362453648e-14,1.717127686e-13,3.647185092e-13,2.527080954e-13,1.109311065e-13,2.794721279e-14,5.14081901e-14,3.294512476e-14,3.95583245e-13,2.500057423e-13,1.836692932e-13,3.632256796e-13,4.921349653e-13,8.889082763e-14,2.11653035e-13,7.966517846e-14,6.822591158e-14,1.839654914e-13,8.604863264e-14,2.172456869e-14,2.321708382e-13,6.041203285e-14,2.198486457e-13,5.849024814e-14,8.082081867e-14,3.137599661e-13,5.564742853e-13
0.078125,3.476119989e-14,1.062029818e-13,3.085930931e-13,1.773213408e-13,4.349403254e-13,6.596580075e-14,1.755238763e-13,3.652162028e-13,2.541519418e-13,1.120198805e-13,2.93957639e-14,5.422463627e-14,3.319809848e-14,3.991643009e-13,2.542639508e-13,1.824455975e-13,3.62806085e-13,4.948735124e-13,8.99732866e-14,2.130086506e-13,8.09636057e-14,6.784016584e-14,1.846133498e-13,8.552756456e-14,2.228359118e-14,2.309900897e-13,5.962174989e-14,2.198932407e-13,5.883489001e-14,7.926992294e-14,3.108657712e-13,5.588823564e-13
0.0859375,3.461765098e-14,1.05017659e-13,3.031775668e-13,1.811901584e-13,4.386328284e-13,6.842302582e-14,1.792137764e-13,3.646868139e-13,2.548460527e-13,1.127568041e-13,3.095653045e-14,5.702504186e-14,3.349207571e-14,4.021591728e-13,2.582953153e-13,1.808523491e-13,3.615982652e-13,4.968889686e-13,9.102629238e-14,2.139141156e-13,8.218463213e-14,6.722620829e-14,1.850085837e-13,8.473319249e-14,2.27950778e-14,2.293405124e-13,5.886148966e-14,2.194852086e-13,5.918565073e-14,7.748200075e-14,3.073091097e-13,5.600259559e-13
0.09375,3.43546661e-14,1.036311502e-13,2.973597468e-13,1.849654549e-13,4.415097609e-13,7.095894831e-14,1.825743441e-13,3.631853017e-13,2.547835917e-13,1.13110532e-13,3.263945574e-14,5.979240748e-14,3.382080996e-14,4.045290395e-13,2.62045129e-13,1.788394846e-13,3.595266829e-13,4.981555605e-13,9.205372583e-14,2.143208113e-13,8.333518056e-14,6.639284555e-14,1.851890161e-13,8.372151803e-14,2.32830643e-14,2.272856798e-13,5.817255831e-14,2.186123161e-13,5.953885532e-14,7.548584945e-14,3.031354982e-13,5.599391474e-13
0.1015625,3.39739355e-14,1.01958709e-13,2.910828363e-13,1.885174529e-13,4.435457722e-13,7.355868846e-14,1.85580028e-13,3.608178598e-13,2.540134727e-13,1.131240901e-13,3.441800962e-14,6.25527217e-14,3.417571961e-14,4.061610721e-13,2.654475655e-13,1.764148531e-13,3.566439074e-13,4.986252283e-13,9.303238253e-14,2.142486657e-13,8.438158111e-14,6.535679535e-14,1.8507999e-13,8.25569193e-14,2.371266431e-14,2.248761442e-13,5.751995579e-14,2.173530941e-13,5.990550581e-14,7.331344638e-14,2.983808802e-13,5.586747997e-13
0.109375,3.345842248e-14,1.000759283e-13,2.844571179e-13,1.918158299e-13,4.447226977e-13,7.632995923e-14,1.883336032e-13,3.576394771e-13,2.525837266e-13,1.128924086e-13,3.62898181e-14,6.519953545e-14,3.451238939e-14,4.071847071e-13,2.685848735e-13,1.73757162e-13,3.533494228e-13,4.984815201e-13,9.396997647e-14,2.139413576e-13,8.529768553e-14,6.412127537e-14,1.846928077e-13,8.117118663e-14,2.399700473e-14,2.222007006e-13,5.692270662e-14,2.158417557e-13,6.031771207e-14,7.098119126e-14,2.93165965e-13,5.562465384e-13
0.1171875,3.28600175e-14,9.813221694e-14,2.777971234e-13,1.95006308e-13,4.450568376e-13,7.939326899e-14,1.907176888e-13,3.535938448e-13,2.504333245e-13,1.122976208e-13,3.832530312e-14,6.772290597e-14,3.485471845e-14,4.077745019e-13,2.715770572e-13,1.709377973e-13,3.496422332e-13,4.978313588e-13,9.493385667e-14,2.132793076e-13,8.607906052e-14,6.27295374e-14,1.840617331e-13,7.959718543e-14,2.419263295e-14,2.192711412e-13,5.639842731e-14,2.13999887e-13,6.078761371e-14,6.85039572e-14,2.875176611e-13,5.526180971e-13
0.125,3.224009805e-14,9.618867459e-14,2.71189183e-13,1.98179775e-13,4.444569363e-13,8.275743767e-14,1.927983243e-13,3.485984976e-13,2.474949268e-13,1.112145775e-13,4.055377076e-14,7.020624898e-14,3.529791649e-14,4.079259542e-13,2.744918695e-13,1.679203365e-13,3.451117021e-13,4.96587403e-13,9.597267029e-14,2.119281869e-13,8.672538953e-14,6.119068669e-14,1.831531544e-13,7.784925054e-14,2.436044908e-14,2.160055445e-13,5.596016198e-14,2.117757451e-13,6.129740201e-14,6.594210265e-14,2.813244918e-13,5.478186013e-13
0.1328125,3.155103487e-14,9.420966393e-14,2.646153516e-13,2.013255729e-13,4.428735729e-13,8.640131958e-14,1.947420235e-13,3.427746495e-13,2.438112525e-13,1.098565949e-13,4.295891311e-14,7.258674622e-14,3.585312677e-14,4.077479324e-13,2.773997887e-13,1.647500613e-13,3.398666965e-13,4.948809834e-13,9.707041117e-14,2.100427076e-13,8.726332288e-14,5.947257764e-14,1.820446744e-13,7.583952117e-14,2.445075442e-14,2.124391586e-13,5.562472763e-14,2.093582602e-13,6.181698145e-14,6.331763137e-14,2.746446527e-13,5.418107618e-13
0.140625,3.079612704e-14,9.216252519e-14,2.581860272e-13,2.044033508e-13,4.40485407e-13,9.029022972e-14,1.963573404e-13,3.362838343e-13,2.395074162e-13,1.083010721e-13,4.555576114e-14,7.481915656e-14,3.64507811e-14,4.072962544e-13,2.80135877e-13,1.614114926e-13,3.341929393e-13,4.928072814e-13,9.820425303e-14,2.07861969e-13,8.772718021e-14,5.759841174e-14,1.808135243e-13,7.361200179e-14,2.447201531e-14,2.08658771e-13,5.539211799e-14,2.068922209e-13,6.235770053e-14,6.060807882e-14,2.676712167e-13,5.34625068e-13
0.1484375,3.00387889e-14,9.011962308e-14,2.519638373e-13,2.074024922e-13,4.373786078e-13,9.436344983e-14,1.97479393e-13,3.291280723e-13,2.347317063e-13,1.063771391e-13,4.832036001e-14,7.693573921e-14,3.705365932e-14,4.063929464e-13,2.824653776e-13,1.578615601e-13,3.279687029e-13,4.901784525e-13,9.935374471e-14,2.052625251e-13,8.81292998e-14,5.56151568e-14,1.793437243e-13,7.128033643e-14,2.443070841e-14,2.046352846e-13,5.529477009e-14,2.043367952e-13,6.298809926e-14,5.787085461e-14,2.60481101e-13,5.264827455e-13
0.15625,2.92821944e-14,8.816175078e-14,2.459772792e-13,2.103263648e-13,4.335331531e-13,9.859085288e-14,1.981419749e-13,3.214178415e-13,2.29575461e-13,1.041447992e-13,5.119468132e-14,7.888925129e-14,3.767538293e-14,4.049825669e-13,2.844764704e-13,1.541824177e-13,3.211829223e-13,4.869900687e-13,1.004950011e-13,2.022082884e-13,8.84644946e-14,5.352804787e-14,1.775879489e-13,6.889658224e-14,2.429060749e-14,2.003981766e-13,5.537384666e-14,2.017682499e-13,6.373594161e-14,5.518520957e-14,2.531237334e-13,5.174557844e-13
0.1640625,2.855045315e-14,8.625706258e-14,2.402573063e-13,2.130537667e-13,4.290563489e-13,1.029432747e-13,1.983802051e-13,3.133493595e-13,2.240535837e-13,1.01726811e-13,5.417355051e-14,8.061804297e-14,3.836317685e-14,4.031114553e-13,2.862481437e-13,1.504340199e-13,3.140305999e-13,4.834739853e-13,1.016525235e-13,1.988249527e-13,8.872573744e-14,5.133560827e-14,1.756782045e-13,6.642272713e-14,2.410295996e-14,1.960976965e-13,5.566099298e-14,1.993611641e-13,6.457542101e-14,5.25403934e-14,2.456865126e-13,5.075233381e-13
0.171875,2.789764606e-14,8.438543286e-14,2.349175514e-13,2.155206484e-13,4.239298332e-13,1.074591989e-13,1.982414822e-13,3.049473246e-13,2.182319771e-13,9.910986032e-14,5.72678092e-14,8.209724884e-14,3.911846124e-14,4.007364807e-13,2.877020881e-13,1.466301622e-13,3.06508133e-13,4.796868518e-13,1.028429921e-13,1.950962494e-13,8.893327549e-14,4.909411847e-14,1.736700771e-13,6.379869015e-14,2.392340447e-14,1.917926959e-13,5.617353545e-14,1.971719754e-13,6.548885428e-14,4.993458517e-14,2.381862101e-13,4.9684797e-13
0.1796875,2.732587214e-14,8.267646503e-14,2.303218633e-13,2.180116562e-13,4.180824084e-13,1.123052468e-13,1.977015127e-13,2.96204356e-13,2.121838408e-13,9.632841098e-14,6.052133027e-14,8.329851932e-14,3.985370618e-14,3.979751508e-13,2.889253726e-13,1.428925655e-13,2.98681342e-13,4.756148857e-13,1.040594045e-13,1.910211389e-13,8.907284503e-14,4.686544162e-14,1.7155412e-13,6.111226033e-14,2.371158307e-14,1.874530229e-13,5.689464998e-14,1.953421993e-13,6.644850444e-14,4.743749749e-14,2.306881815e-13,4.855105536e-13
0.1875,2.678837308e-14,8.126080302e-14,2.265794183e-13,2.207580248e-13,4.11728812e-13,1.175415833e-13,1.967642876e-13,2.871573852e-13,2.058385808e-13,9.336720892e-14,6.399573892e-14,8.42106726e-14,4.055074237e-14,3.950778419e-13,2.900163886e-13,1.393448741e-13,2.908287921e-13,4.714476092e-13,1.053494631e-13,1.867200697e-13,8.911563365e-14,4.462960704e-14,1.693933546e-13,5.843929284e-14,2.341390725e-14,1.830943306e-13,5.787588588e-14,1.93927952e-13,6.744960313e-14,4.507428881e-14,2.233547571e-13,4.734208584e-13
0.1953125,2.624335993e-14,8.003978311e-14,2.232815017e-13,2.235347082e-13,4.049887695e-13,1.229892986e-13,1.954735371e-13,2.778314517e-13,1.991673712e-13,9.016620625e-14,6.761370571e-14,8.486125199e-14,4.127690306e-14,3.919518379e-13,2.908690246e-13,1.359031802e-13,2.828941311e-13,4.672086687e-13,1.066887427e-13,1.822292076e-13,8.916179144e-14,4.235857587e-14,1.672226608e-13,5.573086111e-14,2.303362283e-14,1.787298803e-13,5.921153919e-14,1.927480322e-13,6.851304889e-14,4.279839337e-14,2.161687412e-13,4.606549982e-13
0.203125,2.572279536e-14,7.882675499e-14,2.202615232e-13,2.261002252e-13,3.977090484e-13,1.284244667e-13,1.938059819e-13,2.683406395e-13,1.923008353e-13,8.68274279e-14,7.125423189e-14,8.528044887e-14,4.200582277e-14,3.881897001e-13,2.913123368e-13,1.32399221e-13,2.745351103e-13,4.625623853e-13,1.079651035e-13,1.774884322e-13,8.926396969e-14,4.007445501e-14,1.650218398e-13,5.302299769e-14,2.260769417e-14,1.743226602e-13,6.088419224e-14,1.918495458e-13,6.958690696e-14,4.060241551e-14,2.089929654e-13,4.47396075e-13
0.2109375,2.527371143e-14,7.76647267e-14,2.176743944e-13,2.28510535e-13,3.899388125e-13,1.338173372e-13,1.918863606e-13,2.588004591e-13,1.853097523e-13,8.346784362e-14,7.493852756e-14,8.545481011e-14,4.269914104e-14,3.837205967e-13,2.913073712e-13,1.288926944e-13,2.65814418e-13,4.575236242e-13,1.091900801e-13,1.725060101e-13,8.929751217e-14,3.77951869e-14,1.627995533e-13,5.035273625e-14,2.215893201e-14,1.698764058e-13,6.285494167e-14,1.913105777e-13,7.066287597e-14,3.853261325e-14,2.019228947e-13,4.336645655e-13
0.21875,2.487972545e-14,7.670341309e-14,2.154722353e-13,2.308289243e-13,3.81881155e-13,1.39282305e-13,1.897082683e-13,2.492168145e-13,1.782491916e-13,8.004955373e-14,7.869198521e-14,8.541126736e-14,4.340380003e-14,3.788997134e-13,2.909926377e-13,1.255671804e-13,2.570710324e-13,4.525259083e-13,1.104060497e-13,1.67397968e-13,8.926513605e-14,3.553688393e-14,1.605472948e-13,4.769122503e-14,2.169123246e-14,1.654542836e-13,6.514665245e-14,1.910421878e-13,7.185611562e-14,3.660071205e-14,1.951561976e-13,4.194956232e-13
0.2265625,2.457411786e-14,7.593019733e-14,2.13720905e-13,2.330612694e-13,3.73543284e-13,1.448100621e-13,1.869819045e-13,2.396804387e-13,1.713227381e-13,7.656188997e-14,8.246137341e-14,8.523194856e-14,4.412467745e-14,3.738592692e-13,2.904014194e-13,1.224122668e-13,2.483926004e-13,4.475523657e-13,1.115649539e-13,1.62227006e-13,8.92639399e-14,3.332581377e-14,1.582425927e-13,4.510329039e-14,2.122489037e-14,1.610811221e-13,6.776567996e-14,1.912314668e-13,7.31301476e-14,3.479865583e-14,1.886803356e-13,4.050811809e-13
0.234375,2.445043354e-14,7.530445795e-14,2.126546001e-13,2.352627956e-13,3.648596239e-13,1.503397986e-13,1.83765299e-13,2.30400066e-13,1.646778195e-13,7.314337413e-14,8.623370006e-14,8.491583495e-14,4.488225621e-14,3.684841158e-13,2.894650354e-13,1.193990309e-13,2.397677905e-13,4.422923355e-13,1.126518654e-13,1.569046682e-13,8.924520159e-14,3.118972577e-14,1.559248261e-13,4.26250188e-14,2.080182919e-14,1.5673889e-13,7.073115263e-14,1.920730922e-13,7.429697358e-14,3.316232024e-14,1.823727951e-13,3.904787828e-13
0.2421875,2.448018258e-14,7.486755131e-14,2.120685848e-13,2.374013729e-13,3.558920305e-13,1.558362617e-13,1.802790406e-13,2.21436668e-13,1.582594672e-13,6.986752743e-14,8.999489538e-14,8.441856791e-14,4.574567953e-14,3.628208778e-13,2.882855767e-13,1.16642734e-13,2.312357012e-13,4.368133288e-13,1.136577394e-13,1.514494781e-13,8.924565796e-14,2.914690084e-14,1.536177275e-13,4.023920564e-14,2.041228543e-14,1.524496374e-13,7.408502597e-14,1.934131876e-13,7.535583302e-14,3.170532078e-14,1.762573827e-13,3.756408434e-13
0.25,2.455056407e-14,7.460910093e-14,2.115811462e-13,2.393832334e-13,3.467969734e-13,1.611342362e-13,1.764192482e-13,2.126804097e-13,1.519826208e-13,6.667491682e-14,9.36810049e-14,8.368387729e-14,4.662479417e-14,3.56848902e-13,2.868667565e-13,1.141130758e-13,2.227684207e-13,4.312230351e-13,1.145469023e-13,1.460542017e-13,8.938580033e-14,2.718016247e-14,1.513041776e-13,3.797767918e-14,1.99926937e-14,1.482809545e-13,7.785794347e-14,1.950234371e-13,7.643215725e-14,3.038407055e-14,1.705292487e-13,3.607282241e-13
0.2578125,2.465720754e-14,7.450957612e-14,2.112784244e-13,2.4124747e-13,3.37616721e-13,1.662154971e-13,1.721528472e-13,2.04115025e-13,1.458748347e-13,6.36102565e-14,9.727440374e-14,8.262108902e-14,4.737538692e-14,3.504521167e-13,2.850952782e-13,1.11696907e-13,2.143762004e-13,4.253966647e-13,1.153047672e-13,1.40744246e-13,8.956951004e-14,2.529844042e-14,1.490317111e-13,3.578255519e-14,1.954373071e-14,1.442778809e-13,8.212026641e-14,1.96932158e-13,7.753331864e-14,2.919789522e-14,1.652785719e-13,3.458671998e-13
0.265625,2.485043349e-14,7.459072814e-14,2.113596842e-13,2.43036253e-13,3.282382214e-13,1.711803961e-13,1.676584768e-13,1.958503607e-13,1.400114121e-13,6.07491687e-14,1.007635839e-13,8.125830683e-14,4.803816742e-14,3.437521785e-13,2.830468236e-13,1.094657835e-13,2.061372994e-13,4.19327727e-13,1.159030543e-13,1.354816787e-13,8.972342808e-14,2.354767498e-14,1.468041548e-13,3.362014682e-14,1.910035472e-14,1.404108671e-13,8.690666044e-14,1.993979302e-13,7.860667163e-14,2.81734255e-14,1.603844462e-13,3.309932312e-13
0.2734375,2.511873913e-14,7.480873516e-14,2.115902037e-13,2.446083087e-13,3.187097169e-13,1.758172291e-13,1.630215273e-13,1.879274047e-13,1.344078849e-13,5.802369445e-14,1.040613957e-13,7.969311965e-14,4.869268128e-14,3.368182906e-13,2.806861384e-13,1.074660498e-13,1.981179095e-13,4.131094639e-13,1.163499826e-13,1.303868386e-13,8.998813352e-14,2.19091797e-14,1.444874625e-13,3.158875744e-14,1.865485738e-14,1.366182509e-13,9.216158301e-14,2.023142136e-13,7.963397745e-14,2.727079643e-14,1.558479174e-13,3.162085916e-13
0.28125,2.545849161e-14,7.513605105e-14,2.117205062e-13,2.458597433e-13,3.092133046e-13,1.800460629e-13,1.581661859e-13,1.803332202e-13,1.290831017e-13,5.546107099e-14,1.07131044e-13,7.79503729e-14,4.934183636e-14,3.295685092e-13,2.779586012e-13,1.056782201e-13,1.903731404e-13,4.067143251e-13,1.166547941e-13,1.254658468e-13,9.04051958e-14,2.034654736e-14,1.420335783e-13,2.96903703e-14,1.821199596e-14,1.328817044e-13,9.78955713e-14,2.054320887e-13,8.059285786e-14,2.645773613e-14,1.518050015e-13,3.016548805e-13
0.2890625,2.588179284e-14,7.564142078e-14,2.119159704e-13,2.469176064e-13,2.998064984e-13,1.841057545e-13,1.530674706e-13,1.731053401e-13,1.240755157e-13,5.318347228e-14,1.100472617e-13,7.603702804e-14,5.000268536e-14,3.22117753e-13,2.751491027e-13,1.04224178e-13,1.829123771e-13,4.001715881e-13,1.167833009e-13,1.206822743e-13,9.092535804e-14,1.8889698e-14,1.395307104e-13,2.790085346e-14,1.777893598e-14,1.292085222e-13,1.041404423e-13,2.08891932e-13,8.144821875e-14,2.576916221e-14,1.482214547e-13,2.872887644e-13
0.296875,2.635621527e-14,7.634333784e-14,2.122062348e-13,2.478564489e-13,2.905645568e-13,1.878982173e-13,1.478902414e-13,1.662782003e-13,1.193473716e-13,5.112229966e-14,1.128250393e-13,7.389853453e-14,5.06544726e-14,3.144721455e-13,2.722719552e-13,1.031255143e-13,1.75751075e-13,3.936301504e-13,1.167809218e-13,1.161310596e-13,9.159104406e-14,1.757569829e-14,1.370054394e-13,2.624138124e-14,1.735794153e-14,1.256265702e-13,1.1083688e-13,2.125266644e-13,8.223319892e-14,2.521124999e-14,1.450617156e-13,2.732213384e-13
0.3046875,2.687202956e-14,7.71844003e-14,2.122780118e-13,2.485050241e-13,2.814909618e-13,1.911345778e-13,1.426497384e-13,1.59848205e-13,1.149394499e-13,4.921115778e-14,1.153560748e-13,7.151170268e-14,5.12158936e-14,3.063330272e-13,2.688945258e-13,1.021686799e-13,1.688879897e-13,3.869880847e-13,1.166170801e-13,1.117597294e-13,9.234511823e-14,1.641552731e-14,1.344291476e-13,2.466099345e-14,1.695711087e-14,1.221696414e-13,1.180124427e-13,2.161478875e-13,8.301756569e-14,2.475745911e-14,1.423977329e-13,2.596093337e-13
0.3125,2.744354275e-14,7.814142308e-14,2.120714921e-13,2.487543157e-13,2.724003802e-13,1.938263863e-13,1.372467482e-13,1.53762548e-13,1.109378225e-13,4.756883352e-14,1.175720283e-13,6.901327454e-14,5.169125316e-14,2.976677982e-13,2.649533465e-13,1.012807809e-13,1.622641185e-13,3.800319637e-13,1.16150948e-13,1.07530769e-13,9.311501117e-14,1.53945382e-14,1.317745055e-13,2.320255684e-14,1.655114322e-14,1.187848694e-13,1.257680691e-13,2.200195634e-13,8.377768298e-14,2.441274131e-14,1.401825475e-13,2.463025953e-13
0.3203125,2.802640585e-14,7.923599377e-14,2.117009724e-13,2.486780621e-13,2.633553041e-13,1.961008401e-13,1.318934753e-13,1.479175969e-13,1.07161974e-13,4.623736835e-14,1.195050552e-13,6.649880026e-14,5.218082616e-14,2.888257985e-13,2.608005858e-13,1.006253747e-13,1.559429873e-13,3.730045564e-13,1.154608106e-13,1.035728196e-13,9.407953547e-14,1.44685373e-14,1.290070796e-13,2.196304851e-14,1.61551997e-14,1.154491889e-13,1.340966275e-13,2.238916192e-13,8.454301936e-14,2.415621563e-14,1.384014948e-13,2.332108195e-13
0.328125,2.858455789e-14,8.043080986e-14,2.11109442e-13,2.482145386e-13,2.54512698e-13,1.978917863e-13,1.26749528e-13,1.422900068e-13,1.034951834e-13,4.515711954e-14,1.211292306e-13,6.400515602e-14,5.275000957e-14,2.799529597e-13,2.565328189e-13,1.002564483e-13,1.499766078e-13,3.661863212e-13,1.146548377e-13,9.982329079e-14,9.530569364e-14,1.363119994e-14,1.261313283e-13,2.089857361e-14,1.581335826e-14,1.122767861e-13,1.430007178e-13,2.275451573e-13,8.547726774e-14,2.394011149e-14,1.371276758e-13,2.205103978e-13
0.3359375,2.915065698e-14,8.162700395e-14,2.103126365e-13,2.472394963e-13,2.457477121e-13,1.99044204e-13,1.217102563e-13,1.36971887e-13,1.001813712e-13,4.435309509e-14,1.223632656e-13,6.153923225e-14,5.337019959e-14,2.708144762e-13,2.519571731e-13,1.000711131e-13,1.443022303e-13,3.59402929e-13,1.136314406e-13,9.624692192e-14,9.658824049e-14,1.293248248e-14,1.231641191e-13,1.999605293e-14,1.550095145e-14,1.092805272e-13,1.525204421e-13,2.313270763e-13,8.656458155e-14,2.37864435e-14,1.362917801e-13,2.083188536e-13
0.34375,2.973982532e-14,8.290148533e-14,2.092986721e-13,2.459071334e-13,2.371709352e-13,1.996982989e-13,1.168249445e-13,1.319858237e-13,9.728018759e-14,4.385583939e-14,1.23264773e-13,5.901325917e-14,5.399676317e-14,2.613575313e-13,2.470596764e-13,1.000917306e-13,1.39043403e-13,3.526374177e-13,1.123844151e-13,9.299388831e-14,9.795896937e-14,1.238669211e-14,1.20141867e-13,1.927871686e-14,1.520531652e-14,1.063620051e-13,1.626160771e-13,2.350878935e-13,8.768681197e-14,2.372728292e-14,1.359199771e-13,1.966469212e-13
0.3515625,3.03084584e-14,8.442420199e-14,2.078007121e-13,2.443559746e-13,2.290255064e-13,1.999786246e-13,1.121782855e-13,1.271821584e-13,9.454758016e-14,4.363192957e-14,1.239061073e-13,5.650527417e-14,5.468142722e-14,2.518852851e-13,2.419573071e-13,1.003498267e-13,1.342247113e-13,3.460666133e-13,1.10986824e-13,8.993406883e-14,9.958978549e-14,1.195159792e-14,1.171150186e-13,1.867229931e-14,1.493046722e-14,1.03517087e-13,1.732598377e-13,2.385643129e-13,8.896048629e-14,2.370592689e-14,1.36151414e-13,1.854323092e-13
0.359375,3.080565881e-14,8.607044502e-14,2.057154286e-13,2.424602075e-13,2.210380556e-13,1.995729067e-13,1.077463074e-13,1.224153723e-13,9.19045566e-14,4.368049145e-14,1.241899777e-13,5.413266928e-14,5.545205727e-14,2.424332082e-13,2.366038181e-13,1.006819332e-13,1.295606954e-13,3.395054581e-13,1.093846122e-13,8.686158261e-14,1.013852323e-13,1.160755038e-14,1.140242547e-13,1.813691045e-14,1.464506434e-14,1.006898681e-13,1.844371447e-13,2.417130107e-13,9.047259921e-14,2.367447005e-14,1.36786683e-13,1.744991831e-13
0.3671875,3.122115193e-14,8.765461156e-14,2.032727915e-13,2.402445938e-13,2.130045369e-13,1.984632287e-13,1.036183038e-13,1.177333915e-13,8.941328452e-14,4.40373054e-14,1.240824411e-13,5.175162916e-14,5.622550427e-14,2.328538922e-13,2.310806794e-13,1.010916884e-13,1.250615853e-13,3.328516803e-13,1.075627363e-13,8.389899583e-14,1.033012946e-13,1.136919246e-14,1.108400738e-13,1.769211625e-14,1.435220672e-14,9.780828496e-14,1.961060598e-13,2.443080465e-13,9.212334883e-14,2.366535996e-14,1.375912637e-13,1.638099288e-13
0.375,3.156963422e-14,8.924775211e-14,2.005347432e-13,2.37807518e-13,2.052011135e-13,1.969975764e-13,9.9859372e-14,1.132002673e-13,8.705736748e-14,4.467788468e-14,1.236535399e-13,4.93635817e-14,5.703105208e-14,2.233427939e-13,2.255898163e-13,1.017525215e-13,1.209455621e-13,3.263445282e-13,1.05578671e-13,8.121704693e-14,1.054442181e-13,1.122226573e-14,1.076655094e-13,1.736242985e-14,1.407138518e-14,9.504842192e-14,2.082960148e-13,2.465188822e-13,9.393970908e-14,2.367019558e-14,1.387513389e-13,1.535744814e-13
0.3828125,3.185031077e-14,9.087870665e-14,1.973083594e-13,2.349694481e-13,1.977176495e-13,1.950553548e-13,9.640155971e-14,1.08751703e-13,8.481557963e-14,4.552899325e-14,1.228620716e-13,4.713897705e-14,5.79196468e-14,2.139349405e-13,2.199820715e-13,1.025455631e-13,1.171719527e-13,3.199785492e-13,1.034249554e-13,7.883252697e-14,1.077718892e-13,1.114781824e-14,1.045097011e-13,1.71984271e-14,1.380572693e-14,9.255328221e-14,2.210383245e-13,2.484846686e-13,9.602308366e-14,2.364299436e-14,1.404234378e-13,1.439613525e-13
0.390625,3.208774362e-14,9.252297023e-14,1.936763531e-13,2.317440532e-13,1.904489077e-13,1.924782196e-13,9.326136433e-14,1.044185173e-13,8.277077384e-14,4.660788234e-14,1.217114089e-13,4.503073211e-14,5.879676683e-14,2.044056902e-13,2.141463994e-13,1.033331395e-13,1.137006991e-13,3.135712949e-13,1.010997742e-13,7.666433118e-14,1.103104453e-13,1.119116185e-14,1.013766463e-13,1.71902022e-14,1.35594984e-14,9.021317654e-14,2.343037971e-13,2.498969596e-13,9.841274719e-14,2.363796021e-14,1.424873611e-13,1.349501555e-13
0.3984375,3.230167933e-14,9.424212008e-14,1.898211805e-13,2.283963493e-13,1.834387263e-13,1.894586415e-13,9.052822484e-14,1.002848504e-13,8.097415597e-14,4.797464099e-14,1.20275195e-13,4.302072746e-14,5.973053345e-14,1.949413647e-13,2.083233032e-13,1.041980217e-13,1.105184274e-13,3.071674389e-13,9.865877277e-14,7.468445393e-14,1.131856878e-13,1.138331823e-14,9.835083298e-14,1.729879037e-14,1.332206595e-14,8.799757849e-14,2.480475721e-13,2.507729179e-13,1.011806595e-13,2.36783616e-14,1.449029736e-13,1.264624621e-13
0.40625,3.240816392e-14,9.59480349e-14,1.855119184e-13,2.248321051e-13,1.766947974e-13,1.859589364e-13,8.819109228e-14,9.629657761e-14,7.928704926e-14,4.957722625e-14,1.184911086e-13,4.118253608e-14,6.083395886e-14,1.857382279e-13,2.025440733e-13,1.050820196e-13,1.075635643e-13,3.008116965e-13,9.610165306e-14,7.299497124e-14,1.162640246e-13,1.16563959e-14,9.53390983e-14,1.755843042e-14,1.308849837e-14,8.597229763e-14,2.621959228e-13,2.511388598e-13,1.042995061e-13,2.365599484e-14,1.476938201e-13,1.184688728e-13
0.4140625,3.236466518e-14,9.756232398e-14,1.806703108e-13,2.20924745e-13,1.702359465e-13,1.819360526e-13,8.617776619e-14,9.243885862e-14,7.765607635e-14,5.13929889e-14,1.163742536e-13,3.946288077e-14,6.198558875e-14,1.766365812e-13,1.966965232e-13,1.059260783e-13,1.049265293e-13,2.944308211e-13,9.338927701e-14,7.156575583e-14,1.193723673e-13,1.196130913e-14,9.227922046e-14,1.795725797e-14,1.285213894e-14,8.408277571e-14,2.767555095e-13,2.509583225e-13,1.076527147e-13,2.357383653e-14,1.507685737e-13,1.10974259e-13
0.421875,3.225145272e-14,9.920344318e-14,1.755766386e-13,2.168894637e-13,1.641433804e-13,1.776140353e-13,8.446204217e-14,8.873021813e-14,7.619189482e-14,5.347832691e-14,1.14075225e-13,3.784346451e-14,6.316734215e-14,1.676117152e-13,1.908492506e-13,1.068001408e-13,1.025887974e-13,2.880414316e-13,9.055594201e-14,7.025233381e-14,1.225656002e-13,1.232715632e-14,8.932927357e-14,1.842060346e-14,1.260876965e-14,8.23130128e-14,2.917508774e-13,2.50471284e-13,1.112671921e-13,2.352172617e-14,1.540762622e-13,1.039911779e-13
0.4296875,3.206966485e-14,1.008559736e-13,1.701621983e-13,2.127738738e-13,1.583145459e-13,1.729550721e-13,8.30668779e-14,8.508805282e-14,7.480518556e-14,5.578384179e-14,1.115562639e-13,3.633494415e-14,6.441440343e-14,1.586485774e-13,1.849338671e-13,1.076077014e-13,1.004008476e-13,2.816189716e-13,8.760638754e-14,6.899968745e-14,1.258587119e-13,1.27609969e-14,8.645717037e-14,1.897217388e-14,1.238655152e-14,8.072755062e-14,3.070339252e-13,2.494846845e-13,1.152069355e-13,2.345877227e-14,1.576316078e-13,9.752436783e-14
0.4375,3.178310699e-14,1.024301824e-13,1.643511999e-13,2.084715414e-13,1.52614859e-13,1.678065308e-13,8.202355815e-14,8.152391688e-14,7.340704338e-14,5.827215251e-14,1.087036798e-13,3.49207346e-14,6.565883313e-14,1.496906031e-13,1.788874621e-13,1.083111177e-13,9.842471596e-14,2.750601275e-13,8.45105645e-14,6.771801579e-14,1.291792002e-13,1.32679956e-14,8.350017557e-14,1.965087881e-14,1.218701233e-14,7.928229555e-14,3.225192305e-13,2.476957092e-13,1.194693683e-13,2.336736936e-14,1.6135424e-13,9.151891673e-14
0.4453125,3.143982249e-14,1.040115637e-13,1.584502693e-13,2.040460123e-13,1.470919629e-13,1.623426684e-13,8.131173713e-14,7.812287824e-14,7.216631956e-14,6.097451021e-14,1.055818923e-13,3.369592323e-14,6.703257302e-14,1.40994985e-13,1.729464706e-13,1.090628898e-13,9.667826728e-14,2.684961415e-13,8.136855762e-14,6.640791686e-14,1.325322097e-13,1.386726741e-14,8.054566263e-14,2.040015138e-14,1.199180957e-14,7.794054561e-14,3.382606269e-13,2.453587599e-13,1.241051708e-13,2.330278177e-14,1.651720309e-13,8.589735683e-14
0.453125,3.104369665e-14,1.056491367e-13,1.525154234e-13,1.994853706e-13,1.417803655e-13,1.567018078e-13,8.090023294e-14,7.484871234e-14,7.115160645e-14,6.382865212e-14,1.022751856e-13,3.273853805e-14,6.860866692e-14,1.327125045e-13,1.67191722e-13,1.098351271e-13,9.504499075e-14,2.621046619e-13,7.823695843e-14,6.522988929e-14,1.358827247e-13,1.452234295e-14,7.771598129e-14,2.121864396e-14,1.181362102e-14,7.683827925e-14,3.542240549e-13,2.42694627e-13,1.292334307e-13,2.324082562e-14,1.691861725e-13,8.064039508e-14
0.4609375,3.059352906e-14,1.072906545e-13,1.464535744e-13,1.947563144e-13,1.366238451e-13,1.508391914e-13,8.077958826e-14,7.166110369e-14,7.028941449e-14,6.681317455e-14,9.878212587e-14,3.201374267e-14,7.026918687e-14,1.246970777e-13,1.614496403e-13,1.104998997e-13,9.355100094e-14,2.557991004e-13,7.503255588e-14,6.416238467e-14,1.391695072e-13,1.521084121e-14,7.498786222e-14,2.215396386e-14,1.166244835e-14,7.608347599e-14,3.703537952e-13,2.397231847e-13,1.349249606e-13,2.317546556e-14,1.734644104e-13,7.57342668e-14
0.46875,3.015258726e-14,1.089233251e-13,1.404375055e-13,1.900311586e-13,1.316301389e-13,1.448739472e-13,8.088122315e-14,6.860338868e-14,6.957823075e-14,6.995743678e-14,9.514297775e-14,3.148344115e-14,7.208871714e-14,1.169702528e-13,1.55755399e-13,1.110928764e-13,9.222020699e-14,2.495596518e-13,7.179783976e-14,6.309806615e-14,1.424853357e-13,1.59496793e-14,7.23508488e-14,2.316752756e-14,1.153940148e-14,7.556639589e-14,3.865440098e-13,2.364844118e-13,1.41068515e-13,2.314360676e-14,1.778483563e-13,7.11948546e-14
0.4765625,2.970703527e-14,1.105410288e-13,1.344974985e-13,1.853676033e-13,1.268748215e-13,1.388981896e-13,8.121910055e-14,6.571690583e-14,6.903836718e-14,7.317137888e-14,9.142065485e-14,3.11248755e-14,7.410411741e-14,1.096427413e-13,1.502440301e-13,1.117022112e-13,9.103561178e-14,2.435353816e-13,6.864240469e-14,6.205441561e-14,1.458738118e-13,1.672217895e-14,6.978597517e-14,2.423619103e-14,1.143978559e-14,7.516522867e-14,4.026557055e-13,2.329878603e-13,1.475694763e-13,2.312518648e-14,1.82220737e-13,6.711590366e-14
0.484375,2.921568833e-14,1.121458009e-13,1.284762233e-13,1.806401935e-13,1.223442127e-13,1.327614481e-13,8.186356722e-14,6.300009085e-14,6.869804142e-14,7.64177891e-14,8.760527362e-14,3.094566352e-14,7.624264112e-14,1.026860576e-13,1.448372039e-13,1.122939182e-13,9.001849174e-14,2.377155582e-13,6.553570429e-14,6.102001307e-14,1.491969745e-13,1.752091629e-14,6.725404004e-14,2.53852642e-14,1.135912222e-14,7.493606964e-14,4.18717383e-13,2.292500362e-13,1.545432733e-13,2.3099887e-14,1.866204244e-13,6.346639657e-14
0.4921875,2.872790388e-14,1.137849099e-13,1.224830598e-13,1.759395319e-13,1.17952644e-13,1.265086897e-13,8.26191894e-14,6.042475596e-14,6.857873556e-14,7.977087586e-14,8.374504869e-14,3.097515077e-14,7.859011963e-14,9.606562399e-14,1.394937392e-13,1.127724409e-13,8.906921439e-14,2.320095761e-13,6.243997978e-14,5.997886128e-14,1.52440332e-13,1.834899882e-14,6.482240221e-14,2.654781092e-14,1.130638693e-14,7.491636046e-14,4.34678458e-13,2.25354877e-13,1.619926955e-13,2.306872232e-14,1.909903703e-13,6.006982831e-14
0.5,2.827146095e-14,1.154725135e-13,1.167461429e-13,1.714823075e-13,1.13711057e-13,1.204150108e-13,8.334077219e-14,5.796319969e-14,6.869188899e-14,8.323063448e-14,7.99736392e-14,3.123570853e-14,8.11759564e-14,8.983797051e-14,1.343404058e-13,1.131825998e-13,8.811333088e-14,2.264526234e-13,5.941285489e-14,5.893330887e-14,1.556740649e-13,1.919754579e-14,6.257456905e-14,2.762610991e-14,1.127407385e-14,7.505775776e-14,4.503859636e-13,2.215432585e-13,1.698463224e-13,2.303767091e-14,1.952660511e-13,5.688980779e-14
0.5078125,2.780341024e-14,1.171040805e-13,1.112079877e-13,1.672151931e-13,1.096180075e-13,1.144856366e-13,8.42478063e-14,5.55909217e-14,6.903633172e-14,8.671835916e-14,7.625801755e-14,3.173484005e-14,8.396293208e-14,8.406701239e-14,1.29343788e-13,1.135416767e-13,8.721027638e-14,2.210588523e-13,5.649247646e-14,5.783567699e-14,1.58834933e-13,2.010380059e-14,6.045700438e-14,2.866951566e-14,1.127078483e-14,7.537895132e-14,4.657814892e-13,2.178538052e-13,1.781886205e-13,2.302728839e-14,1.994569315e-13,5.399401566e-14
0.515625,2.730819562e-14,1.185792943e-13,1.057256297e-13,1.630142255e-13,1.055937008e-13,1.085640749e-13,8.541256978e-14,5.333365677e-14,6.951361814e-14,9.016951583e-14,7.248501864e-14,3.241977812e-14,8.687949644e-14,7.864409045e-14,1.243899962e-13,1.137133347e-13,8.637287318e-14,2.157212364e-13,5.364608532e-14,5.667966971e-14,1.619255294e-13,2.108426729e-14,5.841059576e-14,2.980317659e-14,1.132441953e-14,7.586372156e-14,4.806247778e-13,2.139403933e-13,1.869196217e-13,2.303656307e-14,2.034378547e-13,5.139197007e-14
0.5234375,2.680539415e-14,1.199866676e-13,1.003568935e-13,1.590116538e-13,1.01726329e-13,1.026828702e-13,8.659919284e-14,5.128084278e-14,7.011758149e-14,9.36007758e-14,6.873164167e-14,3.328239348e-14,8.981612626e-14,7.347091592e-14,1.195941673e-13,1.137653126e-13,8.563425389e-14,2.104387417e-13,5.088192544e-14,5.545125143e-14,1.649195698e-13,2.208391472e-14,5.649658237e-14,3.100425456e-14,1.141746682e-14,7.645820826e-14,4.947578999e-13,2.097724562e-13,1.959068715e-13,2.304593165e-14,2.071616635e-13,4.913198607e-14
0.53125,2.630202056e-14,1.21436112e-13,9.518504224e-14,1.553212587e-13,9.811850204e-14,9.690562061e-14,8.770546106e-14,4.948017754e-14,7.099861036e-14,9.702579166e-14,6.510251475e-14,3.440406449e-14,9.298639901e-14,6.870085949e-14,1.150274921e-13,1.138012867e-13,8.500114786e-14,2.053500946e-13,4.825172714e-14,5.414261213e-14,1.676380349e-13,2.307628079e-14,5.475141477e-14,3.216040037e-14,1.153236619e-14,7.722165038e-14,5.083625173e-13,2.056323875e-13,2.052881261e-13,2.30466966e-14,2.107517664e-13,4.721745735e-14
0.5390625,2.582000588e-14,1.228904119e-13,9.028059342e-14,1.518935827e-13,9.462987895e-14,9.128148736e-14,8.881041105e-14,4.791952217e-14,7.217486379e-14,1.00393316e-13,6.159957089e-14,3.576378441e-14,9.654614042e-14,6.437898935e-14,1.105859178e-13,1.136762859e-13,8.43640362e-14,2.003790972e-13,4.571757502e-14,5.285279995e-14,1.702041149e-13,2.407096871e-14,5.313673669e-14,3.327158867e-14,1.167608833e-14,7.816714124e-14,5.213454022e-13,2.016673838e-13,2.150423809e-13,2.307367698e-14,2.141829356e-13,4.54890651e-14
0.546875,2.537254006e-14,1.242957284e-13,8.567000472e-14,1.487966305e-13,9.118395879e-14,8.598093061e-14,8.988649798e-14,4.655314433e-14,7.35814207e-14,1.036892437e-13,5.823446694e-14,3.726130078e-14,1.00238786e-13,6.03491839e-14,1.063104224e-13,1.13411745e-13,8.374675541e-14,1.95358728e-13,4.324198401e-14,5.156025879e-14,1.728388385e-13,2.506145177e-14,5.165026819e-14,3.436669892e-14,1.185626073e-14,7.923709185e-14,5.334140608e-13,1.980388678e-13,2.250286801e-13,2.316351404e-14,2.174237306e-13,4.388257215e-14
0.5546875,2.488454878e-14,1.255971993e-13,8.13328321e-14,1.46129635e-13,8.78716218e-14,8.104653187e-14,9.085451656e-14,4.522911555e-14,7.519586916e-14,1.067787379e-13,5.500203142e-14,3.888417591e-14,1.0413559e-13,5.663618633e-14,1.022355473e-13,1.130328358e-13,8.321907062e-14,1.906020081e-13,4.090720292e-14,5.009923428e-14,1.752186079e-13,2.604465026e-14,5.028205177e-14,3.551843413e-14,1.210442321e-14,8.053422783e-14,5.44670331e-13,1.947154342e-13,2.35318194e-13,2.323866311e-14,2.206089035e-13,4.255934333e-14
0.5625,2.445267769e-14,1.267342225e-13,7.730916859e-14,1.438348914e-13,8.469089481e-14,7.623917359e-14,9.178582544e-14,4.427559845e-14,7.700863512e-14,1.095459525e-13,5.187324268e-14,4.064194853e-14,1.081725109e-13,5.330711902e-14,9.830572267e-14,1.125746124e-13,8.26899722e-14,1.859913632e-13,3.866535715e-14,4.846525289e-14,1.771271597e-13,2.705452001e-14,4.897570088e-14,3.670071948e-14,1.242445807e-14,8.187689636e-14,5.545769315e-13,1.914239445e-13,2.455511564e-13,2.33412198e-14,2.233111442e-13,4.149838593e-14
0.5703125,2.41636852e-14,1.279010239e-13,7.36577116e-14,1.416692233e-13,8.150519679e-14,7.144001389e-14,9.263732318e-14,4.380901523e-14,7.920845241e-14,1.122583455e-13,4.884689033e-14,4.263107482e-14,1.123692398e-13,5.030857622e-14,9.443558057e-14,1.119713931e-13,8.21087932e-14,1.814290674e-13,3.650145079e-14,4.680534707e-14,1.78911362e-13,2.809705065e-14,4.776861035e-14,3.78568265e-14,1.27605804e-14,8.32130521e-14,5.633804523e-13,1.883417285e-13,2.557966947e-13,2.355717362e-14,2.256541215e-13,4.058936251e-14
0.578125,2.398531156e-14,1.291962098e-13,7.024560069e-14,1.3961562e-13,7.828284144e-14,6.690848812e-14,9.330211428e-14,4.357327726e-14,8.18403174e-14,1.150950051e-13,4.594622275e-14,4.490173754e-14,1.167504967e-13,4.763443843e-14,9.07381952e-14,1.11253556e-13,8.152593324e-14,1.768263606e-13,3.441798377e-14,4.520754327e-14,1.808023006e-13,2.915800281e-14,4.67078265e-14,3.888161377e-14,1.311778478e-14,8.464439505e-14,5.716455917e-13,1.856283179e-13,2.662444268e-13,2.385718654e-14,2.279184299e-13,3.976778211e-14
0.5859375,2.385559963e-14,1.305101673e-13,6.709125915e-14,1.379369474e-13,7.511777986e-14,6.278189911e-14,9.382121767e-14,4.336666144e-14,8.468895954e-14,1.178036378e-13,4.326179694e-14,4.740343787e-14,1.211763678e-13,4.530441572e-14,8.729343866e-14,1.103819331e-13,8.092640732e-14,1.72229907e-13,3.245223505e-14,4.366465977e-14,1.826810557e-13,3.021436323e-14,4.576170947e-14,3.980918348e-14,1.352298431e-14,8.611463803e-14,5.791052524e-13,1.832526454e-13,2.766799731e-13,2.41483992e-14,2.299086699e-13,3.904697208e-14
0.59375,2.37843399e-14,1.31848136e-13,6.424484698e-14,1.367460277e-13,7.217082142e-14,5.900289499e-14,9.423377858e-14,4.327048398e-14,8.772812796e-14,1.202257109e-13,4.082104736e-14,5.010002847e-14,1.256896673e-13,4.335604002e-14,8.419083571e-14,1.096867931e-13,8.053359822e-14,1.679206039e-13,3.068426719e-14,4.21343868e-14,1.844211251e-13,3.126938227e-14,4.485000705e-14,4.070979994e-14,1.397450419e-14,8.765613498e-14,5.854472772e-13,1.813325702e-13,2.86926822e-13,2.44291566e-14,2.31544454e-13,3.854316979e-14
0.6015625,2.377559863e-14,1.331956198e-13,6.157776883e-14,1.357977142e-13,6.949545552e-14,5.545432095e-14,9.439339373e-14,4.345623399e-14,9.10579223e-14,1.224200562e-13,3.851505385e-14,5.300059025e-14,1.306778107e-13,4.184791972e-14,8.134053743e-14,1.09316364e-13,8.042355991e-14,1.64289259e-13,2.913784658e-14,4.055421459e-14,1.858910959e-13,3.234280741e-14,4.391788507e-14,4.17243972e-14,1.448114082e-14,8.943977884e-14,5.907863952e-13,1.796352235e-13,2.9697661e-13,2.475675667e-14,2.330116485e-13,3.830588159e-14
0.609375,2.38842119e-14,1.344125215e-13,5.914140655e-14,1.349232461e-13,6.687928034e-14,5.205159517e-14,9.42933671e-14,4.401592263e-14,9.461672884e-14,1.24419296e-13,3.629083237e-14,5.611452096e-14,1.359680588e-13,4.065928028e-14,7.844053158e-14,1.087517007e-13,8.019301291e-14,1.609985982e-13,2.770033189e-14,3.893864655e-14,1.871903645e-13,3.345664692e-14,4.303050742e-14,4.28913079e-14,1.504290827e-14,9.125712874e-14,5.948563612e-13,1.778240233e-13,3.06679796e-13,2.518843812e-14,2.340838661e-13,3.81854468e-14
0.6171875,2.41366029e-14,1.354510852e-13,5.711196138e-14,1.343488275e-13,6.421232197e-14,4.891782476e-14,9.415211973e-14,4.484743786e-14,9.83092268e-14,1.262104489e-13,3.421211348e-14,5.940444827e-14,1.409636169e-13,3.959413202e-14,7.557654806e-14,1.07912865e-13,7.973208426e-14,1.572246399e-13,2.62617144e-14,3.7395764e-14,1.886355376e-13,3.462109427e-14,4.23107152e-14,4.400617767e-14,1.564316751e-14,9.281065329e-14,5.970929428e-13,1.762280272e-13,3.158936623e-13,2.570793861e-14,2.342800299e-13,3.809035196e-14
0.625,2.447355687e-14,1.364777683e-13,5.532582813e-14,1.340922544e-13,6.158814696e-14,4.610097585e-14,9.400218812e-14,4.587487332e-14,1.022662606e-13,1.279048572e-13,3.235907824e-14,6.28596482e-14,1.457977922e-13,3.863558233e-14,7.279363598e-14,1.068371744e-13,7.921746775e-14,1.531515562e-13,2.492037857e-14,3.594209496e-14,1.900645516e-13,3.579593687e-14,4.168873137e-14,4.520503379e-14,1.629157982e-14,9.439646294e-14,5.983012828e-13,1.754397481e-13,3.249395285e-13,2.625307921e-14,2.342750819e-13,3.811116141e-14
0.6328125,2.482298594e-14,1.374416128e-13,5.374040291e-14,1.340668719e-13,5.911088557e-14,4.355555638e-14,9.371673838e-14,4.703710222e-14,1.063469958e-13,1.292773518e-13,3.069301429e-14,6.639957095e-14,1.505404581e-13,3.78789428e-14,7.007918251e-14,1.056673456e-13,7.875806915e-14,1.491289012e-13,2.368718609e-14,3.446683871e-14,1.909795042e-13,3.692672564e-14,4.10251899e-14,4.658293413e-14,1.699288595e-14,9.609211773e-14,5.986413904e-13,1.753863394e-13,3.335889263e-13,2.67880617e-14,2.341009236e-13,3.827371025e-14
0.640625,2.52059173e-14,1.383922377e-13,5.232011433e-14,1.342563694e-13,5.691427959e-14,4.11551376e-14,9.325401729e-14,4.835733092e-14,1.105239782e-13,1.303020482e-13,2.921622136e-14,7.011850672e-14,1.554014976e-13,3.743826497e-14,6.742156091e-14,1.044562977e-13,7.835598754e-14,1.454697088e-13,2.25943741e-14,3.293016854e-14,1.914027864e-13,3.805897771e-14,4.033753892e-14,4.814026978e-14,1.77469026e-14,9.779633976e-14,5.980068554e-13,1.755928101e-13,3.417660532e-13,2.735524074e-14,2.336941983e-13,3.858344473e-14
0.6484375,2.56691259e-14,1.394311446e-13,5.105554282e-14,1.345840413e-13,5.500794723e-14,3.877830169e-14,9.276934005e-14,4.990657555e-14,1.148705644e-13,1.311931754e-13,2.79712447e-14,7.420743992e-14,1.605913396e-13,3.737340828e-14,6.478911946e-14,1.03064054e-13,7.786233962e-14,1.42113738e-13,2.164437715e-14,3.143367507e-14,1.916384283e-13,3.924021553e-14,3.976581019e-14,4.996477594e-14,1.855537484e-14,9.95308209e-14,5.963182896e-13,1.760093027e-13,3.495539474e-13,2.801805223e-14,2.33202922e-13,3.909153579e-14
0.65625,2.626315256e-14,1.406348206e-13,5.011770298e-14,1.35002866e-13,5.32048755e-14,3.661025507e-14,9.225283312e-14,5.17284297e-14,1.194862322e-13,1.320735653e-13,2.694365459e-14,7.868083433e-14,1.65975991e-13,3.767880501e-14,6.220972044e-14,1.014452598e-13,7.724626893e-14,1.387915109e-13,2.08123432e-14,3.005183486e-14,1.916947546e-13,4.044675735e-14,3.929417829e-14,5.197931552e-14,1.945226897e-14,1.012391289e-13,5.937808155e-13,1.769294918e-13,3.570115648e-13,2.879639451e-14,2.326512699e-13,3.97360435e-14
0.6640625,2.691897683e-14,1.41896647e-13,4.951573201e-14,1.35599042e-13,5.135467602e-14,3.478622412e-14,9.160789847e-14,5.379385756e-14,1.24371619e-13,1.327711836e-13,2.606871094e-14,8.33515104e-14,1.713934726e-13,3.823682627e-14,5.976825484e-14,9.97254891e-14,7.663567946e-14,1.354624658e-13,2.008086181e-14,2.875044108e-14,1.915054233e-13,4.163829501e-14,3.885558962e-14,5.400591402e-14,2.041012973e-14,1.027794054e-13,5.903794099e-13,1.782539669e-13,3.640410792e-13,2.96339547e-14,2.31767477e-13,4.042088208e-14
0.671875,2.757360171e-14,1.429091858e-13,4.912099773e-14,1.363159938e-13,4.948642444e-14,3.314067907e-14,9.100245116e-14,5.604132264e-14,1.292659114e-13,1.330812791e-13,2.529923001e-14,8.805621813e-14,1.765638158e-13,3.887270676e-14,5.743862619e-14,9.79435601e-14,7.608060102e-14,1.320958947e-13,1.938989944e-14,2.749987743e-14,1.910842706e-13,4.279597633e-14,3.84628366e-14,5.612635561e-14,2.1360519e-14,1.04148488e-13,5.856345793e-13,1.797440008e-13,3.703499159e-13,3.048231982e-14,2.303323043e-13,4.116910003e-14
0.6796875,2.830559467e-14,1.435985841e-13,4.892809003e-14,1.370858335e-13,4.776480211e-14,3.16252412e-14,9.041381665e-14,5.847433837e-14,1.340193816e-13,1.330979636e-13,2.462944938e-14,9.279743666e-14,1.812874528e-13,3.954069258e-14,5.522474123e-14,9.624038902e-14,7.569818156e-14,1.287071317e-13,1.874976767e-14,2.62871657e-14,1.90369522e-13,4.393609589e-14,3.806339001e-14,5.838894549e-14,2.235745105e-14,1.055115921e-13,5.795415724e-13,1.814914453e-13,3.759381764e-13,3.135030792e-14,2.285537116e-13,4.202535007e-14
0.6875,2.920183113e-14,1.442748281e-13,4.892645761e-14,1.380107857e-13,4.623449129e-14,3.032482488e-14,8.961883045e-14,6.130298285e-14,1.389490872e-13,1.330687448e-13,2.407199137e-14,9.7784368e-14,1.860997539e-13,4.036305119e-14,5.316393551e-14,9.473390009e-14,7.557939538e-14,1.256495731e-13,1.824099452e-14,2.512416922e-14,1.893704345e-13,4.509302461e-14,3.761389895e-14,6.079811337e-14,2.35069943e-14,1.070788325e-13,5.730303064e-13,1.834976314e-13,3.813716027e-13,3.230503844e-14,2.270474394e-13,4.292693188e-14
0.6953125,3.018405463e-14,1.449596507e-13,4.930636076e-14,1.389897966e-13,4.472619503e-14,2.930769408e-14,8.873219363e-14,6.424928585e-14,1.43985409e-13,1.326530688e-13,2.36344385e-14,1.029863634e-13,1.910659592e-13,4.14502879e-14,5.127643623e-14,9.343793674e-14,7.562307076e-14,1.228924583e-13,1.78116414e-14,2.409059894e-14,1.881321563e-13,4.624606526e-14,3.717144583e-14,6.341464623e-14,2.479736727e-14,1.085609031e-13,5.655314575e-13,1.85578554e-13,3.862671238e-13,3.332594774e-14,2.252478523e-13,4.389680138e-14
0.703125,3.122895334e-14,1.455416575e-13,5.005582427e-14,1.397714679e-13,4.318523335e-14,2.854847172e-14,8.783056146e-14,6.720332644e-14,1.490728195e-13,1.31892826e-13,2.333851131e-14,1.083868566e-13,1.958509341e-13,4.274548974e-14,4.952435216e-14,9.218190417e-14,7.572859034e-14,1.201458313e-13,1.742939081e-14,2.32100665e-14,1.866301729e-13,4.742731612e-14,3.672326352e-14,6.619469418e-14,2.616387918e-14,1.097666647e-13,5.566100534e-13,1.877865104e-13,3.904540998e-13,3.440035731e-14,2.228613995e-13,4.497908091e-14
0.7109375,3.222724351e-14,1.458809643e-13,5.083903497e-14,1.403589474e-13,4.169395013e-14,2.780541104e-14,8.692222934e-14,7.031458925e-14,1.541568663e-13,1.308010853e-13,2.314164377e-14,1.138356721e-13,2.003139005e-13,4.409590231e-14,4.776402694e-14,9.077456249e-14,7.581075528e-14,1.17302577e-13,1.706410851e-14,2.242125783e-14,1.849025796e-13,4.859527676e-14,3.629036829e-14,6.915740343e-14,2.75137089e-14,1.108018923e-13,5.464004528e-13,1.903686479e-13,3.937617693e-13,3.549117561e-14,2.199718961e-13,4.618097465e-14
0.71875,3.320845052e-14,1.459920355e-13,5.160372983e-14,1.408160907e-13,4.023265904e-14,2.706376319e-14,8.616239031e-14,7.371441923e-14,1.592400931e-13,1.293941677e-13,2.291014212e-14,1.191982906e-13,2.044117624e-13,4.545779561e-14,4.587220945e-14,8.917460111e-14,7.577754071e-14,1.143633557e-13,1.668519945e-14,2.173060853e-14,1.830207019e-13,4.971966399e-14,3.593364739e-14,7.234025784e-14,2.889202335e-14,1.116932275e-13,5.352265685e-13,1.931537634e-13,3.96134256e-13,3.663059193e-14,2.167153708e-13,4.744791961e-14
0.7265625,3.433763377e-14,1.460052375e-13,5.266995581e-14,1.412173619e-13,3.883418062e-14,2.656680874e-14,8.547635985e-14,7.745013946e-14,1.644583832e-13,1.279309237e-13,2.260552489e-14,1.246582277e-13,2.08155104e-13,4.689914083e-14,4.40050389e-14,8.76294773e-14,7.581033841e-14,1.113388307e-13,1.636412819e-14,2.120972972e-14,1.810538293e-13,5.088704261e-14,3.559707542e-14,7.569285768e-14,3.038687466e-14,1.124292554e-13,5.232762196e-13,1.957731297e-13,3.978284697e-13,3.789491085e-14,2.131970621e-13,4.875219595e-14
0.734375,3.565556894e-14,1.460695406e-13,5.416524258e-14,1.417305002e-13,3.761885131e-14,2.628507643e-14,8.477779315e-14,8.149282562e-14,1.699509166e-13,1.264639853e-13,2.234770547e-14,1.30538347e-13,2.118304551e-13,4.853848289e-14,4.231091321e-14,8.628407052e-14,7.611458576e-14,1.083950376e-13,1.614256229e-14,2.091255261e-14,1.790988511e-13,5.215910786e-14,3.528917257e-14,7.93996813e-14,3.20099116e-14,1.130745855e-13,5.108164246e-13,1.984638299e-13,3.990401788e-13,3.928905649e-14,2.095819266e-13,5.01307412e-14
0.7421875,3.71045658e-14,1.462235681e-13,5.59430533e-14,1.422648292e-13,3.652359944e-14,2.610392586e-14,8.423414627e-14,8.567024197e-14,1.756038909e-13,1.248562609e-13,2.222191381e-14,1.367491131e-13,2.154325324e-13,5.04120284e-14,4.069581845e-14,8.493607837e-14,7.647628164e-14,1.055592409e-13,1.596968206e-14,2.08245405e-14,1.770577845e-13,5.347850626e-14,3.510833785e-14,8.341915148e-14,3.380112486e-14,1.134266752e-13,4.977904738e-13,2.015683741e-13,3.994943462e-13,4.074125809e-14,2.056910233e-13,5.163305651e-14
0.75,3.863073788e-14,1.463247198e-13,5.78464586e-14,1.426290083e-13,3.545199246e-14,2.602382625e-14,8.386195375e-14,8.994777401e-14,1.812579317e-13,1.232132846e-13,2.217974916e-14,1.430238525e-13,2.187056093e-13,5.240503183e-14,3.911565044e-14,8.342167084e-14,7.668747736e-14,1.026791566e-13,1.582543975e-14,2.08891356e-14,1.748401277e-13,5.477602619e-14,3.499993969e-14,8.749921144e-14,3.573074418e-14,1.13357258e-13,4.839724316e-13,2.048712522e-13,3.989178076e-13,4.222162892e-14,2.012551359e-13,5.326090906e-14
0.7578125,4.019284446e-14,1.462222147e-13,5.990500894e-14,1.42863497e-13,3.449874524e-14,2.603095956e-14,8.36175612e-14,9.436851849e-14,1.86783088e-13,1.215744883e-13,2.216130962e-14,1.493909909e-13,2.215761287e-13,5.446563115e-14,3.764214505e-14,8.183108011e-14,7.690704251e-14,9.979739625e-14,1.571510367e-14,2.111845922e-14,1.725664502e-13,5.598924135e-14,3.489027343e-14,9.188295118e-14,3.768580526e-14,1.132177616e-13,4.695857059e-13,2.08248551e-13,3.974775203e-13,4.373881207e-14,1.966175003e-13,5.488724699e-14
0.765625,4.180826772e-14,1.458555983e-13,6.223167925e-14,1.430518839e-13,3.373801898e-14,2.622618686e-14,8.353602928e-14,9.875877619e-14,1.919715491e-13,1.19704849e-13,2.212321667e-14,1.558058696e-13,2.23907211e-13,5.65795208e-14,3.63439929e-14,8.033110932e-14,7.728548922e-14,9.697394452e-14,1.565213154e-14,2.155303654e-14,1.701721501e-13,5.70456982e-14,3.480626932e-14,9.662464371e-14,3.969747344e-14,1.132439146e-13,4.548702414e-13,2.116261446e-13,3.954280812e-13,4.5236127e-14,1.921450279e-13,5.638343193e-14
0.7734375,4.349846057e-14,1.451588602e-13,6.495873059e-14,1.433600316e-13,3.315089326e-14,2.668927046e-14,8.355314678e-14,1.028893835e-13,1.968049425e-13,1.173233552e-13,2.199667085e-14,1.618898445e-13,2.256062618e-13,5.863465558e-14,3.532489554e-14,7.902580917e-14,7.783649579e-14,9.408110855e-14,1.561336596e-14,2.218879285e-14,1.676146515e-13,5.795728261e-14,3.476937712e-14,1.015643311e-13,4.18270289e-14,1.132151048e-13,4.394576301e-13,2.14490904e-13,3.92409047e-13,4.667949352e-14,1.873380037e-13,5.793099157e-14
0.78125,4.536020113e-14,1.443599988e-13,6.781254458e-14,1.437940285e-13,3.270559225e-14,2.723003522e-14,8.370380851e-14,1.07285573e-13,2.017694004e-13,1.148911754e-13,2.180697053e-14,1.679128236e-13,2.271781716e-13,6.067189177e-14,3.446699657e-14,7.783895448e-14,7.852047426e-14,9.126522086e-14,1.559619745e-14,2.301597675e-14,1.651353078e-13,5.885504242e-14,3.479172963e-14,1.068531686e-13,4.409337321e-14,1.130172892e-13,4.23694918e-13,2.168878283e-13,3.888092628e-13,4.822364531e-14,1.822445875e-13,5.965216974e-14
0.7890625,4.731299514e-14,1.435108664e-13,7.073656819e-14,1.438385996e-13,3.230087904e-14,2.77335685e-14,8.412042425e-14,1.11919195e-13,2.067106973e-13,1.125476664e-13,2.16736243e-14,1.740726537e-13,2.286396492e-13,6.282937089e-14,3.348095298e-14,7.642544055e-14,7.906888162e-14,8.855937823e-14,1.55606624e-14,2.399399202e-14,1.626401656e-13,5.971477994e-14,3.493021483e-14,1.125602947e-13,4.651873868e-14,1.12683443e-13,4.079192521e-13,2.195631154e-13,3.846882e-13,4.981941166e-14,1.770654066e-13,6.144553514e-14
0.796875,4.930143674e-14,1.425843223e-13,7.373910837e-14,1.432601437e-13,3.193469348e-14,2.828812647e-14,8.481091383e-14,1.165477486e-13,2.11513403e-13,1.102214476e-13,2.165405138e-14,1.804960171e-13,2.297951063e-13,6.510594553e-14,3.234304036e-14,7.46869643e-14,7.932548595e-14,8.580007647e-14,1.553449882e-14,2.5113509e-14,1.598571057e-13,6.054939893e-14,3.509338087e-14,1.184802888e-13,4.90463345e-14,1.121633303e-13,3.921009225e-13,2.225820906e-13,3.800038259e-13,5.142775599e-14,1.718803038e-13,6.319674839e-14
0.8046875,5.140527977e-14,1.416579195e-13,7.685367425e-14,1.424100686e-13,3.173966204e-14,2.897912792e-14,8.575906128e-14,1.211910174e-13,2.162762229e-13,1.078119972e-13,2.172048304e-14,1.871447086e-13,2.305962682e-13,6.745646174e-14,3.132871714e-14,7.303551686e-14,7.960926354e-14,8.29670024e-14,1.554407335e-14,2.649419557e-14,1.568898988e-13,6.137287871e-14,3.519528815e-14,1.247693567e-13,5.161786173e-14,1.114130906e-13,3.76099939e-13,2.254299368e-13,3.747590516e-13,5.312868144e-14,1.666331131e-13,6.494319125e-14
0.8125,5.36647987e-14,1.407328127e-13,8.004934624e-14,1.414541694e-13,3.169362542e-14,2.978843125e-14,8.693528276e-14,1.258121807e-13,2.208322904e-13,1.052704214e-13,2.179254056e-14,1.937020208e-13,2.310499716e-13,6.986115829e-14,3.052913479e-14,7.166005742e-14,8.01479612e-14,8.022612869e-14,1.561321828e-14,2.822234611e-14,1.538453624e-13,6.212837142e-14,3.531209832e-14,1.312264344e-13,5.433235665e-14,1.105905258e-13,3.601101195e-13,2.278881675e-13,3.691536154e-13,5.486343678e-14,1.613252627e-13,6.665967276e-14
0.8203125,5.592775882e-14,1.395897987e-13,8.315193513e-14,1.403935113e-13,3.169739515e-14,3.063266691e-14,8.813322278e-14,1.30181925e-13,2.249016265e-13,1.026116584e-13,2.179821115e-14,1.998512327e-13,2.312370764e-13,7.226717555e-14,2.979921189e-14,7.037698086e-14,8.085278143e-14,7.764160684e-14,1.574181319e-14,3.028316167e-14,1.506980948e-13,6.274006083e-14,3.555506035e-14,1.37421044e-13,5.714028077e-14,1.098444753e-13,3.442501026e-13,2.299795519e-13,3.631755373e-13,5.64927806e-14,1.559865415e-13,6.820521593e-14
0.828125,5.812873623e-14,1.381054115e-13,8.615572212e-14,1.391922519e-13,3.174425904e-14,3.14777198e-14,8.944781944e-14,1.341534334e-13,2.283623664e-13,9.979144913e-14,2.176030161e-14,2.055113415e-13,2.311874256e-13,7.469983014e-14,2.906301795e-14,6.918336272e-14,8.165325898e-14,7.51707641e-14,1.589104512e-14,3.265182154e-14,1.474430132e-13,6.314394814e-14,3.592754741e-14,1.435339692e-13,5.995508178e-14,1.090720547e-13,3.283982458e-13,2.317265261e-13,3.566237607e-13,5.805471892e-14,1.506457068e-13,6.951816674e-14
0.8359375,6.044652348e-14,1.36337356e-13,8.93818486e-14,1.376164703e-13,3.178672957e-14,3.239270191e-14,9.128729251e-14,1.377361976e-13,2.31201862e-13,9.674860966e-14,2.171917096e-14,2.10755953e-13,2.307326695e-13,7.723401544e-14,2.840477431e-14,6.815651143e-14,8.246225359e-14,7.273578278e-14,1.605861097e-14,3.524950849e-14,1.439972065e-13,6.336048858e-14,3.63608215e-14,1.498121329e-13,6.295042295e-14,1.080450733e-13,3.124277207e-13,2.329928706e-13,3.495244746e-13,5.967629434e-14,1.451737314e-13,7.068049649e-14
0.84375,6.301059561e-14,1.343491873e-13,9.291051917e-14,1.356697838e-13,3.180385414e-14,3.351540627e-14,9.346211159e-14,1.410508025e-13,2.336932876e-13,9.364986782e-14,2.165615086e-14,2.157697714e-13,2.298227452e-13,7.989780506e-14,2.796422031e-14,6.72780138e-14,8.323444148e-14,7.029261784e-14,1.626546991e-14,3.803075392e-14,1.404589688e-13,6.349776778e-14,3.681356185e-14,1.561101355e-13,6.622884083e-14,1.06671833e-13,2.963365495e-13,2.336887508e-13,3.420621056e-13,6.13975075e-14,1.394076053e-13,7.187039586e-14
0.8515625,6.574166992e-14,1.321738289e-13,9.644307909e-14,1.335784771e-13,3.18856077e-14,3.481723292e-14,9.554970713e-14,1.442373436e-13,2.361147381e-13,9.063668088e-14,2.155754455e-14,2.205755431e-13,2.285185243e-13,8.262127476e-14,2.77359424e-14,6.652144979e-14,8.405566888e-14,6.784078744e-14,1.648165342e-14,4.109369511e-14,1.370410631e-13,6.358337242e-14,3.728464431e-14,1.622771688e-13,6.964005639e-14,1.051183264e-13,2.80288356e-13,2.339944833e-13,3.342136296e-13,6.315036175e-14,1.334442886e-13,7.319258944e-14
0.859375,6.851447565e-14,1.297758317e-13,9.983478983e-14,1.313547936e-13,3.204037715e-14,3.601064925e-14,9.777066196e-14,1.472959943e-13,2.382101932e-13,8.75825914e-14,2.140333916e-14,2.249226961e-13,2.267949223e-13,8.521559875e-14,2.75688759e-14,6.58142432e-14,8.493485859e-14,6.532046395e-14,1.667647433e-14,4.448890886e-14,1.336332867e-13,6.354424073e-14,3.783187142e-14,1.682911644e-13,7.304963028e-14,1.035600061e-13,2.644462358e-13,2.338998816e-13,3.257816642e-13,6.483652306e-14,1.274265202e-13,7.445987434e-14
0.8671875,7.132634162e-14,1.272339e-13,1.031451167e-13,1.288337635e-13,3.214819426e-14,3.704928708e-14,1.002612142e-13,1.500337232e-13,2.397124316e-13,8.452879768e-14,2.120636532e-14,2.287947082e-13,2.249000803e-13,8.77184405e-14,2.744114153e-14,6.517330548e-14,8.585148591e-14,6.278412607e-14,1.692071946e-14,4.816711483e-14,1.300638813e-13,6.340870029e-14,3.854005338e-14,1.7398655e-13,7.648238858e-14,1.018766743e-13,2.489895489e-13,2.333782222e-13,3.169437733e-13,6.644710654e-14,1.214284369e-13,7.54625444e-14
0.875,7.433075291e-14,1.248322884e-13,1.065761285e-13,1.258083338e-13,3.213941376e-14,3.823998917e-14,1.028299528e-13,1.523296885e-13,2.409654628e-13,8.165089632e-14,2.108479291e-14,2.325189561e-13,2.231956828e-13,9.04808908e-14,2.747506186e-14,6.467229299e-14,8.682176701e-14,6.04105816e-14,1.730964469e-14,5.216868328e-14,1.264058159e-13,6.331255553e-14,3.936155792e-14,1.792268693e-13,8.006367571e-14,9.994585736e-14,2.341645502e-13,2.32737538e-13,3.081982194e-13,6.808881367e-14,1.156002495e-13,7.634999301e-14
0.8828125,7.762314006e-14,1.225597479e-13,1.103385854e-13,1.224563534e-13,3.212854522e-14,3.967053178e-14,1.055664941e-13,1.544107395e-13,2.422466924e-13,7.883208875e-14,2.105733287e-14,2.36220014e-13,2.214885173e-13,9.355735044e-14,2.778518851e-14,6.434737436e-14,8.786153116e-14,5.816574587e-14,1.780217493e-14,5.665243275e-14,1.228368677e-13,6.324822422e-14,4.019765963e-14,1.843453113e-13,8.381375163e-14,9.793684404e-14,2.199252078e-13,2.319089833e-13,2.995904851e-13,6.983153584e-14,1.099926343e-13,7.730599631e-14
0.890625,8.104744353e-14,1.200999281e-13,1.140813379e-13,1.193305934e-13,3.228144814e-14,4.114168491e-14,1.083553729e-13,1.564721576e-13,2.432125398e-13,7.600398253e-14,2.09745585e-14,2.396954533e-13,2.194415954e-13,9.65864938e-14,2.845510206e-14,6.440241923e-14,8.91081607e-14,5.594747487e-14,1.830530279e-14,6.174910015e-14,1.194727352e-13,6.308017236e-14,4.106393351e-14,1.894391073e-13,8.75938316e-14,9.598220908e-14,2.060853967e-13,2.304691492e-13,2.908518083e-13,7.156818354e-14,1.045518752e-13,7.826759599e-14
0.8984375,8.444960642e-14,1.174678123e-13,1.173282142e-13,1.164825567e-13,3.259456227e-14,4.252241033e-14,1.10947502e-13,1.582680219e-13,2.435998009e-13,7.329913847e-14,2.081808566e-14,2.428112856e-13,2.171945197e-13,9.93880357e-14,2.944567303e-14,6.492379181e-14,9.060698767e-14,5.384835465e-14,1.882371328e-14,6.738633581e-14,1.162250996e-13,6.278728211e-14,4.198083986e-14,1.940055639e-13,9.133987702e-14,9.403116674e-14,1.928168675e-13,2.28309149e-13,2.819857516e-13,7.317690003e-14,9.930329528e-14,7.921509948e-14
0.90625,8.789116819e-14,1.148821207e-13,1.20317366e-13,1.135766838e-13,3.304112783e-14,4.381959628e-14,1.136117256e-13,1.595898818e-13,2.436027982e-13,7.069521329e-14,2.073538435e-14,2.456014893e-13,2.149847212e-13,1.020900737e-13,3.062366492e-14,6.562804204e-14,9.218535873e-14,5.193104016e-14,1.939155808e-14,7.342900594e-14,1.130208214e-13,6.241106252e-14,4.298735228e-14,1.980624354e-13,9.509443464e-14,9.210315406e-14,1.803897578e-13,2.255550768e-13,2.73082324e-13,7.472692321e-14,9.428406555e-14,8.022617846e-14
0.9140625,9.147512905e-14,1.123012509e-13,1.233753778e-13,1.105413726e-13,3.367988634e-14,4.511090379e-14,1.164914478e-13,1.6061723e-13,2.433636287e-13,6.81723544e-14,2.078836292e-14,2.481174863e-13,2.128897893e-13,1.048100028e-13,3.195041956e-14,6.639263058e-14,9.382664472e-14,5.013985228e-14,2.004019454e-14,7.998123697e-14,1.09956262e-13,6.195371569e-14,4.414532374e-14,2.019684191e-13,9.892207524e-14,9.026012021e-14,1.687857742e-13,2.225473237e-13,2.642189311e-13,7.631973487e-14,8.954095838e-14,8.131124837e-14
0.921875,9.521558275e-14,1.096311818e-13,1.263307032e-13,1.074169112e-13,3.445797158e-14,4.644091472e-14,1.193586938e-13,1.614257574e-13,2.428055336e-13,6.57963523e-14,2.093561778e-14,2.503923272e-13,2.108563537e-13,1.07601855e-13,3.349507894e-14,6.74032818e-14,9.563265484e-14,4.847092695e-14,2.079904897e-14,8.715079827e-14,1.069505323e-13,6.140490301e-14,4.5321062e-14,2.055564101e-13,1.028408503e-13,8.848058567e-14,1.578615286e-13,2.195080384e-13,2.555111954e-13,7.791493464e-14,8.51065049e-14,8.240887352e-14
0.9296875,9.892992951e-14,1.068741255e-13,1.288201289e-13,1.04319836e-13,3.531469981e-14,4.765816266e-14,1.221218935e-13,1.618523496e-13,2.417570928e-13,6.348794161e-14,2.112680242e-14,2.522264304e-13,2.086005943e-13,1.10350982e-13,3.52918554e-14,6.872921271e-14,9.762431912e-14,4.697385411e-14,2.15885838e-14,9.487532095e-14,1.038655889e-13,6.066950391e-14,4.6386992e-14,2.08665177e-13,1.066135126e-13,8.680041147e-14,1.47601263e-13,2.160988459e-13,2.469070879e-13,7.942103948e-14,8.094320459e-14,8.338368806e-14
0.9375,1.023665461e-13,1.040073151e-13,1.306305738e-13,1.013329945e-13,3.628902121e-14,4.859309439e-14,1.248001658e-13,1.618863454e-13,2.400812441e-13,6.117535264e-14,2.133181159e-14,2.533532869e-13,2.060429063e-13,1.128227872e-13,3.725798615e-14,7.029562733e-14,9.987921481e-14,4.563262842e-14,2.234687013e-14,1.032492286e-13,1.008338936e-13,5.971879028e-14,4.746534476e-14,2.112564445e-13,1.100149346e-13,8.531276256e-14,1.380582185e-13,2.121471008e-13,2.383703005e-13,8.080773068e-14,7.70882737e-14,8.417911761e-14
0.9453125,1.055717853e-13,1.011057209e-13,1.319833057e-13,9.826140577e-14,3.733500765e-14,4.943753086e-14,1.274493179e-13,1.615529486e-13,2.378490888e-13,5.886197601e-14,2.159060538e-14,2.539970766e-13,2.034405939e-13,1.152078023e-13,3.940259576e-14,7.216202077e-14,1.024465869e-13,4.44100292e-14,2.31731714e-14,1.124265209e-13,9.799109552e-14,5.869449074e-14,4.862244404e-14,2.13218956e-13,1.131793897e-13,8.400839349e-14,1.29223357e-13,2.078914122e-13,2.299574201e-13,8.205826088e-14,7.361621212e-14,8.488013842e-14
0.953125,1.086846973e-13,9.83099055e-14,1.332222066e-13,9.504090576e-14,3.842023835e-14,5.043804005e-14,1.299825718e-13,1.607665617e-13,2.351403292e-13,5.657112555e-14,2.197260343e-14,2.544359349e-13,2.008388966e-13,1.178717537e-13,4.193964456e-14,7.450913448e-14,1.053188279e-13,4.340754932e-14,2.41221336e-14,1.224201667e-13,9.531163454e-14,5.761669809e-14,4.981340861e-14,2.146939181e-13,1.161885829e-13,8.286503834e-14,1.211380232e-13,2.034785834e-13,2.216235726e-13,8.311598138e-14,7.052751614e-14,8.550351369e-14
0.9609375,1.116945525e-13,9.562598603e-14,1.343832844e-13,9.179094631e-14,3.959433234e-14,5.146809405e-14,1.322672261e-13,1.595846135e-13,2.31964037e-13,5.446066833e-14,2.24754194e-14,2.545390035e-13,1.982444434e-13,1.206890511e-13,4.493930023e-14,7.735292694e-14,1.085712322e-13,4.270648352e-14,2.517238938e-14,1.333254099e-13,9.272768521e-14,5.645064487e-14,5.109091414e-14,2.156808287e-13,1.189984639e-13,8.192552899e-14,1.138204149e-13,1.990948827e-13,2.135108059e-13,8.403641899e-14,6.783769554e-14,8.606030479e-14
0.96875,1.145914203e-13,9.304727232e-14,1.353279453e-13,8.855368795e-14,4.085396929e-14,5.244172676e-14,1.344172959e-13,1.580700588e-13,2.28380818e-13,5.256356379e-14,2.304511987e-14,2.541778074e-13,1.957503601e-13,1.234970125e-13,4.831108071e-14,8.061096848e-14,1.122545478e-13,4.21906145e-14,2.635294417e-14,1.452190377e-13,9.026685105e-14,5.527626234e-14,5.243409805e-14,2.158778653e-13,1.216724121e-13,8.123419733e-14,1.072113161e-13,1.946896609e-13,2.058778456e-13,8.490396721e-14,6.560708525e-14,8.661551117e-14
0.9765625,1.172313894e-13,9.058286966e-14,1.357313276e-13,8.54779095e-14,4.226337799e-14,5.340318968e-14,1.363521276e-13,1.561746667e-13,2.243550436e-13,5.063473003e-14,2.363259035e-14,2.53194534e-13,1.931975687e-13,1.26293844e-13,5.204437366e-14,8.430834188e-14,1.163670013e-13,4.180598672e-14,2.763020176e-14,1.579846094e-13,8.81270671e-14,5.405542432e-14,5.369474441e-14,2.152936659e-13,1.240801986e-13,8.090153028e-14,1.01457622e-13,1.898375313e-13,1.986784879e-13,8.558612975e-14,6.394928475e-14,8.711614878e-14
0.984375,1.194764752e-13,8.809534691e-14,1.354206904e-13,8.26027723e-14,4.389136328e-14,5.421719277e-14,1.379902309e-13,1.539945592e-13,2.199077242e-13,4.858952931e-14,2.42273728e-14,2.515618204e-13,1.90649617e-13,1.289121458e-13,5.608003661e-14,8.844153027e-14,1.209406657e-13,4.163916864e-14,2.896244007e-14,1.715680532e-13,8.633426947e-14,5.272658977e-14,5.486335119e-14,2.141996861e-13,1.26097946e-13,8.101025384e-14,9.666471683e-14,1.84546673e-13,1.919318949e-13,8.604566952e-14,6.296811248e-14,8.750492123e-14
0.9921875,1.214431635e-13,8.551315178e-14,1.346863996e-13,7.975622535e-14,4.569329602e-14,5.486633528e-14,1.395372476e-13,1.515845943e-13,2.151610536e-13,4.656611045e-14,2.489374454e-14,2.496376272e-13,1.883888393e-13,1.314499558e-13,6.044111136e-14,9.306969472e-14,1.261319293e-13,4.171073763e-14,3.040269696e-14,1.862020904e-13,8.472307102e-14,5.135794455e-14,5.605966607e-14,2.127917386e-13,1.27831945e-13,8.152290184e-14,9.269755748e-14,1.789863075e-13,1.858536341e-13,8.641336035e-14,6.268543917e-14,8.786312402e-14
1,1.231181988e-13,8.299118454e-14,1.335774353e-13,7.702174365e-14,4.780119025e-14,5.54420453e-14,1.407580431e-13,1.488944959e-13,2.100699115e-13,4.46082719e-14,2.569139252e-14,2.474208267e-13,1.86250708e-13,1.341282368e-13,6.533932189e-14,9.834723252e-14,1.321760393e-13,4.201195817e-14,3.193950143e-14,2.022874733e-13,8.341681485e-14,4.996526397e-14,5.727179673e-14,2.111392502e-13,1.291517323e-13,8.254750746e-14,8.963930759e-14,1.72923453e-13,1.803704913e-13,8.659015356e-14,6.316682921e-14,8.832655003e-14
1.0078125,1.244264054e-13,8.064321355e-14,1.319422289e-13,7.457373049e-14,5.03872638e-14,5.5913393e-14,1.414626686e-13,1.460818755e-13,2.047447274e-13,4.274575777e-14,2.659949348e-14,2.447605239e-13,1.841238801e-13,1.368237451e-13,7.079146844e-14,1.04182117e-13,1.389916903e-13,4.257706362e-14,3.355231654e-14,2.198842186e-13,8.255919844e-14,4.858022081e-14,5.839208152e-14,2.092177672e-13,1.299136904e-13,8.427498906e-14,8.764265094e-14,1.664654327e-13,1.753980218e-13,8.654205846e-14,6.448316287e-14,8.897149355e-14
1.015625,1.255197755e-13,7.845810712e-14,1.299783703e-13,7.237769415e-14,5.331448149e-14,5.630021672e-14,1.420090542e-13,1.432361116e-13,1.994177164e-13,4.107261237e-14,2.761858551e-14,2.419760141e-13,1.822206371e-13,1.395158413e-13,7.665002977e-14,1.104355879e-13,1.463659184e-13,4.344083666e-14,3.530226291e-14,2.386249453e-13,8.199318981e-14,4.725085008e-14,5.949158158e-14,2.070297077e-13,1.303304559e-13,8.670263159e-14,8.667208157e-14,1.600153456e-13,1.711893871e-13,8.644223018e-14,6.662671187e-14,8.971761766e-14
1.0234375,1.264000628e-13,7.63921055e-14,1.276639205e-13,7.041376469e-14,5.646254485e-14,5.652339174e-14,1.42374272e-13,1.402506141e-13,1.939748159e-13,3.957162659e-14,2.875907571e-14,2.391125371e-13,1.805268083e-13,1.422211626e-13,8.27938107e-14,1.170729973e-13,1.543966816e-13,4.457166425e-14,3.717381981e-14,2.583251109e-13,8.168867691e-14,4.590439045e-14,6.069692126e-14,2.045551075e-13,1.305645637e-13,8.977344131e-14,8.673890599e-14,1.534901507e-13,1.678562142e-13,8.622336415e-14,6.958909985e-14,9.048825437e-14
1.03125,1.269292587e-13,7.438049899e-14,1.247744583e-13,6.864591978e-14,5.99183785e-14,5.652432888e-14,1.423659803e-13,1.371826638e-13,1.883388837e-13,3.813655022e-14,2.995678489e-14,2.360510673e-13,1.790243931e-13,1.44901913e-13,8.916906599e-14,1.239880018e-13,1.631037064e-13,4.590155043e-14,3.913266332e-14,2.790623801e-13,8.17289173e-14,4.451153905e-14,6.193484156e-14,2.018011796e-13,1.305209361e-13,9.342505494e-14,8.77165986e-14,1.467730244e-13,1.65244982e-13,8.581369678e-14,7.33196886e-14,9.134594974e-14
1.0390625,1.271926172e-13,7.248603537e-14,1.215831658e-13,6.691335032e-14,6.370125152e-14,5.65215687e-14,1.421172306e-13,1.341135743e-13,1.827086809e-13,3.675149941e-14,3.123761038e-14,2.330718068e-13,1.778860884e-13,1.479044736e-13,9.605193947e-14,1.314264208e-13,1.725033442e-13,4.753479476e-14,4.124871672e-14,3.010358929e-13,8.203206311e-14,4.313113142e-14,6.317690294e-14,1.98920083e-13,1.300718016e-13,9.759758927e-14,8.942963857e-14,1.400876938e-13,1.633576613e-13,8.535278667e-14,7.781528988e-14,9.237604405e-14
1.046875,1.2737865e-13,7.088081966e-14,1.184100435e-13,6.517627042e-14,6.778649539e-14,5.657630125e-14,1.41566386e-13,1.310568549e-13,1.772245647e-13,3.550803038e-14,3.274011995e-14,2.302361292e-13,1.771940515e-13,1.513973692e-13,1.037329199e-13,1.398207102e-13,1.829696639e-13,4.965175903e-14,4.360173219e-14,3.24678753e-13,8.258257927e-14,4.183851327e-14,6.451996993e-14,1.958333769e-13,1.2936998e-13,1.024140452e-13,9.199664622e-14,1.335146192e-13,1.623437894e-13,8.487180039e-14,8.319562851e-14,9.370077259e-14
1.0546875,1.274977092e-13,6.957855337e-14,1.15096339e-13,6.365833983e-14,7.224815374e-14,5.662621065e-14,1.405806486e-13,1.28092817e-13,1.71870756e-13,3.443541421e-14,3.448535391e-14,2.273505609e-13,1.768534276e-13,1.550633865e-13,1.120916065e-13,1.490385799e-13,1.945574558e-13,5.220280018e-14,4.618619428e-14,3.500678387e-13,8.352914156e-14,4.065599319e-14,6.589148868e-14,1.922035129e-13,1.285591586e-13,1.080002803e-13,9.547591635e-14,1.269945424e-13,1.621767889e-13,8.433710976e-14,8.945725739e-14,9.531856889e-14
1.0625,1.273743382e-13,6.848800767e-14,1.114792423e-13,6.254511735e-14,7.717738164e-14,5.669205312e-14,1.392201312e-13,1.251877229e-13,1.665229211e-13,3.341885558e-14,3.641805181e-14,2.243621561e-13,1.766583956e-13,1.587784457e-13,1.2098743e-13,1.588117072e-13,2.069177256e-13,5.503755966e-14,4.892683051e-14,3.766781011e-13,8.501785857e-14,3.944862701e-14,6.717821821e-14,1.881247239e-13,1.273365614e-13,1.143293438e-13,9.974893152e-14,1.205346845e-13,1.626680349e-13,8.373638413e-14,9.651014625e-14,9.701491102e-14
1.0703125,1.269900614e-13,6.762445305e-14,1.077799277e-13,6.169510948e-14,8.258732026e-14,5.673602699e-14,1.376245293e-13,1.223466635e-13,1.612444338e-13,3.242657019e-14,3.855087097e-14,2.213885571e-13,1.767345745e-13,1.626826318e-13,1.303906671e-13,1.691423819e-13,2.199595536e-13,5.813788789e-14,5.185290066e-14,4.041644271e-13,8.706456875e-14,3.819312905e-14,6.842452585e-14,1.84092273e-13,1.256689992e-13,1.213548828e-13,1.04752984e-13,1.142178883e-13,1.638916117e-13,8.310150725e-14,1.043915687e-13,9.876831474e-14
1.078125,1.264689242e-13,6.705733203e-14,1.04221006e-13,6.098987076e-14,8.844191122e-14,5.690317254e-14,1.359578268e-13,1.197774225e-13,1.562569102e-13,3.159334531e-14,4.089438006e-14,2.187311774e-13,1.77381163e-13,1.669448767e-13,1.402728659e-13,1.799798512e-13,2.337550348e-13,6.159722415e-14,5.506740261e-14,4.325783292e-13,8.956768966e-14,3.704438115e-14,6.967039863e-14,1.802533327e-13,1.239061145e-13,1.290485064e-13,1.104404326e-13,1.082727631e-13,1.662053241e-13,8.255162626e-14,1.131956133e-13,1.007201485e-13
1.0859375,1.256848476e-13,6.677620346e-14,1.007016863e-13,6.061797336e-14,9.478357306e-14,5.723486931e-14,1.341637318e-13,1.175167567e-13,1.514899573e-13,3.093099811e-14,4.341819254e-14,2.162696556e-13,1.782801978e-13,1.714832241e-13,1.507750905e-13,1.913914716e-13,2.484356991e-13,6.546046172e-14,5.846888162e-14,4.622287061e-13,9.256241735e-14,3.598056208e-14,7.090195091e-14,1.764556941e-13,1.219595362e-13,1.375184053e-13,1.168209605e-13,1.02753625e-13,1.695536274e-13,8.198296422e-14,1.229500884e-13,1.029408633e-13
1.09375,1.24504006e-13,6.671560102e-14,9.713026616e-14,6.068819438e-14,1.017338066e-13,5.74505988e-14,1.321165194e-13,1.154650619e-13,1.468707259e-13,3.030952206e-14,4.609576665e-14,2.135295232e-13,1.790042228e-13,1.758887019e-13,1.620232322e-13,2.03545285e-13,2.642230592e-13,6.960572396e-14,6.191670374e-14,4.93588948e-13,9.616676514e-14,3.494627854e-14,7.209771752e-14,1.727465428e-13,1.197279888e-13,1.469054631e-13,1.239772583e-13,9.752085122e-14,1.734899118e-13,8.117279728e-14,1.33594075e-13,1.055407515e-13
1.1015625,1.230162621e-13,6.690632318e-14,9.354605711e-14,6.114768468e-14,1.093737241e-13,5.767512493e-14,1.298250102e-13,1.137039922e-13,1.42553134e-13,2.97291178e-14,4.895485218e-14,2.106795262e-13,1.797311587e-13,1.801798269e-13,1.739942915e-13,2.164034112e-13,2.81196678e-13,7.39794634e-14,6.547190906e-14,5.267174048e-13,1.00353797e-13,3.402324146e-14,7.32437004e-14,1.692926967e-13,1.173581798e-13,1.570874992e-13,1.320211528e-13,9.267875716e-14,1.780526031e-13,8.020012454e-14,1.451288257e-13,1.084761753e-13
1.109375,1.212320778e-13,6.739061665e-14,8.990579401e-14,6.199736582e-14,1.177048538e-13,5.811763123e-14,1.272816529e-13,1.123823707e-13,1.386203405e-13,2.924852331e-14,5.203973083e-14,2.081866454e-13,1.807790729e-13,1.847529473e-13,1.865614763e-13,2.299059463e-13,2.992846981e-13,7.868484043e-14,6.918388975e-14,5.611636278e-13,1.050985744e-13,3.32248791e-14,7.43369622e-14,1.663084849e-13,1.147429632e-13,1.679201721e-13,1.409360304e-13,8.817606272e-14,1.836273859e-13,7.922287579e-14,1.575789491e-13,1.116233359e-13
1.1171875,1.191022724e-13,6.803679663e-14,8.622905129e-14,6.317148536e-14,1.266372332e-13,5.855163719e-14,1.246425401e-13,1.115813547e-13,1.351584249e-13,2.881370853e-14,5.529462896e-14,2.06106533e-13,1.822401835e-13,1.896233959e-13,1.995466616e-13,2.439688129e-13,3.182133526e-13,8.368447051e-14,7.303248071e-14,5.963422217e-13,1.103143332e-13,3.256480915e-14,7.52998912e-14,1.639985719e-13,1.118274286e-13,1.793590713e-13,1.503765339e-13,8.371626495e-14,1.902466247e-13,7.826227156e-14,1.70751525e-13,1.150838282e-13
1.125,1.166689731e-13,6.882340008e-14,8.255994226e-14,6.46379049e-14,1.36124493e-13,5.900702326e-14,1.22081241e-13,1.112711058e-13,1.321315309e-13,2.838842485e-14,5.870845109e-14,2.042698902e-13,1.839235032e-13,1.946811391e-13,2.131478157e-13,2.585637915e-13,3.378198382e-13,8.895666814e-14,7.705347069e-14,6.31916669e-13,1.158785262e-13,3.206964114e-14,7.608831075e-14,1.621809059e-13,1.08729178e-13,1.913175843e-13,1.602309753e-13,7.94119889e-14,1.977773783e-13,7.730881495e-14,1.845881932e-13,1.188894889e-13
1.1328125,1.14023083e-13,6.99445948e-14,7.879306357e-14,6.651105007e-14,1.463150346e-13,5.967514365e-14,1.194930031e-13,1.11338777e-13,1.293580767e-13,2.800005318e-14,6.240161566e-14,2.024995339e-13,1.856134301e-13,1.999269214e-13,2.277107589e-13,2.739860318e-13,3.584990451e-13,9.466305851e-14,8.128133569e-14,6.682815882e-13,1.219878967e-13,3.16614395e-14,7.677226507e-14,1.606204502e-13,1.055132767e-13,2.03926797e-13,1.708492534e-13,7.540328592e-14,2.061816316e-13,7.632498243e-14,1.993549146e-13,1.230329649e-13
1.140625,1.112779004e-13,7.138149731e-14,7.50053383e-14,6.875826058e-14,1.572843847e-13,6.048301609e-14,1.168055818e-13,1.118544412e-13,1.269540339e-13,2.76812605e-14,6.63331639e-14,2.009268251e-13,1.875098587e-13,2.053371821e-13,2.430906179e-13,2.902848657e-13,3.80388417e-13,1.007443852e-13,8.569229173e-14,7.056486042e-13,1.286989959e-13,3.133778637e-14,7.733706305e-14,1.594666208e-13,1.022921498e-13,2.172917296e-13,1.821336592e-13,7.155648164e-14,2.154682323e-13,7.533874733e-14,2.150422727e-13,1.27573012e-13
1.1484375,1.084949415e-13,7.300592991e-14,7.148473299e-14,7.124271704e-14,1.688678499e-13,6.148431307e-14,1.140396113e-13,1.130724918e-13,1.250950973e-13,2.752773704e-14,7.034138577e-14,1.998681106e-13,1.897853099e-13,2.109668253e-13,2.590258863e-13,3.07022269e-13,4.030398762e-13,1.070010949e-13,9.023715208e-14,7.433809171e-13,1.356652755e-13,3.120765956e-14,7.78047896e-14,1.588490979e-13,9.91028342e-14,2.310817532e-13,1.935959097e-13,6.794034343e-14,2.258104168e-13,7.442294574e-14,2.313979949e-13,1.323242499e-13
1.15625,1.056772834e-13,7.48879951e-14,6.835092184e-14,7.398939025e-14,1.809702344e-13,6.274682289e-14,1.11267614e-13,1.150103444e-13,1.237834904e-13,2.753530066e-14,7.443734421e-14,1.993006341e-13,1.922412496e-13,2.167414008e-13,2.754679612e-13,3.240669487e-13,4.264877092e-13,1.135064765e-13,9.490052391e-14,7.815348303e-13,1.429336235e-13,3.131579378e-14,7.834627328e-14,1.590198913e-13,9.595330108e-14,2.451774093e-13,2.05290588e-13,6.463687205e-14,2.373020372e-13,7.354661325e-14,2.48421419e-13,1.372577337e-13
1.1640625,1.027799871e-13,7.703264635e-14,6.557948836e-14,7.710816084e-14,1.936722037e-13,6.420054276e-14,1.086475332e-13,1.173649354e-13,1.230357395e-13,2.751939001e-14,7.869563543e-14,1.990328935e-13,1.947556588e-13,2.225062137e-13,2.924579807e-13,3.416648977e-13,4.51047639e-13,1.203654557e-13,9.966067189e-14,8.205171452e-13,1.508094353e-13,3.162296716e-14,7.893811632e-14,1.603714147e-13,9.287376498e-14,2.598841691e-13,2.175857108e-13,6.164358575e-14,2.4965224e-13,7.269627938e-14,2.66169192e-13,1.426305091e-13
1.171875,9.976716295e-14,7.937495498e-14,6.313177674e-14,8.065472786e-14,2.0707551e-13,6.592563496e-14,1.06088877e-13,1.20030192e-13,1.226913456e-13,2.748163245e-14,8.314875458e-14,1.98831718e-13,1.973273262e-13,2.282946794e-13,3.101194058e-13,3.598751185e-13,4.764967664e-13,1.274815409e-13,1.044794019e-13,8.596175632e-13,1.592092751e-13,3.207893037e-14,7.942636608e-14,1.625666077e-13,8.979392396e-14,2.752366351e-13,2.304904102e-13,5.909541515e-14,2.625521653e-13,7.190683711e-14,2.846296306e-13,1.484201204e-13
1.1796875,9.673699069e-14,8.196779562e-14,6.101787352e-14,8.455459929e-14,2.212252413e-13,6.790436004e-14,1.034426291e-13,1.232921365e-13,1.226568936e-13,2.755613737e-14,8.781037086e-14,1.985385108e-13,1.999444203e-13,2.340604786e-13,3.283830178e-13,3.785802372e-13,5.025800334e-13,1.347670092e-13,1.094082293e-13,8.985359353e-13,1.680218513e-13,3.271148028e-14,7.9825374e-14,1.651080197e-13,8.678107575e-14,2.910209299e-13,2.437270089e-13,5.694570952e-14,2.759513578e-13,7.114057545e-14,3.0379614e-13,1.545689006e-13
1.1875,9.373619542e-14,8.477132715e-14,5.941024206e-14,8.865900167e-14,2.360010778e-13,6.999057552e-14,1.008571585e-13,1.272955068e-13,1.231630505e-13,2.768285665e-14,9.260565482e-14,1.984312676e-13,2.026988945e-13,2.397164822e-13,3.471376127e-13,3.976257608e-13,5.292130829e-13,1.421692531e-13,1.14405864e-13,9.375892304e-13,1.771627841e-13,3.358469455e-14,8.015718372e-14,1.682725116e-13,8.391505797e-14,3.070452992e-13,2.570364229e-13,5.506576724e-14,2.898253104e-13,7.037418702e-14,3.233915373e-13,1.610632105e-13
1.1953125,9.070924729e-14,8.771171512e-14,5.83891397e-14,9.292529214e-14,2.512496851e-13,7.226357356e-14,9.844877934e-14,1.319082563e-13,1.242620739e-13,2.785829842e-14,9.748791689e-14,1.986914394e-13,2.057269607e-13,2.452988227e-13,3.663753125e-13,4.168479856e-13,5.561327426e-13,1.496125204e-13,1.193178856e-13,9.761609792e-13,1.864248481e-13,3.467851832e-14,8.043352255e-14,1.723286112e-13,8.111748333e-14,3.231077821e-13,2.703688226e-13,5.357020083e-14,3.041407967e-13,6.965403466e-14,3.431387899e-13,1.676813035e-13
1.203125,8.772984417e-14,9.086461197e-14,5.778314483e-14,9.74084164e-14,2.671145532e-13,7.47318387e-14,9.622438184e-14,1.371434796e-13,1.259190134e-13,2.815266343e-14,1.025166772e-13,1.991310971e-13,2.090749992e-13,2.507969959e-13,3.857805056e-13,4.362216434e-13,5.83233373e-13,1.571547221e-13,1.242617596e-13,1.014062626e-12,1.959695647e-13,3.596162889e-14,8.073701593e-14,1.772510604e-13,7.848649866e-14,3.393130566e-13,2.838930153e-13,5.250223281e-14,3.190129749e-13,6.900206936e-14,3.633429338e-13,1.745654059e-13
1.2109375,8.483428956e-14,9.429424404e-14,5.756510754e-14,1.022260509e-13,2.839014725e-13,7.727473948e-14,9.420742601e-14,1.430904216e-13,1.282377721e-13,2.84371775e-14,1.077352764e-13,1.997821533e-13,2.126189835e-13,2.563500199e-13,4.054016171e-13,4.560133522e-13,6.108723083e-13,1.650017065e-13,1.293921529e-13,1.052065429e-12,2.060645245e-13,3.745252669e-14,8.1028971e-14,1.831129866e-13,7.608705771e-14,3.55987044e-13,2.977885243e-13,5.171936806e-14,3.346136224e-13,6.839554087e-14,3.844716386e-13,1.820276074e-13
1.21875,8.192835224e-14,9.803226276e-14,5.785986921e-14,1.07428283e-13,3.015834916e-13,8.003310694e-14,9.239826821e-14,1.497245499e-13,1.311187471e-13,2.870599352e-14,1.131325449e-13,2.006956982e-13,2.162734237e-13,2.620638327e-13,4.257723831e-13,4.765894679e-13,6.394767703e-13,1.732190531e-13,1.345632806e-13,1.090201985e-12,2.164835521e-13,3.917788868e-14,8.12706832e-14,1.899103156e-13,7.374640139e-14,3.730309693e-13,3.120820589e-13,5.116889336e-14,3.509757106e-13,6.780685619e-14,4.065163218e-13,1.898215288e-13
1.2265625,7.90360174e-14,1.02050136e-13,5.863821282e-14,1.127534141e-13,3.197114985e-13,8.308619538e-14,9.090151063e-14,1.570469875e-13,1.345595175e-13,2.913560496e-14,1.186076539e-13,2.018089558e-13,2.202165658e-13,2.676153642e-13,4.465332917e-13,4.977530145e-13,6.688280933e-13,1.816065978e-13,1.396942795e-13,1.128077261e-12,2.269833631e-13,4.123571656e-14,8.158373849e-14,1.977764038e-13,7.146791975e-14,3.900497811e-13,3.265478704e-13,5.094264968e-14,3.679546721e-13,6.722863688e-14,4.291476093e-13,1.977582693e-13
1.234375,7.622796004e-14,1.062270183e-13,5.994096487e-14,1.180199731e-13,3.381108549e-13,8.628044231e-14,8.970727898e-14,1.650642744e-13,1.388362502e-13,2.967707476e-14,1.241197745e-13,2.033364544e-13,2.245652013e-13,2.728707697e-13,4.670384608e-13,5.189475253e-13,6.983456671e-13,1.90011894e-13,1.44803473e-13,1.165678949e-12,2.376908407e-13,4.374634269e-14,8.197072937e-14,2.06916041e-13,6.940221133e-14,4.07030556e-13,3.409454245e-13,5.109642781e-14,3.854631696e-13,6.667422294e-14,4.521972409e-13,2.060710464e-13
1.2421875,7.348668971e-14,1.106143302e-13,6.190803012e-14,1.235012742e-13,3.572951086e-13,8.970527357e-14,8.860670926e-14,1.738307897e-13,1.439102643e-13,3.022552723e-14,1.298647785e-13,2.05307486e-13,2.292255685e-13,2.780875228e-13,4.875690638e-13,5.403848858e-13,7.282361686e-13,1.98548855e-13,1.498228344e-13,1.203091786e-12,2.487088281e-13,4.66611251e-14,8.231463429e-14,2.171362944e-13,6.754459174e-14,4.242663474e-13,3.555630686e-13,5.157515363e-14,4.036270162e-13,6.616567442e-14,4.759038073e-13,2.148111679e-13
1.25,7.083572698e-14,1.152908632e-13,6.449467518e-14,1.293195975e-13,3.774977842e-13,9.351235559e-14,8.770207759e-14,1.83410869e-13,1.494787079e-13,3.081907249e-14,1.358831678e-13,2.073815172e-13,2.341279767e-13,2.832376739e-13,5.084087478e-13,5.626065138e-13,7.588786799e-13,2.073617591e-13,1.547975576e-13,1.240270685e-12,2.598773193e-13,4.985783212e-14,8.268555097e-14,2.282299089e-13,6.585290414e-14,4.417139503e-13,3.707691763e-13,5.24009848e-14,4.22463553e-13,6.571846118e-14,5.004429532e-13,2.238528742e-13
1.2578125,6.837282615e-14,1.20128629e-13,6.769944699e-14,1.352062821e-13,3.982095637e-13,9.758126119e-14,8.717758066e-14,1.93652184e-13,1.55473159e-13,3.146332042e-14,1.419161047e-13,2.095251715e-13,2.392477761e-13,2.881155498e-13,5.293996359e-13,5.853502077e-13,7.898753909e-13,2.164393434e-13,1.597741999e-13,1.277006045e-12,2.710038999e-13,5.338137497e-14,8.323723876e-14,2.402313673e-13,6.440333679e-14,4.59082011e-13,3.862856293e-13,5.367380484e-14,4.418904159e-13,6.532308102e-14,5.25574082e-13,2.331276878e-13
1.265625,6.61143258e-14,1.251651077e-13,7.165384023e-14,1.410668907e-13,4.192989631e-13,1.018490426e-13,8.686275365e-14,2.045475378e-13,1.620884621e-13,3.220704139e-14,1.47919923e-13,2.119654892e-13,2.446565959e-13,2.926703716e-13,5.503860603e-13,6.081994265e-13,8.210821274e-13,2.256294921e-13,1.646316796e-13,1.313377751e-12,2.821216096e-13,5.735142804e-14,8.392706902e-14,2.53320349e-13,6.322734962e-14,4.763496711e-13,4.019416219e-13,5.537343132e-14,4.620223467e-13,6.496507343e-14,5.512618407e-13,2.425242668e-13
1.2734375,6.392558323e-14,1.305279492e-13,7.636909053e-14,1.469840859e-13,4.41057458e-13,1.063424722e-13,8.667506208e-14,2.162989311e-13,1.694774897e-13,3.31274986e-14,1.540446383e-13,2.146912564e-13,2.504411903e-13,2.967704326e-13,5.711630824e-13,6.311608237e-13,8.525289619e-13,2.346859967e-13,1.692584785e-13,1.349282291e-12,2.932938677e-13,6.176988602e-14,8.458949883e-14,2.676586083e-13,6.218503454e-14,4.934305226e-13,4.179023413e-13,5.745416449e-14,4.827299501e-13,6.463522369e-14,5.776021854e-13,2.519487943e-13
1.28125,6.172516319e-14,1.361165499e-13,8.182994863e-14,1.529265157e-13,4.633777516e-13,1.109643801e-13,8.661952486e-14,2.28755091e-13,1.774810983e-13,3.414679333e-14,1.602500415e-13,2.174703152e-13,2.564681354e-13,3.002494497e-13,5.9168464e-13,6.542679757e-13,8.838473949e-13,2.435987254e-13,1.736019179e-13,1.38402552e-12,3.044095928e-13,6.658115027e-14,8.522649729e-14,2.829309469e-13,6.121609896e-14,5.101620294e-13,4.340391929e-13,5.992469349e-14,5.037885758e-13,6.428726629e-14,6.044855705e-13,2.614318297e-13
1.2890625,5.963132629e-14,1.419859659e-13,8.802055084e-14,1.588728788e-13,4.86305931e-13,1.156381958e-13,8.648824515e-14,2.418449209e-13,1.859973527e-13,3.519347171e-14,1.664583311e-13,2.202186376e-13,2.627388424e-13,3.031975781e-13,6.120035212e-13,6.776842249e-13,9.154891204e-13,2.527056892e-13,1.777279451e-13,1.417997057e-12,3.154243732e-13,7.177432933e-14,8.600816907e-14,2.990197674e-13,6.039930296e-14,5.270685882e-13,4.507338266e-13,6.274608397e-14,5.256861761e-13,6.388860365e-14,6.324597181e-13,2.711142039e-13
1.296875,5.774894371e-14,1.482861849e-13,9.492163011e-14,1.64815535e-13,5.100635057e-13,1.203449883e-13,8.635452644e-14,2.558384198e-13,1.952974412e-13,3.630055368e-14,1.726629567e-13,2.232120308e-13,2.696628363e-13,3.058524281e-13,6.319270492e-13,7.014731138e-13,9.47886703e-13,2.620880506e-13,1.81767866e-13,1.451998155e-12,3.26329157e-13,7.740690572e-14,8.695594556e-14,3.164778154e-13,5.96964829e-14,5.445796971e-13,4.686239937e-13,6.599339246e-14,5.488515575e-13,6.350578158e-14,6.622103497e-13,2.810415948e-13
1.3046875,5.60272549e-14,1.548998941e-13,1.026958678e-13,1.706550273e-13,5.342312295e-13,1.250662246e-13,8.657458483e-14,2.705471947e-13,2.054649698e-13,3.74861475e-14,1.787648176e-13,2.267124549e-13,2.775131786e-13,3.082993353e-13,6.512808547e-13,7.252732637e-13,9.800707568e-13,2.714248806e-13,1.856608969e-13,1.485170094e-12,3.369904378e-13,8.358294764e-14,8.796409487e-14,3.352386695e-13,5.906089079e-14,5.621013516e-13,4.871675942e-13,6.986382536e-14,5.730866703e-13,6.319259326e-14,6.933315972e-13,2.910489446e-13
1.3125,5.440489168e-14,1.618909873e-13,1.114117716e-13,1.763615209e-13,5.585764447e-13,1.298536817e-13,8.709487393e-14,2.857114267e-13,2.163317669e-13,3.882029214e-14,1.847301839e-13,2.307069964e-13,2.861718627e-13,3.105292337e-13,6.701088123e-13,7.490423055e-13,1.011830012e-12,2.807140148e-13,1.893754053e-13,1.517159942e-12,3.474569955e-13,9.033757953e-14,8.909906029e-14,3.547598945e-13,5.857945133e-14,5.794095643e-13,5.060509399e-13,7.429838096e-14,5.985990534e-13,6.288549971e-14,7.256852263e-13,3.01158555e-13
1.3203125,5.289143322e-14,1.695040435e-13,1.209120877e-13,1.820614599e-13,5.835723582e-13,1.347661636e-13,8.764800767e-14,3.016187566e-13,2.27962502e-13,4.040602478e-14,1.907686876e-13,2.351704794e-13,2.956130534e-13,3.12610763e-13,6.88568504e-13,7.731677346e-13,1.044201571e-12,2.903370282e-13,1.930817255e-13,1.549209177e-12,3.578916672e-13,9.764954285e-14,9.046570438e-14,3.751616043e-13,5.825007017e-14,5.971579988e-13,5.261063281e-13,7.917752875e-14,6.257623078e-13,6.254813613e-14,7.60113044e-13,3.115585929e-13
1.328125,5.150434777e-14,1.776539907e-13,1.311357076e-13,1.87728158e-13,6.091750961e-13,1.396865443e-13,8.828034674e-14,3.182432815e-13,2.404255305e-13,4.218315467e-14,1.969435077e-13,2.400190479e-13,3.060333104e-13,3.144181567e-13,7.064627314e-13,7.975695347e-13,1.077016225e-12,3.002767674e-13,1.967113813e-13,1.581296195e-12,3.681340943e-13,1.055579478e-13,9.20076547e-14,3.965847663e-13,5.796360344e-14,6.153455027e-13,5.474029968e-13,8.463101597e-14,6.543032509e-13,6.223341275e-14,7.968485435e-13,3.220561567e-13
1.3359375,5.024197606e-14,1.862720286e-13,1.420271042e-13,1.930510383e-13,6.348576706e-13,1.443612293e-13,8.903507529e-14,3.351936868e-13,2.536809697e-13,4.404155186e-14,2.02890602e-13,2.451000768e-13,3.175019347e-13,3.15672526e-13,7.231535444e-13,8.217071656e-13,1.109248088e-12,3.100893661e-13,2.000255591e-13,1.612321205e-12,3.779286054e-13,1.140756359e-13,9.369161497e-14,4.188827223e-13,5.771284566e-14,6.335151621e-13,5.694517466e-13,9.064208647e-14,6.841090462e-13,6.192500917e-14,8.355879867e-13,3.324403953e-13
1.34375,4.909858695e-14,1.955202928e-13,1.536672473e-13,1.979901873e-13,6.60765213e-13,1.488270836e-13,8.977458596e-14,3.525714771e-13,2.67773721e-13,4.60267565e-14,2.084697489e-13,2.504947285e-13,3.299672604e-13,3.164963694e-13,7.387809277e-13,8.455644014e-13,1.140919282e-12,3.197656377e-13,2.031440617e-13,1.642524372e-12,3.873490866e-13,1.231468289e-13,9.551888248e-14,4.420112746e-13,5.752735214e-14,6.51955422e-13,5.925160178e-13,9.715481996e-14,7.155069059e-13,6.155774279e-14,8.766223193e-13,3.429694e-13
1.3515625,4.802950082e-14,2.054360878e-13,1.664537188e-13,2.02955617e-13,6.875142081e-13,1.53418013e-13,9.061008387e-14,3.706508144e-13,2.825481216e-13,4.817223268e-14,2.141450246e-13,2.562526862e-13,3.433541698e-13,3.170936498e-13,7.541398065e-13,8.698141592e-13,1.172732036e-12,3.298117536e-13,2.062885051e-13,1.672687831e-12,3.966062401e-13,1.32719228e-13,9.743033956e-14,4.657889321e-13,5.734252138e-14,6.710592353e-13,6.167991329e-13,1.043633816e-13,7.484431152e-13,6.115306387e-14,9.204738229e-13,3.537966531e-13
1.359375,4.696041608e-14,2.159952695e-13,1.803661648e-13,2.080170477e-13,7.152351393e-13,1.580878693e-13,9.17242712e-14,3.892843905e-13,2.977493913e-13,5.044501138e-14,2.200791367e-13,2.622147224e-13,3.574937575e-13,3.172029917e-13,7.689619906e-13,8.944369577e-13,1.204604061e-12,3.403607961e-13,2.093907772e-13,1.702446131e-12,4.056429934e-13,1.42722516e-13,9.946373229e-14,4.901943645e-13,5.71293387e-14,6.907204292e-13,6.422082063e-13,1.122548993e-13,7.827486403e-13,6.074956133e-14,9.673966348e-13,3.647343312e-13
1.3671875,4.591115055e-14,2.271819855e-13,1.949507236e-13,2.12715535e-13,7.432871124e-13,1.624614024e-13,9.296064196e-14,4.081008251e-13,3.134458511e-13,5.293890709e-14,2.257909657e-13,2.684812387e-13,3.724606719e-13,3.167438038e-13,7.823630159e-13,9.184229085e-13,1.235635352e-12,3.510760411e-13,2.123863878e-13,1.7312391e-12,4.142164275e-13,1.53198448e-13,1.01722697e-13,5.154229978e-13,5.693845159e-14,7.109308432e-13,6.690074282e-13,1.20722844e-13,8.188647629e-13,6.03438102e-14,1.017535525e-12,3.756791402e-13
1.375,4.497703738e-14,2.389878408e-13,2.10211548e-13,2.168512326e-13,7.710480362e-13,1.664889007e-13,9.416928441e-14,4.269348337e-13,3.297824847e-13,5.565294712e-14,2.311051058e-13,2.753208022e-13,3.886513421e-13,3.161918486e-13,7.942019785e-13,9.41473722e-13,1.26555547e-12,3.619061841e-13,2.153091687e-13,1.759597208e-12,4.223135369e-13,1.643048687e-13,1.042186014e-13,5.413910152e-13,5.676782457e-14,7.317834862e-13,6.975606514e-13,1.298472282e-13,8.573847562e-13,5.993418951e-14,1.071011765e-12,3.866163558e-13
1.3828125,4.414967254e-14,2.515946783e-13,2.264074126e-13,2.2069489e-13,7.987928718e-13,1.703149581e-13,9.533013773e-14,4.458486437e-13,3.466753759e-13,5.837064966e-14,2.36299512e-13,2.826298233e-13,4.061588162e-13,3.157876781e-13,8.047435174e-13,9.640562514e-13,1.294774856e-12,3.731134049e-13,2.181699835e-13,1.787912836e-12,4.300883299e-13,1.759902892e-13,1.068895536e-13,5.679418645e-13,5.656429047e-14,7.531978771e-13,7.280312407e-13,1.396461995e-13,8.984749514e-13,5.951210795e-14,1.128037307e-12,3.975212304e-13
1.390625,4.335496007e-14,2.651437408e-13,2.434610893e-13,2.24508368e-13,8.270147971e-13,1.739357331e-13,9.635855456e-14,4.646791572e-13,3.639022137e-13,6.110339033e-14,2.41440716e-13,2.901445558e-13,4.247171045e-13,3.152328231e-13,8.141081191e-13,9.861335793e-13,1.323174828e-12,3.847966198e-13,2.211152665e-13,1.815531689e-12,4.375234015e-13,1.880652852e-13,1.09634955e-13,5.947329855e-13,5.628940648e-14,7.752410104e-13,7.603609561e-13,1.502069765e-13,9.421238134e-13,5.907873276e-14,1.18905482e-12,4.083698134e-13
1.3984375,4.262266451e-14,2.796095014e-13,2.611086405e-13,2.282846904e-13,8.555461536e-13,1.772525807e-13,9.72950202e-14,4.832140974e-13,3.813929686e-13,6.401944503e-14,2.46435549e-13,2.980062562e-13,4.443081624e-13,3.143168677e-13,8.220782226e-13,1.007485676e-12,1.35045305e-12,3.96863835e-13,2.242255659e-13,1.842213605e-12,4.445789025e-13,2.005141478e-13,1.124577932e-13,6.214124588e-13,5.595074839e-14,7.980995629e-13,7.944439709e-13,1.61497561e-13,9.883846653e-13,5.8654256e-14,1.254444227e-12,4.191199133e-13
1.40625,4.201128249e-14,2.950861744e-13,2.792420844e-13,2.318442013e-13,8.842002201e-13,1.801170926e-13,9.824554774e-14,5.016859661e-13,3.993871801e-13,6.706445854e-14,2.512400797e-13,3.066188667e-13,4.653432307e-13,3.133509919e-13,8.283889126e-13,1.02798324e-12,1.376419083e-12,4.092714678e-13,2.273920031e-13,1.868170069e-12,4.512884481e-13,2.13419018e-13,1.154306469e-13,6.483745189e-13,5.553688393e-14,8.218213785e-13,8.304541398e-13,1.733103213e-13,1.03771718e-12,5.826335059e-14,1.324344828e-12,4.298376791e-13
1.4140625,4.149961002e-14,3.117424842e-13,2.980015078e-13,2.351608194e-13,9.131020141e-13,1.82505614e-13,9.927103766e-14,5.201848208e-13,4.179331897e-13,7.017627919e-14,2.558073077e-13,3.161322847e-13,4.881129882e-13,3.12954291e-13,8.334295457e-13,1.047400873e-12,1.400614714e-12,4.223002151e-13,2.307763861e-13,1.892934704e-12,4.574994697e-13,2.26781864e-13,1.184673746e-13,6.758100642e-13,5.497074527e-14,8.464121224e-13,8.686334128e-13,1.857429555e-13,1.090985348e-12,5.79660356e-14,1.399098995e-12,4.404694621e-13
1.421875,4.107793846e-14,3.296848028e-13,3.173835804e-13,2.38467911e-13,9.421330148e-13,1.845701522e-13,1.0040808e-13,5.383259121e-13,4.367227696e-13,7.339092685e-14,2.602154716e-13,3.26418556e-13,5.123159129e-13,3.133314499e-13,8.375592113e-13,1.065882389e-12,1.423261941e-12,4.363518358e-13,2.346179278e-13,1.916384723e-12,4.630319011e-13,2.405514238e-13,1.215617815e-13,7.031164233e-13,5.430091654e-14,8.717882468e-13,9.089861674e-13,1.987677447e-13,1.148240881e-12,5.779253633e-14,1.47894438e-12,4.507091145e-13
1.4296875,4.07593528e-14,3.487951468e-13,3.372184045e-13,2.418504386e-13,9.711326594e-13,1.863848811e-13,1.014491581e-13,5.559692174e-13,4.557339941e-13,7.673929669e-14,2.645038097e-13,3.373271255e-13,5.376774287e-13,3.139337492e-13,8.404584945e-13,1.083647177e-12,1.445047121e-12,4.512490125e-13,2.387556599e-13,1.938974886e-12,4.680092142e-13,2.547627137e-13,1.248042736e-13,7.301754867e-13,5.363487808e-14,8.978058933e-13,9.512296205e-13,2.122779166e-13,1.208690671e-12,5.770961544e-14,1.563322529e-12,4.605942344e-13
1.4375,4.052011881e-14,3.687446828e-13,3.576418033e-13,2.451589093e-13,1.000216467e-12,1.879152619e-13,1.023252805e-13,5.732466608e-13,4.750728285e-13,8.028663507e-14,2.685137532e-13,3.488882636e-13,5.643511957e-13,3.144193618e-13,8.421113474e-13,1.10055106e-12,1.465519062e-12,4.665384623e-13,2.430719006e-13,1.960466414e-12,4.726721124e-13,2.693612305e-13,1.279793534e-13,7.572314611e-13,5.291748419e-14,9.245112496e-13,9.950974207e-13,2.264722803e-13,1.27223807e-12,5.772319828e-14,1.651956272e-12,4.704025543e-13
1.4453125,4.036963574e-14,3.896463956e-13,3.787443316e-13,2.484744509e-13,1.029476685e-12,1.89120654e-13,1.032877453e-13,5.899770559e-13,4.944028402e-13,8.394157393e-14,2.723405679e-13,3.61313141e-13,5.922205346e-13,3.153181236e-13,8.427809594e-13,1.116356162e-12,1.483939869e-12,4.823978491e-13,2.477994304e-13,1.980620422e-12,4.770686439e-13,2.840053528e-13,1.309151505e-13,7.83945718e-13,5.215704356e-14,9.520128022e-13,1.041070242e-12,2.410873863e-13,1.339371203e-12,5.786074262e-14,1.745582255e-12,4.799454431e-13
1.453125,4.031705601e-14,4.118744035e-13,4.00293883e-13,2.520126161e-13,1.05894644e-12,1.899972777e-13,1.042875744e-13,6.057346078e-13,5.133211118e-13,8.749847249e-14,2.762782902e-13,3.744813504e-13,6.211240386e-13,3.169618436e-13,8.421739715e-13,1.130622678e-12,1.500350409e-12,4.991951298e-13,2.531134928e-13,1.999497331e-12,4.810631369e-13,2.985725209e-13,1.337330868e-13,8.097864089e-13,5.140165994e-14,9.803198462e-13,1.089784512e-12,2.558133227e-13,1.410081694e-12,5.810675773e-14,1.84450108e-12,4.889363611e-13
1.4609375,4.028766261e-14,4.351920486e-13,4.221579656e-13,2.556329091e-13,1.08852944e-12,1.905128107e-13,1.052624637e-13,6.203108229e-13,5.317194864e-13,9.098906936e-14,2.801756427e-13,3.879359864e-13,6.512709491e-13,3.189888522e-13,8.399882938e-13,1.142934865e-12,1.514408496e-12,5.167507052e-13,2.589309511e-13,2.016217891e-12,4.845039733e-13,3.132292061e-13,1.363934711e-13,8.344517586e-13,5.051658592e-14,1.009350932e-12,1.140593809e-12,2.708761711e-13,1.483812828e-12,5.842129239e-14,1.948139525e-12,4.974415968e-13
1.46875,4.027191468e-14,4.5917477e-13,4.442606588e-13,2.590902956e-13,1.117846313e-12,1.905403317e-13,1.063061611e-13,6.33801646e-13,5.495687836e-13,9.459769514e-14,2.837048436e-13,4.016447574e-13,6.82374831e-13,3.213242768e-13,8.363987074e-13,1.153293392e-12,1.525535674e-12,5.347896166e-13,2.651181946e-13,2.029897643e-12,4.873000802e-13,3.278206583e-13,1.388384001e-13,8.578758806e-13,4.948635825e-14,1.038848715e-12,1.192257365e-12,2.862851382e-13,1.55987305e-12,5.879077232e-14,2.056068063e-12,5.054537851e-13
1.4765625,4.036837452e-14,4.837479129e-13,4.665778514e-13,2.624711955e-13,1.14674429e-12,1.90218121e-13,1.072098078e-13,6.462813031e-13,5.667551555e-13,9.83569294e-14,2.870170501e-13,4.15813033e-13,7.138933926e-13,3.242233401e-13,8.318002454e-13,1.16197001e-12,1.534303517e-12,5.534190528e-13,2.716803784e-13,2.040938459e-12,4.894025111e-13,3.421302133e-13,1.411863791e-13,8.800630969e-13,4.847069347e-14,1.06855108e-12,1.244471677e-12,3.021344098e-13,1.637987161e-12,5.929265304e-14,2.168006961e-12,5.12780808e-13
1.484375,4.060278565e-14,5.089380741e-13,4.89136255e-13,2.660185216e-13,1.175499247e-12,1.899115382e-13,1.080923561e-13,6.577052536e-13,5.831168946e-13,1.020896409e-13,2.904678022e-13,4.303398156e-13,7.45871606e-13,3.277152294e-13,8.265723686e-13,1.169461317e-12,1.541512499e-12,5.729261523e-13,2.787039756e-13,2.049775867e-12,4.908835157e-13,3.561365226e-13,1.433677333e-13,9.00831135e-13,4.750528974e-14,1.098341316e-12,1.297670562e-12,3.184070979e-13,1.718278238e-12,5.998987048e-14,2.283566889e-12,5.193439604e-13
1.4921875,4.092739216e-14,5.348387809e-13,5.117074421e-13,2.698493146e-13,1.204171182e-12,1.895377032e-13,1.093312142e-13,6.678424897e-13,5.984907424e-13,1.057002255e-13,2.941104414e-13,4.451290664e-13,7.781519853e-13,3.318287358e-13,8.205180132e-13,1.175585156e-12,1.546556969e-12,5.933178131e-13,2.862429196e-13,2.055805429e-12,4.919098595e-13,3.696672932e-13,1.452177262e-13,9.199948408e-13,4.653854353e-14,1.128033827e-12,1.351947139e-12,3.344844047e-13,1.800533064e-12,6.083648911e-14,2.402398288e-12,5.251285264e-13
1.5,4.128842686e-14,5.613036109e-13,5.341875276e-13,2.738389111e-13,1.232456139e-12,1.887669736e-13,1.106047449e-13,6.762259295e-13,6.126647696e-13,1.092855539e-13,2.977270933e-13,4.601495447e-13,8.102619676e-13,3.36587692e-13,8.129704423e-13,1.17918622e-12,1.548326916e-12,6.14134694e-13,2.942228704e-13,2.058220915e-12,4.92473091e-13,3.826433314e-13,1.467360806e-13,9.374827475e-13,4.553378829e-14,1.157430195e-12,1.406595556e-12,3.504954604e-13,1.884069656e-12,6.178162605e-14,2.524043609e-12,5.300531671e-13
1.5078125,4.163279597e-14,5.879576218e-13,5.566284666e-13,2.777891743e-13,1.260223281e-12,1.875953251e-13,1.11581196e-13,6.829795094e-13,6.256408115e-13,1.128538226e-13,3.011015952e-13,4.753661882e-13,8.423866688e-13,3.419760618e-13,8.038979479e-13,1.180127041e-12,1.546850129e-12,6.351345077e-13,3.024701948e-13,2.057179038e-12,4.924308351e-13,3.951309952e-13,1.479710016e-13,9.534712295e-13,4.447198281e-14,1.186542725e-12,1.4611163e-12,3.66880454e-13,1.968524286e-12,6.278525862e-14,2.648116097e-12,5.340840642e-13
1.515625,4.199005968e-14,6.148455699e-13,5.789093648e-13,2.818146782e-13,1.287736301e-12,1.862205989e-13,1.125371687e-13,6.888494964e-13,6.376207833e-13,1.164951319e-13,3.043081722e-13,4.908472006e-13,8.746500706e-13,3.48043156e-13,7.939931746e-13,1.179306521e-12,1.542666427e-12,6.566253531e-13,3.110831406e-13,2.053223654e-12,4.91785338e-13,4.069343086e-13,1.489035622e-13,9.68358197e-13,4.333763284e-14,1.215388677e-12,1.515854417e-12,3.832446978e-13,2.054348445e-12,6.385339463e-14,2.774453012e-12,5.372495364e-13
1.5234375,4.239508142e-14,6.419742944e-13,6.01253155e-13,2.861159777e-13,1.315312702e-12,1.84884881e-13,1.136435425e-13,6.937533561e-13,6.482540435e-13,1.203098289e-13,3.076424429e-13,5.063767433e-13,9.063382911e-13,3.545202127e-13,7.837690307e-13,1.176849091e-12,1.535818936e-12,6.78698124e-13,3.202445119e-13,2.045993461e-12,4.905678245e-13,4.178168275e-13,1.494447744e-13,9.818151278e-13,4.212708333e-14,1.24371623e-12,1.570543819e-12,3.99600171e-13,2.141482504e-12,6.503646737e-14,2.902372099e-12,5.395098591e-13
1.53125,4.279792968e-14,6.688948286e-13,6.238014917e-13,2.905283e-13,1.342859695e-12,1.836005432e-13,1.147602104e-13,6.970414591e-13,6.571469546e-13,1.239485819e-13,3.111032718e-13,5.216835505e-13,9.372383961e-13,3.613111248e-13,7.732326023e-13,1.172710239e-12,1.526600859e-12,7.012292224e-13,3.29702066e-13,2.0353694e-12,4.887891319e-13,4.278017171e-13,1.496411785e-13,9.930782174e-13,4.090406075e-14,1.271235975e-12,1.624330642e-12,4.16179425e-13,2.228528668e-12,6.626027387e-14,3.030653292e-12,5.40990836e-13
1.5390625,4.323659931e-14,6.954065898e-13,6.459503085e-13,2.9490282e-13,1.370007045e-12,1.821552693e-13,1.157894894e-13,6.988389505e-13,6.647800265e-13,1.272704316e-13,3.14371609e-13,5.370398037e-13,9.678724506e-13,3.689761046e-13,7.622229611e-13,1.167067043e-12,1.515554404e-12,7.243480562e-13,3.393753563e-13,2.022252091e-12,4.866700494e-13,4.36977334e-13,1.496527861e-13,1.002435555e-12,3.96990055e-14,1.297961484e-12,1.677231752e-12,4.324676645e-13,2.314804135e-12,6.748314374e-14,3.158726164e-12,5.420027589e-13
1.546875,4.378645085e-14,7.215028186e-13,6.674009212e-13,2.994253602e-13,1.396715287e-12,1.807172742e-13,1.168170709e-13,6.995333375e-13,6.712762471e-13,1.305958521e-13,3.174617522e-13,5.525858017e-13,9.977830268e-13,3.775357431e-13,7.509084216e-13,1.159611171e-12,1.502460859e-12,7.479656181e-13,3.495643934e-13,2.006348011e-12,4.843319192e-13,4.451578993e-13,1.493530463e-13,1.010231273e-12,3.847295142e-14,1.323812069e-12,1.728994543e-12,4.481166669e-13,2.400575187e-12,6.882983225e-14,3.286430718e-12,5.423782882e-13
1.5546875,4.438677437e-14,7.469601826e-13,6.883850311e-13,3.041353562e-13,1.423275311e-12,1.795066818e-13,1.179137178e-13,6.991884579e-13,6.759912734e-13,1.339067344e-13,3.207287965e-13,5.678623655e-13,1.026135222e-12,3.863905723e-13,7.397072938e-13,1.150497898e-12,1.487137019e-12,7.718771038e-13,3.600549952e-13,1.986578173e-12,4.815274872e-13,4.520127605e-13,1.485520786e-13,1.015649293e-12,3.724505334e-14,1.348312973e-12,1.778730487e-12,4.632095752e-13,2.484942013e-12,7.030599207e-14,3.412700185e-12,5.417193295e-13
1.5625,4.502445689e-14,7.715579564e-13,7.089638367e-13,3.087651431e-13,1.449816634e-12,1.783269191e-13,1.190422052e-13,6.979706872e-13,6.790100728e-13,1.371115977e-13,3.241615029e-13,5.82567781e-13,1.053237391e-12,3.954718815e-13,7.285488232e-13,1.140195049e-12,1.47011675e-12,7.962237393e-13,3.704652603e-13,1.963801488e-12,4.782367969e-13,4.575804723e-13,1.47407925e-13,1.018833624e-12,3.610986022e-14,1.371352137e-12,1.826614441e-12,4.779830393e-13,2.566827629e-12,7.178766102e-14,3.536373893e-12,5.403248839e-13
1.5703125,4.57635875e-14,7.950586923e-13,7.293459516e-13,3.1316987e-13,1.476236312e-12,1.771880542e-13,1.202965831e-13,6.959617053e-13,6.807822008e-13,1.402487135e-13,3.2743763e-13,5.967462899e-13,1.079116748e-12,4.047552668e-13,7.170442854e-13,1.128202834e-12,1.45141275e-12,8.208138011e-13,3.808849196e-13,1.939171176e-12,4.747504483e-13,4.61981828e-13,1.460102316e-13,1.021346499e-12,3.516157967e-14,1.393153238e-12,1.872736382e-12,4.926860921e-13,2.646129567e-12,7.319293558e-14,3.657268038e-12,5.386715526e-13
1.578125,4.654196943e-14,8.171655556e-13,7.494836563e-13,3.174073846e-13,1.502363907e-12,1.762636011e-13,1.216739156e-13,6.930592809e-13,6.811109421e-13,1.431077138e-13,3.305378201e-13,6.102511347e-13,1.102911163e-12,4.139270793e-13,7.054583685e-13,1.114381727e-12,1.430725898e-12,8.451423091e-13,3.912525455e-13,1.91198934e-12,4.709527786e-13,4.650489629e-13,1.441869445e-13,1.022920269e-12,3.430768721e-14,1.413307693e-12,1.915986391e-12,5.069703504e-13,2.722133635e-12,7.447890505e-14,3.77457636e-12,5.367060861e-13
1.5859375,4.72979622e-14,8.377217981e-13,7.686153345e-13,3.215156226e-13,1.528031467e-12,1.753828246e-13,1.230205403e-13,6.89553522e-13,6.79914298e-13,1.457784557e-13,3.3360422e-13,6.229716625e-13,1.124533496e-12,4.231650081e-13,6.943589109e-13,1.099707597e-12,1.408725414e-12,8.692689534e-13,4.013463753e-13,1.881924194e-12,4.66576438e-13,4.668366129e-13,1.419820836e-13,1.02186267e-12,3.338169451e-14,1.43139877e-12,1.955996366e-12,5.203918979e-13,2.793809809e-12,7.571827346e-14,3.886518023e-12,5.34389554e-13
1.59375,4.807579405e-14,8.566530554e-13,7.866383479e-13,3.254695232e-13,1.55314429e-12,1.74452118e-13,1.244908948e-13,6.858649114e-13,6.774017875e-13,1.486047937e-13,3.365684728e-13,6.351422308e-13,1.14425938e-12,4.327161765e-13,6.837411674e-13,1.084480381e-12,1.385976106e-12,8.932811543e-13,4.11227058e-13,1.849828381e-12,4.618335365e-13,4.67499652e-13,1.395736553e-13,1.018593799e-12,3.250545953e-14,1.447701984e-12,1.993169973e-12,5.330178421e-13,2.861102859e-12,7.698292726e-14,3.992454117e-12,5.317779542e-13
1.6015625,4.886536045e-14,8.737445494e-13,8.042968969e-13,3.292167916e-13,1.577674573e-12,1.737688419e-13,1.261733938e-13,6.818646985e-13,6.733366946e-13,1.514131792e-13,3.393530427e-13,6.465040049e-13,1.16158258e-12,4.422796786e-13,6.736360861e-13,1.068505201e-12,1.362190522e-12,9.167884722e-13,4.208407762e-13,1.815828005e-12,4.569272112e-13,4.667249129e-13,1.3687795e-13,1.014241692e-12,3.178373954e-14,1.462116555e-12,2.027069543e-12,5.44917276e-13,2.923644233e-12,7.815082516e-14,4.092252848e-12,5.286810719e-13
1.609375,4.966795389e-14,8.886932926e-13,8.214439456e-13,3.32789906e-13,1.601667079e-12,1.736156609e-13,1.278922189e-13,6.773503229e-13,6.674740757e-13,1.539242567e-13,3.420342596e-13,6.563049639e-13,1.176079151e-12,4.516672292e-13,6.6453212e-13,1.052345512e-12,1.337668921e-12,9.398545994e-13,4.300314885e-13,1.779780385e-12,4.51735276e-13,4.642306491e-13,1.338444338e-13,1.008158056e-12,3.107274939e-14,1.474210449e-12,2.05718999e-12,5.560518092e-13,2.980147971e-12,7.914733722e-14,4.184702471e-12,5.251351554e-13
1.6171875,5.058726446e-14,9.014554519e-13,8.373103483e-13,3.36247651e-13,1.625049516e-12,1.738472841e-13,1.297940546e-13,6.724440366e-13,6.601894771e-13,1.562544048e-13,3.446428736e-13,6.646788103e-13,1.188019604e-12,4.610776375e-13,6.563870076e-13,1.036011756e-12,1.312798473e-12,9.627693552e-13,4.388642317e-13,1.742002778e-12,4.462747845e-13,4.603335804e-13,1.306514408e-13,1.000082936e-12,3.040190243e-14,1.484083849e-12,2.083729025e-12,5.662240898e-13,3.0301928e-12,8.006642645e-14,4.268982782e-12,5.214892882e-13
1.625,5.160733623e-14,9.120199313e-13,8.521021691e-13,3.393156218e-13,1.647265832e-12,1.741163562e-13,1.319741296e-13,6.671741434e-13,6.518554067e-13,1.584718154e-13,3.469909479e-13,6.721430173e-13,1.197661392e-12,4.704037539e-13,6.484897862e-13,1.018557361e-12,1.286692147e-12,9.847759807e-13,4.47158017e-13,1.702238784e-12,4.405604806e-13,4.554320083e-13,1.273365519e-13,9.907053818e-13,2.989700351e-14,1.491516125e-12,2.106218039e-12,5.752114736e-13,3.074161167e-12,8.087582515e-14,4.34476114e-12,5.177931459e-13
1.6328125,5.26071249e-14,9.200877106e-13,8.662518775e-13,3.417126765e-13,1.668091467e-12,1.743954241e-13,1.340712063e-13,6.619719559e-13,6.425085379e-13,1.604276188e-13,3.489262772e-13,6.783353536e-13,1.204703025e-12,4.792068255e-13,6.406644965e-13,1.000268071e-12,1.259294153e-12,1.005160139e-12,4.545313286e-13,1.660679131e-12,4.343437731e-13,4.494311463e-13,1.238523058e-13,9.79793992e-13,2.950060578e-14,1.496024686e-12,2.12351729e-12,5.833578694e-13,3.111422896e-12,8.144885117e-14,4.411021437e-12,5.139872695e-13
1.640625,5.356439175e-14,9.256570164e-13,8.794365134e-13,3.437747779e-13,1.688657714e-12,1.748919607e-13,1.360242148e-13,6.577479556e-13,6.322893735e-13,1.621339621e-13,3.506864073e-13,6.828732675e-13,1.208785474e-12,4.875215183e-13,6.336884243e-13,9.826330263e-13,1.232435396e-12,1.024698927e-12,4.610984554e-13,1.618697782e-12,4.276479981e-13,4.42099694e-13,1.202978212e-13,9.67356148e-13,2.915952356e-14,1.498113291e-12,2.135900902e-12,5.908934538e-13,3.141249569e-12,8.179820991e-14,4.46767871e-12,5.104139026e-13
1.6484375,5.443288784e-14,9.289272971e-13,8.917916143e-13,3.458097934e-13,1.709706097e-12,1.758889117e-13,1.381044966e-13,6.543461716e-13,6.210525004e-13,1.636006083e-13,3.524496551e-13,6.858098629e-13,1.209988003e-12,4.956919111e-13,6.28270677e-13,9.661122037e-13,1.206641146e-12,1.043724439e-12,4.670163586e-13,1.576456398e-12,4.208258674e-13,4.334251356e-13,1.167261081e-13,9.543017608e-13,2.888033371e-14,1.49825348e-12,2.144353931e-12,5.973645117e-13,3.163858333e-12,8.187411014e-14,4.515149513e-12,5.073098204e-13
1.65625,5.523092176e-14,9.296926561e-13,9.038290435e-13,3.474860422e-13,1.729920269e-12,1.775406252e-13,1.402073968e-13,6.509570919e-13,6.084451816e-13,1.646342004e-13,3.53940856e-13,6.870346427e-13,1.208293717e-12,5.035276546e-13,6.241331633e-13,9.500661173e-13,1.180658818e-12,1.061086448e-12,4.720240281e-13,1.533125909e-12,4.139193489e-13,4.234802964e-13,1.131938874e-13,9.406441948e-13,2.868630433e-14,1.496005403e-12,2.148307262e-12,6.026168918e-13,3.17873211e-12,8.159163111e-14,4.552029469e-12,5.043944063e-13
1.6640625,5.620688339e-14,9.279347145e-13,9.148770576e-13,3.48610098e-13,1.748355925e-12,1.794404975e-13,1.422028173e-13,6.479368748e-13,5.950235073e-13,1.654644752e-13,3.550716844e-13,6.866073874e-13,1.203575036e-12,5.106500687e-13,6.20793875e-13,9.343757804e-13,1.154738644e-12,1.076724224e-12,4.761508757e-13,1.489327955e-12,4.067764183e-13,4.125243007e-13,1.098244964e-13,9.25663502e-13,2.861720612e-14,1.491281691e-12,2.147332643e-12,6.068587021e-13,3.185318574e-12,8.116495957e-14,4.577342411e-12,5.016763755e-13
1.671875,5.740671799e-14,9.239004111e-13,9.241528062e-13,3.494076434e-13,1.76600149e-12,1.813092826e-13,1.442039378e-13,6.459959235e-13,5.815084289e-13,1.664483085e-13,3.559905393e-13,6.847469789e-13,1.196089566e-12,5.171084919e-13,6.185609299e-13,9.197482779e-13,1.130116199e-12,1.091616159e-12,4.795241697e-13,1.445768759e-12,3.994993889e-13,4.008242217e-13,1.06522681e-13,9.091622776e-13,2.865747235e-14,1.48419272e-12,2.14238563e-12,6.098801317e-13,3.184685508e-12,8.07190818e-14,4.59203921e-12,4.996859386e-13
1.6796875,5.864054215e-14,9.174231706e-13,9.32225272e-13,3.498191674e-13,1.783195354e-12,1.834856575e-13,1.459650698e-13,6.450172464e-13,5.677293827e-13,1.67276843e-13,3.564547329e-13,6.814489916e-13,1.185962607e-12,5.229954889e-13,6.176706673e-13,9.065174381e-13,1.106372931e-12,1.105192084e-12,4.818039782e-13,1.401869423e-12,3.921308721e-13,3.883673237e-13,1.031921892e-13,8.91458979e-13,2.878523825e-14,1.474235975e-12,2.133260858e-12,6.115546542e-13,3.177159205e-12,8.004647407e-14,4.596123897e-12,4.984338065e-13
1.6875,5.992142676e-14,9.083672435e-13,9.396059397e-13,3.495777482e-13,1.799058121e-12,1.859742107e-13,1.473615298e-13,6.447851808e-13,5.536943869e-13,1.678158586e-13,3.562885168e-13,6.768031547e-13,1.17309719e-12,5.282224461e-13,6.177707815e-13,8.94292092e-13,1.082887284e-12,1.116527394e-12,4.829246696e-13,1.357621506e-12,3.84512062e-13,3.752162949e-13,1.000356565e-13,8.729971939e-13,2.900143827e-14,1.461367332e-12,2.118900185e-12,6.122583443e-13,3.161513575e-12,7.911838733e-14,4.588663314e-12,4.975112717e-13
1.6953125,6.128096637e-14,8.969380742e-13,9.459908671e-13,3.487565298e-13,1.813520933e-12,1.885734593e-13,1.488950511e-13,6.452249664e-13,5.397879951e-13,1.682981539e-13,3.557438068e-13,6.708868826e-13,1.157770797e-12,5.327935902e-13,6.187897781e-13,8.829730033e-13,1.060233032e-12,1.126065251e-12,4.830816707e-13,1.313665614e-12,3.767208695e-13,3.614667296e-13,9.717039701e-14,8.540260736e-13,2.928368728e-14,1.446166407e-12,2.099587471e-12,6.120289477e-13,3.137283087e-12,7.800608148e-14,4.569697411e-12,4.970852104e-13
1.703125,6.270379072e-14,8.83208208e-13,9.514825355e-13,3.475075516e-13,1.82672085e-12,1.914781557e-13,1.505442412e-13,6.463090475e-13,5.259200681e-13,1.685356615e-13,3.548012699e-13,6.635246089e-13,1.140182735e-12,5.366983121e-13,6.208047212e-13,8.728320705e-13,1.0384721e-12,1.133927383e-12,4.820692771e-13,1.270019912e-12,3.689388114e-13,3.471122776e-13,9.451466715e-14,8.346442189e-13,2.961878868e-14,1.428730729e-12,2.075857171e-12,6.104850587e-13,3.104589428e-12,7.664301121e-14,4.539385742e-12,4.973458936e-13
1.7109375,6.427349267e-14,8.671524242e-13,9.563714628e-13,3.456868267e-13,1.838252466e-12,1.945548339e-13,1.517457741e-13,6.485666645e-13,5.119783288e-13,1.685815484e-13,3.531832698e-13,6.545967625e-13,1.120001026e-12,5.396943102e-13,6.237062241e-13,8.641610378e-13,1.017525908e-12,1.139475095e-12,4.797767201e-13,1.226980813e-12,3.611232539e-13,3.323560776e-13,9.209440134e-14,8.147900144e-13,3.002491477e-14,1.409011603e-12,2.04796022e-12,6.077735561e-13,3.063582527e-12,7.510134456e-14,4.497748713e-12,4.979721699e-13
1.71875,6.58914213e-14,8.489166404e-13,9.600437479e-13,3.432354218e-13,1.848406402e-12,1.973532989e-13,1.525937608e-13,6.523180842e-13,4.982047628e-13,1.686767929e-13,3.509439128e-13,6.441961789e-13,1.097168995e-12,5.416617123e-13,6.275781837e-13,8.573433525e-13,9.982160596e-13,1.142882161e-12,4.7632827e-13,1.185296962e-12,3.532652192e-13,3.173095957e-13,8.991822668e-14,7.941577872e-13,3.053574677e-14,1.387291746e-12,2.016658863e-12,6.042129653e-13,3.015123689e-12,7.342928971e-14,4.445551575e-12,4.990682499e-13
1.7265625,6.744285975e-14,8.288006069e-13,9.6189539e-13,3.403764811e-13,1.857457943e-12,1.998659857e-13,1.533913338e-13,6.566936644e-13,4.848415981e-13,1.683978568e-13,3.482269941e-13,6.32581506e-13,1.072435656e-12,5.428828243e-13,6.322706466e-13,8.519592619e-13,9.803943815e-13,1.144791094e-12,4.718011296e-13,1.144699829e-12,3.453072504e-13,3.019462355e-13,8.789367045e-14,7.729516078e-13,3.112843472e-14,1.363669569e-12,1.982148752e-12,5.995228697e-13,2.959908524e-12,7.151317976e-14,4.383729791e-12,5.009540136e-13
1.734375,6.901336734e-14,8.071174722e-13,9.624764625e-13,3.372113859e-13,1.864594243e-12,2.023963776e-13,1.540354159e-13,6.609632447e-13,4.719411373e-13,1.675981772e-13,3.449533404e-13,6.200128851e-13,1.046458832e-12,5.435921696e-13,6.374566669e-13,8.473016461e-13,9.631389369e-13,1.14498442e-12,4.664536034e-13,1.104437424e-12,3.370013248e-13,2.865224081e-13,8.604481934e-14,7.517172679e-13,3.174179574e-14,1.338100912e-12,1.943872769e-12,5.935669325e-13,2.898216001e-12,6.937099338e-14,4.312839484e-12,5.031595803e-13
1.7421875,7.060015846e-14,7.840951535e-13,9.62359202e-13,3.337533206e-13,1.869411657e-12,2.051529703e-13,1.544359659e-13,6.655128034e-13,4.594097841e-13,1.667264678e-13,3.411294263e-13,6.06616193e-13,1.019051088e-12,5.43710383e-13,6.4334064e-13,8.439679015e-13,9.465970741e-13,1.142711964e-12,4.603306633e-13,1.064742364e-12,3.285096558e-13,2.712108181e-13,8.436182816e-14,7.30225311e-13,3.240718984e-14,1.310634856e-12,1.901921506e-12,5.865905312e-13,2.830710814e-12,6.711157405e-14,4.233287234e-12,5.052901164e-13
1.75,7.226452198e-14,7.598324179e-13,9.61221326e-13,3.300660849e-13,1.872302948e-12,2.079307845e-13,1.546137924e-13,6.707364642e-13,4.474874221e-13,1.657972195e-13,3.36894922e-13,5.923731584e-13,9.898432533e-13,5.430480604e-13,6.498978598e-13,8.422897884e-13,9.307634362e-13,1.137898424e-12,4.5310546e-13,1.026096231e-12,3.202222725e-13,2.55983802e-13,8.273004618e-14,7.081652264e-13,3.317367084e-14,1.281226515e-12,1.85691105e-12,5.785012889e-13,2.75769431e-12,6.480657639e-14,4.145353018e-12,5.077950964e-13
1.7578125,7.413357259e-14,7.34260992e-13,9.588481034e-13,3.259049801e-13,1.873124571e-12,2.102228961e-13,1.546423959e-13,6.767244549e-13,4.366886717e-13,1.646150041e-13,3.321226171e-13,5.770955775e-13,9.591115489e-13,5.414097444e-13,6.56427906e-13,8.413336599e-13,9.151057784e-13,1.130962828e-12,4.447565484e-13,9.881703656e-13,3.118841576e-13,2.409647885e-13,8.120967326e-14,6.858403334e-13,3.401580952e-14,1.249959467e-12,1.809170243e-12,5.692541055e-13,2.679139925e-12,6.245785364e-14,4.049353229e-12,5.108954408e-13
1.765625,7.610453924e-14,7.07585686e-13,9.552351663e-13,3.210994738e-13,1.871505337e-12,2.119810242e-13,1.545366774e-13,6.833618222e-13,4.269944172e-13,1.632282273e-13,3.2659659e-13,5.608913247e-13,9.277981867e-13,5.390182208e-13,6.626309747e-13,8.407423721e-13,8.998064864e-13,1.121863613e-12,4.355535196e-13,9.506133708e-13,3.031183997e-13,2.262857613e-13,7.987463989e-14,6.632625934e-13,3.493852365e-14,1.217228704e-12,1.758870829e-12,5.591479174e-13,2.595965853e-12,6.000479299e-14,3.946092846e-12,5.141106776e-13
1.7734375,7.814346709e-14,6.804947288e-13,9.499039731e-13,3.161917449e-13,1.867771197e-12,2.136929916e-13,1.541969359e-13,6.900882819e-13,4.180669655e-13,1.616513149e-13,3.205911761e-13,5.443606962e-13,8.96632862e-13,5.364840817e-13,6.689532938e-13,8.408283766e-13,8.849609374e-13,1.110619194e-12,4.257583411e-13,9.137494402e-13,2.941617568e-13,2.120478556e-13,7.864580219e-14,6.403282742e-13,3.59896485e-14,1.183358218e-12,1.706412484e-12,5.481229885e-13,2.509466496e-12,5.749676169e-14,3.836871578e-12,5.171038171e-13
1.78125,8.026278712e-14,6.532455133e-13,9.429041833e-13,3.11617232e-13,1.86246895e-12,2.15583763e-13,1.536366408e-13,6.970128603e-13,4.099443327e-13,1.599265674e-13,3.144698449e-13,5.277107731e-13,8.651038478e-13,5.337578352e-13,6.758158116e-13,8.419374186e-13,8.705037147e-13,1.097684396e-12,4.154884926e-13,8.778944852e-13,2.852800864e-13,1.98355004e-13,7.753032826e-14,6.174220815e-13,3.713661879e-14,1.148509957e-12,1.652312159e-12,5.358429616e-13,2.420238837e-12,5.499906061e-14,3.722747754e-12,5.200446548e-13
1.7890625,8.228786666e-14,6.254559829e-13,9.350898194e-13,3.070242773e-13,1.85552395e-12,2.172744959e-13,1.527293236e-13,7.046503465e-13,4.026808839e-13,1.58110007e-13,3.080156714e-13,5.105047418e-13,8.32334459e-13,5.302326994e-13,6.828866294e-13,8.442336665e-13,8.568365173e-13,1.08300573e-12,4.04532073e-13,8.430490442e-13,2.764450338e-13,1.850911813e-13,7.652553293e-14,5.946672866e-13,3.827273757e-14,1.112922984e-12,1.596747724e-12,5.225350776e-13,2.328353333e-12,5.247868335e-14,3.60419026e-12,5.230708756e-13
1.796875,8.424574113e-14,5.971137025e-13,9.266220236e-13,3.021514888e-13,1.846387952e-12,2.184175605e-13,1.513113026e-13,7.121459596e-13,3.959075455e-13,1.560014224e-13,3.010058606e-13,4.925043029e-13,7.985963963e-13,5.258451159e-13,6.894138185e-13,8.468375831e-13,8.43690556e-13,1.066318282e-12,3.928278397e-13,8.091843326e-13,2.675950507e-13,1.72035285e-13,7.553671105e-14,5.718723551e-13,3.942417637e-14,1.076758166e-12,1.539605427e-12,5.089596972e-13,2.233820144e-12,4.992346655e-14,3.481806001e-12,5.258752761e-13
1.8046875,8.633249364e-14,5.686496429e-13,9.172449702e-13,2.972739286e-13,1.834859954e-12,2.191977988e-13,1.496547116e-13,7.185144432e-13,3.894222828e-13,1.533934027e-13,2.936486734e-13,4.740187715e-13,7.647419891e-13,5.209078727e-13,6.95197441e-13,8.489450017e-13,8.303344281e-13,1.047798833e-12,3.806750371e-13,7.75891298e-13,2.585341744e-13,1.592917481e-13,7.460113833e-14,5.493281858e-13,4.073083445e-14,1.039864127e-12,1.480861604e-12,4.953774488e-13,2.137166911e-12,4.728884012e-14,3.35655545e-12,5.280941718e-13
