"Time","Fp1","AF3","F7","F3","FC1","FC5","T7","C3","CP1","CP5","P7","P3","Pz","PO3","O1","Oz","O2","PO4","P4","P8","CP6","CP2","C4","T8","FC6","FC2","F4","F8","AF4","Fp2","Fz","Cz"
0.0078125,1.320831923e-13,4.184885958e-13,5.39407676e-13,3.474538347e-13,3.850782488e-13,5.160543334e-14,2.699034846e-13,2.172237541e-13,4.777669934e-14,1.35425218e-13,9.331985326e-13,3.55227808e-13,1.166477506e-13,1.12565052e-12,1.396505249e-12,1.06828194e-12,8.303068168e-13,4.937899144e-13,3.337455108e-13,1.293052724e-12,1.495601663e-13,2.936935742e-13,3.465212672e-13,1.963252986e-13,3.23114285e-14,5.802445611e-13,7.90548766e-13,2.34721415e-13,4.094155469e-13,3.840465972e-13,9.222601795e-13,2.815185144e-13
0.015625,1.448670217e-13,4.439373076e-13,5.546376669e-13,3.683629596e-13,4.077643473e-13,5.390371814e-14,2.815650098e-13,2.313011443e-13,4.922112473e-14,1.464677978e-13,9.963507405e-13,3.782453466e-13,1.333385615e-13,1.200397866e-12,1.481040708e-12,1.122175305e-12,8.896242625e-13,5.47094472e-13,3.732088934e-13,1.42078111e-12,1.646746768e-13,3.095229771e-13,3.621442197e-13,2.077141488e-13,3.684987795e-14,6.083706634e-13,8.155460048e-13,2.484661242e-13,4.249317686e-13,4.04643135e-13,9.681513227e-13,2.886981429e-13
0.0234375,1.57955297e-13,4.679328036e-13,5.677757941e-13,3.881545403e-13,4.292138289e-13,5.654810838e-14,2.930245971e-13,2.447509664e-13,5.062126979e-14,1.580436611e-13,1.059897631e-12,4.007204328e-13,1.529277237e-13,1.272440863e-12,1.559540028e-12,1.170238997e-12,9.472592828e-13,6.020605974e-13,4.150113795e-13,1.550773706e-12,1.799232084e-13,3.248679499e-13,3.759523468e-13,2.188867722e-13,4.175739567e-14,6.339362664e-13,8.352107432e-13,2.631755265e-13,4.381265857e-13,4.23924274e-13,1.010153983e-12,2.941549281e-13
0.03125,1.711743374e-13,4.898306901e-13,5.792456372e-13,4.064783775e-13,4.49264675e-13,5.964435696e-14,3.043450003e-13,2.574494965e-13,5.199853352e-14,1.701038937e-13,1.123745451e-12,4.220886388e-13,1.758312622e-13,1.340472806e-12,1.63074466e-12,1.211719653e-12,1.002821444e-12,6.584777446e-13,4.590043128e-13,1.682337554e-12,1.951780905e-13,3.399248437e-13,3.878755791e-13,2.296673338e-13,4.692503706e-14,6.563578252e-13,8.485504889e-13,2.79278886e-13,4.484562422e-13,4.411404476e-13,1.047240748e-12,2.980318922e-13
0.0390625,1.846220912e-13,5.098253884e-13,5.883700791e-13,4.230452581e-13,4.674654895e-13,6.305254683e-14,3.153666907e-13,2.690276531e-13,5.319517969e-14,1.826634646e-13,1.188645217e-12,4.425913431e-13,2.023056331e-13,1.405072627e-12,1.695234781e-12,1.247415636e-12,1.056090025e-12,7.161820442e-13,5.046197862e-13,1.81355883e-12,2.102720934e-13,3.545119077e-13,3.979722339e-13,2.393431377e-13,5.236552059e-14,6.751264376e-13,8.558853675e-13,2.959706228e-13,4.561934738e-13,4.564240938e-13,1.078706507e-12,3.003468346e-13
0.046875,1.983493801e-13,5.281172123e-13,5.947071234e-13,4.375456125e-13,4.832579706e-13,6.673005465e-14,3.259545754e-13,2.792157963e-13,5.423419886e-14,1.957204596e-13,1.255589652e-12,4.625676435e-13,2.329653191e-13,1.466639632e-12,1.752735219e-12,1.277968321e-12,1.106635978e-12,7.74601222e-13,5.513254627e-13,1.942208351e-12,2.250296932e-13,3.686420792e-13,4.062163094e-13,2.479163197e-13,5.823524718e-14,6.899109586e-13,8.576093146e-13,3.13266566e-13,4.615591779e-13,4.70066215e-13,1.104135511e-12,3.0108759e-13
0.0546875,2.122860241e-13,5.442734286e-13,5.984488246e-13,4.496970812e-13,4.965598371e-13,7.082868867e-14,3.359735262e-13,2.878958727e-13,5.517628536e-14,2.092069542e-13,1.324957754e-12,4.82081466e-13,2.685550693e-13,1.524790384e-12,1.801328546e-12,1.303049084e-12,1.153800945e-12,8.332405065e-13,5.988250716e-13,2.066554483e-12,2.392296021e-13,3.825199594e-13,4.124904876e-13,2.553416382e-13,6.446370387e-14,7.005375923e-13,8.533458196e-13,3.31389483e-13,4.643455818e-13,4.819024168e-13,1.123078071e-12,3.004079662e-13
0.0625,2.263378478e-13,5.581793384e-13,5.993599434e-13,4.596725042e-13,5.075205288e-13,7.536410151e-14,3.455174529e-13,2.950702027e-13,5.608761032e-14,2.231020897e-13,1.396825555e-12,5.01165436e-13,3.096596308e-13,1.579301381e-12,1.840490438e-12,1.322942356e-12,1.19723652e-12,8.919269815e-13,6.468445941e-13,2.185245337e-12,2.52721814e-13,3.960932622e-13,4.168171056e-13,2.61647116e-13,7.094877808e-14,7.069865666e-13,8.432960383e-13,3.495808203e-13,4.649323136e-13,4.91964538e-13,1.135637568e-12,2.983926995e-13
0.0703125,2.403378968e-13,5.699092825e-13,5.981408731e-13,4.673244121e-13,5.159479957e-13,8.04847308e-14,3.550794588e-13,3.005280879e-13,5.718319111e-14,2.373625921e-13,1.471333227e-12,5.196333543e-13,3.571178017e-13,1.630147442e-12,1.8707553e-12,1.338205349e-12,1.236576891e-12,9.50340445e-13,6.950444576e-13,2.296214995e-12,2.653907879e-13,4.095598716e-13,4.193048731e-13,2.676714191e-13,7.775110262e-14,7.094205715e-13,8.283289861e-13,3.678709997e-13,4.638479459e-13,5.005807659e-13,1.142180681e-12,2.950333124e-13
0.078125,2.542025358e-13,5.791981397e-13,5.956355979e-13,4.723380386e-13,5.216771101e-13,8.64710851e-14,3.650016926e-13,3.040496823e-13,5.867624375e-14,2.521384413e-13,1.548851727e-12,5.376957422e-13,4.121360014e-13,1.677672969e-12,1.890642931e-12,1.348309662e-12,1.271021167e-12,1.007640885e-12,7.429921012e-13,2.396180159e-12,2.770215816e-13,4.23360489e-13,4.200222245e-13,2.736990798e-13,8.478507254e-14,7.07952135e-13,8.087917288e-13,3.866373597e-13,4.608234578e-13,5.078087234e-13,1.142399477e-12,2.904787477e-13
0.0859375,2.677726376e-13,5.85739889e-13,5.920526919e-13,4.749742414e-13,5.247918168e-13,9.349842567e-14,3.757037479e-13,3.056070087e-13,6.074123503e-14,2.677352627e-13,1.629732082e-12,5.556373037e-13,4.757428201e-13,1.722024944e-12,1.899058321e-12,1.352966798e-12,1.299528091e-12,1.062515107e-12,7.900002956e-13,2.482238506e-12,2.873727513e-13,4.376403256e-13,4.189872397e-13,2.79812145e-13,9.188397447e-14,7.023940984e-13,7.84620626e-13,4.052983607e-13,4.554949326e-13,5.133669416e-13,1.136095443e-12,2.84893745e-13
0.09375,2.806712088e-13,5.89297438e-13,5.882297878e-13,4.751318332e-13,5.252090218e-13,1.019010692e-13,3.879651982e-13,3.050672003e-13,6.359086795e-14,2.841823148e-13,1.713763575e-12,5.730235306e-13,5.487912889e-13,1.762437265e-12,1.896760857e-12,1.352857985e-12,1.321028403e-12,1.113894913e-12,8.356441615e-13,2.552960864e-12,2.96287595e-13,4.526762681e-13,4.163076247e-13,2.863525144e-13,9.882318443e-14,6.925888232e-13,7.562466239e-13,4.231698153e-13,4.480052904e-13,5.17121308e-13,1.123530284e-12,2.783700949e-13
0.1015625,2.928262016e-13,5.898918569e-13,5.850319972e-13,4.726171193e-13,5.228855139e-13,1.119433834e-13,4.023140442e-13,3.026629144e-13,6.736655264e-14,3.014767383e-13,1.80063102e-12,5.893949448e-13,6.31962841e-13,1.797327391e-12,1.882731926e-12,1.347948082e-12,1.335238356e-12,1.162373359e-12,8.809575421e-13,2.60833946e-12,3.03915239e-13,4.690165853e-13,4.122952019e-13,2.931932149e-13,1.052744257e-13,6.787625658e-13,7.242813058e-13,4.404264971e-13,4.384542189e-13,5.189761667e-13,1.104724428e-12,2.711487704e-13
0.109375,3.046140487e-13,5.880559746e-13,5.83217619e-13,4.680342192e-13,5.182389579e-13,1.237675152e-13,4.191460218e-13,2.98932071e-13,7.207625402e-14,3.197911383e-13,1.890831546e-12,6.048195765e-13,7.256848432e-13,1.826431592e-12,1.856720915e-12,1.3387054e-12,1.34285458e-12,1.209982791e-12,9.275031298e-13,2.648773335e-12,3.104058236e-13,4.871111696e-13,4.07273058e-13,3.002179157e-13,1.112390449e-13,6.612822139e-13,6.889553198e-13,4.578978951e-13,4.267634143e-13,5.191140163e-13,1.080118391e-12,2.635046578e-13
0.1171875,3.162823416e-13,5.843573513e-13,5.836165967e-13,4.618687814e-13,5.118955757e-13,1.37685819e-13,4.388398762e-13,2.939465054e-13,7.774014877e-14,3.39080386e-13,1.985218324e-12,6.195748805e-13,8.303084015e-13,1.851318239e-12,1.820862888e-12,1.327169299e-12,1.344789328e-12,1.258224297e-12,9.756320474e-13,2.673370769e-12,3.155609691e-13,5.072897786e-13,4.015080969e-13,3.07163036e-13,1.168809655e-13,6.407364082e-13,6.510310553e-13,4.757180172e-13,4.134819109e-13,5.182113728e-13,1.050898397e-12,2.557141756e-13
0.125,3.278300279e-13,5.789176875e-13,5.864847743e-13,4.540957597e-13,5.039816077e-13,1.537458833e-13,4.612126984e-13,2.877007099e-13,8.432798463e-14,3.590893015e-13,2.083662617e-12,6.336720765e-13,9.45480574e-13,1.872586577e-12,1.775387748e-12,1.314722724e-12,1.341682388e-12,1.308024728e-12,1.025753943e-12,2.680944662e-12,3.19362406e-13,5.297320454e-13,3.953009324e-13,3.136871808e-13,1.221354936e-13,6.17727414e-13,6.11876762e-13,4.936355676e-13,3.995922014e-13,5.167142656e-13,1.01775693e-12,2.479971794e-13
0.1328125,3.393910103e-13,5.720365207e-13,5.917863154e-13,4.4496872e-13,4.943910994e-13,1.717762646e-13,4.857863705e-13,2.8039119e-13,9.168985696e-14,3.795481639e-13,2.185497957e-12,6.473688106e-13,1.0701426e-12,1.891062642e-12,1.720761339e-12,1.302263426e-12,1.333701692e-12,1.360566593e-12,1.078526225e-12,2.671558521e-12,3.218991123e-13,5.54300108e-13,3.889078761e-13,3.19938483e-13,1.271455154e-13,5.925108222e-13,5.725132143e-13,5.121953441e-13,3.857413885e-13,5.153275903e-13,9.811066096e-13,2.401668043e-13
0.140625,3.512484372e-13,5.64411678e-13,5.993761651e-13,4.350073064e-13,4.835651227e-13,1.917169333e-13,5.123502574e-13,2.72151416e-13,9.970020146e-14,4.004886497e-13,2.291068744e-12,6.616258649e-13,1.203134319e-12,1.909081365e-12,1.658887888e-12,1.290565866e-12,1.32128727e-12,1.416827243e-12,1.133789165e-12,2.645531573e-12,3.231720546e-13,5.80584191e-13,3.826024123e-13,3.258986169e-13,1.322469678e-13,5.657216349e-13,5.34011469e-13,5.313568834e-13,3.724747155e-13,5.150335748e-13,9.422499703e-13,2.319623373e-13
0.1484375,3.636943108e-13,5.564488742e-13,6.096607147e-13,4.246140258e-13,4.720729699e-13,2.137041768e-13,5.410849273e-13,2.63432678e-13,1.083398836e-13,4.221493162e-13,2.400457979e-12,6.769217258e-13,1.34359714e-12,1.928574379e-12,1.591597068e-12,1.28049213e-12,1.305498635e-12,1.477979281e-12,1.192165468e-12,2.603137967e-12,3.236672163e-13,6.086097061e-13,3.767499498e-13,3.31835602e-13,1.375775919e-13,5.382285253e-13,4.973559591e-13,5.506432954e-13,3.601772576e-13,5.161050843e-13,9.02500825e-13,2.235390685e-13
0.15625,3.768087309e-13,5.484517621e-13,6.235279947e-13,4.141425619e-13,4.603733058e-13,2.380966893e-13,5.723767988e-13,2.548273011e-13,1.176728802e-13,4.443744313e-13,2.511995166e-12,6.929087229e-13,1.491538334e-12,1.950290128e-12,1.520996999e-12,1.273383362e-12,1.286936737e-12,1.545290981e-12,1.255190869e-12,2.545746938e-12,3.240931032e-13,6.387676134e-13,3.715753694e-13,3.386132374e-13,1.430036258e-13,5.104715086e-13,4.626473562e-13,5.703451493e-13,3.487201484e-13,5.185425126e-13,8.623457682e-13,2.151706967e-13
0.1640625,3.904479461e-13,5.407796696e-13,6.4082156e-13,4.037031544e-13,4.48669903e-13,2.648291019e-13,6.062125021e-13,2.464438775e-13,1.276955109e-13,4.669087027e-13,2.623037708e-12,7.094319963e-13,1.646798314e-12,1.973353565e-12,1.4468762e-12,1.268653156e-12,1.265524796e-12,1.618813058e-12,1.323509549e-12,2.47551088e-12,3.24729395e-13,6.710103019e-13,3.670298351e-13,3.464014136e-13,1.48300778e-13,4.826264128e-13,4.298439409e-13,5.904458059e-13,3.379146828e-13,5.224988963e-13,8.218733929e-13,2.068002399e-13
0.171875,4.046649275e-13,5.336644379e-13,6.612190684e-13,3.934667692e-13,4.369140312e-13,2.936592828e-13,6.423145799e-13,2.382721918e-13,1.385458306e-13,4.893471043e-13,2.730947111e-12,7.266763253e-13,1.808440306e-12,1.997439978e-12,1.369727514e-12,1.265794737e-12,1.24148187e-12,1.697903065e-12,1.396551735e-12,2.39365416e-12,3.254598397e-13,7.053690294e-13,3.631464646e-13,3.553549687e-13,1.535932869e-13,4.548821713e-13,3.995257319e-13,6.10735605e-13,3.279940126e-13,5.283341878e-13,7.815986635e-13,1.983903804e-13
0.1796875,4.193284746e-13,5.27148454e-13,6.84989356e-13,3.838109124e-13,4.254526341e-13,3.246354084e-13,6.805349759e-13,2.304567668e-13,1.504870569e-13,5.109070663e-13,2.833480124e-12,7.440982975e-13,1.975183892e-12,2.022455591e-12,1.292127051e-12,1.265932164e-12,1.215049275e-12,1.781859563e-12,1.473843574e-12,2.300546465e-12,3.261509231e-13,7.420573557e-13,3.601134744e-13,3.655593276e-13,1.588525288e-13,4.276374139e-13,3.72031507e-13,6.310927039e-13,3.189699253e-13,5.359940213e-13,7.42407068e-13,1.904060836e-13
0.1875,4.341497472e-13,5.211907443e-13,7.116658546e-13,3.74889389e-13,4.144716672e-13,3.574754971e-13,7.202597694e-13,2.23114854e-13,1.633138363e-13,5.309863649e-13,2.927437119e-12,7.605922119e-13,2.144377452e-12,2.046533131e-12,1.213920444e-12,1.268337501e-12,1.186049558e-12,1.870397844e-12,1.555906198e-12,2.198063874e-12,3.268935181e-13,7.805982274e-13,3.577736033e-13,3.756737167e-13,1.637121531e-13,4.010629245e-13,3.47183407e-13,6.513125214e-13,3.106360032e-13,5.450227537e-13,7.043357887e-13,1.83058931e-13
0.1953125,4.493514136e-13,5.163531232e-13,7.405932054e-13,3.670677606e-13,4.039203511e-13,3.918101689e-13,7.608576047e-13,2.16374106e-13,1.766259647e-13,5.492587881e-13,3.010941559e-12,7.762308891e-13,2.312549419e-12,2.069755483e-12,1.13513565e-12,1.27209082e-12,1.155406692e-12,1.964081892e-12,1.642871284e-12,2.089398221e-12,3.277987963e-13,8.201553457e-13,3.559687772e-13,3.851660767e-13,1.68315043e-13,3.754278625e-13,3.255369e-13,6.71594486e-13,3.035831944e-13,5.560947803e-13,6.67766667e-13,1.760788939e-13
0.203125,4.649243663e-13,5.130105207e-13,7.713759351e-13,3.605693542e-13,3.939949826e-13,4.273659685e-13,8.020834647e-13,2.10263694e-13,1.902922667e-13,5.657590039e-13,3.085119087e-12,7.914090934e-13,2.477193506e-12,2.093292525e-12,1.057721149e-12,1.277567976e-12,1.124444362e-12,2.062289091e-12,1.734047865e-12,1.976007306e-12,3.289740603e-13,8.602889727e-13,3.550305273e-13,3.944428096e-13,1.728786206e-13,3.513835445e-13,3.076635274e-13,6.919360183e-13,2.981909384e-13,5.697070482e-13,6.3368261e-13,1.696165548e-13
0.2109375,4.805011064e-13,5.107929103e-13,8.029573782e-13,3.551656725e-13,3.846954424e-13,4.634589572e-13,8.427371358e-13,2.047621762e-13,2.041042894e-13,5.804896809e-13,3.148448471e-12,8.05544829e-13,2.635426828e-12,2.116050989e-12,9.834147806e-13,1.284397388e-12,1.092668849e-12,2.162469105e-12,1.82812959e-12,1.858719141e-12,3.306659896e-13,9.005232834e-13,3.549477084e-13,4.029897063e-13,1.773044986e-13,3.289419379e-13,2.930092942e-13,7.122183418e-13,2.941312837e-13,5.850635874e-13,6.017721837e-13,1.638611612e-13
0.21875,4.959216797e-13,5.096864104e-13,8.342845498e-13,3.508951274e-13,3.760147099e-13,4.992066406e-13,8.812923874e-13,1.998377558e-13,2.176295788e-13,5.931630564e-13,3.198195787e-12,8.183938302e-13,2.783246652e-12,2.136680249e-12,9.12466004e-13,1.291309296e-12,1.059440021e-12,2.26173326e-12,1.922520343e-12,1.740286051e-12,3.328997387e-13,9.397016301e-13,3.55186261e-13,4.11061882e-13,1.816534706e-13,3.080451549e-13,2.812394277e-13,7.323125769e-13,2.915557388e-13,6.017745036e-13,5.718505316e-13,1.585676506e-13
0.2265625,5.108855522e-13,5.096776495e-13,8.648136366e-13,3.47674726e-13,3.679240198e-13,5.339548737e-13,9.174550921e-13,1.954162803e-13,2.306306471e-13,6.03885451e-13,3.234191846e-12,8.303470515e-13,2.919106086e-12,2.154756385e-12,8.430722034e-13,1.296428567e-12,1.025488651e-12,2.358335319e-12,2.015210468e-12,1.62291779e-12,3.353614724e-13,9.769700996e-13,3.556276284e-13,4.191157823e-13,1.859593514e-13,2.89079729e-13,2.724898696e-13,7.518479937e-13,2.905398729e-13,6.197287306e-13,5.443387633e-13,1.537454249e-13
0.234375,5.25203786e-13,5.104714703e-13,8.939471476e-13,3.45209258e-13,3.603188108e-13,5.672964891e-13,9.510415173e-13,1.91646192e-13,2.432876364e-13,6.1254386e-13,3.255089596e-12,8.415786685e-13,3.04323185e-12,2.170273933e-12,7.762090717e-13,1.298981344e-12,9.916292512e-13,2.451636207e-12,2.105182259e-12,1.50752151e-12,3.378402982e-13,1.012312863e-12,3.562615586e-13,4.267029621e-13,1.901578776e-13,2.720419988e-13,2.665870936e-13,7.709145291e-13,2.908320518e-13,6.385675796e-13,5.190553568e-13,1.497518261e-13
0.2421875,5.388216232e-13,5.119052221e-13,9.211111061e-13,3.433870752e-13,3.532656743e-13,5.986592081e-13,9.810364224e-13,1.885098417e-13,2.55562754e-13,6.185157944e-13,3.259055289e-12,8.516418699e-13,3.151916129e-12,2.181770781e-12,7.142372731e-13,1.299282231e-12,9.581350787e-13,2.53928675e-12,2.189657714e-12,1.395949096e-12,3.400957433e-13,1.04484807e-12,3.566451707e-13,4.334901017e-13,1.941135305e-13,2.568780015e-13,2.633508237e-13,7.894531635e-13,2.924393096e-13,6.578338895e-13,4.961117295e-13,1.467532204e-13
0.25,5.514914601e-13,5.136861437e-13,9.460374576e-13,3.421094355e-13,3.464754241e-13,6.273647333e-13,1.006675678e-12,1.856959087e-13,2.669673598e-13,6.217738904e-13,3.245593569e-12,8.603114371e-13,3.24069519e-12,2.187414112e-12,6.563368812e-13,1.296191958e-12,9.251086206e-13,2.618092362e-12,2.266033564e-12,1.289623157e-12,3.418672088e-13,1.073196477e-12,3.566910583e-13,4.38940181e-13,1.976581358e-13,2.43642916e-13,2.624680057e-13,8.06996793e-13,2.951170622e-13,6.767650082e-13,4.756880127e-13,1.445921091e-13
0.2578125,5.62882043e-13,5.153920515e-13,9.685247319e-13,3.411029185e-13,3.39600802e-13,6.529777119e-13,1.027682772e-12,1.832269279e-13,2.773779215e-13,6.223542246e-13,3.214220611e-12,8.680299134e-13,3.309513199e-12,2.18747393e-12,6.022282057e-13,1.288424702e-12,8.926797464e-13,2.686864201e-12,2.333936292e-12,1.188463017e-12,3.432350807e-13,1.097256201e-12,3.565563778e-13,4.431755981e-13,2.009408997e-13,2.320628233e-13,2.633180375e-13,8.234726798e-13,2.98405232e-13,6.947281726e-13,4.574059703e-13,1.432487663e-13
0.265625,5.723278603e-13,5.164210991e-13,9.877550496e-13,3.39755564e-13,3.325942014e-13,6.747691938e-13,1.043240956e-12,1.810365174e-13,2.869354039e-13,6.196863242e-13,3.164886292e-12,8.740848537e-13,3.357790811e-12,2.180733752e-12,5.526080516e-13,1.275841389e-12,8.606068736e-13,2.743638297e-12,2.391544377e-12,1.092741392e-12,3.43971256e-13,1.116657683e-12,3.558011797e-13,4.465832279e-13,2.039852215e-13,2.218242487e-13,2.654553078e-13,8.3884651e-13,3.021356267e-13,7.110845733e-13,4.408552372e-13,1.429290595e-13
0.2734375,5.795119261e-13,5.16456947e-13,1.00301926e-12,3.378139709e-13,3.250787166e-13,6.919060451e-13,1.052716584e-12,1.787570772e-13,2.954317484e-13,6.137832218e-13,3.098395579e-12,8.775327818e-13,3.383155011e-12,2.165231156e-12,5.07257888e-13,1.257839371e-12,8.282320224e-13,2.785451438e-12,2.436371261e-12,1.003196707e-12,3.437575233e-13,1.130331968e-12,3.54124698e-13,4.485866577e-13,2.065500317e-13,2.126586118e-13,2.686746423e-13,8.526727844e-13,3.062059415e-13,7.251512408e-13,4.25732007e-13,1.434621876e-13
0.28125,5.847242676e-13,5.156346655e-13,1.01449388e-12,3.355215541e-13,3.167581759e-13,7.042298225e-13,1.056175623e-12,1.763556917e-13,3.026421083e-13,6.052184916e-13,3.016686346e-12,8.790306206e-13,3.385831725e-12,2.142181641e-12,4.65731428e-13,1.233954272e-12,7.952210493e-13,2.81134303e-12,2.468126986e-12,9.202559015e-13,3.427175594e-13,1.13803861e-12,3.51670599e-13,4.492937399e-13,2.088327638e-13,2.044032484e-13,2.726612767e-13,8.642512713e-13,3.103484086e-13,7.367154353e-13,4.119503277e-13,1.445590352e-13
0.2890625,5.876156151e-13,5.135403485e-13,1.021570674e-12,3.325387737e-13,3.07916661e-13,7.11623266e-13,1.053446912e-12,1.738980059e-13,3.085862054e-13,5.944655042e-13,2.922625907e-12,8.789516294e-13,3.367908433e-12,2.112295917e-12,4.272471772e-13,1.204429379e-12,7.618472547e-13,2.820550818e-12,2.485579971e-12,8.447904521e-13,3.404809423e-13,1.139566227e-12,3.48170713e-13,4.492042336e-13,2.110786028e-13,1.972683424e-13,2.769697276e-13,8.730946827e-13,3.142555349e-13,7.454103958e-13,3.993930373e-13,1.464902609e-13
0.296875,5.876307717e-13,5.095272012e-13,1.023029914e-12,3.282672004e-13,2.987260962e-13,7.139241517e-13,1.045006358e-12,1.712914643e-13,3.1340678e-13,5.823541758e-13,2.818786558e-12,8.769318727e-13,3.330892665e-12,2.074288103e-12,3.916591279e-13,1.169162159e-12,7.285387115e-13,2.811426627e-12,2.48671356e-12,7.776174986e-13,3.366873817e-13,1.134897441e-12,3.434620843e-13,4.483963992e-13,2.132325721e-13,1.912839991e-13,2.813134401e-13,8.791851846e-13,3.176466842e-13,7.505531348e-13,3.877219131e-13,1.494735752e-13
0.3046875,5.84740343e-13,5.033976509e-13,1.018579182e-12,3.225905971e-13,2.889104074e-13,7.11205708e-13,1.031330751e-12,1.682577332e-13,3.171463054e-13,5.69253304e-13,2.706812333e-12,8.730463936e-13,3.274654639e-12,2.028141696e-12,3.590931197e-13,1.128242297e-12,6.952565105e-13,2.782754894e-12,2.470824892e-12,7.17903274e-13,3.314011541e-13,1.124314051e-12,3.378048633e-13,4.473531638e-13,2.155161965e-13,1.860269493e-13,2.856309288e-13,8.826644623e-13,3.202938845e-13,7.51987982e-13,3.767050078e-13,1.530897669e-13
0.3125,5.789672255e-13,4.950795383e-13,1.008236964e-12,3.155486057e-13,2.782077419e-13,7.033092273e-13,1.011887955e-12,1.643138151e-13,3.197249512e-13,5.551331115e-13,2.588207697e-12,8.675436078e-13,3.200259786e-12,1.97520153e-12,3.293205626e-13,1.082429858e-12,6.61958639e-13,2.734788262e-12,2.437759966e-12,6.643367305e-13,3.242267381e-13,1.107573458e-12,3.310125706e-13,4.462869931e-13,2.181798462e-13,1.81321171e-13,2.898010811e-13,8.836903332e-13,3.221370295e-13,7.498980456e-13,3.662348242e-13,1.571200922e-13
0.3203125,5.703685653e-13,4.845338059e-13,9.919683257e-13,3.0707019e-13,2.669452991e-13,6.904127372e-13,9.87135036e-13,1.594472332e-13,3.211822391e-13,5.405615303e-13,2.464587713e-12,8.603682602e-13,3.110793451e-12,1.915849548e-12,3.027788683e-13,1.033026587e-12,6.293696112e-13,2.669524004e-12,2.388592765e-12,6.167774403e-13,3.150847788e-13,1.084906983e-12,3.227958384e-13,4.450378522e-13,2.211349585e-13,1.772789733e-13,2.935941831e-13,8.823938363e-13,3.230752058e-13,7.442819897e-13,3.563209406e-13,1.61786328e-13
0.328125,5.590505493e-13,4.71688852e-13,9.696162557e-13,2.970885111e-13,2.556380208e-13,6.725983368e-13,9.574302855e-13,1.538828896e-13,3.214189593e-13,5.253791841e-13,2.335671022e-12,8.513397464e-13,3.005799065e-12,1.850143193e-12,2.797965579e-13,9.821905221e-13,5.982830741e-13,2.588339212e-12,2.323897007e-12,5.747603585e-13,3.042416116e-13,1.056241201e-12,3.132512321e-13,4.438621509e-13,2.243511333e-13,1.736906524e-13,2.970313082e-13,8.788393137e-13,3.226198422e-13,7.349894314e-13,3.466712624e-13,1.670290634e-13
0.3359375,5.452289596e-13,4.56451193e-13,9.413102188e-13,2.856292218e-13,2.442083313e-13,6.497088457e-13,9.225698938e-13,1.475845233e-13,3.203430286e-13,5.097035967e-13,2.204824978e-12,8.404966284e-13,2.885304469e-12,1.778198399e-12,2.586974297e-13,9.287545975e-13,5.680256038e-13,2.492475783e-12,2.244211636e-12,5.3746818e-13,2.918091872e-13,1.021055532e-12,3.021573952e-13,4.432355659e-13,2.279716432e-13,1.70341035e-13,2.999441856e-13,8.733556719e-13,3.209624244e-13,7.220758559e-13,3.370973006e-13,1.722455238e-13
0.34375,5.296697041e-13,4.393777862e-13,9.090134798e-13,2.731261497e-13,2.326318829e-13,6.234326694e-13,8.845203841e-13,1.409387824e-13,3.181190099e-13,4.948576001e-13,2.07752827e-12,8.284295665e-13,2.755307644e-12,1.702580081e-12,2.398835625e-13,8.738182539e-13,5.390609454e-13,2.386622763e-12,2.153305283e-12,5.048342703e-13,2.782150691e-13,9.809557128e-13,2.898133303e-13,4.434171567e-13,2.320494118e-13,1.672776683e-13,3.023269918e-13,8.665083828e-13,3.184266984e-13,7.059630959e-13,3.278836464e-13,1.772524479e-13
0.3515625,5.122788838e-13,4.205191759e-13,8.746242055e-13,2.596163361e-13,2.211011919e-13,5.951685053e-13,8.450059047e-13,1.344981611e-13,3.149654136e-13,4.814308847e-13,1.956897415e-12,8.149280233e-13,2.619089628e-12,1.623150529e-12,2.234365866e-13,8.181039597e-13,5.115508458e-13,2.271957464e-12,2.053190194e-12,4.768164227e-13,2.637693601e-13,9.375066114e-13,2.770105655e-13,4.446261038e-13,2.365216679e-13,1.645557992e-13,3.040479591e-13,8.588313582e-13,3.147999159e-13,6.868585167e-13,3.190853116e-13,1.821153298e-13
0.359375,4.930973711e-13,3.998797242e-13,8.372988314e-13,2.453111426e-13,2.094452405e-13,5.640960167e-13,8.037398708e-13,1.28253741e-13,3.108190064e-13,4.69333218e-13,1.842526652e-12,7.996901934e-13,2.476167789e-12,1.539817707e-12,2.092617071e-13,7.617427235e-13,4.847913472e-13,2.147539647e-12,1.94325679e-12,4.521546383e-13,2.483458854e-13,8.911523596e-13,2.641838998e-13,4.469291394e-13,2.415077262e-13,1.618512846e-13,3.052281034e-13,8.50370497e-13,3.097744704e-13,6.644494084e-13,3.102907138e-13,1.868226542e-13
0.3671875,4.729230677e-13,3.78112376e-13,7.971224472e-13,2.307419791e-13,1.97901552e-13,5.308663685e-13,7.605392122e-13,1.224036063e-13,3.056329885e-13,4.588170518e-13,1.73480404e-12,7.829867802e-13,2.328825505e-12,1.454242311e-12,1.965830521e-13,7.053710459e-13,4.58928271e-13,2.017368068e-12,1.826955145e-12,4.300982462e-13,2.326001968e-13,8.422180391e-13,2.509574751e-13,4.504861365e-13,2.471643493e-13,1.590869031e-13,3.061137949e-13,8.411179449e-13,3.038083071e-13,6.396049905e-13,3.019294511e-13,1.909288596e-13
0.375,4.517892778e-13,3.552572387e-13,7.548480204e-13,2.159021195e-13,1.868146574e-13,4.967364042e-13,7.172551526e-13,1.173128093e-13,2.992838832e-13,4.504999479e-13,1.636741611e-12,7.650731563e-13,2.179565325e-12,1.367149708e-12,1.857989431e-13,6.505864332e-13,4.352215753e-13,1.88461712e-12,1.706958814e-12,4.112426164e-13,2.169979257e-13,7.914535765e-13,2.376560982e-13,4.557537936e-13,2.534502406e-13,1.564584437e-13,3.068274893e-13,8.314864151e-13,2.966059252e-13,6.126481174e-13,2.938192282e-13,1.945616828e-13
0.3828125,4.298478246e-13,3.317943648e-13,7.1082839e-13,2.009583707e-13,1.761705022e-13,4.620099888e-13,6.743332024e-13,1.127471746e-13,2.92136101e-13,4.440566447e-13,1.546821601e-12,7.461307616e-13,2.028911026e-12,1.279415437e-12,1.769887928e-13,5.984343534e-13,4.133659692e-13,1.749377103e-12,1.583745775e-12,3.949440638e-13,2.015901299e-13,7.398455988e-13,2.245792018e-13,4.628382372e-13,2.603248334e-13,1.537684822e-13,3.076547698e-13,8.21731412e-13,2.881982417e-13,5.840526641e-13,2.856621141e-13,1.979116037e-13
0.390625,4.075556319e-13,3.083330628e-13,6.64812049e-13,1.863745427e-13,1.65811808e-13,4.268888073e-13,6.309385133e-13,1.084260877e-13,2.844246582e-13,4.392256657e-13,1.463913459e-12,7.265024968e-13,1.87792604e-12,1.192957399e-12,1.697764326e-13,5.493925443e-13,3.933103627e-13,1.613974326e-12,1.458816815e-12,3.802801474e-13,1.866746219e-13,6.877522783e-13,2.117828797e-13,4.717559519e-13,2.67882835e-13,1.507288817e-13,3.087261913e-13,8.117538462e-13,2.789127325e-13,5.546370651e-13,2.775409807e-13,2.004654111e-13
0.3984375,3.853721941e-13,2.853626375e-13,6.172212066e-13,1.7254789e-13,1.562483373e-13,3.921692419e-13,5.878096239e-13,1.046610457e-13,2.761083046e-13,4.361547926e-13,1.388533417e-12,7.065674166e-13,1.729298841e-12,1.109474258e-12,1.644192992e-13,5.043295005e-13,3.753625908e-13,1.482357121e-12,1.335112412e-12,3.666107531e-13,1.727005641e-13,6.352706722e-13,1.991075123e-13,4.832971519e-13,2.761832579e-13,1.475073186e-13,3.100863835e-13,8.021181142e-13,2.690228598e-13,5.250580628e-13,2.700137561e-13,2.015177346e-13
0.40625,3.634640122e-13,2.630047201e-13,5.694711073e-13,1.593854623e-13,1.477694271e-13,3.585153184e-13,5.464177565e-13,1.015755024e-13,2.672795623e-13,4.351004754e-13,1.321105199e-12,6.863172997e-13,1.583973664e-12,1.028964173e-12,1.61104824e-13,4.634385704e-13,3.591881633e-13,1.355392663e-12,1.21412637e-12,3.534840279e-13,1.597164469e-13,5.8310152e-13,1.866707984e-13,4.977924763e-13,2.851637931e-13,1.442510913e-13,3.120676946e-13,7.936228524e-13,2.585953154e-13,4.95808605e-13,2.629225159e-13,2.01392898e-13
0.4140625,3.419055042e-13,2.414423217e-13,5.228377329e-13,1.469784773e-13,1.400334317e-13,3.262984657e-13,5.073423647e-13,9.906714763e-14,2.580246246e-13,4.358883358e-13,1.261948952e-12,6.658552439e-13,1.442638546e-12,9.51729138e-13,1.592952038e-13,4.262905387e-13,3.444143925e-13,1.233459833e-12,1.096691821e-12,3.407128446e-13,1.478633141e-13,5.320076412e-13,1.749242031e-13,5.148591032e-13,2.946705885e-13,1.406858025e-13,3.146676069e-13,7.864263645e-13,2.477680611e-13,4.674404362e-13,2.55612887e-13,2.002622642e-13
0.421875,3.208168387e-13,2.209170573e-13,4.782164085e-13,1.356612639e-13,1.328557111e-13,2.961555044e-13,4.710283296e-13,9.736737147e-14,2.487838787e-13,4.384088353e-13,1.210759326e-12,6.454813564e-13,1.308470808e-12,8.781302311e-13,1.580452071e-13,3.924648433e-13,3.307999125e-13,1.118118622e-12,9.842707545e-13,3.280951284e-13,1.371939564e-13,4.830210214e-13,1.639590701e-13,5.348943977e-13,3.046865069e-13,1.364367713e-13,3.171323776e-13,7.81296079e-13,2.36499486e-13,4.39826749e-13,2.475292362e-13,1.978464628e-13
0.4296875,3.006239959e-13,2.021093194e-13,4.355367756e-13,1.257355146e-13,1.268801803e-13,2.681383443e-13,4.373728634e-13,9.686762623e-14,2.402308201e-13,4.428595989e-13,1.167193282e-12,6.261534452e-13,1.182606957e-12,8.084092365e-13,1.572438682e-13,3.621221026e-13,3.185030342e-13,1.010814438e-12,8.786648271e-13,3.155438448e-13,1.278764392e-13,4.364175719e-13,1.534876133e-13,5.579379243e-13,3.153767712e-13,1.320530054e-13,3.203969728e-13,7.785078124e-13,2.257158456e-13,4.140510012e-13,2.399067321e-13,1.94111262e-13
0.4375,2.809689206e-13,1.848585298e-13,3.939016113e-13,1.171844037e-13,1.225484616e-13,2.41963336e-13,4.06135042e-13,9.772536603e-14,2.320141907e-13,4.487998606e-13,1.131477593e-12,6.072097542e-13,1.063224644e-12,7.419408752e-13,1.582819132e-13,3.357487009e-13,3.077654569e-13,9.108808891e-13,7.792425118e-13,3.035478177e-13,1.201663613e-13,3.921367634e-13,1.439319523e-13,5.835451694e-13,3.265583906e-13,1.278388616e-13,3.241897108e-13,7.772653122e-13,2.151009894e-13,3.898382622e-13,2.325077708e-13,1.894153097e-13
0.4453125,2.624604317e-13,1.695527057e-13,3.543587563e-13,1.101534064e-13,1.196206915e-13,2.183987193e-13,3.777089625e-13,9.992312111e-14,2.240585063e-13,4.563292065e-13,1.104033981e-12,5.892216603e-13,9.515040811e-13,6.802819843e-13,1.611079921e-13,3.136746218e-13,2.986992502e-13,8.194112755e-13,6.86960449e-13,2.921040048e-13,1.141401595e-13,3.509678017e-13,1.356333817e-13,6.116062382e-13,3.3808315e-13,1.237161967e-13,3.285229532e-13,7.769258643e-13,2.047503036e-13,3.673089489e-13,2.250391319e-13,1.839411704e-13
0.453125,2.456081884e-13,1.563148143e-13,3.173797319e-13,1.04666813e-13,1.176352679e-13,1.976428785e-13,3.527485604e-13,1.033613626e-13,2.169622543e-13,4.65687506e-13,1.085197222e-12,5.728513456e-13,8.496787842e-13,6.23759177e-13,1.660415197e-13,2.952094397e-13,2.913120608e-13,7.373350986e-13,6.031004285e-13,2.805274159e-13,1.098184622e-13,3.139524772e-13,1.28643639e-13,6.415015238e-13,3.500483117e-13,1.195115321e-13,3.333698621e-13,7.777937872e-13,1.949312424e-13,3.468178149e-13,2.172794639e-13,1.779052551e-13
0.4609375,2.300604801e-13,1.451069147e-13,2.818667284e-13,1.00753591e-13,1.166616506e-13,1.790622117e-13,3.305658258e-13,1.077965258e-13,2.109401617e-13,4.760969827e-13,1.072873031e-12,5.577650467e-13,7.569554208e-13,5.718179041e-13,1.74430439e-13,2.805106772e-13,2.856007137e-13,6.632692987e-13,5.26482735e-13,2.690477782e-13,1.069816283e-13,2.812081446e-13,1.22805537e-13,6.730428868e-13,3.62354192e-13,1.152652084e-13,3.387267304e-13,7.804188032e-13,1.857094185e-13,3.283682811e-13,2.094272047e-13,1.716439441e-13
0.46875,2.154493221e-13,1.35635549e-13,2.479090936e-13,9.822198529e-14,1.168328837e-13,1.624660245e-13,3.106845969e-13,1.130083029e-13,2.0581494e-13,4.873717397e-13,1.065198811e-12,5.438649592e-13,6.71993142e-13,5.24580081e-13,1.847942371e-13,2.697886828e-13,2.819493505e-13,5.966613005e-13,4.561639605e-13,2.582711633e-13,1.054271397e-13,2.519658578e-13,1.178489894e-13,7.067120739e-13,3.74800018e-13,1.109997026e-13,3.443980564e-13,7.846139273e-13,1.766354092e-13,3.11803792e-13,2.01530707e-13,1.65155365e-13
0.4765625,2.019116782e-13,1.279206026e-13,2.167617604e-13,9.708032701e-14,1.179647815e-13,1.483190791e-13,2.943618058e-13,1.190266029e-13,2.014797769e-13,4.996480345e-13,1.062127748e-12,5.312825731e-13,5.962028021e-13,4.823226395e-13,1.966045061e-13,2.629244762e-13,2.801970386e-13,5.387005655e-13,3.931067191e-13,2.480539024e-13,1.053011588e-13,2.263264757e-13,1.138763947e-13,7.42021603e-13,3.870721868e-13,1.066836811e-13,3.495358485e-13,7.894588429e-13,1.674601353e-13,2.9697713e-13,1.932780537e-13,1.583058718e-13
0.484375,1.896244184e-13,1.222668449e-13,1.891196029e-13,9.748098437e-14,1.198586018e-13,1.370249595e-13,2.818675078e-13,1.25844275e-13,1.980082701e-13,5.127400872e-13,1.063941727e-12,5.202587225e-13,5.308901995e-13,4.450459901e-13,2.10557971e-13,2.596445297e-13,2.799547774e-13,4.892221733e-13,3.375656464e-13,2.389918487e-13,1.064072763e-13,2.049967031e-13,1.108856239e-13,7.78488254e-13,3.990037754e-13,1.026151584e-13,3.539540848e-13,7.946341284e-13,1.586143641e-13,2.839191237e-13,1.850465956e-13,1.518745277e-13
0.4921875,1.785304e-13,1.18610721e-13,1.646820228e-13,9.935842457e-14,1.225823342e-13,1.283949843e-13,2.726855427e-13,1.333319274e-13,1.955096545e-13,5.268536827e-13,1.071758499e-12,5.115336603e-13,4.760071076e-13,4.135352397e-13,2.277227268e-13,2.603400399e-13,2.822975331e-13,4.483344934e-13,2.894748314e-13,2.318889458e-13,1.085103474e-13,1.879481578e-13,1.090322804e-13,8.151726317e-13,4.106562899e-13,9.93602915e-14,3.586817337e-13,7.993294974e-13,1.506168273e-13,2.733930686e-13,1.774857203e-13,1.463629631e-13
0.5,1.679259844e-13,1.162189434e-13,1.428809602e-13,1.021542795e-13,1.262607615e-13,1.219718382e-13,2.669148242e-13,1.416654868e-13,1.940654937e-13,5.415589694e-13,1.083089165e-12,5.041287689e-13,4.316592617e-13,3.864984206e-13,2.482144481e-13,2.644259389e-13,2.867881008e-13,4.147434582e-13,2.481203464e-13,2.258589383e-13,1.11692669e-13,1.751151052e-13,1.084172164e-13,8.51061882e-13,4.217343333e-13,9.658816599e-14,3.621000969e-13,8.024845383e-13,1.427484989e-13,2.642991103e-13,1.698328258e-13,1.415933902e-13
0.5078125,1.580929086e-13,1.15033797e-13,1.238426092e-13,1.055869206e-13,1.305241026e-13,1.177273877e-13,2.640871602e-13,1.50871478e-13,1.935502728e-13,5.564276524e-13,1.096795366e-12,4.982093466e-13,3.962717885e-13,3.638466309e-13,2.713517245e-13,2.71596565e-13,2.926832767e-13,3.876028635e-13,2.125685157e-13,2.209484744e-13,1.156310738e-13,1.65991469e-13,1.087032122e-13,8.853953842e-13,4.319848981e-13,9.420170696e-14,3.637447744e-13,8.033440433e-13,1.350106357e-13,2.564604193e-13,1.619391283e-13,1.377307462e-13
0.515625,1.493827534e-13,1.153005316e-13,1.07780255e-13,1.098715076e-13,1.351466422e-13,1.159321964e-13,2.63961013e-13,1.605831073e-13,1.932119782e-13,5.70818599e-13,1.11393371e-12,4.928151629e-13,3.685899093e-13,3.453226562e-13,2.968833556e-13,2.813592396e-13,3.000497113e-13,3.67250587e-13,1.828377739e-13,2.172732884e-13,1.200244452e-13,1.601683101e-13,1.09816268e-13,9.163959379e-13,4.409561696e-13,9.215938949e-14,3.636960905e-13,8.009152329e-13,1.273397784e-13,2.495749024e-13,1.537311737e-13,1.347293883e-13
0.5234375,1.415710238e-13,1.16981629e-13,9.412704767e-14,1.150388353e-13,1.402766163e-13,1.162006175e-13,2.666264094e-13,1.708415439e-13,1.928898284e-13,5.846102133e-13,1.13444989e-12,4.874479872e-13,3.496603293e-13,3.309469711e-13,3.253999148e-13,2.936269703e-13,3.093393936e-13,3.535141681e-13,1.589563275e-13,2.150017226e-13,1.248036071e-13,1.580326971e-13,1.120619094e-13,9.429023091e-13,4.482659466e-13,9.057473588e-14,3.62253717e-13,7.938766964e-13,1.200747842e-13,2.433057695e-13,1.45209211e-13,1.328384208e-13
0.53125,1.346576089e-13,1.198058994e-13,8.222827951e-14,1.207827087e-13,1.462980055e-13,1.179985929e-13,2.71387441e-13,1.818416701e-13,1.929729448e-13,5.977947831e-13,1.156554028e-12,4.825713926e-13,3.389851693e-13,3.208378882e-13,3.569351127e-13,3.083634748e-13,3.208690801e-13,3.451583751e-13,1.395873496e-13,2.149903237e-13,1.299750758e-13,1.591365443e-13,1.151665896e-13,9.65129058e-13,4.541633571e-13,8.958919922e-14,3.595368098e-13,7.823944537e-13,1.133931601e-13,2.376472301e-13,1.366552932e-13,1.327375236e-13
0.5390625,1.287191829e-13,1.233435083e-13,7.21863388e-14,1.267620304e-13,1.527512908e-13,1.210110473e-13,2.773108163e-13,1.927205624e-13,1.934511657e-13,6.096072838e-13,1.179282635e-12,4.77957229e-13,3.349131779e-13,3.145008852e-13,3.911441253e-13,3.248299788e-13,3.342324357e-13,3.412304381e-13,1.237326455e-13,2.170823035e-13,1.351656514e-13,1.627178071e-13,1.188500718e-13,9.822670639e-13,4.585148403e-13,8.922572348e-14,3.555135573e-13,7.669229321e-13,1.071647478e-13,2.327144711e-13,1.281405336e-13,1.341538872e-13
0.546875,1.23252961e-13,1.26887436e-13,6.39286796e-14,1.32694201e-13,1.587552575e-13,1.247451131e-13,2.840018939e-13,2.026245387e-13,1.941761601e-13,6.199903953e-13,1.203938603e-12,4.739504021e-13,3.364278112e-13,3.117489117e-13,4.276372642e-13,3.423712796e-13,3.490477634e-13,3.408636117e-13,1.108680858e-13,2.211057682e-13,1.399695156e-13,1.68451179e-13,1.230826599e-13,9.944982884e-13,4.61124407e-13,8.971910345e-14,3.502121566e-13,7.482387706e-13,1.013269114e-13,2.286269481e-13,1.196442969e-13,1.367740443e-13
0.5546875,1.181462676e-13,1.303386659e-13,5.739285918e-14,1.38696304e-13,1.645128984e-13,1.29179502e-13,2.915685582e-13,2.117532172e-13,1.950060787e-13,6.29221982e-13,1.231780827e-12,4.707312846e-13,3.433681783e-13,3.126225374e-13,4.671956989e-13,3.613949e-13,3.653238935e-13,3.440285689e-13,1.010604205e-13,2.272264188e-13,1.444795778e-13,1.761771156e-13,1.277655579e-13,1.002874839e-12,4.622010802e-13,9.117612472e-14,3.431834525e-13,7.277488107e-13,9.559247904e-14,2.252442957e-13,1.1129043e-13,1.410953714e-13
0.5625,1.135034264e-13,1.336975365e-13,5.236436012e-14,1.446500933e-13,1.699301582e-13,1.340536569e-13,2.993671443e-13,2.199945941e-13,1.959308325e-13,6.364217227e-13,1.26177039e-12,4.671871033e-13,3.562592926e-13,3.159103626e-13,5.090347056e-13,3.809562928e-13,3.824311826e-13,3.495956278e-13,9.420224615e-14,2.346094575e-13,1.485348823e-13,1.862765474e-13,1.328937148e-13,1.006451293e-12,4.613760683e-13,9.322058472e-14,3.341540278e-13,7.056309001e-13,8.9887343e-14,2.219571512e-13,1.032674778e-13,1.473460706e-13
0.5703125,1.09036587e-13,1.364137999e-13,4.820954861e-14,1.501917314e-13,1.740816949e-13,1.387742291e-13,3.067922782e-13,2.269573767e-13,1.969493881e-13,6.411949339e-13,1.292653738e-12,4.634409861e-13,3.734245046e-13,3.213780674e-13,5.524208038e-13,3.997797702e-13,3.998808094e-13,3.554989996e-13,8.900120099e-14,2.429326556e-13,1.517711888e-13,1.984070311e-13,1.384529513e-13,1.004538585e-12,4.587039866e-13,9.570251666e-14,3.238968913e-13,6.819534636e-13,8.4537237e-14,2.187416067e-13,9.572242509e-14,1.550258177e-13
0.578125,1.048423988e-13,1.384081143e-13,4.509880681e-14,1.553624673e-13,1.771201044e-13,1.435841665e-13,3.141322594e-13,2.330639203e-13,1.975443554e-13,6.44294533e-13,1.323907234e-12,4.600219545e-13,3.919646962e-13,3.301813648e-13,5.984740192e-13,4.18693809e-13,4.180972655e-13,3.623751678e-13,8.495856147e-14,2.527652854e-13,1.542397681e-13,2.113985963e-13,1.443860169e-13,9.97460297e-13,4.547619972e-13,9.888623797e-14,3.128513974e-13,6.570216179e-13,7.948579081e-14,2.159021604e-13,8.888307083e-14,1.638225316e-13
0.5859375,1.012045672e-13,1.399797534e-13,4.321559114e-14,1.600809123e-13,1.797851265e-13,1.488397207e-13,3.209256714e-13,2.389732542e-13,1.972738127e-13,6.457680612e-13,1.354831905e-12,4.561982964e-13,4.112531345e-13,3.420410817e-13,6.465730423e-13,4.378391146e-13,4.371989669e-13,3.713235582e-13,8.23552586e-14,2.640912854e-13,1.560719361e-13,2.248320088e-13,1.506299067e-13,9.852392413e-13,4.494315849e-13,1.026350139e-13,3.009477089e-13,6.303314224e-13,7.451719932e-14,2.131406621e-13,8.308182303e-14,1.737532009e-13
0.59375,9.779032681e-14,1.407516493e-13,4.232395466e-14,1.638118913e-13,1.817796133e-13,1.542070299e-13,3.268697892e-13,2.4483506e-13,1.961711211e-13,6.451081613e-13,1.385181815e-12,4.518998738e-13,4.316352984e-13,3.559163939e-13,6.955240097e-13,4.561510875e-13,4.562128834e-13,3.813097485e-13,8.083926081e-14,2.760995274e-13,1.572146004e-13,2.385184759e-13,1.56971295e-13,9.683268593e-13,4.428231588e-13,1.06470331e-13,2.884245178e-13,6.021990658e-13,6.974785989e-14,2.104697607e-13,7.804123294e-14,1.842829227e-13
0.6015625,9.420639277e-14,1.402303067e-13,4.234420695e-14,1.661119009e-13,1.823432052e-13,1.594007704e-13,3.324646833e-13,2.504237804e-13,1.939382747e-13,6.424869633e-13,1.415158465e-12,4.473273487e-13,4.527242269e-13,3.709864343e-13,7.439441939e-13,4.72747381e-13,4.742607586e-13,3.91399244e-13,8.002735343e-14,2.881597345e-13,1.574803247e-13,2.521871353e-13,1.632463266e-13,9.46705338e-13,4.351038496e-13,1.102868138e-13,2.752751607e-13,5.729084628e-13,6.51818246e-14,2.080512756e-13,7.328301024e-14,1.948685052e-13
0.609375,9.067959499e-14,1.388509347e-13,4.312285824e-14,1.672778739e-13,1.814395134e-13,1.647177551e-13,3.371876601e-13,2.558413208e-13,1.903380244e-13,6.379496317e-13,1.443265216e-12,4.419498388e-13,4.738855166e-13,3.868846074e-13,7.90999762e-13,4.86859214e-13,4.908137286e-13,4.014012498e-13,7.975922515e-14,3.003419875e-13,1.569098701e-13,2.658682794e-13,1.694991305e-13,9.204674958e-13,4.261299076e-13,1.141056985e-13,2.61399622e-13,5.419859352e-13,6.060584628e-14,2.057399116e-13,6.894723812e-14,2.054338097e-13
0.6171875,8.737279599e-14,1.369180183e-13,4.436491588e-14,1.675468121e-13,1.793128808e-13,1.700055927e-13,3.403250403e-13,2.614643522e-13,1.858250209e-13,6.309366073e-13,1.466088343e-12,4.355423456e-13,4.940374709e-13,4.032655293e-13,8.365763896e-13,4.981546617e-13,5.046843802e-13,4.103470783e-13,7.971418906e-14,3.121214337e-13,1.558117489e-13,2.790023132e-13,1.756785845e-13,8.908172643e-13,4.164116213e-13,1.177102804e-13,2.471090916e-13,5.101780886e-13,5.609278666e-14,2.03544412e-13,6.525905849e-14,2.155073835e-13
0.625,8.412238453e-14,1.340878808e-13,4.579341454e-14,1.665515676e-13,1.757249485e-13,1.751239954e-13,3.422100502e-13,2.67449824e-13,1.806176479e-13,6.218857231e-13,1.483138381e-12,4.283824986e-13,5.116045556e-13,4.193090991e-13,8.785409002e-13,5.06370822e-13,5.14946624e-13,4.16977148e-13,7.95303307e-14,3.224836707e-13,1.542468452e-13,2.907969973e-13,1.816902933e-13,8.582617685e-13,4.064538932e-13,1.209933245e-13,2.329698502e-13,4.789123463e-13,5.197935752e-14,2.016582793e-13,6.231397097e-14,2.245628258e-13
0.6328125,8.098443313e-14,1.304104637e-13,4.730282753e-14,1.646130909e-13,1.708519252e-13,1.804950378e-13,3.428119516e-13,2.739673064e-13,1.746297178e-13,6.120005485e-13,1.496972021e-12,4.207875104e-13,5.26128708e-13,4.351726378e-13,9.165196533e-13,5.116230275e-13,5.215584251e-13,4.211000538e-13,7.917450064e-14,3.314915055e-13,1.522843589e-13,3.014118614e-13,1.877061848e-13,8.233278694e-13,3.965236964e-13,1.241129463e-13,2.192136557e-13,4.493901428e-13,4.833407233e-14,2.004693765e-13,6.020204171e-14,2.329757071e-13
0.640625,7.799404993e-14,1.259698733e-13,4.831802124e-14,1.620806643e-13,1.655138381e-13,1.854901159e-13,3.413512176e-13,2.810858784e-13,1.68246088e-13,6.013030442e-13,1.507538307e-12,4.1267868e-13,5.389691186e-13,4.50694264e-13,9.515858403e-13,5.143593865e-13,5.244691143e-13,4.227189374e-13,7.886244964e-14,3.389502315e-13,1.501083503e-13,3.114417581e-13,1.938239534e-13,7.869622823e-13,3.868946064e-13,1.270143903e-13,2.055011152e-13,4.221773593e-13,4.500889642e-14,1.99816443e-13,5.892901043e-14,2.411753518e-13
0.6484375,7.50027514e-14,1.205316454e-13,4.830279111e-14,1.584567881e-13,1.598099344e-13,1.895266934e-13,3.377354186e-13,2.889637458e-13,1.619947527e-13,5.895927652e-13,1.513514485e-12,4.042690246e-13,5.50795707e-13,4.648156984e-13,9.830209158e-13,5.145678499e-13,5.235973759e-13,4.207932427e-13,7.839032348e-14,3.437278415e-13,1.476302289e-13,3.21069904e-13,1.998903317e-13,7.499334728e-13,3.776195815e-13,1.293220975e-13,1.919288406e-13,3.973937271e-13,4.211737759e-14,1.992551028e-13,5.843671371e-14,2.486711362e-13
0.65625,7.1989891e-14,1.142224339e-13,4.763748051e-14,1.538136544e-13,1.53493672e-13,1.93228256e-13,3.32649145e-13,2.978922467e-13,1.559537292e-13,5.773145183e-13,1.513678961e-12,3.96070628e-13,5.601698019e-13,4.776055443e-13,1.011429899e-12,5.124987435e-13,5.188922711e-13,4.145501999e-13,7.729567087e-14,3.458136731e-13,1.449447897e-13,3.298903539e-13,2.057975147e-13,7.135426596e-13,3.689854884e-13,1.309575125e-13,1.790222073e-13,3.75573717e-13,3.986997151e-14,1.988578182e-13,5.858586293e-14,2.549894969e-13
0.6640625,6.91051973e-14,1.074225191e-13,4.666852394e-14,1.485243529e-13,1.469304507e-13,1.968773863e-13,3.26476359e-13,3.075032877e-13,1.498567128e-13,5.6426887e-13,1.505782799e-12,3.874535138e-13,5.658412943e-13,4.89086033e-13,1.036722361e-12,5.084998526e-13,5.103062416e-13,4.050023325e-13,7.565520197e-14,3.455632005e-13,1.422108778e-13,3.37430108e-13,2.114659131e-13,6.775640382e-13,3.609138127e-13,1.321252353e-13,1.669095415e-13,3.564010812e-13,3.823278691e-14,1.983901057e-13,5.926366538e-14,2.601942848e-13
0.671875,6.647240318e-14,1.003304789e-13,4.539731651e-14,1.424073167e-13,1.401769636e-13,2.00201925e-13,3.193804438e-13,3.175554564e-13,1.43552289e-13,5.50439537e-13,1.491269232e-12,3.779525314e-13,5.67864666e-13,4.985020002e-13,1.057537496e-12,5.024272049e-13,4.981112077e-13,3.934651954e-13,7.375677209e-14,3.428147392e-13,1.392849313e-13,3.435002091e-13,2.168242338e-13,6.411092874e-13,3.531236986e-13,1.328318368e-13,1.55698972e-13,3.394590557e-13,3.716550445e-14,1.977422066e-13,6.049224601e-14,2.638757024e-13
0.6796875,6.406541911e-14,9.308723528e-14,4.401979999e-14,1.355484072e-13,1.328677553e-13,2.032913728e-13,3.119253341e-13,3.287120289e-13,1.371934188e-13,5.370162867e-13,1.473593052e-12,3.683753326e-13,5.666533967e-13,5.052244666e-13,1.073985983e-12,4.938572257e-13,4.824606886e-13,3.800493293e-13,7.184844138e-14,3.385408889e-13,1.364839681e-13,3.478680564e-13,2.218053446e-13,6.052460109e-13,3.459795001e-13,1.3300316e-13,1.455134369e-13,3.254596539e-13,3.670909485e-14,1.972083525e-13,6.234852625e-14,2.654214829e-13
0.6875,6.182122643e-14,8.584757022e-14,4.274027693e-14,1.284655677e-13,1.253732782e-13,2.066421513e-13,3.044314021e-13,3.41317023e-13,1.310139491e-13,5.24786834e-13,1.452779394e-12,3.590807752e-13,5.62535374e-13,5.091160592e-13,1.085509002e-12,4.825175904e-13,4.637441691e-13,3.653434043e-13,7.045288202e-14,3.336491092e-13,1.342337246e-13,3.506370766e-13,2.263845333e-13,5.706957318e-13,3.395692927e-13,1.328652104e-13,1.361709075e-13,3.143656059e-13,3.673414286e-14,1.967091194e-13,6.479179032e-14,2.652745696e-13
0.6953125,5.971128822e-14,7.875334437e-14,4.139253496e-14,1.21417889e-13,1.182721629e-13,2.100758029e-13,2.968597596e-13,3.54926357e-13,1.250719869e-13,5.134149386e-13,1.428374268e-12,3.498265086e-13,5.557234608e-13,5.106200481e-13,1.092686209e-12,4.689744666e-13,4.427587699e-13,3.508945862e-13,7.004586461e-14,3.275001029e-13,1.324563698e-13,3.521426558e-13,2.306738454e-13,5.378083195e-13,3.339714149e-13,1.325692718e-13,1.275963175e-13,3.059732144e-13,3.712155607e-14,1.963112483e-13,6.768257251e-14,2.638745149e-13
0.703125,5.764970941e-14,7.180398265e-14,3.987202217e-14,1.141331161e-13,1.11228336e-13,2.128463062e-13,2.895478881e-13,3.692420962e-13,1.194211299e-13,5.027173692e-13,1.399838093e-12,3.405170927e-13,5.466170801e-13,5.091991847e-13,1.095939102e-12,4.533764813e-13,4.194466184e-13,3.36578903e-13,7.065473648e-14,3.193820557e-13,1.310828639e-13,3.522746622e-13,2.345534735e-13,5.071192639e-13,3.29376012e-13,1.318402389e-13,1.199436085e-13,3.006344899e-13,3.798671672e-14,1.959379967e-13,7.087041939e-14,2.606303798e-13
0.7109375,5.555042717e-14,6.489099385e-14,3.836370204e-14,1.064734038e-13,1.040682525e-13,2.150393823e-13,2.824345371e-13,3.84254353e-13,1.142996783e-13,4.92796782e-13,1.365886626e-12,3.310803639e-13,5.351415945e-13,5.043235775e-13,1.093776147e-12,4.359040678e-13,3.941502118e-13,3.216725875e-13,7.195308735e-14,3.095469466e-13,1.298484584e-13,3.5077787e-13,2.376961309e-13,4.779946451e-13,3.250776716e-13,1.309080668e-13,1.132726828e-13,2.977320736e-13,3.938963455e-14,1.953989672e-13,7.429678327e-14,2.557083389e-13
0.71875,5.358187429e-14,5.837224865e-14,3.709704447e-14,9.897442666e-14,9.750646285e-14,2.172295542e-13,2.75423617e-13,3.993948748e-13,1.096913542e-13,4.832872223e-13,1.327945319e-12,3.213958764e-13,5.209371416e-13,4.972418274e-13,1.088534744e-12,4.185920439e-13,3.6828716e-13,3.07793955e-13,7.414167635e-14,2.990498065e-13,1.284409461e-13,3.474896806e-13,2.4008506e-13,4.49941039e-13,3.205826272e-13,1.302023325e-13,1.074736568e-13,2.963513362e-13,4.125354917e-14,1.951325372e-13,7.798520667e-14,2.49917617e-13
0.7265625,5.185671116e-14,5.258907168e-14,3.617361834e-14,9.190476929e-14,9.178628614e-14,2.194528686e-13,2.694549615e-13,4.138745706e-13,1.054166836e-13,4.74266202e-13,1.288647412e-12,3.112028172e-13,5.052834092e-13,4.879180093e-13,1.08160145e-12,4.024458358e-13,3.424125401e-13,2.961885905e-13,7.785402085e-14,2.883066345e-13,1.269755564e-13,3.427911824e-13,2.418995242e-13,4.228197935e-13,3.160293025e-13,1.294922358e-13,1.024925081e-13,2.960742638e-13,4.363865927e-14,1.950962883e-13,8.182619821e-14,2.431221753e-13
0.734375,5.018377783e-14,4.723770574e-14,3.536860268e-14,8.489805218e-14,8.672962622e-14,2.216213152e-13,2.648849824e-13,4.279528746e-13,1.017004426e-13,4.666188559e-13,1.248854252e-12,3.00803801e-13,4.895710899e-13,4.753531336e-13,1.070636056e-12,3.867882454e-13,3.166757607e-13,2.857620766e-13,8.292299415e-14,2.769539234e-13,1.256953618e-13,3.375003004e-13,2.432876235e-13,3.969002847e-13,3.113694912e-13,1.289445584e-13,9.838993938e-14,2.965210426e-13,4.656599735e-14,1.948090797e-13,8.569813011e-14,2.355579444e-13
0.7421875,4.853455597e-14,4.216671319e-14,3.469501518e-14,7.7956364e-14,8.255957036e-14,2.238992015e-13,2.611366737e-13,4.420791621e-13,9.870235567e-14,4.60386075e-13,1.20768259e-12,2.909710825e-13,4.733221804e-13,4.605774177e-13,1.056529588e-12,3.720244764e-13,2.91779697e-13,2.760478165e-13,8.880834839e-14,2.658512447e-13,1.248663976e-13,3.317847432e-13,2.444723029e-13,3.730075947e-13,3.0671816e-13,1.290136744e-13,9.507341776e-14,2.973668578e-13,4.975550444e-14,1.942925957e-13,8.954448359e-14,2.28118604e-13
0.75,4.700202322e-14,3.753308278e-14,3.44331217e-14,7.141253123e-14,7.930923715e-14,2.261833945e-13,2.582519113e-13,4.555055272e-13,9.629082025e-14,4.546567579e-13,1.163707229e-12,2.815478513e-13,4.561714861e-13,4.442749725e-13,1.040226854e-12,3.587976828e-13,2.686377642e-13,2.682875258e-13,9.556239686e-14,2.560823958e-13,1.244157873e-13,3.255801135e-13,2.45590118e-13,3.505393095e-13,3.020606979e-13,1.295481555e-13,9.240030486e-14,2.983481104e-13,5.295200709e-14,1.936512357e-13,9.31954097e-14,2.207388292e-13
0.7578125,4.565424786e-14,3.337250913e-14,3.471360527e-14,6.530685464e-14,7.67184248e-14,2.280883008e-13,2.563189907e-13,4.673051713e-13,9.444767437e-14,4.48914646e-13,1.117387222e-12,2.721093096e-13,4.383983147e-13,4.263656693e-13,1.021106671e-12,3.470000375e-13,2.476977723e-13,2.634707847e-13,1.035317824e-13,2.473067086e-13,1.239993228e-13,3.188186278e-13,2.463944419e-13,3.288228621e-13,2.971676102e-13,1.303448763e-13,9.03439907e-14,2.995696247e-13,5.615097867e-14,1.930763104e-13,9.643412325e-14,2.128852076e-13
0.765625,4.460604115e-14,2.973362077e-14,3.558529146e-14,5.973210681e-14,7.467844689e-14,2.290382447e-13,2.548176562e-13,4.772134552e-13,9.300948058e-14,4.430506266e-13,1.070015044e-12,2.628430091e-13,4.197917216e-13,4.075332018e-13,9.999128516e-13,3.362994403e-13,2.286552795e-13,2.611832826e-13,1.126181827e-13,2.391154699e-13,1.234433109e-13,3.10985311e-13,2.464340304e-13,3.08375723e-13,2.919696315e-13,1.315433665e-13,8.879303197e-14,3.010570812e-13,5.939199782e-14,1.925894412e-13,9.931648168e-14,2.047055152e-13
0.7734375,4.373790713e-14,2.659152489e-14,3.686290712e-14,5.478687316e-14,7.312776453e-14,2.287882506e-13,2.538378287e-13,4.851749565e-13,9.184165334e-14,4.371260964e-13,1.021683143e-12,2.536973436e-13,4.006493727e-13,3.873547653e-13,9.763387653e-13,3.262099549e-13,2.115190462e-13,2.608790267e-13,1.223833363e-13,2.318338299e-13,1.22560527e-13,3.021494059e-13,2.455351159e-13,2.888975314e-13,2.860120535e-13,1.332878771e-13,8.76013046e-14,3.020392568e-13,6.26569862e-14,1.917888662e-13,1.019569195e-13,1.964855239e-13
0.78125,4.289659142e-14,2.37962703e-14,3.863132544e-14,5.028297498e-14,7.201496069e-14,2.280450865e-13,2.540109721e-13,4.912755399e-13,9.11608913e-14,4.314663348e-13,9.730658434e-13,2.444988154e-13,3.820904792e-13,3.653083012e-13,9.495843445e-13,3.163575369e-13,1.967194019e-13,2.628916947e-13,1.329414569e-13,2.261180306e-13,1.215247563e-13,2.929813925e-13,2.438541771e-13,2.701843361e-13,2.790796057e-13,1.354028673e-13,8.663277157e-14,3.021886104e-13,6.592457565e-14,1.905355566e-13,1.041951246e-13,1.881284475e-13
0.7890625,4.222884007e-14,2.13891267e-14,4.121163e-14,4.63396642e-14,7.146001146e-14,2.273033373e-13,2.553376217e-13,4.955110946e-13,9.098572328e-14,4.262263314e-13,9.24896094e-13,2.352907623e-13,3.645041633e-13,3.422545391e-13,9.203430558e-13,3.068740923e-13,1.844319793e-13,2.674067731e-13,1.447686744e-13,2.223987105e-13,1.207654964e-13,2.836757563e-13,2.415989599e-13,2.527553041e-13,2.715493682e-13,1.378193169e-13,8.575070138e-14,3.016377851e-13,6.917874828e-14,1.888063251e-13,1.061403596e-13,1.799299272e-13
0.796875,4.176200345e-14,1.946367873e-14,4.433297413e-14,4.316523073e-14,7.151740318e-14,2.261910357e-13,2.574488311e-13,4.975987641e-13,9.116002481e-14,4.212613056e-13,8.765082917e-13,2.260632821e-13,3.476203267e-13,3.184757422e-13,8.89303202e-13,2.977727987e-13,1.743809283e-13,2.736189765e-13,1.574222661e-13,2.205061699e-13,1.201300366e-13,2.741123666e-13,2.387420651e-13,2.364943812e-13,2.63331982e-13,1.406754707e-13,8.493374225e-14,2.99615199e-13,7.233108475e-14,1.863840621e-13,1.078315252e-13,1.722997165e-13
0.8046875,4.122637975e-14,1.784183912e-14,4.775015882e-14,4.048073963e-14,7.193400104e-14,2.243517477e-13,2.600643098e-13,4.974273657e-13,9.17843752e-14,4.163246925e-13,8.279963124e-13,2.169841355e-13,3.315769108e-13,2.939898622e-13,8.550609516e-13,2.882174324e-13,1.660879496e-13,2.801853184e-13,1.697513809e-13,2.200376524e-13,1.192071896e-13,2.642639344e-13,2.349799537e-13,2.215125314e-13,2.542223457e-13,1.437077172e-13,8.411342085e-14,2.95539718e-13,7.515519627e-14,1.831831034e-13,1.088372568e-13,1.649703969e-13
0.8125,4.055788355e-14,1.639011151e-14,5.186955648e-14,3.819811274e-14,7.253690858e-14,2.221362543e-13,2.63291723e-13,4.949442179e-13,9.295587814e-14,4.111838043e-13,7.802606423e-13,2.081538902e-13,3.162715051e-13,2.698822382e-13,8.175182578e-13,2.783063846e-13,1.596407996e-13,2.867354422e-13,1.813485594e-13,2.20667117e-13,1.178521763e-13,2.541533228e-13,2.302522025e-13,2.080497505e-13,2.444897176e-13,1.466718744e-13,8.326068223e-14,2.897129234e-13,7.748856768e-14,1.794080385e-13,1.092378931e-13,1.578304542e-13
0.8203125,3.996064714e-14,1.521175145e-14,5.685767239e-14,3.650225791e-14,7.333550813e-14,2.199944998e-13,2.673687067e-13,4.898891476e-13,9.435507607e-14,4.057886804e-13,7.337277786e-13,1.995189601e-13,3.012255299e-13,2.475041275e-13,7.802853456e-13,2.691687021e-13,1.55287042e-13,2.938278188e-13,1.923441598e-13,2.225428533e-13,1.1607546e-13,2.436927333e-13,2.247465049e-13,1.96168039e-13,2.345635498e-13,1.497303448e-13,8.245674338e-14,2.824263576e-13,7.937546754e-14,1.75464295e-13,1.093224433e-13,1.511848225e-13
0.828125,3.948741661e-14,1.429962365e-14,6.247659287e-14,3.525138775e-14,7.420555786e-14,2.176531018e-13,2.719311739e-13,4.824068335e-13,9.548853247e-14,4.001381634e-13,6.891368159e-13,1.911906112e-13,2.867871399e-13,2.270120451e-13,7.434139435e-13,2.605396345e-13,1.528505229e-13,3.013330139e-13,2.026541094e-13,2.259409526e-13,1.139713583e-13,2.330473362e-13,2.185154278e-13,1.86262519e-13,2.246560119e-13,1.528470335e-13,8.156869676e-14,2.740324448e-13,8.081069545e-14,1.714453849e-13,1.089569917e-13,1.451937731e-13
0.8359375,3.90638247e-14,1.353571871e-14,6.883279838e-14,3.434123244e-14,7.51285666e-14,2.151754558e-13,2.767511043e-13,4.730348321e-13,9.630925782e-14,3.940470589e-13,6.467046311e-13,1.830122519e-13,2.736889262e-13,2.075974087e-13,7.051584494e-13,2.521638946e-13,1.522178918e-13,3.090021216e-13,2.121164949e-13,2.305716485e-13,1.1162271e-13,2.226945208e-13,2.117302417e-13,1.780827494e-13,2.147574249e-13,1.557423535e-13,8.05308101e-14,2.650120337e-13,8.177630094e-14,1.672039167e-13,1.082032015e-13,1.399102184e-13
0.84375,3.873618307e-14,1.294894318e-14,7.591926973e-14,3.390349248e-14,7.620763628e-14,2.128480064e-13,2.820491839e-13,4.61846482e-13,9.688803254e-14,3.873879761e-13,6.06282438e-13,1.748778892e-13,2.619915416e-13,1.89427158e-13,6.683156276e-13,2.448166935e-13,1.533745776e-13,3.170909824e-13,2.20511873e-13,2.361743673e-13,1.090180284e-13,2.127100719e-13,2.046152289e-13,1.714999955e-13,2.052679214e-13,1.583471171e-13,7.957587868e-14,2.560216852e-13,8.250120792e-14,1.629973174e-13,1.071545837e-13,1.354819615e-13
0.8515625,3.860192936e-14,1.263751434e-14,8.368885789e-14,3.389442742e-14,7.719794996e-14,2.103812496e-13,2.879886349e-13,4.487500491e-13,9.704902677e-14,3.803532786e-13,5.686915542e-13,1.672266698e-13,2.517291559e-13,1.732379922e-13,6.337491615e-13,2.383133514e-13,1.560421322e-13,3.256106597e-13,2.279962728e-13,2.424070761e-13,1.062132843e-13,2.032842016e-13,1.973189129e-13,1.668872981e-13,1.965332066e-13,1.606601278e-13,7.888183006e-14,2.475773754e-13,8.322460512e-14,1.590750828e-13,1.055580203e-13,1.320160904e-13
0.859375,3.858014982e-14,1.258683876e-14,9.23382212e-14,3.423068502e-14,7.790576475e-14,2.078790793e-13,2.944567203e-13,4.340214027e-13,9.704205821e-14,3.729070039e-13,5.337783431e-13,1.601955329e-13,2.432176311e-13,1.59171065e-13,6.004100689e-13,2.321658687e-13,1.597278458e-13,3.343129295e-13,2.347775865e-13,2.48476567e-13,1.033504589e-13,1.948944891e-13,1.899875985e-13,1.645394172e-13,1.884978892e-13,1.625264546e-13,7.84745829e-14,2.394015985e-13,8.399938438e-14,1.553304141e-13,1.033510407e-13,1.292260079e-13
0.8671875,3.84312609e-14,1.272343137e-14,1.013914763e-13,3.501261661e-14,7.858790401e-14,2.052775695e-13,3.008584122e-13,4.177379824e-13,9.748908277e-14,3.64839354e-13,5.008668425e-13,1.537485597e-13,2.362863748e-13,1.472660853e-13,5.689363507e-13,2.261469921e-13,1.638304481e-13,3.421368152e-13,2.400699722e-13,2.540005058e-13,1.004715121e-13,1.874939496e-13,1.825738352e-13,1.652322788e-13,1.813154661e-13,1.640084892e-13,7.82660408e-14,2.309023097e-13,8.486793827e-14,1.516580617e-13,1.007765529e-13,1.271449652e-13
0.875,3.803690869e-14,1.301949071e-14,1.10440382e-13,3.619089706e-14,7.92072066e-14,2.020551412e-13,3.0706547e-13,3.999113468e-13,9.872236994e-14,3.565164264e-13,4.708457364e-13,1.482763229e-13,2.309125869e-13,1.372515052e-13,5.375398417e-13,2.192460538e-13,1.6760102e-13,3.475999916e-13,2.432569635e-13,2.589628516e-13,9.756212253e-14,1.811082773e-13,1.750496869e-13,1.689913503e-13,1.748416302e-13,1.652885597e-13,7.810204905e-14,2.216265911e-13,8.578404778e-14,1.478801917e-13,9.781186664e-14,1.262391787e-13
0.8828125,3.744293601e-14,1.345803824e-14,1.197259636e-13,3.75121656e-14,7.936383757e-14,1.982291116e-13,3.132609508e-13,3.811333127e-13,1.007550285e-13,3.479630244e-13,4.44029904e-13,1.438171777e-13,2.275420644e-13,1.289919901e-13,5.048475097e-13,2.108025957e-13,1.706329783e-13,3.505792816e-13,2.448288148e-13,2.631121953e-13,9.46524733e-14,1.759358846e-13,1.673910857e-13,1.755597594e-13,1.689783244e-13,1.661005172e-13,7.782287144e-14,2.118789357e-13,8.654308569e-14,1.439926156e-13,9.4175436e-14,1.261787892e-13
0.890625,3.666616456e-14,1.410623691e-14,1.290350544e-13,3.8983369e-14,7.905088711e-14,1.937603277e-13,3.187680172e-13,3.61948844e-13,1.035175828e-13,3.385756689e-13,4.193617358e-13,1.40269285e-13,2.258568097e-13,1.230963109e-13,4.723405574e-13,2.012425048e-13,1.729592366e-13,3.512592532e-13,2.447269023e-13,2.661549812e-13,9.173294587e-14,1.71618567e-13,1.595173939e-13,1.851870609e-13,1.640023914e-13,1.662502911e-13,7.749119241e-14,2.02109407e-13,8.716539597e-14,1.403377519e-13,8.993257039e-14,1.264783624e-13
0.8984375,3.573366586e-14,1.511018744e-14,1.382151205e-13,4.083004086e-14,7.860892779e-14,1.886599549e-13,3.234073298e-13,3.42431615e-13,1.069769809e-13,3.284738629e-13,3.96017963e-13,1.378532044e-13,2.253489127e-13,1.198949789e-13,4.409890107e-13,1.911987134e-13,1.744849781e-13,3.492824865e-13,2.424720264e-13,2.67895033e-13,8.873279093e-14,1.677913181e-13,1.515712407e-13,1.972687757e-13,1.596189395e-13,1.660106141e-13,7.733395881e-14,1.916345613e-13,8.783662413e-14,1.370896214e-13,8.541474213e-14,1.273834848e-13
0.90625,3.480294788e-14,1.64791483e-14,1.475730372e-13,4.293867781e-14,7.829372398e-14,1.833600433e-13,3.279744957e-13,3.228405221e-13,1.109150136e-13,3.179876932e-13,3.740432287e-13,1.363709035e-13,2.260957452e-13,1.188984343e-13,4.10498316e-13,1.810578124e-13,1.754561359e-13,3.454965547e-13,2.388397692e-13,2.683857995e-13,8.562798405e-14,1.64519934e-13,1.43545984e-13,2.115673829e-13,1.556573233e-13,1.654546222e-13,7.728169938e-14,1.806931843e-13,8.861831901e-14,1.344656962e-13,8.077788088e-14,1.290352084e-13
0.9140625,3.402766054e-14,1.826563788e-14,1.570220068e-13,4.506550431e-14,7.808721198e-14,1.778359581e-13,3.323541608e-13,3.037003394e-13,1.151243409e-13,3.069510625e-13,3.542333902e-13,1.35717708e-13,2.280051375e-13,1.197269526e-13,3.797307176e-13,1.70749276e-13,1.762877982e-13,3.410569957e-13,2.345489546e-13,2.677838206e-13,8.244399919e-14,1.619641567e-13,1.353870635e-13,2.284236825e-13,1.522880235e-13,1.645753211e-13,7.749986442e-14,1.70360927e-13,8.976152671e-14,1.328110033e-13,7.620507627e-14,1.312893364e-13
0.921875,3.350423915e-14,2.06706242e-14,1.664370368e-13,4.734834912e-14,7.807696677e-14,1.719293266e-13,3.359753839e-13,2.853478148e-13,1.199756069e-13,2.955071807e-13,3.366948877e-13,1.363495897e-13,2.311618443e-13,1.232583596e-13,3.502942711e-13,1.605575932e-13,1.767834653e-13,3.358903733e-13,2.293015875e-13,2.65947101e-13,7.926054103e-14,1.602461046e-13,1.274463345e-13,2.481694848e-13,1.495793784e-13,1.636038413e-13,7.847971723e-14,1.606259487e-13,9.158826919e-14,1.322544067e-13,7.199750736e-14,1.343142521e-13
0.9296875,3.331350446e-14,2.371393049e-14,1.759604976e-13,4.979754048e-14,7.865624145e-14,1.658988382e-13,3.39336572e-13,2.676226452e-13,1.258243997e-13,2.840611088e-13,3.212707192e-13,1.384073075e-13,2.361944358e-13,1.304714463e-13,3.253576441e-13,1.513176411e-13,1.772038003e-13,3.304748813e-13,2.234305038e-13,2.631424186e-13,7.625942882e-14,1.594623552e-13,1.199109878e-13,2.713148161e-13,1.479518593e-13,1.628236728e-13,8.018131221e-14,1.519726666e-13,9.406406235e-14,1.32977378e-13,6.835424567e-14,1.385876021e-13
0.9375,3.349939094e-14,2.741303111e-14,1.857560501e-13,5.210293415e-14,7.971592843e-14,1.598948155e-13,3.427814374e-13,2.501137204e-13,1.324309349e-13,2.727019791e-13,3.085534773e-13,1.416463245e-13,2.436550262e-13,1.411053121e-13,3.037292858e-13,1.428843995e-13,1.781769879e-13,3.263827201e-13,2.180470969e-13,2.60007884e-13,7.350798601e-14,1.597187801e-13,1.126462576e-13,2.970054048e-13,1.473066327e-13,1.624129846e-13,8.250887733e-14,1.449638179e-13,9.724997752e-14,1.351218097e-13,6.520885843e-14,1.441089005e-13
0.9453125,3.413165174e-14,3.19105653e-14,1.957799197e-13,5.420981007e-14,8.092715651e-14,1.537800064e-13,3.454030062e-13,2.330632226e-13,1.398090494e-13,2.612616979e-13,2.980257348e-13,1.460119801e-13,2.535300246e-13,1.546967907e-13,2.839134222e-13,1.348416365e-13,1.796002902e-13,3.243491361e-13,2.135986869e-13,2.564862862e-13,7.097560698e-14,1.609724934e-13,1.057131175e-13,3.248664679e-13,1.473165669e-13,1.621252723e-13,8.574471945e-14,1.396354308e-13,1.015883514e-13,1.38756068e-13,6.241525942e-14,1.503671004e-13
0.953125,3.521729048e-14,3.716739498e-14,2.053633681e-13,5.615104049e-14,8.25817667e-14,1.473524212e-13,3.46575111e-13,2.169574716e-13,1.483862833e-13,2.498676884e-13,2.889411864e-13,1.518795745e-13,2.652907932e-13,1.710063082e-13,2.667833946e-13,1.275706393e-13,1.815245556e-13,3.23920946e-13,2.096160858e-13,2.524818073e-13,6.878427778e-14,1.629399484e-13,9.924197767e-14,3.558047531e-13,1.484503713e-13,1.620222291e-13,8.99943808e-14,1.366826465e-13,1.072675608e-13,1.439064626e-13,6.020964317e-14,1.574869864e-13
0.9609375,3.668437762e-14,4.316198969e-14,2.1419559e-13,5.784516837e-14,8.488436595e-14,1.406428156e-13,3.467865738e-13,2.016505576e-13,1.578735349e-13,2.39170767e-13,2.818642836e-13,1.594523864e-13,2.782274192e-13,1.898082536e-13,2.519626762e-13,1.209785414e-13,1.83945875e-13,3.246296667e-13,2.05784657e-13,2.48270297e-13,6.696887556e-14,1.653770272e-13,9.316186017e-14,3.887692223e-13,1.50609855e-13,1.627246271e-13,9.510625023e-14,1.35936373e-13,1.141559059e-13,1.501802721e-13,5.880914102e-14,1.658371208e-13
0.96875,3.848049636e-14,4.992639819e-14,2.228022583e-13,5.926707728e-14,8.779421767e-14,1.338962781e-13,3.463511444e-13,1.872122515e-13,1.676226812e-13,2.294682778e-13,2.767212871e-13,1.68295683e-13,2.914549498e-13,2.106969571e-13,2.390916584e-13,1.149774359e-13,1.864903486e-13,3.266784942e-13,2.023988899e-13,2.439150933e-13,6.543650843e-14,1.680536688e-13,8.736419144e-14,4.226378212e-13,1.532178256e-13,1.642531376e-13,1.009140446e-13,1.366919278e-13,1.22294294e-13,1.573279795e-13,5.817918767e-14,1.752270343e-13
0.9765625,4.061553797e-14,5.747070974e-14,2.313154732e-13,6.041718303e-14,9.149285106e-14,1.271345484e-13,3.451064817e-13,1.739687826e-13,1.777794003e-13,2.204926367e-13,2.733034801e-13,1.782509031e-13,3.050100751e-13,2.331480799e-13,2.277825665e-13,1.10138002e-13,1.896407091e-13,3.310953871e-13,2.001753459e-13,2.396816228e-13,6.424708737e-14,1.709452541e-13,8.189835242e-14,4.575837279e-13,1.563224916e-13,1.665384105e-13,1.074543646e-13,1.393277945e-13,1.317458455e-13,1.656427878e-13,5.847713064e-14,1.856555046e-13
0.984375,4.320353653e-14,6.592716932e-14,2.393482062e-13,6.138054615e-14,9.591343727e-14,1.202543907e-13,3.429569208e-13,1.617516055e-13,1.883473916e-13,2.123870463e-13,2.721568402e-13,1.896157998e-13,3.19538726e-13,2.573951502e-13,2.172365962e-13,1.063751859e-13,1.935699639e-13,3.380606773e-13,1.994216708e-13,2.358816107e-13,6.347150016e-14,1.741801825e-13,7.68745762e-14,4.926709513e-13,1.599647201e-13,1.698779696e-13,1.148118127e-13,1.438298255e-13,1.423485549e-13,1.751661671e-13,5.985622946e-14,1.970740201e-13
0.9921875,4.614102071e-14,7.514275601e-14,2.463853871e-13,6.212479043e-14,1.010037771e-13,1.132388444e-13,3.395096061e-13,1.507411598e-13,1.986437005e-13,2.054597481e-13,2.729924212e-13,2.022581488e-13,3.340265884e-13,2.834801087e-13,2.079174758e-13,1.0334201e-13,1.976623375e-13,3.458530353e-13,1.991527805e-13,2.324848146e-13,6.321720587e-14,1.772826818e-13,7.224713166e-14,5.273635954e-13,1.640639102e-13,1.741337164e-13,1.22686655e-13,1.493471532e-13,1.53608239e-13,1.852791126e-13,6.236481166e-14,2.091486417e-13
1,4.92994479e-14,8.50213533e-14,2.523485132e-13,6.243239575e-14,1.072042218e-13,1.061391299e-13,3.345691397e-13,1.414583374e-13,2.0875884e-13,1.994234843e-13,2.753916615e-13,2.157463264e-13,3.480471999e-13,3.108255973e-13,1.999477616e-13,1.013116375e-13,2.025346969e-13,3.542455754e-13,1.991957e-13,2.297823112e-13,6.36576173e-14,1.800853925e-13,6.792865085e-14,5.619692543e-13,1.685712527e-13,1.792321538e-13,1.308583738e-13,1.554902937e-13,1.650455755e-13,1.95637809e-13,6.605558238e-14,2.222695831e-13
1.0078125,5.279229657e-14,9.580024535e-14,2.575047093e-13,6.23009088e-14,1.14482256e-13,9.910829293e-14,3.284019799e-13,1.337249262e-13,2.191729912e-13,1.94273661e-13,2.79803338e-13,2.299994741e-13,3.627238362e-13,3.394340703e-13,1.937006605e-13,1.006268197e-13,2.090333715e-13,3.644533381e-13,2.002342698e-13,2.281213483e-13,6.467194112e-14,1.830893344e-13,6.405959297e-14,5.956223942e-13,1.733957455e-13,1.854700374e-13,1.395743596e-13,1.621671083e-13,1.766972592e-13,2.065541235e-13,7.082209001e-14,2.367615941e-13
1.015625,5.639680853e-14,1.071262859e-13,2.61463999e-13,6.193154225e-14,1.225492471e-13,9.223841978e-14,3.210716154e-13,1.272275701e-13,2.292251964e-13,1.906155156e-13,2.865617635e-13,2.450070301e-13,3.766902e-13,3.687920655e-13,1.895794096e-13,1.01334665e-13,2.170408114e-13,3.755778332e-13,2.012381579e-13,2.276449942e-13,6.619806837e-14,1.858153692e-13,6.08135518e-14,6.273689366e-13,1.785835368e-13,1.930118793e-13,1.486677129e-13,1.688331096e-13,1.88352721e-13,2.175320597e-13,7.657118496e-14,2.521162862e-13
1.0234375,5.998745382e-14,1.18559237e-13,2.644411338e-13,6.134719016e-14,1.318873329e-13,8.574147968e-14,3.131653347e-13,1.218985117e-13,2.382100708e-13,1.882912102e-13,2.952989384e-13,2.601177631e-13,3.884418786e-13,3.977067869e-13,1.862005098e-13,1.0322745e-13,2.269113801e-13,3.873930349e-13,2.020267619e-13,2.288651149e-13,6.842764686e-14,1.877213699e-13,5.80474447e-14,6.57077292e-13,1.839014637e-13,2.020389668e-13,1.576500387e-13,1.751538497e-13,1.994849436e-13,2.276830518e-13,8.349453127e-14,2.684074737e-13
1.03125,6.38339544e-14,1.301539347e-13,2.672334899e-13,6.042783576e-14,1.425819166e-13,7.983947083e-14,3.053105004e-13,1.174417413e-13,2.465354321e-13,1.867853946e-13,3.052907691e-13,2.748330111e-13,3.996006491e-13,4.259627927e-13,1.836800237e-13,1.062608519e-13,2.388590815e-13,4.012936014e-13,2.037870336e-13,2.317474035e-13,7.112322214e-14,1.894592702e-13,5.5596765e-14,6.845389863e-13,1.8903513e-13,2.12650981e-13,1.666554513e-13,1.816651408e-13,2.104589659e-13,2.372492745e-13,9.175637106e-14,2.861745037e-13
1.0390625,6.776146694e-14,1.416823064e-13,2.693842712e-13,5.92882138e-14,1.542506934e-13,7.439799851e-14,2.9707507e-13,1.138742399e-13,2.544129586e-13,1.865091402e-13,3.167671858e-13,2.894400923e-13,4.102432217e-13,4.534856992e-13,1.830447332e-13,1.106185135e-13,2.523631258e-13,4.16490591e-13,2.057216059e-13,2.355800251e-13,7.401522787e-14,1.912081694e-13,5.348368303e-14,7.092812889e-13,1.940375975e-13,2.246189703e-13,1.75764814e-13,1.887207976e-13,2.218577688e-13,2.462331143e-13,1.013106588e-13,3.052142325e-13
1.046875,7.152730295e-14,1.528039622e-13,2.707290564e-13,5.79804042e-14,1.671098221e-13,6.950723713e-14,2.885397909e-13,1.115153503e-13,2.613058243e-13,1.876430734e-13,3.30279344e-13,3.035204632e-13,4.184387172e-13,4.793582688e-13,1.834625142e-13,1.162244872e-13,2.673717167e-13,4.317996873e-13,2.070503608e-13,2.402079415e-13,7.726274473e-14,1.925107192e-13,5.16022904e-14,7.30948592e-13,1.98774637e-13,2.37520302e-13,1.844843015e-13,1.958991106e-13,2.331795157e-13,2.538297632e-13,1.121732868e-13,3.25218043e-13
1.0546875,7.52467405e-14,1.634432713e-13,2.718691957e-13,5.634622096e-14,1.809192449e-13,6.539529076e-14,2.804596956e-13,1.100264325e-13,2.670730897e-13,1.897914411e-13,3.449854189e-13,3.164401324e-13,4.24497875e-13,5.029215786e-13,1.845633037e-13,1.229807925e-13,2.837040866e-13,4.475782506e-13,2.085255306e-13,2.454704031e-13,8.07397016e-14,1.935605164e-13,4.99385977e-14,7.489555435e-13,2.031131645e-13,2.510325091e-13,1.924636678e-13,2.029282925e-13,2.437775426e-13,2.597880179e-13,1.242193849e-13,3.460703944e-13
1.0625,7.896688682e-14,1.736213278e-13,2.72628328e-13,5.456915961e-14,1.953244087e-13,6.18872771e-14,2.726727945e-13,1.089612711e-13,2.719583522e-13,1.932557453e-13,3.606564595e-13,3.288515779e-13,4.289159646e-13,5.242929638e-13,1.865107845e-13,1.310615713e-13,3.009202158e-13,4.63389389e-13,2.102407656e-13,2.514107361e-13,8.427653297e-14,1.945371926e-13,4.862753042e-14,7.626883952e-13,2.072279059e-13,2.652508906e-13,1.998387537e-13,2.098974115e-13,2.53771552e-13,2.643146351e-13,1.373833572e-13,3.674561246e-13
1.0703125,8.260469003e-14,1.832518483e-13,2.727934241e-13,5.290508235e-14,2.106624118e-13,5.891691105e-14,2.647696102e-13,1.084795155e-13,2.758457457e-13,1.982303652e-13,3.78202461e-13,3.407742433e-13,4.305172664e-13,5.432236788e-13,1.891954536e-13,1.405163904e-13,3.190947283e-13,4.778165096e-13,2.11580331e-13,2.586070886e-13,8.801216649e-14,1.952667629e-13,4.761922482e-14,7.722656032e-13,2.111055738e-13,2.801880631e-13,2.068560261e-13,2.165463436e-13,2.629571675e-13,2.674610797e-13,1.517510458e-13,3.893498091e-13
1.078125,8.585271652e-14,1.919288904e-13,2.721062763e-13,5.130210131e-14,2.266207607e-13,5.652658242e-14,2.568938089e-13,1.08538114e-13,2.783515461e-13,2.041422092e-13,3.973666005e-13,3.51124762e-13,4.291272678e-13,5.589213045e-13,1.927554413e-13,1.512201664e-13,3.380318894e-13,4.900001194e-13,2.120259124e-13,2.664488643e-13,9.174378719e-14,1.957913968e-13,4.705959756e-14,7.771922072e-13,2.148211966e-13,2.956655005e-13,2.13396253e-13,2.220781403e-13,2.705135866e-13,2.689767004e-13,1.668955411e-13,4.116794933e-13
1.0859375,8.846786657e-14,1.994834102e-13,2.700550646e-13,4.970099136e-14,2.427781766e-13,5.458862981e-14,2.491851336e-13,1.087212356e-13,2.791783598e-13,2.107659659e-13,4.179105462e-13,3.598450944e-13,4.251313887e-13,5.715095766e-13,1.96896153e-13,1.63108453e-13,3.574398443e-13,4.999778283e-13,2.113506295e-13,2.741512537e-13,9.524037365e-14,1.961312168e-13,4.721900446e-14,7.767627952e-13,2.185526282e-13,3.118302283e-13,2.194967378e-13,2.259009476e-13,2.76401844e-13,2.687842143e-13,1.826138515e-13,4.341212081e-13
1.09375,9.049416369e-14,2.060283369e-13,2.669006167e-13,4.815913811e-14,2.594714532e-13,5.321977281e-14,2.417760118e-13,1.090002861e-13,2.784742655e-13,2.181816489e-13,4.401924691e-13,3.670931369e-13,4.179449693e-13,5.813235699e-13,2.012633814e-13,1.759733216e-13,3.773620212e-13,5.074576701e-13,2.095270347e-13,2.821442328e-13,9.861587447e-14,1.96442487e-13,4.797637889e-14,7.718563922e-13,2.222012952e-13,3.283823827e-13,2.254527545e-13,2.281268882e-13,2.809800993e-13,2.673530355e-13,1.99160812e-13,4.568844851e-13
1.1015625,9.186411662e-14,2.112111443e-13,2.630481809e-13,4.662615049e-14,2.765065542e-13,5.268537907e-14,2.351200933e-13,1.095628982e-13,2.764831501e-13,2.26252283e-13,4.640516903e-13,3.722616417e-13,4.074216386e-13,5.87960473e-13,2.060173803e-13,1.897132339e-13,3.974560683e-13,5.116013199e-13,2.064759768e-13,2.901891472e-13,1.017562368e-13,1.969808913e-13,4.92281128e-14,7.629339459e-13,2.260031981e-13,3.447689756e-13,2.309915913e-13,2.289896928e-13,2.838458179e-13,2.648045444e-13,2.162618174e-13,4.798389069e-13
1.109375,9.264080505e-14,2.149189313e-13,2.58617016e-13,4.501878832e-14,2.932136855e-13,5.30066223e-14,2.296587612e-13,1.102690641e-13,2.731550091e-13,2.348121019e-13,4.896436225e-13,3.756105323e-13,3.945614776e-13,5.920207686e-13,2.117657477e-13,2.044514193e-13,4.173445557e-13,5.129661083e-13,2.026219681e-13,2.976131019e-13,1.044779735e-13,1.97795126e-13,5.109931208e-14,7.496932898e-13,2.302719768e-13,3.610061053e-13,2.359042306e-13,2.28811059e-13,2.850270995e-13,2.610628948e-13,2.337341933e-13,5.020767348e-13
1.1171875,9.287910327e-14,2.172599333e-13,2.538111732e-13,4.350635947e-14,3.09214935e-13,5.404948973e-14,2.253423951e-13,1.11046986e-13,2.689358674e-13,2.436844757e-13,5.163511133e-13,3.779377977e-13,3.801751262e-13,5.936197511e-13,2.181521211e-13,2.197782777e-13,4.368515334e-13,5.117291072e-13,1.983377382e-13,3.043835355e-13,1.068164536e-13,1.991250465e-13,5.349963947e-14,7.329338559e-13,2.347829783e-13,3.765290701e-13,2.401482461e-13,2.281613625e-13,2.848685312e-13,2.563074944e-13,2.514294325e-13,5.235515274e-13
1.125,9.237054945e-14,2.177040931e-13,2.489700973e-13,4.20828126e-14,3.241665835e-13,5.585780888e-14,2.222997418e-13,1.122387796e-13,2.646628185e-13,2.527458925e-13,5.425737185e-13,3.791034688e-13,3.646818234e-13,5.912371269e-13,2.240730863e-13,2.354643316e-13,4.557171107e-13,5.067093565e-13,1.934593647e-13,3.102298496e-13,1.088460489e-13,2.013158956e-13,5.61899981e-14,7.139021751e-13,2.395790869e-13,3.906085209e-13,2.432644242e-13,2.273086306e-13,2.830038222e-13,2.502846003e-13,2.687021604e-13,5.448867032e-13
1.1328125,9.138651353e-14,2.164051132e-13,2.448149771e-13,4.068598371e-14,3.377845131e-13,5.863657466e-14,2.210956115e-13,1.138856409e-13,2.606005462e-13,2.616545938e-13,5.67953995e-13,3.789380874e-13,3.489162664e-13,5.8521899e-13,2.302287607e-13,2.518297818e-13,4.737319593e-13,4.984744793e-13,1.883103214e-13,3.149993612e-13,1.106256037e-13,2.044139098e-13,5.904093291e-14,6.933596723e-13,2.44739572e-13,4.032642715e-13,2.452170628e-13,2.260742623e-13,2.796226996e-13,2.428430184e-13,2.855113659e-13,5.657000729e-13
1.140625,9.02060822e-14,2.139617229e-13,2.415385206e-13,3.956561302e-14,3.498136607e-13,6.228443302e-14,2.214885311e-13,1.155367986e-13,2.56578582e-13,2.698838077e-13,5.922438148e-13,3.775411023e-13,3.326845096e-13,5.760112109e-13,2.365962381e-13,2.683498966e-13,4.90275941e-13,4.872847625e-13,1.831698832e-13,3.186055555e-13,1.120017531e-13,2.079922572e-13,6.200965324e-14,6.708807028e-13,2.497926289e-13,4.140677329e-13,2.461412385e-13,2.239787934e-13,2.74921203e-13,2.34145711e-13,3.019959714e-13,5.851064597e-13
1.1484375,8.865664165e-14,2.101747884e-13,2.391923011e-13,3.85734434e-14,3.601144299e-13,6.680486211e-14,2.232001209e-13,1.170757272e-13,2.52480742e-13,2.773925783e-13,6.145865279e-13,3.745154109e-13,3.151756705e-13,5.622905905e-13,2.418063991e-13,2.847625733e-13,5.048503614e-13,4.728750212e-13,1.783026028e-13,3.206858755e-13,1.128315701e-13,2.119214552e-13,6.52392992e-14,6.454852233e-13,2.546706927e-13,4.22759407e-13,2.461007202e-13,2.208798957e-13,2.686018277e-13,2.242593895e-13,3.177806602e-13,6.032195959e-13
1.15625,8.68903155e-14,2.052005781e-13,2.387255701e-13,3.742610954e-14,3.687763253e-13,7.247507369e-14,2.270513243e-13,1.185691742e-13,2.482855132e-13,2.841219615e-13,6.350704421e-13,3.695926161e-13,2.973314768e-13,5.445981222e-13,2.464978654e-13,3.017389683e-13,5.179562653e-13,4.568292209e-13,1.742517537e-13,3.21754062e-13,1.130823584e-13,2.167559517e-13,6.88797973e-14,6.174644719e-13,2.594895481e-13,4.298400577e-13,2.45867593e-13,2.170493555e-13,2.613673231e-13,2.136546027e-13,3.328053095e-13,6.204995266e-13
1.1640625,8.499288242e-14,1.995434431e-13,2.401165784e-13,3.631742257e-14,3.759853891e-13,7.900160923e-14,2.333296598e-13,1.198388012e-13,2.442026942e-13,2.901631203e-13,6.5484846e-13,3.635351697e-13,2.800078623e-13,5.245565134e-13,2.512801365e-13,3.19299773e-13,5.299361278e-13,4.39151979e-13,1.704959432e-13,3.225077922e-13,1.126975186e-13,2.224641323e-13,7.297647095e-14,5.880432937e-13,2.641880186e-13,4.355441762e-13,2.462883942e-13,2.128927835e-13,2.54039142e-13,2.028763115e-13,3.472409168e-13,6.368471282e-13
1.171875,8.268724464e-14,1.932759228e-13,2.426606597e-13,3.534115231e-14,3.8226685e-13,8.611678577e-14,2.416239211e-13,1.210975855e-13,2.408364941e-13,2.965074843e-13,6.754653595e-13,3.57587783e-13,2.628486402e-13,5.030980614e-13,2.565139667e-13,3.376517036e-13,5.405509272e-13,4.192321792e-13,1.667135322e-13,3.225432633e-13,1.120265196e-13,2.288695579e-13,7.787637575e-14,5.583313442e-13,2.693171614e-13,4.401132454e-13,2.476596977e-13,2.092423232e-13,2.467709444e-13,1.922241767e-13,3.610196082e-13,6.527772467e-13
1.1796875,7.9859654e-14,1.862052435e-13,2.466179557e-13,3.427229358e-14,3.879333181e-13,9.403536738e-14,2.520287402e-13,1.227700788e-13,2.384999607e-13,3.033605029e-13,6.973234163e-13,3.519445358e-13,2.460103026e-13,4.808180283e-13,2.628232164e-13,3.572178477e-13,5.501902865e-13,3.983637724e-13,1.634540129e-13,3.217541549e-13,1.114202518e-13,2.36290678e-13,8.383922501e-14,5.291261779e-13,2.752532864e-13,4.437158156e-13,2.500129618e-13,2.064146477e-13,2.397742167e-13,1.819135687e-13,3.737549938e-13,6.69158923e-13
1.1875,7.663212287e-14,1.784721774e-13,2.522141237e-13,3.309723146e-14,3.928898104e-13,1.027953752e-13,2.646555996e-13,1.246329012e-13,2.370070274e-13,3.099446995e-13,7.198440809e-13,3.464442602e-13,2.300121533e-13,4.579698189e-13,2.692681505e-13,3.777065523e-13,5.595273729e-13,3.77231029e-13,1.607708783e-13,3.207203002e-13,1.10804812e-13,2.444910134e-13,9.062185462e-14,5.010630321e-13,2.816981982e-13,4.46271305e-13,2.536388915e-13,2.042454779e-13,2.33523143e-13,1.72070992e-13,3.85343546e-13,6.855644806e-13
1.1953125,7.31968155e-14,1.705977447e-13,2.596292794e-13,3.197928308e-14,3.968975198e-13,1.124171988e-13,2.794794573e-13,1.26282098e-13,2.364807109e-13,3.16215116e-13,7.428600835e-13,3.415248658e-13,2.150284824e-13,4.351579587e-13,2.759670323e-13,3.991696502e-13,5.679723647e-13,3.555721841e-13,1.588630022e-13,3.187716375e-13,1.101596966e-13,2.532644078e-13,9.813732381e-14,4.745095925e-13,2.883822802e-13,4.477565915e-13,2.587562509e-13,2.029578143e-13,2.283434452e-13,1.628334719e-13,3.957589269e-13,7.013666572e-13
1.203125,6.949139483e-14,1.624805695e-13,2.690386788e-13,3.07874533e-14,3.99507918e-13,1.228517241e-13,2.964990381e-13,1.278551649e-13,2.371267458e-13,3.221801764e-13,7.65623346e-13,3.369871857e-13,2.012891912e-13,4.126950669e-13,2.835967007e-13,4.217454174e-13,5.749296528e-13,3.335777107e-13,1.58028766e-13,3.152694996e-13,1.094938513e-13,2.627913227e-13,1.064220954e-13,4.494813936e-13,2.949131398e-13,4.482517688e-13,2.649918664e-13,2.025606621e-13,2.242024818e-13,1.541148712e-13,4.04456055e-13,7.168023531e-13
1.2109375,6.556666989e-14,1.542252911e-13,2.801161846e-13,2.953325391e-14,4.0098745e-13,1.339219258e-13,3.153849241e-13,1.296141294e-13,2.388564126e-13,3.275658066e-13,7.873344954e-13,3.325804628e-13,1.890959011e-13,3.908388435e-13,2.916981648e-13,4.452287436e-13,5.812830116e-13,3.120984006e-13,1.582729808e-13,3.113826741e-13,1.089214457e-13,2.728067316e-13,1.152932842e-13,4.261934566e-13,3.009373058e-13,4.481542632e-13,2.723006625e-13,2.027824974e-13,2.21218027e-13,1.457448392e-13,4.115898681e-13,7.318340224e-13
1.21875,6.166648682e-14,1.462595284e-13,2.925509769e-13,2.83788001e-14,4.013483457e-13,1.455913921e-13,3.358464984e-13,1.316184968e-13,2.416077193e-13,3.325707986e-13,8.081170116e-13,3.283562081e-13,1.781289412e-13,3.693788669e-13,3.002402632e-13,4.690330391e-13,5.868824004e-13,2.90966965e-13,1.597085751e-13,3.0750437e-13,1.086822822e-13,2.831407862e-13,1.247521709e-13,4.048116212e-13,3.064468535e-13,4.473972022e-13,2.808873651e-13,2.033941728e-13,2.193866443e-13,1.375677435e-13,4.173007679e-13,7.463505302e-13
1.2265625,5.776717487e-14,1.384766314e-13,3.060518979e-13,2.727213744e-14,4.001153613e-13,1.577857654e-13,3.578533183e-13,1.341199143e-13,2.452997232e-13,3.375931508e-13,8.281373019e-13,3.239359272e-13,1.683021816e-13,3.474778508e-13,3.086040089e-13,4.926285428e-13,5.910905573e-13,2.702984498e-13,1.624260988e-13,3.031592396e-13,1.086900629e-13,2.937749264e-13,1.348368673e-13,3.849797146e-13,3.113581618e-13,4.461478029e-13,2.910798915e-13,2.044160582e-13,2.192082643e-13,1.295994952e-13,4.215190793e-13,7.610282592e-13
1.234375,5.407789391e-14,1.313133512e-13,3.20768504e-13,2.636063844e-14,3.981611227e-13,1.705360317e-13,3.813651646e-13,1.373671537e-13,2.498071157e-13,3.429308028e-13,8.47950176e-13,3.195651373e-13,1.600036489e-13,3.263131491e-13,3.164327656e-13,5.165445107e-13,5.951704171e-13,2.519681688e-13,1.66387851e-13,2.988186948e-13,1.086745507e-13,3.043985781e-13,1.454553904e-13,3.663564593e-13,3.155039074e-13,4.454570992e-13,3.035117354e-13,2.059530439e-13,2.216620447e-13,1.22267906e-13,4.251173693e-13,7.763397028e-13
1.2421875,5.072985866e-14,1.250535611e-13,3.369640668e-13,2.561923226e-14,3.958020652e-13,1.838862815e-13,4.065848225e-13,1.412206794e-13,2.550498017e-13,3.488161699e-13,8.68455217e-13,3.157455204e-13,1.528642355e-13,3.070008342e-13,3.242971487e-13,5.404307432e-13,5.99159314e-13,2.355241356e-13,1.71209404e-13,2.94465069e-13,1.085485365e-13,3.151332142e-13,1.567708966e-13,3.489189444e-13,3.190353665e-13,4.453409702e-13,3.181006962e-13,2.08073101e-13,2.265893283e-13,1.156947998e-13,4.280974066e-13,7.918027043e-13
1.25,4.742330048e-14,1.193149888e-13,3.541940811e-13,2.489653385e-14,3.925421408e-13,1.975354308e-13,4.336238072e-13,1.45493621e-13,2.61017908e-13,3.554467801e-13,8.902006722e-13,3.123309364e-13,1.467677814e-13,2.888141378e-13,3.3208712e-13,5.6327341e-13,6.020047015e-13,2.198191163e-13,1.767328221e-13,2.89713733e-13,1.084378205e-13,3.262793344e-13,1.68965571e-13,3.327374828e-13,3.220081143e-13,4.456512691e-13,3.347374471e-13,2.111617584e-13,2.339251382e-13,1.097353989e-13,4.301135942e-13,8.071648975e-13
1.2578125,4.422142167e-14,1.142324071e-13,3.725593511e-13,2.437438937e-14,3.890520229e-13,2.113592167e-13,4.618912139e-13,1.50262073e-13,2.678122914e-13,3.627468474e-13,9.134372742e-13,3.094044965e-13,1.420863822e-13,2.719556511e-13,3.39161883e-13,5.852813696e-13,6.048356704e-13,2.062769972e-13,1.834058237e-13,2.847617145e-13,1.085568693e-13,3.376027101e-13,1.819558584e-13,3.181584665e-13,3.242526814e-13,4.470483687e-13,3.536601485e-13,2.157708952e-13,2.440526461e-13,1.045377829e-13,4.313535064e-13,8.227748556e-13
1.265625,4.138367226e-14,1.101520684e-13,3.924585135e-13,2.40416081e-14,3.856383441e-13,2.255957695e-13,4.911058179e-13,1.558309355e-13,2.754169584e-13,3.709698249e-13,9.389234661e-13,3.076359319e-13,1.387656417e-13,2.574812137e-13,3.450571e-13,6.05980339e-13,6.08415299e-13,1.951254956e-13,1.914808855e-13,2.793916031e-13,1.09074115e-13,3.48874704e-13,1.957658293e-13,3.056586355e-13,3.262896823e-13,4.4962499e-13,3.748372732e-13,2.224912331e-13,2.568460163e-13,1.003221629e-13,4.316866285e-13,8.381772286e-13
1.2734375,3.890753559e-14,1.071598806e-13,4.134540835e-13,2.385394693e-14,3.820528024e-13,2.402842942e-13,5.216886432e-13,1.622638668e-13,2.83527409e-13,3.806508579e-13,9.676868478e-13,3.072557695e-13,1.366720586e-13,2.456623187e-13,3.507316909e-13,6.2501411e-13,6.11777155e-13,1.852762657e-13,2.009170874e-13,2.732138907e-13,1.100101929e-13,3.602366577e-13,2.105759716e-13,2.948816626e-13,3.284972779e-13,4.534734861e-13,3.98406901e-13,2.312078199e-13,2.724105445e-13,9.706260055e-14,4.315996778e-13,8.528113516e-13
1.28125,3.662818498e-14,1.048971209e-13,4.353831324e-13,2.387407462e-14,3.785727757e-13,2.554312165e-13,5.534006886e-13,1.693935617e-13,2.919257393e-13,3.911687031e-13,9.994671083e-13,3.077510796e-13,1.356090344e-13,2.360473319e-13,3.566787257e-13,6.433438036e-13,6.150134507e-13,1.768159283e-13,2.116682627e-13,2.663228781e-13,1.113057917e-13,3.721157806e-13,2.263206627e-13,2.852121366e-13,3.303047393e-13,4.589541922e-13,4.241520256e-13,2.413154781e-13,2.906018069e-13,9.447640761e-14,4.310012803e-13,8.675830637e-13
1.2890625,3.454340094e-14,1.031320296e-13,4.582231111e-13,2.405793559e-14,3.754684489e-13,2.710425746e-13,5.852392307e-13,1.774064893e-13,3.007143027e-13,4.01838567e-13,1.033523875e-12,3.088291523e-13,1.35603418e-13,2.284634241e-13,3.618557387e-13,6.607662521e-13,6.190449003e-13,1.699418991e-13,2.235642563e-13,2.589756534e-13,1.129107046e-13,3.846096471e-13,2.426983551e-13,2.767175662e-13,3.314832631e-13,4.659176876e-13,4.516155642e-13,2.528515844e-13,3.110100522e-13,9.251589039e-14,4.293158183e-13,8.827526635e-13
1.296875,3.286057131e-14,1.021844352e-13,4.810838181e-13,2.445273795e-14,3.725468533e-13,2.867998879e-13,6.164662296e-13,1.863587679e-13,3.099779659e-13,4.127937528e-13,1.06932463e-12,3.103287784e-13,1.36922661e-13,2.226328364e-13,3.663545638e-13,6.764504042e-13,6.234432977e-13,1.642606313e-13,2.363784133e-13,2.513014519e-13,1.145976634e-13,3.971933464e-13,2.593804994e-13,2.692570279e-13,3.322545816e-13,4.737668043e-13,4.806705097e-13,2.658860034e-13,3.336845319e-13,9.126064938e-14,4.269363069e-13,8.963870797e-13
1.3046875,3.158657578e-14,1.020183483e-13,5.032441177e-13,2.506063098e-14,3.693905461e-13,3.024776465e-13,6.471563231e-13,1.958985824e-13,3.196309451e-13,4.243601856e-13,1.107155254e-12,3.127052649e-13,1.397011218e-13,2.183605195e-13,3.699194919e-13,6.904079306e-13,6.27562889e-13,1.596365134e-13,2.50166236e-13,2.429988183e-13,1.161908776e-13,4.097877965e-13,2.762730889e-13,2.622675802e-13,3.328148576e-13,4.823681452e-13,5.113211483e-13,2.802122109e-13,3.588017514e-13,9.053009423e-14,4.240695426e-13,9.073355289e-13
1.3125,3.07049254e-14,1.023958198e-13,5.249255151e-13,2.587150202e-14,3.662393491e-13,3.182572606e-13,6.780320042e-13,2.060974302e-13,3.293502774e-13,4.374115777e-13,1.148727738e-12,3.167292569e-13,1.437882615e-13,2.164899651e-13,3.720042596e-13,7.028596456e-13,6.320734405e-13,1.562341334e-13,2.652746842e-13,2.33756841e-13,1.179197028e-13,4.229165637e-13,2.938437086e-13,2.554215388e-13,3.332703645e-13,4.924455248e-13,5.435102529e-13,2.954937151e-13,3.86065285e-13,9.015517889e-14,4.210622607e-13,9.165108834e-13
1.3203125,3.017313486e-14,1.031963071e-13,5.463991678e-13,2.682374988e-14,3.631025635e-13,3.34684194e-13,7.093793245e-13,2.174840044e-13,3.388625159e-13,4.52050742e-13,1.194237153e-12,3.215802598e-13,1.488706244e-13,2.166472005e-13,3.731204532e-13,7.134018669e-13,6.367158406e-13,1.535140776e-13,2.822275853e-13,2.238410406e-13,1.20066806e-13,4.369680203e-13,3.123691179e-13,2.487830659e-13,3.334740259e-13,5.035802278e-13,5.759995237e-13,3.113581744e-13,4.140904816e-13,9.000259109e-14,4.177971069e-13,9.238885037e-13
1.328125,2.980750401e-14,1.042883191e-13,5.671696828e-13,2.776120502e-14,3.591760898e-13,3.518720793e-13,7.404553479e-13,2.302145748e-13,3.483419256e-13,4.673579355e-13,1.242147364e-12,3.266183368e-13,1.552291856e-13,2.17459928e-13,3.724175066e-13,7.209598919e-13,6.401200001e-13,1.509101244e-13,3.011100724e-13,2.13506056e-13,1.225431367e-13,4.518298277e-13,3.312599644e-13,2.424617586e-13,3.333763404e-13,5.145112505e-13,6.075702837e-13,3.275629472e-13,4.419118506e-13,9.000365021e-14,4.135989477e-13,9.28308051e-13
1.3359375,2.970534846e-14,1.057348962e-13,5.86407997e-13,2.876821097e-14,3.547024134e-13,3.690793825e-13,7.704108827e-13,2.44096333e-13,3.578901521e-13,4.832225857e-13,1.291474043e-12,3.325740748e-13,1.631401152e-13,2.192716758e-13,3.695555433e-13,7.257894003e-13,6.426146356e-13,1.489063248e-13,3.208513643e-13,2.027986129e-13,1.250376852e-13,4.66964303e-13,3.501351e-13,2.363112129e-13,3.329857103e-13,5.256596128e-13,6.387582546e-13,3.440072938e-13,4.700323307e-13,9.023533575e-14,4.09196814e-13,9.30160426e-13
1.34375,2.999305601e-14,1.074246838e-13,6.037588833e-13,2.990833112e-14,3.501872318e-13,3.859816526e-13,7.992139934e-13,2.592151113e-13,3.674687979e-13,4.99780641e-13,1.341968647e-12,3.395676704e-13,1.721037512e-13,2.226236302e-13,3.654706853e-13,7.285647008e-13,6.447255965e-13,1.473108764e-13,3.406408006e-13,1.920490716e-13,1.275343731e-13,4.821320804e-13,3.691690535e-13,2.303643915e-13,3.324444826e-13,5.373496451e-13,6.696155838e-13,3.609428794e-13,4.981432066e-13,9.073918994e-14,4.051313506e-13,9.297587818e-13
1.3515625,3.053900247e-14,1.091631783e-13,6.194127336e-13,3.105840318e-14,3.451462068e-13,4.027335934e-13,8.271308481e-13,2.755567231e-13,3.770431616e-13,5.167148855e-13,1.39362669e-12,3.470987136e-13,1.81785236e-13,2.266282995e-13,3.600118964e-13,7.282569208e-13,6.453280525e-13,1.452109408e-13,3.611740755e-13,1.816482352e-13,1.302633587e-13,4.973113586e-13,3.882469387e-13,2.247991211e-13,3.319858236e-13,5.485619588e-13,6.990442719e-13,3.781584066e-13,5.248694317e-13,9.142390901e-14,4.009778038e-13,9.258050803e-13
1.359375,3.12688586e-14,1.1099437e-13,6.337869305e-13,3.218380027e-14,3.395570296e-13,4.193696406e-13,8.540904227e-13,2.927086167e-13,3.863825045e-13,5.338229898e-13,1.445891857e-12,3.550552362e-13,1.924218535e-13,2.307135941e-13,3.534102369e-13,7.24632072e-13,6.437701256e-13,1.429372849e-13,3.831763816e-13,1.716553266e-13,1.333010979e-13,5.126291601e-13,4.073222563e-13,2.198031456e-13,3.315919219e-13,5.59148529e-13,7.264499992e-13,3.954953568e-13,5.497545328e-13,9.214482825e-14,3.966218353e-13,9.185435643e-13
1.3671875,3.219150588e-14,1.128922769e-13,6.468869585e-13,3.326355063e-14,3.335905086e-13,4.360244595e-13,8.798799232e-13,3.104894022e-13,3.95520598e-13,5.509249748e-13,1.498446794e-12,3.634597182e-13,2.039813464e-13,2.352559098e-13,3.460371294e-13,7.186216004e-13,6.403504447e-13,1.406186921e-13,4.06016818e-13,1.621586757e-13,1.365415787e-13,5.284431342e-13,4.265349445e-13,2.154169829e-13,3.311892348e-13,5.693618574e-13,7.517513748e-13,4.134433705e-13,5.729496361e-13,9.287152409e-14,3.919944285e-13,9.093021332e-13
1.375,3.325455939e-14,1.146736282e-13,6.587499384e-13,3.423951333e-14,3.270731119e-13,4.526298596e-13,9.039322345e-13,3.288281765e-13,4.044647462e-13,5.674227858e-13,1.550255343e-12,3.71631248e-13,2.160909242e-13,2.398636035e-13,3.376761518e-13,7.103737635e-13,6.350248623e-13,1.378355896e-13,4.28903495e-13,1.535868089e-13,1.398493582e-13,5.443579174e-13,4.454319675e-13,2.113161293e-13,3.303622407e-13,5.786745802e-13,7.748595567e-13,4.315114195e-13,5.940902834e-13,9.346093872e-14,3.870455895e-13,8.97627223e-13
1.3828125,3.437723141e-14,1.161072181e-13,6.701013962e-13,3.509600043e-14,3.200646448e-13,4.690607442e-13,9.255126126e-13,3.470500593e-13,4.129040257e-13,5.825306737e-13,1.599155157e-12,3.790825483e-13,2.285853769e-13,2.437571177e-13,3.284170301e-13,6.997262168e-13,6.273378933e-13,1.350472839e-13,4.521510833e-13,1.457981028e-13,1.433498089e-13,5.598279525e-13,4.635144123e-13,2.075898836e-13,3.288501434e-13,5.866271236e-13,7.949604637e-13,4.490119804e-13,6.124264322e-13,9.359940057e-14,3.813841103e-13,8.830445325e-13
1.390625,3.552734147e-14,1.171517963e-13,6.809688336e-13,3.584218522e-14,3.124751218e-13,4.849088e-13,9.442134652e-13,3.642189439e-13,4.207501503e-13,5.958897143e-13,1.645139694e-12,3.860692296e-13,2.411138144e-13,2.469232675e-13,3.185994121e-13,6.868375164e-13,6.17149595e-13,1.323169593e-13,4.756013116e-13,1.384014789e-13,1.471214033e-13,5.749216184e-13,4.80704873e-13,2.042215524e-13,3.26952932e-13,5.930818721e-13,8.110478379e-13,4.658404846e-13,6.276349052e-13,9.322155107e-14,3.748216638e-13,8.663695638e-13
1.3984375,3.671201092e-14,1.178235834e-13,6.914347492e-13,3.646720112e-14,3.044638465e-13,4.995936915e-13,9.59713713e-13,3.803949073e-13,4.28135568e-13,6.07284385e-13,1.688029746e-12,3.920267307e-13,2.53395047e-13,2.491881685e-13,3.089479287e-13,6.722161003e-13,6.053868994e-13,1.296543868e-13,4.983453883e-13,1.319530376e-13,1.509530158e-13,5.89468426e-13,4.965842134e-13,2.010510412e-13,3.245820705e-13,5.978265168e-13,8.229699214e-13,4.815761318e-13,6.39803665e-13,9.244262148e-14,3.678664459e-13,8.483132092e-13
1.40625,3.788523273e-14,1.180608733e-13,7.021356383e-13,3.681539575e-14,2.960099302e-13,5.136167879e-13,9.7215685e-13,3.961477275e-13,4.354856811e-13,6.166774683e-13,1.725936163e-12,3.964315185e-13,2.65805999e-13,2.498529976e-13,2.994010691e-13,6.55528787e-13,5.926188332e-13,1.275450453e-13,5.207151497e-13,1.26533565e-13,1.548944149e-13,6.034537091e-13,5.106358039e-13,1.986502993e-13,3.216526365e-13,6.002022143e-13,8.305810074e-13,4.962667542e-13,6.486251597e-13,9.129156482e-14,3.600448338e-13,8.288404751e-13
1.4140625,3.905648586e-14,1.180978264e-13,7.113734352e-13,3.679575762e-14,2.863121678e-13,5.271669103e-13,9.817202717e-13,4.107561801e-13,4.42915931e-13,6.242660485e-13,1.758778213e-12,3.997060764e-13,2.786867458e-13,2.48617955e-13,2.896727856e-13,6.359119716e-13,5.779134422e-13,1.256407921e-13,5.429793634e-13,1.216315799e-13,1.588291434e-13,6.169603847e-13,5.226156923e-13,1.967762067e-13,3.181558599e-13,5.997909436e-13,8.336285961e-13,5.098341791e-13,6.538526544e-13,8.982089304e-14,3.509101703e-13,8.075592647e-13
1.421875,4.03200614e-14,1.179106899e-13,7.176282884e-13,3.649803187e-14,2.755540796e-13,5.393230599e-13,9.879128434e-13,4.232637886e-13,4.498193242e-13,6.295844351e-13,1.786279027e-12,4.016511632e-13,2.915555142e-13,2.459647402e-13,2.802162366e-13,6.137949214e-13,5.611560584e-13,1.234414626e-13,5.636307138e-13,1.175891311e-13,1.622194099e-13,6.295170892e-13,5.322536804e-13,1.946827861e-13,3.138014687e-13,5.969934731e-13,8.321715394e-13,5.215302435e-13,6.555248387e-13,8.812523249e-14,3.411532375e-13,7.848511197e-13
1.4296875,4.166201658e-14,1.171334353e-13,7.227461571e-13,3.578296164e-14,2.646292754e-13,5.501459197e-13,9.90994515e-13,4.341436766e-13,4.558930715e-13,6.324119072e-13,1.806790643e-12,4.01694348e-13,3.033733278e-13,2.42056219e-13,2.709047139e-13,5.901478629e-13,5.435220035e-13,1.210361762e-13,5.817541912e-13,1.146013186e-13,1.650997352e-13,6.410364165e-13,5.398294036e-13,1.924831409e-13,3.088402986e-13,5.921596016e-13,8.266966481e-13,5.311716916e-13,6.534143175e-13,8.612988134e-14,3.309092081e-13,7.618189544e-13
1.4375,4.318618565e-14,1.159328428e-13,7.278258631e-13,3.460075617e-14,2.536708758e-13,5.599679564e-13,9.914709175e-13,4.438140607e-13,4.610849876e-13,6.332084062e-13,1.81941005e-12,3.996634317e-13,3.141165431e-13,2.365525136e-13,2.619934616e-13,5.655741501e-13,5.253692604e-13,1.189316644e-13,5.980984595e-13,1.124130537e-13,1.67729885e-13,6.515455962e-13,5.456067047e-13,1.900871579e-13,3.033436199e-13,5.852797279e-13,8.178193351e-13,5.385791417e-13,6.472374456e-13,8.369116137e-14,3.201370307e-13,7.387037496e-13
1.4453125,4.511359888e-14,1.145346677e-13,7.318529413e-13,3.320271842e-14,2.42632804e-13,5.680968825e-13,9.886885923e-13,4.517386647e-13,4.653064072e-13,6.315887589e-13,1.823496582e-12,3.95564222e-13,3.24633442e-13,2.295837882e-13,2.539362126e-13,5.399650893e-13,5.064359847e-13,1.173035826e-13,6.125453717e-13,1.109607596e-13,1.697795955e-13,6.603606428e-13,5.489457858e-13,1.874110588e-13,2.970789684e-13,5.76278019e-13,8.053213204e-13,5.436575321e-13,6.369216869e-13,8.086935939e-14,3.0911588e-13,7.15250423e-13
1.453125,4.745385214e-14,1.128684541e-13,7.34908312e-13,3.165096682e-14,2.320405759e-13,5.742620873e-13,9.827093349e-13,4.576025762e-13,4.686213371e-13,6.272020147e-13,1.819373011e-12,3.898623657e-13,3.348327559e-13,2.220147396e-13,2.46537355e-13,5.137532598e-13,4.869845649e-13,1.157086191e-13,6.23980628e-13,1.102676717e-13,1.710707226e-13,6.671770491e-13,5.499375551e-13,1.846796011e-13,2.904167859e-13,5.658676078e-13,7.897680332e-13,5.46812262e-13,6.23182044e-13,7.784735875e-14,2.981114049e-13,6.923355039e-13
1.4609375,5.016231903e-14,1.108573475e-13,7.382388418e-13,2.990823409e-14,2.224640386e-13,5.79153454e-13,9.745465513e-13,4.61517492e-13,4.70892091e-13,6.205885974e-13,1.807619146e-12,3.826641507e-13,3.441599138e-13,2.145471954e-13,2.400859787e-13,4.885749795e-13,4.674774937e-13,1.143568238e-13,6.324357114e-13,1.103631013e-13,1.717990131e-13,6.723935636e-13,5.49217715e-13,1.817811902e-13,2.831761089e-13,5.547417215e-13,7.722136794e-13,5.480551077e-13,6.067805422e-13,7.460550738e-14,2.873124584e-13,6.70979059e-13
1.46875,5.32930363e-14,1.085621635e-13,7.418596635e-13,2.795912447e-14,2.133538904e-13,5.831420763e-13,9.641541179e-13,4.632164736e-13,4.720967996e-13,6.119490196e-13,1.787984838e-12,3.737312133e-13,3.529365833e-13,2.06546461e-13,2.343617903e-13,4.643579827e-13,4.477134164e-13,1.137684613e-13,6.387428943e-13,1.10865419e-13,1.719817859e-13,6.759810893e-13,5.463390905e-13,1.786143543e-13,2.750603753e-13,5.420396418e-13,7.519751916e-13,5.47512594e-13,5.876480224e-13,7.09997942e-14,2.764111501e-13,6.507719676e-13
1.4765625,5.701826772e-14,1.063816175e-13,7.451364288e-13,2.601357702e-14,2.044751335e-13,5.853494365e-13,9.511341725e-13,4.618713913e-13,4.721789088e-13,6.009740675e-13,1.761189919e-12,3.636729064e-13,3.616343884e-13,1.980586907e-13,2.291692282e-13,4.406110581e-13,4.273910011e-13,1.138789125e-13,6.429800037e-13,1.116284886e-13,1.716159979e-13,6.775417763e-13,5.412555249e-13,1.749397817e-13,2.665949361e-13,5.27868081e-13,7.291755024e-13,5.452246784e-13,5.661849472e-13,6.713823159e-14,2.657356303e-13,6.314837428e-13
1.484375,6.146760585e-14,1.043037497e-13,7.494964144e-13,2.430247701e-14,1.967910319e-13,5.853760048e-13,9.359157122e-13,4.574055579e-13,4.708438246e-13,5.873715219e-13,1.727532235e-12,3.526584985e-13,3.69751773e-13,1.900293925e-13,2.252563635e-13,4.181278634e-13,4.072233297e-13,1.144402517e-13,6.44516813e-13,1.130389971e-13,1.706592728e-13,6.772754456e-13,5.345215015e-13,1.70555011e-13,2.576995215e-13,5.134186493e-13,7.047826872e-13,5.4105486e-13,5.42891586e-13,6.307993934e-14,2.557546135e-13,6.140807638e-13
1.4921875,6.662192643e-14,1.019917681e-13,7.5596985e-13,2.257097352e-14,1.90054756e-13,5.844853176e-13,9.189541487e-13,4.508722871e-13,4.682800449e-13,5.715202474e-13,1.686984803e-12,3.404486374e-13,3.774976637e-13,1.819282504e-13,2.220163676e-13,3.96481696e-13,3.876130248e-13,1.155522202e-13,6.442260575e-13,1.147141596e-13,1.692762045e-13,6.75928853e-13,5.258325474e-13,1.659204839e-13,2.479874215e-13,4.981545343e-13,6.781812607e-13,5.355375414e-13,5.178342331e-13,5.877930082e-14,2.457989568e-13,5.986292699e-13
1.5,7.253940641e-14,9.973914988e-14,7.626709856e-13,2.072851488e-14,1.8338726e-13,5.830247211e-13,9.000956479e-13,4.422350327e-13,4.646917976e-13,5.538923142e-13,1.640909679e-12,3.27553813e-13,3.865700222e-13,1.735559612e-13,2.186569939e-13,3.750348932e-13,3.678381158e-13,1.178035113e-13,6.44459036e-13,1.160250052e-13,1.678572806e-13,6.740256418e-13,5.149580609e-13,1.611271091e-13,2.376705542e-13,4.814406044e-13,6.492256403e-13,5.290159352e-13,4.915815591e-13,5.458835786e-14,2.355711852e-13,5.841558622e-13
1.5078125,7.936382541e-14,9.795627043e-14,7.684844162e-13,1.896234711e-14,1.770854132e-13,5.802248183e-13,8.79073839e-13,4.306831671e-13,4.603698129e-13,5.340253252e-13,1.589616788e-12,3.143855422e-13,3.974262662e-13,1.655735161e-13,2.158587314e-13,3.540902854e-13,3.479505372e-13,1.212719997e-13,6.450730747e-13,1.172248034e-13,1.661049302e-13,6.713866853e-13,5.021685294e-13,1.55727772e-13,2.272397351e-13,4.639632854e-13,6.19168771e-13,5.218293899e-13,4.65090889e-13,5.091654649e-14,2.255209669e-13,5.707432044e-13
1.515625,8.718302591e-14,9.662438e-14,7.73766501e-13,1.727680502e-14,1.714909919e-13,5.762363546e-13,8.563580995e-13,4.171288804e-13,4.558603039e-13,5.12433073e-13,1.533868554e-12,3.015199306e-13,4.087811429e-13,1.581211607e-13,2.13762903e-13,3.33780183e-13,3.288358715e-13,1.254727862e-13,6.444297545e-13,1.186038591e-13,1.638673243e-13,6.675402541e-13,4.877570169e-13,1.498762096e-13,2.171559407e-13,4.463628413e-13,5.888527821e-13,5.141481604e-13,4.39168758e-13,4.780977546e-14,2.16035858e-13,5.589119038e-13
1.5234375,9.586758881e-14,9.545996881e-14,7.78456269e-13,1.56829921e-14,1.662969661e-13,5.715695047e-13,8.328890936e-13,4.027310623e-13,4.507440166e-13,4.905592212e-13,1.475773354e-12,2.893212386e-13,4.200121076e-13,1.512658861e-13,2.121945846e-13,3.138956891e-13,3.10504332e-13,1.306104705e-13,6.435875918e-13,1.198477735e-13,1.617274539e-13,6.627197341e-13,4.719933759e-13,1.437697197e-13,2.072830817e-13,4.284457493e-13,5.581224372e-13,5.056953768e-13,4.136550857e-13,4.522909423e-14,2.070519452e-13,5.480118448e-13
1.53125,1.052820893e-13,9.439529554e-14,7.826044527e-13,1.422165984e-14,1.610962254e-13,5.661968818e-13,8.089156098e-13,3.869979648e-13,4.44678908e-13,4.680328023e-13,1.415122535e-12,2.775356358e-13,4.319371245e-13,1.449233503e-13,2.107326457e-13,2.941382552e-13,2.924864611e-13,1.370837115e-13,6.439148822e-13,1.207766583e-13,1.596800133e-13,6.573946726e-13,4.547897402e-13,1.373410594e-13,1.975232613e-13,4.098916755e-13,5.271653613e-13,4.974250421e-13,3.883901835e-13,4.324530423e-14,1.981583724e-13,5.372757051e-13
1.5390625,1.154861111e-13,9.361171822e-14,7.858844379e-13,1.295906545e-14,1.560131348e-13,5.595138777e-13,7.841928519e-13,3.697108116e-13,4.382038837e-13,4.442456568e-13,1.352067308e-12,2.663496803e-13,4.44814121e-13,1.391520931e-13,2.086476085e-13,2.750050301e-13,2.750640438e-13,1.444668368e-13,6.445352292e-13,1.218876242e-13,1.574097719e-13,6.514142282e-13,4.362834484e-13,1.308298291e-13,1.882938605e-13,3.911701773e-13,4.968917188e-13,4.901111881e-13,3.64080083e-13,4.179410674e-14,1.894282846e-13,5.270393911e-13
1.546875,1.264546316e-13,9.298082597e-14,7.889470886e-13,1.194230134e-14,1.513220789e-13,5.517013866e-13,7.591166036e-13,3.517512844e-13,4.314430155e-13,4.202841003e-13,1.288959622e-12,2.55723305e-13,4.580790101e-13,1.338485165e-13,2.065835422e-13,2.568285947e-13,2.588567591e-13,1.525955891e-13,6.455541703e-13,1.235973589e-13,1.551194612e-13,6.451904885e-13,4.171678717e-13,1.243556011e-13,1.797565774e-13,3.72536543e-13,4.674385634e-13,4.832583837e-13,3.406010896e-13,4.077076737e-14,1.809938438e-13,5.17748932e-13
1.5546875,1.381509643e-13,9.259754508e-14,7.938009804e-13,1.118037859e-14,1.466796665e-13,5.437971337e-13,7.344303605e-13,3.332057556e-13,4.246494087e-13,3.968846222e-13,1.227229991e-12,2.456212029e-13,4.72331488e-13,1.284883451e-13,2.045285797e-13,2.389945993e-13,2.436504105e-13,1.62070742e-13,6.48902699e-13,1.257199188e-13,1.531158514e-13,6.398591854e-13,3.979702558e-13,1.180163033e-13,1.718096962e-13,3.538098608e-13,4.3873324e-13,4.770430201e-13,3.176812786e-13,4.034299152e-14,1.726128371e-13,5.092444982e-13
1.5625,1.504288688e-13,9.276738406e-14,8.000407328e-13,1.075330084e-14,1.420464322e-13,5.353324355e-13,7.100613289e-13,3.136772862e-13,4.183605838e-13,3.737626071e-13,1.167301938e-12,2.366066687e-13,4.877405036e-13,1.233223756e-13,2.022172594e-13,2.216656808e-13,2.287021011e-13,1.72622269e-13,6.545882402e-13,1.283655424e-13,1.513125721e-13,6.353291057e-13,3.787003029e-13,1.121183504e-13,1.643982971e-13,3.353834662e-13,4.112220541e-13,4.721608534e-13,2.959096836e-13,4.058766152e-14,1.643574903e-13,5.015381247e-13
1.5703125,1.629188093e-13,9.308870406e-14,8.063462626e-13,1.059415671e-14,1.378272653e-13,5.257388778e-13,6.857895082e-13,2.940939521e-13,4.123040032e-13,3.512419851e-13,1.10937558e-12,2.287942514e-13,5.02742254e-13,1.188508996e-13,2.004917981e-13,2.053751339e-13,2.141806688e-13,1.836076905e-13,6.610711571e-13,1.320341715e-13,1.495115484e-13,6.306372994e-13,3.592275768e-13,1.06705935e-13,1.576748789e-13,3.175851881e-13,3.849977143e-13,4.685164384e-13,2.754318297e-13,4.151302156e-14,1.565092667e-13,4.946400215e-13
1.578125,1.754740832e-13,9.320010393e-14,8.138154753e-13,1.061621238e-14,1.33864437e-13,5.157976574e-13,6.623831791e-13,2.754713776e-13,4.059708925e-13,3.302984294e-13,1.054756852e-12,2.220777533e-13,5.164958418e-13,1.15124496e-13,1.988290814e-13,1.900851328e-13,2.007964614e-13,1.956220041e-13,6.692594942e-13,1.365202051e-13,1.481281934e-13,6.261718318e-13,3.400038053e-13,1.017255837e-13,1.51531961e-13,3.001870036e-13,3.598091662e-13,4.650573664e-13,2.559362037e-13,4.336165159e-14,1.490273685e-13,4.882742246e-13
1.5859375,1.879413329e-13,9.330601016e-14,8.230170831e-13,1.094979485e-14,1.300416854e-13,5.054789654e-13,6.400707813e-13,2.574492406e-13,3.994322371e-13,3.107326164e-13,1.004376524e-12,2.162614079e-13,5.293647737e-13,1.121601393e-13,1.975404401e-13,1.757304983e-13,1.883134315e-13,2.090786283e-13,6.805197525e-13,1.411539008e-13,1.473246807e-13,6.227523135e-13,3.212060478e-13,9.718196581e-14,1.454172732e-13,2.827980277e-13,3.352455976e-13,4.611692924e-13,2.372684548e-13,4.619707548e-14,1.416034181e-13,4.826092295e-13
1.59375,1.998861193e-13,9.343292629e-14,8.325976005e-13,1.160886219e-14,1.265277493e-13,4.941975644e-13,6.182025826e-13,2.397545364e-13,3.929070377e-13,2.91822067e-13,9.567792298e-13,2.109789987e-13,5.413138317e-13,1.097567509e-13,1.972169744e-13,1.620929834e-13,1.762469322e-13,2.23113727e-13,6.933477559e-13,1.460134018e-13,1.465487946e-13,6.195717958e-13,3.023385186e-13,9.304041965e-14,1.39321542e-13,2.654220354e-13,3.112648829e-13,4.570962804e-13,2.196737495e-13,4.977369373e-14,1.341483239e-13,4.776516945e-13
1.6015625,2.111168044e-13,9.350617689e-14,8.421060439e-13,1.253490783e-14,1.232688035e-13,4.819457253e-13,5.973110328e-13,2.229997742e-13,3.861780922e-13,2.74594578e-13,9.126755126e-13,2.063876708e-13,5.516300715e-13,1.079814204e-13,1.969153431e-13,1.492049499e-13,1.649173339e-13,2.370807922e-13,7.066813695e-13,1.515783367e-13,1.458365872e-13,6.160296072e-13,2.838607702e-13,8.930048725e-14,1.335740745e-13,2.486720563e-13,2.883306829e-13,4.527477932e-13,2.035705475e-13,5.395873117e-14,1.268861679e-13,4.72985114e-13
1.609375,2.217422426e-13,9.364915657e-14,8.51955149e-13,1.381691453e-14,1.202668167e-13,4.68964069e-13,5.782411744e-13,2.07469142e-13,3.791817491e-13,2.599754794e-13,8.741180212e-13,2.028463974e-13,5.600854172e-13,1.071569155e-13,1.969255465e-13,1.371325962e-13,1.544453626e-13,2.512149555e-13,7.21238805e-13,1.5753309e-13,1.453864863e-13,6.129588956e-13,2.663977552e-13,8.600048366e-14,1.282496012e-13,2.327444953e-13,2.666065743e-13,4.483512383e-13,1.889441317e-13,5.887103526e-14,1.198139929e-13,4.686775652e-13
1.6171875,2.316625974e-13,9.393752381e-14,8.611615362e-13,1.542344135e-14,1.173977003e-13,4.555140117e-13,5.607484045e-13,1.929153444e-13,3.722751556e-13,2.476145271e-13,8.411750883e-13,2.005816923e-13,5.670043147e-13,1.074094897e-13,1.97611632e-13,1.257972994e-13,1.446092129e-13,2.656043763e-13,7.367156008e-13,1.638401004e-13,1.450584828e-13,6.104734602e-13,2.495982143e-13,8.321469358e-14,1.233121181e-13,2.175882562e-13,2.462664623e-13,4.439044484e-13,1.757084727e-13,6.45398944e-14,1.130707356e-13,4.647848326e-13
1.625,2.404433455e-13,9.413419305e-14,8.684381384e-13,1.723289453e-14,1.144154779e-13,4.416139223e-13,5.446054669e-13,1.793938784e-13,3.651995505e-13,2.377870619e-13,8.144884331e-13,1.992283848e-13,5.717272856e-13,1.089422351e-13,1.998714186e-13,1.155662816e-13,1.357446471e-13,2.79871237e-13,7.524826044e-13,1.714834014e-13,1.451357158e-13,6.081878247e-13,2.335508772e-13,8.074752188e-14,1.182449909e-13,2.034974181e-13,2.271147087e-13,4.381833713e-13,1.635796816e-13,7.06630998e-14,1.068769953e-13,4.612156316e-13
1.6328125,2.479943992e-13,9.412547998e-14,8.74295972e-13,1.926278262e-14,1.11233453e-13,4.275198687e-13,5.298046897e-13,1.66858628e-13,3.576546855e-13,2.303751738e-13,7.935087364e-13,1.981036533e-13,5.737067662e-13,1.113131757e-13,2.040930106e-13,1.059829407e-13,1.278802901e-13,2.938403297e-13,7.685791926e-13,1.80332327e-13,1.456603687e-13,6.064586506e-13,2.186440428e-13,7.828008716e-14,1.127865983e-13,1.900817586e-13,2.084674778e-13,4.314561467e-13,1.519822467e-13,7.697178795e-14,1.007697281e-13,4.579188975e-13
1.640625,2.547069242e-13,9.436272981e-14,8.789557313e-13,2.15152754e-14,1.076506562e-13,4.132388291e-13,5.160107514e-13,1.550006005e-13,3.502022464e-13,2.247091076e-13,7.766394169e-13,1.977793751e-13,5.738889622e-13,1.143124681e-13,2.088843048e-13,9.68675854e-14,1.205008108e-13,3.076249571e-13,7.846898839e-13,1.895129932e-13,1.462379298e-13,6.051430191e-13,2.046810438e-13,7.595248893e-14,1.074841401e-13,1.770727068e-13,1.908850504e-13,4.253834362e-13,1.412144828e-13,8.36954737e-14,9.478540022e-14,4.540999937e-13
1.6484375,2.60391699e-13,9.49149302e-14,8.814713823e-13,2.3882017e-14,1.036443603e-13,3.981822088e-13,5.028960455e-13,1.44370471e-13,3.430471334e-13,2.213036594e-13,7.639576591e-13,1.989156411e-13,5.720229198e-13,1.186321564e-13,2.143938006e-13,8.916662144e-14,1.138861213e-13,3.209872002e-13,7.99827295e-13,1.992443465e-13,1.468193514e-13,6.031337777e-13,1.914945571e-13,7.386317808e-14,1.022444977e-13,1.651152267e-13,1.751853792e-13,4.197499175e-13,1.318567432e-13,9.106894005e-14,8.960443407e-14,4.489717894e-13
1.65625,2.64491509e-13,9.541623798e-14,8.823503871e-13,2.639646205e-14,9.940766202e-14,3.826820715e-13,4.905024165e-13,1.355731456e-13,3.356948524e-13,2.205213276e-13,7.545002353e-13,2.011161184e-13,5.662713322e-13,1.242646038e-13,2.204581945e-13,8.25904075e-14,1.084750186e-13,3.330537459e-13,8.122801412e-13,2.094158417e-13,1.473606812e-13,5.993932359e-13,1.791773148e-13,7.17457648e-14,9.669386353e-14,1.544312552e-13,1.611714985e-13,4.135820408e-13,1.236567923e-13,9.870239986e-14,8.53864966e-14,4.426650057e-13
1.6640625,2.66983848e-13,9.587145328e-14,8.828400012e-13,2.910975986e-14,9.500900716e-14,3.671383777e-13,4.788982437e-13,1.280352096e-13,3.279649909e-13,2.220017289e-13,7.479195656e-13,2.041157594e-13,5.566314693e-13,1.309058221e-13,2.267818637e-13,7.694199101e-14,1.039821841e-13,3.433761808e-13,8.213955908e-13,2.195479552e-13,1.477330907e-13,5.939735123e-13,1.677913763e-13,6.962130637e-14,9.10924335e-14,1.449757101e-13,1.487492756e-13,4.071117211e-13,1.163401876e-13,1.062240383e-13,8.209157653e-14,4.354270551e-13
1.671875,2.681234498e-13,9.640169065e-14,8.837831526e-13,3.183223596e-14,9.070081578e-14,3.511093271e-13,4.676816128e-13,1.214904705e-13,3.203131944e-13,2.255870931e-13,7.451484899e-13,2.079526042e-13,5.448353774e-13,1.384721317e-13,2.339660611e-13,7.285033902e-14,1.005442716e-13,3.525619155e-13,8.280101674e-13,2.30056955e-13,1.478877687e-13,5.876081867e-13,1.571626981e-13,6.756232573e-14,8.549116445e-14,1.368151169e-13,1.378623248e-13,4.006696478e-13,1.100340189e-13,1.138636576e-13,7.97055265e-14,4.276062902e-13
1.6796875,2.680481001e-13,9.723953309e-14,8.861129296e-13,3.463637141e-14,8.670092552e-14,3.348003909e-13,4.565328079e-13,1.164249735e-13,3.131280134e-13,2.308875813e-13,7.443865562e-13,2.129682978e-13,5.315038396e-13,1.471742159e-13,2.417704599e-13,7.027907253e-14,9.860423791e-14,3.606373629e-13,8.31426854e-13,2.406222492e-13,1.476455117e-13,5.801534788e-13,1.470874444e-13,6.540131385e-14,7.996398046e-14,1.299069269e-13,1.28535162e-13,3.94173988e-13,1.048898436e-13,1.21942319e-13,7.838232402e-14,4.199132952e-13
1.6875,2.66633827e-13,9.843033318e-14,8.900914158e-13,3.777033766e-14,8.287432452e-14,3.188331381e-13,4.460139808e-13,1.12817352e-13,3.060256086e-13,2.376797352e-13,7.448829547e-13,2.191397145e-13,5.163773162e-13,1.574543118e-13,2.507394746e-13,6.924515867e-14,9.785538625e-14,3.669090158e-13,8.306409688e-13,2.503088286e-13,1.470718358e-13,5.713609704e-13,1.376752675e-13,6.320408613e-14,7.474141222e-14,1.243615377e-13,1.207881548e-13,3.875483214e-13,1.007888654e-13,1.3027447e-13,7.818959903e-14,4.124835909e-13
1.6953125,2.640261615e-13,9.968847286e-14,8.96442548e-13,4.097961269e-14,7.910918682e-14,3.03521845e-13,4.368595439e-13,1.10568351e-13,2.987444171e-13,2.462962249e-13,7.485022403e-13,2.258865667e-13,5.001841944e-13,1.687637742e-13,2.613633826e-13,6.968262961e-14,9.792072202e-14,3.716321043e-13,8.26722814e-13,2.597819444e-13,1.466038799e-13,5.618448852e-13,1.291506562e-13,6.119176424e-14,6.988578971e-14,1.202794546e-13,1.143875427e-13,3.807435076e-13,9.755449635e-14,1.385101614e-13,7.892949005e-14,4.049639969e-13
1.703125,2.606366114e-13,1.010336234e-13,9.063926675e-13,4.394594724e-14,7.540712949e-14,2.890264527e-13,4.285620694e-13,1.097473161e-13,2.915711314e-13,2.563762647e-13,7.539603028e-13,2.332871567e-13,4.832387712e-13,1.804038334e-13,2.729423727e-13,7.135670463e-14,9.894321487e-14,3.749351502e-13,8.198519981e-13,2.696043515e-13,1.463638378e-13,5.516249146e-13,1.216456178e-13,5.948339905e-14,6.548652506e-14,1.176427015e-13,1.094705817e-13,3.737487549e-13,9.528844673e-14,1.467665779e-13,8.052668783e-14,3.975571375e-13
1.7109375,2.564205166e-13,1.025535166e-13,9.200199598e-13,4.669101844e-14,7.177593283e-14,2.750759122e-13,4.200268004e-13,1.101200193e-13,2.844561417e-13,2.669438083e-13,7.589568904e-13,2.413029454e-13,4.646967902e-13,1.924656838e-13,2.853302438e-13,7.434388309e-14,1.009865628e-13,3.759871848e-13,8.085028308e-13,2.787669021e-13,1.459977513e-13,5.399667451e-13,1.150142963e-13,5.777272325e-14,6.135335529e-14,1.160601532e-13,1.058479118e-13,3.666573656e-13,9.383877928e-14,1.550769743e-13,8.259165522e-14,3.903694058e-13
1.71875,2.514235051e-13,1.042106691e-13,9.37357838e-13,4.91661333e-14,6.813971921e-14,2.612959977e-13,4.108814236e-13,1.118115058e-13,2.773513313e-13,2.774728687e-13,7.633976505e-13,2.494122716e-13,4.449074978e-13,2.047107235e-13,2.984363055e-13,7.851468051e-14,1.038584841e-13,3.748657542e-13,7.922260234e-13,2.871993329e-13,1.45320746e-13,5.263622485e-13,1.088392496e-13,5.595659289e-14,5.753880501e-14,1.150705362e-13,1.032637737e-13,3.600172565e-13,9.296015116e-14,1.631479841e-13,8.485009076e-14,3.826470499e-13
1.7265625,2.458211746e-13,1.058865842e-13,9.584831874e-13,5.129090203e-14,6.45471963e-14,2.477636599e-13,4.009974859e-13,1.151492375e-13,2.705795722e-13,2.876487472e-13,7.661129207e-13,2.574813762e-13,4.248121409e-13,2.164081897e-13,3.106251623e-13,8.342990461e-14,1.075305763e-13,3.722776721e-13,7.718396091e-13,2.95529795e-13,1.444079921e-13,5.109156502e-13,1.029704929e-13,5.474041496e-14,5.438241257e-14,1.147834043e-13,1.019002644e-13,3.545386994e-13,9.278864172e-14,1.710682147e-13,8.74017954e-14,3.741776485e-13
1.734375,2.396791963e-13,1.075181107e-13,9.834664347e-13,5.314691473e-14,6.122387665e-14,2.347406635e-13,3.905833764e-13,1.196866644e-13,2.64373352e-13,2.973387139e-13,7.663840079e-13,2.655358507e-13,4.049521747e-13,2.273585005e-13,3.212313507e-13,8.885500569e-14,1.120402905e-13,3.681111239e-13,7.48099594e-13,3.030605991e-13,1.431485487e-13,4.943708781e-13,9.75397623e-14,5.420679514e-14,5.174843865e-14,1.151688547e-13,1.014903779e-13,3.503478033e-13,9.335914185e-14,1.791094114e-13,9.005117932e-14,3.657619757e-13
1.7421875,2.333179378e-13,1.093446282e-13,1.01294824e-12,5.482570826e-14,5.804548589e-14,2.222616772e-13,3.799253565e-13,1.247553649e-13,2.585879781e-13,3.063256861e-13,7.648662541e-13,2.732520948e-13,3.858971664e-13,2.373591853e-13,3.310641745e-13,9.495464496e-14,1.173842802e-13,3.624244975e-13,7.211299607e-13,3.095993543e-13,1.414168924e-13,4.767520719e-13,9.248179961e-14,5.407578415e-14,4.955954218e-14,1.158504756e-13,1.018465442e-13,3.471751709e-13,9.449618903e-14,1.871527473e-13,9.264240036e-14,3.575161104e-13
1.75,2.266807029e-13,1.111956258e-13,1.046752293e-12,5.636469722e-14,5.506895649e-14,2.102273504e-13,3.683230705e-13,1.302759632e-13,2.527876319e-13,3.137484966e-13,7.60681838e-13,2.799060699e-13,3.671707567e-13,2.455918069e-13,3.396547954e-13,1.01687515e-13,1.238482508e-13,3.556085867e-13,6.909282206e-13,3.160409006e-13,1.393007046e-13,4.576128925e-13,8.759439592e-14,5.45712759e-14,4.793731566e-14,1.165697488e-13,1.028010878e-13,3.445829051e-13,9.593749093e-14,1.948520263e-13,9.502784966e-14,3.491045777e-13
1.7578125,2.195410162e-13,1.127541404e-13,1.084508126e-12,5.763114612e-14,5.262574505e-14,1.986870628e-13,3.557607551e-13,1.363180227e-13,2.472079993e-13,3.192957015e-13,7.535074842e-13,2.855895352e-13,3.48776265e-13,2.520779609e-13,3.476401846e-13,1.088813901e-13,1.313881489e-13,3.475011012e-13,6.580425509e-13,3.221918501e-13,1.36710163e-13,4.37694565e-13,8.266405494e-14,5.583387615e-14,4.696186597e-14,1.171392598e-13,1.040060207e-13,3.426918837e-13,9.76754657e-14,2.023321474e-13,9.715980366e-14,3.41136836e-13
1.765625,2.120494897e-13,1.142949665e-13,1.126625412e-12,5.853361249e-14,5.058113019e-14,1.876351169e-13,3.431810844e-13,1.42695168e-13,2.424292628e-13,3.235994097e-13,7.437944759e-13,2.91050115e-13,3.316801139e-13,2.573500912e-13,3.555646462e-13,1.166218717e-13,1.397393099e-13,3.382570137e-13,6.228952343e-13,3.278312747e-13,1.335749432e-13,4.173307462e-13,7.760734661e-14,5.826484133e-14,4.664306469e-14,1.177823922e-13,1.057460678e-13,3.423930985e-13,1.001349602e-13,2.099821985e-13,9.931337508e-14,3.339377115e-13
1.7734375,2.041783685e-13,1.157119362e-13,1.173398959e-12,5.928328324e-14,4.898338093e-14,1.77061199e-13,3.301456204e-13,1.489458493e-13,2.377562765e-13,3.26549318e-13,7.310922411e-13,2.956392118e-13,3.152117319e-13,2.608649935e-13,3.615664951e-13,1.246788751e-13,1.493325864e-13,3.283769423e-13,5.856360056e-13,3.335929601e-13,1.302301161e-13,3.958663912e-13,7.268443324e-14,6.180333732e-14,4.665670498e-14,1.188019911e-13,1.079722001e-13,3.433886773e-13,1.031685568e-13,2.173743683e-13,1.012421084e-13,3.26910193e-13
1.78125,1.960047519e-13,1.165577038e-13,1.224908484e-12,5.991503038e-14,4.798119479e-14,1.673034528e-13,3.164288557e-13,1.547402497e-13,2.326323694e-13,3.273471139e-13,7.159050499e-13,2.984936316e-13,2.992126714e-13,2.619826835e-13,3.656857454e-13,1.32741233e-13,1.601870173e-13,3.180569141e-13,5.471745066e-13,3.39398941e-13,1.268917407e-13,3.740848412e-13,6.814872826e-14,6.59625767e-14,4.682664192e-14,1.19916744e-13,1.100817787e-13,3.44689605e-13,1.062207189e-13,2.239984646e-13,1.025277284e-13,3.205146037e-13
1.7890625,1.87803022e-13,1.17064559e-13,1.280584259e-12,6.022521367e-14,4.738324628e-14,1.582855381e-13,3.030182391e-13,1.605988824e-13,2.281604441e-13,3.262461348e-13,6.990448974e-13,3.003270335e-13,2.852853279e-13,2.610699515e-13,3.69275808e-13,1.407984063e-13,1.717926864e-13,3.076128587e-13,5.087301319e-13,3.452190608e-13,1.236308997e-13,3.532969111e-13,6.402089651e-14,7.10587244e-14,4.735245252e-14,1.209223047e-13,1.120581835e-13,3.466045737e-13,1.09601922e-13,2.303364317e-13,1.032961885e-13,3.157164315e-13
1.796875,1.795768027e-13,1.176045553e-13,1.339514272e-12,6.023970141e-14,4.72246129e-14,1.494537074e-13,2.895129255e-13,1.666555263e-13,2.246033462e-13,3.237193016e-13,6.803250307e-13,3.016135718e-13,2.732700055e-13,2.58514897e-13,3.72089125e-13,1.488001199e-13,1.842533745e-13,2.969790922e-13,4.702864354e-13,3.511593177e-13,1.203646517e-13,3.330196323e-13,6.017966727e-14,7.708995612e-14,4.828291337e-14,1.21909433e-13,1.14077704e-13,3.494338902e-13,1.137129415e-13,2.368529451e-13,1.037408509e-13,3.118404521e-13
1.8046875,1.71305791e-13,1.181235659e-13,1.401481925e-12,6.011493307e-14,4.753439651e-14,1.408247859e-13,2.752903837e-13,1.717088059e-13,2.208483235e-13,3.189708869e-13,6.594695699e-13,3.016016473e-13,2.62152824e-13,2.54177494e-13,3.73686509e-13,1.568167597e-13,1.977714219e-13,2.859776952e-13,4.316738988e-13,3.569608385e-13,1.16800649e-13,3.12857849e-13,5.656936772e-14,8.360563895e-14,4.934106198e-14,1.228248261e-13,1.159142103e-13,3.524559522e-13,1.179475815e-13,2.431860433e-13,1.037908068e-13,3.082748244e-13
