"Time","Fp1","AF3","F7","F3","FC1","FC5","T7","C3","CP1","CP5","P7","P3","Pz","PO3","O1","Oz","O2","PO4","P4","P8","CP6","CP2","C4","T8","FC6","FC2","F4","F8","AF4","Fp2","Fz","Cz"
0.0078125,2.968193441e-11,3.48202519e-10,7.86546152e-10,1.011705714e-09,6.449340898e-11,3.304680105e-10,7.36736375e-10,1.725617248e-09,9.100973266e-10,7.931488369e-11,2.939934417e-10,3.227860277e-10,2.575961135e-09,7.945440384e-10,1.063545656e-09,7.147489207e-10,3.368123734e-10,3.231154952e-10,4.739876815e-09,6.380882923e-11,5.72415902e-10,8.214800149e-11,1.042372107e-09,1.134743966e-09,8.108257226e-10,4.481151141e-10,1.366012683e-09,2.470871278e-11,1.537136339e-09,3.164848264e-10,2.519777106e-09,1.934009456e-09
0.015625,2.984602037e-11,3.478332676e-10,7.90120139e-10,1.008414e-09,6.425908995e-11,3.279971904e-10,7.304803142e-10,1.731875306e-09,9.06353617e-10,7.967844087e-11,2.948000363e-10,3.23666267e-10,2.564868374e-09,7.904896237e-10,1.058493012e-09,7.073952177e-10,3.3594629e-10,3.212674464e-10,4.721499924e-09,6.318550778e-11,5.709942061e-10,8.219578459e-11,1.033094748e-09,1.135670039e-09,8.14536362e-10,4.495790157e-10,1.368209856e-09,2.451661375e-11,1.537081677e-09,3.132433527e-10,2.50571124e-09,1.927323559e-09
0.0234375,2.977832896e-11,3.447062426e-10,7.877559632e-10,9.970998472e-10,6.355657813e-11,3.231366051e-10,7.185110409e-10,1.725335709e-09,8.953797328e-10,7.944597698e-11,2.932843814e-10,3.220042652e-10,2.533387568e-09,7.801296446e-10,1.04504018e-09,6.947409882e-10,3.3238409e-10,3.168646271e-10,4.669142843e-09,6.209042158e-11,5.654556966e-10,8.159372017e-11,1.01575411e-09,1.12758716e-09,8.119358568e-10,4.475124982e-10,1.359572765e-09,2.414678781e-11,1.524793521e-09,3.075928703e-10,2.471726932e-09,1.905276263e-09
0.03125,2.948269515e-11,3.389329049e-10,7.795101211e-10,9.781410605e-10,6.239833451e-11,3.159574188e-10,7.011407414e-10,1.706105446e-09,8.775338668e-10,7.862377782e-11,2.89521613e-10,3.178661997e-10,2.482524155e-09,7.637866772e-10,1.023610581e-09,6.770675111e-10,3.26240161e-10,3.100301768e-10,4.583468859e-09,6.055113092e-11,5.558687313e-10,8.036337202e-11,9.908007762e-10,1.110822982e-09,8.031424661e-10,4.420123286e-10,1.340454493e-09,2.360383563e-11,1.500747916e-09,2.996612653e-10,2.418855217e-09,1.868588303e-09
0.0390625,2.896856688e-11,3.306110937e-10,7.655379975e-10,9.518937737e-10,6.080541164e-11,3.066108902e-10,6.78724865e-10,1.674497269e-09,8.531975939e-10,7.722436917e-11,2.835746487e-10,3.113223517e-10,2.413296165e-09,7.418351879e-10,9.945974874e-10,6.546843653e-10,3.176857341e-10,3.00924846e-10,4.466060296e-09,5.859630057e-11,5.424063511e-10,7.85249886e-11,9.587467546e-10,1.085670482e-09,7.883067782e-10,4.331702955e-10,1.311217025e-09,2.289977061e-11,1.465400391e-09,2.896246222e-10,2.348228941e-09,1.818020906e-09
0.046875,2.824348867e-11,3.199934843e-10,7.461080098e-10,9.191271446e-10,5.880019873e-11,2.953090749e-10,6.518797205e-10,1.631116296e-09,8.230666545e-10,7.527593792e-11,2.756189123e-10,3.025653024e-10,2.327694103e-09,7.148985066e-10,9.588155626e-10,6.281027202e-10,3.069606309e-10,2.898105719e-10,4.319231296e-09,5.625645793e-11,5.25313425e-10,7.613384433e-11,9.204609553e-10,1.052872901e-09,7.678244134e-10,4.212329774e-10,1.272702247e-09,2.205273991e-11,1.419779362e-09,2.777451442e-10,2.261849946e-09,1.755040037e-09
0.0546875,2.732395297e-11,3.073589591e-10,7.216036545e-10,8.807277716e-10,5.643119989e-11,2.823070273e-10,6.213467267e-10,1.576824794e-09,7.879355305e-10,7.281500965e-11,2.658432846e-10,2.918006851e-10,2.228017036e-09,6.83678893e-10,9.172665496e-10,5.980961381e-10,2.943189838e-10,2.7697331e-10,4.14627223e-09,5.359852288e-11,5.049628935e-10,7.325101501e-11,8.769969505e-10,1.01324544e-09,7.421314843e-10,4.064824731e-10,1.225846285e-09,2.108221268e-11,1.365050744e-09,2.643333959e-10,2.162035889e-09,1.681307288e-09
0.0625,2.623437026e-11,2.929539024e-10,6.926293637e-10,8.374572344e-10,5.375879017e-11,2.678885549e-10,5.877564116e-10,1.512887864e-09,7.485355697e-10,6.989854078e-11,2.54445271e-10,2.792471591e-10,2.116294628e-09,6.488450558e-10,8.707721625e-10,5.652850091e-10,2.800599972e-10,2.626931743e-10,3.951084635e-09,5.06842295e-11,4.818274703e-10,6.993395801e-11,8.292491208e-10,9.676021635e-10,7.117682837e-10,3.89224622e-10,1.171631737e-09,2.00088542e-11,1.302338121e-09,2.496747022e-10,2.05086225e-09,1.598351494e-09
0.0703125,2.499373316e-11,2.771097474e-10,6.598078713e-10,7.902974467e-10,5.084015155e-11,2.524133277e-10,5.518723061e-10,1.440749957e-09,7.057639247e-10,6.659771948e-11,2.416851238e-10,2.651932395e-10,1.99506e-09,6.111890327e-10,8.203778402e-10,5.303841344e-10,2.644932553e-10,2.472916709e-10,3.738285484e-09,4.758195363e-11,4.564504086e-10,6.625660228e-11,7.783150057e-10,9.169972266e-10,6.774377445e-10,3.698526256e-10,1.11128704e-09,1.885658539e-11,1.23305731e-09,2.34111967e-10,1.930858271e-09,1.508051013e-09
0.078125,2.363051687e-11,2.601468734e-10,6.23882141e-10,7.401950826e-10,4.774311792e-11,2.362247298e-10,5.14418991e-10,1.362114435e-09,6.604501613e-10,6.298873408e-11,2.278152316e-10,2.499375671e-10,1.866726856e-09,5.714220099e-10,7.671347486e-10,4.942009731e-10,2.478953625e-10,2.310616811e-10,3.51293274e-09,4.436334821e-11,4.294376543e-10,6.229566493e-11,7.252165372e-10,8.624425408e-10,6.398949692e-10,3.48780559e-10,1.04604796e-09,1.765151599e-11,1.158606757e-09,2.179597956e-10,1.804374997e-09,1.412177806e-09
0.0859375,2.218116711e-11,2.424396819e-10,5.857565523e-10,6.882213092e-10,4.453277178e-11,2.196198425e-10,4.761262873e-10,1.278867247e-09,6.135581073e-10,5.915362513e-11,2.13169678e-10,2.338426054e-10,1.734015136e-09,5.303782217e-10,7.121585016e-10,4.57418713e-10,2.306468928e-10,2.143461889e-10,3.279573908e-09,4.108110889e-11,4.013436034e-10,5.814234851e-11,6.70978632e-10,8.051864747e-10,6.000482225e-10,3.26517427e-10,9.77449034e-10,1.641871476e-11,1.080683021e-09,2.01521262e-10,1.674021342e-09,1.312795179e-09
0.09375,2.067629705e-11,2.243261884e-10,5.462145167e-10,6.353394445e-10,4.127027551e-11,2.028963876e-10,4.376392614e-10,1.192706296e-09,5.659515447e-10,5.517411294e-11,1.980503404e-10,2.17230662e-10,1.599330686e-09,4.88802127e-10,6.564309932e-10,4.206181028e-10,2.130717538e-10,1.974386169e-10,3.042498681e-09,3.779627704e-11,3.727015431e-10,5.38754489e-11,6.165276274e-10,7.463560463e-10,5.587245096e-10,3.03511393e-10,9.068456211e-10,1.517730868e-11,1.000794752e-09,1.850718854e-10,1.542124468e-09,1.211729956e-09
0.1015625,1.914397174e-11,2.060810521e-10,5.060062665e-10,5.823043401e-10,3.800917731e-11,1.862787098e-10,3.994342039e-10,1.105218396e-09,5.182907082e-10,5.113158051e-11,1.826957019e-10,2.003878699e-10,1.46453557e-09,4.472557343e-10,6.007343752e-10,3.842282877e-10,1.954227682e-10,1.805716684e-10,2.805316726e-09,3.45519397e-11,3.439832256e-10,4.956615991e-11,5.625097769e-10,6.869285563e-10,5.166858071e-10,2.801540321e-10,8.353987209e-10,1.394304991e-11,9.202016623e-10,1.68802005e-10,1.410470564e-09,1.110437289e-09
0.109375,1.760773356e-11,1.8802356e-10,4.657757063e-10,5.300116919e-10,3.478891863e-11,1.699687615e-10,3.620949495e-10,1.017738605e-09,4.713722015e-10,4.708638529e-11,1.673871345e-10,1.836123973e-10,1.331870236e-09,4.064279191e-10,5.459847387e-10,3.487279833e-10,1.780033236e-10,1.640235836e-10,2.570997736e-09,3.138094737e-11,3.155474527e-10,4.529177014e-11,5.097352277e-10,6.279602851e-10,4.746609431e-10,2.568604377e-10,7.643714076e-10,1.273328464e-11,8.403183448e-10,1.529387655e-10,1.281218788e-09,1.010637188e-09
0.1171875,1.609241723e-11,1.704159446e-10,4.260700014e-10,4.792056434e-10,3.164696045e-11,1.541513277e-10,3.260947764e-10,9.314438185e-10,4.258509911e-10,4.308778573e-11,1.523689323e-10,1.67149411e-10,1.2031679e-09,3.668775648e-10,4.929118246e-10,3.145303963e-10,1.61068165e-10,1.480051146e-10,2.3423091e-09,2.832529158e-11,2.8772883e-10,4.111111033e-11,4.588860787e-10,5.702597462e-10,4.332571539e-10,2.339763364e-10,6.948064757e-10,1.156003009e-11,7.623066104e-10,1.376760458e-10,1.156101963e-09,9.137060012e-10
0.125,1.461850889e-11,1.534825269e-10,3.874088818e-10,4.305047477e-10,2.861527745e-11,1.389568541e-10,2.9179223e-10,8.473814977e-10,3.822660846e-10,3.919033803e-11,1.378358194e-10,1.512247043e-10,1.079951043e-09,3.290587677e-10,4.421380064e-10,2.819019169e-10,1.448287979e-10,1.327006472e-10,2.121344536e-09,2.541081346e-11,2.608063727e-10,3.708081544e-11,4.104589799e-10,5.14611858e-10,3.930420509e-10,2.118140204e-10,6.276416272e-10,1.043217789e-11,6.871962253e-10,1.23150966e-10,1.036529463e-09,8.208182479e-10
0.1328125,1.319670244e-11,1.373770543e-10,3.501288044e-10,3.843348764e-10,2.571967039e-11,1.245107831e-10,2.594676593e-10,7.662709284e-10,3.409915461e-10,3.54305779e-11,1.239187145e-10,1.3598478e-10,9.632889615e-10,2.932911667e-10,3.941196411e-10,2.510950735e-10,1.294150526e-10,1.182413176e-10,1.909852022e-09,2.265759049e-11,2.349997927e-10,3.323983187e-11,3.648445452e-10,4.615501155e-10,3.543888117e-10,1.905809486e-10,5.634917669e-10,9.35987159e-12,6.156653612e-10,1.094739194e-10,9.235223399e-10,7.327900778e-10
0.140625,1.184144924e-11,1.222053816e-10,3.145249408e-10,3.409890248e-10,2.298115199e-11,1.109123201e-10,2.293060642e-10,6.887675776e-10,3.022857092e-10,3.183610887e-11,1.107262246e-10,1.21537214e-10,8.539005769e-10,2.597929293e-10,3.491355201e-10,2.223014208e-10,1.149330006e-10,1.047082406e-10,1.709392472e-09,2.008520802e-11,2.105006778e-10,2.961195462e-11,3.22303013e-10,4.11396194e-10,3.175907834e-10,1.704312716e-10,5.02807744e-10,8.349505801e-12,5.481873188e-10,9.672281664e-11,8.177533623e-10,6.501623206e-10
0.1484375,1.056458527e-11,1.080846017e-10,2.808856832e-10,3.007949134e-10,2.041494236e-11,9.824018559e-11,2.015100346e-10,6.154835796e-10,2.664443973e-10,2.84350536e-11,9.83691666e-11,1.07999339e-10,7.526068464e-10,2.288183157e-10,3.075027069e-10,1.957002565e-10,1.015001223e-10,9.220260478e-11,1.521265361e-09,1.770505531e-11,1.874659218e-10,2.622524138e-11,2.831178282e-10,3.64562583e-10,2.829483203e-10,1.515289223e-10,4.460772888e-10,7.407179341e-12,4.853008933e-10,8.498065464e-11,7.199970318e-10,5.735649072e-10
0.15625,9.372305172e-12,9.506945958e-11,2.494205093e-10,2.638791682e-10,1.803383539e-11,8.654321744e-11,1.761363242e-10,5.468823912e-10,2.335679477e-10,2.524930044e-11,8.690623775e-11,9.543900832e-11,6.597014341e-10,2.004446013e-10,2.693527693e-10,1.713735808e-10,8.91465791e-11,8.07557941e-11,1.346417247e-09,1.552280703e-11,1.660172386e-10,2.309554594e-11,2.473621707e-10,3.212801736e-10,2.506596918e-10,1.339728884e-10,3.935562335e-10,6.537406171e-12,4.272610553e-10,7.426502118e-11,6.305081506e-10,5.032379226e-10
0.1640625,8.269697027e-12,8.317221945e-11,2.202631495e-10,2.302431238e-10,1.584413962e-11,7.582911932e-11,1.531402452e-10,4.832535034e-10,2.036416981e-10,2.229529314e-11,7.63599112e-11,8.388683918e-11,5.751467381e-10,1.746434952e-10,2.346750164e-10,1.492866608e-10,7.787085381e-11,7.03556015e-11,1.185248661e-09,1.353824353e-11,1.462199243e-10,2.022774574e-11,2.149639899e-10,2.816062841e-10,2.208404397e-10,1.178096397e-10,3.453498518e-10,5.74012553e-12,3.741341194e-10,6.455311079e-11,5.491954707e-10,4.391676684e-10
0.171875,7.257474138e-12,7.237393628e-11,1.934580331e-10,1.998205197e-10,1.384722384e-11,6.610399148e-11,1.324625249e-10,4.247253731e-10,1.766108997e-10,1.957986669e-11,6.672924129e-11,7.333815964e-11,4.987708959e-10,1.513667583e-10,2.033812333e-10,1.293830267e-10,6.766444547e-11,6.097985788e-11,1.037997938e-09,1.174860123e-11,1.281076969e-10,1.76183695e-11,1.858439082e-10,2.454980028e-10,1.935108732e-10,1.030376124e-10,3.014252181e-10,5.015511515e-12,3.25860404e-10,5.583026065e-11,4.758782943e-10,3.812330263e-10
0.1796875,6.335981683e-12,6.26576251e-11,1.690370772e-10,1.72539053e-10,1.204209025e-11,5.735299772e-11,1.140244937e-10,3.713804203e-10,1.524039159e-10,1.710456164e-11,5.80175705e-11,6.379076619e-11,4.303666267e-10,1.305470639e-10,1.753786382e-10,1.115973294e-10,5.85047899e-11,5.25981243e-11,9.046543758e-10,1.014855257e-11,1.116833361e-10,1.526514127e-11,1.598913544e-10,2.129281898e-10,1.686857808e-10,8.965857015e-11,2.617503161e-10,4.363146532e-12,2.823780222e-10,4.806145081e-11,4.103344575e-10,3.292927603e-10
0.1875,5.505728518e-12,5.399871776e-11,1.46987893e-10,1.483033808e-10,1.042346448e-11,4.952864711e-11,9.772079275e-11,3.231703974e-10,1.309178739e-10,1.486690615e-11,5.020994527e-11,5.523044826e-11,3.696563114e-10,1.120816937e-10,1.505573366e-10,9.584451186e-11,5.035063591e-11,4.516848678e-11,7.847539942e-10,8.728022808e-12,9.689978851e-11,1.316328267e-11,1.369558625e-10,1.838246412e-10,1.463412907e-10,7.765433403e-11,2.262502613e-10,3.779527818e-12,2.435734055e-10,4.119160007e-11,3.522415723e-10,2.831430672e-10
0.1953125,4.763620462e-12,4.632376514e-11,1.272208392e-10,1.268902746e-10,8.983351545e-12,4.257696364e-11,8.33781281e-11,2.799029061e-10,1.119496885e-10,1.286047173e-11,4.325114349e-11,4.759992266e-11,3.160659527e-10,9.579116113e-11,1.286712544e-10,8.196428633e-11,4.313211161e-11,3.861730611e-11,6.77655203e-10,7.476212798e-12,8.368944346e-11,1.129653613e-11,1.167942219e-10,1.579670578e-10,1.263593566e-10,6.694630023e-11,1.946691856e-10,3.259669858e-12,2.091396364e-10,3.514918289e-11,3.010175834e-10,2.423578551e-10
0.203125,4.1032664e-12,3.955825719e-11,1.096134966e-10,1.080747107e-10,7.711762141e-12,3.644714433e-11,7.083330957e-11,2.413294289e-10,9.529899774e-11,1.107461147e-11,3.708569904e-11,4.08376156e-11,2.690248975e-10,8.150459991e-11,1.094772458e-10,6.979926946e-11,3.678132312e-11,3.28735438e-11,5.826742602e-10,6.382325687e-12,7.197155136e-11,9.64855901e-12,9.917300927e-11,1.351323798e-10,1.086015825e-10,5.745001878e-11,1.6673262e-10,2.799801283e-12,1.787604009e-10,2.986792988e-11,2.561136395e-10,2.065188055e-10
0.2109375,3.51951987e-12,3.363478337e-11,9.403503984e-11,9.165209241e-11,6.595847359e-12,3.10807398e-11,5.993579098e-11,2.071810885e-10,8.078118774e-11,9.493223502e-12,3.166637438e-11,3.488498076e-11,2.280082158e-10,6.906268343e-11,9.27504237e-11,5.921701449e-11,3.123610533e-11,2.787004299e-11,4.990247997e-10,5.432184543e-12,6.164416488e-11,8.203574578e-12,8.387897996e-11,1.150933751e-10,9.292657691e-11,4.908772097e-11,1.421856146e-10,2.39645608e-12,1.521369323e-10,2.528357183e-11,2.170176607e-10,1.752363587e-10
0.21875,3.008283445e-12,2.848745476e-11,8.034762138e-11,7.742525061e-11,5.621439593e-12,2.640786661e-11,5.052973067e-11,1.771645057e-10,6.821437843e-11,8.102503327e-12,2.693984688e-11,2.968481315e-11,1.925050159e-10,5.83000828e-11,7.827967317e-11,5.00683269e-11,2.642609305e-11,2.354012971e-11,4.257941588e-10,4.610238609e-12,5.259510341e-11,6.945686316e-12,7.069058209e-11,9.763352852e-11,7.919474898e-11,4.178242342e-11,1.207831866e-10,2.044852787e-12,1.289795647e-10,2.132847633e-11,1.832069346e-10,1.481231845e-10
0.2265625,2.562674613e-12,2.403892018e-11,6.839239078e-11,6.516421358e-11,4.775816165e-12,2.235636668e-11,4.244753037e-11,1.509364677e-10,5.738695346e-11,6.888217687e-12,2.283474814e-11,2.516718526e-11,1.619267033e-10,4.902683017e-11,6.583676627e-11,4.220765559e-11,2.226478677e-11,1.981069025e-11,3.62029199e-10,3.900831824e-12,4.471058764e-11,5.856875368e-12,5.93650427e-11,8.251231053e-11,6.723426877e-11,3.543613182e-11,1.022245996e-10,1.740153064e-12,1.089438549e-10,1.793121837e-11,1.540956826e-10,1.24735846e-10
0.234375,2.17605433e-12,2.020672174e-11,5.800651657e-11,5.462627488e-11,4.045821985e-12,1.886041361e-11,3.552008794e-11,1.281366135e-10,4.808569042e-11,5.83306552e-12,1.92857013e-11,2.125756595e-11,1.356584964e-10,4.106336392e-11,5.515953345e-11,3.547016885e-11,1.868132716e-11,1.660860933e-11,3.067673111e-10,3.290661821e-12,3.78747199e-11,4.917976971e-12,4.966339977e-11,6.946445438e-11,5.686283912e-11,2.994410518e-11,8.619123045e-11,1.477261246e-12,9.166759296e-11,1.502068882e-11,1.291034168e-10,1.046242988e-10
0.2421875,1.84257522e-12,1.692439541e-11,4.902605553e-11,4.562328604e-11,3.41735229e-12,1.586085023e-11,2.961588202e-11,1.084094484e-10,4.014585996e-11,4.921198135e-12,1.623597005e-11,1.789323386e-11,1.132277123e-10,3.426960267e-11,4.604575713e-11,2.97104731e-11,1.561819089e-11,1.387615324e-11,2.590892355e-10,2.769123908e-12,3.19741758e-11,4.112947242e-12,4.140236091e-11,5.826544363e-11,4.792014577e-11,2.521769168e-11,7.241887032e-11,1.251301448e-12,7.685682116e-11,1.254196651e-11,1.077794234e-10,8.743355555e-11
0.25,1.555751986e-12,1.412808319e-11,4.129955158e-11,3.797111829e-11,2.877953413e-12,1.329287047e-11,2.460488576e-11,9.142211024e-11,3.340091463e-11,4.135825829e-12,1.362995625e-11,1.501409113e-11,9.41710682e-11,2.849891044e-11,3.831121944e-11,2.481238719e-11,1.301102935e-11,1.155486431e-11,2.180997758e-10,2.323003555e-12,2.689675429e-11,3.426612836e-12,3.439458884e-11,4.870532496e-11,4.024975364e-11,2.1172559e-11,6.065119015e-11,1.058229916e-12,6.422761303e-11,1.043907452e-11,8.966952871e-11,7.281210669e-11
0.2578125,1.309837713e-12,1.175819235e-11,3.468008131e-11,3.149695874e-11,2.416428769e-12,1.109651768e-11,2.036454205e-11,7.684487893e-11,2.769566251e-11,3.46117993e-12,1.141826147e-11,1.25615908e-11,7.805226338e-11,2.361785404e-11,3.177187315e-11,2.06568425e-11,1.080193341e-11,9.589791679e-12,1.829176242e-10,1.941187512e-12,2.253659539e-11,2.844589822e-12,2.846699335e-11,4.058736081e-11,3.37001902e-11,1.772710881e-11,5.064481268e-11,8.936972573e-13,5.351203724e-11,8.656500785e-12,7.435002835e-11,6.043226753e-11
0.265625,1.099867049e-12,9.754823969e-12,2.901724393e-11,2.603629744e-11,2.023147396e-12,9.225207007e-12,1.678857078e-11,6.435649746e-11,2.288319858e-11,2.885253916e-12,9.540997267e-12,1.047599772e-11,6.446145116e-11,1.950027602e-11,2.62615742e-11,1.713968403e-11,8.933087332e-12,7.930742959e-12,1.528011011e-10,1.617412513e-12,1.88071663e-11,2.352195912e-12,2.347205684e-11,3.370824938e-11,2.811942204e-11,1.479696328e-11,4.215390229e-11,7.533727959e-13,4.444039378e-11,7.149723004e-12,6.142663523e-11,4.997828413e-11
0.2734375,9.21105957e-13,8.065588358e-12,2.419189335e-11,2.144445185e-11,1.689625903e-12,7.635917192e-12,1.378395417e-11,5.368987711e-11,1.883777103e-11,2.395528407e-12,7.950556119e-12,8.707144741e-12,5.304053993e-11,1.603983621e-11,2.1633558e-11,1.417216085e-11,7.359640559e-12,6.535965745e-12,1.271099053e-10,1.344537146e-12,1.563014049e-11,1.937073045e-12,1.927763206e-11,2.789970867e-11,2.337574583e-11,1.231112445e-11,3.496838613e-11,6.338425884e-13,3.678202014e-11,5.88123785e-12,5.056337904e-11,4.118121974e-11
0.28125,7.693008113e-13,6.65074375e-12,2.009478122e-11,1.761048337e-11,1.407562891e-12,6.292573632e-12,1.127677917e-11,4.460719943e-11,1.546176749e-11,1.979641444e-12,6.613966029e-12,7.214654503e-12,4.351159941e-11,1.315351425e-11,1.776958025e-11,1.167980894e-11,6.044956493e-12,5.371129593e-12,1.052659378e-10,1.115319566e-12,1.293230486e-11,1.5895628e-12,1.578167288e-11,2.302637682e-11,1.935978593e-11,1.021418921e-11,2.892193594e-11,5.323347636e-13,3.03573222e-11,4.819884378e-12,4.149606203e-11,3.382955329e-11
0.2890625,6.411795006e-13,5.468080225e-12,1.662146346e-11,1.441793222e-11,1.170326134e-12,5.161401286e-12,9.189871202e-12,3.68973249e-11,1.264870375e-11,1.628741503e-12,5.489562823e-12,5.958086642e-12,3.558032981e-11,1.074647441e-11,1.455977489e-11,9.598268494e-12,4.945011326e-12,4.398647517e-12,8.676578477e-11,9.245256835e-13,1.065236652e-11,1.299253377e-12,1.287512589e-11,1.893954716e-11,1.597125841e-11,8.450490747e-12,2.384628872e-11,4.461098914e-13,2.497958347e-11,3.934405019e-12,3.393729638e-11,2.769394003e-11
0.296875,5.334560424e-13,4.481305683e-12,1.369034744e-11,1.176538762e-11,9.722134277e-13,4.211430203e-12,7.458895153e-12,3.037828244e-11,1.031167147e-11,1.334402697e-12,4.543980238e-12,4.902402903e-12,2.899786689e-11,8.745423943e-12,1.190414641e-11,7.870509971e-12,4.027102233e-12,3.589825922e-12,7.115876738e-11,7.670399693e-13,8.734442756e-12,1.057277959e-12,1.046466758e-11,1.552450828e-11,1.312164974e-11,6.969964081e-12,1.959594692e-11,3.728747644e-13,2.04890869e-11,3.198801379e-12,2.765768606e-11,2.258867507e-11
0.3046875,4.430298364e-13,3.661213081e-12,1.122654038e-11,9.570471979e-12,8.071878548e-13,3.421170479e-12,6.033704845e-12,2.488936849e-11,8.380801377e-12,1.087755715e-12,3.753158489e-12,4.018000414e-12,2.356112789e-11,7.094237697e-12,9.710410714e-12,6.444206516e-12,3.266469487e-12,2.92173124e-12,5.807740255e-11,6.372923823e-13,7.128949768e-12,8.565202774e-13,8.481718493e-12,1.268427872e-11,1.073133476e-11,5.730917954e-12,1.604770517e-11,3.110735848e-13,1.675285054e-11,2.592861689e-12,2.247307037e-11,1.836270815e-11
0.3125,3.675338503e-13,2.9821267e-12,9.165422535e-12,7.760455136e-12,6.699847135e-13,2.768799886e-12,4.863919816e-12,2.030049951e-11,6.789561289e-12,8.82111352e-13,3.095405566e-12,3.281212272e-12,1.908244822e-11,5.735241164e-12,7.902936521e-12,5.268070377e-12,2.639117702e-12,2.371074359e-12,4.719383548e-11,5.305298955e-13,5.792887694e-12,6.908341519e-13,6.855541551e-12,1.032716407e-11,8.73916565e-12,4.701174991e-12,1.310040129e-11,2.593775117e-13,1.365761975e-11,2.096007281e-12,1.820233472e-11,1.487382248e-11
0.3203125,3.045355567e-13,2.422840125e-12,7.450510348e-12,6.275511276e-12,5.561876716e-13,2.231992564e-12,3.908161688e-12,1.64881791e-11,5.484446469e-12,7.111485909e-13,2.552639826e-12,2.671261548e-12,1.541246922e-11,4.621465718e-12,6.42419065e-12,4.304708921e-12,2.123726221e-12,1.919342213e-12,3.818772289e-11,4.422186e-13,4.685293486e-12,5.550513057e-13,5.526334416e-12,8.38170963e-12,7.089379423e-12,3.852300793e-12,1.066779196e-11,2.168556001e-13,1.110890618e-11,1.690798678e-12,1.470051947e-11,1.200745491e-11
0.328125,2.531671879e-13,1.937029976e-12,6.022200448e-12,5.006187905e-12,4.604107321e-13,1.789865239e-12,3.120729655e-12,1.332395084e-11,4.384784397e-12,5.695279102e-13,2.085285063e-12,2.15269229e-12,1.23365129e-11,3.694395215e-12,5.202475272e-12,3.506657697e-12,1.679516483e-12,1.555826376e-12,3.080936075e-11,3.634581841e-13,3.768966269e-12,4.430869367e-13,4.418673788e-12,6.773809669e-12,5.714340374e-12,3.138232028e-12,8.607812308e-12,1.852769426e-13,8.961311763e-12,1.355555756e-12,1.180555369e-11,9.609887563e-12
0.3359375,2.097182611e-13,1.566074833e-12,4.858268957e-12,4.027573857e-12,3.811800491e-13,1.43242811e-12,2.493630711e-12,1.075292355e-11,3.521497429e-12,4.543803266e-13,1.724653833e-12,1.743508713e-12,9.924098071e-12,2.959953981e-12,4.227387018e-12,2.865990776e-12,1.335802725e-12,1.253214502e-12,2.48209121e-11,3.062173774e-13,3.027000462e-12,3.536997987e-13,3.548840534e-12,5.463793867e-12,4.600273893e-12,2.572751666e-12,6.982593541e-12,1.584857083e-13,7.2650488e-12,1.08640338e-12,9.491088239e-12,7.707510899e-12
0.34375,1.757817629e-13,1.262675616e-12,3.918242649e-12,3.229388403e-12,3.18013681e-13,1.145701404e-12,1.987284032e-12,8.656197302e-12,2.821665277e-12,3.652688483e-13,1.416524141e-12,1.40825302e-12,7.945274927e-12,2.363418333e-12,3.44232133e-12,2.352113567e-12,1.063807559e-12,1.010723009e-12,1.995721891e-11,2.613393084e-13,2.435607396e-12,2.813113098e-13,2.842913407e-12,4.405863896e-12,3.681594856e-12,2.102355e-12,5.646742167e-12,1.348158513e-13,5.870303612e-12,8.720910246e-13,7.610076191e-12,6.160459698e-12
0.3515625,1.483131296e-13,1.016942647e-12,3.149493953e-12,2.585422003e-12,2.673362393e-13,9.172585888e-13,1.576240565e-12,6.94636177e-12,2.252650176e-12,2.92782462e-13,1.169106474e-12,1.134984014e-12,6.350365877e-12,1.879480593e-12,2.804524514e-12,1.934683969e-12,8.409302977e-13,8.105974157e-13,1.601788409e-11,2.274746784e-13,1.960772416e-12,2.238195071e-13,2.273038515e-12,3.541388399e-12,2.93733035e-12,1.724504247e-12,4.563161634e-12,1.147723755e-13,4.741505118e-12,6.973784261e-13,6.076778409e-12,4.902988059e-12
0.359375,1.258794024e-13,8.198826559e-13,2.523686449e-12,2.06870264e-12,2.271947541e-13,7.376666204e-13,1.2420578e-12,5.558849224e-12,1.791688999e-12,2.341709475e-13,9.71081942e-13,9.138979021e-13,5.066264194e-12,1.487556621e-12,2.286197154e-12,1.597604342e-12,6.616403413e-13,6.435874392e-13,1.284461909e-11,2.016754542e-13,1.583183943e-12,1.777527219e-13,1.812287043e-12,2.831081615e-12,2.337070395e-12,1.421757547e-12,3.688925702e-12,9.721438945e-14,3.830538273e-12,5.557838443e-13,4.825281322e-12,3.881684566e-12
0.3671875,1.06513792e-13,6.646927759e-13,1.998529227e-12,1.65731188e-12,1.9748166e-13,5.950669378e-13,9.43019502e-13,4.42982468e-12,1.389540361e-12,1.845095175e-13,8.110541941e-13,7.390760133e-13,3.986277405e-12,1.119630676e-12,1.888984712e-12,1.335281483e-12,5.032744814e-13,4.835755037e-13,1.027184421e-11,1.817063882e-13,1.283951111e-12,1.420151095e-13,1.43113519e-12,2.201381671e-12,1.834168324e-12,1.19323024e-12,2.992672218e-12,8.048484892e-14,3.094764467e-12,4.350180765e-13,3.65780491e-12,2.978492554e-12
0.375,9.146246248e-14,5.390853137e-13,1.602221948e-12,1.336340678e-12,1.76007433e-13,4.762391368e-13,7.351845421e-13,3.534675778e-12,1.10107573e-12,1.467936807e-13,6.846022634e-13,5.96578177e-13,3.180220481e-12,8.706186785e-13,1.593562322e-12,1.141928966e-12,3.923461663e-13,3.80645015e-13,8.147803965e-12,1.593363438e-13,1.037194472e-12,1.145544674e-13,1.148428234e-12,1.761130983e-12,1.460390628e-12,9.988908613e-13,2.434784391e-12,6.804499182e-14,2.518890808e-12,3.494439107e-13,2.867277515e-12,2.33881469e-12
0.3828125,7.763870211e-14,4.334081088e-13,1.285235105e-12,1.063645166e-12,1.555831149e-13,3.773290348e-13,5.73024836e-13,2.828582364e-12,8.702331799e-13,1.133872586e-13,5.888740552e-13,4.796583092e-13,2.539163333e-12,6.853427968e-13,1.335405615e-12,9.78577382e-13,3.051690169e-13,3.03731746e-13,6.430848017e-12,1.3494354e-13,8.208275207e-13,9.144292354e-14,9.127247535e-13,1.404112691e-12,1.170434056e-12,8.451052264e-13,1.985795758e-12,6.082302606e-14,2.056639552e-12,2.815876198e-13,2.265011286e-12,1.836427811e-12
0.390625,6.569965355e-14,3.509111926e-13,1.025871145e-12,8.50147697e-13,1.360377496e-13,2.938260657e-13,4.461775168e-13,2.267366864e-12,6.85776217e-13,8.515279222e-14,5.141266621e-13,3.885728634e-13,2.024352538e-12,5.36848599e-13,1.140623158e-12,8.512991844e-13,2.372623313e-13,2.418696988e-13,5.058532263e-12,1.11890747e-13,6.354469105e-13,7.37858466e-14,7.266673926e-13,1.110791683e-12,9.346330339e-13,7.268284555e-13,1.632516616e-12,5.701352553e-14,1.68863541e-12,2.27517507e-13,1.783211924e-12,1.433328587e-12
0.3984375,5.596781799e-14,2.835962791e-13,8.193152005e-13,6.769622058e-13,1.175547773e-13,2.246226452e-13,3.506173749e-13,1.82516891e-12,5.392550215e-13,6.305779882e-14,4.517699341e-13,3.158595616e-13,1.602346149e-12,4.236264561e-13,9.886579658e-13,7.499348987e-13,1.870580681e-13,1.95783996e-13,3.990036344e-12,9.26748902e-14,4.81353886e-13,5.988846072e-14,5.780298571e-13,8.755670916e-13,7.40808826e-13,6.309831063e-13,1.346071105e-12,5.5945077e-14,1.38699176e-12,1.84936705e-13,1.414763002e-12,1.1143739e-12
0.40625,4.814056924e-14,2.321560329e-13,6.544025861e-13,5.445844614e-13,1.009529833e-13,1.711436924e-13,2.735621901e-13,1.478775979e-12,4.229850252e-13,4.683347363e-14,4.011423442e-13,2.616921522e-13,1.281527231e-12,3.329000284e-13,8.782831344e-13,6.628761464e-13,1.471701124e-13,1.57037853e-13,3.181766781e-12,8.000730857e-14,3.628272804e-13,5.017465026e-14,4.601269587e-13,6.885508789e-13,5.842063245e-13,5.635857145e-13,1.132805282e-12,5.550045353e-14,1.162310515e-12,1.483211395e-13,1.11541436e-12,8.61602744e-13
0.4140625,4.269817766e-14,1.910775449e-13,5.257598087e-13,4.403963863e-13,8.747527445e-14,1.330679697e-13,2.127259539e-13,1.198709014e-12,3.310183083e-13,3.731651287e-14,3.545460345e-13,2.187579053e-13,1.027170977e-12,2.634821177e-13,7.950646871e-13,5.860309719e-13,1.179082435e-13,1.25868587e-13,2.578947054e-12,7.393623367e-14,2.809807362e-13,4.335344142e-14,3.651679742e-13,5.447999424e-13,4.553564096e-13,5.084732886e-13,9.614857539e-13,5.423730739e-14,9.824260606e-13,1.171912813e-13,8.80448855e-13,6.626693113e-13
0.421875,3.775490423e-14,1.376232142e-13,4.263513115e-13,2.901700432e-13,7.47692774e-14,1.149506338e-13,1.636957046e-13,9.500191432e-13,2.39603739e-13,3.216175624e-14,3.084974068e-13,1.613670863e-13,7.100129397e-13,2.310975285e-13,6.048446577e-13,4.738110266e-13,1.005272168e-13,1.048865128e-13,2.193595675e-12,7.481302125e-14,2.324021438e-13,2.915737009e-14,2.473890296e-13,4.069756765e-13,3.35030681e-13,4.130277988e-13,7.209239911e-13,5.357802962e-14,7.362792551e-13,9.230509662e-14,7.367933444e-13,4.806065633e-13
0.4296875,3.653935295e-14,1.13558203e-13,3.443147287e-13,2.312619215e-13,6.44338756e-14,1.11414332e-13,1.295511684e-13,7.652967118e-13,1.911207097e-13,3.381342845e-14,2.73369613e-13,1.367985209e-13,5.831914261e-13,2.036827122e-13,5.540724997e-13,3.971393504e-13,8.752974242e-14,8.664485016e-14,1.93677398e-12,8.109120517e-14,2.200892841e-13,2.707178332e-14,1.880643422e-13,3.365940004e-13,2.574855531e-13,3.835152929e-13,6.230418341e-13,5.066855275e-14,6.395384532e-13,7.280529376e-14,6.229319597e-13,3.779809123e-13
0.4375,3.793873689e-14,9.37513288e-14,2.883505801e-13,1.935185189e-13,6.149605767e-14,1.09706138e-13,1.009382685e-13,6.021847146e-13,1.491416872e-13,4.071065295e-14,2.323404188e-13,1.163615005e-13,4.664531602e-13,1.725220612e-13,5.499724784e-13,3.504469774e-13,8.085026638e-14,7.237182106e-14,1.67560891e-12,8.566276978e-14,2.268961792e-13,2.796576431e-14,1.461904009e-13,2.849314559e-13,1.928582826e-13,3.510076291e-13,5.324085917e-13,4.574955797e-14,5.456101147e-13,5.645043455e-14,5.110303285e-13,2.902585818e-13
0.4453125,3.791464468e-14,7.79732068e-14,2.500730933e-13,1.638605512e-13,6.401359615e-14,1.079284553e-13,7.430256372e-14,4.574542884e-13,1.171459213e-13,4.607287642e-14,2.041099464e-13,9.686687245e-14,3.915690121e-13,1.490589674e-13,5.5000624e-13,3.22217202e-13,7.555137296e-14,5.921095329e-14,1.39196215e-12,8.823598761e-14,2.364778084e-13,2.790318972e-14,1.16311783e-13,2.447245157e-13,1.467114032e-13,3.212398365e-13,4.56465683e-13,4.005486657e-14,4.765198659e-13,4.291677892e-14,4.183883652e-13,2.241090678e-13
0.453125,3.711331817e-14,6.606198035e-14,2.278542652e-13,1.445287637e-13,7.079806064e-14,1.030106732e-13,4.92013642e-14,3.369737498e-13,9.192969395e-14,4.98459345e-14,1.847390573e-13,7.952583551e-14,3.482680968e-13,1.26270692e-13,5.690087867e-13,3.229772607e-13,7.074564045e-14,4.638633815e-14,1.088914658e-12,8.74162553e-14,2.446042505e-13,2.769491795e-14,1.011834653e-13,2.089900255e-13,1.124191311e-13,2.969298287e-13,3.971335577e-13,3.415399314e-14,4.286373239e-13,3.191828242e-14,3.286946952e-13,1.696100601e-13
0.4609375,3.587318513e-14,5.348072104e-14,2.259015741e-13,1.207108678e-13,7.867005916e-14,9.128600208e-14,3.615885532e-14,2.485225515e-13,7.225740964e-14,5.237574244e-14,1.71119803e-13,6.080054228e-14,2.906160156e-13,1.178038473e-13,5.723640174e-13,3.368625967e-13,7.497462439e-14,4.177533241e-14,7.887820038e-13,8.142343212e-14,2.399558288e-13,2.554986068e-14,8.885012332e-14,1.749549992e-13,8.864324467e-14,2.629644372e-13,3.261039127e-13,3.025592896e-14,3.652562385e-13,2.603578363e-14,2.847453221e-13,1.338183292e-13
0.46875,3.326584688e-14,4.561339005e-14,2.281240873e-13,1.061882309e-13,8.487469767e-14,7.362444283e-14,2.677374266e-14,1.93948426e-13,5.707032874e-14,5.178793639e-14,1.669322607e-13,4.834485423e-14,2.526555081e-13,1.096037269e-13,5.848891442e-13,3.628155996e-13,7.855360829e-14,3.774415095e-14,5.211895798e-13,7.222028637e-14,2.199310472e-13,2.383846407e-14,8.358855367e-14,1.436442545e-13,7.350521026e-14,2.457326007e-13,2.834761329e-13,2.839155564e-14,3.284447487e-13,2.16013448e-14,2.458828665e-13,1.05259188e-13
0.4765625,3.001821614e-14,4.089952029e-14,2.297620814e-13,9.920875785e-14,8.82208862e-14,5.291462397e-14,2.226363118e-14,1.670703106e-13,4.462330411e-14,4.93057448e-14,1.654719997e-13,4.178348856e-14,2.267641651e-13,1.00286818e-13,6.135352071e-13,3.984246064e-13,8.093145574e-14,3.553134383e-14,3.149270403e-13,6.146187467e-14,1.879467317e-13,2.333783479e-14,8.464836252e-14,1.161227124e-13,6.217990563e-14,2.438494085e-13,2.648759996e-13,2.864862197e-14,3.125106055e-13,1.941211994e-14,2.105801861e-13,8.048388832e-14
0.484375,2.617500471e-14,3.840930369e-14,2.283239364e-13,9.176155523e-14,8.715658587e-14,3.486365414e-14,2.322969733e-14,1.622063054e-13,3.508096051e-14,4.541707904e-14,1.69758808e-13,3.959050543e-14,2.050848128e-13,9.891110717e-14,6.272774882e-13,4.211343056e-13,8.520991782e-14,3.552296259e-14,2.04297236e-13,5.213624556e-14,1.492284722e-13,2.264408164e-14,8.152605869e-14,9.077464543e-14,5.585708674e-14,2.521865934e-13,2.610205059e-13,3.116014175e-14,3.087086411e-13,1.898881652e-14,1.966608762e-13,6.385053699e-14
0.4921875,2.285795284e-14,2.604450408e-14,2.161676506e-13,5.838888612e-14,8.216506275e-14,2.514402548e-14,3.09936135e-14,1.600936105e-13,3.416165619e-15,4.409829994e-14,1.524573057e-13,3.342098788e-14,1.150470493e-13,9.455974164e-14,6.130304374e-13,4.317280773e-13,9.544356354e-14,3.958442661e-14,2.112392184e-13,4.215084633e-14,1.079841717e-13,2.337238262e-14,6.59503578e-14,4.156047141e-14,3.802367118e-14,2.508558173e-13,2.15420289e-13,3.677892104e-14,2.457880444e-13,2.121572988e-14,1.660868817e-13,1.786683161e-14
0.5,1.992201498e-14,2.673091989e-14,1.894304524e-13,5.591932104e-14,7.339106889e-14,2.554521148e-14,5.143370105e-14,1.629471528e-13,6.914956267e-16,3.997721522e-14,1.557794079e-13,3.960194447e-14,9.472004706e-14,1.11256776e-13,6.101085095e-13,4.127343855e-13,1.078213883e-13,4.843652207e-14,3.161724875e-13,3.662714334e-14,6.423729085e-14,2.491936397e-14,6.003414272e-14,3.675691355e-14,3.57022844e-14,2.776054483e-13,2.348743919e-13,4.388991656e-14,2.547743154e-13,2.770926857e-14,2.045551019e-13,2.295351431e-14
0.5078125,1.738625914e-14,3.016450491e-14,1.418341833e-13,6.303014426e-14,6.260272842e-14,3.330046089e-14,5.802698118e-14,1.533415603e-13,1.705838973e-15,3.746500671e-14,1.598010075e-13,5.041067857e-14,1.031965449e-13,1.133257643e-13,6.40687264e-13,3.782664722e-13,1.03379509e-13,5.021030521e-14,4.638307681e-13,3.595446264e-14,3.790905465e-14,2.775237967e-14,5.122261637e-14,5.07495272e-14,3.235684247e-14,3.285627924e-13,2.954509164e-13,4.907241783e-14,3.094304255e-13,3.145625335e-14,2.120671795e-13,1.77668945e-14
0.515625,1.678694648e-14,3.302808973e-14,9.922095758e-14,7.004887217e-14,5.278979584e-14,4.650351743e-14,6.363185545e-14,1.329573197e-13,1.806904386e-15,3.977636628e-14,1.579084173e-13,5.958587231e-14,1.096097476e-13,1.182225058e-13,6.575614843e-13,3.289070421e-13,1.038614989e-13,5.24547236e-14,6.026705595e-13,3.811997998e-14,3.244354248e-14,3.119094703e-14,4.057120143e-14,6.477644308e-14,2.826112984e-14,3.692151905e-13,3.392234551e-13,5.245070032e-14,3.474518289e-13,3.46423697e-14,2.216467503e-13,1.584483699e-14
0.5234375,1.766530944e-14,3.421847472e-14,6.72020122e-14,7.17532591e-14,4.530922965e-14,6.288898284e-14,6.881579423e-14,1.024601731e-13,1.631214496e-15,4.621041509e-14,1.547051122e-13,6.381021278e-14,1.069801212e-13,1.29751918e-13,6.418085823e-13,2.649541971e-13,1.102163397e-13,5.507608914e-14,7.110646041e-13,4.282061769e-14,4.589061639e-14,3.305031134e-14,2.641140814e-14,7.32461996e-14,2.254656065e-14,3.919466125e-13,3.556389212e-13,5.429685791e-14,3.593262807e-13,3.701914763e-14,2.425863396e-13,1.875561362e-14
0.53125,1.986335056e-14,3.339219263e-14,4.816206872e-14,7.443072915e-14,4.198049926e-14,7.596421172e-14,6.802894009e-14,6.924180988e-14,1.689610348e-15,5.702312068e-14,1.43999437e-13,6.479351616e-14,1.102859207e-13,1.331395128e-13,6.501289694e-13,2.214067508e-13,1.119851168e-13,5.708639119e-14,7.53208566e-13,4.6920923e-14,7.51230224e-14,3.500332579e-14,1.896517411e-14,8.544930601e-14,1.542657561e-14,4.069633893e-13,3.647154575e-13,5.366505852e-14,3.661320508e-13,3.855237485e-14,2.490986486e-13,1.842127815e-14
0.5390625,2.283843573e-14,3.155088348e-14,5.133934731e-14,7.671280131e-14,4.327207881e-14,8.158435107e-14,6.386257512e-14,4.20228461e-14,1.667930049e-15,7.010908165e-14,1.335880527e-13,6.201808332e-14,1.126279307e-13,1.341275872e-13,6.595520987e-13,2.014658637e-13,1.149294685e-13,5.880491558e-14,7.132069057e-13,4.943128013e-14,1.110390942e-13,3.586584834e-14,1.688587579e-14,9.283422332e-14,9.323383176e-15,4.06448551e-13,3.558153407e-13,5.114153759e-14,3.578635474e-13,3.845596622e-14,2.506776937e-13,1.894993494e-14
0.546875,2.536957825e-14,3.112448377e-14,7.358966551e-14,8.068320963e-14,4.794625696e-14,7.977411718e-14,5.436469733e-14,2.530798385e-14,2.297741253e-15,8.28221211e-14,1.30714403e-13,5.745049367e-14,1.238200365e-13,1.32383455e-13,6.59046674e-13,1.998615184e-13,1.178191781e-13,5.732684246e-14,6.068732168e-13,5.096522127e-14,1.482800998e-13,3.498138368e-14,1.923255079e-14,9.161501269e-14,5.082941427e-15,3.968572712e-13,3.39746204e-13,4.716167934e-14,3.484179485e-13,3.539088646e-14,2.413601258e-13,1.930442968e-14
0.5546875,2.734842858e-14,2.961685475e-14,1.112705348e-13,8.192104315e-14,5.4482962e-14,7.078266429e-14,4.576227253e-14,2.131774786e-14,2.252821122e-15,9.502082548e-14,1.273866177e-13,5.088672265e-14,1.309219765e-13,1.296476585e-13,6.609199516e-13,2.226875806e-13,1.22300293e-13,5.731271475e-14,4.618828133e-13,4.977718291e-14,1.792629296e-13,3.327031715e-14,2.649012294e-14,8.55559143e-14,3.261560073e-15,3.773164649e-13,3.113328306e-13,4.284104757e-14,3.282856483e-13,3.284651264e-14,2.328938687e-13,2.050736908e-14
0.5625,2.831568198e-14,2.777847801e-14,1.546898982e-13,7.925809574e-14,6.049771263e-14,5.729987598e-14,4.118699988e-14,2.991586127e-14,2.01016305e-15,1.046206151e-13,1.288017744e-13,4.410982628e-14,1.282846871e-13,1.298712854e-13,6.518813859e-13,2.566408134e-13,1.290496431e-13,5.949436568e-14,3.189451145e-13,4.644658348e-14,1.957211266e-13,3.050703505e-14,3.381299081e-14,7.467435115e-14,4.600368164e-15,3.52793977e-13,2.760034161e-13,3.960697055e-14,3.004465456e-13,3.207885921e-14,2.347144911e-13,2.410184346e-14
0.5703125,2.804920242e-14,2.828813354e-14,1.889263905e-13,8.144477763e-14,6.458426555e-14,4.225135368e-14,3.700309732e-14,4.617318918e-14,2.605156194e-15,1.097453763e-13,1.370919535e-13,4.129329766e-14,1.343861359e-13,1.249921731e-13,6.529216445e-13,2.979924852e-13,1.30198023e-13,6.061356495e-14,2.099302211e-13,4.175474463e-14,1.969190054e-13,2.828965133e-14,4.382455953e-14,6.510975098e-14,7.761237906e-15,3.403162251e-13,2.59781026e-13,3.76806513e-14,2.925821525e-13,3.297192206e-14,2.27767915e-13,2.440968467e-14
0.578125,2.683131061e-14,2.996208425e-14,2.124467973e-13,8.376696272e-14,6.586926709e-14,2.917311147e-14,3.725928729e-14,6.856372787e-14,2.796677303e-15,1.102748719e-13,1.501353003e-13,4.178325186e-14,1.3796807e-13,1.214273261e-13,6.497163703e-13,3.35882798e-13,1.311773023e-13,6.28457943e-14,1.606308769e-13,3.598806687e-14,1.829058523e-13,2.664175923e-14,5.207657544e-14,5.628942608e-14,1.332760693e-14,3.36216829e-13,2.534260888e-13,3.76577238e-14,2.919926565e-13,3.702369244e-14,2.256850105e-13,2.445766673e-14
0.5859375,2.476682921e-14,3.30551164e-14,2.202834585e-13,8.491031205e-14,6.348575527e-14,2.15065211e-14,4.132920713e-14,9.275749525e-14,2.556578078e-15,1.065225465e-13,1.688342108e-13,4.587492561e-14,1.384830197e-13,1.210116553e-13,6.293749654e-13,3.543507191e-13,1.327121009e-13,6.512802906e-14,1.816547442e-13,3.028236146e-14,1.567896993e-13,2.5364575e-14,5.419682124e-14,4.925342523e-14,2.07261631e-14,3.421500789e-13,2.587206646e-13,3.945454952e-14,3.001543321e-13,4.370447981e-14,2.301481999e-13,2.532084526e-14
0.59375,2.290750065e-14,3.585410717e-14,2.087746171e-13,8.639336723e-14,5.820933629e-14,1.928886263e-14,4.909526567e-14,1.11531675e-13,2.568489864e-15,1.00344892e-13,1.858266893e-13,5.227931748e-14,1.372602827e-13,1.194434621e-13,6.151507555e-13,3.602589725e-13,1.302816349e-13,6.833908318e-14,2.662008562e-13,2.480043523e-14,1.246455203e-13,2.533492546e-14,5.37892127e-14,4.909835746e-14,2.610071584e-14,3.592795247e-13,2.772940073e-13,4.261123592e-14,3.174579029e-13,5.40224124e-14,2.37745249e-13,2.465175119e-14
0.6015625,2.19060966e-14,3.848794552e-14,1.852268226e-13,8.722888917e-14,5.139055384e-14,2.23490369e-14,5.947665219e-14,1.265350936e-13,2.615984705e-15,9.303508657e-14,2.026730424e-13,6.00187088e-14,1.320286083e-13,1.198487552e-13,5.957673784e-13,3.497923433e-13,1.271988263e-13,7.249654512e-14,3.962390991e-13,2.038777777e-14,9.196799673e-14,2.608909856e-14,4.950807889e-14,5.310462197e-14,2.96006107e-14,3.831621066e-13,3.026795247e-13,4.682225678e-14,3.379462773e-13,6.626313623e-14,2.508710515e-13,2.426226979e-14
0.609375,2.179410764e-14,4.248103616e-14,1.541872127e-13,9.184282017e-14,4.433668613e-14,2.902339845e-14,6.644146411e-14,1.356598845e-13,2.706660238e-15,8.630859689e-14,2.203952958e-13,6.929386275e-14,1.351510568e-13,1.177797509e-13,5.737508927e-13,3.230481841e-13,1.219139563e-13,7.402090651e-14,5.308924022e-13,1.759309266e-14,6.582623901e-14,2.784842725e-14,4.345253815e-14,6.136167352e-14,3.156043109e-14,4.143224063e-13,3.389697669e-13,5.072250424e-14,3.698935308e-13,7.632046582e-14,2.539248666e-13,2.245566352e-14
0.6171875,2.282921398e-14,4.445704312e-14,1.230851213e-13,9.389509251e-14,3.813497054e-14,3.69965623e-14,7.238168292e-14,1.352565721e-13,2.623498816e-15,8.285601615e-14,2.309981494e-13,7.567938919e-14,1.347023214e-13,1.158866598e-13,5.498145458e-13,2.895497622e-13,1.167372018e-13,7.545844531e-14,6.390109549e-13,1.59807081e-14,4.984107756e-14,2.963831756e-14,3.689136782e-14,7.087397077e-14,3.017704348e-14,4.391865101e-13,3.66295253e-13,5.349137958e-14,3.920885155e-13,8.463291542e-14,2.580958907e-13,2.097794021e-14
0.625,2.489508977e-14,4.470102723e-14,9.671380499e-14,9.248369119e-14,3.342631974e-14,4.471159176e-14,7.643053363e-14,1.267003479e-13,2.336174873e-15,8.309393292e-14,2.353612806e-13,7.844113109e-14,1.304279289e-13,1.153083882e-13,5.172576035e-13,2.502668688e-13,1.126132605e-13,7.65119611e-14,7.017430977e-13,1.562924931e-14,4.46976154e-14,3.085533605e-14,3.004048664e-14,7.77521906e-14,2.64173965e-14,4.531451946e-13,3.795126498e-13,5.478534691e-14,4.012054585e-13,8.991289676e-14,2.640697679e-13,2.10752276e-14
0.6328125,2.794781141e-14,4.424791539e-14,7.60984527e-14,9.294213737e-14,3.076303905e-14,4.950121474e-14,7.562462191e-14,1.101494237e-13,2.65877746e-15,8.685286665e-14,2.339669006e-13,7.862203707e-14,1.313911617e-13,1.113405833e-13,4.931786697e-13,2.143102233e-13,1.066653621e-13,7.586402444e-14,7.027431115e-13,1.614425798e-14,4.98063749e-14,3.221670156e-14,2.669321391e-14,8.349239443e-14,2.091108307e-14,4.597178135e-13,3.863140994e-13,5.430147352e-14,4.068191312e-13,9.093827675e-14,2.606688524e-13,2.045727153e-14
0.640625,3.12841888e-14,4.259622299e-14,6.490416898e-14,9.150836285e-14,3.000971476e-14,5.123536024e-14,7.222659285e-14,8.886345851e-14,2.848460651e-15,9.352452764e-14,2.28113584e-13,7.580113404e-14,1.311343571e-13,1.076676158e-13,4.683126724e-13,1.83771074e-13,1.027936038e-13,7.494160517e-14,6.477525298e-13,1.73017547e-14,6.154269494e-14,3.290192704e-14,2.604270665e-14,8.530796966e-14,1.496034269e-14,4.54277625e-13,3.78354775e-13,5.248549667e-14,4.006441097e-13,8.88547091e-14,2.55465552e-13,2.065549478e-14
0.6484375,3.417359619e-14,4.111114635e-14,6.049735782e-14,8.961220134e-14,3.052255506e-14,5.035548525e-14,6.581950496e-14,6.530083566e-14,2.628971242e-15,1.014130666e-13,2.209909831e-13,7.148551863e-14,1.338217561e-13,1.028815734e-13,4.386223142e-13,1.569653899e-13,9.937797086e-14,7.218675037e-14,5.513602819e-13,1.886281327e-14,7.697442569e-14,3.284511769e-14,2.807380979e-14,8.281458547e-14,9.801588484e-15,4.398701199e-13,3.605982622e-13,4.948323517e-14,3.883190469e-13,8.35482451e-14,2.443860339e-13,2.080067909e-14
0.65625,3.68358679e-14,3.855449357e-14,6.063604867e-14,8.591281414e-14,3.162509694e-14,4.660041817e-14,5.964104553e-14,4.2289287e-14,2.848206411e-15,1.094485365e-13,2.102830141e-13,6.557052157e-14,1.326794903e-13,9.773552461e-14,4.139057632e-13,1.388447015e-13,9.531589204e-14,7.004102489e-14,4.400732893e-13,1.987370769e-14,9.174946731e-14,3.215813054e-14,3.145287685e-14,7.746982371e-14,5.00857967e-15,4.175770784e-13,3.340294849e-13,4.607153635e-14,3.671232834e-13,7.833908778e-14,2.35519929e-13,2.089476618e-14
0.6640625,3.899020757e-14,3.638283073e-14,6.402644651e-14,8.117832392e-14,3.275392963e-14,4.155011601e-14,5.51368341e-14,2.645064066e-14,2.967033022e-15,1.156025185e-13,2.015800597e-13,6.037052205e-14,1.293105775e-13,9.399800194e-14,3.87958869e-13,1.265623144e-13,9.233352664e-14,6.890801417e-14,3.462546352e-13,2.030672816e-14,1.014565275e-13,3.110165514e-14,3.454140546e-14,6.9862789e-14,2.268354211e-15,3.931491536e-13,3.047749167e-13,4.343413735e-14,3.43505338e-13,7.505921533e-14,2.300650509e-13,2.165108841e-14
0.671875,4.033344856e-14,3.599246373e-14,6.695384112e-14,7.954086853e-14,3.342682998e-14,3.578162037e-14,5.049926522e-14,2.046855724e-14,3.230313292e-15,1.182366109e-13,1.979052328e-13,5.795083917e-14,1.322327038e-13,8.834750454e-14,3.647142942e-13,1.19431045e-13,8.807201375e-14,6.638732165e-14,2.838071395e-13,2.005775681e-14,1.050980725e-13,3.046634102e-14,3.870859171e-14,6.41395609e-14,1.827638351e-15,3.742904331e-13,2.843761501e-13,4.133205261e-14,3.300570566e-13,7.289713522e-14,2.182828777e-13,2.112714057e-14
0.6796875,4.093958665e-14,3.567252772e-14,6.925763006e-14,7.619889162e-14,3.328815907e-14,3.004255523e-14,4.837249514e-14,2.542939322e-14,3.312674364e-15,1.175956766e-13,1.96002874e-13,5.706010531e-14,1.313084932e-13,8.333009536e-14,3.41991563e-13,1.172759448e-13,8.395285858e-14,6.444266874e-14,2.618915404e-13,1.89574682e-14,1.02040761e-13,2.969711653e-14,4.089671349e-14,6.017645668e-14,3.271143587e-15,3.575126682e-13,2.664955784e-13,3.975709122e-14,3.174832696e-13,7.340508859e-14,2.103132349e-13,2.028549797e-14
0.6875,4.111948241e-14,3.641906409e-14,7.008030523e-14,7.293958038e-14,3.251772257e-14,2.531070695e-14,4.816029792e-14,4.063422025e-14,3.080016135e-15,1.137929514e-13,1.984390899e-13,5.839042122e-14,1.294913625e-13,7.892426024e-14,3.17159722e-13,1.167434064e-13,7.979355424e-14,6.280462623e-14,2.803858881e-13,1.757976916e-14,9.349729128e-14,2.908841095e-14,4.063835325e-14,5.759431824e-14,6.674129661e-15,3.4617686e-13,2.553102483e-13,3.903835493e-14,3.101321388e-13,7.613399885e-14,2.040977877e-13,1.914588237e-14
0.6953125,4.144700356e-14,3.751547191e-14,6.903021182e-14,7.105240213e-14,3.14668951e-14,2.119821804e-14,4.933177141e-14,6.200865477e-14,3.497495016e-15,1.074001984e-13,2.024973102e-13,6.089353521e-14,1.27987575e-13,7.457022026e-14,2.975976217e-13,1.185380637e-13,7.490116296e-14,6.160570982e-14,3.26617601e-13,1.571001739e-14,8.138479762e-14,2.920406126e-14,3.909219555e-14,5.733513297e-14,1.049305282e-14,3.406945282e-13,2.519740736e-13,3.8778147e-14,3.090229044e-13,8.072896688e-14,1.990833535e-13,1.785384451e-14
0.703125,4.193924851e-14,3.900810964e-14,6.746620225e-14,6.888275131e-14,3.048847177e-14,1.824701291e-14,5.127247285e-14,8.701828985e-14,3.626394677e-15,9.947795452e-14,2.075637484e-13,6.388916429e-14,1.260635121e-13,7.110770124e-14,2.77820308e-13,1.205528594e-13,7.071277572e-14,6.053321407e-14,3.85065371e-13,1.392498162e-14,6.781622433e-14,2.969120437e-14,3.611024372e-14,5.77055703e-14,1.498266674e-14,3.377483953e-13,2.520132553e-13,3.862972208e-14,3.09971817e-13,8.559449249e-14,1.951884839e-13,1.698206889e-14
0.7109375,4.274928688e-14,4.125203705e-14,6.511693651e-14,6.832225617e-14,2.990082074e-14,1.666049801e-14,5.151312596e-14,1.103437973e-13,3.53686504e-15,9.129660973e-14,2.138308462e-13,6.717138606e-14,1.281296767e-13,6.664958017e-14,2.57389938e-13,1.2072604e-13,6.583753717e-14,5.814782207e-14,4.342053923e-13,1.29148183e-14,5.6254283e-14,3.052346597e-14,3.363273723e-14,5.883985917e-14,1.943146582e-14,3.371369991e-13,2.565247532e-13,3.810751171e-14,3.156962944e-13,8.819950379e-14,1.858344324e-13,1.565066329e-14
0.71875,4.428086931e-14,4.202672799e-14,6.248017932e-14,6.601855782e-14,2.993376323e-14,1.635613103e-14,5.185040194e-14,1.261171561e-13,3.662345868e-15,8.402501702e-14,2.149992481e-13,6.829619121e-14,1.260482879e-13,6.301715762e-14,2.393752161e-13,1.205509931e-13,6.140533877e-14,5.641119764e-14,4.653806588e-13,1.216437718e-14,4.811822244e-14,3.117409372e-14,3.059199416e-14,5.883358173e-14,2.185921481e-14,3.323417735e-13,2.558065546e-13,3.697859168e-14,3.148791697e-13,8.982478621e-14,1.799675527e-13,1.482041692e-14
0.7265625,4.664323089e-14,4.253472236e-14,6.036562742e-14,6.345488578e-14,3.082521199e-14,1.743752439e-14,5.1289229e-14,1.340652487e-13,3.737383792e-15,7.797536967e-14,2.135409585e-13,6.790331702e-14,1.235969252e-13,6.025826896e-14,2.210843486e-13,1.185881283e-13,5.808228509e-14,5.469302104e-14,4.758119195e-13,1.225417191e-14,4.438472629e-14,3.166639904e-14,2.795130018e-14,5.714017064e-14,2.289592298e-14,3.241116598e-13,2.511322455e-13,3.547236961e-14,3.096305775e-13,8.958004705e-14,1.743371957e-13,1.43968743e-14
0.734375,4.982840226e-14,4.286848121e-14,5.848394065e-14,6.210192416e-14,3.237065804e-14,1.939023414e-14,4.889098844e-14,1.335944863e-13,4.244690426e-15,7.36911994e-14,2.09949107e-13,6.615550758e-14,1.240430866e-13,5.744810121e-14,2.045329649e-13,1.138225112e-13,5.4680362e-14,5.247174545e-14,4.6091546e-13,1.323819774e-14,4.551185896e-14,3.21885564e-14,2.733471952e-14,5.450924602e-14,2.243316747e-14,3.13840821e-13,2.45093982e-13,3.362225108e-14,3.035545854e-13,8.686237692e-14,1.655293426e-13,1.43579782e-14
0.7421875,5.350429056e-14,4.245503965e-14,5.650501254e-14,5.962566412e-14,3.428619188e-14,2.23853407e-14,4.605555377e-14,1.255052319e-13,4.50355448e-15,7.109142678e-14,2.023290301e-13,6.298704858e-14,1.226352055e-13,5.510762925e-14,1.887738241e-13,1.079684697e-13,5.196842604e-14,5.042365259e-14,4.29878616e-13,1.48788785e-14,5.023226838e-14,3.200950454e-14,2.755169145e-14,5.045964715e-14,2.036132587e-14,2.989055921e-13,2.328433367e-13,3.148806116e-14,2.904416246e-13,8.29334495e-14,1.57570713e-13,1.42537498e-14
0.75,5.745189822e-14,4.219498497e-14,5.453513752e-14,5.760689686e-14,3.636388462e-14,2.581180242e-14,4.204883296e-14,1.129527508e-13,4.585555853e-15,6.958957845e-14,1.935849897e-13,5.968433258e-14,1.222445833e-13,5.267233309e-14,1.73832021e-13,1.012710318e-13,5.019909467e-14,4.81112546e-14,3.889987098e-13,1.73432688e-14,5.72923364e-14,3.134441473e-14,2.88985291e-14,4.694657512e-14,1.755647196e-14,2.821005396e-13,2.182057877e-13,2.921081893e-14,2.753793293e-13,7.791189302e-14,1.475941273e-13,1.348349521e-14
0.7578125,6.136662982e-14,4.112221716e-14,5.227782965e-14,5.483631766e-14,3.818069468e-14,2.850188957e-14,3.841101235e-14,9.774366724e-14,5.113312812e-15,6.900605704e-14,1.824156993e-13,5.562786601e-14,1.189872378e-13,5.107791449e-14,1.613627684e-13,9.374075285e-14,4.90035664e-14,4.666826626e-14,3.4312523e-13,1.976452032e-14,6.441647273e-14,3.037648672e-14,2.981579374e-14,4.29163128e-14,1.39295878e-14,2.631650054e-13,2.003641642e-13,2.710141387e-14,2.561652831e-13,7.340978666e-14,1.407584559e-13,1.312408674e-14
0.765625,6.465344007e-14,4.050641561e-14,4.967243175e-14,5.238546117e-14,3.969000734e-14,3.050244315e-14,3.477317812e-14,8.361062776e-14,5.46822485e-15,6.837701113e-14,1.717448804e-13,5.21817248e-14,1.160091959e-13,4.956842619e-14,1.492055879e-13,8.565901202e-14,4.776915553e-14,4.525279656e-14,2.984487813e-13,2.230518197e-14,7.009845902e-14,2.901387317e-14,3.072790945e-14,3.879546357e-14,1.07378276e-14,2.446517585e-13,1.82930562e-13,2.54054438e-14,2.363928497e-13,6.909293957e-14,1.337705824e-13,1.234343081e-14
0.7734375,6.710796764e-14,4.079355419e-14,4.722271909e-14,5.151411154e-14,4.096049852e-14,3.176405096e-14,3.057031985e-14,7.220744929e-14,5.709190037e-15,6.713944852e-14,1.630113792e-13,4.998667807e-14,1.162960458e-13,4.789308197e-14,1.383834772e-13,7.781433057e-14,4.681900726e-14,4.360666456e-14,2.556419015e-13,2.493043491e-14,7.381450572e-14,2.762654393e-14,3.227148546e-14,3.57053018e-14,8.623974304e-15,2.288656132e-13,1.693240303e-13,2.414360525e-14,2.21043884e-13,6.472700987e-14,1.239725068e-13,1.13194359e-14
0.78125,6.877816144e-14,4.102306962e-14,4.479416257e-14,5.035452249e-14,4.213599411e-14,3.187686363e-14,2.74447134e-14,6.332742496e-14,5.733421663e-15,6.532574445e-14,1.538512162e-13,4.830939319e-14,1.137908109e-13,4.634253701e-14,1.301622325e-13,7.20893396e-14,4.632460961e-14,4.262279281e-14,2.18987161e-13,2.706539512e-14,7.477093275e-14,2.606559721e-14,3.216993531e-14,3.233454582e-14,7.106844832e-15,2.136920873e-13,1.556420734e-13,2.338778272e-14,2.041224255e-13,6.141068585e-14,1.167015708e-13,1.011046138e-14
0.7890625,7.000765278e-14,4.201738573e-14,4.353820097e-14,4.996532541e-14,4.356549484e-14,3.104456002e-14,2.463527219e-14,5.865421878e-14,5.574479938e-15,6.276843714e-14,1.47351505e-13,4.753839471e-14,1.12196497e-13,4.487085746e-14,1.225885337e-13,6.807749643e-14,4.641960729e-14,4.190664438e-14,1.888998649e-13,2.928599624e-14,7.376291507e-14,2.457446188e-14,3.152673848e-14,2.967504034e-14,6.869811011e-15,2.007147064e-13,1.449673949e-13,2.312346382e-14,1.900659288e-13,5.841012543e-14,1.09336812e-13,8.745142589e-15
0.796875,7.077323656e-14,4.316476253e-14,4.40624609e-14,5.005256248e-14,4.525454903e-14,2.981072197e-14,2.241284578e-14,5.743671131e-14,5.781454987e-15,5.977025101e-14,1.428908298e-13,4.682334294e-14,1.111292493e-13,4.450573317e-14,1.155953585e-13,6.528035902e-14,4.71942958e-14,4.178582391e-14,1.660950164e-13,3.167677585e-14,7.188164592e-14,2.326530071e-14,3.063569946e-14,2.700177778e-14,7.445357819e-15,1.892305487e-13,1.367203676e-13,2.323714835e-14,1.786895404e-13,5.589182611e-14,1.032143343e-13,8.202718598e-15
0.8046875,7.097075825e-14,4.480066988e-14,4.597598179e-14,5.103343522e-14,4.750096543e-14,2.849631363e-14,2.054119394e-14,5.936458203e-14,5.711855907e-15,5.6496778e-14,1.393673383e-13,4.666913657e-14,1.108083448e-13,4.36484891e-14,1.104961252e-13,6.507349621e-14,4.762441529e-14,4.138372541e-14,1.526828079e-13,3.453902013e-14,7.036113449e-14,2.191063849e-14,2.963087738e-14,2.482187729e-14,8.661604987e-15,1.791944301e-13,1.304290797e-13,2.359500617e-14,1.688397782e-13,5.325493266e-14,9.651344071e-14,7.240478481e-15
0.8125,7.141195901e-14,4.698596382e-14,5.072290354e-14,5.313431765e-14,5.06543655e-14,2.744273468e-14,1.873414611e-14,6.465512578e-14,5.515284619e-15,5.325150925e-14,1.373205044e-13,4.68137543e-14,1.125425801e-13,4.309557184e-14,1.061021167e-13,6.724873704e-14,4.928518302e-14,4.112434102e-14,1.467170176e-13,3.836050992e-14,7.055917542e-14,2.074201322e-14,2.927519562e-14,2.31841977e-14,1.034140106e-14,1.707212386e-13,1.2629445e-13,2.419428926e-14,1.619132703e-13,5.034159026e-14,8.885540975e-14,6.48570769e-15
0.8203125,7.21155286e-14,4.835678778e-14,5.815054833e-14,5.464944371e-14,5.452753521e-14,2.660173125e-14,1.793442162e-14,7.205624447e-14,5.611823518e-15,5.044293e-14,1.343283434e-13,4.618673892e-14,1.110621712e-13,4.379833104e-14,1.028153953e-13,7.114253479e-14,5.232492647e-14,4.191795873e-14,1.487808649e-13,4.284537985e-14,7.23455977e-14,1.954753478e-14,2.807713736e-14,2.09821884e-14,1.147536616e-14,1.61421298e-13,1.202689722e-13,2.488446507e-14,1.528617106e-13,4.808719051e-14,8.463508968e-14,6.148088938e-15
0.828125,7.273933856e-14,4.954922247e-14,6.740654609e-14,5.621945185e-14,5.880231429e-14,2.591775166e-14,1.70015941e-14,8.167649252e-14,5.735956943e-15,4.800456008e-14,1.310807327e-13,4.554293549e-14,1.102797132e-13,4.482962676e-14,1.000997577e-13,7.57764741e-14,5.563468373e-14,4.26468139e-14,1.544849282e-13,4.777917735e-14,7.558494247e-14,1.839154848e-14,2.732903494e-14,1.970432559e-14,1.262093122e-14,1.524873064e-13,1.147176588e-13,2.541002668e-14,1.450096152e-13,4.574501467e-14,8.033033108e-14,5.789493195e-15
0.8359375,7.351426947e-14,5.061482654e-14,7.766760322e-14,5.794026146e-14,6.298404249e-14,2.550088542e-14,1.589229556e-14,9.154558741e-14,6.150094231e-15,4.614463951e-14,1.280262671e-13,4.458730261e-14,1.103695366e-13,4.684279382e-14,9.690763094e-14,8.017789851e-14,5.995406982e-14,4.351049692e-14,1.580023374e-13,5.289231896e-14,7.973279864e-14,1.740012524e-14,2.735812802e-14,1.828492832e-14,1.341497698e-14,1.438845511e-13,1.09493479e-13,2.591801239e-14,1.381007895e-13,4.344946037e-14,7.635102387e-14,5.962180492e-15
0.84375,7.413000042e-14,5.145306633e-14,8.716260902e-14,5.988000146e-14,6.692923246e-14,2.515575842e-14,1.50377234e-14,9.957004595e-14,6.263034927e-15,4.480419513e-14,1.23971181e-13,4.371078679e-14,1.087210247e-13,4.832693081e-14,9.638219937e-14,8.526649154e-14,6.432866551e-14,4.450189022e-14,1.576545124e-13,5.792643072e-14,8.383725281e-14,1.634025518e-14,2.684574761e-14,1.658382241e-14,1.342248782e-14,1.353899773e-13,1.032021837e-13,2.646956252e-14,1.294382378e-13,4.119045591e-14,7.308689707e-14,5.499717663e-15
0.8515625,7.463079399e-14,5.220171322e-14,9.59914925e-14,6.155779674e-14,7.057435561e-14,2.517113288e-14,1.391997137e-14,1.055450081e-13,6.324765455e-15,4.369243864e-14,1.197709031e-13,4.30130075e-14,1.069694728e-13,5.05023496e-14,9.586209054e-14,8.931418781e-14,6.948882881e-14,4.586687366e-14,1.506163357e-13,6.26601196e-14,8.738111652e-14,1.540338842e-14,2.625966612e-14,1.525346022e-14,1.323893493e-14,1.274207863e-13,9.704619688e-14,2.711945655e-14,1.213050912e-13,3.901920455e-14,7.029770551e-14,5.202698919e-15
0.859375,7.490863497e-14,5.248429525e-14,1.031026575e-13,6.247735732e-14,7.364462306e-14,2.576551956e-14,1.287959021e-14,1.07493901e-13,6.731620826e-15,4.282427768e-14,1.151559154e-13,4.218510218e-14,1.030281798e-13,5.41812695e-14,9.455429705e-14,9.091745687e-14,7.547042588e-14,4.812117483e-14,1.362433629e-13,6.674131795e-14,8.935628459e-14,1.459219214e-14,2.495795989e-14,1.364564556e-14,1.267565239e-14,1.191901988e-13,8.986184364e-14,2.806325737e-14,1.121600161e-13,3.743111883e-14,7.003681717e-14,5.342907804e-15
0.8671875,7.449229578e-14,5.317670012e-14,1.074855242e-13,6.433571128e-14,7.626720539e-14,2.720770215e-14,1.166656246e-14,1.052315282e-13,6.762761317e-15,4.184196629e-14,1.102746407e-13,4.216757434e-14,1.003274307e-13,5.722827749e-14,9.564140914e-14,9.229033445e-14,8.078237703e-14,4.998808929e-14,1.174226621e-13,7.025698336e-14,8.990850589e-14,1.383969792e-14,2.383998433e-14,1.24468966e-14,1.207251606e-14,1.118517879e-13,8.383364196e-14,2.912937596e-14,1.044405541e-13,3.542173263e-14,6.853404311e-14,4.988544248e-15
0.875,7.391343985e-14,5.408059126e-14,1.105249757e-13,6.658284272e-14,7.852903157e-14,2.950845923e-14,1.027909423e-14,1.004391529e-13,6.744730868e-15,4.062258907e-14,1.053762464e-13,4.236164972e-14,9.884993874e-14,6.045682724e-14,9.680063528e-14,9.304591099e-14,8.646522263e-14,5.138827874e-14,9.833721744e-14,7.333522261e-14,8.985565822e-14,1.319022526e-14,2.312712717e-14,1.131683998e-14,1.155117318e-14,1.047505154e-13,7.841654513e-14,3.012565504e-14,9.798722805e-14,3.308984603e-14,6.60776344e-14,4.686334946e-15
0.8828125,7.316902416e-14,5.472722077e-14,1.129995301e-13,6.881912134e-14,8.084316316e-14,3.210756788e-14,9.312697186e-15,9.45942597e-14,6.522900922e-15,3.953744313e-14,9.974367083e-14,4.261693133e-14,9.591750408e-14,6.346901722e-14,9.895137406e-14,9.304989146e-14,9.199658805e-14,5.287863462e-14,8.24980107e-14,7.624594006e-14,8.977054866e-14,1.26183476e-14,2.167406337e-14,1.043490979e-14,1.089990418e-14,9.741688705e-14,7.208066858e-14,3.102740264e-14,9.057977572e-14,3.079580894e-14,6.429779208e-14,4.196250591e-15
0.890625,7.190128488e-14,5.541081287e-14,1.163975877e-13,7.131749737e-14,8.356407109e-14,3.5006811e-14,8.424933707e-15,9.043549468e-14,6.327304966e-15,3.875226476e-14,9.433380971e-14,4.297908061e-14,9.430630549e-14,6.673097722e-14,1.013148638e-13,9.322245042e-14,9.739267496e-14,5.414323108e-14,7.240971563e-14,7.969812252e-14,9.080798512e-14,1.211391017e-14,2.079950528e-14,1.015789496e-14,1.044260338e-14,9.057550021e-14,6.682951171e-14,3.175538131e-14,8.495295557e-14,2.831328701e-14,6.213013308e-14,3.887632276e-15
0.8984375,7.06002753e-14,5.577357582e-14,1.212745683e-13,7.349608834e-14,8.621752823e-14,3.739317912e-14,7.664752699e-15,8.968960064e-14,6.414928749e-15,3.817909107e-14,8.863682827e-14,4.290023438e-14,9.335737907e-14,7.036563297e-14,1.033242333e-13,9.385043723e-14,1.033682189e-13,5.500555825e-14,6.855663032e-14,8.310743037e-14,9.265410111e-14,1.165856484e-14,2.043896355e-14,1.023441877e-14,1.000995756e-14,8.351809059e-14,6.176668096e-14,3.210644299e-14,8.022138797e-14,2.602007269e-14,6.008828722e-14,3.807024831e-15
0.90625,6.937401467e-14,5.636420343e-14,1.27251028e-13,7.664734237e-14,8.882430644e-14,3.847740487e-14,7.300583157e-15,9.307700712e-14,6.097570056e-15,3.758021562e-14,8.231905427e-14,4.306498809e-14,9.405244686e-14,7.252015546e-14,1.080477129e-13,9.700151285e-14,1.09061115e-13,5.496783157e-14,7.001780153e-14,8.618108635e-14,9.490155515e-14,1.136205486e-14,2.049705247e-14,1.063429033e-14,9.507624555e-15,7.720375434e-14,5.739252098e-14,3.193733766e-14,7.639107798e-14,2.37895878e-14,5.635111756e-14,3.296955351e-15
0.9140625,6.803599622e-14,5.675193918e-14,1.353728197e-13,7.944639052e-14,9.134190446e-14,3.86676647e-14,7.008143046e-15,1.010301946e-13,5.966455628e-15,3.712313952e-14,7.62968972e-14,4.297884463e-14,9.538551042e-14,7.494932882e-14,1.122510351e-13,1.012969857e-13,1.149723846e-13,5.46523481e-14,7.483113043e-14,8.917142772e-14,9.786034172e-14,1.112172187e-14,2.099925517e-14,1.102692212e-14,9.11192346e-15,7.13720225e-14,5.341629274e-14,3.144192471e-14,7.314269003e-14,2.187977296e-14,5.270622198e-14,2.962560347e-15
0.921875,6.632325058e-14,5.628774005e-14,1.439179589e-13,8.074160541e-14,9.312457511e-14,3.832123978e-14,6.944751271e-15,1.112948755e-13,6.101067737e-15,3.692427996e-14,7.025495413e-14,4.244315313e-14,9.499430392e-14,7.814373411e-14,1.155617779e-13,1.050530846e-13,1.210036536e-13,5.467510273e-14,7.902967913e-14,9.091328983e-14,1.000573e-13,1.08994e-14,2.096356699e-14,1.149196954e-14,8.68077512e-15,6.547676603e-14,4.863996424e-14,3.078384949e-14,6.878876291e-14,2.067426301e-14,5.110998962e-14,2.915214869e-15
0.9296875,6.407381538e-14,5.59604647e-14,1.504025207e-13,8.21116192e-14,9.395022089e-14,3.806983267e-14,6.967687278e-15,1.204116293e-13,6.323903912e-15,3.63882496e-14,6.499432324e-14,4.236600013e-14,9.531128145e-14,8.123685574e-14,1.195591218e-13,1.096298234e-13,1.266273089e-13,5.42853447e-14,8.117137192e-14,9.141398538e-14,1.003840261e-13,1.083012173e-14,2.134577537e-14,1.165485428e-14,8.401774096e-15,6.071476228e-14,4.513029732e-14,3.000679568e-14,6.583316678e-14,2.010750987e-14,4.932399492e-14,2.853197892e-15
0.9375,6.16414313e-14,5.560639229e-14,1.543938849e-13,8.283209579e-14,9.353283836e-14,3.853254744e-14,6.863401632e-15,1.261450718e-13,6.737785714e-15,3.525922342e-14,6.043422811e-14,4.252170844e-14,9.541674757e-14,8.458173296e-14,1.225630544e-13,1.132865905e-13,1.319406673e-13,5.390202227e-14,8.091136177e-14,9.084642766e-14,9.86739454e-14,1.087516893e-14,2.157431714e-14,1.215839646e-14,8.610647724e-15,5.654110739e-14,4.223554307e-14,2.930263045e-14,6.357149181e-14,2.00560676e-14,4.814310744e-14,2.912298901e-15
0.9453125,5.879393289e-14,5.521135073e-14,1.547264988e-13,8.324069032e-14,9.207229955e-14,4.025053054e-14,6.888772075e-15,1.268151563e-13,6.910803468e-15,3.368704647e-14,5.627157466e-14,4.3105232e-14,9.464360118e-14,8.755362254e-14,1.256364873e-13,1.147777757e-13,1.363854592e-13,5.355136475e-14,7.848869398e-14,8.924833487e-14,9.490225557e-14,1.106373849e-14,2.094547766e-14,1.338323369e-14,9.223810106e-15,5.297850579e-14,3.936675242e-14,2.874454959e-14,6.065246581e-14,2.013416135e-14,4.754181925e-14,2.854374483e-15
0.953125,5.561056653e-14,5.465063515e-14,1.521126721e-13,8.291477711e-14,9.017232962e-14,4.351604377e-14,6.662850524e-15,1.222365309e-13,7.354320222e-15,3.167133641e-14,5.262868101e-14,4.399056972e-14,9.320792509e-14,9.111916232e-14,1.275254525e-13,1.140879938e-13,1.402785396e-13,5.312694146e-14,7.578666793e-14,8.752680115e-14,8.97945987e-14,1.128601724e-14,2.007592078e-14,1.458526145e-14,1.028622973e-14,5.003584189e-14,3.717970775e-14,2.823226367e-14,5.847643252e-14,2.049155556e-14,4.77595739e-14,2.857299211e-15
0.9609375,5.26042001e-14,5.351073158e-14,1.473929619e-13,8.127130033e-14,8.763196459e-14,4.765808638e-14,6.218318407e-15,1.136252895e-13,7.990545781e-15,2.935187809e-14,4.85232978e-14,4.464506699e-14,9.064695956e-14,9.48945679e-14,1.274487913e-13,1.104877438e-13,1.433550715e-13,5.27793948e-14,7.36174331e-14,8.538090457e-14,8.3871917e-14,1.151444058e-14,1.860935975e-14,1.62957991e-14,1.153723184e-14,4.696322344e-14,3.498195469e-14,2.755828127e-14,5.65394088e-14,2.089048176e-14,4.898585373e-14,3.076699781e-15
0.96875,4.961295746e-14,5.265191285e-14,1.408716557e-13,8.046300598e-14,8.475446813e-14,5.173279145e-14,5.930315916e-15,1.034867816e-13,8.198640154e-15,2.695296219e-14,4.438354652e-14,4.529088697e-14,8.92145074e-14,9.674337283e-14,1.280904388e-13,1.063003345e-13,1.448840599e-13,5.137177122e-14,7.405952406e-14,8.343644726e-14,7.848762307e-14,1.187971076e-14,1.742848389e-14,1.857374987e-14,1.261637936e-14,4.405702624e-14,3.342362071e-14,2.646924663e-14,5.542748972e-14,2.072050469e-14,4.833812529e-14,3.004545331e-15
0.9765625,4.711510295e-14,5.145984177e-14,1.357867669e-13,7.918361405e-14,8.219692565e-14,5.481117329e-14,5.562491643e-15,9.565857235e-14,8.360011421e-15,2.477061717e-14,4.007004935e-14,4.532432605e-14,8.866273124e-14,9.769731873e-14,1.283501257e-13,1.022553389e-13,1.458828073e-13,4.95650506e-14,7.643674466e-14,8.238347593e-14,7.473961402e-14,1.21882655e-14,1.621813089e-14,2.140223765e-14,1.352416818e-14,4.083246761e-14,3.18463605e-14,2.501181205e-14,5.44578783e-14,2.010076959e-14,4.69528486e-14,2.897538362e-15
0.984375,4.531145918e-14,4.972586452e-14,1.32616972e-13,7.720242411e-14,7.992527458e-14,5.600199824e-14,5.316505422e-15,9.142432143e-14,8.413810793e-15,2.304997943e-14,3.545322337e-14,4.453332071e-14,8.820971848e-14,9.776685659e-14,1.279230392e-13,9.810931108e-14,1.462208816e-13,4.76465197e-14,7.836807398e-14,8.156504772e-14,7.235644439e-14,1.239151697e-14,1.467580756e-14,2.422271592e-14,1.377163365e-14,3.723366773e-14,2.951318203e-14,2.331128039e-14,5.242766343e-14,1.902586118e-14,4.539830679e-14,2.791940097e-15
0.9921875,4.387129243e-14,4.797154983e-14,1.309957369e-13,7.553696979e-14,7.791267191e-14,5.517538608e-14,5.368583332e-15,9.139670952e-14,8.418152975e-15,2.178363111e-14,3.1142824e-14,4.310790669e-14,8.849846759e-14,9.654827664e-14,1.279585274e-13,9.627877171e-14,1.457059098e-13,4.499938401e-14,8.074452839e-14,8.068911157e-14,7.151030294e-14,1.252584666e-14,1.410229078e-14,2.600137367e-14,1.326947936e-14,3.354577529e-14,2.725505348e-14,2.134839977e-14,5.092344002e-14,1.779257124e-14,4.274519903e-14,2.596014723e-15
1,4.290785735e-14,4.583729815e-14,1.315447873e-13,7.32681663e-14,7.593400539e-14,5.272693172e-14,5.567316068e-15,9.550261874e-14,8.457978852e-15,2.090465545e-14,2.709225128e-14,4.090173454e-14,8.924765216e-14,9.451124278e-14,1.272693562e-13,9.620392343e-14,1.444373891e-13,4.236881216e-14,8.276476459e-14,7.960489065e-14,7.183790539e-14,1.256053172e-14,1.403815511e-14,2.749120998e-14,1.249283724e-14,2.964113776e-14,2.457100365e-14,1.929890536e-14,4.900126368e-14,1.664526136e-14,3.976741845e-14,2.549161764e-15
1.0078125,4.231344423e-14,4.406334297e-14,1.32217685e-13,7.15936177e-14,7.364689459e-14,4.92485356e-14,6.098647443e-15,1.008137737e-13,8.102416369e-15,2.027469814e-14,2.389161417e-14,3.860490401e-14,9.099521845e-14,9.076659066e-14,1.266370748e-13,9.735667723e-14,1.416748978e-13,3.956657197e-14,8.458465746e-14,7.85171357e-14,7.272402597e-14,1.263125535e-14,1.462765888e-14,2.897824702e-14,1.172741465e-14,2.616575513e-14,2.170756832e-14,1.745253757e-14,4.64176404e-14,1.553740794e-14,3.561329904e-14,2.322226043e-15
1.015625,4.226999331e-14,4.226421727e-14,1.32766837e-13,6.940267743e-14,7.081196608e-14,4.612659233e-14,6.643442225e-15,1.057346651e-13,8.013433154e-15,1.974831463e-14,2.132389716e-14,3.625204129e-14,9.236275634e-14,8.723855471e-14,1.252315384e-13,9.96263169e-14,1.388909125e-13,3.704263014e-14,8.8195056e-14,7.698875517e-14,7.381920559e-14,1.259213203e-14,1.571024905e-14,3.010450495e-14,1.150631937e-14,2.299360162e-14,1.89186742e-14,1.587336412e-14,4.382522707e-14,1.503284481e-14,3.223397682e-14,2.157876389e-15
1.0234375,4.262291342e-14,4.029517492e-14,1.321795419e-13,6.636305276e-14,6.723023324e-14,4.43889425e-14,7.058421302e-15,1.079591984e-13,8.170186788e-15,1.922361481e-14,1.932265877e-14,3.398457086e-14,9.209391332e-14,8.415374448e-14,1.219248576e-13,1.012397127e-13,1.354071344e-13,3.489015548e-14,9.544646276e-14,7.530206257e-14,7.494330876e-14,1.246406674e-14,1.693259401e-14,3.117120489e-14,1.206593561e-14,2.016837053e-14,1.606574107e-14,1.452523242e-14,4.063623985e-14,1.508245256e-14,3.000866102e-14,2.11206006e-15
1.03125,4.342097841e-14,3.900315654e-14,1.293650414e-13,6.411277138e-14,6.312681352e-14,4.441538909e-14,7.637009643e-15,1.058572612e-13,8.143897503e-15,1.853654572e-14,1.796424524e-14,3.2399287e-14,9.107260483e-14,8.027046463e-14,1.182842957e-13,1.0325904e-13,1.302716486e-13,3.257608171e-14,1.09373393e-13,7.44022071e-14,7.655888068e-14,1.248961746e-14,1.906310196e-14,3.258911328e-14,1.334001194e-14,1.817740337e-14,1.399311815e-14,1.340289515e-14,3.837128962e-14,1.559180032e-14,2.740218575e-14,2.05480899e-15
1.0390625,4.522624095e-14,3.786151733e-14,1.259289983e-13,6.143745902e-14,5.871212972e-14,4.647150943e-14,7.877091533e-15,1.005281101e-13,8.418222713e-15,1.77057936e-14,1.659701392e-14,3.124311712e-14,8.939852473e-14,7.720235026e-14,1.136099116e-13,1.04845082e-13,1.254854799e-13,3.074671612e-14,1.294643724e-13,7.375742322e-14,7.851762407e-14,1.258428953e-14,2.10133632e-14,3.51442115e-14,1.547555233e-14,1.672848458e-14,1.242592327e-14,1.235641817e-14,3.638709502e-14,1.661665486e-14,2.583011294e-14,2.065022516e-15
1.046875,4.773157359e-14,3.702823154e-14,1.214372625e-13,5.879529528e-14,5.413635347e-14,4.954666799e-14,7.831399974e-15,9.232525687e-14,8.63794665e-15,1.692443008e-14,1.526859544e-14,3.056805934e-14,8.757576892e-14,7.409868963e-14,1.081730247e-13,1.046865007e-13,1.201249129e-13,2.911692611e-14,1.530542032e-13,7.365607032e-14,8.078009233e-14,1.278065064e-14,2.234272047e-14,3.88558188e-14,1.795287066e-14,1.584466015e-14,1.135487097e-14,1.133292332e-14,3.444196393e-14,1.77011555e-14,2.466107542e-14,1.962463147e-15
1.0546875,5.107992537e-14,3.631135926e-14,1.16342273e-13,5.613547456e-14,4.968638861e-14,5.24655949e-14,7.760137012e-15,8.289605538e-14,9.051764214e-15,1.619168118e-14,1.404260106e-14,2.99390078e-14,8.472391501e-14,7.091824548e-14,1.016862477e-13,1.041982505e-13,1.141310445e-13,2.762895567e-14,1.76974116e-13,7.442131258e-14,8.309236057e-14,1.301162256e-14,2.327701076e-14,4.201291881e-14,1.982289019e-14,1.524493152e-14,1.086565472e-14,1.041251042e-14,3.379437369e-14,1.907003015e-14,2.411025155e-14,2.019829378e-15
1.0625,5.516411625e-14,3.555346993e-14,1.111073046e-13,5.298574474e-14,4.548557079e-14,5.438346656e-14,7.47463776e-15,7.343725073e-14,9.573211739e-15,1.544656392e-14,1.32103204e-14,2.906679481e-14,8.141754652e-14,6.763794803e-14,9.396747425e-14,1.027523118e-13,1.077847921e-13,2.634443665e-14,1.955907734e-13,7.52430724e-14,8.43817517e-14,1.323188304e-14,2.339957157e-14,4.441722712e-14,2.081497022e-14,1.475499794e-14,1.047183761e-14,9.550800216e-15,3.324555521e-14,2.033242028e-14,2.383278255e-14,2.117904706e-15
1.0703125,5.93601864e-14,3.526766119e-14,1.051555522e-13,5.051492366e-14,4.16735395e-14,5.43197693e-14,7.252360127e-15,6.450880472e-14,9.683661792e-15,1.469943851e-14,1.283446631e-14,2.819884562e-14,7.935874704e-14,6.3193483e-14,8.715982881e-14,1.003216819e-13,1.00611934e-13,2.503091451e-14,2.045112338e-13,7.574803731e-14,8.435634591e-14,1.354472054e-14,2.30428442e-14,4.653329004e-14,2.067713891e-14,1.452156364e-14,1.039209535e-14,8.845460856e-15,3.313035505e-14,2.105539047e-14,2.246476765e-14,2.151372171e-15
1.078125,6.409067554e-14,3.48794025e-14,9.938986404e-14,4.773402937e-14,3.836097518e-14,5.217702571e-14,6.854882705e-15,5.700878592e-14,1.015284588e-14,1.399015994e-14,1.278347631e-14,2.683115386e-14,7.736260112e-14,5.9010152e-14,8.016986858e-14,9.71404256e-14,9.404194374e-14,2.425584314e-14,2.007337603e-13,7.564427083e-14,8.267284009e-14,1.375427989e-14,2.178833652e-14,4.727160034e-14,1.940384629e-14,1.408533869e-14,1.005003807e-14,8.417637067e-15,3.310295165e-14,2.178513056e-14,2.157491014e-14,2.193242177e-15
1.0859375,6.935725622e-14,3.470831398e-14,9.28730839e-14,4.485432769e-14,3.539638549e-14,4.830383172e-14,6.35312715e-15,4.993585359e-14,1.057986974e-14,1.344568106e-14,1.344511651e-14,2.520081211e-14,7.562469922e-14,5.435371237e-14,7.309150363e-14,9.280113023e-14,8.725996574e-14,2.383119318e-14,1.84261633e-13,7.474250046e-14,7.926601719e-14,1.394568806e-14,2.002469976e-14,4.661387573e-14,1.7449471e-14,1.357721306e-14,9.422085375e-15,8.286974889e-15,3.290940631e-14,2.231206306e-14,2.052376606e-14,2.203164098e-15
1.09375,7.46729873e-14,3.510762645e-14,8.532297902e-14,4.276615456e-14,3.256860298e-14,4.359667684e-14,6.096848998e-15,4.33773372e-14,1.080101701e-14,1.307679477e-14,1.471842663e-14,2.356249764e-14,7.347820101e-14,4.929275053e-14,6.656713812e-14,8.869745282e-14,8.061096051e-14,2.339793101e-14,1.605663351e-13,7.312247086e-14,7.518863152e-14,1.420396467e-14,1.888551675e-14,4.474318723e-14,1.502475053e-14,1.309731929e-14,8.910632405e-15,8.428891442e-15,3.360035012e-14,2.261263799e-14,1.895727701e-14,2.442686839e-15
1.1015625,8.014200337e-14,3.554507405e-14,7.827142975e-14,4.073797141e-14,2.98774562e-14,3.931872967e-14,5.707459762e-15,3.784286066e-14,1.108941162e-14,1.295565579e-14,1.614054224e-14,2.184141325e-14,7.113370045e-14,4.466987022e-14,6.006403588e-14,8.533127215e-14,7.475355652e-14,2.319194769e-14,1.355934793e-13,7.097926776e-14,7.146848591e-14,1.436011347e-14,1.82410215e-14,4.253955259e-14,1.301147618e-14,1.250087549e-14,8.235100712e-15,8.665121057e-15,3.397931768e-14,2.267285882e-14,1.747831361e-14,2.594034476e-15
1.109375,8.588841063e-14,3.601967176e-14,7.198162629e-14,3.905820683e-14,2.742207777e-14,3.620589279e-14,5.348341943e-15,3.307713983e-14,1.11315203e-14,1.325802565e-14,1.751580921e-14,2.033500156e-14,6.917104248e-14,3.983271101e-14,5.450570667e-14,8.282592599e-14,6.884971365e-14,2.303169486e-14,1.157375622e-13,6.87724295e-14,6.941281824e-14,1.445993458e-14,1.845874792e-14,4.077578365e-14,1.188430011e-14,1.194056039e-14,7.630690659e-15,8.862886723e-15,3.440362257e-14,2.227901209e-14,1.551474435e-14,2.672650443e-15
1.1171875,9.19795142e-14,3.635653525e-14,6.728840076e-14,3.763359442e-14,2.51953891e-14,3.463867944e-14,5.212066802e-15,2.976950731e-14,1.145928669e-14,1.389744975e-14,1.868758481e-14,1.888014949e-14,6.568114544e-14,3.579949162e-14,4.909878692e-14,8.278975356e-14,6.394567415e-14,2.272092069e-14,1.075530168e-13,6.697875987e-14,7.017831976e-14,1.445446131e-14,1.959474252e-14,3.889629525e-14,1.14339689e-14,1.120888735e-14,6.969726624e-15,8.920485918e-15,3.539350497e-14,2.186876231e-14,1.411387565e-14,2.945033111e-15
1.125,9.839783725e-14,3.66527801e-14,6.509559799e-14,3.638104371e-14,2.327121061e-14,3.458070556e-14,5.24631468e-15,2.823560523e-14,1.172540482e-14,1.490134072e-14,1.966264692e-14,1.761747336e-14,6.191705299e-14,3.212639755e-14,4.383466815e-14,8.538581788e-14,5.94900015e-14,2.23838567e-14,1.132713867e-13,6.603324012e-14,7.41336643e-14,1.437872991e-14,2.137571938e-14,3.798354565e-14,1.180804832e-14,1.053144114e-14,6.414562202e-15,8.83825824e-15,3.626376511e-14,2.132700491e-14,1.283146546e-14,3.212365397e-15
1.1328125,1.047282199e-13,3.701303825e-14,6.502263992e-14,3.5635294e-14,2.170520566e-14,3.558098345e-14,5.605836801e-15,2.845658337e-14,1.168958759e-14,1.632694531e-14,2.07360556e-14,1.652714523e-14,5.790781216e-14,2.845353954e-14,3.8955893e-14,8.963417801e-14,5.497319986e-14,2.179896752e-14,1.32501359e-13,6.582669279e-14,8.108433374e-14,1.428810638e-14,2.400817176e-14,3.804160506e-14,1.256833218e-14,1.00809861e-14,6.113227933e-15,8.6558615e-15,3.725357031e-14,2.070746594e-14,1.127261822e-14,3.580046623e-15
1.140625,1.107025542e-13,3.694335361e-14,6.689596509e-14,3.462261516e-14,2.045514399e-14,3.659978695e-14,6.101726522e-15,3.019052968e-14,1.197094061e-14,1.783855217e-14,2.162846294e-14,1.530552582e-14,5.354664485e-14,2.537680051e-14,3.404169546e-14,9.527870044e-14,5.113322001e-14,2.10874806e-14,1.603859082e-13,6.566043398e-14,8.949585653e-14,1.405616135e-14,2.626988654e-14,3.847116028e-14,1.340043545e-14,9.679016503e-15,5.642588387e-15,8.380078622e-15,3.761867589e-14,2.055061964e-14,1.044134902e-14,3.793347995e-15
1.1484375,1.160995924e-13,3.687733918e-14,6.996370159e-14,3.362206932e-14,1.963147736e-14,3.679771184e-14,6.696152452e-15,3.235273656e-14,1.23383073e-14,1.918048204e-14,2.256978982e-14,1.417859541e-14,4.963845518e-14,2.255543134e-14,2.975449966e-14,1.011011046e-13,4.772965755e-14,2.053166903e-14,1.888480606e-13,6.560855532e-14,9.765875924e-14,1.383843722e-14,2.760967759e-14,3.949597002e-14,1.396255662e-14,9.596506375e-15,5.285425305e-15,8.262101831e-15,3.754156288e-14,2.088497181e-14,9.925423711e-15,3.945353684e-15
1.15625,1.204995807e-13,3.719325488e-14,7.267930621e-14,3.311563515e-14,1.914094706e-14,3.585547054e-14,7.472090197e-15,3.399897888e-14,1.272817676e-14,2.026021718e-14,2.415596601e-14,1.318025683e-14,4.507188226e-14,2.025198731e-14,2.591455271e-14,1.059406434e-13,4.486543293e-14,1.989475194e-14,2.123199805e-13,6.572788183e-14,1.043001174e-13,1.373176065e-14,2.833361761e-14,4.013485409e-14,1.39740146e-14,9.900486759e-15,5.225533224e-15,8.44500531e-15,3.78338318e-14,2.183506647e-14,9.82268657e-15,4.388217307e-15
1.1640625,1.237468334e-13,3.753149504e-14,7.419436938e-14,3.230425417e-14,1.8690837e-14,3.357206035e-14,8.041332906e-15,3.452188169e-14,1.317408962e-14,2.093031285e-14,2.610935209e-14,1.234488551e-14,4.105922578e-14,1.814916357e-14,2.265395839e-14,1.091210795e-13,4.239382244e-14,1.949099934e-14,2.249464745e-13,6.517767521e-14,1.076597e-13,1.366496494e-14,2.784082662e-14,4.050641678e-14,1.3901981e-14,1.062503961e-14,5.433771138e-15,8.868351646e-15,3.774911957e-14,2.336834611e-14,9.936380504e-15,4.60243049e-15
1.171875,1.257720454e-13,3.81637208e-14,7.367269957e-14,3.148276367e-14,1.825066805e-14,3.043154569e-14,8.280834278e-15,3.332525803e-14,1.351798069e-14,2.113013404e-14,2.856126715e-14,1.183835467e-14,3.742031657e-14,1.620677716e-14,1.990905214e-14,1.098771078e-13,4.015035378e-14,1.935420586e-14,2.23760096e-13,6.377366096e-14,1.070756059e-13,1.371638723e-14,2.651171503e-14,4.044271375e-14,1.369980871e-14,1.178346007e-14,6.050923519e-15,9.488448826e-15,3.776898126e-14,2.511270572e-14,1.001159359e-14,4.718025841e-15
1.1796875,1.265606457e-13,3.889801115e-14,7.089014065e-14,3.096278581e-14,1.774761532e-14,2.692073104e-14,8.327916654e-15,3.056119497e-14,1.402815247e-14,2.091462712e-14,3.144848434e-14,1.162558939e-14,3.380347968e-14,1.481473499e-14,1.758559795e-14,1.090313914e-13,3.844569439e-14,1.927791279e-14,2.10941993e-13,6.146785844e-14,1.028352837e-13,1.379725124e-14,2.451630183e-14,3.930211972e-14,1.337702447e-14,1.306655115e-14,6.999842121e-15,1.021135681e-14,3.865782416e-14,2.706663846e-14,1.066757433e-14,4.924565236e-15
1.1875,1.260158859e-13,3.958476423e-14,6.646571215e-14,3.036575339e-14,1.702497004e-14,2.363788924e-14,8.033123721e-15,2.695042581e-14,1.445077204e-14,2.052839481e-14,3.504164201e-14,1.175094483e-14,3.084719614e-14,1.366564931e-14,1.596833516e-14,1.07416688e-13,3.688618903e-14,1.938920642e-14,1.898984415e-13,5.820548545e-14,9.559250071e-14,1.387647612e-14,2.213787627e-14,3.807047529e-14,1.336376339e-14,1.454490474e-14,8.369901257e-15,1.091467351e-14,4.011999212e-14,2.885839594e-14,1.131687968e-14,5.085979013e-15
1.1953125,1.245208343e-13,4.049767608e-14,6.074934853e-14,3.008030939e-14,1.613879842e-14,2.133432315e-14,7.546055092e-15,2.321352051e-14,1.446347545e-14,2.017141091e-14,3.946573739e-14,1.221663755e-14,2.790450121e-14,1.26658435e-14,1.472843787e-14,1.056764404e-13,3.52701079e-14,1.939753263e-14,1.665179138e-13,5.458747986e-14,8.709550359e-14,1.400781149e-14,2.033441166e-14,3.670049029e-14,1.37049655e-14,1.615677367e-14,1.021139012e-14,1.139754485e-14,4.258557308e-14,2.998853869e-14,1.163659122e-14,5.430938283e-15
1.203125,1.227519925e-13,4.103001676e-14,5.490950296e-14,2.976595297e-14,1.512726813e-14,2.01104875e-14,6.980347792e-15,2.023770562e-14,1.448073734e-14,1.986698074e-14,4.367245084e-14,1.26578466e-14,2.549399471e-14,1.184118845e-14,1.405228123e-14,1.05038378e-13,3.428271263e-14,1.9441626e-14,1.455693426e-13,5.057693293e-14,7.858623826e-14,1.401927051e-14,1.876130869e-14,3.503382758e-14,1.410969225e-14,1.735818098e-14,1.188775921e-14,1.15545797e-14,4.518334563e-14,3.056711888e-14,1.204885078e-14,5.530272176e-15
1.2109375,1.20554111e-13,4.129989936e-14,4.979659585e-14,2.940036502e-14,1.402886778e-14,1.993262029e-14,6.362267801e-15,1.85093587e-14,1.43334028e-14,1.984953434e-14,4.796790601e-14,1.293398451e-14,2.329758519e-14,1.106086402e-14,1.361128358e-14,1.056496955e-13,3.349006409e-14,1.937118717e-14,1.299399827e-13,4.63399264e-14,7.12903545e-14,1.393813947e-14,1.767383121e-14,3.379568278e-14,1.445069944e-14,1.813562427e-14,1.335905449e-14,1.144059226e-14,4.771269783e-14,3.036038418e-14,1.229132027e-14,5.614848365e-15
1.21875,1.181015076e-13,4.139523692e-14,4.566472622e-14,2.943303853e-14,1.304055286e-14,2.037608261e-14,5.920079452e-15,1.805298575e-14,1.395700619e-14,2.027570161e-14,5.228143935e-14,1.303355997e-14,2.116941739e-14,1.027561164e-14,1.302868974e-14,1.067655849e-13,3.253674476e-14,1.893081496e-14,1.223043411e-13,4.260020902e-14,6.659312252e-14,1.374534902e-14,1.732794768e-14,3.287484773e-14,1.468886436e-14,1.849175269e-14,1.474192725e-14,1.112057898e-14,5.085138073e-14,2.947998662e-14,1.236689976e-14,6.008280187e-15
1.2265625,1.15623357e-13,4.094764627e-14,4.286096107e-14,2.906739182e-14,1.225844387e-14,2.093323013e-14,5.506668734e-15,1.854475981e-14,1.350221915e-14,2.107544054e-14,5.594076947e-14,1.272399224e-14,1.934740964e-14,9.605644033e-15,1.275468703e-14,1.080489596e-13,3.197127279e-14,1.845658374e-14,1.208152788e-13,3.931501265e-14,6.419380233e-14,1.333372946e-14,1.714730819e-14,3.237301073e-14,1.467963214e-14,1.8318454e-14,1.551093091e-14,1.065090132e-14,5.281555501e-14,2.823341363e-14,1.239373258e-14,6.181380756e-15
1.234375,1.128900953e-13,4.037502333e-14,4.065731657e-14,2.864911907e-14,1.169841003e-14,2.130324227e-14,5.207450531e-15,1.930253708e-14,1.27660195e-14,2.236099469e-14,5.933683665e-14,1.220734967e-14,1.760897566e-14,8.872060931e-15,1.272122183e-14,1.091700272e-13,3.144479987e-14,1.775168176e-14,1.224091835e-13,3.645209201e-14,6.370866389e-14,1.28364887e-14,1.733972335e-14,3.201659086e-14,1.447680171e-14,1.795137039e-14,1.603151561e-14,1.012054158e-14,5.384352844e-14,2.666776163e-14,1.213618436e-14,6.325895159e-15
1.2421875,1.098451745e-13,3.950359026e-14,3.889668641e-14,2.847128565e-14,1.142758209e-14,2.104418761e-14,5.136398282e-15,1.9890225e-14,1.220555945e-14,2.408903981e-14,6.210198427e-14,1.153703438e-14,1.627221613e-14,8.25232002e-15,1.278973998e-14,1.089742319e-13,3.109699494e-14,1.706421624e-14,1.25076391e-13,3.4146819e-14,6.476412064e-14,1.222230631e-14,1.75987864e-14,3.164499709e-14,1.405766256e-14,1.742986687e-14,1.630976695e-14,9.692692565e-15,5.439590202e-14,2.545141607e-14,1.211123635e-14,6.382777557e-15
1.25,1.062546217e-13,3.849729083e-14,3.754819471e-14,2.813745236e-14,1.138055229e-14,2.006471243e-14,5.030746891e-15,1.98294788e-14,1.160155661e-14,2.600299668e-14,6.458972698e-14,1.079518554e-14,1.517340134e-14,7.849746307e-15,1.29790974e-14,1.073266101e-13,3.080524488e-14,1.642899046e-14,1.256163847e-13,3.225100726e-14,6.611600413e-14,1.154597064e-14,1.773615084e-14,3.165497876e-14,1.364296631e-14,1.703291172e-14,1.644635669e-14,9.380397228e-15,5.411319901e-14,2.451473572e-14,1.224341858e-14,6.380131325e-15
1.2578125,1.022129526e-13,3.763703509e-14,3.602711454e-14,2.80163912e-14,1.147449704e-14,1.844793825e-14,4.99380417e-15,1.869311316e-14,1.080738925e-14,2.797450674e-14,6.702238604e-14,1.025201753e-14,1.432991413e-14,7.427524059e-15,1.319173076e-14,1.048128374e-13,3.023749104e-14,1.555001706e-14,1.225314973e-13,3.050462002e-14,6.695411105e-14,1.090476005e-14,1.807619855e-14,3.147369188e-14,1.331663772e-14,1.689787462e-14,1.677794269e-14,9.166959653e-15,5.384865489e-14,2.377189498e-14,1.224988221e-14,6.576311831e-15
1.265625,9.760893794e-14,3.662972925e-14,3.454436917e-14,2.765510382e-14,1.170833406e-14,1.657212646e-14,5.049047248e-15,1.676736764e-14,1.022003709e-14,2.996098191e-14,6.8721759e-14,9.77064105e-15,1.352437096e-14,7.260364277e-15,1.363856128e-14,1.016829366e-13,2.995380401e-14,1.48971688e-14,1.169497101e-13,2.856389773e-14,6.683262992e-14,1.023659278e-14,1.829085004e-14,3.149773423e-14,1.30642196e-14,1.68110174e-14,1.689508048e-14,9.099511126e-15,5.268045974e-14,2.357457107e-14,1.276349369e-14,6.496372043e-15
1.2734375,9.229073043e-14,3.593625025e-14,3.315682705e-14,2.742153011e-14,1.198584173e-14,1.483705203e-14,5.139005976e-15,1.479232811e-14,9.477760769e-15,3.189693162e-14,7.083487247e-14,9.520720684e-15,1.294910336e-14,7.102876191e-15,1.4258638e-14,9.891500443e-14,2.957152862e-14,1.432468208e-14,1.111385936e-13,2.643278731e-14,6.5530105e-14,9.675362773e-15,1.861857681e-14,3.204076474e-14,1.341387458e-14,1.711175795e-14,1.745947074e-14,9.096758141e-15,5.182455619e-14,2.364065864e-14,1.326069201e-14,6.365699674e-15
1.28125,8.663815103e-14,3.546201689e-14,3.219490418e-14,2.766774779e-14,1.232619885e-14,1.336989622e-14,5.362093612e-15,1.341916345e-14,8.768963416e-15,3.353041291e-14,7.366083885e-14,9.456882407e-15,1.275521432e-14,6.919625392e-15,1.475067455e-14,9.692904846e-14,2.898372295e-14,1.377441006e-14,1.070639619e-13,2.431109379e-14,6.287614702e-14,9.205998009e-15,1.921661216e-14,3.233887573e-14,1.444671097e-14,1.766320577e-14,1.850495068e-14,9.140926808e-15,5.224905169e-14,2.411192325e-14,1.366153051e-14,6.416023881e-15
1.2890625,8.070961827e-14,3.498251448e-14,3.201055643e-14,2.758118264e-14,1.284018072e-14,1.247041065e-14,5.584894087e-15,1.30602241e-14,8.059600998e-15,3.481866692e-14,7.664878529e-14,9.439592721e-15,1.246410159e-14,6.871374799e-15,1.532516853e-14,9.606820213e-14,2.843393386e-14,1.34047702e-14,1.061931425e-13,2.213751175e-14,5.901533799e-14,8.756390026e-15,1.96660425e-14,3.304319148e-14,1.61802102e-14,1.836343778e-14,1.971327151e-14,9.186536513e-15,5.269694846e-14,2.488181925e-14,1.442460032e-14,6.383505206e-15
1.296875,7.483003772e-14,3.478353006e-14,3.230731457e-14,2.758143129e-14,1.345557122e-14,1.215474392e-14,5.874776574e-15,1.401029472e-14,7.240463266e-15,3.595272063e-14,8.023829008e-14,9.621199113e-15,1.230657441e-14,6.771525386e-15,1.618203043e-14,9.707159444e-14,2.777220928e-14,1.307341272e-14,1.095339684e-13,1.985550547e-14,5.45751188e-14,8.409799217e-15,2.009467958e-14,3.43393999e-14,1.852959764e-14,1.933240141e-14,2.145865711e-14,9.224879363e-15,5.400539987e-14,2.587113246e-14,1.521336502e-14,6.415282077e-15
1.3046875,6.921908212e-14,3.465999661e-14,3.286479425e-14,2.779052766e-14,1.412197177e-14,1.229139496e-14,6.322622903e-15,1.619353006e-14,6.614410668e-15,3.686875772e-14,8.389638381e-14,9.892269719e-15,1.210573088e-14,6.771053439e-15,1.722423605e-14,9.930222314e-14,2.724685826e-14,1.298121391e-14,1.162429086e-13,1.757410926e-14,4.973032382e-14,8.101331098e-15,2.044256725e-14,3.526739331e-14,2.114935267e-14,2.040360357e-14,2.346724714e-14,9.353907435e-15,5.587764135e-14,2.725879057e-14,1.618184834e-14,6.330471774e-15
1.3125,6.387561636e-14,3.473713364e-14,3.323061492e-14,2.803028876e-14,1.476953478e-14,1.271344694e-14,6.660295788e-15,1.922654706e-14,5.922697906e-15,3.761085961e-14,8.754823928e-14,1.036656243e-14,1.218342179e-14,6.718757004e-15,1.813978885e-14,1.014252569e-13,2.679427266e-14,1.291667556e-14,1.244031903e-13,1.533737676e-14,4.472803888e-14,7.830427766e-15,2.05683638e-14,3.598237235e-14,2.410848878e-14,2.175109246e-14,2.607578137e-14,9.474836911e-15,5.841846324e-14,2.856334966e-14,1.711252249e-14,6.210421501e-15
1.3203125,5.909096218e-14,3.51439078e-14,3.29713461e-14,2.859251916e-14,1.525005306e-14,1.306066333e-14,6.861262983e-15,2.227866638e-14,5.273660499e-15,3.842766034e-14,9.137508116e-14,1.099171038e-14,1.259239858e-14,6.704558005e-15,1.897177165e-14,1.030035796e-13,2.646606117e-14,1.28158796e-14,1.310838003e-13,1.330102236e-14,3.991545927e-14,7.628432687e-15,2.048829739e-14,3.651115239e-14,2.684289929e-14,2.314512124e-14,2.909935993e-14,9.594354907e-15,6.173813144e-14,2.970349039e-14,1.804868251e-14,6.265397313e-15
1.328125,5.474291369e-14,3.559293798e-14,3.186472555e-14,2.90972541e-14,1.559571049e-14,1.31503848e-14,6.999006502e-15,2.439497955e-14,4.697202115e-15,3.952007551e-14,9.441072736e-14,1.155827171e-14,1.260874387e-14,6.854746291e-15,2.010773605e-14,1.041678414e-13,2.634273487e-14,1.292842563e-14,1.33793083e-13,1.160543222e-14,3.552083284e-14,7.38919152e-15,2.007288903e-14,3.626357752e-14,2.864164618e-14,2.41984296e-14,3.162589243e-14,9.815919124e-15,6.406055471e-14,3.058305271e-14,1.940535203e-14,6.076299026e-15
1.3359375,5.088765256e-14,3.619304275e-14,2.990893495e-14,2.975265432e-14,1.583439066e-14,1.298324866e-14,6.963315054e-15,2.550325661e-14,4.096193945e-15,4.098373956e-14,9.65358444e-14,1.214593551e-14,1.282687882e-14,6.97931513e-15,2.133918115e-14,1.040915029e-13,2.643712508e-14,1.302424269e-14,1.322153604e-13,1.015068766e-14,3.189104111e-14,7.123038103e-15,1.967773488e-14,3.54198237e-14,2.958240648e-14,2.500470629e-14,3.394593867e-14,1.011890222e-14,6.603867116e-14,3.096036842e-14,2.060703318e-14,5.81967998e-15
1.34375,4.754551788e-14,3.690253935e-14,2.732108822e-14,3.075496041e-14,1.588903162e-14,1.266318076e-14,6.799389081e-15,2.537056707e-14,3.622000665e-15,4.281395853e-14,9.777950255e-14,1.267172518e-14,1.33148767e-14,7.108048944e-15,2.249661838e-14,1.022571093e-13,2.674845608e-14,1.304714066e-14,1.267346588e-13,8.965890108e-15,2.926392847e-14,6.850566235e-15,1.952087084e-14,3.406466305e-14,2.966837604e-14,2.553129787e-14,3.599159386e-14,1.051049838e-14,6.786444189e-14,3.10018364e-14,2.141637582e-14,5.591692271e-15
1.3515625,4.434954061e-14,3.749698607e-14,2.453203638e-14,3.153823596e-14,1.583613528e-14,1.207871622e-14,6.500543225e-15,2.385281226e-14,3.146018814e-15,4.499888321e-14,9.787317849e-14,1.3018234e-14,1.372367925e-14,7.286245207e-15,2.361457689e-14,9.932418374e-14,2.687030325e-14,1.31278512e-14,1.182329103e-13,8.063661177e-15,2.788903007e-14,6.531213297e-15,1.941802244e-14,3.244140013e-14,2.896563246e-14,2.563168166e-14,3.720068877e-14,1.09597316e-14,6.861352914e-14,3.06364041e-14,2.240004357e-14,5.242795526e-15
1.359375,4.146516559e-14,3.83045784e-14,2.185536909e-14,3.253003167e-14,1.584701185e-14,1.130092012e-14,6.120397173e-15,2.147603214e-14,2.698462461e-15,4.736598973e-14,9.718824237e-14,1.313674333e-14,1.42073179e-14,7.611030037e-15,2.495618219e-14,9.589761218e-14,2.724032653e-14,1.319391782e-14,1.081916114e-13,7.50545308e-15,2.763081991e-14,6.238414089e-15,1.956678484e-14,3.103033632e-14,2.773728903e-14,2.532279595e-14,3.779013052e-14,1.149785106e-14,6.870481864e-14,2.99762124e-14,2.341188632e-14,5.01239486e-15
1.3671875,3.900240681e-14,3.934012766e-14,1.937293751e-14,3.383392734e-14,1.598602423e-14,1.080840164e-14,5.88378648e-15,1.847757188e-14,2.367625999e-15,4.970576849e-14,9.582394104e-14,1.300747389e-14,1.445279677e-14,7.947919288e-15,2.671458181e-14,9.26431886e-14,2.793714247e-14,1.337733069e-14,9.921219767e-14,7.245352782e-15,2.818771092e-14,5.977224549e-15,2.005972893e-14,2.976270945e-14,2.623426349e-14,2.465646647e-14,3.765013265e-14,1.21781443e-14,6.778658386e-14,2.950100096e-14,2.420921566e-14,4.659848422e-15
1.375,3.666981874e-14,4.056474346e-14,1.753351851e-14,3.517727992e-14,1.631812066e-14,1.061287429e-14,5.677612423e-15,1.551047893e-14,2.09679147e-15,5.180489316e-14,9.43380303e-14,1.281070071e-14,1.487508538e-14,8.267331816e-15,2.828466582e-14,8.990418866e-14,2.836244657e-14,1.369548013e-14,9.257399235e-14,7.159335094e-15,2.937381139e-14,5.74305962e-15,2.076613813e-14,2.881317258e-14,2.505509959e-14,2.390517977e-14,3.722744866e-14,1.29699935e-14,6.66920434e-14,2.915555149e-14,2.499036188e-14,4.337977863e-15
1.3828125,3.443782903e-14,4.2059169e-14,1.63260937e-14,3.686214907e-14,1.696438762e-14,1.056810707e-14,5.4917153e-15,1.294381733e-14,1.879596383e-15,5.332790264e-14,9.28459347e-14,1.263044404e-14,1.550812447e-14,8.713177788e-15,2.989366542e-14,8.818301383e-14,2.901875442e-14,1.393473622e-14,8.769365169e-14,7.325370363e-15,3.057870974e-14,5.566624689e-15,2.161739547e-14,2.818260305e-14,2.429144095e-14,2.318176758e-14,3.691791925e-14,1.386850672e-14,6.594049638e-14,2.878176081e-14,2.555955729e-14,4.178590004e-15
1.390625,3.235660866e-14,4.346853715e-14,1.561425441e-14,3.833803031e-14,1.789884342e-14,1.072883946e-14,5.489059189e-15,1.087082107e-14,1.723679004e-15,5.413067587e-14,9.084495753e-14,1.236058033e-14,1.563636995e-14,9.299956249e-15,3.209401829e-14,8.828397878e-14,3.015892196e-14,1.425990751e-14,8.536975245e-14,7.545826874e-15,3.116193444e-14,5.406857699e-15,2.220276896e-14,2.799538708e-14,2.37625417e-14,2.231490229e-14,3.606109147e-14,1.486655006e-14,6.451741735e-14,2.856540293e-14,2.641320482e-14,3.940060041e-15
1.3984375,3.038058571e-14,4.522166705e-14,1.554828801e-14,3.99732685e-14,1.90538422e-14,1.117059639e-14,5.52749508e-15,9.833748444e-15,1.612749534e-15,5.432031147e-14,8.935328563e-14,1.213572701e-14,1.585190878e-14,9.997169651e-15,3.47387951e-14,9.038216602e-14,3.152420496e-14,1.462519085e-14,8.544319807e-14,7.902648861e-15,3.108022242e-14,5.31246512e-15,2.262013576e-14,2.817296068e-14,2.362402296e-14,2.167288567e-14,3.558748453e-14,1.602503991e-14,6.350133173e-14,2.834327426e-14,2.736052667e-14,3.843396311e-15
1.40625,2.858864548e-14,4.739339919e-14,1.595055738e-14,4.213793348e-14,2.03423632e-14,1.180199946e-14,5.639163388e-15,9.74284477e-15,1.564922154e-15,5.38942852e-14,8.819860515e-14,1.202650264e-14,1.620799402e-14,1.068306918e-14,3.789871807e-14,9.429764126e-14,3.300030616e-14,1.500039357e-14,8.676083091e-14,8.400392775e-15,3.032177138e-14,5.27097169e-15,2.310903698e-14,2.802514146e-14,2.361429597e-14,2.127649584e-14,3.573676604e-14,1.73521484e-14,6.292439333e-14,2.80935102e-14,2.799529943e-14,3.714426781e-15
1.4140625,2.699174134e-14,4.945498018e-14,1.678057598e-14,4.391993968e-14,2.152016178e-14,1.232868584e-14,5.785660973e-15,1.052355852e-14,1.529157668e-15,5.284435792e-14,8.695328807e-14,1.195048212e-14,1.634140535e-14,1.159560006e-14,4.101889992e-14,9.914872385e-14,3.473976765e-14,1.552294355e-14,8.89882974e-14,8.84020601e-15,2.880778782e-14,5.24337178e-15,2.314856703e-14,2.778375188e-14,2.362206375e-14,2.097038415e-14,3.591888914e-14,1.878092996e-14,6.249113394e-14,2.771332064e-14,2.919311247e-14,3.634374983e-15
1.421875,2.55320036e-14,5.183332248e-14,1.773109175e-14,4.592584854e-14,2.254201359e-14,1.292700525e-14,5.887130377e-15,1.190844771e-14,1.485071909e-15,5.148315915e-14,8.638741617e-14,1.191200379e-14,1.659525449e-14,1.267807089e-14,4.446358985e-14,1.044225026e-13,3.690547812e-14,1.607225815e-14,9.230548e-14,9.488423118e-15,2.694395594e-14,5.265105466e-15,2.2978647e-14,2.773939269e-14,2.333652313e-14,2.087283466e-14,3.662153772e-14,2.043865301e-14,6.241123576e-14,2.705313345e-14,3.041525101e-14,3.659677194e-15
1.4296875,2.42390813e-14,5.451421259e-14,1.86369487e-14,4.83308475e-14,2.345908137e-14,1.380220758e-14,6.096488569e-15,1.343544168e-14,1.518566224e-15,5.000046153e-14,8.602491789e-14,1.179893216e-14,1.662085998e-14,1.381388737e-14,4.884584029e-14,1.102180108e-13,3.922455047e-14,1.683038612e-14,9.69766803e-14,1.021540866e-14,2.492355139e-14,5.322741397e-15,2.275421921e-14,2.762528841e-14,2.259204322e-14,2.073526698e-14,3.736975618e-14,2.237474642e-14,6.164602262e-14,2.646644962e-14,3.166876665e-14,3.561252417e-15
1.4375,2.313936382e-14,5.72726467e-14,1.961039737e-14,5.069502066e-14,2.40633468e-14,1.477077436e-14,6.222870411e-15,1.50785891e-14,1.583170369e-15,4.842372641e-14,8.612855334e-14,1.174772814e-14,1.675595856e-14,1.518374985e-14,5.315639349e-14,1.15541056e-13,4.172717126e-14,1.763350515e-14,1.017710767e-13,1.104649994e-14,2.298083853e-14,5.442100976e-15,2.219318009e-14,2.7460488e-14,2.174600709e-14,2.078873824e-14,3.847160507e-14,2.438215581e-14,6.127041364e-14,2.574571699e-14,3.315138889e-14,3.631334342e-15
1.4453125,2.230564369e-14,6.006154993e-14,2.025784905e-14,5.325509225e-14,2.433843526e-14,1.589168512e-14,6.28635382e-15,1.634878101e-14,1.700861411e-15,4.684668853e-14,8.660968508e-14,1.173584112e-14,1.707994431e-14,1.658857434e-14,5.778059514e-14,1.198489428e-13,4.451544755e-14,1.838325991e-14,1.06404501e-13,1.218460417e-14,2.146494097e-14,5.588367444e-15,2.160984719e-14,2.748688497e-14,2.053345339e-14,2.089521594e-14,3.975256423e-14,2.638003026e-14,6.097852416e-14,2.484963391e-14,3.428035226e-14,3.74867024e-15
1.453125,2.168704083e-14,6.250105044e-14,2.060716788e-14,5.550835551e-14,2.44632133e-14,1.728834463e-14,6.397144019e-15,1.69176238e-14,1.845114951e-15,4.529455164e-14,8.678804075e-14,1.152708837e-14,1.699035152e-14,1.827671432e-14,6.30031587e-14,1.237847559e-13,4.782982718e-14,1.929776741e-14,1.112293066e-13,1.344390862e-14,2.027660736e-14,5.715595877e-15,2.081663666e-14,2.783380178e-14,1.913773604e-14,2.063737005e-14,4.018985939e-14,2.836552443e-14,5.962404181e-14,2.391487105e-14,3.591689897e-14,3.914125729e-15
1.4609375,2.117387462e-14,6.489527616e-14,2.078735479e-14,5.790733536e-14,2.447788636e-14,1.888918531e-14,6.365461662e-15,1.691596588e-14,2.030279099e-15,4.388742377e-14,8.711567298e-14,1.132023216e-14,1.709058671e-14,2.010742524e-14,6.87620889e-14,1.27615716e-13,5.13424785e-14,2.001730657e-14,1.146972407e-13,1.499548606e-14,1.96184988e-14,5.848445622e-15,1.99210301e-14,2.858690842e-14,1.765275488e-14,2.030938024e-14,4.059670404e-14,3.02366404e-14,5.818976865e-14,2.273684646e-14,3.733460985e-14,4.165952709e-15
1.46875,2.0945659e-14,6.73324129e-14,2.065137593e-14,6.070776986e-14,2.452273021e-14,2.054744142e-14,6.28891552e-15,1.645895278e-14,2.33235538e-15,4.257093232e-14,8.744270234e-14,1.107841305e-14,1.733482284e-14,2.185900827e-14,7.541246614e-14,1.311413799e-13,5.477075175e-14,2.063977724e-14,1.160969902e-13,1.69326505e-14,1.938745399e-14,5.980368535e-15,1.91084245e-14,2.963784921e-14,1.599063352e-14,1.986019081e-14,4.087843784e-14,3.20304942e-14,5.647009655e-14,2.146642292e-14,3.827922501e-14,4.37001704e-15
1.4765625,2.106844455e-14,6.949669332e-14,2.070126631e-14,6.318993642e-14,2.4686791e-14,2.211206991e-14,6.142327146e-15,1.585144274e-14,2.586845739e-15,4.13389455e-14,8.806694683e-14,1.075089012e-14,1.748107522e-14,2.407000024e-14,8.226178287e-14,1.346669801e-13,5.905393396e-14,2.14015042e-14,1.157677396e-13,1.903480534e-14,1.930254811e-14,6.119251931e-15,1.812001229e-14,3.076205406e-14,1.461484621e-14,1.925441574e-14,4.064892464e-14,3.376627483e-14,5.490032929e-14,2.004473104e-14,3.985297975e-14,4.801471764e-15
1.484375,2.127810409e-14,7.155990366e-14,2.124841824e-14,6.578014312e-14,2.488391157e-14,2.349734356e-14,5.917355097e-15,1.541305094e-14,2.859656922e-15,4.039494883e-14,8.909525896e-14,1.042031503e-14,1.776543537e-14,2.632730099e-14,9.027034654e-14,1.395229103e-13,6.401210756e-14,2.205548965e-14,1.139582013e-13,2.130712024e-14,1.948409574e-14,6.245229969e-15,1.737265564e-14,3.246081086e-14,1.329062878e-14,1.852025543e-14,4.02059744e-14,3.533331083e-14,5.341424514e-14,1.85831275e-14,4.122901922e-14,5.239210622e-15
1.4921875,2.152887702e-14,7.335545469e-14,2.22952727e-14,6.826645364e-14,2.512389708e-14,2.481840752e-14,5.803497688e-15,1.54622588e-14,3.179402024e-15,3.955033098e-14,9.02593067e-14,9.930554367e-15,1.78894682e-14,2.856711534e-14,9.957690686e-14,1.459591372e-13,6.937204458e-14,2.267813838e-14,1.123666995e-13,2.369529242e-14,1.958148243e-14,6.347378619e-15,1.693085781e-14,3.460987446e-14,1.206984936e-14,1.764450389e-14,3.933000153e-14,3.681738683e-14,5.141591304e-14,1.729140875e-14,4.255283764e-14,5.588863134e-15
1.5,2.18252727e-14,7.494761683e-14,2.416703678e-14,7.055482236e-14,2.543056898e-14,2.626414603e-14,5.712924519e-15,1.618091517e-14,3.457227211e-15,3.873559504e-14,9.221009237e-14,9.446546409e-15,1.813466302e-14,3.112374893e-14,1.09700801e-13,1.531326037e-13,7.536591487e-14,2.328428917e-14,1.126627742e-13,2.59306829e-14,1.944353428e-14,6.461887969e-15,1.661013762e-14,3.672157337e-14,1.11585366e-14,1.697554635e-14,3.866581792e-14,3.828163841e-14,5.006273908e-14,1.620640838e-14,4.384988848e-14,6.038701399e-15
1.5078125,2.20116977e-14,7.641058097e-14,2.670436626e-14,7.294695392e-14,2.578433445e-14,2.78420394e-14,5.706262031e-15,1.739109562e-14,3.75486533e-15,3.813785812e-14,9.481942277e-14,8.991525275e-15,1.849988478e-14,3.379896284e-14,1.210956518e-13,1.612361225e-13,8.183442295e-14,2.378718548e-14,1.152901705e-13,2.81646647e-14,1.929879071e-14,6.575193288e-15,1.655896956e-14,3.928517118e-14,1.037070693e-14,1.640192336e-14,3.820043862e-14,3.962317024e-14,4.905164619e-14,1.553836937e-14,4.495631497e-14,6.522695661e-15
1.515625,2.21653595e-14,7.718857895e-14,2.965333357e-14,7.459051237e-14,2.619506916e-14,2.972479385e-14,5.913719799e-15,1.888923085e-14,3.946090853e-15,3.767962669e-14,9.752172791e-14,8.435842392e-15,1.847495415e-14,3.684198519e-14,1.325170825e-13,1.698264232e-13,8.886291804e-14,2.434093162e-14,1.216281534e-13,3.045343149e-14,1.911896402e-14,6.665873549e-15,1.668128624e-14,4.240097214e-14,9.82650541e-15,1.57845248e-14,3.740376311e-14,4.085445315e-14,4.796270911e-14,1.518561393e-14,4.685870671e-14,7.169754937e-15
1.5234375,2.223772225e-14,7.762632135e-14,3.28730445e-14,7.60820638e-14,2.663228244e-14,3.212470684e-14,6.201462526e-15,2.032364469e-14,4.148207994e-15,3.744080351e-14,1.004017949e-13,7.958501063e-15,1.8586831e-14,3.989161694e-14,1.446882156e-13,1.781356451e-13,9.600185358e-14,2.475665557e-14,1.320650949e-13,3.26186643e-14,1.901837942e-14,6.756052177e-15,1.683634358e-14,4.624376906e-14,9.354746134e-15,1.539058502e-14,3.691250764e-14,4.193105529e-14,4.703852576e-14,1.513937682e-14,4.854088272e-14,7.816391259e-15
1.53125,2.212594513e-14,7.782089102e-14,3.598583997e-14,7.770616293e-14,2.696236419e-14,3.488986162e-14,6.536472001e-15,2.139283644e-14,4.445642098e-15,3.756253552e-14,1.032851058e-13,7.569848658e-15,1.891289962e-14,4.284754941e-14,1.57614144e-13,1.860330997e-13,1.033776053e-13,2.485850307e-14,1.446919309e-13,3.480304757e-14,1.902842712e-14,6.818042084e-15,1.686916741e-14,5.072895216e-14,8.966163749e-15,1.511058658e-14,3.658277416e-14,4.266270981e-14,4.599764128e-14,1.529561385e-14,4.989738142e-14,8.382263678e-15
1.5390625,2.196002764e-14,7.730420459e-14,3.890902426e-14,7.863412865e-14,2.721782923e-14,3.784192327e-14,6.87004796e-15,2.216811776e-14,4.641263994e-15,3.788296956e-14,1.056386546e-13,7.279492316e-15,1.905590813e-14,4.616139978e-14,1.696375008e-13,1.928507196e-13,1.109975367e-13,2.47588068e-14,1.579864177e-13,3.700313936e-14,1.903018404e-14,6.825329956e-15,1.661229857e-14,5.509552463e-14,8.704626594e-15,1.483993194e-14,3.616087373e-14,4.297963681e-14,4.53097264e-14,1.534324646e-14,5.174573223e-14,9.136356536e-15
1.546875,2.172604508e-14,7.639625561e-14,4.148274118e-14,7.946932899e-14,2.758401767e-14,4.089484117e-14,7.14923611e-15,2.23796578e-14,4.87305257e-15,3.856841542e-14,1.077284471e-13,7.124389664e-15,1.941238843e-14,4.939394412e-14,1.821345974e-13,1.990931237e-13,1.183824633e-13,2.442136918e-14,1.706922458e-13,3.945333871e-14,1.914582764e-14,6.789563487e-15,1.612215026e-14,5.983832694e-14,8.38912474e-15,1.461398437e-14,3.584857161e-14,4.297712683e-14,4.448873573e-14,1.533871833e-14,5.323802152e-14,9.875043978e-15
1.5546875,2.148656118e-14,7.499467e-14,4.371645293e-14,8.00148395e-14,2.802124213e-14,4.388771532e-14,7.436896084e-15,2.216812627e-14,5.143575102e-15,3.971904128e-14,1.095304899e-13,7.040762071e-15,1.977843877e-14,5.233414263e-14,1.94914733e-13,2.050907708e-13,1.255883886e-13,2.397191121e-14,1.81373765e-13,4.18658487e-14,1.923634876e-14,6.676631405e-15,1.55183872e-14,6.506568219e-14,8.137161397e-15,1.429880884e-14,3.52922443e-14,4.276980522e-14,4.31485646e-14,1.52773192e-14,5.447129519e-14,1.043220223e-14
1.5625,2.132925352e-14,7.319752276e-14,4.598315375e-14,8.02353657e-14,2.855516815e-14,4.638003668e-14,7.56950972e-15,2.21172726e-14,5.436548219e-15,4.081827993e-14,1.103816051e-13,7.025237075e-15,2.018187285e-14,5.486530033e-14,2.068889068e-13,2.100806285e-13,1.318932298e-13,2.332561676e-14,1.884456353e-13,4.354804439e-14,1.896623422e-14,6.545568709e-15,1.481524337e-14,7.004116609e-14,7.839385379e-15,1.401193873e-14,3.475807862e-14,4.230039344e-14,4.20434924e-14,1.51399434e-14,5.517489784e-14,1.093517652e-14
1.5703125,2.116547449e-14,7.119184286e-14,4.848647578e-14,8.035519016e-14,2.918697825e-14,4.799314443e-14,7.567115644e-15,2.23497371e-14,5.797855184e-15,4.178859747e-14,1.105636842e-13,7.016899138e-15,2.083449524e-14,5.689897149e-14,2.182372552e-13,2.149790873e-13,1.376639255e-13,2.241402607e-14,1.913774336e-13,4.489174789e-14,1.830390631e-14,6.446382198e-15,1.422887299e-14,7.503265789e-14,7.646713498e-15,1.37484887e-14,3.427355645e-14,4.146275797e-14,4.084773328e-14,1.509318242e-14,5.525804744e-14,1.135727908e-14
1.578125,2.089723261e-14,6.869122472e-14,5.144469798e-14,7.964008214e-14,2.983202697e-14,4.898436483e-14,7.613923863e-15,2.315034403e-14,6.025128655e-15,4.26645176e-14,1.104466132e-13,6.929893176e-15,2.11954624e-14,5.874272417e-14,2.279822177e-13,2.198295296e-13,1.433112985e-13,2.153253871e-14,1.918065503e-13,4.598793451e-14,1.727486697e-14,6.335565214e-15,1.390980871e-14,7.960499759e-14,7.750705004e-15,1.338361366e-14,3.349922859e-14,4.046377182e-14,3.961123962e-14,1.524934401e-14,5.564351341e-14,1.179172278e-14
1.5859375,2.052501739e-14,6.617455156e-14,5.49440687e-14,7.892709063e-14,3.074746804e-14,4.958018427e-14,7.642689005e-15,2.44499799e-14,6.294335369e-15,4.315871437e-14,1.098424911e-13,6.742833603e-15,2.1742247e-14,6.00693671e-14,2.369402059e-13,2.240415686e-13,1.476654012e-13,2.060144007e-14,1.914957059e-13,4.648224223e-14,1.595540342e-14,6.2374671e-15,1.384538886e-14,8.325939041e-14,7.734658677e-15,1.311278275e-14,3.294231573e-14,3.952479657e-14,3.83356549e-14,1.567608001e-14,5.558889744e-14,1.210225813e-14
1.59375,2.008505926e-14,6.367099829e-14,5.909149082e-14,7.824884485e-14,3.195884679e-14,4.998451825e-14,7.745529478e-15,2.61298473e-14,6.586844723e-15,4.351170869e-14,1.087115615e-13,6.521870816e-15,2.248066521e-14,6.097535439e-14,2.457889068e-13,2.286607498e-13,1.514533034e-13,1.967278994e-14,1.926107197e-13,4.649441936e-14,1.46720986e-14,6.160043775e-15,1.406038375e-14,8.705642478e-14,7.644796532e-15,1.292273672e-14,3.252294782e-14,3.849298492e-14,3.661900064e-14,1.638885765e-14,5.522425615e-14,1.21845897e-14
1.6015625,1.94980917e-14,6.101600882e-14,6.370789121e-14,7.694600358e-14,3.324445555e-14,5.055238703e-14,7.927269482e-15,2.824161585e-14,6.719520986e-15,4.38762832e-14,1.073771977e-13,6.297023328e-15,2.290258439e-14,6.190384867e-14,2.529678207e-13,2.33063748e-13,1.552849279e-13,1.877885107e-14,1.967053215e-13,4.64809489e-14,1.374778972e-14,6.089906808e-15,1.423773277e-14,9.149958587e-14,7.687134058e-15,1.277395149e-14,3.203111585e-14,3.730477432e-14,3.516398346e-14,1.724832189e-14,5.528653527e-14,1.237431392e-14
1.609375,1.888711521e-14,5.82716589e-14,6.811335057e-14,7.544002331e-14,3.449467134e-14,5.132973602e-14,8.162246245e-15,3.029927244e-14,6.846527586e-15,4.416107197e-14,1.053531698e-13,6.100169619e-15,2.342049267e-14,6.260440446e-14,2.585873499e-13,2.362601523e-13,1.584474306e-13,1.77411274e-14,2.037368513e-13,4.67492386e-14,1.311086256e-14,5.961693907e-15,1.435125255e-14,9.609101314e-14,7.732350645e-15,1.271329116e-14,3.168272089e-14,3.603104439e-14,3.380265691e-14,1.81315085e-14,5.527007837e-14,1.250654256e-14
1.6171875,1.832078816e-14,5.516433631e-14,7.190804446e-14,7.337387871e-14,3.559978657e-14,5.26737982e-14,8.568396696e-15,3.196571298e-14,6.852545176e-15,4.464973329e-14,1.023780282e-13,5.987291849e-15,2.384696606e-14,6.327570247e-14,2.632261908e-13,2.385513515e-13,1.611632633e-13,1.668978616e-14,2.140067953e-13,4.700321195e-14,1.279630902e-14,5.75446062e-15,1.441285234e-14,1.006650624e-13,7.738859329e-15,1.263492386e-14,3.11852774e-14,3.462539049e-14,3.228998603e-14,1.894896388e-14,5.54987003e-14,1.254355317e-14
1.625,1.776517789e-14,5.212487574e-14,7.475770395e-14,7.126286485e-14,3.666643867e-14,5.459002083e-14,8.917046269e-15,3.28335775e-14,6.859488502e-15,4.529111666e-14,9.907689305e-14,5.930009153e-15,2.420002022e-14,6.380709902e-14,2.669611405e-13,2.394696055e-13,1.629061617e-13,1.564044099e-14,2.251112203e-13,4.707299612e-14,1.28038917e-14,5.538490364e-15,1.404837612e-14,1.05438679e-13,7.543012596e-15,1.262185129e-14,3.064917667e-14,3.316438725e-14,3.101508299e-14,1.950830231e-14,5.56594981e-14,1.257620882e-14
1.6328125,1.733597902e-14,4.922646574e-14,7.640244961e-14,6.92970798e-14,3.760380061e-14,5.651606003e-14,9.138533359e-15,3.277790213e-14,6.899938672e-15,4.58311298e-14,9.492850187e-14,5.963652137e-15,2.466876809e-14,6.392549545e-14,2.692578294e-13,2.390590244e-13,1.639032842e-13,1.461709923e-14,2.334231357e-13,4.705391259e-14,1.273770607e-14,5.281066461e-15,1.340948889e-14,1.103424148e-13,7.285746885e-15,1.266106962e-14,3.016157313e-14,3.165036442e-14,2.974918122e-14,1.970799725e-14,5.548820196e-14,1.243740835e-14
1.640625,1.698903925e-14,4.622227644e-14,7.681335993e-14,6.673172536e-14,3.822257697e-14,5.833574164e-14,9.297942463e-15,3.208055243e-14,6.788715727e-15,4.642281773e-14,9.02817762e-14,6.06081476e-15,2.491561536e-14,6.388891414e-14,2.692245229e-13,2.373723011e-13,1.645955022e-13,1.36670904e-14,2.37828249e-13,4.689639696e-14,1.26502477e-14,5.018421326e-15,1.260522759e-14,1.15111774e-13,7.14563307e-15,1.268402043e-14,2.958363805e-14,3.011433693e-14,2.871157702e-14,1.958901139e-14,5.553217354e-14,1.238629343e-14
1.6484375,1.690414889e-14,4.345936381e-14,7.613600488e-14,6.42001561e-14,3.872438107e-14,5.964383706e-14,9.260871747e-15,3.071940118e-14,6.788355318e-15,4.6805691e-14,8.57167087e-14,6.19581641e-15,2.536075827e-14,6.314947359e-14,2.678016397e-13,2.338630641e-13,1.635178823e-13,1.272709076e-14,2.365619591e-13,4.613525175e-14,1.236671358e-14,4.804146588e-15,1.168572332e-14,1.190978009e-13,6.92632484e-15,1.283316827e-14,2.925707262e-14,2.870117088e-14,2.797064453e-14,1.936562566e-14,5.490735946e-14,1.218703823e-14
1.65625,1.714736927e-14,4.096979723e-14,7.525681052e-14,6.173017305e-14,3.924867002e-14,6.016132694e-14,9.088248398e-15,2.931354705e-14,6.842296008e-15,4.660903343e-14,8.076734657e-14,6.314028467e-15,2.607168188e-14,6.167463793e-14,2.651765987e-13,2.295820775e-13,1.612110599e-13,1.1819583e-14,2.291746348e-13,4.460325464e-14,1.170128965e-14,4.620772234e-15,1.095775928e-14,1.219110721e-13,6.783681162e-15,1.29908314e-14,2.893422611e-14,2.729445881e-14,2.733650142e-14,1.918118263e-14,5.370657411e-14,1.178672389e-14
1.6640625,1.743936477e-14,3.873747456e-14,7.497357849e-14,5.910454934e-14,3.98860811e-14,6.008308087e-14,8.736155885e-15,2.86391777e-14,6.891018592e-15,4.602453972e-14,7.603421715e-14,6.298306627e-15,2.654251954e-14,5.978554596e-14,2.613860502e-13,2.257849167e-13,1.583344709e-13,1.097426355e-14,2.171253369e-13,4.269988357e-14,1.109252689e-14,4.50162145e-15,1.039341164e-14,1.242694008e-13,6.816819616e-15,1.314794964e-14,2.860105326e-14,2.599251268e-14,2.706575053e-14,1.904621839e-14,5.236036587e-14,1.144766007e-14
1.671875,1.777205706e-14,3.682492145e-14,7.548302348e-14,5.660092876e-14,4.073137322e-14,5.939660473e-14,8.274084226e-15,2.884530068e-14,7.002976533e-15,4.508446284e-14,7.166207853e-14,6.311635743e-15,2.724690026e-14,5.734866086e-14,2.568961101e-13,2.22518419e-13,1.545091623e-13,1.021733138e-14,2.01575633e-13,4.048502042e-14,1.05552647e-14,4.409594489e-15,1.007611912e-14,1.257616744e-13,6.97997235e-15,1.354303513e-14,2.882523093e-14,2.499097673e-14,2.692532497e-14,1.913117011e-14,5.052777526e-14,1.092527178e-14
1.6796875,1.817712621e-14,3.519346179e-14,7.686908743e-14,5.393522904e-14,4.167392134e-14,5.834522535e-14,7.911557808e-15,3.011332827e-14,7.063817362e-15,4.390299936e-14,6.756158085e-14,6.388244812e-15,2.823011195e-14,5.477128889e-14,2.513431567e-13,2.196893515e-13,1.504380813e-13,9.511594409e-15,1.856066452e-13,3.818699539e-14,1.017991151e-14,4.31127455e-15,1.00079071e-14,1.263314781e-13,7.407717953e-15,1.410092218e-14,2.93490076e-14,2.412819919e-14,2.674660784e-14,1.948351302e-14,4.891201915e-14,1.042859882e-14
1.6875,1.871386131e-14,3.389083992e-14,7.858041719e-14,5.135756243e-14,4.259543178e-14,5.733391804e-14,7.556398485e-15,3.205598535e-14,7.260609868e-15,4.274308549e-14,6.372909922e-14,6.439385442e-15,2.921836774e-14,5.19000086e-14,2.458243333e-13,2.172064367e-13,1.456953175e-13,8.816621122e-15,1.721904138e-13,3.594400328e-14,1.011261117e-14,4.225255872e-15,1.000739476e-14,1.273171702e-13,7.856146786e-15,1.476603116e-14,2.991022101e-14,2.336441093e-14,2.677241627e-14,2.004563559e-14,4.714339686e-14,9.832604821e-15
1.6953125,1.937338492e-14,3.292741953e-14,8.003168169e-14,4.880702742e-14,4.329367124e-14,5.681200932e-14,7.295045916e-15,3.397198335e-14,7.495350456e-15,4.172946106e-14,5.984647104e-14,6.522839215e-15,3.059682094e-14,4.88219263e-14,2.400254519e-13,2.14821366e-13,1.405546218e-13,8.152834774e-15,1.624711249e-13,3.390269244e-14,1.032780467e-14,4.16187288e-15,9.999878317e-15,1.284084739e-13,8.224749851e-15,1.547940266e-14,3.048074577e-14,2.275429345e-14,2.679723777e-14,2.069695483e-14,4.522544763e-14,9.115140115e-15
1.703125,2.007886421e-14,3.228124011e-14,8.069212314e-14,4.595682296e-14,4.352914852e-14,5.708666357e-14,7.13716211e-15,3.549497886e-14,7.587075294e-15,4.116086934e-14,5.645979945e-14,6.619382246e-15,3.204288981e-14,4.598959532e-14,2.332740716e-13,2.118281668e-13,1.354369529e-13,7.57115654e-15,1.56633731e-13,3.242844737e-14,1.09169014e-14,4.133315762e-15,9.763591803e-15,1.295306226e-13,8.629710459e-15,1.61678168e-14,3.096460284e-14,2.229732945e-14,2.676008704e-14,2.126442796e-14,4.390836164e-14,8.59171947e-15
1.7109375,2.093822081e-14,3.193023162e-14,7.979177727e-14,4.32858679e-14,4.33285666e-14,5.824582371e-14,7.022053772e-15,3.592448748e-14,7.682272509e-15,4.106409625e-14,5.337859276e-14,6.80827495e-15,3.372073076e-14,4.316189255e-14,2.264540622e-13,2.073364538e-13,1.299811429e-13,7.086189958e-15,1.542349369e-13,3.118424573e-14,1.178095006e-14,4.124686772e-15,9.306800902e-15,1.312457954e-13,8.845097834e-15,1.699873069e-14,3.158862933e-14,2.199157031e-14,2.690139366e-14,2.16800139e-14,4.264617245e-14,7.969670325e-15
1.71875,2.195203847e-14,3.183785702e-14,7.728934842e-14,4.061358282e-14,4.272886834e-14,6.035553785e-14,6.986737116e-15,3.499763811e-14,7.743307396e-15,4.132794573e-14,5.014517623e-14,7.036282586e-15,3.57498813e-14,4.045344033e-14,2.19029291e-13,2.01172451e-13,1.246930245e-13,6.662734661e-15,1.542226957e-13,3.003568568e-14,1.304007493e-14,4.154195069e-15,8.653327499e-15,1.332121619e-13,8.934685652e-15,1.786423646e-14,3.211494909e-14,2.170634905e-14,2.719056806e-14,2.181707304e-14,4.174190454e-14,7.40978499e-15
1.7265625,2.318335618e-14,3.197497933e-14,7.335343545e-14,3.782362455e-14,4.17880781e-14,6.320438723e-14,6.867394139e-15,3.303196757e-14,7.802436951e-15,4.198034158e-14,4.719473004e-14,7.163116982e-15,3.753846294e-14,3.777576297e-14,2.116346654e-13,1.938139467e-13,1.192390081e-13,6.287002558e-15,1.546796137e-13,2.889094735e-14,1.473839397e-14,4.230356801e-15,7.83156339e-15,1.352758284e-13,8.947376751e-15,1.86288197e-14,3.228248688e-14,2.137894761e-14,2.772437347e-14,2.173349214e-14,4.112956257e-14,6.931432921e-15
1.734375,2.46951212e-14,3.243664761e-14,6.851122239e-14,3.526359853e-14,4.081985349e-14,6.668251742e-14,6.753410438e-15,3.045484683e-14,7.842536525e-15,4.289569116e-14,4.457604719e-14,7.320018442e-15,3.973946162e-14,3.510663758e-14,2.045511167e-13,1.856986421e-13,1.141962233e-13,5.973710323e-15,1.54779455e-13,2.745697836e-14,1.693259628e-14,4.320723201e-15,7.034738075e-15,1.37343231e-13,8.792558331e-15,1.947031628e-14,3.259464405e-14,2.111739451e-14,2.839045281e-14,2.149090482e-14,4.048015891e-14,6.429574078e-15
1.7421875,2.633914257e-14,3.315853654e-14,6.351153809e-14,3.273156465e-14,3.99728686e-14,7.041118234e-14,6.659334125e-15,2.811120225e-14,7.76945829e-15,4.386322889e-14,4.213935356e-14,7.535754873e-15,4.229954119e-14,3.266140859e-14,1.969562937e-13,1.772799061e-13,1.099947992e-13,5.732191945e-15,1.536061324e-13,2.597464208e-14,1.977334292e-14,4.442748991e-15,6.330989444e-15,1.390854697e-13,8.68343213e-15,2.046927923e-14,3.315513107e-14,2.095362426e-14,2.904088921e-14,2.112188227e-14,4.026709654e-14,6.090149165e-15
1.75,2.81496168e-14,3.394890083e-14,5.867182384e-14,3.038717521e-14,3.93092245e-14,7.37178023e-14,6.462717199e-15,2.649711428e-14,7.764026972e-15,4.460713808e-14,3.998863386e-14,7.778303486e-15,4.485240177e-14,3.017341309e-14,1.895990373e-13,1.692898427e-13,1.057198091e-13,5.49300683e-15,1.494807433e-13,2.438717145e-14,2.282318647e-14,4.604399625e-15,5.850698244e-15,1.397121221e-13,8.551893831e-15,2.172370983e-14,3.391995758e-14,2.078766957e-14,3.006681593e-14,2.093147113e-14,4.008475324e-14,5.668292128e-15
1.7578125,3.016525727e-14,3.488915554e-14,5.466377495e-14,2.827854048e-14,3.892747197e-14,7.643737076e-14,6.269025825e-15,2.576471143e-14,7.824302318e-15,4.507405723e-14,3.81581171e-14,8.102684493e-15,4.770488511e-14,2.76920524e-14,1.822867632e-13,1.621776962e-13,1.018196562e-13,5.312794958e-15,1.422598809e-13,2.264265648e-14,2.572817269e-14,4.783113688e-15,5.571175958e-15,1.393652278e-13,8.496651672e-15,2.325560284e-14,3.507837713e-14,2.069568727e-14,3.118249324e-14,2.099398475e-14,4.016954224e-14,5.284690973e-15
1.765625,3.225620819e-14,3.599184788e-14,5.169983225e-14,2.625888801e-14,3.869188988e-14,7.853343785e-14,6.049018804e-15,2.586565977e-14,7.887975646e-15,4.540037792e-14,3.661657622e-14,8.51634735e-15,5.044253632e-14,2.53211015e-14,1.752922562e-13,1.563469233e-13,9.859111099e-14,5.235647842e-15,1.323431867e-13,2.097048767e-14,2.828554574e-14,4.985966313e-15,5.439325553e-15,1.386826316e-13,8.746292808e-15,2.486334749e-14,3.640697091e-14,2.081943105e-14,3.196599703e-14,2.130391234e-14,4.076638453e-14,5.055221137e-15
1.7734375,3.43600836e-14,3.706419962e-14,4.956798956e-14,2.441886583e-14,3.854598349e-14,8.014448188e-14,5.794251019e-15,2.641619751e-14,7.998355686e-15,4.566240955e-14,3.557693103e-14,9.035029479e-15,5.335815904e-14,2.307752774e-14,1.690321595e-13,1.517667831e-13,9.598301988e-14,5.145198743e-15,1.206299475e-13,1.936148162e-14,3.029220476e-14,5.194293777e-15,5.369754461e-15,1.371225301e-13,9.140775423e-15,2.659200017e-14,3.799989204e-14,2.109221706e-14,3.266904002e-14,2.188497832e-14,4.122753159e-14,4.794057933e-15
1.78125,3.643157395e-14,3.794709357e-14,4.798312169e-14,2.250139843e-14,3.835183564e-14,8.140553081e-14,5.527994036e-15,2.694339487e-14,8.090963543e-15,4.592788685e-14,3.49274767e-14,9.602561535e-15,5.635678116e-14,2.097295352e-14,1.625860931e-13,1.476337841e-13,9.383190118e-14,5.081859424e-15,1.084464755e-13,1.793510948e-14,3.178056133e-14,5.42078994e-15,5.22487066e-15,1.351223648e-13,9.787483077e-15,2.839969266e-14,3.967989178e-14,2.144371281e-14,3.308122699e-14,2.26740769e-14,4.178221489e-14,4.60515927e-15
1.7890625,3.841887464e-14,3.862969928e-14,4.630076682e-14,2.058893924e-14,3.787300111e-14,8.230553849e-14,5.193799332e-15,2.684200483e-14,8.257760735e-15,4.620930639e-14,3.432230615e-14,1.011836577e-14,5.896180038e-14,1.901422789e-14,1.562379063e-13,1.439607268e-13,9.183025437e-14,5.031915234e-15,9.659740635e-14,1.676733745e-14,3.264692522e-14,5.697973238e-15,5.04275067e-15,1.332714406e-13,1.069471941e-14,2.996316004e-14,4.086822518e-14,2.178978265e-14,3.310971607e-14,2.367908604e-14,4.254013807e-14,4.424939456e-15
1.796875,4.032371735e-14,3.93490097e-14,4.442751301e-14,1.88846323e-14,3.725571797e-14,8.344991978e-14,4.874462485e-15,2.591756116e-14,8.408928554e-15,4.67405272e-14,3.395057167e-14,1.059313975e-14,6.194122812e-14,1.732458515e-14,1.502679919e-13,1.408465964e-13,9.041119508e-14,4.963890611e-15,8.653460065e-14,1.579112279e-14,3.330777873e-14,5.988039187e-15,4.706572939e-15,1.315630702e-13,1.186576501e-14,3.126533636e-14,4.172412667e-14,2.213210394e-14,3.279127176e-14,2.462159742e-14,4.319726255e-14,4.295732387e-15
1.8046875,4.226457668e-14,4.005290728e-14,4.212026249e-14,1.726435624e-14,3.658534137e-14,8.547462621e-14,4.615357479e-15,2.423107424e-14,8.474794379e-15,4.759287045e-14,3.368453537e-14,1.097271782e-14,6.501555185e-14,1.582098463e-14,1.443379169e-13,1.375423321e-13,8.947894366e-14,4.960024601e-15,7.952917046e-14,1.502692906e-14,3.44461604e-14,6.326952937e-15,4.281870185e-15,1.303608095e-13,1.342023295e-14,3.230634696e-14,4.211598359e-14,2.251665375e-14,3.207043653e-14,2.535886199e-14,4.387421858e-14,4.312798616e-15
