"Time","Fp1","AF3","F7","F3","FC1","FC5","T7","C3","CP1","CP5","P7","P3","Pz","PO3","O1","Oz","O2","PO4","P4","P8","CP6","CP2","C4","T8","FC6","FC2","F4","F8","AF4","Fp2","Fz","Cz"
0.0078125,4.294256345e-11,8.381000094e-10,8.944728123e-10,2.467544914e-09,3.215996242e-11,2.469746654e-10,1.613059067e-09,1.447485959e-09,2.220853656e-09,8.676422407e-11,6.149510337e-10,6.890720214e-10,6.267576274e-09,1.921553823e-09,2.619402609e-09,9.934879557e-10,8.107549039e-10,7.930275447e-10,2.41285815e-09,6.307416274e-11,2.833995918e-10,1.94260787e-10,2.197240883e-09,2.684667135e-09,1.443142404e-09,9.170367364e-10,3.074787347e-09,1.939292935e-11,3.644243122e-09,5.817860331e-10,6.098046524e-09,4.761120006e-09
0.015625,4.270365071e-11,8.269744439e-10,8.922011105e-10,2.430531821e-09,3.158650268e-11,2.399285434e-10,1.582304845e-09,1.444197717e-09,2.186175812e-09,8.687119753e-11,6.076666718e-10,6.822024224e-10,6.169456722e-09,1.889866969e-09,2.579782696e-09,9.686638808e-10,7.97933378e-10,7.806049152e-10,2.35980428e-09,6.110312694e-11,2.790880419e-10,1.922080937e-10,2.153080558e-09,2.65634197e-09,1.433132361e-09,9.08056647e-10,3.040622681e-09,1.887457909e-11,3.5985919e-09,5.689853098e-10,5.99772931e-09,4.690791893e-09
0.0234375,4.081547561e-11,7.813346889e-10,8.567696848e-10,2.291837008e-09,3.013550086e-11,2.246218845e-10,1.485526335e-09,1.390824029e-09,2.060071675e-09,8.377179689e-11,5.755616905e-10,6.472952515e-10,5.812897825e-09,1.779247814e-09,2.431625022e-09,9.049029652e-10,7.521001009e-10,7.35417051e-10,2.2380993e-09,5.695839772e-11,2.669880182e-10,1.82149575e-10,2.019524899e-09,2.517380519e-09,1.365619796e-09,8.619251742e-10,2.880803132e-09,1.767089591e-11,3.403356733e-09,5.328182681e-10,5.64624573e-09,4.424104921e-09
0.03125,3.754149235e-11,7.075155436e-10,7.925643684e-10,2.070237147e-09,2.779179898e-11,2.018339039e-10,1.334654065e-09,1.292307284e-09,1.859425274e-09,7.780632784e-11,5.23230717e-10,5.893276383e-10,5.245403426e-09,1.604344281e-09,2.194550666e-09,8.083780605e-10,6.795891545e-10,6.633971111e-10,2.047403193e-09,5.097227189e-11,2.468772425e-10,1.654974387e-10,1.812787051e-09,2.287237104e-09,1.25011852e-09,7.851991925e-10,2.617956961e-09,1.584383691e-11,3.085840365e-09,4.773650102e-10,5.089768578e-09,3.997116201e-09
0.0390625,3.320532041e-11,6.150648553e-10,7.048001718e-10,1.795199793e-09,2.472195876e-11,1.744243544e-10,1.150772902e-09,1.15472222e-09,1.611141276e-09,6.94162674e-11,4.57013639e-10,5.152439301e-10,4.543231794e-09,1.388816192e-09,1.900508748e-09,6.927929166e-10,5.899533981e-10,5.743168733e-10,1.803904167e-09,4.396861363e-11,2.199888107e-10,1.443380083e-10,1.561881038e-09,1.994684544e-09,1.099186579e-09,6.869333376e-10,2.284511049e-09,1.36271173e-11,2.686486119e-09,4.10506068e-10,4.40389853e-09,3.466584489e-09
0.046875,2.827466781e-11,5.144024381e-10,6.02915662e-10,1.498078264e-09,2.131937247e-11,1.45925689e-10,9.555810357e-10,9.930495924e-10,1.343652853e-09,5.952059225e-11,3.841528436e-10,4.332450944e-10,3.787076611e-09,1.157443522e-09,1.583475025e-09,5.726013196e-10,4.932556742e-10,4.785141656e-10,1.539309714e-09,3.680282932e-11,1.896974256e-10,1.210489697e-10,1.296446379e-09,1.672693771e-09,9.292950797e-10,5.779652751e-10,1.917579949e-09,1.131852256e-11,2.250160718e-09,3.402773254e-10,3.667895764e-09,2.893153343e-09
0.0546875,2.331198158e-11,4.155808011e-10,4.989098423e-10,1.207884041e-09,1.794308706e-11,1.188725329e-10,7.671645592e-10,8.270524231e-10,1.082851183e-09,4.931190568e-11,3.121640912e-10,3.519248552e-10,3.050013853e-09,9.323876053e-10,1.274231459e-09,4.582687101e-10,3.989731384e-10,3.852017464e-10,1.280824867e-09,3.005390295e-11,1.593734222e-10,9.801592104e-11,1.040834765e-09,1.354134762e-09,7.59057733e-10,4.697890767e-10,1.55498564e-09,9.127726592e-12,1.820859318e-09,2.729931005e-10,2.952162187e-09,2.332828074e-09
0.0625,1.872516367e-11,3.259412343e-10,4.019384689e-10,9.454173113e-10,1.480698336e-11,9.454034771e-11,5.977611903e-10,6.713922042e-10,8.471422385e-10,3.972749676e-11,2.466313428e-10,2.777012144e-10,2.383994987e-09,7.292332707e-10,9.947065505e-10,3.561341172e-10,3.137669232e-10,3.008485703e-10,1.042766888e-09,2.406539881e-11,1.310336568e-10,7.701885499e-11,8.11348498e-10,1.063697499e-09,6.025599345e-10,3.709955516e-10,1.224699694e-09,7.152382824e-12,1.430861292e-09,2.126858448e-10,2.306212646e-09,1.825760729e-09
0.0703125,1.47330571e-11,2.494638155e-10,3.1665386e-10,7.221202815e-10,1.201440249e-11,7.368726805e-11,4.544511218e-10,5.332247726e-10,6.467684455e-10,3.125102378e-11,1.904117694e-10,2.13962494e-10,1.818004862e-09,5.567154863e-10,7.572213623e-10,2.700909969e-10,2.412663837e-10,2.291909506e-10,8.326604481e-10,1.898917872e-11,1.056638393e-10,5.902894857e-11,6.173520933e-10,8.148616396e-10,4.671216302e-10,2.860734843e-10,9.416965912e-10,5.466658693e-12,1.09760888e-09,1.617605456e-10,1.757935897e-09,1.394278793e-09
0.078125,1.141427197e-11,1.872793354e-10,2.449507706e-10,5.410911605e-10,9.614894072e-12,5.653679537e-11,3.389541387e-10,4.159043442e-10,4.844416791e-10,2.40865534e-11,1.443970099e-10,1.617825085e-10,1.359716771e-09,4.170739026e-10,5.651276252e-10,2.010239844e-10,1.824138809e-10,1.712076991e-10,6.543686472e-10,1.484162361e-11,8.379714114e-11,4.434267699e-11,4.610481116e-10,6.117116167e-10,3.553102074e-10,2.164758631e-10,7.10538514e-10,4.096299909e-12,8.261961275e-10,1.207735216e-10,1.314543443e-09,1.044423425e-09
0.0859375,8.760259881e-12,1.385978788e-10,1.869400502e-10,3.997381055e-10,7.614036796e-12,4.284900532e-11,2.492626875e-10,3.200170876e-10,3.577634421e-10,1.827544978e-11,1.080868475e-10,1.206628407e-10,1.002356375e-09,3.081501516e-10,4.156034027e-10,1.475480881e-10,1.363274965e-10,1.260491352e-10,5.077411487e-10,1.152466867e-11,6.555577366e-11,3.281056328e-11,3.396002328e-10,4.521894266e-10,2.665057001e-10,1.615625309e-10,5.28769266e-10,3.02362285e-12,6.133246096e-10,8.894660605e-11,9.691498093e-10,7.712674454e-10
0.09375,6.698014572e-12,1.01540998e-10,1.413384955e-10,2.923469461e-10,5.975950064e-12,3.210887148e-11,1.813788205e-10,2.438261442e-10,2.615525081e-10,1.370951309e-11,8.02194679e-11,8.916919786e-11,7.311794423e-10,2.254177366e-10,3.024044666e-10,1.070804047e-10,1.011685959e-10,9.182522127e-11,3.893196163e-10,8.900147077e-12,5.065660655e-11,2.401399072e-11,2.475665278e-10,3.305350353e-10,1.980080607e-10,1.194528673e-10,3.898280931e-10,2.201232897e-12,4.509582247e-10,6.481734532e-11,7.072192612e-10,5.637740087e-10
0.1015625,5.12211132e-12,7.387354207e-11,1.060720352e-10,2.123603834e-10,4.659503574e-12,2.383389853e-11,1.310730821e-10,1.841522703e-10,1.8993902e-10,1.01937364e-11,5.918505869e-11,6.548056442e-11,5.295623864e-10,1.63834291e-10,2.185003743e-10,7.713032981e-11,7.481878256e-11,6.643602356e-11,2.951651777e-10,6.862416788e-12,3.869323812e-11,1.743873261e-11,1.792588698e-10,2.396762496e-10,1.460762813e-10,8.77302146e-11,2.855683022e-10,1.583643316e-12,3.294472748e-10,4.690541393e-11,5.126372583e-10,4.09316488e-10
0.109375,3.928029116e-12,5.344538373e-11,7.912050975e-11,1.534257393e-10,3.617239605e-12,1.754304534e-11,9.421145326e-11,1.38018468e-10,1.371898263e-10,7.528378964e-12,4.345248845e-11,4.784784614e-11,3.813166201e-10,1.184534552e-10,1.570471334e-10,5.52752237e-11,5.522658096e-11,4.781150465e-11,2.215760226e-10,5.285912566e-12,2.925348723e-11,1.2583808e-11,1.291014484e-10,1.726395665e-10,1.071348019e-10,6.40799583e-11,2.081435931e-10,1.13122169e-12,2.394402155e-10,3.3761307e-11,3.696174663e-10,2.955695786e-10
0.1171875,3.027211581e-12,3.850771368e-11,5.87276308e-11,1.10406837e-10,2.798593207e-12,1.280300064e-11,6.743271784e-11,1.027669201e-10,9.869013807e-11,5.544409372e-12,3.179357696e-11,3.484315471e-11,2.733458518e-10,8.530305372e-11,1.124750183e-10,3.945966192e-11,4.075661093e-11,3.426974317e-11,1.647395668e-10,4.07940821e-12,2.191610298e-11,9.037171177e-12,9.258611093e-11,1.237523017e-10,7.822891359e-11,4.662017556e-11,1.511766679e-10,8.02910403e-13,1.733885409e-10,2.419058518e-11,2.654340136e-10,2.125723409e-10
0.125,2.344785913e-12,2.7591089e-11,4.336078551e-11,7.90051092e-11,2.155408626e-12,9.258374022e-12,4.798892037e-11,7.599621069e-11,7.060142856e-11,4.08950248e-12,2.313807621e-11,2.525839537e-11,1.947736923e-10,6.109707957e-11,8.01808454e-11,2.801556202e-11,3.005167363e-11,2.4447869e-11,1.212524e-10,3.145055338e-12,1.627715189e-11,6.454425443e-12,6.599695432e-11,8.825594471e-11,5.683164479e-11,3.373882306e-11,1.092826736e-10,5.683851072e-13,1.249330477e-10,1.722721606e-11,1.895858251e-10,1.520648814e-10
0.1328125,1.826960613e-12,1.966982441e-11,3.181875509e-11,5.624190988e-11,1.651603755e-12,6.631292879e-12,3.397442146e-11,5.57564981e-11,5.024535506e-11,3.024482457e-12,1.67596003e-11,1.823325184e-11,1.38010286e-10,4.353593142e-11,5.694989999e-11,1.981994956e-11,2.215972557e-11,1.736818504e-11,8.823735658e-11,2.425901948e-12,1.196748907e-11,4.586922557e-12,4.678058022e-11,6.269816069e-11,4.107717963e-11,2.429091821e-11,7.864228185e-11,4.037009668e-13,8.960153715e-11,1.22001809e-11,1.347442483e-10,1.082449277e-10
0.140625,1.445060534e-12,1.38787773e-11,2.321839573e-11,3.963264666e-11,1.263808618e-12,4.710611443e-12,2.383749649e-11,4.054092471e-11,3.543468469e-11,2.23137402e-12,1.205299505e-11,1.30560071e-11,9.677422092e-11,3.077426068e-11,4.004467754e-11,1.389206157e-11,1.640812383e-11,1.225623645e-11,6.35697348e-11,1.87543685e-12,8.72008103e-12,3.222772776e-12,3.284554133e-11,4.40744015e-11,2.942116172e-11,1.732218977e-11,5.614138833e-11,2.898263056e-13,6.368063809e-11,8.580746966e-12,9.490914514e-11,7.634627099e-11
0.1484375,1.15103615e-12,9.780173941e-12,1.687620787e-11,2.787668559e-11,9.818356273e-13,3.30510635e-12,1.669591752e-11,2.928296208e-11,2.490807645e-11,1.656826799e-12,8.639116103e-12,9.329595393e-12,6.770766619e-11,2.165722104e-11,2.827342788e-11,9.971766099e-12,1.211380625e-11,8.625188715e-12,4.536244542e-11,1.469511428e-12,6.299061619e-12,2.265506055e-12,2.300255702e-11,3.112165683e-11,2.099797381e-11,1.231448042e-11,3.995920707e-11,2.174114303e-13,4.516248609e-11,6.018345662e-12,6.668920659e-11,5.372291099e-11
0.15625,9.361447641e-13,6.826081512e-12,1.224081457e-11,1.940744684e-11,7.646143439e-13,2.283892725e-12,1.157493694e-11,2.100059505e-11,1.734413727e-11,1.231360955e-12,6.161852005e-12,6.621533548e-12,4.689037526e-11,1.510604324e-11,1.978225352e-11,7.166043431e-12,8.974240361e-12,6.031606085e-12,3.193378014e-11,1.158661376e-12,4.508791589e-12,1.576526247e-12,1.593819874e-11,2.187386617e-11,1.487244492e-11,8.677147679e-12,2.823284486e-11,1.728187212e-13,3.17580209e-11,4.162241432e-12,4.643890502e-11,3.746725526e-11
0.1640625,7.562380562e-13,4.729754158e-12,8.724835173e-12,1.338879128e-11,5.793190324e-13,1.561716507e-12,7.948444356e-12,1.484776794e-11,1.19540272e-11,9.391579028e-13,4.353173046e-12,4.669722477e-12,3.216664971e-11,1.042620577e-11,1.378633016e-11,5.12079617e-12,6.630634469e-12,4.186467467e-12,2.211574496e-11,9.211653097e-13,3.189056675e-12,1.093130528e-12,1.092806909e-11,1.542780566e-11,1.044453626e-11,6.063870177e-12,1.976936137e-11,1.441921089e-13,2.215713505e-11,2.845958341e-12,3.204637019e-11,2.589770387e-11
0.171875,6.055673875e-13,3.228406553e-12,6.097867942e-12,9.084796616e-12,4.310862872e-13,1.069123211e-12,5.3941659e-12,1.03243823e-11,8.120981105e-12,7.284611885e-13,3.04634331e-12,3.243156208e-12,2.177053139e-11,7.108292205e-12,9.472492326e-12,3.640825893e-12,4.875743004e-12,2.883220431e-12,1.525791365e-11,7.358909287e-13,2.240192756e-12,7.500138211e-13,7.391294905e-12,1.094726384e-11,7.235136296e-12,4.167812087e-12,1.361648994e-11,1.281706948e-13,1.523508393e-11,1.935877209e-12,2.184450494e-11,1.766068477e-11
0.1796875,4.891744266e-13,2.197636204e-12,4.242176154e-12,6.137089206e-12,3.2754393e-13,7.590428684e-13,3.644454392e-12,7.151085428e-12,5.489225146e-12,5.778613408e-13,2.140995807e-12,2.258506663e-12,1.461364439e-11,4.832285922e-12,6.488622518e-12,2.548062491e-12,3.665348385e-12,1.983180985e-12,1.064452562e-11,6.11665826e-13,1.605066468e-12,5.137359787e-13,4.987091179e-12,7.844489264e-12,5.007820057e-12,2.867975804e-12,9.359693221e-12,1.152126868e-13,1.045357191e-11,1.330223181e-12,1.481756142e-11,1.198353368e-11
0.1875,4.049204632e-13,1.492853659e-12,2.969210191e-12,4.109802061e-12,2.667631389e-13,5.357683164e-13,2.439892123e-12,4.910677822e-12,3.661458434e-12,4.623674239e-13,1.498257416e-12,1.563223983e-12,9.758714068e-12,3.23115031e-12,4.497250714e-12,1.928639296e-12,2.733257804e-12,1.35420811e-12,7.330065863e-12,5.252114028e-13,1.165572399e-12,3.549593137e-13,3.328155401e-12,5.768573161e-12,3.461391121e-12,1.953279542e-12,6.373968268e-12,1.084973185e-13,7.125094503e-12,8.897576607e-13,9.966585079e-12,8.070535312e-12
0.1953125,3.55097837e-13,1.006094539e-12,2.093781396e-12,2.72146145e-12,2.20192806e-13,3.636497084e-13,1.617378967e-12,3.345977675e-12,2.410462325e-12,3.54716942e-13,1.063542959e-12,1.074767839e-12,6.423987551e-12,2.139815327e-12,3.097014191e-12,1.556106689e-12,2.100412657e-12,9.171288798e-13,4.913901711e-12,4.552132743e-13,8.20319425e-13,2.408835083e-13,2.201196371e-12,4.197634369e-12,2.335206007e-12,1.310924742e-12,4.296985258e-12,1.073843353e-13,4.80313456e-12,5.822283262e-13,6.632390251e-12,5.364526841e-12
0.203125,3.07722619e-13,6.335161099e-13,1.420924017e-12,1.674852885e-12,1.71123404e-13,2.220745997e-13,1.058245749e-12,2.254516532e-12,1.495378004e-12,2.807249684e-13,6.889282291e-13,7.085574245e-13,4.096276755e-12,1.341680848e-12,2.2015381e-12,1.443761579e-12,1.516787225e-12,6.38409778e-13,3.284492767e-12,3.612366024e-13,5.337599458e-13,1.664516858e-13,1.378105574e-12,3.2623723e-12,1.524390597e-12,8.394859561e-13,2.723806035e-12,1.194781776e-13,3.097697478e-12,3.624324931e-13,4.329793416e-12,3.45640839e-12
0.2109375,2.720655808e-13,4.257451591e-13,9.642703649e-13,1.07742158e-12,1.206408002e-13,1.645269171e-13,7.105702155e-13,1.587733414e-12,9.61715957e-13,2.153001693e-13,5.170153164e-13,4.97962104e-13,2.644569776e-12,8.901559021e-13,1.527676391e-12,1.188048386e-12,1.236821021e-12,4.537000997e-13,2.431386602e-12,2.854805969e-13,3.385577434e-13,1.145896142e-13,8.85672654e-13,2.470821506e-12,1.031720424e-12,5.815066657e-13,1.827983665e-12,1.278396768e-13,2.078689742e-12,2.617406552e-13,2.872945686e-12,2.267304101e-12
0.21875,2.278113951e-13,2.996425628e-13,6.19876122e-13,6.983753185e-13,9.116149801e-14,1.657995377e-13,4.556009463e-13,1.078603571e-12,6.066307349e-13,1.928621484e-13,4.033206874e-13,3.550980612e-13,1.663242102e-12,5.869534165e-13,1.034635159e-12,8.358304173e-13,1.009193036e-12,3.081982926e-13,1.995627691e-12,2.575575773e-13,2.911544858e-13,8.317876818e-14,5.794695405e-13,2.021652258e-12,7.156538017e-13,4.049911065e-13,1.199840926e-12,1.188814487e-13,1.39686912e-12,1.906209115e-13,1.857298467e-12,1.456684216e-12
0.2265625,2.018280256e-13,2.165826128e-13,4.158584245e-13,4.516228891e-13,8.068463394e-14,1.679284185e-13,2.868255251e-13,6.993962739e-13,3.813470806e-13,1.80425114e-13,3.090221399e-13,2.481264061e-13,1.02696939e-12,3.999919011e-13,6.922301401e-13,5.447076753e-13,8.524893157e-13,2.160363996e-13,1.634798562e-12,2.524348977e-13,2.878361059e-13,6.106090551e-14,3.800353914e-13,1.657383088e-12,4.94594025e-13,2.664285727e-13,7.800512745e-13,1.053843898e-13,9.210141175e-13,1.456583787e-13,1.197196545e-12,9.28494071e-13
0.234375,1.931493081e-13,1.73482103e-13,2.975973352e-13,3.109071216e-13,7.540548398e-14,1.341461437e-13,1.754675824e-13,4.539161027e-13,2.378815446e-13,1.509615521e-13,2.665217508e-13,1.771428685e-13,6.346086447e-13,2.712963438e-13,4.722288088e-13,4.046251136e-13,7.276628781e-13,1.490572528e-13,1.168909171e-12,2.382761656e-13,2.398827296e-13,4.470546549e-14,2.461025361e-13,1.339930039e-12,3.316620558e-13,1.782972909e-13,5.267494182e-13,9.713904632e-14,6.140481097e-13,1.028664786e-13,7.559918209e-13,5.844504798e-13
0.2421875,1.933160523e-13,1.428940041e-13,2.172414575e-13,2.155287988e-13,6.296108513e-14,8.931056811e-14,1.194903076e-13,3.121142269e-13,1.461093715e-13,1.150378301e-13,2.437148357e-13,1.272572029e-13,3.981792349e-13,1.915912348e-13,3.447369864e-13,3.947499751e-13,6.210094941e-13,1.189409832e-13,7.227982616e-13,1.990872162e-13,1.489486856e-13,3.104974208e-14,1.592194153e-13,1.044598209e-12,2.194860512e-13,1.25362038e-13,3.725159138e-13,1.024066399e-13,4.043844711e-13,7.678676099e-14,4.96330488e-13,3.680443751e-13
0.25,1.845748926e-13,1.362713686e-13,1.567589236e-13,1.70050018e-13,4.601777753e-14,6.748639608e-14,8.492950908e-14,2.352314297e-13,8.834415218e-14,9.413873917e-14,2.437606665e-13,1.030430786e-13,2.616897998e-13,1.394613978e-13,2.74482476e-13,3.823955141e-13,5.14605408e-13,1.005392414e-13,4.896682421e-13,1.645075101e-13,8.330109275e-14,2.272089205e-14,1.143602928e-13,8.441880696e-13,1.588636499e-13,1.048518432e-13,2.909265045e-13,1.118898574e-13,2.779036309e-13,6.053362983e-14,3.295069857e-13,2.300589423e-13
0.2578125,1.667174904e-13,1.380949453e-13,1.160932286e-13,1.392682572e-13,3.039683012e-14,8.603385702e-14,6.620362952e-14,1.885663907e-13,5.26220409e-14,9.272017946e-14,2.46508222e-13,9.2552769e-14,1.758676999e-13,1.178383922e-13,2.3524784e-13,3.118210288e-13,4.127029709e-13,1.034635732e-13,5.925449243e-13,1.473873849e-13,6.326725766e-14,2.00367051e-14,8.680717262e-14,7.540383658e-13,1.420382143e-13,9.510588574e-14,2.412947938e-13,1.253863007e-13,1.955771592e-13,6.470839715e-14,2.472037384e-13,1.506849101e-13
0.265625,1.474663375e-13,1.349109079e-13,5.620946473e-14,1.014056981e-13,2.21145081e-14,1.300430038e-13,3.343751715e-14,1.327930582e-13,5.334515301e-15,9.025614871e-14,2.683325773e-13,7.237262845e-14,6.240194148e-14,7.92365438e-14,1.888516409e-13,2.064848311e-13,3.160314316e-13,1.026186688e-13,9.588002008e-13,1.385625768e-13,7.282964982e-14,1.670211834e-14,3.312331642e-14,6.49084936e-13,1.193148417e-13,8.829803315e-14,1.750703959e-13,1.433020882e-13,7.650784752e-14,8.285191133e-14,9.014449173e-14,2.198698799e-14
0.2734375,1.328133413e-13,1.45941097e-13,2.858806685e-14,1.130619509e-13,2.24858225e-14,1.523096348e-13,3.867106995e-14,1.136284883e-13,7.449304437e-15,8.976099554e-14,3.150619727e-13,6.969566725e-14,6.844400276e-14,8.776634787e-14,1.956580265e-13,1.701793768e-13,2.566509918e-13,1.224843282e-13,1.121882956e-12,1.33831694e-13,9.102852374e-14,1.642289349e-14,2.559030706e-14,6.525909766e-13,1.187301304e-13,9.120663007e-14,1.660683822e-13,1.584622325e-13,7.479400389e-14,1.050400848e-13,9.031085162e-14,1.760034289e-14
0.28125,1.316452824e-13,1.470545413e-13,3.246217025e-14,1.218062157e-13,2.892032817e-14,1.323137293e-13,3.376555032e-14,7.171865768e-14,8.306193355e-15,1.005559291e-13,3.391912383e-13,5.73524626e-14,5.226385334e-14,9.576832516e-14,1.994357e-13,1.468538094e-13,2.157091093e-13,1.392998267e-13,7.96453046e-13,1.520880884e-13,1.020583118e-13,1.392867714e-14,1.989939879e-14,6.24300697e-13,9.341083063e-14,8.015187054e-14,1.425979923e-13,1.62478951e-13,6.475844685e-14,1.004891314e-13,9.051773419e-14,1.269543749e-14
0.2890625,1.356360995e-13,1.528460534e-13,5.440227089e-14,1.340902151e-13,3.32575022e-14,1.158257325e-13,2.307468292e-14,2.721394163e-14,9.441027654e-15,1.192076559e-13,3.410992207e-13,5.020906211e-14,4.612257705e-14,1.022197849e-13,2.047923693e-13,1.321432468e-13,1.808225116e-13,1.557622869e-13,3.642283294e-13,1.863907876e-13,9.489608384e-14,1.226859191e-14,3.054695714e-14,5.643741502e-13,9.509028985e-14,7.05527345e-14,1.40739222e-13,1.662410755e-13,4.965765876e-14,8.17888095e-14,9.322301585e-14,1.232086429e-14
0.296875,1.363163584e-13,1.748323244e-13,6.389388424e-14,1.610787575e-13,3.091477333e-14,1.416496629e-13,1.958137577e-14,2.178650631e-14,1.00069817e-14,1.231365514e-13,3.687092249e-13,6.300099733e-14,4.849351227e-14,1.065688517e-13,2.06131808e-13,1.190953324e-13,1.538507119e-13,1.682365868e-13,3.143956439e-13,2.151315704e-13,6.748695142e-14,1.27215942e-14,5.012721765e-14,4.861187105e-13,1.43857738e-13,8.960006873e-14,1.925662063e-13,1.813778186e-13,6.168313789e-14,7.388498316e-14,9.62668388e-14,9.896343819e-15
0.3046875,1.289938494e-13,1.957767388e-13,5.58324991e-14,1.817225352e-13,2.594992723e-14,1.861262206e-13,2.717244951e-14,5.044377744e-14,9.861277111e-15,1.110961366e-13,4.18414785e-13,8.292362353e-14,4.780102588e-14,1.09237654e-13,2.120571599e-13,1.020813613e-13,1.305810322e-13,1.886959892e-13,6.17953617e-13,2.222097352e-13,3.676730917e-14,1.470461747e-14,5.633743172e-14,4.533335669e-13,1.97622592e-13,1.219923196e-13,2.49256378e-13,2.049319551e-13,8.52779093e-14,9.026557527e-14,1.077754183e-13,9.417365831e-15
0.3125,1.173691176e-13,2.098296249e-13,4.610308251e-14,2.000996891e-13,2.749125586e-14,2.006424311e-13,3.374653365e-14,6.221122007e-14,9.19392588e-15,1.023500997e-13,4.573321886e-13,9.448273372e-14,5.301685574e-14,1.062031029e-13,2.170876369e-13,8.180394852e-14,1.156857625e-13,2.03046747e-13,8.185051062e-13,2.31690459e-13,3.215199607e-14,1.629621817e-14,4.390597729e-14,4.697627633e-13,2.053469483e-13,1.358032918e-13,2.635222105e-13,2.156206124e-13,1.08400305e-13,1.05789355e-13,1.085017898e-13,9.497054866e-15
0.3203125,1.111678322e-13,2.060575828e-13,5.707784493e-14,1.997025569e-13,3.683094175e-14,1.914850296e-13,3.402407278e-14,5.139189666e-14,9.461948352e-15,1.101484341e-13,4.437915432e-13,8.99877593e-14,4.845749935e-14,1.058922339e-13,2.18086053e-13,5.95685076e-14,1.141264923e-13,2.194851005e-13,7.701880181e-13,2.559058148e-13,5.573667019e-14,1.725812272e-14,2.70819741e-14,5.031317998e-13,1.809036911e-13,1.164664778e-13,2.199393486e-13,2.07932922e-13,1.036220811e-13,1.084167484e-13,1.142786116e-13,1.415289412e-14
0.328125,1.128134281e-13,2.0516917e-13,8.750689767e-14,2.048539497e-13,4.938691231e-14,1.904950677e-13,2.610694789e-14,5.501776285e-14,8.985834517e-15,1.201551288e-13,4.113968002e-13,8.825528883e-14,5.245482366e-14,1.037164135e-13,2.116832789e-13,6.133976712e-14,1.247437671e-13,2.289337006e-13,6.506768814e-13,2.87648399e-13,8.079919463e-14,1.926368372e-14,1.674500247e-14,4.899762873e-13,1.821365472e-13,9.47980949e-14,1.852258974e-13,1.941755425e-13,1.037456427e-13,9.722317388e-14,1.062776236e-13,1.707511385e-14
0.3359375,1.205439051e-13,2.084459067e-13,1.186251901e-13,2.086683132e-13,5.861002133e-14,2.159615678e-13,1.882793063e-14,6.780527234e-14,1.036383797e-14,1.16297712e-13,3.897397423e-13,9.505973996e-14,5.172592628e-14,1.102619399e-13,1.982304662e-13,8.129529686e-14,1.512861198e-13,2.44380255e-13,6.161743632e-13,3.103731501e-13,8.208189924e-14,2.184788859e-14,1.760075351e-14,4.323962211e-13,2.089596262e-13,8.58018948e-14,1.757252491e-13,1.880944535e-13,1.101953934e-13,9.22409454e-14,1.093457422e-13,2.003720185e-14
0.34375,1.289932997e-13,2.193961834e-13,1.219410163e-13,2.227626442e-13,6.285981816e-14,2.495540482e-13,1.607706232e-14,5.544521955e-14,1.043106715e-14,1.005216017e-13,3.865105315e-13,1.06230604e-13,5.98825824e-14,1.160639218e-13,1.932018342e-13,1.032110553e-13,1.808360631e-13,2.580288095e-13,6.143465462e-13,3.233687627e-13,6.181166878e-14,2.504023079e-14,2.485512636e-14,3.632803104e-13,2.305957398e-13,8.836648158e-14,1.792350176e-13,1.872836384e-13,1.270523378e-13,9.55447716e-14,1.092043333e-13,1.746298865e-14
0.3515625,1.378196375e-13,2.26046698e-13,1.210614135e-13,2.336603387e-13,6.78759051e-14,2.716272768e-13,1.491273561e-14,2.606693563e-14,1.183290154e-14,8.960045968e-14,3.797726242e-13,1.108312389e-13,6.359705416e-14,1.262683238e-13,1.9001449e-13,1.126161735e-13,2.165125042e-13,2.716891303e-13,5.564267228e-13,3.419257218e-13,4.469833528e-14,2.748330162e-14,3.046137946e-14,3.244687481e-13,2.227520775e-13,8.836284914e-14,1.667199441e-13,1.816274091e-13,1.387780403e-13,9.908569856e-14,1.114151548e-13,1.493740894e-14
0.359375,1.487728528e-13,2.268242533e-13,1.528374353e-13,2.462648324e-13,8.145542333e-14,2.724452691e-13,1.384548499e-14,1.191579814e-14,1.192250229e-14,8.904726177e-14,3.562956758e-13,1.080370133e-13,7.273881178e-14,1.309911338e-13,2.056733688e-13,1.407970714e-13,2.576280592e-13,2.774166224e-13,4.501357309e-13,3.755373336e-13,4.904049939e-14,3.05374003e-14,2.933686723e-14,3.119850207e-13,1.972632362e-13,8.136958504e-14,1.391532728e-13,1.665085423e-13,1.473142738e-13,9.277385151e-14,1.025336596e-13,1.426260358e-14
0.3671875,1.565421812e-13,2.241602615e-13,2.114361032e-13,2.548408699e-13,1.002594207e-13,2.758163607e-13,1.106643724e-14,2.362861201e-14,1.244867321e-14,9.112031003e-14,3.284970998e-13,1.055492256e-13,7.94944806e-14,1.350672568e-13,2.231704333e-13,1.902115904e-13,3.046030489e-13,2.752122086e-13,4.195353241e-13,4.095439709e-13,7.09092808e-14,3.358677148e-14,2.464056509e-14,3.053681846e-13,1.762864748e-13,6.879057638e-14,1.076058149e-13,1.48599974e-13,1.495933573e-13,8.16999034e-14,8.722118387e-14,1.271144099e-14
0.375,1.553050313e-13,2.255590912e-13,2.378764138e-13,2.653338619e-13,1.108625153e-13,3.078524776e-13,9.846057176e-15,4.363496181e-14,1.157479254e-14,8.957465871e-14,3.142928038e-13,1.143142379e-13,8.67753382e-14,1.362116062e-13,2.533526734e-13,2.274134778e-13,3.442784411e-13,2.68376056e-13,5.51956224e-13,4.203593073e-13,8.842942486e-14,3.873049175e-14,1.884623928e-14,2.927103589e-13,1.918362038e-13,6.482425265e-14,9.656784229e-14,1.369211293e-13,1.657221828e-13,7.732861753e-14,7.218018336e-14,1.178518684e-14
0.3828125,1.460144389e-13,2.273016064e-13,2.05919145e-13,2.701490756e-13,1.070927202e-13,3.66165097e-13,7.778051719e-15,5.211737033e-14,1.204915615e-14,8.618990615e-14,3.148142553e-13,1.293357952e-13,8.904922666e-14,1.39045982e-13,2.775058145e-13,2.232781249e-13,3.747680419e-13,2.583820483e-13,7.871792209e-13,4.051619651e-13,9.419599801e-14,4.486885766e-14,1.525795087e-14,2.851989375e-13,2.351514614e-13,7.116896528e-14,1.037898383e-13,1.296831838e-13,1.929991366e-13,8.221341857e-14,6.191418175e-14,1.04661001e-14
0.390625,1.349349094e-13,2.185728231e-13,1.563202001e-13,2.614195647e-13,9.789662909e-14,4.048558487e-13,7.902124635e-15,4.335849164e-14,1.173823744e-14,8.541360253e-14,3.110218978e-13,1.361334462e-13,8.292877858e-14,1.406562279e-13,3.016029139e-13,2.066588728e-13,3.983473557e-13,2.453062944e-13,9.214159798e-13,3.823552476e-13,9.35600806e-14,5.107243888e-14,1.531378582e-14,2.776945444e-13,2.620714869e-13,7.721274515e-14,1.071707191e-13,1.212244426e-13,2.122284106e-13,8.777542418e-14,5.73968881e-14,1.005493701e-14
0.3984375,1.26377357e-13,1.958026956e-13,1.339653366e-13,2.374528139e-13,9.410351244e-14,3.923167656e-13,8.669572094e-15,2.481610576e-14,1.303756862e-14,8.775466462e-14,2.979465221e-13,1.262875032e-13,7.191945897e-14,1.401155524e-13,3.167112586e-13,2.124928078e-13,4.188640886e-13,2.2710283e-13,8.267947411e-13,3.650957068e-13,9.087561094e-14,5.404880041e-14,1.744763976e-14,2.690575421e-13,2.420786121e-13,7.291845531e-14,9.319412859e-14,1.092209784e-13,2.051596543e-13,8.424735162e-14,5.470371218e-14,9.654968418e-15
0.40625,1.204141488e-13,1.660236486e-13,1.357659324e-13,2.07093189e-13,9.651339942e-14,3.426054929e-13,1.125724247e-14,8.685693312e-15,1.361519484e-14,9.401624179e-14,2.830589019e-13,1.079800191e-13,6.205940617e-14,1.329469098e-13,3.283733333e-13,2.43986514e-13,4.316820063e-13,2.042022115e-13,5.884488375e-13,3.588830163e-13,8.801775158e-14,5.438029182e-14,2.183564768e-14,2.65899895e-13,1.952400861e-13,6.184916195e-14,7.089207916e-14,9.750451943e-14,1.818801469e-13,7.096002718e-14,5.110860921e-14,1.102598325e-14
0.4140625,1.148518678e-13,1.36933e-13,1.415357791e-13,1.769656041e-13,1.013586077e-13,2.979214419e-13,1.382866238e-14,4.724064104e-15,1.350809034e-14,1.070041608e-13,2.659875104e-13,9.119481045e-14,5.528212789e-14,1.209061424e-13,3.339323233e-13,2.677699928e-13,4.290796866e-13,1.820856034e-13,4.298092663e-13,3.637444425e-13,1.012382768e-13,5.374422635e-14,2.74732338e-14,2.837902529e-13,1.551635425e-13,4.965574693e-14,5.002026027e-14,8.779580581e-14,1.548871571e-13,5.580491506e-14,4.740074653e-14,1.350973701e-14
0.421875,1.073648002e-13,1.143675995e-13,1.406630966e-13,1.533182408e-13,1.051087549e-13,2.740827329e-13,1.53434026e-14,1.675430053e-14,1.188300536e-14,1.251442204e-13,2.508528408e-13,8.294474747e-14,5.408857761e-14,1.054627767e-13,3.361495978e-13,2.705714549e-13,4.118988518e-13,1.619655282e-13,4.497282313e-13,3.812837082e-13,1.363245573e-13,5.502040386e-14,3.327451452e-14,3.285307899e-13,1.37712041e-13,4.38625761e-14,3.85202689e-14,7.985273824e-14,1.414373562e-13,4.463796871e-14,4.546591647e-14,1.877336931e-14
0.4296875,9.863677472e-14,9.65409383e-14,1.319297834e-13,1.323429692e-13,1.047210092e-13,2.587824067e-13,1.617410876e-14,3.640685022e-14,1.004872736e-14,1.394646883e-13,2.402454639e-13,7.980943114e-14,5.207935047e-14,9.037796208e-14,3.280731957e-13,2.589363507e-13,3.894121376e-13,1.472057156e-13,5.619916193e-13,3.961823664e-13,1.724387962e-13,5.698243912e-14,3.305332418e-14,3.828956629e-13,1.298228366e-13,4.538858537e-14,3.607342703e-14,7.546420812e-14,1.386679392e-13,3.980146314e-14,4.614572283e-14,2.508021513e-14
0.4375,9.002803084e-14,8.395169945e-14,1.094505107e-13,1.173252147e-13,1.00475721e-13,2.33109658e-13,1.808108571e-14,4.813281933e-14,8.672361062e-15,1.425569606e-13,2.440241074e-13,7.847591753e-14,4.970351584e-14,7.583046319e-14,3.130664443e-13,2.575842648e-13,3.677175947e-13,1.352881962e-13,6.187563199e-13,4.00891282e-13,1.813373388e-13,5.709458293e-14,2.939306403e-14,4.136353789e-13,1.202050411e-13,5.295360053e-14,4.02818327e-14,7.64556852e-14,1.425075684e-13,3.879974962e-14,4.709998932e-14,2.813714084e-14
0.4453125,8.449250885e-14,7.157977039e-14,8.737455191e-14,1.027820021e-13,9.739945404e-14,1.937137093e-13,2.180536004e-14,4.594041371e-14,7.671105007e-15,1.359034293e-13,2.446456243e-13,7.301892428e-14,4.607953995e-14,6.391138155e-14,2.904617164e-13,2.67231557e-13,3.491577539e-13,1.265366796e-13,5.657581905e-13,3.926995737e-13,1.665163343e-13,5.399407774e-14,2.586384912e-14,4.191254289e-13,9.970252129e-14,5.726287541e-14,4.0901892e-14,7.867624633e-14,1.391659021e-13,3.797164531e-14,4.926312883e-14,2.911921961e-14
0.453125,8.063368735e-14,5.966486698e-14,7.659102203e-14,8.964368749e-14,9.87757442e-14,1.505748467e-13,2.361026405e-14,3.459470989e-14,7.463163554e-15,1.284316706e-13,2.331412742e-13,6.493753513e-14,4.212134599e-14,5.378504095e-14,2.670193169e-13,2.719430571e-13,3.29097367e-13,1.176133025e-13,4.516796334e-13,3.817887927e-13,1.521052498e-13,4.89602372e-14,2.473677556e-14,4.172494745e-13,7.671230275e-14,5.566704578e-14,3.608617752e-14,7.79240639e-14,1.274483045e-13,3.642760273e-14,5.129721135e-14,2.916299339e-14
0.4609375,7.595917118e-14,4.997705925e-14,7.735372791e-14,7.92107465e-14,1.02518399e-13,1.187370464e-13,2.212065915e-14,2.523935246e-14,7.035220801e-15,1.225656453e-13,2.057688047e-13,5.923422523e-14,3.983183142e-14,4.685914747e-14,2.428460733e-13,2.555998644e-13,3.053320368e-13,1.068851707e-13,3.646606741e-13,3.647798861e-13,1.512373891e-13,4.444554158e-14,2.707125418e-14,4.152068528e-13,6.061937901e-14,5.357116007e-14,3.292929879e-14,7.311141306e-14,1.148750182e-13,3.537749167e-14,5.223657625e-14,3.031772607e-14
0.46875,6.964205814e-14,4.30233976e-14,7.671787257e-14,7.126270998e-14,1.032804695e-13,1.019700517e-13,1.786687284e-14,2.367553223e-14,7.798985008e-15,1.167311251e-13,1.73912339e-13,5.841958408e-14,3.447453577e-14,4.330909572e-14,2.163985929e-13,2.255594119e-13,2.782207211e-13,9.454638661e-14,3.397162951e-13,3.374017545e-13,1.545411763e-13,4.047857827e-14,3.027982034e-14,4.009791567e-13,5.522578594e-14,5.588303056e-14,3.542112281e-14,6.702831791e-14,1.047452712e-13,3.89600717e-14,5.289757259e-14,2.873344453e-14
0.4765625,6.29802578e-14,3.957260005e-14,6.967763093e-14,6.878046973e-14,9.90025587e-14,9.251873759e-14,1.383913769e-14,2.947997665e-14,8.149564603e-15,1.069137958e-13,1.456926247e-13,6.290041874e-14,3.207798423e-14,4.147281866e-14,1.930418272e-13,2.025774241e-13,2.516875914e-13,7.99675247e-14,3.410297006e-13,2.962154407e-13,1.474813402e-13,3.745963992e-14,3.40379164e-14,3.672215871e-13,5.541040193e-14,6.454255392e-14,4.592395291e-14,6.076814381e-14,1.040241988e-13,4.356972074e-14,5.123005995e-14,2.537088369e-14
0.484375,5.714735372e-14,3.723428316e-14,6.253842073e-14,6.704278094e-14,9.21431555e-14,8.237038111e-14,1.189440832e-14,3.785373808e-14,9.168963299e-15,9.366772122e-14,1.20145871e-13,6.812036698e-14,2.98135897e-14,4.232333817e-14,1.72992576e-13,1.959746761e-13,2.251231042e-13,6.755154369e-14,3.422213703e-13,2.467231107e-13,1.276953652e-13,3.459315889e-14,3.420477809e-14,3.240895465e-13,5.208006702e-14,7.260260463e-14,5.492178004e-14,5.446383761e-14,1.037748927e-13,4.957830831e-14,5.385763184e-14,2.230677971e-14
0.4921875,5.142145425e-14,3.791799783e-14,5.987124702e-14,7.117621615e-14,8.690871878e-14,6.911830207e-14,1.114829947e-14,4.920476408e-14,8.379505188e-15,8.044078446e-14,1.002169057e-13,7.564790247e-14,3.416542608e-14,4.016415993e-14,1.628085768e-13,1.987326982e-13,1.959131301e-13,5.497049045e-14,3.446410738e-13,1.996483409e-13,1.066334546e-13,3.309703202e-14,3.263854727e-14,2.872306221e-13,4.774236754e-14,8.167838071e-14,6.673948525e-14,4.716797308e-14,1.125403083e-13,5.359333994e-14,5.460827802e-14,2.182835507e-14
0.5,4.576082175e-14,3.89796964e-14,6.32096058e-14,7.411197361e-14,8.425737596e-14,6.095798474e-14,1.062144434e-14,6.329475058e-14,8.284962265e-15,7.004243746e-14,7.90418977e-14,8.283674931e-14,3.813764355e-14,3.988136761e-14,1.556828859e-13,1.967157875e-13,1.655308384e-13,4.469364493e-14,3.829052482e-13,1.570487849e-13,9.508300821e-14,3.22124072e-14,2.872955502e-14,2.622437816e-13,4.583915409e-14,8.825565088e-14,7.667587707e-14,3.875711245e-14,1.182883011e-13,5.904318724e-14,6.057091673e-14,2.350600304e-14
0.5078125,3.989970179e-14,4.156250973e-14,6.665210566e-14,8.016234739e-14,8.4154535e-14,5.813903496e-14,9.139201467e-15,7.686711316e-14,8.119429027e-15,6.404427871e-14,6.265573416e-14,9.131341886e-14,4.367899384e-14,3.931875434e-14,1.499978938e-13,1.865974957e-13,1.376983842e-13,3.609278487e-14,4.332269793e-13,1.233611169e-13,9.307128967e-14,3.166854327e-14,2.738536101e-14,2.415213232e-13,4.999262658e-14,9.731116923e-14,9.039260318e-14,3.156406054e-14,1.271897801e-13,6.346215215e-14,6.434578343e-14,2.45407308e-14
0.515625,3.482922653e-14,4.169138237e-14,6.533078925e-14,8.126785742e-14,8.437081735e-14,5.737285255e-14,7.919430391e-15,8.017703676e-14,8.576140471e-15,6.100701022e-14,4.766270144e-14,9.559871604e-14,4.456230787e-14,4.184134002e-14,1.396648634e-13,1.782315407e-13,1.142109459e-13,3.053200819e-14,4.48138198e-13,9.331883287e-14,9.146936311e-14,3.019103619e-14,2.627775495e-14,2.193644752e-13,5.364566564e-14,1.026798717e-13,9.658421246e-14,2.590883664e-14,1.266662966e-13,6.523896182e-14,7.303463928e-14,2.412469027e-14
0.5234375,3.169757833e-14,4.185297613e-14,5.773195071e-14,8.447454606e-14,8.44553282e-14,5.216677858e-14,7.44751378e-15,7.044823618e-14,8.359778718e-15,5.903838589e-14,3.767725716e-14,9.720873426e-14,4.690835521e-14,4.315204039e-14,1.291373241e-13,1.789267098e-13,9.752985977e-14,2.628695544e-14,3.912752665e-13,6.996740269e-14,8.393770815e-14,2.800530841e-14,2.701035887e-14,1.927807468e-13,5.411446241e-14,1.064899169e-13,9.949684454e-14,2.17540222e-14,1.253503901e-13,6.155418878e-14,7.937530217e-14,2.23769459e-14
0.53125,3.023979248e-14,4.063875854e-14,4.780343978e-14,8.518277366e-14,8.475314765e-14,4.46523839e-14,7.561114093e-15,5.659499619e-14,8.118248709e-15,5.907727789e-14,3.110435965e-14,9.512982655e-14,4.906484262e-14,4.455626863e-14,1.171822498e-13,1.84502555e-13,8.669835981e-14,2.39690123e-14,3.109710883e-13,5.521821139e-14,7.516598411e-14,2.52314432e-14,2.651483739e-14,1.717375772e-13,5.135866034e-14,1.070203448e-13,9.693224982e-14,1.768431097e-14,1.205346742e-13,5.587202917e-14,8.998639354e-14,2.158603361e-14
0.5390625,2.998863935e-14,4.057266674e-14,4.114285804e-14,8.692912626e-14,8.608515095e-14,4.228356492e-14,6.309579488e-15,5.272215851e-14,7.848569557e-15,6.078700294e-14,2.947458085e-14,9.360411844e-14,5.194787243e-14,4.533407817e-14,1.025469086e-13,1.830571784e-13,8.184623031e-14,2.277802868e-14,2.760161151e-13,4.976480328e-14,7.242337507e-14,2.244430792e-14,2.727223084e-14,1.544919695e-13,5.01820658e-14,1.090411342e-13,9.71014465e-14,1.395125835e-14,1.176741395e-13,5.237053116e-14,9.58734643e-14,1.860761526e-14
0.546875,3.040155073e-14,4.000435074e-14,4.109572421e-14,8.50507466e-14,8.900024818e-14,4.445908117e-14,4.919493087e-15,5.77441583e-14,8.325203842e-15,6.366666853e-14,3.075782727e-14,9.083661389e-14,5.32146129e-14,4.791052387e-14,8.484005266e-14,1.794894672e-13,8.054707684e-14,2.395155361e-14,2.820383376e-13,5.397322565e-14,7.527139176e-14,1.941198316e-14,2.7387523e-14,1.44548167e-13,4.920317175e-14,1.106409993e-13,9.68433779e-14,1.168377703e-14,1.131772199e-13,5.112941185e-14,1.063421916e-13,1.627277279e-14
0.5546875,3.096326666e-14,4.053505317e-14,4.59873978e-14,8.496099173e-14,9.395542809e-14,4.589785216e-14,4.525796571e-15,6.022485703e-14,8.770899839e-15,6.568966414e-14,3.615641125e-14,8.676644805e-14,5.658640937e-14,4.958172614e-14,6.849467591e-14,1.838654785e-13,8.145874932e-14,2.63268266e-14,2.695689264e-13,6.498843319e-14,7.835036976e-14,1.612686104e-14,2.817772224e-14,1.363701613e-13,4.366325923e-14,1.112821063e-13,9.62556304e-14,1.117471185e-14,1.082781605e-13,4.836952322e-14,1.153284102e-13,1.377226985e-14
0.5625,3.164472117e-14,4.130880608e-14,5.130490468e-14,8.498612285e-14,1.010177341e-13,4.352324331e-14,4.927651852e-15,5.655448752e-14,8.696302529e-15,6.755696973e-14,4.2280339e-14,8.056551994e-14,5.912326478e-14,5.109299275e-14,5.668097972e-14,1.918171549e-13,8.508195472e-14,3.050765969e-14,2.060300159e-13,8.206606515e-14,8.045086381e-14,1.301673117e-14,2.796785396e-14,1.333172165e-13,3.444686225e-14,1.096266926e-13,9.197466205e-14,1.185821493e-14,1.042748053e-13,4.259244402e-14,1.252433836e-13,1.341077602e-14
0.5703125,3.212767651e-14,4.366005096e-14,5.319091728e-14,8.912515198e-14,1.09212661e-13,4.064342537e-14,5.676832948e-15,5.713310322e-14,7.900491609e-15,7.073409324e-14,4.976714609e-14,7.458134549e-14,6.581938484e-14,4.940359975e-14,4.818669464e-14,1.921041496e-13,9.022586216e-14,3.543850368e-14,1.42239687e-13,1.040552217e-13,8.694755614e-14,1.033733089e-14,3.112006202e-14,1.33310383e-13,2.679648981e-14,1.079568056e-13,8.75453225e-14,1.352745149e-14,1.037876224e-13,3.625366761e-14,1.256122632e-13,1.267946963e-14
0.578125,3.304307306e-14,4.61772369e-14,5.696608073e-14,9.289542981e-14,1.19823322e-13,4.33072088e-14,6.824842873e-15,6.613773582e-14,7.26739285e-15,7.395433737e-14,5.728503915e-14,6.942948118e-14,7.05391955e-14,4.842265362e-14,4.113284791e-14,1.810750383e-13,9.888530127e-14,4.219485621e-14,1.2225426e-13,1.341591198e-13,1.001258253e-13,8.436546976e-15,3.526671924e-14,1.367801014e-13,2.370000284e-14,1.070131206e-13,8.31602115e-14,1.618304155e-14,1.053766103e-13,3.309119226e-14,1.227939851e-13,1.270104937e-14
0.5859375,3.544780165e-14,4.978510748e-14,6.187566439e-14,9.696555429e-14,1.308776322e-13,5.134827276e-14,7.818197923e-15,7.154022276e-14,6.531457615e-15,7.402181945e-14,6.800687557e-14,6.659965673e-14,7.439848001e-14,4.7645248e-14,3.745084018e-14,1.708235074e-13,1.091672045e-13,4.959212343e-14,1.203816509e-13,1.704883531e-13,1.110033108e-13,7.393457118e-15,3.554563264e-14,1.37905409e-13,2.391288322e-14,1.093482431e-13,8.264683247e-14,1.992060956e-14,1.105423731e-13,3.268152701e-14,1.186911429e-13,1.22898542e-14
0.59375,3.956414242e-14,5.228335033e-14,6.461960246e-14,9.66513594e-14,1.394925048e-13,6.089501243e-14,8.605710221e-15,6.802541841e-14,6.254757175e-15,7.031902092e-14,8.270446311e-14,6.552655304e-14,6.992202557e-14,5.004712349e-14,3.45349029e-14,1.672071897e-13,1.208562367e-13,5.997220275e-14,9.536953327e-14,2.11283308e-13,1.109891826e-13,6.737641968e-15,2.999845382e-14,1.342861047e-13,2.293561703e-14,1.153789067e-13,8.388053766e-14,2.519865606e-14,1.178179307e-13,3.418177562e-14,1.197979935e-13,1.257381962e-14
0.6015625,4.43561588e-14,5.398077082e-14,6.011809978e-14,9.435765372e-14,1.415808853e-13,6.589439208e-14,1.069581587e-14,7.062246724e-14,6.407752611e-15,6.48370121e-14,1.013950918e-13,6.57039574e-14,6.412188796e-14,5.217181388e-14,3.574359266e-14,1.745540574e-13,1.306167884e-13,7.069136698e-14,6.688184098e-14,2.452240296e-13,1.003460899e-13,6.558119876e-15,2.392702735e-14,1.275969929e-13,2.144253409e-14,1.25645408e-13,8.520130999e-14,3.195477858e-14,1.281690139e-13,3.788344678e-14,1.213625206e-13,1.297129835e-14
0.609375,4.984873189e-14,5.465605652e-14,5.969365823e-14,9.125029198e-14,1.407951804e-13,6.540377404e-14,1.440515708e-14,8.786411402e-14,6.882930555e-15,6.122595542e-14,1.232559171e-13,6.501295908e-14,5.824913288e-14,5.30619042e-14,3.984226596e-14,1.851484638e-13,1.393617177e-13,8.271468239e-14,6.670469705e-14,2.739672143e-13,9.178260927e-14,6.646643648e-15,2.103913991e-14,1.209985317e-13,1.986136669e-14,1.373162569e-13,8.51523718e-14,4.012358711e-14,1.371290244e-13,4.47665562e-14,1.183530106e-13,1.297679783e-14
0.6171875,5.640429216e-14,5.556758272e-14,6.772071375e-14,8.894976412e-14,1.421211099e-13,6.444044743e-14,1.672924491e-14,1.024474135e-13,7.710667446e-15,6.016904586e-14,1.471087531e-13,6.257851841e-14,5.555267469e-14,5.22917954e-14,4.722602688e-14,1.883287474e-13,1.462445461e-13,9.275533329e-14,8.079829026e-14,3.030847237e-13,9.285841588e-14,7.241825436e-15,1.912435325e-14,1.177905163e-13,1.999925291e-14,1.463611505e-13,8.387465761e-14,4.738674947e-14,1.438102064e-13,5.218870841e-14,1.101795837e-13,1.234963875e-14
0.625,6.556770526e-14,5.699453159e-14,7.975920746e-14,8.724816524e-14,1.458206586e-13,7.001858407e-14,1.659074679e-14,9.320570335e-14,8.550113843e-15,6.066329511e-14,1.701757045e-13,5.917694865e-14,5.40224894e-14,5.242733449e-14,5.726578933e-14,1.810990797e-13,1.534340094e-13,1.025275191e-13,8.137709596e-14,3.335589298e-13,9.957319469e-14,8.234961183e-15,1.769648942e-14,1.105061323e-13,2.128645375e-14,1.512982786e-13,8.257570768e-14,5.315920824e-14,1.460113194e-13,5.93529415e-14,9.977020625e-14,1.069120921e-14
0.6328125,7.53159433e-14,5.905237424e-14,8.792774583e-14,8.565882318e-14,1.470384718e-13,7.885946972e-14,1.559333863e-14,7.260683203e-14,1.026361348e-14,6.008840267e-14,1.960461207e-13,5.748324348e-14,5.211561794e-14,5.602011111e-14,7.174563901e-14,1.766806381e-13,1.62198963e-13,1.130069815e-13,8.085216074e-14,3.583369991e-13,9.950577272e-14,9.708480604e-15,1.592970457e-14,1.052604615e-13,2.481525958e-14,1.580094471e-13,8.443835848e-14,5.885314846e-14,1.491020748e-13,6.740972775e-14,9.373433357e-14,9.634567255e-15
0.640625,8.307629992e-14,6.131565377e-14,9.245424528e-14,8.406617203e-14,1.435114451e-13,8.335055214e-14,1.790487576e-14,6.62350815e-14,1.163431223e-14,5.673377434e-14,2.237242435e-13,5.867738033e-14,5.017366173e-14,6.123459772e-14,9.514314538e-14,1.887154007e-13,1.730191077e-13,1.259478387e-13,1.170747336e-13,3.693040439e-13,8.686384606e-14,1.177019117e-14,1.33396343e-14,9.815624667e-14,3.016368416e-14,1.705638853e-13,9.068771542e-14,6.611897984e-14,1.543811906e-13,8.080950578e-14,9.024597277e-14,8.531031108e-15
0.6484375,8.764234254e-14,6.373551435e-14,9.539139575e-14,8.30481725e-14,1.37797276e-13,8.301866423e-14,2.307440524e-14,8.099621196e-14,1.392135737e-14,5.333419155e-14,2.503757418e-13,6.149564199e-14,4.812151066e-14,6.96461367e-14,1.261550714e-13,2.129237804e-13,1.856214061e-13,1.395124808e-13,1.852580742e-13,3.710243396e-13,6.866777437e-14,1.433252399e-14,1.110335292e-14,9.414403154e-14,3.839768136e-14,1.879229933e-13,1.003233239e-13,7.381328801e-14,1.597940543e-13,9.705836424e-14,9.365071015e-14,8.533708183e-15
0.65625,9.125768629e-14,6.531117102e-14,1.018265038e-13,8.325351036e-14,1.356481086e-13,8.255621385e-14,2.71636563e-14,9.554572794e-14,1.590763876e-14,5.404786588e-14,2.637201869e-13,6.39206035e-14,4.953613434e-14,7.964549196e-14,1.662922199e-13,2.388169908e-13,2.013471553e-13,1.501274677e-13,2.254802226e-13,3.744962829e-13,5.646172292e-14,1.704193485e-14,1.036274639e-14,8.587806229e-14,4.968005741e-14,2.025660888e-13,1.097508836e-13,7.813536277e-14,1.610796655e-13,1.078098991e-13,9.75258642e-14,8.854127945e-15
0.6640625,9.397498042e-14,6.635540557e-14,1.182081358e-13,8.493249906e-14,1.399020535e-13,8.393905124e-14,2.587717806e-14,8.996627146e-14,1.753137354e-14,5.817469789e-14,2.647778425e-13,6.404723027e-14,5.185252904e-14,9.157489261e-14,2.106677667e-13,2.613343068e-13,2.200683856e-13,1.552507318e-13,2.106114926e-13,3.844527497e-13,5.430020453e-14,1.964831198e-14,9.870624668e-15,7.89074818e-14,5.896180898e-14,2.093571862e-13,1.145107959e-13,7.808201892e-14,1.567303346e-13,1.076890387e-13,9.817071411e-14,8.881616797e-15
0.671875,9.342430746e-14,6.726146312e-14,1.419632888e-13,8.817862598e-14,1.474156096e-13,8.706145056e-14,2.316458807e-14,6.790739553e-14,1.785393857e-14,5.974088274e-14,2.609619828e-13,6.227045645e-14,5.746997824e-14,1.024735237e-13,2.616674215e-13,2.997335631e-13,2.422969828e-13,1.555236517e-13,1.925292296e-13,3.909449668e-13,5.596893967e-14,2.213493073e-14,8.888329799e-15,7.61500337e-14,6.250457515e-14,2.095203596e-13,1.150662543e-13,7.645128004e-14,1.511707403e-13,1.022649479e-13,9.282767968e-14,8.131599622e-15
0.6796875,8.79855055e-14,6.79221782e-14,1.580137727e-13,9.043467494e-14,1.507113786e-13,9.555681536e-14,2.372459749e-14,5.607041838e-14,1.8185394e-14,5.601059538e-14,2.572628173e-13,6.145534694e-14,6.213629865e-14,1.152835898e-13,3.108723477e-13,3.490427552e-13,2.673460275e-13,1.54568754e-13,2.387298899e-13,3.818467471e-13,5.143444844e-14,2.469237132e-14,8.805338647e-15,7.531552644e-14,6.787557862e-14,2.118269703e-13,1.162140594e-13,7.647244396e-14,1.482834762e-13,1.007514038e-13,9.007723147e-14,7.477768229e-15
0.6875,7.95726762e-14,6.93636269e-14,1.545952312e-13,9.259002256e-14,1.457366273e-13,1.098156267e-13,2.632958669e-14,6.439318045e-14,1.880988388e-14,5.211305143e-14,2.471667241e-13,6.373426557e-14,6.58347089e-14,1.295329833e-13,3.535208471e-13,3.838311906e-13,2.919100328e-13,1.521675428e-13,3.221257062e-13,3.600073343e-13,4.027563835e-14,2.759091745e-14,1.087433754e-14,7.313597654e-14,8.25709559e-14,2.19396285e-13,1.247592918e-13,7.703002817e-14,1.497461406e-13,1.016682333e-13,9.057081936e-14,6.796468371e-15
0.6953125,7.124693439e-14,7.04634329e-14,1.420711334e-13,9.299160274e-14,1.367905917e-13,1.25793302e-13,2.645405252e-14,7.033382951e-14,2.020267818e-14,5.157789886e-14,2.217835744e-13,6.57799556e-14,6.674141494e-14,1.457733051e-13,3.824173495e-13,3.81692964e-13,3.148181805e-13,1.475371619e-13,3.662815977e-13,3.366009437e-13,2.921136142e-14,3.044645449e-14,1.436212868e-14,6.995521449e-14,9.813692068e-14,2.228722478e-13,1.329934475e-13,7.506047424e-14,1.471918112e-13,1.000180168e-13,9.612630358e-14,6.792160647e-15
0.703125,6.419404451e-14,7.217736937e-14,1.407816382e-13,9.473671968e-14,1.307892678e-13,1.36101997e-13,2.322898939e-14,5.695844846e-14,2.120706995e-14,4.974125331e-14,1.894273388e-13,6.510239987e-14,6.914893056e-14,1.581356136e-13,4.045936192e-13,3.716290887e-13,3.318881821e-13,1.396075392e-13,3.371689031e-13,3.188034027e-13,2.209417464e-14,3.291972527e-14,1.627690369e-14,6.723852597e-14,1.035635518e-13,2.161039015e-13,1.37703564e-13,7.146015697e-14,1.411488588e-13,9.21225659e-14,9.850374627e-14,6.611460371e-15
0.7109375,5.845584143e-14,7.283366129e-14,1.538775745e-13,9.56770712e-14,1.263610828e-13,1.412542878e-13,2.075715427e-14,3.969417593e-14,2.119818446e-14,4.27135731e-14,1.577986312e-13,6.048880843e-14,7.231659913e-14,1.651963347e-13,4.197779719e-13,3.772962323e-13,3.417330585e-13,1.315294299e-13,2.816460718e-13,2.985401495e-13,1.779618623e-14,3.452421875e-14,1.689507917e-14,6.63234917e-14,1.011347014e-13,1.993782083e-13,1.346319401e-13,6.895819577e-14,1.314094995e-13,8.103668299e-14,9.740803318e-14,7.017276411e-15
0.71875,5.327947006e-14,7.410743125e-14,1.651539799e-13,9.878755171e-14,1.173776323e-13,1.459257319e-13,2.152522144e-14,4.11501572e-14,1.964460271e-14,3.517741565e-14,1.302193719e-13,5.558473787e-14,7.723723689e-14,1.658338846e-13,4.288360397e-13,3.921564173e-13,3.419977275e-13,1.240273063e-13,2.602397897e-13,2.736671147e-13,1.762665487e-14,3.560112144e-14,1.830674084e-14,6.633648053e-14,1.039576012e-13,1.829198398e-13,1.321747183e-13,6.866622025e-14,1.250163752e-13,7.011638509e-14,9.084650413e-14,7.507710786e-15
0.7265625,4.754733167e-14,7.476316055e-14,1.687541686e-13,1.004335179e-13,1.019732917e-13,1.548299546e-13,2.422963909e-14,5.363681899e-14,1.79171481e-14,3.12169675e-14,1.018185594e-13,5.171292981e-14,7.893521698e-14,1.657178529e-13,4.251153292e-13,3.815442314e-13,3.324856902e-13,1.199451366e-13,2.784697416e-13,2.532642988e-13,2.099749551e-14,3.637831771e-14,2.277264196e-14,7.36113805e-14,1.111390264e-13,1.706264655e-13,1.302280584e-13,6.949022258e-14,1.18268765e-13,6.312831493e-14,8.692567922e-14,8.743952923e-15
0.734375,4.086472892e-14,7.646265081e-14,1.643872979e-13,1.021841204e-13,8.384744044e-14,1.699174012e-13,2.538655971e-14,5.445051078e-14,1.610123513e-14,2.743509882e-14,7.781742807e-14,5.090479959e-14,7.791533539e-14,1.651955152e-13,4.161795549e-13,3.440874328e-13,3.148770107e-13,1.171956512e-13,3.060066999e-13,2.438539218e-13,2.035848396e-14,3.765442593e-14,2.662564652e-14,8.356992717e-14,1.218547378e-13,1.644171347e-13,1.356394365e-13,7.129138441e-14,1.158302657e-13,5.978020772e-14,8.53259732e-14,9.754200097e-15
0.7421875,3.468018502e-14,7.739345064e-14,1.537380819e-13,1.010918543e-13,6.779909269e-14,1.927928644e-13,2.643417946e-14,4.082364895e-14,1.529125682e-14,2.061092414e-14,6.176035828e-14,5.143368913e-14,7.247570854e-14,1.665784965e-13,4.009136272e-13,2.972726727e-13,2.940043466e-13,1.178097695e-13,3.313971639e-13,2.429668573e-13,1.390877554e-14,3.847099551e-14,3.247920889e-14,8.937841125e-14,1.370342249e-13,1.60519318e-13,1.44659534e-13,7.537255146e-14,1.162320958e-13,5.790033144e-14,8.821658864e-14,1.108027062e-14
0.75,2.942374851e-14,7.646023831e-14,1.392627169e-13,9.88937033e-14,5.524296354e-14,2.147915533e-13,2.912462553e-14,3.545122793e-14,1.442163994e-14,1.359212163e-14,5.337868443e-14,5.050248309e-14,6.759823197e-14,1.648784075e-13,3.862472106e-13,2.603106767e-13,2.713719262e-13,1.18624446e-13,3.593294389e-13,2.472328895e-13,1.121346318e-14,3.797320118e-14,4.060490813e-14,8.616577111e-14,1.595863387e-13,1.558670242e-13,1.51941648e-13,8.112129359e-14,1.186211695e-13,5.386559917e-14,8.921146416e-14,1.172299381e-14
0.7578125,2.52864209e-14,7.247610919e-14,1.381794767e-13,9.452747421e-14,4.564338172e-14,2.216743974e-13,3.261669892e-14,4.827339811e-14,1.376810448e-14,9.794730124e-15,4.991611347e-14,4.603286633e-14,6.247152658e-14,1.594654417e-13,3.71856253e-13,2.420089387e-13,2.503159944e-13,1.190356856e-13,3.626079822e-13,2.583702577e-13,1.609643149e-14,3.603560667e-14,4.806138815e-14,8.418950196e-14,1.748647886e-13,1.465867699e-13,1.473677175e-13,8.613637225e-14,1.152772341e-13,4.792394684e-14,8.599107447e-14,1.246867385e-14
0.765625,2.169441413e-14,6.803602487e-14,1.525630577e-13,9.008533495e-14,3.789701177e-14,2.075407237e-13,3.26932784e-14,6.161923128e-14,1.263398153e-14,7.811180498e-15,4.972299636e-14,4.018820397e-14,5.87896121e-14,1.485030139e-13,3.598753433e-13,2.388037164e-13,2.290776259e-13,1.165453823e-13,3.003030722e-13,2.816636754e-13,1.921336419e-14,3.40998993e-14,4.842406552e-14,8.542240131e-14,1.750871639e-13,1.353501357e-13,1.351180834e-13,8.873128025e-14,1.071699375e-13,4.057011752e-14,7.726083334e-14,1.212708169e-14
0.7734375,1.901510417e-14,6.458989808e-14,1.64769636e-13,8.461486038e-14,3.034170718e-14,1.900609567e-13,3.059290954e-14,5.494544896e-14,1.172944393e-14,6.088186627e-15,5.052722022e-14,3.520749107e-14,5.32462644e-14,1.358955573e-13,3.386805282e-13,2.285179841e-13,2.061821365e-13,1.129080877e-13,2.159765507e-13,3.133756273e-13,1.549830912e-14,3.313035755e-14,4.659901036e-14,8.552694359e-14,1.677334257e-13,1.245899057e-13,1.226610375e-13,8.940218837e-14,9.660473246e-14,3.418601979e-14,6.981876473e-14,1.173766131e-14
0.78125,1.683999072e-14,6.320536973e-14,1.553653557e-13,7.925689539e-14,2.282130012e-14,1.829791802e-13,2.949194585e-14,3.825884913e-14,1.103980888e-14,4.72003881e-15,5.405621164e-14,3.22626042e-14,4.737453944e-14,1.217338865e-13,3.064029024e-13,1.970204725e-13,1.799767371e-13,1.088516289e-13,1.847539843e-13,3.459494514e-13,9.954937772e-15,3.334983995e-14,4.821789662e-14,8.104445106e-14,1.709869466e-13,1.188070989e-13,1.170819197e-13,9.055316103e-14,8.966412892e-14,3.042978065e-14,6.458411947e-14,1.087500118e-14
0.7890625,1.429894504e-14,6.282314934e-14,1.311703949e-13,7.410333386e-14,1.629299118e-14,1.808120571e-13,3.241871987e-14,3.416992299e-14,9.873380803e-15,3.99266089e-15,6.136100154e-14,3.071252522e-14,4.032769983e-14,1.062950449e-13,2.663263646e-13,1.571252529e-13,1.530795354e-13,1.05474477e-13,2.095792015e-13,3.65353932e-13,7.017204878e-15,3.372654365e-14,5.451640985e-14,7.639525087e-14,1.837308808e-13,1.172952112e-13,1.144885382e-13,9.299772079e-14,8.465595075e-14,3.002987706e-14,6.011424276e-14,1.079067171e-14
0.796875,1.153241142e-14,6.221340222e-14,1.092728295e-13,6.971205286e-14,1.129051487e-14,1.690468605e-13,3.720925813e-14,4.941996496e-14,8.35984814e-15,4.839582589e-15,7.054082448e-14,2.949045108e-14,3.498435088e-14,8.813961019e-14,2.243908979e-13,1.267947635e-13,1.275029268e-13,1.012716157e-13,2.344738732e-13,3.709291716e-13,7.27509899e-15,3.334083719e-14,6.325146916e-14,7.675120694e-14,1.928822684e-13,1.16664051e-13,1.075651846e-13,9.564425623e-14,7.791741731e-14,3.069601874e-14,5.243573851e-14,1.086774907e-14
0.8046875,9.636624556e-15,6.155279253e-14,1.015358428e-13,6.592441187e-14,8.16907844e-15,1.448434048e-13,3.959478461e-14,6.687181504e-14,6.463322718e-15,8.762853485e-15,7.475135832e-14,2.712669789e-14,3.067939297e-14,6.893200002e-14,1.836401257e-13,1.096465126e-13,1.044617697e-13,9.430860881e-14,2.214174419e-13,3.691923925e-13,1.260504228e-14,3.273491333e-14,6.952474888e-14,8.317394536e-14,1.88317845e-13,1.104034546e-13,9.262963801e-14,9.445867531e-14,6.628234392e-14,2.865417626e-14,4.345917254e-14,1.146593142e-14
0.8125,8.786265715e-15,6.233598477e-14,1.050102422e-13,6.301213486e-14,6.76917205e-15,1.170781905e-13,3.704388317e-14,6.635424662e-14,5.189853687e-15,1.404555018e-14,7.374504652e-14,2.326426998e-14,2.840510589e-14,5.164549515e-14,1.447161866e-13,1.000634746e-13,8.524010824e-14,8.441734552e-14,1.767141569e-13,3.651755415e-13,1.970630849e-14,3.2650836e-14,7.024209751e-14,9.464545677e-14,1.72606987e-13,9.817985122e-14,7.427510724e-14,8.778620088e-14,5.212819668e-14,2.344918231e-14,3.629022803e-14,1.172317253e-14
0.8203125,8.341444955e-15,6.469127279e-14,1.060032201e-13,6.063525204e-14,5.618109463e-15,9.233559435e-14,3.260108713e-14,4.808975578e-14,4.346657519e-15,1.778259144e-14,7.432240471e-14,1.887405423e-14,2.624901961e-14,3.740863255e-14,1.105856204e-13,9.587638838e-14,6.953853644e-14,7.376853999e-14,1.240397591e-13,3.552592433e-13,2.102416224e-14,3.283910407e-14,6.575632256e-14,1.075682559e-13,1.544194495e-13,8.441318929e-14,5.79934169e-14,7.848671692e-14,3.97210229e-14,1.868711017e-14,3.392217336e-14,1.170117926e-14
0.828125,7.5664561e-15,6.709717519e-14,9.374810223e-14,5.874491989e-14,3.931257794e-15,7.520613993e-14,3.047311333e-14,3.685685564e-14,3.967231748e-15,2.16268894e-14,7.583461488e-14,1.63720141e-14,2.540891552e-14,2.676993135e-14,8.316246499e-14,9.170848791e-14,5.82091331e-14,6.349711601e-14,9.886351396e-14,3.313544957e-13,1.951369633e-14,3.222178373e-14,6.356846669e-14,1.230645803e-13,1.452636796e-13,7.426253475e-14,4.756335313e-14,6.925040565e-14,3.034857747e-14,1.660395467e-14,3.399440182e-14,1.173369321e-14
0.8359375,6.983433637e-15,6.822257676e-14,7.447396608e-14,5.786813033e-14,3.158623127e-15,6.527329667e-14,2.982978664e-14,4.683182696e-14,3.864378424e-15,2.925864334e-14,7.553375481e-14,1.629175153e-14,2.523988004e-14,1.89516958e-14,6.339137338e-14,8.281710619e-14,5.154295138e-14,5.401328705e-14,1.131679378e-13,2.996008916e-13,2.612929439e-14,3.06494816e-14,6.684636776e-14,1.434862754e-13,1.477187767e-13,6.845981923e-14,4.226301046e-14,6.120068332e-14,2.49234271e-14,1.522485297e-14,3.271562072e-14,1.167400543e-14
0.84375,6.961616073e-15,6.849051848e-14,6.060419397e-14,5.757224551e-14,4.407260621e-15,5.831505638e-14,2.958378825e-14,6.129560151e-14,3.882404479e-15,3.767004287e-14,7.149037449e-14,1.631611449e-14,2.741274936e-14,1.315466196e-14,5.111027557e-14,8.010748352e-14,4.898529315e-14,4.616859997e-14,1.324413937e-13,2.69763237e-13,3.842516047e-14,2.898907559e-14,7.195822491e-14,1.712592433e-13,1.486714296e-13,6.209885682e-14,3.805585318e-14,5.369574077e-14,2.046044706e-14,1.318669164e-14,3.03558255e-14,1.250610226e-14
0.8515625,7.029467229e-15,6.989879775e-14,5.616065932e-14,5.814738895e-14,6.628948815e-15,4.955781862e-14,2.793877784e-14,5.856154908e-14,4.444356297e-15,4.225535977e-14,7.193297541e-14,1.464042646e-14,3.025071098e-14,9.565513188e-15,4.666496349e-14,9.343590015e-14,4.911183787e-14,4.004727342e-14,1.272372229e-13,2.475012514e-13,4.750314717e-14,2.820990401e-14,7.078397787e-14,2.072891249e-13,1.353948352e-13,5.291188185e-14,3.293946639e-14,4.652980606e-14,1.640777366e-14,1.101616737e-14,3.045734593e-14,1.344519468e-14
0.859375,7.350584063e-15,7.315772446e-14,6.021015243e-14,5.958366689e-14,9.478321007e-15,4.036797686e-14,2.582730094e-14,4.49553717e-14,4.831842811e-15,4.451146839e-14,7.443670329e-14,1.258679152e-14,3.206975281e-14,8.536117187e-15,4.793384269e-14,1.112126361e-13,5.041710881e-14,3.81270386e-14,1.18979263e-13,2.366125904e-13,5.776960828e-14,2.812961677e-14,6.271315056e-14,2.560589539e-13,1.106773505e-13,4.28453933e-14,2.935949898e-14,4.10830234e-14,1.38871898e-14,1.001893253e-14,3.360398594e-14,1.520840506e-14
0.8671875,8.382698216e-15,7.654001202e-14,6.997142116e-14,6.08601721e-14,1.384703695e-14,3.331832673e-14,2.276099521e-14,3.944990271e-14,5.575846472e-15,4.922792357e-14,7.310642824e-14,1.156397975e-14,3.169022699e-14,1.045366699e-14,5.138941181e-14,1.187062019e-13,5.24158948e-14,3.86262138e-14,1.419755392e-13,2.368059896e-13,8.083981958e-14,2.785134828e-14,5.267056716e-14,3.165342643e-13,8.723401331e-14,3.421201294e-14,2.850888825e-14,3.727073094e-14,1.300220452e-14,8.489506247e-15,3.818679009e-14,1.700892145e-14
0.875,1.017023627e-14,8.101896548e-14,7.9311259e-14,6.353805958e-14,2.003235954e-14,2.844516234e-14,2.162871996e-14,4.332830375e-14,6.165742631e-15,5.419062555e-14,6.595411772e-14,1.183750773e-14,3.048314812e-14,1.469821528e-14,5.770023424e-14,1.221517857e-13,5.450736443e-14,4.240131774e-14,1.698721271e-13,2.410909727e-13,1.061826291e-13,2.739602552e-14,4.630401454e-14,3.733688914e-13,7.090557822e-14,2.827810771e-14,3.169716487e-14,3.646548393e-14,1.339316387e-14,6.381259742e-15,4.416280786e-14,1.874044314e-14
0.8828125,1.26869065e-14,8.65231755e-14,8.20673845e-14,6.719032706e-14,2.681610918e-14,2.640471196e-14,2.292400646e-14,4.432444699e-14,7.341858006e-15,5.477392384e-14,6.021069991e-14,1.332460104e-14,2.972501845e-14,2.225337321e-14,6.779042268e-14,1.358942443e-13,5.673100597e-14,4.976863422e-14,1.65287709e-13,2.431606361e-13,1.163140146e-13,2.69194921e-14,4.328696538e-14,4.175014291e-13,6.191523382e-14,2.709629528e-14,3.958564821e-14,3.928831683e-14,1.597268147e-14,4.69901496e-15,5.458164273e-14,2.020675046e-14
0.890625,1.617751335e-14,9.50384454e-14,8.170719086e-14,7.400124047e-14,3.470782732e-14,2.981681268e-14,2.521132439e-14,3.729501951e-14,8.514528109e-15,5.126010901e-14,5.589336649e-14,1.655897205e-14,2.981620188e-14,3.20498669e-14,8.305727433e-14,1.582795716e-13,5.800547115e-14,5.907100013e-14,1.429991638e-13,2.414492268e-13,1.163612271e-13,2.715976893e-14,4.371009108e-14,4.576340753e-13,5.544470283e-14,2.928490983e-14,5.131126461e-14,4.371657352e-14,2.128963793e-14,4.082100777e-15,6.629109377e-14,2.177720981e-14
0.8984375,2.064680634e-14,1.045629286e-13,9.339859734e-14,8.18875961e-14,4.546377689e-14,3.854065463e-14,2.532807573e-14,3.404275665e-14,1.016852127e-14,4.910517738e-14,4.873536851e-14,2.060825101e-14,3.00292985e-14,4.513645433e-14,1.024644352e-13,1.809525591e-13,5.916848153e-14,6.845467237e-14,1.620559321e-13,2.420547262e-13,1.282281094e-13,2.7961165e-14,4.419376974e-14,5.080035754e-13,4.744559583e-14,3.126147998e-14,6.229541353e-14,4.67947008e-14,2.690597757e-14,4.683430291e-15,7.950565129e-14,2.355322795e-14
0.90625,2.494823397e-14,1.161618754e-13,1.177746408e-13,9.189184292e-14,5.745747893e-14,4.796893552e-14,2.306734252e-14,4.021178752e-14,1.18946036e-14,4.925366145e-14,3.921711848e-14,2.578528358e-14,3.055967673e-14,5.971572904e-14,1.262579119e-13,1.986460174e-13,6.067692739e-14,7.594898185e-14,2.271104558e-13,2.442911921e-13,1.512784099e-13,2.953769254e-14,4.326504268e-14,5.654684116e-13,3.825856878e-14,3.231461328e-14,7.371535303e-14,4.815409182e-14,3.287828012e-14,6.381205906e-15,9.152669164e-14,2.551028739e-14
0.9140625,2.861806558e-14,1.290144712e-13,1.383401929e-13,1.026898701e-13,6.662874301e-14,5.341919356e-14,1.998729846e-14,4.675218342e-14,1.406063216e-14,4.866390124e-14,3.141808903e-14,3.203274911e-14,3.036342439e-14,7.662960089e-14,1.54191925e-13,2.145931356e-13,6.530914006e-14,8.283074333e-14,2.744702757e-13,2.416993914e-13,1.633644076e-13,3.155946675e-14,3.979320966e-14,6.124316051e-13,3.092247492e-14,3.503411873e-14,8.891116571e-14,4.98799558e-14,4.038915445e-14,8.12263571e-15,1.063997569e-13,2.666569402e-14
0.921875,3.257943178e-14,1.420256474e-13,1.431361154e-13,1.149540107e-13,7.195247878e-14,5.827811558e-14,1.856738449e-14,4.356888604e-14,1.619607249e-14,4.548754708e-14,2.744173117e-14,3.896593092e-14,3.088430804e-14,9.426943765e-14,1.862777216e-13,2.337614507e-13,7.499494315e-14,8.945031568e-14,2.5675062e-13,2.322572298e-13,1.53719663e-13,3.371717639e-14,3.981906646e-14,6.349600715e-13,2.709055155e-14,4.121286968e-14,1.095322601e-13,5.292178714e-14,5.036481865e-14,8.929130078e-15,1.212457526e-13,2.719237395e-14
0.9296875,3.750483838e-14,1.507512608e-13,1.411375457e-13,1.259253236e-13,7.685425332e-14,6.743858852e-14,1.847342914e-14,3.778859154e-14,1.821613762e-14,4.180608352e-14,2.686027066e-14,4.498513197e-14,3.159790782e-14,1.111254362e-13,2.213695778e-13,2.611510763e-13,9.009801435e-14,9.444624882e-14,2.138898057e-13,2.190131358e-13,1.384689718e-13,3.514832876e-14,4.436245639e-14,6.420686973e-13,2.573940474e-14,4.904318693e-14,1.281647323e-13,5.557918612e-14,5.998823753e-14,9.95415995e-15,1.32333728e-13,2.649973391e-14
0.9375,4.235222752e-14,1.554202634e-13,1.473538751e-13,1.362368111e-13,8.354769584e-14,8.372504271e-14,1.956859415e-14,4.073681483e-14,1.928516052e-14,4.004720538e-14,2.952479374e-14,4.993615494e-14,3.363958824e-14,1.259707482e-13,2.605514589e-13,2.995552213e-13,1.132508981e-13,9.815015069e-14,2.148970154e-13,2.084802157e-13,1.343365763e-13,3.644495141e-14,4.84544762e-14,6.484497211e-13,2.587183732e-14,5.632332234e-14,1.399442247e-13,5.738376355e-14,6.803012708e-14,1.368812232e-14,1.349223847e-13,2.605241025e-14
0.9453125,4.632957216e-14,1.57897584e-13,1.621515735e-13,1.458160476e-13,9.012868812e-14,1.035833429e-13,2.024498369e-14,4.964493464e-14,1.949568888e-14,4.058154661e-14,3.574231321e-14,5.44714162e-14,3.643047965e-14,1.387617881e-13,3.011167354e-13,3.403500705e-13,1.45927592e-13,1.014274135e-13,2.624609937e-13,2.061425898e-13,1.380273748e-13,3.787368121e-14,4.737562295e-14,6.499966978e-13,2.642466854e-14,6.210985643e-14,1.438371618e-13,5.937930314e-14,7.32618426e-14,1.973207238e-14,1.306831438e-13,2.487905296e-14
0.953125,5.070154395e-14,1.601413009e-13,1.780597919e-13,1.547572172e-13,9.400465351e-14,1.251844962e-13,1.985288482e-14,5.579610874e-14,1.87669358e-14,4.176559973e-14,4.182137274e-14,5.98791726e-14,3.984062497e-14,1.505071979e-13,3.422254872e-13,3.738784744e-13,1.890733326e-13,1.061737643e-13,3.079379208e-13,2.108842223e-13,1.351210268e-13,3.993649465e-14,4.339755835e-14,6.29799544e-13,2.851351687e-14,6.775683009e-14,1.475268872e-13,6.267700378e-14,7.832844619e-14,2.548369117e-14,1.238702681e-13,2.415022206e-14
0.9609375,5.727346683e-14,1.622255413e-13,1.871136013e-13,1.633886638e-13,9.562689692e-14,1.510422314e-13,1.799543742e-14,5.561559891e-14,1.766883787e-14,4.267114973e-14,4.841906129e-14,6.65702833e-14,4.354452169e-14,1.618075202e-13,3.818249757e-13,3.965744377e-13,2.433395775e-13,1.129754592e-13,3.348296807e-13,2.222894037e-13,1.220066296e-13,4.233557681e-14,4.16616325e-14,5.881878868e-13,3.359322978e-14,7.612899456e-14,1.541363913e-13,6.793957183e-14,8.518137081e-14,3.052091651e-14,1.158305809e-13,2.276480776e-14
0.96875,6.560178423e-14,1.64082797e-13,1.869055188e-13,1.715582124e-13,9.631074085e-14,1.841138895e-13,1.700883499e-14,5.19568458e-14,1.637687528e-14,4.363911527e-14,5.794573082e-14,7.353714885e-14,4.756896301e-14,1.738107033e-13,4.20803197e-13,4.124209848e-13,3.062984039e-13,1.227996764e-13,3.795274672e-13,2.332989114e-13,1.071535804e-13,4.459661833e-14,4.281161557e-14,5.426768303e-13,4.2631772e-14,8.78738686e-14,1.60161574e-13,7.561445981e-14,9.339995767e-14,3.788282771e-14,1.089217511e-13,2.209531496e-14
0.9765625,7.548946906e-14,1.654295479e-13,1.822391818e-13,1.792244884e-13,9.743869757e-14,2.171496795e-13,1.756983117e-14,4.56159758e-14,1.496884841e-14,4.47188654e-14,7.125312476e-14,7.799672626e-14,5.229968968e-14,1.841725301e-13,4.562008276e-13,4.323610083e-13,3.750202669e-13,1.335884025e-13,4.382172851e-13,2.413751538e-13,9.639780446e-14,4.6147392e-14,4.313718347e-14,5.100651926e-13,5.038475373e-14,9.846578527e-14,1.578309557e-13,8.393051165e-14,9.738821383e-14,4.762859668e-14,1.011707897e-13,2.113316586e-14
0.984375,8.716415364e-14,1.666307731e-13,1.856940458e-13,1.861197264e-13,1.006627377e-13,2.41010925e-13,1.794732538e-14,4.054429478e-14,1.3449671e-14,4.67079025e-14,8.424196777e-14,7.85120422e-14,5.79347388e-14,1.922099014e-13,4.884830693e-13,4.63952502e-13,4.481664482e-13,1.427944749e-13,4.746837716e-13,2.49181941e-13,9.117509598e-14,4.692693065e-14,4.079783151e-14,4.903149093e-13,5.354819769e-14,1.033258752e-13,1.460599616e-13,9.019240948e-14,9.488959824e-14,5.596972903e-14,9.331030005e-14,2.084039157e-14
0.9921875,1.010406527e-13,1.685387159e-13,1.996421913e-13,1.926409519e-13,1.049274911e-13,2.53288975e-13,1.652685443e-14,4.406324753e-14,1.169996481e-14,5.00535146e-14,9.20704884e-14,7.595598041e-14,6.489384622e-14,1.958703488e-13,5.153058751e-13,5.04199156e-13,5.202768345e-13,1.477164029e-13,4.818178531e-13,2.538600521e-13,9.195772679e-14,4.732998223e-14,3.693016858e-14,4.815284734e-13,5.297421161e-14,1.019449927e-13,1.304190306e-13,9.230415866e-14,8.827345734e-14,6.056283893e-14,8.390992681e-14,2.073336326e-14
1,1.145384052e-13,1.71956495e-13,2.095579737e-13,1.984833802e-13,1.057282241e-13,2.627471985e-13,1.373427191e-14,5.721802353e-14,1.008582952e-14,5.490010759e-14,9.882766944e-14,7.299674376e-14,7.192631099e-14,1.961487229e-13,5.31701428e-13,5.38609535e-13,5.870141413e-13,1.478983083e-13,5.096367824e-13,2.518595608e-13,9.841981468e-14,4.77743887e-14,3.450121733e-14,4.870151058e-13,5.482811465e-14,9.939825925e-14,1.172306618e-13,9.129813138e-14,8.250176975e-14,6.368590348e-14,7.494837335e-14,2.060695256e-14
1.0078125,1.256591055e-13,1.766694954e-13,2.014181898e-13,2.024686592e-13,9.971350284e-14,2.754296214e-13,1.150765546e-14,6.932147288e-14,8.429484312e-15,6.057832371e-14,1.058168982e-13,7.074396658e-14,7.900079889e-14,1.925599556e-13,5.369006557e-13,5.583759592e-13,6.442367421e-13,1.434236547e-13,5.770851248e-13,2.385037714e-13,1.072912636e-13,4.829555643e-14,3.34851766e-14,5.078837777e-13,5.944622535e-14,9.731339524e-14,1.088843659e-13,8.811665145e-14,7.837778088e-14,6.758437339e-14,6.685589806e-14,2.002582533e-14
1.015625,1.342867922e-13,1.798129261e-13,1.780466205e-13,2.020421001e-13,8.9101342e-14,2.889109758e-13,9.603553785e-15,6.98542563e-14,7.226775711e-15,6.542152187e-14,1.128245858e-13,6.768257804e-14,8.444797472e-14,1.870031219e-13,5.286419195e-13,5.626754994e-13,6.906862775e-13,1.349627198e-13,6.468970771e-13,2.167633587e-13,1.149432214e-13,4.804155325e-14,3.44316331e-14,5.359907993e-13,6.239901052e-14,9.297157431e-14,1.009046831e-13,8.275275631e-14,7.327606133e-14,7.077646397e-14,6.055386985e-14,1.891907833e-14
1.0234375,1.420094779e-13,1.785533021e-13,1.525326545e-13,1.954496435e-13,7.766661171e-14,2.941603614e-13,8.399915746e-15,6.25300128e-14,5.904811771e-15,6.882680352e-14,1.156496568e-13,6.255798879e-14,8.878746442e-14,1.783222635e-13,5.112605541e-13,5.667385946e-13,7.267941624e-13,1.2299935e-13,6.668841075e-13,1.927956741e-13,1.200299178e-13,4.655599759e-14,3.636858302e-14,5.612925514e-13,6.077751722e-14,8.297317516e-14,8.874480531e-14,7.486324231e-14,6.483569356e-14,7.05818734e-14,5.426526594e-14,1.757705142e-14
1.03125,1.490071574e-13,1.726734226e-13,1.331112365e-13,1.833037734e-13,6.696088728e-14,2.87967948e-13,7.423962827e-15,5.809265897e-14,5.064502222e-15,7.010197534e-14,1.163350261e-13,5.532994235e-14,9.164362009e-14,1.679993895e-13,4.853308019e-13,5.747095217e-13,7.488654231e-13,1.093923677e-13,6.328766547e-13,1.686224911e-13,1.205088781e-13,4.397078273e-14,3.883325811e-14,5.757137478e-13,5.67148489e-14,6.899941682e-14,7.294987302e-14,6.535396062e-14,5.504972528e-14,6.735035491e-14,4.802464572e-14,1.628946167e-14
1.0390625,1.531654729e-13,1.637120064e-13,1.176915601e-13,1.681428736e-13,5.799645919e-14,2.744848945e-13,6.901610879e-15,5.662384909e-14,4.279234919e-15,6.991167009e-14,1.164744232e-13,4.857944193e-14,9.471833993e-14,1.549036348e-13,4.552799155e-13,5.789124049e-13,7.525485744e-13,9.526991228e-14,5.814952894e-13,1.479596981e-13,1.17727939e-13,4.091666004e-14,3.935606792e-14,5.829480143e-13,5.405242882e-14,5.523938132e-14,5.830472984e-14,5.595773076e-14,4.714740894e-14,6.32500764e-14,4.101385551e-14,1.518086205e-14
1.046875,1.533871724e-13,1.532713058e-13,1.032761295e-13,1.516936013e-13,5.134437508e-14,2.61387182e-13,6.40323431e-15,5.202001672e-14,3.977655298e-15,6.91369284e-14,1.168911056e-13,4.321135172e-14,9.722558538e-14,1.411481458e-13,4.19068351e-13,5.60830284e-13,7.321509462e-13,8.333542356e-14,5.550613166e-13,1.326977846e-13,1.164163051e-13,3.764913266e-14,3.910695527e-14,5.81704738e-13,5.473349158e-14,4.329690842e-14,4.661272819e-14,4.819701358e-14,4.248707409e-14,5.985746656e-14,3.488728498e-14,1.423399272e-14
1.0546875,1.505150736e-13,1.421313056e-13,8.858091303e-14,1.356385485e-13,4.661727202e-14,2.513835957e-13,5.713080814e-15,4.592036007e-14,3.739045676e-15,6.888404716e-14,1.152746826e-13,4.105587561e-14,9.951161718e-14,1.270629318e-13,3.808211761e-13,5.224900277e-13,6.918485547e-13,7.39699607e-14,5.6145914e-13,1.228404236e-13,1.189627124e-13,3.432600579e-14,3.932802471e-14,5.680500401e-13,6.164582486e-14,3.488906332e-14,3.959780179e-14,4.260328773e-14,4.222028834e-14,5.703689229e-14,2.947240421e-14,1.324284933e-14
1.0625,1.461035366e-13,1.304467036e-13,7.667868003e-14,1.206457471e-13,4.303541166e-14,2.391673832e-13,4.910367809e-15,4.337057455e-14,3.762963016e-15,6.830737301e-14,1.12270612e-13,4.16153287e-14,1.003254129e-13,1.148161922e-13,3.410808612e-13,4.744704298e-13,6.352730855e-13,6.862137748e-14,5.66614651e-13,1.162916976e-13,1.2076038e-13,3.061540145e-14,4.193724072e-14,5.310760627e-13,7.152396746e-14,3.053179057e-14,3.637077577e-14,3.966113701e-14,4.537072971e-14,5.398670337e-14,2.563400343e-14,1.199736647e-14
1.0703125,1.409293168e-13,1.185847275e-13,7.137829507e-14,1.077181896e-13,4.090216948e-14,2.188823486e-13,4.253520675e-15,4.421222927e-14,4.033900686e-15,6.616086702e-14,1.084582804e-13,4.309444688e-14,1.00157964e-13,1.042573536e-13,3.039825847e-13,4.311012388e-13,5.711366955e-13,6.617201373e-14,5.338152152e-13,1.110079079e-13,1.158350562e-13,2.656922346e-14,4.461634347e-14,4.743663478e-13,7.874635559e-14,2.973237948e-14,3.574356518e-14,3.851882662e-14,4.981556677e-14,4.990835948e-14,2.28201721e-14,1.065091139e-14
1.078125,1.342477785e-13,1.06782008e-13,7.124409909e-14,9.643344546e-14,4.074761197e-14,1.916654281e-13,3.99133041e-15,4.386009435e-14,4.58775391e-15,6.231406521e-14,1.057812184e-13,4.356469642e-14,9.78206874e-14,9.558286957e-14,2.699867302e-13,3.93644353e-13,5.051338375e-13,6.567866468e-14,4.635670875e-13,1.079900735e-13,1.043788905e-13,2.239728494e-14,4.62513999e-14,4.087895971e-13,8.115456586e-14,3.032617195e-14,3.57109731e-14,3.805341751e-14,5.456652541e-14,4.538599597e-14,2.137026293e-14,9.373711227e-15
1.0859375,1.255010195e-13,9.587808334e-14,7.183182625e-14,8.70116705e-14,4.144083874e-14,1.629161988e-13,4.033093425e-15,4.193295319e-14,5.121556036e-15,5.748737731e-14,1.047133848e-13,4.337369255e-14,9.475553127e-14,8.803036988e-14,2.40831481e-13,3.583764957e-13,4.431753786e-13,6.613956396e-14,3.847124945e-13,1.056435935e-13,8.921768608e-14,1.84576955e-14,4.530698414e-14,3.440642393e-13,8.2748775e-14,3.211850379e-14,3.741216683e-14,3.788599796e-14,6.011493947e-14,4.144712617e-14,2.109439522e-14,8.392859359e-15
1.09375,1.144179033e-13,8.553579035e-14,6.80425013e-14,7.846385085e-14,4.103240131e-14,1.384938022e-13,4.20625567e-15,4.02996242e-14,5.339296228e-15,5.328351658e-14,1.042835702e-13,4.356756084e-14,8.983533491e-14,8.15628046e-14,2.153886982e-13,3.205032774e-13,3.917941768e-13,6.634343252e-14,3.273682419e-13,1.034124972e-13,7.563225869e-14,1.49508271e-14,4.368185105e-14,2.917611932e-13,8.657580338e-14,3.548020115e-14,4.119074609e-14,3.798858694e-14,6.639786719e-14,3.923545113e-14,2.163488741e-14,7.231721622e-15
1.1015625,1.025235939e-13,7.629278769e-14,6.192943821e-14,7.058011937e-14,3.898000221e-14,1.190768735e-13,4.429438138e-15,3.841890329e-14,5.400569884e-15,5.115065719e-14,1.029800351e-13,4.340445371e-14,8.42017127e-14,7.571008651e-14,1.94204042e-13,2.84352579e-13,3.530005033e-13,6.600884225e-14,2.929029643e-13,1.01416621e-13,6.721645519e-14,1.214374897e-14,4.197910485e-14,2.595874743e-13,9.019453513e-14,3.920726872e-14,4.576504901e-14,3.83287587e-14,7.055316637e-14,3.814285742e-14,2.284691848e-14,6.236727152e-15
1.109375,9.058975698e-14,6.690969607e-14,5.715422803e-14,6.265607989e-14,3.690215005e-14,1.022024383e-13,4.436387698e-15,3.48442667e-14,5.41849683e-15,5.063633502e-14,9.93332862e-14,4.23467473e-14,7.685218559e-14,7.054376488e-14,1.760812834e-13,2.550634827e-13,3.266272126e-13,6.425570077e-14,2.624062551e-13,1.01707281e-13,6.377357077e-14,9.798326526e-15,4.074043248e-14,2.473100372e-13,9.105874311e-14,4.15912705e-14,4.904815701e-14,3.880673362e-14,7.148656249e-14,3.640970795e-14,2.388632047e-14,5.075095503e-15
1.1171875,7.982878433e-14,5.742846057e-14,5.419930054e-14,5.466847878e-14,3.511462589e-14,8.554322452e-14,4.281498461e-15,3.171398394e-14,5.336329673e-15,5.089245984e-14,9.393906599e-14,3.99965364e-14,6.988244529e-14,6.489068687e-14,1.601522482e-13,2.364948968e-13,3.114650348e-13,6.043802291e-14,2.231949576e-13,1.041540839e-13,6.263860544e-14,7.886085925e-15,3.949148735e-14,2.530138428e-13,9.087769132e-14,4.202348793e-14,5.106199503e-14,3.928770914e-14,6.969811262e-14,3.306405675e-14,2.424108924e-14,4.309752029e-15
1.125,7.063300944e-14,4.85124238e-14,4.977837559e-14,4.772411138e-14,3.324754761e-14,6.960885802e-14,4.1806747e-15,3.26565089e-14,4.946713693e-15,5.124402119e-14,8.797319136e-14,3.781515916e-14,6.344497768e-14,5.790764946e-14,1.454347406e-13,2.250086334e-13,3.007314457e-13,5.518657354e-14,1.791408961e-13,1.079343173e-13,6.127620946e-14,6.381137268e-15,3.867025887e-14,2.699091197e-13,9.389407752e-14,4.170958364e-14,5.277124345e-14,4.005966633e-14,6.767086885e-14,2.837491908e-14,2.326788311e-14,3.458747045e-15
1.1328125,6.253950825e-14,4.034635916e-14,4.229537108e-14,4.162851411e-14,3.114004988e-14,5.684611909e-14,4.194374354e-15,3.786199166e-14,4.528138889e-15,5.150997637e-14,8.201102555e-14,3.671496215e-14,5.790437265e-14,5.038554492e-14,1.313053106e-13,2.170078158e-13,2.906226589e-13,4.937303147e-14,1.44797357e-13,1.124653281e-13,5.978705647e-14,5.268723521e-15,3.91324981e-14,2.945219601e-13,1.019331959e-13,4.216771117e-14,5.610564871e-14,4.129132159e-14,6.670889194e-14,2.377383297e-14,2.207860852e-14,2.964432875e-15
1.140625,5.571102325e-14,3.337197299e-14,3.26023245e-14,3.666324517e-14,2.872016619e-14,4.786887097e-14,4.400552132e-15,4.366506432e-14,4.275149967e-15,5.18270758e-14,7.653341487e-14,3.660657335e-14,5.249862289e-14,4.288209186e-14,1.176154859e-13,2.082784533e-13,2.763092755e-13,4.374171691e-14,1.247121628e-13,1.165831255e-13,5.897542515e-14,4.549253254e-15,4.135252602e-14,3.20376395e-13,1.129122397e-13,4.32295048e-14,6.028064125e-14,4.294842491e-14,6.610558622e-14,1.979412896e-14,2.132611764e-14,2.873691045e-15
1.1484375,5.0432107e-14,2.781139588e-14,2.347131141e-14,3.256732488e-14,2.687873697e-14,4.186170847e-14,4.376214256e-15,4.78193097e-14,4.233341746e-15,5.228624246e-14,7.222178425e-14,3.719557819e-14,4.618478795e-14,3.679691737e-14,1.049288372e-13,2.006015493e-13,2.592825822e-13,3.844804506e-14,1.127912531e-13,1.210258115e-13,5.845653279e-14,4.132206598e-15,4.455536281e-14,3.399269274e-13,1.257856424e-13,4.496730621e-14,6.590564663e-14,4.484043134e-14,6.634996362e-14,1.624189884e-14,2.227463437e-14,3.321091888e-15
1.15625,4.692052008e-14,2.342319007e-14,1.661038008e-14,2.938002998e-14,2.570683326e-14,3.730692197e-14,4.582182447e-15,5.048813664e-14,4.300041979e-15,5.29766066e-14,6.899233164e-14,3.777045806e-14,4.010709901e-14,3.181454174e-14,9.578552995e-14,1.982657373e-13,2.402782494e-13,3.381252788e-14,1.027982008e-13,1.235661956e-13,5.634120308e-14,3.932527244e-15,4.868653659e-14,3.496741374e-13,1.388871022e-13,4.651792607e-14,7.061145008e-14,4.650491076e-14,6.594111749e-14,1.279857935e-14,2.461900985e-14,4.427368439e-15
1.1640625,4.542823384e-14,1.99603855e-14,1.162488093e-14,2.695633539e-14,2.528717062e-14,3.441243022e-14,4.848527102e-15,5.477647508e-14,4.617793714e-15,5.497188683e-14,6.697784479e-14,3.861869404e-14,3.469039153e-14,2.797490586e-14,9.055691243e-14,2.024571777e-13,2.201870087e-13,3.020154283e-14,9.976901757e-14,1.247598052e-13,5.396563145e-14,4.005290072e-15,5.268560773e-14,3.513201597e-13,1.537497122e-13,4.768847559e-14,7.403412488e-14,4.768066298e-14,6.627097359e-14,9.703196713e-15,2.825727473e-14,6.254691966e-15
1.171875,4.617324055e-14,1.768132756e-14,8.412980829e-15,2.598036068e-14,2.542578247e-14,3.343473431e-14,5.093122209e-15,5.918977232e-14,5.22478746e-15,5.999967516e-14,6.632568702e-14,3.920647753e-14,3.008435849e-14,2.49922749e-14,8.999013204e-14,2.14280522e-13,2.026124399e-13,2.756862929e-14,1.071261221e-13,1.253037059e-13,5.471523753e-14,4.378161586e-15,5.606896571e-14,3.524547581e-13,1.658610755e-13,4.771798932e-14,7.408590903e-14,4.745294752e-14,6.498406314e-14,7.704831838e-15,3.189612206e-14,8.158578182e-15
1.1796875,4.975370643e-14,1.64171748e-14,6.578815256e-15,2.605133027e-14,2.636400323e-14,3.298041637e-14,4.929268245e-15,6.005081016e-14,5.984650973e-15,6.842158334e-14,6.700954045e-14,3.938099122e-14,2.702504554e-14,2.288895032e-14,9.373258879e-14,2.344755103e-13,1.914783246e-13,2.573545222e-14,1.150237593e-13,1.281323544e-13,5.987506883e-14,4.997928333e-15,5.673430938e-14,3.592010429e-13,1.721828581e-13,4.69202005e-14,7.159516888e-14,4.628071037e-14,6.308050554e-14,6.91834908e-15,3.631486741e-14,1.043535217e-14
1.1875,5.578737644e-14,1.629762763e-14,6.01518303e-15,2.727573529e-14,2.792844429e-14,3.216137015e-14,4.639680566e-15,5.652115284e-14,6.81357813e-15,8.070946795e-14,7.002998843e-14,3.887772903e-14,2.518046494e-14,2.123567509e-14,9.930331588e-14,2.615204112e-13,1.901852194e-13,2.468014813e-14,1.182424311e-13,1.343277645e-13,6.950330776e-14,5.787135622e-15,5.584328811e-14,3.784107866e-13,1.701209098e-13,4.551060775e-14,6.758202747e-14,4.478318498e-14,5.929407235e-14,6.998521122e-15,4.092656782e-14,1.259071731e-14
1.1953125,6.383855809e-14,1.706458509e-14,6.169252154e-15,2.929435947e-14,2.993967624e-14,3.146832645e-14,4.844304307e-15,5.495915416e-14,7.378065446e-15,9.60466074e-14,7.396119558e-14,3.850576054e-14,2.466452477e-14,2.025610498e-14,1.050251129e-13,2.918785692e-13,1.993873643e-13,2.479077271e-14,1.278869659e-13,1.445701864e-13,8.271492343e-14,6.849370073e-15,5.418554111e-14,4.100858169e-13,1.652451962e-13,4.454738534e-14,6.36300749e-14,4.388399741e-14,5.573390222e-14,7.269212533e-15,4.550342699e-14,1.501559309e-14
1.203125,7.293782856e-14,1.879498075e-14,7.448743476e-15,3.245447787e-14,3.231568196e-14,3.335008882e-14,5.117495789e-15,5.812453585e-14,8.10307666e-15,1.136431471e-13,7.920232736e-14,3.852899546e-14,2.394801966e-14,1.978211869e-14,1.080577943e-13,3.213740953e-13,2.180476375e-13,2.587005637e-14,1.563857679e-13,1.585917808e-13,1.01476328e-13,8.232233519e-15,5.333182127e-14,4.539313517e-13,1.603665526e-13,4.342002889e-14,5.948003762e-14,4.32846648e-14,5.218672443e-14,8.27870098e-15,4.759843336e-14,1.656455675e-14
1.2109375,8.23257617e-14,2.126316706e-14,9.583518113e-15,3.596433009e-14,3.393422799e-14,3.651107048e-14,5.667519712e-15,6.142953005e-14,8.73230668e-15,1.291638449e-13,8.422191916e-14,3.880850862e-14,2.349639053e-14,1.948470674e-14,1.082971667e-13,3.515770089e-13,2.423408343e-13,2.769860282e-14,1.822876119e-13,1.72792442e-13,1.196733229e-13,9.945053892e-15,5.199904127e-14,5.041783454e-13,1.54319287e-13,4.173425348e-14,5.444692635e-14,4.244842447e-14,4.880017651e-14,1.032450721e-14,4.839303002e-14,1.784491331e-14
1.21875,9.107739983e-14,2.449560092e-14,1.187396635e-14,3.910162393e-14,3.46232814e-14,3.934347163e-14,6.143659451e-15,5.867537811e-14,9.581275563e-15,1.400053302e-13,8.849279273e-14,3.886853639e-14,2.35464353e-14,1.974755644e-14,1.06493853e-13,3.796275898e-13,2.673318827e-13,3.022434857e-14,1.845562775e-13,1.846378182e-13,1.322228913e-13,1.176008308e-14,4.831864664e-14,5.502815193e-13,1.427521527e-13,3.993276548e-14,4.971619119e-14,4.212756402e-14,4.516226524e-14,1.313223715e-14,4.865930525e-14,1.868121674e-14
1.2265625,9.786391778e-14,2.862296165e-14,1.455241219e-14,4.180433862e-14,3.4152443e-14,4.075401803e-14,7.438362988e-15,5.297636611e-14,1.009554563e-14,1.461285748e-13,8.979425799e-14,3.780445272e-14,2.428168165e-14,2.039602629e-14,1.020079118e-13,3.957584207e-13,2.87612687e-13,3.274975393e-14,1.731414232e-13,1.909928424e-13,1.400874813e-13,1.381645108e-14,4.24040346e-14,5.871103861e-13,1.270697712e-13,3.752462027e-14,4.493523224e-14,4.14397582e-14,4.113287284e-14,1.52515706e-14,4.941654567e-14,1.990108005e-14
1.234375,1.023476055e-13,3.312154392e-14,1.938123946e-14,4.411787648e-14,3.374165238e-14,4.297845555e-14,9.015937799e-15,5.188542573e-14,1.053990614e-14,1.489412752e-13,8.673675969e-14,3.521861863e-14,2.516823429e-14,2.141995975e-14,9.515880231e-14,3.94904918e-13,3.039353317e-13,3.441439049e-14,1.75919372e-13,1.929432539e-13,1.501158726e-13,1.601412548e-14,3.59294163e-14,6.118696933e-13,1.109796662e-13,3.501344452e-14,4.070295151e-14,3.97786129e-14,3.777362513e-14,1.71063892e-14,4.825222775e-14,2.053981162e-14
1.2421875,1.053995027e-13,3.837239645e-14,2.507096234e-14,4.64736541e-14,3.28262159e-14,4.808541929e-14,1.076735822e-14,5.492191041e-14,1.086960231e-14,1.470368472e-13,8.041032535e-14,3.159692199e-14,2.633351987e-14,2.235672105e-14,8.754720399e-14,3.838112141e-13,3.147994037e-13,3.483017292e-14,1.893646948e-13,1.867365323e-13,1.586958711e-13,1.847933006e-14,3.092160411e-14,6.170490686e-13,9.851394929e-14,3.208296976e-14,3.632123905e-14,3.642884893e-14,3.480076537e-14,1.957009094e-14,4.466537101e-14,2.073134611e-14
1.25,1.085719826e-13,4.397779196e-14,2.86370939e-14,4.803989014e-14,3.079524575e-14,5.592382926e-14,1.184356396e-14,5.555204772e-14,1.141248402e-14,1.391892035e-13,7.311727832e-14,2.818324387e-14,2.772969834e-14,2.371132484e-14,8.126051695e-14,3.760289692e-13,3.258372712e-13,3.469835798e-14,1.849528842e-13,1.734216669e-13,1.587394501e-13,2.106431742e-14,2.679563511e-14,6.043097216e-13,8.804080934e-14,2.987470615e-14,3.3527726e-14,3.265992526e-14,3.275043287e-14,2.301278021e-14,3.962578e-14,2.015976424e-14
1.2578125,1.1249191e-13,5.006735154e-14,2.999092504e-14,4.927070521e-14,2.728429743e-14,6.327169102e-14,1.314583613e-14,5.262944722e-14,1.194063588e-14,1.268386049e-13,6.53791878e-14,2.494684853e-14,3.000007296e-14,2.538540906e-14,7.747408242e-14,3.783306047e-13,3.363842014e-13,3.385025709e-14,1.571919107e-13,1.533865412e-13,1.488464234e-13,2.363656391e-14,2.29320762e-14,5.758075366e-13,7.661131219e-14,2.815048865e-14,3.15469607e-14,2.916617443e-14,3.056759235e-14,2.586275661e-14,3.517527979e-14,1.970119389e-14
1.265625,1.173179214e-13,5.562405961e-14,3.316109455e-14,5.029064279e-14,2.367932722e-14,6.817210063e-14,1.492303846e-14,5.398026863e-14,1.200334103e-14,1.142505875e-13,5.77756964e-14,2.169537154e-14,3.227996466e-14,2.703815505e-14,7.534320388e-14,3.880585105e-13,3.488278365e-13,3.25263418e-14,1.300488197e-13,1.333759424e-13,1.382376951e-13,2.581024952e-14,1.941813438e-14,5.426826614e-13,6.371919815e-14,2.72787568e-14,3.070039401e-14,2.587611628e-14,2.89458436e-14,2.712373095e-14,3.12905309e-14,1.918411117e-14
1.2734375,1.221595268e-13,6.031724142e-14,3.741024297e-14,5.132393994e-14,2.084768611e-14,7.159948799e-14,1.711045083e-14,5.991021262e-14,1.157059271e-14,1.037555613e-13,5.089922978e-14,1.818635147e-14,3.47259796e-14,2.780798165e-14,7.537900829e-14,3.992106101e-13,3.618379601e-13,3.015364649e-14,1.199719743e-13,1.160331249e-13,1.322685422e-13,2.75736413e-14,1.733757528e-14,5.14166859e-13,5.196016464e-14,2.647357869e-14,2.967312124e-14,2.247264258e-14,2.725661492e-14,2.748424242e-14,2.763341085e-14,1.908950662e-14
1.28125,1.255053307e-13,6.342278716e-14,3.854921187e-14,5.130237209e-14,1.885983557e-14,7.697142067e-14,1.799518046e-14,5.989509829e-14,1.083558399e-14,9.496113852e-14,4.580326474e-14,1.532633629e-14,3.619009583e-14,2.853342168e-14,7.667770368e-14,4.022488563e-13,3.743768025e-13,2.781135733e-14,1.199642852e-13,1.025260802e-13,1.289171674e-13,2.873039765e-14,1.620510353e-14,4.914348897e-13,4.392529933e-14,2.554260207e-14,2.918618849e-14,1.91884948e-14,2.651452337e-14,2.886937381e-14,2.448402528e-14,1.879699163e-14
1.2890625,1.270062356e-13,6.49947341e-14,3.50613316e-14,5.035461089e-14,1.70153172e-14,8.389063604e-14,1.721897126e-14,5.037072715e-14,1.006856096e-14,8.727212105e-14,4.327318295e-14,1.362945485e-14,3.736807856e-14,2.9053579e-14,7.881812961e-14,3.954954822e-13,3.82290253e-13,2.590085979e-14,1.198525035e-13,9.118177206e-14,1.249124644e-13,2.919456172e-14,1.535207827e-14,4.742880923e-13,3.905299247e-14,2.44367227e-14,2.915428544e-14,1.633071481e-14,2.666801027e-14,3.106622114e-14,2.243107044e-14,1.854281527e-14
1.296875,1.265470296e-13,6.441033879e-14,3.111717562e-14,4.836578473e-14,1.47724473e-14,8.779668989e-14,1.586421028e-14,4.067348721e-14,9.185492787e-15,8.063984067e-14,4.269959108e-14,1.277892953e-14,3.808666385e-14,2.89537296e-14,8.244045416e-14,3.880197437e-13,3.840677677e-13,2.448302013e-14,1.151577752e-13,8.071457212e-14,1.184757919e-13,2.862425693e-14,1.496810784e-14,4.584076902e-13,3.553378374e-14,2.368101729e-14,2.961522327e-14,1.441568969e-14,2.758234424e-14,3.217120301e-14,2.107936179e-14,1.805549052e-14
1.3046875,1.253355327e-13,6.192605824e-14,3.004358656e-14,4.600926666e-14,1.24953583e-14,8.50284274e-14,1.510878431e-14,3.764811096e-14,8.260933208e-15,7.504398248e-14,4.313386776e-14,1.200525342e-14,3.93714257e-14,2.749697396e-14,8.767321678e-14,3.835563694e-13,3.78979363e-13,2.325734056e-14,1.017642713e-13,7.071735264e-14,1.101587569e-13,2.703789682e-14,1.51494019e-14,4.43599473e-13,3.139664193e-14,2.366926353e-14,3.060514242e-14,1.3045584e-14,2.913168735e-14,3.139397374e-14,2.077322164e-14,1.768010133e-14
1.3125,1.214822379e-13,5.778763385e-14,2.988868588e-14,4.339531728e-14,1.077923996e-14,7.821426225e-14,1.467673431e-14,3.637038439e-14,7.395231276e-15,7.072161921e-14,4.455220183e-14,1.125877946e-14,4.033135977e-14,2.536558816e-14,9.320925752e-14,3.691224826e-13,3.643223935e-13,2.232849524e-14,8.930645478e-14,6.214548217e-14,1.0218206e-13,2.469832485e-14,1.577380344e-14,4.28144393e-13,2.6376775e-14,2.46934057e-14,3.23813806e-14,1.237074036e-14,3.078904925e-14,3.013798115e-14,2.131217715e-14,1.713117671e-14
1.3203125,1.145681994e-13,5.289828865e-14,2.768172213e-14,4.01765161e-14,9.642653355e-15,7.298674869e-14,1.376307418e-14,3.24942858e-14,6.605125643e-15,6.786292321e-14,4.663799302e-14,1.113191842e-14,4.020291227e-14,2.361385142e-14,9.706490064e-14,3.378321205e-13,3.459098253e-13,2.179030097e-14,9.561332079e-14,5.497002678e-14,9.721776251e-14,2.21853287e-14,1.601733928e-14,4.18481577e-13,2.234493485e-14,2.65522594e-14,3.464462672e-14,1.25386147e-14,3.273986964e-14,3.029854792e-14,2.187279608e-14,1.60508869e-14
1.328125,1.048771433e-13,4.782206097e-14,2.45143436e-14,3.712853883e-14,8.874278215e-15,6.999731776e-14,1.242193386e-14,2.710128935e-14,5.938252283e-15,6.653559751e-14,4.926707251e-14,1.173476446e-14,3.874837892e-14,2.205630067e-14,1.008120562e-13,2.967889617e-13,3.245929074e-13,2.161156074e-14,1.174715929e-13,4.878526785e-14,9.59262227e-14,1.968860732e-14,1.746788416e-14,4.131056968e-13,1.991338724e-14,2.854167084e-14,3.633927462e-14,1.332618261e-14,3.510090559e-14,3.096765357e-14,2.143181823e-14,1.447595047e-14
1.3359375,9.476628129e-14,4.250605028e-14,2.304884257e-14,3.405682733e-14,8.419728551e-15,6.628094679e-14,1.076814795e-14,2.180818717e-14,5.410796399e-15,6.612674292e-14,5.100889425e-14,1.210578821e-14,3.662717367e-14,2.083253085e-14,1.051346683e-13,2.592279763e-13,3.051665082e-13,2.145295838e-14,1.271350471e-13,4.382574297e-14,9.512816422e-14,1.721011519e-14,1.945005177e-14,4.071302107e-13,1.801840921e-14,2.877976654e-14,3.568637678e-14,1.390008838e-14,3.646352288e-14,3.03559339e-14,2.036631746e-14,1.257607437e-14
1.34375,8.529909893e-14,3.767395648e-14,2.286945123e-14,3.171499198e-14,8.10628016e-15,5.992655501e-14,9.180763317e-15,1.764198262e-14,5.006398206e-15,6.614342629e-14,5.178475707e-14,1.228531442e-14,3.524104064e-14,1.954361475e-14,1.117815577e-13,2.305433559e-13,2.901325116e-13,2.086996042e-14,1.190875179e-13,4.080334791e-14,9.340264351e-14,1.497158239e-14,2.026733505e-14,4.048647222e-13,1.496437726e-14,2.804251259e-14,3.407206389e-14,1.409257664e-14,3.732025314e-14,2.82973531e-14,1.917532176e-14,1.091079114e-14
1.3515625,7.676524093e-14,3.366602866e-14,2.223385122e-14,2.934936618e-14,7.636741327e-15,5.44722158e-14,7.941313195e-15,1.605752422e-14,4.672893791e-15,6.596774221e-14,5.212019693e-14,1.281089675e-14,3.370567589e-14,1.906635292e-14,1.178392239e-13,2.054872041e-13,2.796011322e-13,2.036003673e-14,1.217099905e-13,3.834251815e-14,9.18560165e-14,1.327148448e-14,1.846330009e-14,4.066283281e-13,1.191460131e-14,2.762880772e-14,3.278595867e-14,1.426137192e-14,3.779962507e-14,2.731454208e-14,1.862260508e-14,9.480190299e-15
1.359375,6.92182906e-14,3.098334509e-14,2.094490382e-14,2.773520748e-14,7.475168023e-15,5.118873254e-14,7.448838483e-15,1.776928138e-14,4.318036921e-15,6.576398101e-14,5.310853369e-14,1.408333678e-14,3.314471009e-14,1.881847054e-14,1.254128118e-13,1.877381139e-13,2.749912711e-13,1.988376058e-14,1.411160031e-13,3.685001816e-14,9.071791302e-14,1.225934389e-14,1.59824266e-14,4.173200986e-13,9.65346919e-15,2.741512526e-14,3.197759028e-14,1.455201176e-14,3.898508957e-14,2.729272938e-14,1.825175141e-14,8.652727354e-15
1.3671875,6.351107376e-14,2.88103408e-14,2.099257857e-14,2.631576647e-14,8.264747304e-15,4.776019094e-14,7.385242159e-15,1.973950941e-14,4.115051874e-15,6.484380642e-14,5.316775742e-14,1.464588781e-14,3.304611201e-14,1.871462718e-14,1.339865964e-13,1.785998484e-13,2.752779527e-13,1.951807436e-14,1.469323591e-13,3.682300639e-14,8.713467946e-14,1.158569783e-14,1.457350762e-14,4.278685488e-13,7.881148541e-15,2.606600761e-14,3.050220373e-14,1.43258539e-14,3.936412182e-14,2.670122578e-14,1.801906992e-14,8.220481628e-15
1.375,5.988014116e-14,2.717336735e-14,2.164036592e-14,2.553274125e-14,9.379808193e-15,4.206202316e-14,7.690864504e-15,1.931677123e-14,3.834492099e-15,6.404666483e-14,5.193326907e-14,1.41304666e-14,3.386269868e-14,1.795715914e-14,1.427788718e-13,1.753766147e-13,2.771404287e-13,1.913640119e-14,1.245214856e-13,3.959957858e-14,8.034122367e-14,1.102423949e-14,1.436513821e-14,4.367153778e-13,6.565918707e-15,2.370293376e-14,2.832661819e-14,1.372805977e-14,3.825086379e-14,2.452961337e-14,1.75910927e-14,8.437882466e-15
1.3828125,5.709717392e-14,2.569865309e-14,2.125259775e-14,2.45320622e-14,9.858461667e-15,3.746266348e-14,7.893542971e-15,1.760049139e-14,3.571928705e-15,6.378026456e-14,4.947175421e-14,1.297978511e-14,3.369382209e-14,1.715004642e-14,1.470348681e-13,1.695708314e-13,2.788400603e-13,1.89469473e-14,1.061377269e-13,4.503348105e-14,7.585936712e-14,1.061748784e-14,1.398221721e-14,4.457722529e-13,6.006257047e-15,2.161877812e-14,2.590663135e-14,1.313632798e-14,3.570192762e-14,2.269892278e-14,1.658650377e-14,8.816513605e-15
1.390625,5.35515764e-14,2.45212855e-14,2.083468604e-14,2.346321575e-14,1.00718821e-14,3.607772948e-14,7.773880739e-15,1.597904974e-14,3.254965679e-15,6.378994114e-14,4.716649629e-14,1.21968812e-14,3.243729137e-14,1.63467329e-14,1.482447851e-13,1.614029791e-13,2.763349218e-13,1.918153061e-14,1.10403754e-13,5.274996334e-14,7.610667596e-14,1.04285157e-14,1.242541743e-14,4.521219962e-13,6.269040835e-15,2.006455384e-14,2.346034014e-14,1.311820152e-14,3.297837258e-14,2.19652291e-14,1.537083759e-14,9.432667395e-15
1.3984375,5.047772533e-14,2.338473598e-14,2.280337387e-14,2.220112637e-14,1.125608054e-14,3.533154629e-14,7.205917241e-15,1.500791483e-14,2.98996348e-15,6.176034676e-14,4.565515022e-14,1.160702097e-14,3.054580545e-14,1.578698566e-14,1.46492295e-13,1.563360298e-13,2.705936693e-13,1.978325548e-14,1.14840736e-13,6.308650893e-14,7.692595083e-14,1.02701337e-14,1.01297556e-14,4.472140506e-13,6.459834833e-15,1.871994579e-14,2.146725431e-14,1.387207289e-14,3.064852944e-14,2.125718341e-14,1.425409193e-14,9.84912993e-15
1.40625,4.892246257e-14,2.192801627e-14,2.692605798e-14,2.103543955e-14,1.339360146e-14,3.162330705e-14,7.191731797e-15,1.516891027e-14,2.860401472e-15,5.66645253e-14,4.471138493e-14,1.060917708e-14,2.86887262e-14,1.489929586e-14,1.431509063e-13,1.566253409e-13,2.591916064e-13,2.118214367e-14,9.60092339e-14,7.559796523e-14,7.198132823e-14,9.769073764e-15,8.461113061e-15,4.234218362e-13,6.255106241e-15,1.779450745e-14,2.051122649e-14,1.535082101e-14,2.801178388e-14,1.974444136e-14,1.388213388e-14,1.005509583e-14
1.4140625,4.793369121e-14,2.005699803e-14,3.141764989e-14,1.988933957e-14,1.546467039e-14,2.604159366e-14,7.708725754e-15,1.731095863e-14,2.658725814e-15,5.076353276e-14,4.494588075e-14,9.225329345e-15,2.674940927e-14,1.404139425e-14,1.392460594e-13,1.572329149e-13,2.441556021e-13,2.323450758e-14,6.868234732e-14,9.073628786e-14,6.347477765e-14,8.922504963e-15,7.891697754e-15,3.867406326e-13,6.816556028e-15,1.806440205e-14,2.070700334e-14,1.765988136e-14,2.564737941e-14,1.790278021e-14,1.34769651e-14,9.982709236e-15
1.421875,4.68717899e-14,1.82518336e-14,3.649832625e-14,1.921588927e-14,1.759412018e-14,2.180137027e-14,8.139953097e-15,2.104478502e-14,2.556487451e-15,4.531995293e-14,4.544250172e-14,7.809785071e-15,2.508395375e-14,1.337804015e-14,1.358728874e-13,1.527472429e-13,2.252362325e-13,2.604840106e-14,5.620221856e-14,1.079625796e-13,5.732746265e-14,8.166556165e-15,7.437379985e-15,3.466746481e-13,8.032469715e-15,1.891601411e-14,2.110579757e-14,2.052669004e-14,2.339230745e-14,1.693319537e-14,1.230104157e-14,9.577393356e-15
1.4296875,4.593265783e-14,1.687352974e-14,4.504516401e-14,1.944406032e-14,2.098017947e-14,2.017187576e-14,8.022540719e-15,2.606893992e-14,2.416096106e-15,4.143268762e-14,4.753404092e-14,6.701289723e-15,2.361903154e-14,1.338859875e-14,1.340248015e-13,1.463908776e-13,2.058727945e-13,2.969238891e-14,5.769896488e-14,1.305758713e-13,5.774071673e-14,7.657628266e-15,6.82150216e-15,3.082949011e-13,9.262349457e-15,1.977074002e-14,2.142873619e-14,2.37202436e-14,2.21977948e-14,1.671683928e-14,1.043633885e-14,8.931735366e-15
1.4375,4.683903395e-14,1.609340259e-14,5.500934147e-14,2.113783716e-14,2.501336956e-14,2.14659352e-14,7.690387742e-15,3.011570709e-14,2.408398254e-15,3.84264037e-14,5.032088619e-14,6.047645288e-15,2.358676394e-14,1.422720871e-14,1.364157992e-13,1.423823829e-13,1.88390752e-13,3.364349751e-14,6.156980687e-14,1.541339264e-13,6.185312337e-14,7.423120579e-15,6.402237228e-15,2.72455941e-13,1.016239217e-14,2.12854148e-14,2.307877162e-14,2.681610046e-14,2.137165148e-14,1.693489324e-14,8.920950692e-15,8.17059255e-15
1.4453125,4.860380722e-14,1.615909746e-14,6.204315385e-14,2.407391127e-14,2.812972667e-14,2.468753735e-14,7.983524935e-15,3.26454085e-14,2.302495093e-15,3.532001932e-14,5.516590328e-14,6.331104483e-15,2.445290267e-14,1.630644501e-14,1.414225478e-13,1.414436729e-13,1.756024384e-13,3.830036999e-14,5.994783699e-14,1.760432285e-13,6.353678218e-14,7.598241036e-15,6.455768037e-15,2.381853895e-13,1.185063932e-14,2.41225992e-14,2.653612591e-14,3.059432547e-14,2.187773389e-14,1.771393813e-14,8.421237456e-15,7.582372834e-15
1.453125,4.986609022e-14,1.719970509e-14,6.556400331e-14,2.838646283e-14,2.941373535e-14,2.734469117e-14,9.034649354e-15,3.548049506e-14,2.306904188e-15,3.208905216e-14,6.179559426e-14,7.161359093e-15,2.713419585e-14,1.894757305e-14,1.490028018e-13,1.454472264e-13,1.663017559e-13,4.27852451e-14,5.449672059e-14,1.898124232e-13,6.104573468e-14,8.219878025e-15,6.729912244e-15,2.067463479e-13,1.432024463e-14,2.739945741e-14,3.002230344e-14,3.445585687e-14,2.335537487e-14,1.892970472e-14,8.998323049e-15,7.249461575e-15
1.4609375,5.126029941e-14,1.879698986e-14,7.344677549e-14,3.348117348e-14,3.084061455e-14,2.935395997e-14,1.021869574e-14,4.398756331e-14,2.337193348e-15,3.004187105e-14,6.764743244e-14,7.983701569e-15,3.078964295e-14,2.21160417e-14,1.568594703e-13,1.562027673e-13,1.626276047e-13,4.627026293e-14,5.508412688e-14,1.983705268e-13,6.142043162e-14,9.383551431e-15,7.22375282e-15,1.817060964e-13,1.7164444e-14,2.888865233e-14,3.126376778e-14,3.709362412e-14,2.423488375e-14,2.042352693e-14,1.019726394e-14,7.139288511e-15
1.46875,5.273173801e-14,2.08412629e-14,8.531002805e-14,3.935315826e-14,3.263645585e-14,3.327396013e-14,1.024538678e-14,5.613573224e-14,2.500319394e-15,3.044631566e-14,7.13178693e-14,8.943916071e-15,3.517412981e-14,2.556502422e-14,1.620952326e-13,1.674998245e-13,1.610836228e-13,4.736649305e-14,6.777806585e-14,2.018696856e-13,6.803815272e-14,1.101614556e-14,8.242561738e-15,1.640792461e-13,2.095748082e-14,2.960942507e-14,3.233050533e-14,3.713094937e-14,2.454192754e-14,2.19751872e-14,1.173192919e-14,7.146498894e-15
1.4765625,5.374880922e-14,2.330645792e-14,9.110670311e-14,4.492282707e-14,3.308482971e-14,3.984664461e-14,9.358925057e-15,6.249304675e-14,2.763791091e-15,3.240844827e-14,7.349197209e-14,1.049989015e-14,3.897536733e-14,2.966424865e-14,1.622044773e-13,1.69741742e-13,1.610769471e-13,4.659783083e-14,8.388651235e-14,1.985359567e-13,7.336660597e-14,1.30132896e-14,9.575695792e-15,1.543540388e-13,2.50037356e-14,3.093477435e-14,3.488014564e-14,3.538570996e-14,2.499027685e-14,2.47339406e-14,1.457561841e-14,7.048532203e-15
1.484375,5.2349118e-14,2.62912358e-14,8.475279911e-14,4.997858217e-14,3.088921627e-14,4.524307301e-14,8.540465195e-15,6.029670269e-14,3.090275514e-15,3.557053674e-14,7.693927793e-14,1.214906427e-14,4.247732532e-14,3.361430306e-14,1.595310323e-13,1.633938312e-13,1.610701444e-13,4.45349119e-14,8.965402395e-14,1.847290336e-13,7.200012318e-14,1.504214399e-14,1.052888691e-14,1.532980982e-13,2.767369002e-14,3.316355345e-14,3.785220208e-14,3.276312072e-14,2.631865234e-14,2.831665327e-14,1.876168936e-14,6.979339326e-15
1.4921875,4.951109228e-14,2.864405225e-14,7.442039461e-14,5.382102392e-14,2.759748666e-14,4.657286275e-14,8.175505302e-15,5.935385894e-14,3.480399267e-15,4.105278099e-14,8.057436559e-14,1.324239371e-14,4.565231793e-14,3.650772053e-14,1.573612793e-13,1.576065066e-13,1.61823018e-13,4.157963273e-14,9.035773317e-14,1.641223484e-13,6.959818496e-14,1.676873498e-14,1.145054918e-14,1.599370689e-13,2.997542858e-14,3.391164968e-14,3.837624495e-14,2.962047493e-14,2.727226304e-14,3.086254086e-14,2.274556449e-14,6.823056299e-15
1.5,4.640957961e-14,3.003968008e-14,6.723665314e-14,5.654032573e-14,2.487448963e-14,4.634118163e-14,7.671725879e-15,6.677622845e-14,3.936255614e-15,4.951525295e-14,8.284212883e-14,1.436193453e-14,4.836168223e-14,3.795362197e-14,1.5920643e-13,1.580062642e-13,1.625579061e-13,3.796862873e-14,1.021240357e-13,1.409538721e-13,7.22840553e-14,1.817486767e-14,1.367718313e-14,1.749176519e-13,3.558532999e-14,3.371754548e-14,3.781311872e-14,2.573313082e-14,2.827946292e-14,3.160222066e-14,2.634807446e-14,6.962083621e-15
1.5078125,4.393316481e-14,3.079096458e-14,6.038365499e-14,5.789134221e-14,2.262490499e-14,4.859704338e-14,6.902774788e-15,7.485960688e-14,4.48622316e-15,5.987109202e-14,8.60783582e-14,1.61724272e-14,5.015883689e-14,3.879039423e-14,1.672948046e-13,1.61159787e-13,1.647533777e-13,3.460832135e-14,1.274625164e-13,1.200788255e-13,7.828397783e-14,1.942401971e-14,1.738381431e-14,1.968387284e-13,4.452033116e-14,3.409778906e-14,3.86124918e-14,2.177262241e-14,3.060905635e-14,3.186327141e-14,2.983862217e-14,7.103357587e-15
1.515625,4.183661475e-14,3.109907697e-14,5.050405017e-14,5.759305922e-14,2.082242261e-14,5.301704344e-14,6.390088122e-15,7.546440075e-14,5.05733566e-15,7.101254197e-14,9.111881802e-14,1.827321092e-14,5.115883328e-14,3.956291637e-14,1.850435424e-13,1.642177264e-13,1.690069937e-13,3.25447234e-14,1.564690012e-13,1.037393146e-13,8.455964945e-14,2.067636127e-14,2.107218265e-14,2.275924381e-13,5.348614061e-14,3.561455121e-14,4.027413343e-14,1.858348183e-14,3.370256986e-14,3.274021123e-14,3.37176723e-14,7.692851657e-15
1.5234375,4.059605568e-14,3.075040093e-14,4.134582379e-14,5.584292513e-14,2.075707486e-14,5.759360796e-14,5.980105387e-15,7.073053396e-14,5.516893715e-15,8.365131188e-14,9.623174318e-14,1.942463688e-14,5.120546014e-14,4.057828049e-14,2.112436812e-13,1.666250501e-13,1.766891781e-13,3.13733043e-14,1.877337566e-13,9.397230141e-14,9.605571065e-14,2.161007472e-14,2.425815265e-14,2.65092387e-13,6.08040908e-14,3.678346736e-14,4.021369359e-14,1.63374412e-14,3.647434859e-14,3.311257563e-14,3.568449554e-14,8.280992527e-15
1.53125,4.053905144e-14,2.999501926e-14,3.68310179e-14,5.322092702e-14,2.315460978e-14,6.241970083e-14,5.955988259e-15,6.8307119e-14,5.801373008e-15,9.764034437e-14,9.891349799e-14,1.998585098e-14,5.12000878e-14,4.211370797e-14,2.471983899e-13,1.729786205e-13,1.880373336e-13,3.153973764e-14,2.210877519e-13,9.201665425e-14,1.134628692e-13,2.206638594e-14,2.783267297e-14,3.0067302e-13,6.970334882e-14,3.703015038e-14,3.839297702e-14,1.546259305e-14,3.821983397e-14,3.150716824e-14,3.559578377e-14,9.081258527e-15
1.5390625,4.229577198e-14,2.955185901e-14,3.376378703e-14,5.016522016e-14,2.721106233e-14,6.826481959e-14,6.42135612e-15,6.903780991e-14,6.073772181e-15,1.101743569e-13,1.006184261e-13,2.090175932e-14,5.085231943e-14,4.495825862e-14,2.901063219e-13,1.872505241e-13,2.037063032e-13,3.302061273e-14,2.459859763e-13,9.489560215e-14,1.273027083e-13,2.202378765e-14,3.227605829e-14,3.24796369e-13,8.176632875e-14,3.748260068e-14,3.706599358e-14,1.623858808e-14,4.100051051e-14,2.846347658e-14,3.432341443e-14,9.602033849e-15
1.546875,4.564131655e-14,3.015607318e-14,3.104084235e-14,4.726185099e-14,3.266603965e-14,7.501510601e-14,7.536031048e-15,6.910510238e-14,6.3729938e-15,1.18557622e-13,1.020022959e-13,2.269184146e-14,5.0795352e-14,4.913074887e-14,3.379963841e-13,2.082835735e-13,2.208481455e-13,3.575560356e-14,2.569875902e-13,1.016024157e-13,1.319139245e-13,2.174173926e-14,3.564423618e-14,3.334430465e-13,9.50280032e-14,3.922145334e-14,3.759520279e-14,1.875610309e-14,4.461113389e-14,2.52515469e-14,3.337917039e-14,1.009107955e-14
1.5546875,5.04099651e-14,3.21944346e-14,3.338014982e-14,4.524851247e-14,4.045342641e-14,8.380743118e-14,8.375943001e-15,6.829572483e-14,6.823689326e-15,1.236024881e-13,1.012905075e-13,2.492674909e-14,5.042556236e-14,5.528426908e-14,3.864538594e-13,2.29909674e-13,2.386557741e-13,3.932573836e-14,2.732562865e-13,1.119681316e-13,1.349301343e-13,2.132481951e-14,3.795626109e-14,3.313249812e-13,1.066568056e-13,4.223838944e-14,3.919511931e-14,2.232821649e-14,4.783429723e-14,2.294538125e-14,3.216252308e-14,1.030236376e-14
1.5625,5.56189861e-14,3.554002764e-14,4.07984083e-14,4.442150834e-14,5.011380718e-14,9.490795077e-14,8.542782258e-15,7.004557526e-14,7.306327914e-15,1.272484762e-13,9.667712387e-14,2.735251842e-14,5.000379785e-14,6.242299486e-14,4.316326451e-13,2.448855305e-13,2.544478137e-13,4.27118291e-14,3.089620908e-13,1.250047107e-13,1.415742237e-13,2.086868627e-14,4.052822304e-14,3.207674652e-13,1.188070947e-13,4.627228337e-14,4.146726064e-14,2.642516313e-14,4.984603915e-14,2.125643799e-14,2.998557653e-14,1.035814177e-14
1.5703125,6.037178122e-14,3.995410245e-14,4.755135945e-14,4.490623564e-14,5.95677423e-14,1.074315214e-13,8.598817289e-15,7.649155901e-14,7.900731882e-15,1.294497577e-13,8.982446239e-14,3.023435028e-14,4.876869156e-14,7.080768354e-14,4.708373315e-13,2.522299708e-13,2.68141108e-13,4.651121574e-14,3.549998138e-13,1.359320344e-13,1.455693779e-13,2.005787903e-14,4.466406215e-14,2.986833615e-13,1.331150608e-13,5.132882075e-14,4.454292551e-14,3.13357619e-14,5.16175291e-14,2.035863881e-14,2.731434846e-14,9.980736235e-15
1.578125,6.425890639e-14,4.52553724e-14,4.981034009e-14,4.706804159e-14,6.722558299e-14,1.177898329e-13,9.111318164e-15,8.489887671e-14,8.414422077e-15,1.283206795e-13,8.285865781e-14,3.335935511e-14,4.738769553e-14,7.900788141e-14,5.027347322e-13,2.581597124e-13,2.79493033e-13,4.977806522e-14,3.868752786e-13,1.420655073e-13,1.388644058e-13,1.887492289e-14,4.816802926e-14,2.665132977e-13,1.468633803e-13,5.64030818e-14,4.797140486e-14,3.642113333e-14,5.370854593e-14,1.976420602e-14,2.483156544e-14,9.248242371e-15
1.5859375,6.788327689e-14,5.070318274e-14,5.228428493e-14,5.013801253e-14,7.386344236e-14,1.227694526e-13,9.696430801e-15,8.872477091e-14,8.836733425e-15,1.230847636e-13,7.665767878e-14,3.52303207e-14,4.563626313e-14,8.630985131e-14,5.251828444e-13,2.662098516e-13,2.879129279e-13,5.220218892e-14,3.864718707e-13,1.43465906e-13,1.236111386e-13,1.72973186e-14,4.863951246e-14,2.271157477e-13,1.524096449e-13,5.916289547e-14,4.969812395e-14,4.090383676e-14,5.361864395e-14,1.885468046e-14,2.29183451e-14,8.267875849e-15
1.59375,7.068602649e-14,5.645060487e-14,5.73562313e-14,5.438812044e-14,7.974319458e-14,1.239178302e-13,9.45941754e-15,8.524690464e-14,8.88497746e-15,1.151127674e-13,7.098547095e-14,3.572698636e-14,4.380747461e-14,9.189587648e-14,5.381480009e-13,2.721638964e-13,2.928836148e-13,5.297044005e-14,3.624385438e-13,1.417130439e-13,1.078698585e-13,1.56493681e-14,4.585112483e-14,1.883638027e-13,1.485321308e-13,5.93537386e-14,5.00333492e-14,4.464805129e-14,5.065012446e-14,1.739162668e-14,2.100940051e-14,7.234155415e-15
1.6015625,7.139371101e-14,6.21892952e-14,6.038393474e-14,5.894274479e-14,8.265023653e-14,1.242441344e-13,8.632619878e-15,7.803522857e-14,8.630932013e-15,1.065759928e-13,6.611043518e-14,3.5532103e-14,4.183863862e-14,9.561292106e-14,5.37034996e-13,2.678714832e-13,2.923560421e-13,5.273221679e-14,3.37182859e-13,1.362640028e-13,9.552965955e-14,1.414035626e-14,4.208314577e-14,1.54556917e-13,1.395919287e-13,5.820074962e-14,5.034120796e-14,4.806159993e-14,4.579282859e-14,1.62094859e-14,1.950012226e-14,6.432691479e-15
1.609375,6.899122976e-14,6.737511674e-14,5.80401888e-14,6.332823143e-14,8.133302956e-14,1.253359528e-13,7.684692946e-15,7.270744954e-14,8.036784469e-15,9.860002698e-14,6.206184194e-14,3.535290992e-14,3.92210892e-14,9.716180947e-14,5.226662582e-13,2.527490423e-13,2.845263196e-13,5.174646381e-14,3.266374188e-13,1.277863964e-13,8.577453797e-14,1.280564945e-14,3.873989015e-14,1.269732183e-13,1.301306225e-13,5.708064275e-14,5.160877942e-14,5.107397152e-14,4.063120086e-14,1.565696576e-14,1.851012117e-14,5.820787634e-15
1.6171875,6.46008256e-14,7.17755658e-14,5.414124003e-14,6.738927154e-14,7.711280263e-14,1.252752592e-13,7.225015305e-15,7.140556096e-14,7.275317776e-15,9.13673613e-14,5.946310345e-14,3.49027931e-14,3.700203647e-14,9.664155962e-14,4.963582426e-13,2.34887472e-13,2.721861849e-13,5.066373489e-14,3.259709766e-13,1.193473063e-13,7.912161177e-14,1.171776821e-14,3.510155177e-14,1.06937445e-13,1.201776775e-13,5.558373979e-14,5.300889969e-14,5.299915777e-14,3.596270259e-14,1.549558637e-14,1.851061666e-14,5.714602618e-15
1.625,5.895175984e-14,7.470634579e-14,5.280583813e-14,7.073495287e-14,7.215246286e-14,1.209908039e-13,7.451609984e-15,7.283795453e-14,6.444460161e-15,8.389651438e-14,5.852197138e-14,3.349277911e-14,3.4922407e-14,9.406546689e-14,4.617395739e-13,2.200591862e-13,2.561011536e-13,4.980841678e-14,3.169086294e-13,1.130105142e-13,7.483870816e-14,1.064016299e-14,3.094828522e-14,9.188350086e-14,1.074667919e-13,5.290940501e-14,5.323897549e-14,5.382787298e-14,3.163576483e-14,1.516535462e-14,1.943661953e-14,6.091701307e-15
1.6328125,5.314942956e-14,7.696978308e-14,5.365283154e-14,7.402451321e-14,6.804053407e-14,1.127248012e-13,8.493234956e-15,7.430185761e-14,5.581635042e-15,7.653514826e-14,5.984354367e-14,3.125425222e-14,3.411202321e-14,8.98302634e-14,4.236016232e-13,2.103699628e-13,2.382329068e-13,4.977856833e-14,2.925174108e-13,1.112107197e-13,7.30818107e-14,9.603798628e-15,2.653689462e-14,8.174894564e-14,9.245703788e-14,4.948886399e-14,5.198807273e-14,5.422485614e-14,2.786538429e-14,1.465080474e-14,2.083073249e-14,6.988619846e-15
1.640625,4.718433141e-14,7.887428091e-14,5.527668131e-14,7.707296699e-14,6.473800604e-14,1.035448327e-13,1.008643556e-14,7.351586399e-14,4.850457581e-15,7.031395586e-14,6.314827779e-14,2.853588747e-14,3.3602306e-14,8.517358924e-14,3.835824116e-13,2.039540014e-13,2.206170393e-13,5.110876263e-14,2.595153037e-13,1.139162878e-13,7.333745703e-14,8.654324185e-15,2.249708234e-14,7.736920414e-14,7.662920265e-14,4.576615845e-14,4.90571461e-14,5.466894981e-14,2.443634904e-14,1.428762826e-14,2.26442161e-14,8.302701799e-15
1.6484375,4.136016537e-14,8.086708568e-14,5.774397425e-14,8.048604715e-14,6.253464009e-14,9.582718275e-14,1.190893223e-14,7.021651735e-14,4.209913544e-15,6.552365087e-14,6.721458682e-14,2.60220287e-14,3.427679942e-14,8.060945011e-14,3.467677248e-13,2.017641344e-13,2.050511616e-13,5.322736825e-14,2.251912323e-13,1.212891547e-13,7.463851313e-14,7.890669013e-15,1.85480031e-14,7.757573585e-14,6.202790681e-14,4.286737321e-14,4.572026465e-14,5.53261019e-14,2.170646631e-14,1.420858645e-14,2.419557518e-14,9.770338332e-15
1.65625,3.663785266e-14,8.312089603e-14,6.025991438e-14,8.380194579e-14,6.135663363e-14,9.01445623e-14,1.411394728e-14,6.640606251e-14,3.743677955e-15,6.15859885e-14,7.246507621e-14,2.391946907e-14,3.529956085e-14,7.761584289e-14,3.136866764e-13,2.038913852e-13,1.941121855e-13,5.620360145e-14,1.950541529e-13,1.311182716e-13,7.542522484e-14,7.350904271e-15,1.538608053e-14,7.843553248e-14,4.965134241e-14,4.126922236e-14,4.23974589e-14,5.64729353e-14,1.989948475e-14,1.493263844e-14,2.605171731e-14,1.10810527e-14
1.6640625,3.277443927e-14,8.574786995e-14,6.076369452e-14,8.737917834e-14,6.008588244e-14,8.672664628e-14,1.66185226e-14,6.362297448e-14,3.440932477e-15,5.807879145e-14,7.761986113e-14,2.255342573e-14,3.689172059e-14,7.540794638e-14,2.88226693e-13,2.089821263e-13,1.875926074e-13,5.843621446e-14,1.729155922e-13,1.39495025e-13,7.484372447e-14,7.050740343e-15,1.307030154e-14,7.959879466e-14,4.032148436e-14,4.095973894e-14,4.002435439e-14,5.748822582e-14,1.938524475e-14,1.636336222e-14,2.762779448e-14,1.211214973e-14
1.671875,2.984188309e-14,8.793322144e-14,6.065222676e-14,8.998991538e-14,5.884502451e-14,8.618107774e-14,1.874042397e-14,6.116678497e-14,3.233873509e-15,5.564128077e-14,8.168392568e-14,2.154163033e-14,3.750420572e-14,7.450818305e-14,2.682546593e-13,2.129131795e-13,1.847388453e-13,5.978531758e-14,1.627386166e-13,1.453387259e-13,7.492524079e-14,6.989631392e-15,1.170779726e-14,8.102575795e-14,3.336811437e-14,4.052037069e-14,3.749189936e-14,5.806034674e-14,1.960455902e-14,1.779266748e-14,2.920586373e-14,1.288616955e-14
1.6796875,2.765134842e-14,8.910183436e-14,6.169938465e-14,9.148957539e-14,5.799520758e-14,8.702619018e-14,1.99935501e-14,5.916658055e-14,3.19261642e-15,5.397716816e-14,8.208514064e-14,2.058097619e-14,3.749270913e-14,7.333332398e-14,2.527388963e-13,2.138510107e-13,1.824744828e-13,5.923566074e-14,1.611430322e-13,1.469475029e-13,7.669536839e-14,7.147240761e-15,1.045299468e-14,8.427504406e-14,2.821695527e-14,3.8601325e-14,3.420440278e-14,5.75561042e-14,1.96951815e-14,1.83774267e-14,3.003909697e-14,1.350727389e-14
1.6875,2.640785252e-14,8.867669902e-14,6.434889631e-14,9.122525131e-14,5.77566918e-14,8.764520102e-14,2.049314303e-14,5.906271829e-14,3.198542919e-15,5.197991231e-14,7.96924265e-14,1.949619376e-14,3.669573329e-14,7.245541244e-14,2.402383901e-13,2.139425447e-13,1.804366365e-13,5.69425446e-14,1.610587737e-13,1.431309166e-13,7.837370998e-14,7.490927438e-15,9.253026009e-15,8.621339999e-14,2.397848716e-14,3.557745409e-14,3.006129771e-14,5.616036745e-14,1.978460082e-14,1.835197168e-14,3.032918091e-14,1.376217586e-14
1.6953125,2.59860727e-14,8.687608799e-14,6.600403565e-14,8.975358679e-14,5.733894436e-14,8.695162297e-14,2.086603588e-14,6.052884684e-14,3.378888968e-15,4.833603278e-14,7.545536751e-14,1.856552521e-14,3.525094342e-14,7.051179217e-14,2.297395208e-13,2.147028461e-13,1.76110714e-13,5.300034503e-14,1.58258765e-13,1.32946651e-13,7.608189128e-14,7.95862259e-15,8.049715689e-15,8.604243475e-14,2.033472865e-14,3.221639174e-14,2.606263412e-14,5.430963099e-14,2.007022918e-14,1.840683286e-14,2.991803239e-14,1.363880778e-14
1.703125,2.565112807e-14,8.372345049e-14,6.39435152e-14,8.671422613e-14,5.576714517e-14,8.664210757e-14,2.102411799e-14,6.071199796e-14,3.597049516e-15,4.375412232e-14,6.999266459e-14,1.806994368e-14,3.315586398e-14,6.729606555e-14,2.183157735e-13,2.124959447e-13,1.670641325e-13,4.805608416e-14,1.592728138e-13,1.175968616e-13,7.025948976e-14,8.525539154e-15,7.185917558e-15,8.543347538e-14,1.754537766e-14,2.873580517e-14,2.276637151e-14,5.253727854e-14,2.066778383e-14,1.857633797e-14,2.891419894e-14,1.311435407e-14
1.7109375,2.504016733e-14,7.951462587e-14,5.87726825e-14,8.241233245e-14,5.356993642e-14,8.643408629e-14,2.06142177e-14,5.766605337e-14,4.008578369e-15,3.847621555e-14,6.253713056e-14,1.818614843e-14,3.034820005e-14,6.214967221e-14,2.023448562e-13,2.02330797e-13,1.511948226e-13,4.231617051e-14,1.666126807e-13,9.944937117e-14,6.259782166e-14,9.185602064e-15,6.553437837e-15,8.458506146e-14,1.586309745e-14,2.47466078e-14,2.058981835e-14,5.076191016e-14,2.117306845e-14,1.854073652e-14,2.764194722e-14,1.250443933e-14
1.71875,2.422584231e-14,7.390250872e-14,5.273492833e-14,7.632230749e-14,5.166753626e-14,8.682175817e-14,1.930321726e-14,5.203629618e-14,4.415725126e-15,3.311918836e-14,5.447328716e-14,1.867355229e-14,2.703492322e-14,5.593001555e-14,1.822251656e-13,1.853079598e-13,1.318238032e-13,3.654926751e-14,1.785257448e-13,8.215283917e-14,5.494832471e-14,9.838539529e-15,6.029745464e-15,8.415525883e-14,1.514039669e-14,2.045422315e-14,1.937418679e-14,4.900964001e-14,2.14927099e-14,1.873532899e-14,2.570674761e-14,1.176685469e-14
1.7265625,2.352336385e-14,6.774250609e-14,4.753558293e-14,6.942816558e-14,5.109208311e-14,8.627123132e-14,1.730952529e-14,4.576949276e-14,4.706850019e-15,2.782106766e-14,4.817347469e-14,1.929701225e-14,2.349128737e-14,4.918353968e-14,1.587935669e-13,1.657731381e-13,1.112080379e-13,3.128186907e-14,1.876329603e-13,6.770932583e-14,4.804271031e-14,1.040583053e-14,5.539749689e-15,8.339675899e-14,1.507500971e-14,1.6401465e-14,1.94667133e-14,4.731757351e-14,2.159459788e-14,1.942237406e-14,2.344519372e-14,1.094710791e-14
1.734375,2.294073943e-14,6.135486659e-14,4.284181338e-14,6.202269881e-14,5.133060452e-14,8.423228955e-14,1.507732105e-14,4.031299891e-14,4.785918837e-15,2.249931092e-14,4.289202468e-14,1.96450208e-14,2.058525939e-14,4.250350351e-14,1.337479509e-13,1.469850354e-13,9.240725751e-14,2.675202438e-14,1.918285421e-13,5.693741081e-14,4.170190414e-14,1.083344818e-14,5.015165081e-15,8.374605859e-14,1.473850822e-14,1.309690058e-14,2.010004398e-14,4.527112801e-14,2.16891876e-14,2.113888549e-14,2.079498724e-14,9.974961106e-15
1.7421875,2.253682516e-14,5.536251315e-14,3.792680453e-14,5.493107982e-14,5.18928207e-14,8.168921518e-14,1.293486851e-14,3.580973463e-14,4.793432063e-15,1.835544372e-14,3.96827389e-14,1.968439501e-14,1.809016107e-14,3.632824942e-14,1.104435989e-13,1.316472783e-13,7.846592375e-14,2.288377034e-14,1.948124077e-13,4.956735497e-14,3.634389274e-14,1.100621853e-14,4.625110413e-15,8.678400595e-14,1.409922551e-14,1.061413816e-14,2.110259016e-14,4.277311618e-14,2.222754686e-14,2.366914008e-14,1.808666399e-14,8.940752104e-15
1.75,2.221470454e-14,5.018916075e-14,3.280271634e-14,4.853931176e-14,5.197875526e-14,8.021206556e-14,1.115619242e-14,3.241527025e-14,4.78946659e-15,1.508138001e-14,3.811626092e-14,1.964314189e-14,1.627038917e-14,3.09180777e-14,8.944159154e-14,1.193063132e-13,7.004623511e-14,1.982892367e-14,2.042697568e-13,4.496071682e-14,3.265333892e-14,1.093366233e-14,4.527988586e-15,9.271885142e-14,1.404861249e-14,9.022632719e-15,2.255702154e-14,4.012329985e-14,2.282769718e-14,2.713719021e-14,1.577522259e-14,8.062779816e-15
1.7578125,2.249687591e-14,4.607120487e-14,2.86265013e-14,4.304821172e-14,5.22286359e-14,7.984893469e-14,9.66547598e-15,2.97610191e-14,4.75248474e-15,1.266569928e-14,3.884729268e-14,1.954514331e-14,1.482382709e-14,2.649210524e-14,7.154768777e-14,1.102767939e-13,6.713634759e-14,1.761327071e-14,2.192126006e-13,4.261990731e-14,3.039119981e-14,1.060313926e-14,4.839822202e-15,1.007249968e-13,1.468446786e-14,8.259829909e-15,2.465727833e-14,3.745484712e-14,2.339136506e-14,3.077684863e-14,1.371825728e-14,7.216904341e-15
1.765625,2.358083978e-14,4.291824445e-14,2.584757333e-14,3.830795949e-14,5.18230463e-14,8.005045817e-14,8.615446177e-15,2.724789643e-14,4.67139576e-15,1.107288967e-14,4.113624313e-14,1.938553824e-14,1.425702453e-14,2.302421512e-14,5.778800816e-14,1.053960371e-13,6.979798404e-14,1.620049102e-14,2.338068908e-13,4.17266928e-14,2.893004893e-14,1.014741156e-14,5.340691305e-15,1.099118716e-13,1.578679759e-14,8.010925467e-15,2.648746204e-14,3.474689741e-14,2.357426544e-14,3.463017255e-14,1.209347919e-14,6.513822169e-15
1.7734375,2.543282539e-14,4.035434827e-14,2.472389675e-14,3.408167637e-14,5.060053156e-14,7.997611778e-14,7.818788252e-15,2.460640589e-14,4.639772552e-15,1.036053996e-14,4.424301649e-14,1.898569425e-14,1.407669127e-14,2.064479852e-14,4.852491676e-14,1.045740479e-13,7.67972147e-14,1.56693918e-14,2.377060354e-13,4.188187007e-14,2.726938297e-14,9.64834838e-15,5.978975932e-15,1.184132488e-13,1.706109556e-14,8.113416563e-15,2.729504555e-14,3.219337722e-14,2.354161915e-14,3.808076073e-14,1.110161356e-14,5.902034798e-15
1.78125,2.798999866e-14,3.866500903e-14,2.455410822e-14,3.063786257e-14,4.812181124e-14,7.877286811e-14,7.410593432e-15,2.153474944e-14,4.566224149e-15,1.061954287e-14,4.825637829e-14,1.823126508e-14,1.469165031e-14,1.875865978e-14,4.443618437e-14,1.069639463e-13,8.70581183e-14,1.603974e-14,2.276378669e-13,4.328472172e-14,2.494884065e-14,9.193589468e-15,6.63555907e-15,1.252180653e-13,1.862842659e-14,8.401074063e-15,2.667945364e-14,3.023147551e-14,2.338686426e-14,4.062175597e-14,1.055017645e-14,5.404598859e-15
1.7890625,3.098019609e-14,3.766171427e-14,2.54301274e-14,2.791943331e-14,4.483334493e-14,7.831202504e-14,7.232035259e-15,1.841100814e-14,4.554526675e-15,1.201236697e-14,5.385889687e-14,1.724799995e-14,1.546850169e-14,1.741301252e-14,4.467321003e-14,1.106095228e-13,9.990783637e-14,1.747954216e-14,2.120627332e-13,4.626655996e-14,2.291948219e-14,8.792647896e-15,7.615924219e-15,1.319222187e-13,2.091483761e-14,8.802904359e-15,2.527763955e-14,2.914355314e-14,2.350113218e-14,4.18608918e-14,1.043728978e-14,5.065288021e-15
1.796875,3.434372573e-14,3.733703509e-14,2.79532706e-14,2.595830737e-14,4.127512324e-14,7.981670714e-14,7.222880593e-15,1.586543015e-14,4.598232529e-15,1.44171442e-14,6.229358471e-14,1.62645916e-14,1.656348744e-14,1.644745035e-14,4.953857421e-14,1.151203763e-13,1.154195552e-13,1.98815636e-14,1.985658392e-13,5.148094663e-14,2.170169817e-14,8.474027877e-15,8.77524036e-15,1.386960382e-13,2.452673668e-14,9.470937944e-15,2.365799125e-14,2.921015113e-14,2.393839218e-14,4.233284452e-14,1.043684105e-14,4.694110215e-15
1.8046875,3.816842961e-14,3.730553562e-14,3.352511502e-14,2.423680402e-14,3.830151038e-14,8.39719499e-14,7.43635891e-15,1.430055495e-14,4.760494798e-15,1.758138035e-14,7.266759958e-14,1.530597344e-14,1.775649415e-14,1.640474925e-14,5.871238538e-14,1.221056475e-13,1.342906462e-13,2.370865428e-14,1.888158795e-13,6.031382517e-14,2.127447362e-14,8.202130537e-15,1.00444374e-14,1.459188844e-13,2.921666742e-14,1.016355443e-14,2.174889913e-14,3.066204416e-14,2.44701945e-14,4.22844235e-14,1.082118846e-14,4.430852425e-15
