"Time","Fp1","AF3","F7","F3","FC1","FC5","T7","C3","CP1","CP5","P7","P3","Pz","PO3","O1","Oz","O2","PO4","P4","P8","CP6","CP2","C4","T8","FC6","FC2","F4","F8","AF4","Fp2","Fz","Cz"
0.0078125,1.737866919e-12,8.67643505e-13,4.843745543e-13,2.956348369e-14,6.468169965e-13,5.407673895e-13,1.544653692e-12,1.39554641e-12,2.320484336e-13,3.77345433e-13,3.102355552e-13,6.067228092e-13,3.78051066e-15,4.521491533e-13,1.397040313e-12,3.591202631e-13,3.007122859e-14,1.162908177e-13,7.778241456e-14,1.76750841e-13,1.958348469e-13,2.641250949e-13,2.302895404e-13,6.937558094e-13,6.462526604e-13,2.517014196e-13,1.44814824e-12,1.101795322e-12,1.955816271e-12,2.521995972e-12,9.228734613e-13,2.521290659e-14
0.015625,1.595744116e-12,7.842037159e-13,5.104711413e-13,3.124737297e-14,5.899645073e-13,5.563909663e-13,1.602139759e-12,1.251575222e-12,2.06569555e-13,4.012920444e-13,3.605410853e-13,6.019856841e-13,4.562096554e-15,4.195217275e-13,1.309547438e-12,3.489383204e-13,3.66435963e-14,1.123398152e-13,8.377522391e-14,1.781785938e-13,2.00703847e-13,2.440949556e-13,2.140726697e-13,7.769372028e-13,6.408357055e-13,2.640430044e-13,1.381117153e-12,1.093622486e-12,1.805461212e-12,2.34548413e-12,8.914787113e-13,2.822585971e-14
0.0234375,1.414074437e-12,6.832601763e-13,5.129067346e-13,3.082419717e-14,5.118360747e-13,5.532602115e-13,1.5917653e-12,1.072840909e-12,1.736768022e-13,4.177696481e-13,4.010793921e-13,5.757404696e-13,5.213081562e-15,3.799631387e-13,1.192883037e-12,3.334749266e-13,4.452511734e-14,1.055242532e-13,8.843861826e-14,1.749266207e-13,1.989087644e-13,2.166443017e-13,1.912418028e-13,8.479226583e-13,6.115457968e-13,2.62376682e-13,1.271870615e-12,1.048939978e-12,1.60762889e-12,2.110517086e-12,8.301377553e-13,3.031838605e-14
0.03125,1.231649351e-12,5.793758421e-13,5.025654235e-13,2.976835104e-14,4.267474631e-13,5.409125441e-13,1.550761242e-12,8.840620851e-13,1.397447384e-13,4.305932386e-13,4.285913846e-13,5.498879427e-13,6.109658182e-15,3.38130627e-13,1.068314828e-12,3.147885312e-13,5.288567793e-14,9.709974953e-14,9.1573356e-14,1.684698575e-13,1.989315989e-13,1.875006559e-13,1.661632758e-13,8.973395399e-13,5.717650466e-13,2.537417378e-13,1.139680813e-12,9.824439078e-13,1.386123976e-12,1.865328758e-12,7.644513224e-13,3.103420449e-14
0.0390625,1.064210636e-12,4.84816426e-13,4.852156338e-13,2.901837768e-14,3.449428791e-13,5.233096524e-13,1.485177249e-12,7.078617162e-13,1.094022408e-13,4.383643041e-13,4.400104355e-13,5.275108815e-13,7.758992986e-15,3.005972901e-13,9.562752634e-13,2.989308828e-13,6.215803232e-14,9.007490238e-14,9.392833445e-14,1.595686328e-13,2.030866605e-13,1.590626782e-13,1.412104823e-13,9.254894271e-13,5.255769405e-13,2.40017453e-13,1.002643429e-12,9.07574948e-13,1.174297435e-12,1.639783124e-12,7.044262745e-13,3.034442238e-14
0.046875,9.066293398e-13,4.039543469e-13,4.692535872e-13,2.870508064e-14,2.756038958e-13,4.97004526e-13,1.38089325e-12,5.594572194e-13,8.594449444e-14,4.35651064e-13,4.386293182e-13,4.961310665e-13,1.014991759e-14,2.693368139e-13,8.596416507e-13,2.887188575e-13,7.334063e-14,8.625856927e-14,9.618934037e-14,1.489303223e-13,2.065508891e-13,1.340954044e-13,1.185275711e-13,9.424727788e-13,4.709599357e-13,2.210288271e-13,8.652679445e-13,8.287727058e-13,9.881959986e-13,1.42791011e-12,6.398449901e-13,2.967853809e-14
0.0546875,7.551326092e-13,3.384447992e-13,4.545961192e-13,2.882850117e-14,2.175615008e-13,4.603921974e-13,1.241652904e-12,4.409932164e-13,6.918571382e-14,4.214955834e-13,4.269608483e-13,4.504966335e-13,1.262383455e-14,2.449754681e-13,7.767290849e-13,2.86392831e-13,8.670037546e-14,8.622646313e-14,9.843623116e-14,1.364671794e-13,2.063029408e-13,1.129381203e-13,9.900252664e-14,9.475624093e-13,4.094623605e-13,1.974754779e-13,7.327911476e-13,7.458617343e-13,8.341469939e-13,1.222179442e-12,5.669971498e-13,3.040773187e-14
0.0625,6.13807187e-13,2.843741391e-13,4.474934585e-13,2.975603192e-14,1.750584559e-13,4.189837599e-13,1.097748189e-12,3.483942964e-13,5.78793986e-14,3.97378773e-13,4.073510294e-13,3.985715575e-13,1.482954103e-14,2.250745724e-13,7.039968298e-13,2.910521786e-13,1.009134509e-13,8.882279719e-14,1.002329332e-13,1.234730067e-13,2.033956582e-13,9.638483741e-14,8.403217834e-14,9.366537965e-13,3.491160868e-13,1.738853966e-13,6.079606346e-13,6.598454003e-13,7.033774303e-13,1.023283089e-12,4.915784819e-13,3.282244425e-14
0.0703125,4.880117236e-13,2.400549804e-13,4.483777488e-13,3.199447316e-14,1.422748255e-13,3.79510564e-13,9.734871692e-13,2.720604259e-13,4.941472091e-14,3.675104661e-13,3.796969741e-13,3.538063453e-13,1.713700032e-14,2.07583543e-13,6.463290115e-13,3.024696079e-13,1.15078569e-13,9.353381316e-14,1.018137283e-13,1.107170334e-13,2.000416595e-13,8.219352267e-14,7.173437828e-14,8.927267934e-13,2.98721698e-13,1.541467693e-13,4.974824698e-13,5.761670896e-13,5.865183758e-13,8.42897124e-13,4.24967761e-13,3.590853663e-14
0.078125,3.852295331e-13,2.046082921e-13,4.566468628e-13,3.492656766e-14,1.190005699e-13,3.454149498e-13,8.841348536e-13,2.104107356e-13,4.263302434e-14,3.35441997e-13,3.475221831e-13,3.249672369e-13,2.001784112e-14,1.912449564e-13,6.045258901e-13,3.17418957e-13,1.295168802e-13,1.003816201e-13,1.032108681e-13,9.817252118e-14,1.970432413e-13,7.077909494e-14,6.323602758e-14,8.288361239e-13,2.606428425e-13,1.40758356e-13,4.063953011e-13,5.019588111e-13,4.80469101e-13,6.916241862e-13,3.711406134e-13,3.889342261e-14
0.0859375,3.010985117e-13,1.764509304e-13,4.685175987e-13,3.898595482e-14,9.967963547e-14,3.144893233e-13,8.220987522e-13,1.609921547e-13,3.795968255e-14,3.02687715e-13,3.15830704e-13,3.069045686e-13,2.290861385e-14,1.769676455e-13,5.741045619e-13,3.344257816e-13,1.452622585e-13,1.090364357e-13,1.038321921e-13,8.620694624e-14,2.001334626e-13,6.098100296e-14,5.81096723e-14,7.587938803e-13,2.312895474e-13,1.32368793e-13,3.327919929e-13,4.366543312e-13,3.883675712e-13,5.626373998e-13,3.24169709e-13,4.090360652e-14
0.09375,2.333821455e-13,1.54677723e-13,4.797886531e-13,4.452793116e-14,8.40936638e-14,2.857117648e-13,7.78132885e-13,1.240733071e-13,3.57453222e-14,2.691966448e-13,2.873229789e-13,2.861038939e-13,2.486272917e-14,1.633517472e-13,5.395845255e-13,3.492871255e-13,1.60977982e-13,1.186524224e-13,1.021737734e-13,7.594446259e-14,2.103337724e-13,5.450159253e-14,5.680618094e-14,6.895120211e-13,2.057223375e-13,1.264592629e-13,2.771814404e-13,3.785037077e-13,3.138902647e-13,4.485431788e-13,2.792019542e-13,4.277091321e-14
0.1015625,1.785863944e-13,1.39395727e-13,4.904154591e-13,5.12178713e-14,6.914928988e-14,2.606174615e-13,7.47991235e-13,9.665412023e-14,3.587332463e-14,2.363191074e-13,2.629817361e-13,2.569384281e-13,2.576020975e-14,1.506378718e-13,5.015793536e-13,3.601308031e-13,1.748182986e-13,1.280090514e-13,9.795422521e-14,6.857429752e-14,2.209685976e-13,4.926566207e-14,5.678821825e-14,6.267993225e-13,1.835323841e-13,1.199893872e-13,2.376948898e-13,3.264770723e-13,2.558563039e-13,3.506108433e-13,2.381356273e-13,4.529256306e-14
0.109375,1.356073673e-13,1.29824033e-13,5.035477045e-13,5.730658911e-14,5.555785487e-14,2.430142352e-13,7.434618835e-13,7.744029149e-14,3.689883543e-14,2.074043084e-13,2.433913092e-13,2.293944422e-13,2.679961349e-14,1.371226352e-13,4.641072871e-13,3.651047488e-13,1.874817734e-13,1.3823203e-13,9.240890297e-14,6.405670579e-14,2.210727967e-13,4.409851849e-14,5.681910754e-14,5.83050901e-13,1.685699856e-13,1.149190521e-13,2.152458681e-13,2.856229032e-13,2.112114348e-13,2.749734509e-13,2.089725693e-13,4.809343871e-14
0.1171875,1.09281728e-13,1.267014228e-13,5.202351394e-13,6.229309233e-14,4.456553511e-14,2.342478238e-13,7.625986673e-13,6.569275386e-14,3.855248e-14,1.845733682e-13,2.289238302e-13,2.128759526e-13,2.84128446e-14,1.245096611e-13,4.37404731e-13,3.655232554e-13,1.994295188e-13,1.488098444e-13,8.66580504e-14,6.212659038e-14,2.100260067e-13,3.767349794e-14,5.696382596e-14,5.744285095e-13,1.627253537e-13,1.133773507e-13,2.082891758e-13,2.57383516e-13,1.787171637e-13,2.278268199e-13,1.945778012e-13,4.9939391e-14
0.125,9.493538762e-14,1.238065058e-13,5.366019136e-13,6.670907198e-14,3.713042256e-14,2.31701009e-13,7.87263825e-13,5.796589298e-14,4.043525862e-14,1.665402336e-13,2.200360202e-13,2.032689993e-13,2.961452724e-14,1.110946246e-13,4.093058843e-13,3.588250026e-13,2.105866614e-13,1.585883657e-13,8.034320749e-14,6.23609583e-14,1.967450895e-13,3.135894843e-14,5.803232113e-14,6.102378908e-13,1.603243661e-13,1.136239167e-13,2.096172317e-13,2.36371897e-13,1.529044634e-13,1.957857761e-13,1.871276225e-13,5.028943422e-14
0.1328125,8.617656086e-14,1.188949314e-13,5.464183847e-13,7.119357149e-14,3.320032108e-14,2.326220702e-13,7.997175196e-13,5.334500714e-14,4.232656363e-14,1.510657965e-13,2.178215413e-13,1.908157026e-13,2.91820712e-14,9.630072812e-14,3.728044839e-13,3.458696537e-13,2.226635244e-13,1.684967474e-13,7.297727156e-14,6.485015364e-14,1.868736041e-13,2.67904775e-14,6.119841588e-14,6.956837765e-13,1.545258934e-13,1.116540139e-13,2.135232224e-13,2.182943977e-13,1.332611339e-13,1.684600425e-13,1.778086827e-13,4.969245897e-14
0.140625,7.364892903e-14,1.100880464e-13,5.471696838e-13,7.514293132e-14,3.213630034e-14,2.327993596e-13,7.995629305e-13,4.930347348e-14,4.484978826e-14,1.387412739e-13,2.20145123e-13,1.805059205e-13,2.772609973e-14,8.268485852e-14,3.297189306e-13,3.273373929e-13,2.350152444e-13,1.773046456e-13,6.528703816e-14,6.856149244e-14,1.78112393e-13,2.399590906e-14,6.560303801e-14,8.214207977e-13,1.432641656e-13,1.070176401e-13,2.165500186e-13,2.089564021e-13,1.174455419e-13,1.402761155e-13,1.639941183e-13,4.987602697e-14
0.1484375,6.638383501e-14,1.022215176e-13,5.373299256e-13,7.707190644e-14,3.0533278e-14,2.290309135e-13,8.045356626e-13,4.646243249e-14,4.450943691e-14,1.307067155e-13,2.236008837e-13,1.788150483e-13,2.634460585e-14,6.750640892e-14,2.881495084e-13,3.060367326e-13,2.466699775e-13,1.870481763e-13,5.838180967e-14,7.369155272e-14,1.635697231e-13,2.248318662e-14,7.049653847e-14,9.808109952e-13,1.296315697e-13,1.016822203e-13,2.162136376e-13,2.02491451e-13,1.022571683e-13,1.19281249e-13,1.515372546e-13,5.086908782e-14
0.15625,6.70168661e-14,9.805158459e-14,5.237556245e-13,7.694985556e-14,3.060591787e-14,2.230762913e-13,8.298237838e-13,4.432127532e-14,4.366755578e-14,1.268061463e-13,2.239231144e-13,1.835958884e-13,2.515112182e-14,5.422289926e-14,2.563534804e-13,2.84186036e-13,2.548075334e-13,1.938796101e-13,5.220068831e-14,7.993603301e-14,1.426807239e-13,2.041494934e-14,7.422277884e-14,1.14239427e-12,1.182168014e-13,9.916745316e-14,2.151696094e-13,1.974233487e-13,8.952561192e-14,1.106196444e-13,1.470156637e-13,5.238289655e-14
0.1640625,7.830622182e-14,1.010650953e-13,5.07570627e-13,7.648403154e-14,3.138053938e-14,2.176547081e-13,8.663701722e-13,4.4295711e-14,4.264647195e-14,1.248487162e-13,2.224069624e-13,1.828188174e-13,2.370401393e-14,4.356802404e-14,2.328589905e-13,2.622271984e-13,2.574583865e-13,1.977781849e-13,4.654864622e-14,8.711805073e-14,1.19322337e-13,1.859012116e-14,7.66827378e-14,1.29613572e-12,1.090587636e-13,9.959105856e-14,2.167827581e-13,1.916838567e-13,8.130289091e-14,1.134655689e-13,1.512515702e-13,5.332131442e-14
0.171875,8.684447053e-14,1.045249696e-13,4.87702541e-13,7.745031273e-14,3.255012297e-14,2.132312945e-13,8.882686328e-13,4.362591933e-14,4.429015505e-14,1.219246996e-13,2.176013214e-13,1.716590404e-13,2.218390203e-14,3.588076546e-14,2.110073908e-13,2.385921963e-13,2.559937354e-13,1.964648654e-13,4.162423908e-14,9.396690939e-14,9.795214215e-14,1.70281367e-14,7.890847416e-14,1.428851823e-12,9.938823156e-14,1.007061604e-13,2.200763118e-13,1.892733781e-13,7.283417297e-14,1.127441277e-13,1.562634112e-13,5.486058446e-14
0.1796875,9.2402847e-14,1.113920103e-13,4.656697291e-13,8.025680162e-14,3.159246107e-14,2.078928262e-13,8.890796984e-13,4.376923862e-14,4.673446855e-14,1.205339234e-13,2.088547134e-13,1.606916342e-13,2.117322128e-14,3.124052987e-14,1.895327849e-13,2.140383813e-13,2.5232087e-13,1.936724294e-13,3.753351753e-14,9.779049975e-14,7.837087583e-14,1.614176948e-14,7.937258173e-14,1.546968557e-12,8.946098133e-14,1.021766403e-13,2.204629356e-13,1.914758835e-13,7.054871185e-14,1.094144778e-13,1.588743994e-13,5.7735573e-14
0.1875,9.580813766e-14,1.160986735e-13,4.415890335e-13,8.290512697e-14,3.094726511e-14,2.016911258e-13,8.916884028e-13,4.465139543e-14,4.971979547e-14,1.208223263e-13,1.910306531e-13,1.576855432e-13,2.097168885e-14,2.903910326e-14,1.696486425e-13,1.881101077e-13,2.477598375e-13,1.898800337e-13,3.477780498e-14,9.913433864e-14,6.185965674e-14,1.516059006e-14,7.785354373e-14,1.636398759e-12,7.977730242e-14,1.059564208e-13,2.143466216e-13,1.915739382e-13,7.078920365e-14,1.037042262e-13,1.631208201e-13,6.188714804e-14
0.1953125,1.050996228e-13,1.21073692e-13,4.178533196e-13,8.428861568e-14,3.217143937e-14,1.953482021e-13,9.085248154e-13,4.39015905e-14,5.211188105e-14,1.206273584e-13,1.680564513e-13,1.589968727e-13,2.131167626e-14,2.870691481e-14,1.543257329e-13,1.623621383e-13,2.406542674e-13,1.842349943e-13,3.342063507e-14,1.009257856e-13,5.03889917e-14,1.524019814e-14,7.574325292e-14,1.689826468e-12,7.068319425e-14,1.146515596e-13,2.045639973e-13,1.834831176e-13,6.953662584e-14,1.03763541e-13,1.742474743e-13,6.61832324e-14
0.203125,1.131760829e-13,1.241238293e-13,3.916494224e-13,8.396461868e-14,3.65765583e-14,1.898780802e-13,9.339958049e-13,4.522113891e-14,5.377405066e-14,1.17689404e-13,1.441740546e-13,1.519446822e-13,2.151444167e-14,2.818599798e-14,1.46240067e-13,1.399653354e-13,2.301638363e-13,1.748419929e-13,3.244122392e-14,1.056551038e-13,4.542252195e-14,1.534172556e-14,7.35063562e-14,1.717386229e-12,6.36612855e-14,1.273429478e-13,1.988432133e-13,1.694456728e-13,6.660027169e-14,1.081576423e-13,1.894882755e-13,7.095685678e-14
0.2109375,1.107035222e-13,1.220623329e-13,3.649856411e-13,8.390883531e-14,4.03833754e-14,1.849550216e-13,9.372067781e-13,4.471544999e-14,5.800800612e-14,1.119138243e-13,1.208564669e-13,1.366713607e-13,2.10605742e-14,2.813739517e-14,1.361385765e-13,1.18140341e-13,2.190539087e-13,1.628362242e-13,3.168824605e-14,1.120744261e-13,4.214895529e-14,1.553398519e-14,7.088841483e-14,1.738426549e-12,5.734373192e-14,1.420422334e-13,1.922918563e-13,1.542881752e-13,5.853210744e-14,1.056192131e-13,1.937239108e-13,7.725684623e-14
0.21875,9.619304074e-14,1.188253267e-13,3.375344771e-13,8.426944019e-14,4.293235791e-14,1.810758567e-13,9.010771068e-13,4.696660567e-14,6.224446704e-14,1.050938365e-13,1.015625878e-13,1.209620319e-13,1.996732348e-14,2.840193304e-14,1.288848965e-13,1.006108442e-13,2.115648875e-13,1.544137058e-13,3.212842296e-14,1.167346988e-13,3.727766556e-14,1.577202836e-14,6.92776041e-14,1.761075575e-12,5.408902559e-14,1.569652758e-13,1.907673295e-13,1.419661127e-13,5.631948262e-14,9.736740249e-14,1.874610948e-13,8.376677995e-14
0.2265625,8.21080802e-14,1.171416138e-13,3.118521563e-13,8.474064547e-14,4.300574119e-14,1.801142043e-13,8.490616286e-13,4.873631077e-14,6.685528054e-14,9.986437884e-14,8.581038294e-14,1.112583151e-13,1.901590286e-14,2.968009233e-14,1.224299285e-13,8.812957337e-14,2.077943241e-13,1.479419436e-13,3.293027966e-14,1.199645075e-13,3.258605858e-14,1.666394236e-14,6.817074506e-14,1.785944652e-12,5.220277726e-14,1.774975701e-13,1.946484156e-13,1.306857469e-13,5.432774879e-14,8.927523372e-14,1.819392292e-13,8.825708254e-14
0.234375,7.801719198e-14,1.208073627e-13,2.885122588e-13,8.459241899e-14,4.480859002e-14,1.838228533e-13,8.056198722e-13,5.202240998e-14,6.87971276e-14,9.582590374e-14,7.580928146e-14,1.059341978e-13,1.86540572e-14,3.129827765e-14,1.197513865e-13,8.329819347e-14,2.054671888e-13,1.425214266e-13,3.275028515e-14,1.234372155e-13,3.571229873e-14,1.785327513e-14,6.790132647e-14,1.77908215e-12,5.10294088e-14,2.008264195e-13,2.088129477e-13,1.190281553e-13,5.7648949e-14,9.393964429e-14,1.862048908e-13,8.88454947e-14
0.2421875,7.976913443e-14,1.265278555e-13,2.687276792e-13,8.513678681e-14,4.559612296e-14,1.917796612e-13,7.678022065e-13,5.64363606e-14,7.178535262e-14,9.203550091e-14,6.997453712e-14,1.027461381e-13,1.834059798e-14,3.361620194e-14,1.189494803e-13,8.508841515e-14,2.047848047e-13,1.360845842e-13,3.182779886e-14,1.285367305e-13,4.653405389e-14,1.892783406e-14,6.72130276e-14,1.709498601e-12,5.171068239e-14,2.237237122e-13,2.251058867e-13,1.073621605e-13,6.132355099e-14,1.045921208e-13,1.915387758e-13,8.723335666e-14
0.25,7.680343164e-14,1.306782375e-13,2.520092453e-13,8.67193217e-14,4.789063393e-14,2.002747367e-13,7.031762481e-13,6.333127685e-14,7.485802006e-14,8.70740932e-14,6.659128794e-14,1.011383858e-13,1.725317743e-14,3.682469589e-14,1.25912004e-13,9.395572202e-14,2.072984678e-13,1.329723566e-13,3.164566789e-14,1.31635725e-13,5.781803372e-14,1.922142391e-14,6.670592864e-14,1.578528852e-12,5.654030698e-14,2.403951479e-13,2.436578361e-13,9.791846518e-14,7.28242084e-14,1.152229309e-13,1.891857658e-13,8.582107047e-14
0.2578125,6.42003181e-14,1.299247047e-13,2.3961642e-13,9.006481701e-14,4.858339072e-14,2.087422213e-13,6.246800212e-13,7.154076144e-14,8.099660743e-14,8.281322927e-14,6.553798518e-14,1.025301767e-13,1.613593764e-14,4.089034383e-14,1.370898145e-13,1.078550928e-13,2.15107403e-13,1.324100822e-13,3.226485568e-14,1.298038758e-13,6.482378065e-14,2.033115356e-14,6.950994913e-14,1.417584132e-12,6.572729445e-14,2.554205808e-13,2.625907181e-13,9.331265522e-14,8.504078702e-14,1.158755615e-13,1.837154293e-13,8.430756397e-14
0.265625,5.102019371e-14,1.291443639e-13,2.297670929e-13,9.438709815e-14,5.161124522e-14,2.182417723e-13,5.608587109e-13,8.021808886e-14,8.903680859e-14,7.910610438e-14,6.766625502e-14,1.038183502e-13,1.572445263e-14,4.763931331e-14,1.577672882e-13,1.281782365e-13,2.236363414e-13,1.305026269e-13,3.22414372e-14,1.23840468e-13,7.327900851e-14,2.234049754e-14,7.668680198e-14,1.247223268e-12,7.988906098e-14,2.723792253e-13,2.857386567e-13,9.097582953e-14,9.780945716e-14,1.278841475e-13,1.856150311e-13,8.100495019e-14
0.2734375,4.476431693e-14,1.285441827e-13,2.243382075e-13,9.923470212e-14,5.334172794e-14,2.288366314e-13,5.307808934e-13,8.254731356e-14,9.594134317e-14,7.662172409e-14,7.257846633e-14,1.030239237e-13,1.559841407e-14,5.400465612e-14,1.769289954e-13,1.485557921e-13,2.283645157e-13,1.248084579e-13,3.13785952e-14,1.192236403e-13,8.998747152e-14,2.546927113e-14,8.847651544e-14,1.067027562e-12,9.905586355e-14,2.925443607e-13,3.082493799e-13,8.776509971e-14,1.012090154e-13,1.432366765e-13,1.945028661e-13,7.51652762e-14
0.28125,3.766991014e-14,1.273693034e-13,2.191661985e-13,1.031063545e-13,5.734441839e-14,2.343630806e-13,5.220102949e-13,8.157993815e-14,1.024162921e-13,7.642048624e-14,7.94665643e-14,1.062617151e-13,1.542169647e-14,6.345273053e-14,1.984252212e-13,1.690296663e-13,2.327252243e-13,1.192225958e-13,3.071158078e-14,1.16587379e-13,1.122990266e-13,2.811537255e-14,1.016800643e-13,8.941367715e-13,1.235056061e-13,3.115695699e-13,3.259243163e-13,8.159033051e-14,1.028510473e-13,1.534529418e-13,2.009060837e-13,6.922541582e-14
0.2890625,2.734375436e-14,1.215486869e-13,2.169656964e-13,1.055046288e-13,6.390570564e-14,2.30973467e-13,5.218902571e-13,7.749237363e-14,1.069360153e-13,7.877809193e-14,8.981176324e-14,1.202303022e-13,1.578920374e-14,7.392497584e-14,2.152628339e-13,1.865713132e-13,2.401797211e-13,1.165419724e-13,3.222617315e-14,1.141568825e-13,1.314324432e-13,3.424088274e-14,1.241421748e-13,7.443589751e-13,1.490010301e-13,3.259331047e-13,3.338965321e-13,7.448142467e-14,1.006541361e-13,1.430028212e-13,1.960545877e-13,6.567557947e-14
0.296875,1.99460501e-14,1.167412656e-13,2.113317241e-13,1.063791799e-13,6.855335662e-14,2.205676755e-13,5.355041682e-13,7.325351318e-14,1.106196994e-13,8.404872813e-14,1.03316395e-13,1.403087796e-13,1.732051348e-14,9.024904457e-14,2.410434078e-13,2.029079045e-13,2.480075725e-13,1.163742213e-13,3.634517264e-14,1.133506127e-13,1.467174147e-13,4.08081321e-14,1.487982794e-13,6.196718759e-13,1.749271482e-13,3.326834493e-13,3.429894122e-13,6.972940955e-14,1.017542528e-13,1.334828787e-13,1.8631292e-13,6.366208051e-14
0.3046875,1.947607282e-14,1.174251119e-13,2.09843229e-13,1.065608531e-13,7.231214398e-14,2.10935552e-13,5.898831135e-13,7.072304227e-14,1.134987823e-13,9.173155935e-14,1.209043769e-13,1.569876823e-13,1.944054591e-14,1.092636823e-13,2.736103784e-13,2.174138351e-13,2.514932599e-13,1.167129829e-13,4.252308267e-14,1.188361894e-13,1.628841344e-13,4.805176819e-14,1.76289015e-13,5.079973257e-13,2.046274273e-13,3.383862948e-13,3.568779277e-13,6.917831186e-14,1.020774524e-13,1.365478479e-13,1.826235566e-13,6.190213309e-14
0.3125,2.117514327e-14,1.249898782e-13,2.07203982e-13,1.063411608e-13,7.246799483e-14,2.038443482e-13,6.866515785e-13,7.12789561e-14,1.188495944e-13,1.045092077e-13,1.403047078e-13,1.726976494e-13,2.120943076e-14,1.360171606e-13,3.201417129e-13,2.307312341e-13,2.499322702e-13,1.178146246e-13,5.125513446e-14,1.327355746e-13,1.848522003e-13,5.188926398e-14,1.990625869e-13,4.158431491e-13,2.414990862e-13,3.447502178e-13,3.819900861e-13,7.255447534e-14,1.066212858e-13,1.516184034e-13,1.917655177e-13,5.979570685e-14
0.3203125,2.171338653e-14,1.36855989e-13,2.024012063e-13,1.051917616e-13,7.419870254e-14,1.942357662e-13,7.985531336e-13,7.52915156e-14,1.258766565e-13,1.220423452e-13,1.647445521e-13,1.95813403e-13,2.312169532e-14,1.661736237e-13,3.662643559e-13,2.418267223e-13,2.503471141e-13,1.238031552e-13,6.459407027e-14,1.561123559e-13,2.117380643e-13,5.722866796e-14,2.245214729e-13,3.531044155e-13,2.771510118e-13,3.485532003e-13,4.046379843e-13,7.861162113e-14,1.150825656e-13,1.662965525e-13,2.014250763e-13,5.846857405e-14
0.328125,2.193184895e-14,1.502385224e-13,1.893572675e-13,1.028156834e-13,7.485576904e-14,1.775370073e-13,8.883082335e-13,8.217519841e-14,1.34947939e-13,1.423909657e-13,1.925714668e-13,2.237932916e-13,2.593546027e-14,2.006820545e-13,4.079716016e-13,2.524725502e-13,2.567443069e-13,1.359797095e-13,8.32969825e-14,1.883168173e-13,2.44953399e-13,6.378642131e-14,2.486931452e-13,3.159219802e-13,2.988596859e-13,3.397314396e-13,4.190338476e-13,8.874924969e-14,1.282418046e-13,1.725112259e-13,1.984822729e-13,5.826621565e-14
0.3359375,2.792033484e-14,1.674939672e-13,1.715662158e-13,9.933937347e-14,7.708096515e-14,1.574120694e-13,9.761477909e-13,9.005783504e-14,1.414229001e-13,1.619520707e-13,2.229004765e-13,2.485060463e-13,2.931102026e-14,2.32458603e-13,4.388081962e-13,2.630113919e-13,2.670178676e-13,1.526297867e-13,1.054774437e-13,2.315272587e-13,2.815265708e-13,7.360159115e-14,2.717309938e-13,2.990186118e-13,3.069712685e-13,3.204444431e-13,4.223939559e-13,1.051539309e-13,1.459968018e-13,1.827633694e-13,1.865489718e-13,5.80397397e-14
0.34375,4.314382083e-14,1.8807679e-13,1.542340257e-13,9.571541166e-14,7.897885166e-14,1.413138987e-13,1.094108155e-12,1.003556385e-13,1.488168954e-13,1.835097359e-13,2.504551361e-13,2.773506624e-13,3.283413264e-14,2.628900844e-13,4.723377739e-13,2.72594669e-13,2.765104936e-13,1.695935734e-13,1.308107821e-13,2.849283296e-13,3.142954502e-13,8.235134657e-14,2.839152171e-13,2.9518393e-13,3.115098376e-13,2.994357436e-13,4.269035909e-13,1.291208091e-13,1.607852409e-13,2.08515324e-13,1.810946502e-13,5.698432818e-14
0.3515625,6.371609808e-14,2.054331028e-13,1.383260469e-13,9.111601991e-14,8.152580348e-14,1.308083195e-13,1.222191267e-12,1.073860794e-13,1.536114087e-13,2.056446282e-13,2.716737283e-13,3.181396515e-13,3.697278769e-14,2.865738908e-13,5.067551171e-13,2.774671225e-13,2.857784473e-13,1.871651175e-13,1.595621457e-13,3.448050585e-13,3.28435576e-13,9.019961112e-14,2.852929884e-13,3.10802306e-13,3.173205827e-13,2.792365349e-13,4.281471712e-13,1.578666035e-13,1.700350357e-13,2.459099084e-13,1.826469338e-13,5.535193402e-14
0.359375,7.380723901e-14,2.112458988e-13,1.246677559e-13,8.666281877e-14,8.185118123e-14,1.216428364e-13,1.31744271e-12,1.139305779e-13,1.607696544e-13,2.246856331e-13,2.851478265e-13,3.601731549e-13,4.208355833e-14,3.036370469e-13,5.28672769e-13,2.789381002e-13,3.019062534e-13,2.06089081e-13,1.904415528e-13,4.052745479e-13,3.280017671e-13,9.765160263e-14,2.812203771e-13,3.507264093e-13,3.16276276e-13,2.566389652e-13,4.122462425e-13,1.842712482e-13,1.717780619e-13,2.683253787e-13,1.769626436e-13,5.516175414e-14
0.3671875,7.786729202e-14,2.058014438e-13,1.095133104e-13,8.265519198e-14,8.063493376e-14,1.115468449e-13,1.354088789e-12,1.163342337e-13,1.665438429e-13,2.340145034e-13,2.92944284e-13,3.789759877e-13,4.706993522e-14,3.108960348e-13,5.199122525e-13,2.774974513e-13,3.219006451e-13,2.235764854e-13,2.181421376e-13,4.639511816e-13,3.279895839e-13,1.074320934e-13,2.767506233e-13,4.261795165e-13,3.025435815e-13,2.279016646e-13,3.763905035e-13,2.075918321e-13,1.708582635e-13,2.69602747e-13,1.566818436e-13,5.598957165e-14
0.375,8.77574937e-14,1.992583263e-13,9.455146846e-14,8.008613989e-14,7.559067623e-14,1.031189401e-13,1.377238267e-12,1.222946097e-13,1.745140383e-13,2.35052304e-13,2.954029528e-13,3.702344245e-13,5.025785533e-14,3.094086603e-13,4.856518855e-13,2.726535549e-13,3.381674443e-13,2.340377686e-13,2.384974384e-13,5.201416827e-13,3.37947151e-13,1.170926864e-13,2.677896668e-13,5.276564232e-13,2.81108484e-13,1.965604855e-13,3.338262176e-13,2.323205503e-13,1.683296216e-13,2.688304997e-13,1.317285482e-13,5.600440752e-14
0.3828125,1.157670777e-13,1.953469674e-13,8.161258666e-14,7.747633291e-14,7.035347641e-14,1.00222642e-13,1.412241264e-12,1.262298948e-13,1.806713862e-13,2.312001032e-13,2.884730334e-13,3.548629145e-13,5.196629394e-14,3.009557003e-13,4.470603052e-13,2.656582947e-13,3.477675683e-13,2.364959745e-13,2.508200427e-13,5.701566077e-13,3.45264029e-13,1.222208907e-13,2.525264292e-13,6.536724884e-13,2.632903667e-13,1.672877027e-13,2.973391062e-13,2.615758921e-13,1.634177873e-13,2.849100525e-13,1.145863918e-13,5.387443803e-14
0.390625,1.467558279e-13,1.936893197e-13,7.186360267e-14,7.361128553e-14,6.377718414e-14,1.005071796e-13,1.439418579e-12,1.322574715e-13,1.841214756e-13,2.269466272e-13,2.755283775e-13,3.526959643e-13,5.370568362e-14,2.874687482e-13,4.137751835e-13,2.58009069e-13,3.536382408e-13,2.349401995e-13,2.582834506e-13,6.042615415e-13,3.357458197e-13,1.201307043e-13,2.302359877e-13,7.928750607e-13,2.494324353e-13,1.428472411e-13,2.676078699e-13,2.894313798e-13,1.60105981e-13,3.061273104e-13,1.080391355e-13,5.061420162e-14
0.3984375,1.690013267e-13,1.875984358e-13,6.584769987e-14,6.92949249e-14,5.880646199e-14,9.924824038e-14,1.413027193e-12,1.338745615e-13,1.83030999e-13,2.201133751e-13,2.603042067e-13,3.578069255e-13,5.665896515e-14,2.701652285e-13,3.758402896e-13,2.489848549e-13,3.606385539e-13,2.320904844e-13,2.606476479e-13,6.184117171e-13,3.053812515e-13,1.14586246e-13,2.0575826e-13,9.642528464e-13,2.33558085e-13,1.210260449e-13,2.364561006e-13,3.078741334e-13,1.554525259e-13,3.091045056e-13,1.033662203e-13,4.813976022e-14
0.40625,1.778308185e-13,1.75733784e-13,6.401389434e-14,6.639702926e-14,5.339771669e-14,9.611770979e-14,1.34943891e-12,1.330260696e-13,1.781154223e-13,2.064906593e-13,2.442566451e-13,3.528833445e-13,6.009070077e-14,2.467288156e-13,3.266434823e-13,2.39782426e-13,3.700861983e-13,2.28995823e-13,2.551708244e-13,6.147695722e-13,2.672534134e-13,1.088416935e-13,1.827536664e-13,1.12684804e-12,2.157130286e-13,9.868818941e-14,2.064644454e-13,3.173265247e-13,1.525571091e-13,2.909955118e-13,9.380729506e-14,4.660444105e-14
0.4140625,2.010436312e-13,1.675516468e-13,6.483794652e-14,6.610567763e-14,4.825577383e-14,9.485000791e-14,1.303920562e-12,1.313080177e-13,1.736292198e-13,1.897406025e-13,2.289386865e-13,3.390686515e-13,6.234410932e-14,2.213502181e-13,2.786860796e-13,2.315180595e-13,3.760360589e-13,2.219574864e-13,2.402121907e-13,6.027379198e-13,2.372049475e-13,1.055064312e-13,1.658960768e-13,1.27427838e-12,2.025692012e-13,7.86551144e-14,1.856341756e-13,3.245880898e-13,1.521111944e-13,2.799923802e-13,8.124963498e-14,4.641190073e-14
0.421875,2.392389287e-13,1.617727372e-13,6.391753293e-14,6.689456931e-14,4.482169332e-14,9.792534583e-14,1.296268163e-12,1.297050443e-13,1.688438291e-13,1.759641409e-13,2.159380208e-13,3.263103041e-13,6.300202797e-14,1.970065364e-13,2.393324181e-13,2.260726378e-13,3.752067425e-13,2.111953751e-13,2.186494722e-13,5.835791408e-13,2.174007896e-13,1.007549169e-13,1.528283624e-13,1.380530964e-12,1.96266716e-13,6.323604019e-14,1.748057325e-13,3.34626614e-13,1.512648621e-13,2.819288446e-13,7.270250434e-14,4.562891775e-14
0.4296875,2.736519874e-13,1.584296328e-13,6.18335359e-14,6.8570865e-14,4.190160054e-14,1.033076041e-13,1.286819752e-12,1.300631474e-13,1.677416054e-13,1.677628322e-13,2.057616953e-13,3.122370072e-13,6.218674665e-14,1.754540928e-13,2.039121093e-13,2.232013573e-13,3.706736073e-13,1.985857345e-13,1.950457307e-13,5.566279248e-13,2.008714583e-13,9.432753409e-14,1.412530776e-13,1.465949738e-12,1.9031839e-13,5.3557922e-14,1.702303415e-13,3.424622315e-13,1.503923252e-13,2.810809841e-13,7.161145671e-14,4.358846617e-14
0.4375,2.734372598e-13,1.480783693e-13,6.182305846e-14,7.162970816e-14,4.298863639e-14,1.066959386e-13,1.2383653e-12,1.281283083e-13,1.657224747e-13,1.617628578e-13,1.974606232e-13,2.926400442e-13,6.128160864e-14,1.529888149e-13,1.673274167e-13,2.225711591e-13,3.654586836e-13,1.86812358e-13,1.714062702e-13,5.195552829e-13,1.777782892e-13,8.616380392e-14,1.304109054e-13,1.51925331e-12,1.775006397e-13,4.846740171e-14,1.700277632e-13,3.391152339e-13,1.434763022e-13,2.557762666e-13,7.432128383e-14,4.105535476e-14
0.4453125,2.586696816e-13,1.400323161e-13,6.291272424e-14,7.70651668e-14,4.320263567e-14,1.0735249e-13,1.165348283e-12,1.291991358e-13,1.667303172e-13,1.609455275e-13,1.897308955e-13,2.789165768e-13,6.142964897e-14,1.345130175e-13,1.398012899e-13,2.245738916e-13,3.627111443e-13,1.765107413e-13,1.489996826e-13,4.742736251e-13,1.526160123e-13,7.922354901e-14,1.21782244e-13,1.540256876e-12,1.597115175e-13,4.553626772e-14,1.742802821e-13,3.247709802e-13,1.384682183e-13,2.242382559e-13,7.734638124e-14,3.9271359e-14
0.453125,2.522376649e-13,1.355234889e-13,6.120947702e-14,8.169294218e-14,4.599169573e-14,1.062181783e-13,1.108692277e-12,1.317005783e-13,1.677033794e-13,1.655062692e-13,1.821462058e-13,2.821890971e-13,6.291424278e-14,1.195403037e-13,1.203082122e-13,2.279439403e-13,3.622171357e-13,1.692421195e-13,1.287101727e-13,4.273633274e-13,1.337387324e-13,7.433731444e-14,1.173250677e-13,1.511870348e-12,1.419163726e-13,4.389412548e-14,1.780741211e-13,3.053584172e-13,1.342077244e-13,1.993178085e-13,7.950547378e-14,3.850595149e-14
0.4609375,2.610535213e-13,1.38168126e-13,5.627178821e-14,8.493005747e-14,4.819090269e-14,1.034329827e-13,1.068393496e-12,1.356051584e-13,1.721429809e-13,1.744470108e-13,1.728648744e-13,2.947731499e-13,6.413665822e-14,1.085894129e-13,1.041612458e-13,2.310982672e-13,3.608005869e-13,1.635952391e-13,1.104200141e-13,3.813633842e-13,1.245754294e-13,6.911065222e-14,1.140947199e-13,1.456630637e-12,1.266649689e-13,4.25886638e-14,1.743188457e-13,2.858007374e-13,1.325002069e-13,1.782787389e-13,8.197220827e-14,3.772256508e-14
0.46875,2.620605576e-13,1.413808345e-13,4.974628108e-14,8.677835895e-14,5.218894623e-14,1.001640542e-13,1.021604627e-12,1.388640579e-13,1.770182551e-13,1.821684521e-13,1.63834529e-13,2.957412574e-13,6.28153748e-14,9.666642551e-14,8.872294335e-14,2.34563277e-13,3.59478211e-13,1.604987944e-13,9.45280964e-14,3.36484716e-13,1.199167195e-13,6.432595486e-14,1.122377258e-13,1.394912953e-12,1.128940496e-13,4.240143664e-14,1.667592491e-13,2.678592908e-13,1.30713952e-13,1.559073301e-13,8.338628507e-14,3.653610508e-14
0.4765625,2.438555887e-13,1.454518554e-13,4.510371784e-14,8.856005695e-14,5.578355504e-14,9.71581778e-14,9.461078404e-13,1.43024586e-13,1.829521978e-13,1.882231797e-13,1.557486728e-13,2.780915329e-13,5.87533204e-14,8.556392666e-14,7.85924921e-14,2.387441489e-13,3.586475737e-13,1.583737925e-13,8.08855568e-14,2.913933455e-13,1.203085198e-13,5.954021604e-14,1.104416538e-13,1.342041537e-12,9.843296495e-14,4.427933908e-14,1.59582045e-13,2.502308138e-13,1.291212438e-13,1.334537732e-13,8.230790218e-14,3.587043875e-14
0.484375,2.164930463e-13,1.483732045e-13,4.272028273e-14,9.036889096e-14,5.952523429e-14,9.51946744e-14,8.629403817e-13,1.467102096e-13,1.881230894e-13,1.932952034e-13,1.471558977e-13,2.507187977e-13,5.360031407e-14,7.511069552e-14,7.398779168e-14,2.421590851e-13,3.577701223e-13,1.556087962e-13,6.928097423e-14,2.492013334e-13,1.253726413e-13,5.656873232e-14,1.100430242e-13,1.300117203e-12,8.481582798e-14,4.752038909e-14,1.544909131e-13,2.336425921e-13,1.271862407e-13,1.195690908e-13,8.004876836e-14,3.600983937e-14
0.4921875,1.958464108e-13,1.532948013e-13,4.223144562e-14,9.013380339e-14,6.352601701e-14,9.522273094e-14,7.967290531e-13,1.50849713e-13,1.927622733e-13,1.991433564e-13,1.389204432e-13,2.307857152e-13,4.932506535e-14,6.754248009e-14,7.194472069e-14,2.447356799e-13,3.587865835e-13,1.525324746e-13,6.00882338e-14,2.137102709e-13,1.343549235e-13,5.442429368e-14,1.097171582e-13,1.279515689e-12,7.430385516e-14,5.186052056e-14,1.497530072e-13,2.190008416e-13,1.249218256e-13,1.14260026e-13,8.132772304e-14,3.753756731e-14
0.5,1.872742831e-13,1.577228521e-13,4.128429544e-14,8.64785649e-14,6.800351099e-14,9.594999513e-14,7.451349142e-13,1.513614355e-13,1.929456933e-13,2.041899189e-13,1.325957033e-13,2.21909247e-13,4.616473609e-14,6.157723417e-14,6.948660209e-14,2.460606527e-13,3.612760156e-13,1.488220524e-13,5.327642463e-14,1.854127673e-13,1.428196911e-13,5.458402457e-14,1.111658394e-13,1.314840647e-12,6.661859356e-14,5.747245697e-14,1.447830404e-13,2.047665279e-13,1.203813903e-13,1.118650676e-13,8.745891984e-14,4.001558527e-14
0.5078125,1.824548127e-13,1.612406346e-13,4.082195439e-14,8.096323739e-14,7.318187318e-14,9.556070066e-14,6.831395252e-13,1.530149041e-13,1.892677462e-13,2.066087135e-13,1.272520915e-13,2.158076102e-13,4.30027495e-14,5.601818929e-14,6.617272152e-14,2.485912269e-13,3.661133132e-13,1.450203724e-13,4.819699865e-14,1.630819642e-13,1.54705052e-13,5.622404807e-14,1.143613927e-13,1.405454482e-12,5.967997796e-14,6.380804863e-14,1.376768513e-13,1.871086806e-13,1.129254479e-13,1.044673676e-13,9.353155627e-14,4.385348146e-14
0.515625,1.731494635e-13,1.563472347e-13,4.27242347e-14,7.592697121e-14,7.800192804e-14,9.510708631e-14,5.93777711e-13,1.509564249e-13,1.815645337e-13,2.027521336e-13,1.242216561e-13,2.014698123e-13,3.90661435e-14,4.98588902e-14,6.259101306e-14,2.543222103e-13,3.733060713e-13,1.407581266e-13,4.42927988e-14,1.461373253e-13,1.74463815e-13,5.959575517e-14,1.199935017e-13,1.561564926e-12,5.422087594e-14,7.025696378e-14,1.290910109e-13,1.65336015e-13,1.028536652e-13,9.179789492e-14,9.246111596e-14,4.851313667e-14
0.5234375,1.557799733e-13,1.46530426e-13,4.892483631e-14,7.246894227e-14,8.163790171e-14,9.700774722e-14,5.009335883e-13,1.504643491e-13,1.719789925e-13,1.91231933e-13,1.240284335e-13,1.781027075e-13,3.480478511e-14,4.454830573e-14,5.999912642e-14,2.625196774e-13,3.818951587e-13,1.364288483e-13,4.052697251e-14,1.334224378e-13,1.999933431e-13,6.215439876e-14,1.242803101e-13,1.780629498e-12,5.395319095e-14,7.535351618e-14,1.226808902e-13,1.461458052e-13,9.439012598e-14,8.19308285e-14,8.474878128e-14,5.31941398e-14
0.53125,1.313838956e-13,1.336945132e-13,5.643352273e-14,7.127538811e-14,8.340208623e-14,1.012593e-13,4.223142435e-13,1.444985359e-13,1.605300595e-13,1.738641263e-13,1.261496031e-13,1.547632693e-13,3.128637659e-14,4.181859567e-14,5.931184803e-14,2.729452712e-13,3.906725202e-13,1.305645165e-13,3.751945104e-14,1.234729018e-13,2.251647315e-13,6.337779291e-14,1.258930444e-13,2.052883267e-12,5.864658606e-14,8.10918154e-14,1.205171128e-13,1.329904149e-13,8.846137428e-14,7.399861049e-14,7.653198195e-14,5.740367999e-14
0.5390625,1.102300301e-13,1.23966e-13,6.454990227e-14,7.216973641e-14,8.552507779e-14,1.095960668e-13,3.611813335e-13,1.397042467e-13,1.467877389e-13,1.545111627e-13,1.278736793e-13,1.363530414e-13,2.880214739e-14,4.004815172e-14,6.419014301e-14,2.878568607e-13,4.001317495e-13,1.257107827e-13,3.553933289e-14,1.167019979e-13,2.436920936e-13,6.321664528e-14,1.242317588e-13,2.360642675e-12,6.668986153e-14,8.773625833e-14,1.217501214e-13,1.246531091e-13,8.494138579e-14,7.173559004e-14,7.228130182e-14,6.145086853e-14
0.546875,9.811250264e-14,1.161615542e-13,7.69859059e-14,7.553746507e-14,8.503429838e-14,1.238726775e-13,3.070579926e-13,1.329596139e-13,1.32373123e-13,1.352888063e-13,1.279468722e-13,1.227862281e-13,2.70606393e-14,3.944345104e-14,7.161299968e-14,3.048352227e-13,4.092507263e-13,1.205274095e-13,3.420646991e-14,1.12731021e-13,2.557427408e-13,6.386671263e-14,1.223377728e-13,2.664971409e-12,7.86957029e-14,9.244340237e-14,1.255692098e-13,1.203590089e-13,8.5224511e-14,7.457720789e-14,7.044537617e-14,6.605324992e-14
0.5546875,9.205827822e-14,1.048041864e-13,9.626280004e-14,8.124974383e-14,8.550487243e-14,1.433354998e-13,2.621771665e-13,1.246538574e-13,1.166885972e-13,1.150587535e-13,1.258007647e-13,1.108272508e-13,2.59519467e-14,3.785889521e-14,7.848419865e-14,3.220485755e-13,4.18000798e-13,1.17019664e-13,3.286526465e-14,1.100574708e-13,2.651613295e-13,6.599203989e-14,1.209686368e-13,2.950300347e-12,9.747339098e-14,9.438048241e-14,1.33757462e-13,1.221706814e-13,8.843131364e-14,8.6187437e-14,6.851562257e-14,7.053585748e-14
0.5625,8.62277502e-14,9.435312252e-14,1.183879015e-13,8.958640092e-14,8.37801461e-14,1.616900213e-13,2.344146532e-13,1.139867025e-13,1.027584951e-13,9.431637282e-14,1.230510979e-13,1.015955362e-13,2.575640753e-14,3.616424856e-14,8.344085146e-14,3.347009783e-13,4.262611385e-13,1.142394809e-13,3.094235606e-14,1.086613495e-13,2.781590466e-13,6.980067511e-14,1.205465328e-13,3.21715641e-12,1.208314086e-13,9.564522872e-14,1.529230537e-13,1.274880717e-13,9.778235582e-14,1.003026592e-13,7.095859268e-14,7.311851571e-14
0.5703125,7.839876007e-14,8.466622878e-14,1.356906706e-13,9.90031522e-14,8.494042534e-14,1.744458204e-13,2.165025416e-13,1.007288886e-13,8.777113803e-14,7.429462478e-14,1.223251101e-13,9.604204359e-14,2.677311873e-14,3.37032252e-14,8.822368553e-14,3.423418071e-13,4.32400117e-13,1.127002493e-13,2.904549412e-14,1.084521081e-13,2.961687724e-13,7.365026495e-14,1.192487381e-13,3.486935476e-12,1.431220565e-13,9.922559527e-14,1.747768153e-13,1.333051327e-13,1.0715489e-13,1.117442485e-13,7.753392705e-14,7.284855871e-14
0.578125,6.932464068e-14,7.919040968e-14,1.512338886e-13,1.094352547e-13,8.495775414e-14,1.837509496e-13,2.047066036e-13,8.925632082e-14,7.455844576e-14,5.658430484e-14,1.221144291e-13,9.051484632e-14,2.807345774e-14,3.08501818e-14,9.274197363e-14,3.440876607e-13,4.341990574e-13,1.111443951e-13,2.753105866e-14,1.093960294e-13,3.110615451e-13,7.582881952e-14,1.166643522e-13,3.720863408e-12,1.623446899e-13,1.023520814e-13,1.92038817e-13,1.402875527e-13,1.165197505e-13,1.16773386e-13,8.35105142e-14,6.995282184e-14
0.5859375,6.066730259e-14,7.239686097e-14,1.694972173e-13,1.198179593e-13,8.622752284e-14,1.946628247e-13,1.998503433e-13,7.948245838e-14,6.073819968e-14,4.238230405e-14,1.224192104e-13,8.178163944e-14,2.848673786e-14,2.73633316e-14,1.026602324e-13,3.426349207e-13,4.26284172e-13,1.080109387e-13,2.662771244e-14,1.114845157e-13,3.149476455e-13,7.629970165e-14,1.121495811e-13,3.921982812e-12,1.831567331e-13,1.042972277e-13,2.010772993e-13,1.513150009e-13,1.241944015e-13,1.272062633e-13,8.449420564e-14,6.677814032e-14
0.59375,5.657302628e-14,7.006491929e-14,1.962488979e-13,1.310073436e-13,8.572131477e-14,2.074880906e-13,2.076488924e-13,7.263225559e-14,4.975445405e-14,3.273294381e-14,1.226420466e-13,7.533258788e-14,2.815588397e-14,2.40443299e-14,1.200650603e-13,3.358326283e-13,4.062958812e-13,1.024145811e-13,2.647119001e-14,1.141038795e-13,3.064787754e-13,7.559919193e-14,1.060318632e-13,4.055900306e-12,2.090440084e-13,1.048528715e-13,2.089680373e-13,1.660119486e-13,1.304541322e-13,1.454991785e-13,8.553209054e-14,6.358105915e-14
0.6015625,5.531104111e-14,7.151906142e-14,2.2854036e-13,1.414922523e-13,8.345659181e-14,2.188853951e-13,2.271599414e-13,6.591085513e-14,4.048227537e-14,2.729168229e-14,1.242998948e-13,7.447554467e-14,2.80806883e-14,2.352280015e-14,1.422205839e-13,3.218950301e-13,3.761368694e-13,9.542073143e-14,2.699867809e-14,1.173801646e-13,2.928723348e-13,7.563393853e-14,9.988202244e-14,4.156588747e-12,2.37508288e-13,1.05044144e-13,2.1742887e-13,1.809507221e-13,1.337262501e-13,1.663895964e-13,9.058310696e-14,5.983183551e-14
0.609375,5.435052243e-14,7.508690909e-14,2.663154219e-13,1.49845993e-13,7.788748555e-14,2.254244007e-13,2.489573617e-13,5.829172929e-14,3.259765493e-14,2.515830127e-14,1.291563425e-13,7.629202375e-14,2.878819283e-14,2.430756897e-14,1.555826574e-13,2.985748161e-13,3.392447778e-13,8.771159403e-14,2.848601217e-14,1.210007866e-13,2.802740039e-13,7.640827185e-14,9.521637205e-14,4.209631376e-12,2.602185558e-13,1.043296174e-13,2.208059583e-13,1.921872277e-13,1.302939801e-13,1.732120698e-13,9.771044198e-14,5.437957914e-14
0.6171875,5.209709679e-14,7.4823521e-14,3.08241659e-13,1.56052619e-13,6.982874378e-14,2.296621535e-13,2.620979702e-13,5.025224869e-14,2.592065905e-14,2.518818698e-14,1.376202288e-13,7.75354084e-14,2.974415567e-14,2.761443638e-14,1.627413597e-13,2.695562995e-13,2.991198592e-13,8.047206518e-14,3.105053831e-14,1.246198812e-13,2.68968652e-13,7.809800356e-14,9.135543884e-14,4.211980597e-12,2.751456358e-13,1.017699363e-13,2.120666799e-13,2.012442038e-13,1.218763358e-13,1.68981852e-13,9.91270716e-14,4.840758474e-14
0.625,5.197968545e-14,7.199381036e-14,3.578231688e-13,1.588294462e-13,6.106502741e-14,2.3426869e-13,2.71422148e-13,4.318114292e-14,1.979914858e-14,2.739710617e-14,1.500000587e-13,7.981457937e-14,3.032460795e-14,3.338416176e-14,1.722666092e-13,2.382883073e-13,2.56671068e-13,7.453505712e-14,3.475903763e-14,1.273607415e-13,2.55713714e-13,7.961389101e-14,8.647931094e-14,4.138347824e-12,2.858637488e-13,9.77782818e-14,1.93758277e-13,2.101390065e-13,1.116215877e-13,1.639229802e-13,9.196256523e-14,4.322447034e-14
0.6328125,5.554729394e-14,7.164377915e-14,4.0980655e-13,1.595477487e-13,5.09185377e-14,2.386857099e-13,2.82355183e-13,3.667977537e-14,1.560688902e-14,3.163130135e-14,1.648463237e-13,8.321011051e-14,3.063069689e-14,4.265940728e-14,1.846457062e-13,2.063608101e-13,2.13925686e-13,6.95051796e-14,3.908461429e-14,1.29584039e-13,2.397967799e-13,8.151194219e-14,7.968924059e-14,4.004755747e-12,2.943485983e-13,9.316932389e-14,1.737870787e-13,2.18091758e-13,1.027189591e-13,1.656329692e-13,8.156995865e-14,3.922830842e-14
0.640625,6.082502045e-14,7.342222707e-14,4.588284012e-13,1.581474529e-13,4.168562249e-14,2.396063116e-13,2.94749513e-13,3.193142675e-14,1.261324659e-14,3.654514517e-14,1.808407432e-13,8.405430995e-14,3.09128339e-14,5.285418188e-14,1.944091735e-13,1.766848659e-13,1.736920621e-13,6.533279243e-14,4.372854231e-14,1.305949627e-13,2.242938335e-13,8.239584728e-14,7.277077755e-14,3.838807168e-12,2.984786579e-13,8.938510072e-14,1.550404828e-13,2.218869474e-13,9.405256579e-14,1.680739147e-13,7.355525439e-14,3.682214094e-14
0.6484375,6.631449413e-14,7.56928673e-14,4.944843004e-13,1.539318669e-13,3.280238762e-14,2.346961137e-13,3.07883773e-13,2.823884507e-14,1.085172146e-14,4.143271246e-14,1.960151818e-13,8.296043331e-14,3.127719453e-14,6.462683888e-14,2.004104291e-13,1.505232046e-13,1.386179524e-13,6.186802464e-14,4.871898169e-14,1.303218243e-13,2.086524118e-13,8.26506213e-14,6.796990569e-14,3.644053796e-12,2.946944514e-13,8.740412162e-14,1.386165224e-13,2.189868436e-13,8.726819315e-14,1.669809495e-13,6.885826599e-14,3.663371375e-14
0.65625,6.818142186e-14,7.444259387e-14,5.152962543e-13,1.458913642e-13,2.625207902e-14,2.239265829e-13,3.180248713e-13,2.702535725e-14,9.393928772e-15,4.629865559e-14,2.058007466e-13,8.266556227e-14,3.167503065e-14,7.63620184e-14,2.066733155e-13,1.286233667e-13,1.090296194e-13,5.927836106e-14,5.363113008e-14,1.278005303e-13,1.89207238e-13,7.996228713e-14,6.099202156e-14,3.419886016e-12,2.80742861e-13,8.692965316e-14,1.240290752e-13,2.094315095e-13,8.043327185e-14,1.603381154e-13,6.519258299e-14,3.843394898e-14
0.6640625,6.839902138e-14,7.172467491e-14,5.218864292e-13,1.347298697e-13,2.078442132e-14,2.106935293e-13,3.252414854e-13,2.792417022e-14,8.617933333e-15,5.164592539e-14,2.104039317e-13,8.38603848e-14,3.199445555e-14,8.955076169e-14,2.152654195e-13,1.112646475e-13,8.503395157e-14,5.716262007e-14,5.793740432e-14,1.222479222e-13,1.657125684e-13,7.656914947e-14,5.341847172e-14,3.186328222e-12,2.604918579e-13,8.730373969e-14,1.123146999e-13,1.972489933e-13,7.644826741e-14,1.57050546e-13,6.141128717e-14,4.205722289e-14
0.671875,6.768517523e-14,6.932001092e-14,5.138320385e-13,1.218374053e-13,1.735330651e-14,1.952638207e-13,3.397539679e-13,2.985698327e-14,8.538052613e-15,5.697467245e-14,2.134430907e-13,8.38402607e-14,3.259609328e-14,1.023447827e-13,2.209890182e-13,9.702550252e-14,6.55750177e-14,5.420303735e-14,6.07968518e-14,1.143430901e-13,1.411106945e-13,7.25445258e-14,4.650762997e-14,2.944069942e-12,2.387627318e-13,8.700265159e-14,1.025734552e-13,1.84539231e-13,7.209341592e-14,1.568188211e-13,5.770875138e-14,4.719716806e-14
0.6796875,7.134705229e-14,7.060487567e-14,4.868963326e-13,1.084622263e-13,1.48590065e-14,1.761073508e-13,3.59159659e-13,3.268063508e-14,9.658153841e-15,6.184624841e-14,2.141997483e-13,7.900762204e-14,3.332573194e-14,1.156399156e-13,2.215025928e-13,8.670357953e-14,5.065110632e-14,5.017656511e-14,6.164975258e-14,1.054519846e-13,1.191901351e-13,6.812870316e-14,4.172186772e-14,2.716644994e-12,2.152226782e-13,8.529083353e-14,9.387369258e-14,1.709250733e-13,6.817090183e-14,1.583192506e-13,5.554290129e-14,5.347083935e-14
0.6875,7.724734244e-14,7.265906781e-14,4.428926118e-13,9.481476158e-14,1.431508005e-14,1.53318217e-13,3.849139488e-13,3.537065062e-14,1.087983867e-14,6.608816736e-14,2.126528851e-13,7.03801087e-14,3.336582503e-14,1.278981533e-13,2.205626863e-13,7.981145922e-14,4.051487726e-14,4.535738812e-14,6.074468675e-14,9.64154354e-14,1.009608096e-13,6.167705902e-14,3.65427395e-14,2.523795008e-12,1.883713343e-13,8.231940215e-14,8.585318358e-14,1.536101596e-13,6.245388389e-14,1.547145546e-13,5.556815013e-14,5.906924267e-14
0.6953125,8.568172727e-14,7.66860047e-14,3.884481478e-13,8.179551953e-14,1.386770997e-14,1.293420877e-13,4.107179375e-13,4.032586856e-14,1.312706458e-14,7.1062199e-14,2.087814193e-13,6.249096559e-14,3.237115793e-14,1.413939167e-13,2.224121609e-13,7.605722635e-14,3.400169435e-14,4.088864875e-14,5.891821719e-14,8.726249374e-14,8.545966878e-14,5.353444507e-14,3.076813331e-14,2.379718811e-12,1.608382355e-13,7.886576127e-14,7.955492898e-14,1.339541635e-13,5.983227683e-14,1.504771438e-13,5.852050648e-14,6.306463884e-14
0.703125,9.362931026e-14,7.960816345e-14,3.304507201e-13,7.064896649e-14,1.469554462e-14,1.064849147e-13,4.373653922e-13,4.476949238e-14,1.545441862e-14,7.588081038e-14,2.039808719e-13,5.651621237e-14,3.063028979e-14,1.553280535e-13,2.302746315e-13,7.528391373e-14,3.012642024e-14,3.700597342e-14,5.727874734e-14,7.903684509e-14,7.234076016e-14,4.508235813e-14,2.535185232e-14,2.279513975e-12,1.362515667e-13,7.54813248e-14,7.483540521e-14,1.146111421e-13,5.813070098e-14,1.476765578e-13,6.371827146e-14,6.598638482e-14
0.7109375,1.006943362e-13,8.336150278e-14,2.76230798e-13,6.259249668e-14,1.520215469e-14,8.707886116e-14,4.614490442e-13,5.072620324e-14,1.863298263e-14,8.068212012e-14,1.992054472e-13,5.220907288e-14,2.870293412e-14,1.690269384e-13,2.400209853e-13,7.710284404e-14,2.835714304e-14,3.42490769e-14,5.57995513e-14,7.242109884e-14,6.162377485e-14,3.731610367e-14,2.094673856e-14,2.229694895e-12,1.16231781e-13,7.193697338e-14,7.150428681e-14,9.659716068e-14,5.866038008e-14,1.491731683e-13,7.176661483e-14,6.86099151e-14
0.71875,1.06814226e-13,8.612442717e-14,2.288924444e-13,5.726064212e-14,1.751634704e-14,7.16199702e-14,4.892037325e-13,5.572754348e-14,2.150433591e-14,8.607054756e-14,1.968775231e-13,4.980500936e-14,2.680724017e-14,1.818121077e-13,2.524471726e-13,8.117788208e-14,2.801242207e-14,3.149148888e-14,5.4461503e-14,6.686137592e-14,5.435111812e-14,3.16716499e-14,1.869212191e-14,2.209568454e-12,1.004808361e-13,7.09833567e-14,6.874837826e-14,8.092802464e-14,5.977671569e-14,1.523320012e-13,8.274287148e-14,7.139665492e-14
0.7265625,1.118780518e-13,8.796910006e-14,1.901112066e-13,5.513110828e-14,2.055845455e-14,5.964572595e-14,5.207162914e-13,6.016574325e-14,2.367808057e-14,9.11431388e-14,1.978292369e-13,4.939717488e-14,2.526720328e-14,1.923869734e-13,2.676123661e-13,8.713464431e-14,2.838543627e-14,2.881204989e-14,5.334812357e-14,6.175499587e-14,5.059385352e-14,2.754519345e-14,1.776222044e-14,2.215637185e-12,8.743918188e-14,7.194735725e-14,6.636811561e-14,6.707787292e-14,6.279284015e-14,1.525085493e-13,9.592229586e-14,7.397808116e-14
0.734375,1.1405559e-13,8.608789304e-14,1.588406222e-13,5.541052818e-14,2.503491283e-14,4.980114313e-14,5.495901377e-13,6.234311108e-14,2.464360782e-14,9.404108057e-14,1.989416582e-13,4.865453613e-14,2.388284489e-14,1.968770704e-13,2.861896846e-13,9.418848695e-14,2.936315868e-14,2.663569892e-14,5.278242123e-14,5.713368255e-14,4.954567308e-14,2.49781104e-14,1.860176496e-14,2.234772514e-12,7.626848912e-14,7.38751588e-14,6.312823176e-14,5.486142686e-14,6.396786094e-14,1.469963021e-13,1.067508338e-13,7.574783878e-14
0.7421875,1.135735525e-13,8.134006845e-14,1.349910481e-13,5.759422465e-14,2.913205389e-14,4.196881361e-14,5.686028914e-13,6.362491267e-14,2.480900518e-14,9.519720522e-14,1.996287295e-13,4.705218714e-14,2.230946775e-14,1.963604818e-13,3.078877709e-13,1.023651735e-13,3.015852034e-14,2.461249697e-14,5.312586528e-14,5.353242281e-14,5.111799506e-14,2.3206513e-14,2.126512845e-14,2.257505154e-12,6.742760443e-14,7.493735358e-14,5.969895032e-14,4.481698372e-14,6.50941149e-14,1.380403583e-13,1.147246907e-13,7.5926031e-14
0.75,1.124812937e-13,7.526577492e-14,1.193006925e-13,6.095888548e-14,3.360430419e-14,3.70539142e-14,5.8185316e-13,6.419347108e-14,2.509569108e-14,9.568700697e-14,1.994950798e-13,4.58794947e-14,2.068258113e-14,1.918354492e-13,3.321445931e-13,1.108912242e-13,3.012926426e-14,2.290107654e-14,5.426700373e-14,5.110459233e-14,5.46095701e-14,2.177121619e-14,2.467076945e-14,2.285979469e-12,6.200321086e-14,7.599412527e-14,5.68104651e-14,3.816101449e-14,6.609689489e-14,1.297908277e-13,1.211367984e-13,7.546059461e-14
0.7578125,1.135091635e-13,7.076503294e-14,1.106691853e-13,6.439183654e-14,3.722491049e-14,3.36393211e-14,5.946734079e-13,6.225643617e-14,2.416327293e-14,9.522391083e-14,1.97697709e-13,4.625283099e-14,1.930131325e-14,1.849665487e-13,3.548101412e-13,1.183887261e-13,2.913363758e-14,2.167218057e-14,5.612135344e-14,4.960334368e-14,5.784114845e-14,2.143344246e-14,2.832861521e-14,2.295366351e-12,5.824622602e-14,7.741200766e-14,5.506285009e-14,3.459745357e-14,7.011178455e-14,1.242794724e-13,1.30317078e-13,7.430423802e-14
0.765625,1.159967541e-13,6.815559047e-14,1.062091048e-13,6.73346072e-14,4.147271153e-14,3.05239065e-14,6.121018142e-13,5.760725016e-14,2.258696818e-14,9.338775536e-14,1.947549391e-13,4.790417176e-14,1.863970906e-14,1.751160333e-13,3.765610192e-13,1.260004675e-13,2.762338909e-14,2.101840043e-14,5.851253577e-14,4.885050149e-14,5.981555407e-14,2.198726463e-14,3.22079815e-14,2.295820777e-12,5.473113012e-14,7.932333004e-14,5.325371257e-14,3.38350257e-14,7.63091986e-14,1.207485494e-13,1.417191428e-13,7.231383914e-14
0.7734375,1.195520342e-13,6.609585843e-14,1.042682829e-13,6.86432114e-14,4.533401949e-14,2.735754038e-14,6.286086598e-13,5.099549243e-14,2.060175467e-14,8.970674223e-14,1.898692225e-13,4.93882794e-14,1.85786456e-14,1.623272379e-13,3.923877928e-13,1.323940256e-13,2.644814817e-14,2.124516416e-14,6.104257837e-14,4.864406378e-14,6.042297699e-14,2.369446701e-14,3.652014996e-14,2.284342161e-12,5.070947303e-14,7.969573865e-14,5.107696224e-14,3.432879607e-14,8.351663117e-14,1.188656599e-13,1.532568395e-13,6.894027749e-14
0.78125,1.200181377e-13,6.311788164e-14,1.022247325e-13,6.818562724e-14,4.855627432e-14,2.477990114e-14,6.393676796e-13,4.375291469e-14,1.907778112e-14,8.530907389e-14,1.819696464e-13,5.024163826e-14,1.882342425e-14,1.479494275e-13,3.999514935e-13,1.364022682e-13,2.540327194e-14,2.211498417e-14,6.335027631e-14,4.803368916e-14,5.994459664e-14,2.498830287e-14,3.984448093e-14,2.254338467e-12,4.629823681e-14,7.795980504e-14,4.942984427e-14,3.638605223e-14,8.977830709e-14,1.169151817e-13,1.631237044e-13,6.511398082e-14
0.7890625,1.165226092e-13,5.89102481e-14,1.00329442e-13,6.579747493e-14,5.010732548e-14,2.294601383e-14,6.370416363e-13,3.717519112e-14,1.729419822e-14,8.167954916e-14,1.733105659e-13,5.104080314e-14,1.910290974e-14,1.33493314e-13,3.96775222e-13,1.372372539e-13,2.433162436e-14,2.358350046e-14,6.529001698e-14,4.702901779e-14,5.969982542e-14,2.608478852e-14,4.273928833e-14,2.196897624e-12,4.263881254e-14,7.472273395e-14,4.940642809e-14,4.117076719e-14,9.559585877e-14,1.161134321e-13,1.718017663e-13,6.069532762e-14
0.796875,1.0861538e-13,5.512617819e-14,9.889443178e-14,6.261201494e-14,5.089278637e-14,2.199919288e-14,6.218111375e-13,3.201386503e-14,1.568976043e-14,7.943277721e-14,1.645355964e-13,5.215943549e-14,1.951752078e-14,1.202877453e-13,3.818267525e-13,1.337624295e-13,2.288891422e-14,2.506796232e-14,6.64220253e-14,4.575070967e-14,5.977088761e-14,2.647271198e-14,4.461207897e-14,2.116219969e-12,3.982105466e-14,7.128798275e-14,5.137797032e-14,4.781730259e-14,1.025140218e-13,1.145374449e-13,1.802478809e-13,5.579174749e-14
0.8046875,9.957093792e-14,5.206449766e-14,9.827797613e-14,5.927959623e-14,5.123057318e-14,2.190677538e-14,5.98133964e-13,2.831144123e-14,1.451319407e-14,7.776115188e-14,1.558830475e-13,5.296559691e-14,2.034738777e-14,1.081288238e-13,3.541694633e-13,1.261166891e-13,2.100000479e-14,2.678447754e-14,6.60488262e-14,4.435347223e-14,5.977987277e-14,2.647431796e-14,4.638372453e-14,2.016717575e-12,3.827939708e-14,6.857234282e-14,5.414815845e-14,5.605399477e-14,1.094180576e-13,1.126811248e-13,1.886546568e-13,4.999634019e-14
0.8125,9.209320859e-14,4.987446639e-14,9.663190063e-14,5.551533806e-14,5.169850519e-14,2.212041939e-14,5.687090305e-13,2.603955713e-14,1.41067991e-14,7.666954214e-14,1.457174592e-13,5.255859359e-14,2.169062251e-14,9.771175573e-14,3.209223422e-13,1.164835475e-13,1.89246234e-14,2.79733299e-14,6.373711577e-14,4.230530488e-14,6.001252391e-14,2.530208104e-14,4.622916134e-14,1.900646168e-12,3.7973591e-14,6.598299885e-14,5.768049833e-14,6.602738964e-14,1.139068429e-13,1.117928757e-13,1.96098433e-13,4.355787104e-14
0.8203125,8.51914686e-14,4.74133281e-14,9.17533041e-14,5.272949902e-14,5.21927311e-14,2.253507837e-14,5.309282693e-13,2.409460985e-14,1.39173306e-14,7.610738269e-14,1.359757417e-13,5.158165129e-14,2.340471371e-14,8.778631595e-14,2.86671554e-13,1.060440425e-13,1.69358652e-14,2.925615813e-14,6.033643032e-14,3.948593466e-14,6.047225208e-14,2.365403092e-14,4.526774215e-14,1.769104168e-12,4.018241888e-14,6.34942106e-14,6.198410209e-14,7.843934978e-14,1.138266481e-13,1.104374559e-13,2.003361232e-13,3.694712781e-14
0.828125,7.857801739e-14,4.587842111e-14,8.600401583e-14,5.146640955e-14,5.197236159e-14,2.33550775e-14,4.815219336e-13,2.256581592e-14,1.389376703e-14,7.633253138e-14,1.26363318e-13,5.155782315e-14,2.539515151e-14,7.991117202e-14,2.524587694e-13,9.474286607e-14,1.527867692e-14,3.047369444e-14,5.634091652e-14,3.617922425e-14,6.093000359e-14,2.149004162e-14,4.378658533e-14,1.621960371e-12,4.59096686e-14,6.092838508e-14,6.587147039e-14,9.295822161e-14,1.104263924e-13,1.073685634e-13,1.989730865e-13,3.098431348e-14
0.8359375,7.136918507e-14,4.602132379e-14,7.963079409e-14,5.228285085e-14,5.078863162e-14,2.474036476e-14,4.295034142e-13,2.145147791e-14,1.402813423e-14,7.588807693e-14,1.184143769e-13,5.222931147e-14,2.769428765e-14,7.457834158e-14,2.197459047e-13,8.496379728e-14,1.4454537e-14,3.243053388e-14,5.197110388e-14,3.330037992e-14,6.23768929e-14,1.910250205e-14,4.229397366e-14,1.464465737e-12,5.546065904e-14,5.857434292e-14,6.915158221e-14,1.086802496e-13,1.075246264e-13,1.01943086e-13,1.927090668e-13,2.586224222e-14
0.84375,6.52881101e-14,4.807350701e-14,7.433642998e-14,5.544689531e-14,4.840853896e-14,2.718900146e-14,3.832539268e-13,2.164499016e-14,1.489085329e-14,7.469037223e-14,1.117594239e-13,5.256694108e-14,3.062573552e-14,7.18653577e-14,1.921358626e-13,7.942870445e-14,1.4769474e-14,3.484042461e-14,4.693819961e-14,3.121594487e-14,6.402114314e-14,1.677520654e-14,3.997471134e-14,1.300542506e-12,6.977981084e-14,5.672417736e-14,7.175439196e-14,1.255318625e-13,1.056661529e-13,9.658883322e-14,1.837926669e-13,2.157515338e-14
0.8515625,6.243086507e-14,5.060260865e-14,6.887787183e-14,6.043677737e-14,4.575196567e-14,3.00953629e-14,3.502012698e-13,2.342176288e-14,1.694359792e-14,7.293348866e-14,1.075914265e-13,5.289469299e-14,3.424233794e-14,7.190826093e-14,1.749374866e-13,7.99544789e-14,1.651403032e-14,3.762917718e-14,4.175448068e-14,2.989289515e-14,6.515079492e-14,1.512973475e-14,3.800779497e-14,1.130686085e-12,8.962359902e-14,5.570927894e-14,7.533308477e-14,1.439408201e-13,1.034135941e-13,9.313181638e-14,1.750136675e-13,1.797843881e-14
0.859375,6.258880764e-14,5.336887386e-14,6.247500135e-14,6.698005062e-14,4.317633818e-14,3.273710274e-14,3.360685992e-13,2.628294937e-14,1.899744861e-14,7.140631838e-14,1.067102788e-13,5.373418451e-14,3.820673365e-14,7.472805746e-14,1.723939594e-13,8.881356647e-14,1.979516408e-14,4.024591964e-14,3.721804568e-14,2.960277165e-14,6.515497181e-14,1.397768827e-14,3.778861302e-14,9.724786832e-13,1.143507241e-13,5.599997239e-14,8.032379314e-14,1.637641193e-13,1.016696778e-13,9.433546443e-14,1.666427095e-13,1.485063562e-14
0.8671875,6.255276844e-14,5.580205101e-14,5.721034158e-14,7.504924863e-14,4.145899825e-14,3.574529634e-14,3.363251195e-13,3.010046899e-14,2.197848709e-14,6.976468794e-14,1.091650364e-13,5.422327926e-14,4.20583422e-14,7.998127826e-14,1.836679338e-13,1.068185895e-13,2.424170692e-14,4.237682471e-14,3.307266294e-14,3.034664434e-14,6.539230197e-14,1.338731795e-14,3.951804356e-14,8.338472595e-13,1.427937978e-13,5.771861084e-14,8.560100187e-14,1.844397236e-13,9.917008355e-14,9.556449672e-14,1.557098943e-13,1.28337305e-14
0.875,6.13151128e-14,5.841390897e-14,5.377862507e-14,8.391130143e-14,3.969138077e-14,3.980813622e-14,3.525973383e-13,3.483820811e-14,2.521778048e-14,6.780256414e-14,1.144716928e-13,5.348186316e-14,4.599994345e-14,8.947712525e-14,2.123328777e-13,1.368724127e-13,3.017281304e-14,4.431867925e-14,2.954351136e-14,3.206987223e-14,6.787370291e-14,1.358321377e-14,4.277469844e-14,7.153166734e-13,1.766617199e-13,6.021781635e-14,9.217407574e-14,2.073481672e-13,9.97848084e-14,1.007961711e-13,1.419133229e-13,1.202337434e-14
0.8828125,6.162453768e-14,6.001180002e-14,5.386615598e-14,9.316416637e-14,3.868300568e-14,4.456122261e-14,3.87063752e-13,3.952374699e-14,2.901748778e-14,6.550846513e-14,1.218063831e-13,5.273904631e-14,5.022201458e-14,1.010275706e-13,2.570067169e-13,1.769099653e-13,3.756540454e-14,4.587043857e-14,2.67068846e-14,3.464025875e-14,7.131026919e-14,1.506376829e-14,4.743668379e-14,6.259763477e-13,2.173628649e-13,6.364629086e-14,1.000107267e-13,2.332062033e-13,9.974955056e-14,1.092281317e-13,1.273347569e-13,1.191835404e-14
0.890625,6.567906201e-14,6.071236002e-14,5.610103517e-14,1.012116047e-13,3.738553942e-14,4.943845558e-14,4.387487003e-13,4.459806495e-14,3.242541778e-14,6.332980309e-14,1.314347259e-13,5.385240068e-14,5.440042428e-14,1.155280118e-13,3.172324574e-13,2.269956328e-13,4.654196033e-14,4.652834445e-14,2.449907186e-14,3.846968332e-14,7.163900962e-14,1.729067599e-14,5.367266275e-14,5.662289238e-13,2.639737325e-13,6.874258734e-14,1.124084537e-13,2.614329518e-13,1.038488797e-13,1.24046299e-13,1.154342926e-13,1.202292465e-14
0.8984375,6.867996644e-14,5.900766234e-14,5.906757974e-14,1.078391016e-13,3.604316241e-14,5.406979931e-14,4.953302551e-13,4.903267356e-14,3.561872667e-14,6.122475523e-14,1.430679955e-13,5.546000816e-14,5.73977588e-14,1.305198863e-13,3.817384659e-13,2.829068971e-13,5.663020117e-14,4.56654149e-14,2.283293414e-14,4.369488222e-14,7.019779604e-14,2.0699301e-14,6.168051642e-14,5.372149846e-13,3.092616809e-13,7.490560424e-14,1.284192033e-13,2.918312289e-13,1.085617196e-13,1.371355088e-13,1.045925449e-13,1.249288254e-14
0.90625,6.785047409e-14,5.603124146e-14,6.227746231e-14,1.130074278e-13,3.316199602e-14,5.907934088e-14,5.360113835e-13,5.367775017e-14,3.843510304e-14,5.898186273e-14,1.539870612e-13,5.376289024e-14,5.832212332e-14,1.459242803e-13,4.473266244e-13,3.415915294e-13,6.70677335e-14,4.317177212e-14,2.142853158e-14,5.003316018e-14,7.127247495e-14,2.44708718e-14,6.99680228e-14,5.336805184e-13,3.51149412e-13,7.922855239e-14,1.475060375e-13,3.24950669e-13,1.174713442e-13,1.508305277e-13,9.170323463e-14,1.352600817e-14
0.9140625,6.42058621e-14,5.248576669e-14,6.696876842e-14,1.16521261e-13,2.959761716e-14,6.482018736e-14,5.627478344e-13,5.761979089e-14,4.15628102e-14,5.593207203e-14,1.628697347e-13,5.017348557e-14,5.734333459e-14,1.601008899e-13,5.10284744e-13,3.966844754e-13,7.678667653e-14,3.990120362e-14,2.038330817e-14,5.725545294e-14,7.399043176e-14,2.82139816e-14,7.692884194e-14,5.496091174e-13,3.899623389e-13,8.222706166e-14,1.672232113e-13,3.608934259e-13,1.260986803e-13,1.651158126e-13,7.758777246e-14,1.562627519e-14
0.921875,6.458037606e-14,4.963673856e-14,7.24782267e-14,1.178492424e-13,2.611594394e-14,7.122176706e-14,5.848309965e-13,6.137584788e-14,4.467088128e-14,5.288741169e-14,1.685699694e-13,4.983056609e-14,5.55312534e-14,1.738463839e-13,5.747381524e-13,4.466396028e-13,8.533080057e-14,3.638968416e-14,2.004116082e-14,6.546354785e-14,7.742395613e-14,3.110404858e-14,8.151763173e-14,5.791403837e-13,4.270337016e-13,8.557785627e-14,1.889868216e-13,3.98996999e-13,1.350264323e-13,1.854143522e-13,6.664787274e-14,1.852032821e-14
0.9296875,6.579307743e-14,4.638198999e-14,7.509139856e-14,1.155866331e-13,2.253887672e-14,7.681603575e-14,5.932863652e-13,6.452070896e-14,4.79900356e-14,4.991325045e-14,1.710408687e-13,5.303230917e-14,5.31486378e-14,1.834171142e-13,6.223666519e-13,4.831750677e-13,9.23026733e-14,3.302189141e-14,2.016328327e-14,7.425557032e-14,8.288486809e-14,3.350705519e-14,8.436249997e-14,6.127472484e-13,4.553947065e-13,8.88947779e-14,2.106088342e-13,4.330407054e-13,1.403073718e-13,2.014207337e-13,5.880230617e-14,2.190593046e-14
0.9375,6.448384882e-14,4.277230023e-14,7.452821735e-14,1.098266082e-13,1.992468855e-14,8.133622714e-14,5.774489461e-13,6.688886514e-14,5.13067058e-14,4.673099009e-14,1.704267184e-13,5.546842331e-14,4.986429851e-14,1.88724126e-13,6.469242875e-13,5.064597959e-13,9.842440564e-14,2.978859944e-14,2.007998763e-14,8.356585345e-14,9.256944859e-14,3.563440044e-14,8.642453597e-14,6.494156244e-13,4.659527002e-13,9.071242535e-14,2.284945589e-13,4.55490182e-13,1.433008299e-13,2.077975198e-13,5.111400088e-14,2.606312162e-14
0.9453125,5.871595083e-14,3.864466141e-14,7.286584936e-14,1.017376896e-13,1.727127333e-14,8.524390416e-14,5.323842396e-13,6.851554072e-14,5.503775989e-14,4.356763988e-14,1.666602614e-13,5.674316746e-14,4.550917925e-14,1.88655003e-13,6.439777988e-13,5.116431542e-13,1.027931316e-13,2.647476912e-14,1.999909925e-14,9.209003014e-14,1.019115113e-13,3.753911703e-14,8.871511481e-14,6.699384604e-13,4.567090584e-13,9.020660492e-14,2.392250823e-13,4.613845973e-13,1.433065859e-13,2.027782514e-13,4.158068179e-14,3.182148383e-14
0.953125,5.455247889e-14,3.592937497e-14,7.110137278e-14,9.240335214e-14,1.531044818e-14,8.879727197e-14,4.787129378e-13,6.944739236e-14,5.802258717e-14,4.090351094e-14,1.581106256e-13,6.105748708e-14,4.12218224e-14,1.856968341e-13,6.22965263e-13,4.995775614e-13,1.03642928e-13,2.343573242e-14,2.02749654e-14,9.853310901e-14,1.052124075e-13,3.844595356e-14,8.973320482e-14,6.736656054e-13,4.342180017e-13,8.881972061e-14,2.43706642e-13,4.539897417e-13,1.401046666e-13,1.957708296e-13,3.24772268e-14,3.84601547e-14
0.9609375,5.419682743e-14,3.515791294e-14,6.863292379e-14,8.284835127e-14,1.361433348e-14,9.228165592e-14,4.268633331e-13,6.900894788e-14,6.02752175e-14,4.038093427e-14,1.465159151e-13,6.966397226e-14,3.722941059e-14,1.803656292e-13,5.897119013e-13,4.721356243e-13,1.0046107e-13,2.074008283e-14,2.108936626e-14,1.028853211e-13,1.033093913e-13,3.903169449e-14,9.065550526e-14,6.756137104e-13,4.061967955e-13,8.824654184e-14,2.427117309e-13,4.381296541e-13,1.323501628e-13,1.907012998e-13,2.65087367e-14,4.475640948e-14
0.96875,5.474095552e-14,3.688496023e-14,6.50208424e-14,7.330035902e-14,1.270419071e-14,9.56878758e-14,3.764576099e-13,6.883608658e-14,6.218193929e-14,4.258487792e-14,1.333175458e-13,7.748646944e-14,3.319407917e-14,1.730287663e-13,5.402714486e-13,4.318230851e-13,9.380295275e-14,1.850969473e-14,2.162522012e-14,1.052015404e-13,1.022960237e-13,3.971398495e-14,9.374594452e-14,6.796418685e-13,3.723214568e-13,8.83418981e-14,2.360368955e-13,4.12324826e-13,1.220925722e-13,1.861961355e-13,2.331334441e-14,4.994714838e-14
0.9765625,5.388644693e-14,4.003877654e-14,6.132680673e-14,6.485441972e-14,1.242033294e-14,9.978742998e-14,3.244435502e-13,6.812885414e-14,6.355914424e-14,4.742776839e-14,1.198364169e-13,8.209234032e-14,2.953728969e-14,1.640669384e-13,4.753906856e-13,3.836564319e-13,8.601027113e-14,1.677040414e-14,2.142376615e-14,1.052790893e-13,1.031706486e-13,4.050035288e-14,9.899684405e-14,6.871126537e-13,3.339037376e-13,8.753725332e-14,2.234407671e-13,3.768337022e-13,1.121700283e-13,1.810163015e-13,2.131605505e-14,5.503604926e-14
0.984375,5.527036759e-14,4.607327279e-14,5.91382774e-14,5.789149731e-14,1.23055394e-14,1.036183017e-13,2.753582611e-13,6.926658203e-14,6.426835479e-14,5.533379957e-14,1.064065889e-13,8.798179066e-14,2.717420306e-14,1.554740488e-13,4.038653606e-13,3.310348223e-13,7.815240098e-14,1.580692613e-14,2.089135517e-14,1.028469806e-13,1.016184564e-13,4.132757544e-14,1.072437049e-13,6.945379096e-13,2.948385036e-13,8.610325625e-14,2.070332344e-13,3.352273731e-13,1.04560602e-13,1.766556247e-13,1.978643246e-14,5.947943685e-14
0.9921875,6.014494568e-14,5.337348872e-14,5.808036627e-14,5.212107805e-14,1.248666307e-14,1.057222278e-13,2.354595511e-13,7.050368755e-14,6.372583202e-14,6.622659185e-14,9.370308891e-14,9.87384365e-14,2.6180898e-14,1.491037751e-13,3.385978535e-13,2.80239357e-13,7.058779956e-14,1.557290648e-14,2.069112394e-14,9.840974838e-14,9.708216623e-14,4.159431217e-14,1.162118713e-13,7.116303691e-13,2.603058481e-13,8.545434206e-14,1.893425414e-13,2.939635144e-13,9.949557227e-14,1.746776756e-13,1.999291012e-14,6.231177024e-14
1,6.972797784e-14,6.294830054e-14,5.700939924e-14,4.782747809e-14,1.318601533e-14,1.061867911e-13,2.06691784e-13,7.326952412e-14,6.284995617e-14,8.036249668e-14,8.356520901e-14,1.109995458e-13,2.566054217e-14,1.442643184e-13,2.823001663e-13,2.340042037e-13,6.325445901e-14,1.555903491e-14,2.038707977e-14,9.260757679e-14,9.308713794e-14,4.21647622e-14,1.282196816e-13,7.363165204e-13,2.345414338e-13,8.614893685e-14,1.732310006e-13,2.582869899e-13,9.729972323e-14,1.778216149e-13,2.234381955e-14,6.259931453e-14
1.0078125,8.322923334e-14,7.209333369e-14,5.575651186e-14,4.475765954e-14,1.389877641e-14,1.065978931e-13,1.859698253e-13,7.679953601e-14,6.226162493e-14,9.694243078e-14,7.55082687e-14,1.204231495e-13,2.498213345e-14,1.403483714e-13,2.372946177e-13,1.951730668e-13,5.598777394e-14,1.55955143e-14,1.943512917e-14,8.663692468e-14,9.455246806e-14,4.22286929e-14,1.414706818e-13,7.551473974e-13,2.177725789e-13,8.588702519e-14,1.588303217e-13,2.303872876e-13,9.73526214e-14,1.874884153e-13,2.478064479e-14,6.086010408e-14
1.015625,9.911908626e-14,8.059465999e-14,5.614968164e-14,4.258937576e-14,1.48028893e-14,1.081208637e-13,1.744424024e-13,8.109778291e-14,6.296781606e-14,1.152236395e-13,6.958097628e-14,1.267525276e-13,2.483696857e-14,1.367797992e-13,2.032762569e-13,1.654249022e-13,4.940655304e-14,1.562004632e-14,1.803432612e-14,8.155427511e-14,9.849866526e-14,4.301586518e-14,1.557560391e-13,7.558969085e-13,2.111166896e-13,8.468963201e-14,1.460706621e-13,2.120958178e-13,9.885746426e-14,2.033497106e-13,2.604058498e-14,5.821869801e-14
1.0234375,1.120080813e-13,8.647027544e-14,5.881501767e-14,4.042186779e-14,1.558227247e-14,1.088437654e-13,1.713612079e-13,8.675281134e-14,6.435398428e-14,1.341687697e-13,6.585727773e-14,1.314231467e-13,2.580322097e-14,1.332575961e-13,1.798265361e-13,1.448016154e-13,4.430663698e-14,1.589935514e-14,1.653664017e-14,7.761371519e-14,1.004200015e-13,4.352245036e-14,1.670340203e-13,7.439171939e-13,2.129563868e-13,8.338308438e-14,1.363317421e-13,2.007536919e-13,1.031928337e-13,2.179341626e-13,2.716635026e-14,5.504458465e-14
1.03125,1.203074609e-13,9.12310217e-14,6.219603508e-14,3.798855897e-14,1.661761177e-14,1.061886752e-13,1.751662307e-13,9.167701844e-14,6.622825226e-14,1.512460948e-13,6.40648772e-14,1.346539693e-13,2.751918374e-14,1.292753823e-13,1.61409953e-13,1.321578499e-13,4.145980715e-14,1.631439971e-14,1.497409475e-14,7.506476804e-14,1.001221765e-13,4.35771366e-14,1.750159322e-13,7.241309707e-13,2.184336362e-13,8.304047236e-14,1.282200302e-13,1.919529449e-13,1.080393475e-13,2.240524616e-13,2.868889782e-14,5.096354899e-14
1.0390625,1.289218187e-13,9.588145821e-14,6.501616352e-14,3.517747191e-14,1.807506848e-14,1.000904608e-13,1.871185518e-13,9.653284734e-14,6.827381816e-14,1.654815257e-13,6.386516082e-14,1.377409915e-13,2.967718543e-14,1.256697953e-13,1.483493471e-13,1.27354097e-13,4.064304371e-14,1.715556409e-14,1.344276992e-14,7.410004154e-14,1.020243113e-13,4.347714457e-14,1.817238589e-13,6.898168404e-13,2.235055279e-13,8.287566217e-14,1.227682327e-13,1.830406173e-13,1.127926715e-13,2.241511859e-13,3.068841533e-14,4.590348628e-14
1.046875,1.437819134e-13,1.015974098e-13,6.805454562e-14,3.211483495e-14,1.977336442e-14,9.364397332e-14,2.094278716e-13,1.004886104e-13,7.022237879e-14,1.777607826e-13,6.490501653e-14,1.429816745e-13,3.239321132e-14,1.233960932e-13,1.427064537e-13,1.293301802e-13,4.146825548e-14,1.83122489e-14,1.20369748e-14,7.415542253e-14,1.068503516e-13,4.420786427e-14,1.872031577e-13,6.341019496e-13,2.271721071e-13,8.245724077e-14,1.194398071e-13,1.761887515e-13,1.158828066e-13,2.263739986e-13,3.34294161e-14,4.057650243e-14
1.0546875,1.610389521e-13,1.051548208e-13,7.406495786e-14,2.892768845e-14,2.135935891e-14,8.861369003e-14,2.388368221e-13,1.038554035e-13,7.074205184e-14,1.880358872e-13,6.626424259e-14,1.491249922e-13,3.5960791e-14,1.215749509e-13,1.454755326e-13,1.380413976e-13,4.416847697e-14,1.980221146e-14,1.090218424e-14,7.455135622e-14,1.10127336e-13,4.500836475e-14,1.884973112e-13,5.660380829e-13,2.319555218e-13,8.20292312e-14,1.182394376e-13,1.71944695e-13,1.173106133e-13,2.296212364e-13,3.675319434e-14,3.549560225e-14
1.0625,1.717264436e-13,1.043603765e-13,8.296132967e-14,2.573315622e-14,2.218100134e-14,8.376525924e-14,2.67642904e-13,1.052347824e-13,7.012435694e-14,1.941105952e-13,6.771348063e-14,1.520363502e-13,3.99449825e-14,1.197906497e-13,1.511632175e-13,1.516104847e-13,4.903600861e-14,2.112344786e-14,1.026254578e-14,7.608012903e-14,1.107696969e-13,4.579004212e-14,1.855297198e-13,5.009163777e-13,2.352591238e-13,8.224962484e-14,1.182026401e-13,1.667083212e-13,1.16633187e-13,2.233818219e-13,3.912155375e-14,3.082171516e-14
1.0703125,1.744207564e-13,9.951608452e-14,9.22050117e-14,2.329753876e-14,2.313433891e-14,7.705691875e-14,2.959676775e-13,1.035827808e-13,6.789969276e-14,1.940192007e-13,6.891075159e-14,1.488896172e-13,4.341885934e-14,1.178393322e-13,1.579068368e-13,1.691108526e-13,5.535419559e-14,2.239297222e-14,9.882440723e-15,7.921467378e-14,1.117665956e-13,4.631939932e-14,1.797867749e-13,4.487004533e-13,2.326999235e-13,8.275609509e-14,1.197881649e-13,1.580334338e-13,1.127261605e-13,2.062431009e-13,4.051175137e-14,2.683465001e-14
1.078125,1.745850635e-13,9.28731649e-14,9.709428142e-14,2.124737682e-14,2.425807392e-14,6.84974248e-14,3.237356741e-13,9.938355087e-14,6.506154162e-14,1.889887428e-13,6.973522533e-14,1.421669763e-13,4.651756965e-14,1.155843203e-13,1.650637983e-13,1.883989112e-13,6.275019454e-14,2.359653186e-14,9.650283609e-15,8.252145756e-14,1.154842493e-13,4.729078195e-14,1.748238427e-13,4.059001342e-13,2.214326691e-13,8.280559285e-14,1.210935508e-13,1.460108942e-13,1.064277547e-13,1.839333732e-13,4.178314682e-14,2.367584755e-14
1.0859375,1.743479801e-13,8.590549935e-14,9.855844548e-14,1.95960684e-14,2.527234904e-14,6.092210549e-14,3.48986462e-13,9.452543415e-14,6.196413047e-14,1.818720748e-13,7.019998983e-14,1.360847646e-13,4.932355649e-14,1.151688999e-13,1.748176118e-13,2.101223615e-13,7.180524276e-14,2.500633994e-14,9.970831766e-15,8.397840797e-14,1.22223848e-13,4.935960545e-14,1.722146946e-13,3.808864153e-13,2.049840204e-13,8.198561664e-14,1.194371756e-13,1.342017442e-13,9.919597194e-14,1.642394666e-13,4.208626362e-14,2.104734226e-14
1.09375,1.679169764e-13,7.724282069e-14,9.980323577e-14,1.837192959e-14,2.546719847e-14,5.590129249e-14,3.586677325e-13,8.86332123e-14,5.812992974e-14,1.735621574e-13,7.0642702e-14,1.301854768e-13,5.212434795e-14,1.14239217e-13,1.796758246e-13,2.282876571e-13,8.183385416e-14,2.641376343e-14,1.074895717e-14,8.271679487e-14,1.33021422e-13,5.325497751e-14,1.74733629e-13,3.715448029e-13,1.897329818e-13,7.962970352e-14,1.140156474e-13,1.235064606e-13,9.100237623e-14,1.449344675e-13,3.96811953e-14,1.901620896e-14
1.1015625,1.555532806e-13,6.869321565e-14,9.980809176e-14,1.712581063e-14,2.465701374e-14,5.231060707e-14,3.547956835e-13,8.312470206e-14,5.435900675e-14,1.646694641e-13,7.056684889e-14,1.220742959e-13,5.493817348e-14,1.135591599e-13,1.780372811e-13,2.402798812e-13,9.211020391e-14,2.81030516e-14,1.136647474e-14,8.036302629e-14,1.485006105e-13,5.861827249e-14,1.815551451e-13,3.786850983e-13,1.758017444e-13,7.645156419e-14,1.0860718e-13,1.132882112e-13,8.277479183e-14,1.291452295e-13,3.659910311e-14,1.770275099e-14
1.109375,1.408539253e-13,6.000693099e-14,9.485550049e-14,1.572531958e-14,2.350118537e-14,4.901889399e-14,3.460987506e-13,7.714703681e-14,5.052362709e-14,1.56265914e-13,7.001591565e-14,1.124726387e-13,5.764613608e-14,1.128307162e-13,1.732674053e-13,2.458527034e-13,1.020406658e-13,3.004777812e-14,1.171527294e-14,7.868413918e-14,1.659778346e-13,6.394998347e-14,1.897253515e-13,4.030415989e-13,1.633934833e-13,7.373357343e-14,1.038062586e-13,1.046562724e-13,7.407983091e-14,1.18357171e-13,3.555426133e-14,1.701538004e-14
1.1171875,1.293263701e-13,5.278762011e-14,8.466730159e-14,1.454672179e-14,2.229013395e-14,4.675611358e-14,3.368448638e-13,7.271616453e-14,4.810792537e-14,1.487306704e-13,6.905196687e-14,1.037093961e-13,5.949386543e-14,1.133141316e-13,1.701793148e-13,2.466159861e-13,1.109741533e-13,3.219753647e-14,1.239439435e-14,7.804526639e-14,1.816426223e-13,6.88144817e-14,2.002987036e-13,4.42471231e-13,1.544869058e-13,7.243778059e-14,9.798671328e-14,9.75740301e-14,6.610274372e-14,1.11747224e-13,3.575261725e-14,1.649229567e-14
1.125,1.178151663e-13,4.598089862e-14,7.26186193e-14,1.402774992e-14,2.128102869e-14,4.573723764e-14,3.228313809e-13,6.75090846e-14,4.579590278e-14,1.39492757e-13,6.784541623e-14,9.698129457e-14,6.057581539e-14,1.121544419e-13,1.66770028e-13,2.431522796e-13,1.189771266e-13,3.472233944e-14,1.322874231e-14,7.804459923e-14,1.931916771e-13,7.301609601e-14,2.131945868e-13,4.908796691e-13,1.47232104e-13,7.183554147e-14,8.779743973e-14,9.223239911e-14,5.718265039e-14,1.021703732e-13,3.4351221e-14,1.639995705e-14
1.1328125,1.032203987e-13,4.127079806e-14,6.086703037e-14,1.401290234e-14,2.0575014e-14,4.500957502e-14,2.988765811e-13,6.19164907e-14,4.4725373e-14,1.28226158e-13,6.644851859e-14,9.188105429e-14,6.17935034e-14,1.098734037e-13,1.606710638e-13,2.324193763e-13,1.25774353e-13,3.754809164e-14,1.361118144e-14,7.742247052e-14,2.020149879e-13,7.677723906e-14,2.25043487e-13,5.45693417e-13,1.395065724e-13,6.990763391e-14,7.431927226e-14,8.739930627e-14,4.906359723e-14,9.0696819e-14,3.126663355e-14,1.662570134e-14
1.140625,8.519440722e-14,3.850438051e-14,5.065364802e-14,1.466568965e-14,1.974094839e-14,4.283692707e-14,2.67368627e-13,5.534477356e-14,4.409157294e-14,1.157560884e-13,6.562574837e-14,8.830040029e-14,6.328408157e-14,1.065079113e-13,1.579600714e-13,2.171203833e-13,1.306823358e-13,4.034566826e-14,1.369955099e-14,7.61818845e-14,2.104850311e-13,7.94682645e-14,2.338950959e-13,6.008223639e-13,1.298925347e-13,6.63021708e-14,6.092536167e-14,8.206068643e-14,4.091412417e-14,8.099191151e-14,2.851072947e-14,1.698672718e-14
1.1484375,6.755295066e-14,3.81798048e-14,4.176362372e-14,1.618925491e-14,1.950358619e-14,4.033314221e-14,2.368521797e-13,4.923046742e-14,4.395611161e-14,1.049226139e-13,6.68958867e-14,8.633022282e-14,6.548613989e-14,1.033228336e-13,1.645667824e-13,2.014741789e-13,1.32560499e-13,4.269105289e-14,1.382738521e-14,7.513175042e-14,2.144815245e-13,8.045119942e-14,2.375766941e-13,6.522586872e-13,1.212075353e-13,6.24516917e-14,5.03624517e-14,7.740432651e-14,3.431553039e-14,7.596725121e-14,2.712979824e-14,1.713101417e-14
1.15625,5.240302532e-14,3.918625276e-14,3.489372642e-14,1.898212469e-14,2.001328856e-14,3.924175014e-14,2.136291736e-13,4.427243764e-14,4.354021725e-14,9.666103639e-14,7.199654206e-14,8.500990303e-14,6.831957306e-14,1.014652286e-13,1.84042795e-13,1.884885077e-13,1.316337312e-13,4.354739363e-14,1.446062334e-14,7.523372459e-14,2.121853037e-13,7.966136261e-14,2.368722115e-13,6.947849977e-13,1.158153283e-13,6.003950646e-14,4.223415754e-14,7.340397486e-14,2.871953673e-14,7.189703961e-14,2.742652081e-14,1.721958832e-14
1.1640625,4.008100216e-14,4.267228631e-14,2.894431638e-14,2.245826851e-14,2.1240458e-14,3.833840998e-14,1.962321154e-13,3.919219504e-14,4.298700652e-14,9.051313749e-14,8.115926863e-14,8.390954176e-14,7.185674007e-14,1.002229167e-13,2.173322347e-13,1.807657372e-13,1.289427687e-13,4.295025631e-14,1.570380911e-14,7.71129679e-14,2.07345403e-13,7.840585834e-14,2.337353235e-13,7.29561259e-13,1.103749619e-13,5.976434126e-14,3.551581743e-14,6.879222137e-14,2.416659555e-14,6.562476836e-14,3.120293968e-14,1.713480965e-14
1.171875,3.172896757e-14,4.856471775e-14,2.363661773e-14,2.67202685e-14,2.327913427e-14,3.576440542e-14,1.775155088e-13,3.499465539e-14,4.222662917e-14,8.784928214e-14,9.434946249e-14,8.492182139e-14,7.486836026e-14,1.000081481e-13,2.650094756e-13,1.774328114e-13,1.25396822e-13,4.13919584e-14,1.735029563e-14,8.045835372e-14,2.045931276e-13,7.675893758e-14,2.287360361e-13,7.570208673e-13,1.028472431e-13,5.982742211e-14,2.995118886e-14,6.369466188e-14,2.100843678e-14,5.949031571e-14,3.852898353e-14,1.697708555e-14
1.1796875,2.746357691e-14,5.734253267e-14,1.851671126e-14,3.15912939e-14,2.53146752e-14,3.16059858e-14,1.555958276e-13,3.186785641e-14,4.111448662e-14,9.112239233e-14,1.129650384e-13,8.978939363e-14,7.665890563e-14,1.015579552e-13,3.221566528e-13,1.775267612e-13,1.209808088e-13,3.946764078e-14,1.935430533e-14,8.454516037e-14,2.043347922e-13,7.582700535e-14,2.235155463e-13,7.771259243e-13,9.464495179e-14,5.912510137e-14,2.664677884e-14,5.968284398e-14,1.981249876e-14,5.586725348e-14,4.59599218e-14,1.712734934e-14
1.1875,2.659402171e-14,6.726185657e-14,1.493041336e-14,3.702242431e-14,2.750132272e-14,2.778337163e-14,1.34925946e-13,3.103857746e-14,4.027501197e-14,9.967329156e-14,1.360472352e-13,9.695221909e-14,7.735582795e-14,1.049662617e-13,3.821106788e-13,1.817059323e-13,1.169874088e-13,3.7280084e-14,2.176117645e-14,8.973115708e-14,2.073724712e-13,7.586843985e-14,2.204319539e-13,7.86873863e-13,8.885339115e-14,5.77124654e-14,2.610675177e-14,5.73034785e-14,2.000092106e-14,5.441224149e-14,5.026026062e-14,1.746562048e-14
1.1953125,2.935493637e-14,8.011307671e-14,1.266859346e-14,4.306764508e-14,2.935245951e-14,2.457144705e-14,1.184029099e-13,3.112156873e-14,3.905720882e-14,1.127942789e-13,1.619066076e-13,1.035936553e-13,7.721154634e-14,1.089981365e-13,4.42218596e-13,1.889015907e-13,1.13742923e-13,3.517570043e-14,2.406295039e-14,9.499593688e-14,2.127620273e-13,7.751625732e-14,2.225145354e-13,7.827919916e-13,8.552723233e-14,5.652985122e-14,2.794466727e-14,5.499853143e-14,2.129329768e-14,5.607128945e-14,5.417286619e-14,1.797250495e-14
1.203125,3.553151284e-14,9.455367666e-14,1.071552881e-14,4.952656286e-14,3.141059657e-14,2.207205431e-14,1.051784679e-13,3.32242641e-14,3.782851468e-14,1.304463499e-13,1.8908577e-13,1.11383002e-13,7.598796494e-14,1.135310799e-13,5.04737348e-13,1.986278445e-13,1.110374696e-13,3.359776233e-14,2.617151793e-14,9.932714712e-14,2.174918225e-13,7.829017244e-14,2.257312566e-13,7.690344956e-13,8.496041089e-14,5.550216761e-14,3.249927924e-14,5.284180581e-14,2.39594663e-14,6.146265818e-14,5.98350558e-14,1.853769515e-14
1.2109375,4.400157092e-14,1.101792869e-13,9.089649586e-15,5.598979257e-14,3.278031356e-14,2.031291108e-14,9.230197666e-14,3.663844885e-14,3.688615979e-14,1.506431208e-13,2.15060462e-13,1.221884574e-13,7.291208861e-14,1.178948112e-13,5.674837657e-13,2.114854639e-13,1.085240622e-13,3.267226744e-14,2.829567471e-14,1.024274128e-13,2.196285075e-13,7.792100741e-14,2.302148813e-13,7.43772332e-13,8.706875474e-14,5.417796236e-14,3.986355941e-14,5.017295568e-14,2.772797973e-14,7.023493399e-14,6.551201289e-14,1.917830703e-14
1.21875,5.142464157e-14,1.216308678e-13,7.797523363e-15,6.213987728e-14,3.404968297e-14,1.942184941e-14,8.096031129e-14,4.090350016e-14,3.577681832e-14,1.69902002e-13,2.390884267e-13,1.329001276e-13,6.744829487e-14,1.20254928e-13,6.208559414e-13,2.280673131e-13,1.063941641e-13,3.312253077e-14,3.03210347e-14,1.043790312e-13,2.19347822e-13,7.614316735e-14,2.352335878e-13,7.100301952e-13,9.11013332e-14,5.276123922e-14,4.920556379e-14,4.733693775e-14,3.200363698e-14,7.824361172e-14,6.777562871e-14,2.015028983e-14
1.2265625,5.858308633e-14,1.298636726e-13,7.432165606e-15,6.792960025e-14,3.445191064e-14,1.912577666e-14,7.22808713e-14,4.483524143e-14,3.475516439e-14,1.853427827e-13,2.591950179e-13,1.390509465e-13,6.092651426e-14,1.196241235e-13,6.579256036e-13,2.471142899e-13,1.044727606e-13,3.424038284e-14,3.160044945e-14,1.055281747e-13,2.174892941e-13,7.516810786e-14,2.412137664e-13,6.740487821e-13,9.451775057e-14,5.192335176e-14,5.988758998e-14,4.454859305e-14,3.644777073e-14,8.446531656e-14,6.719445254e-14,2.174114019e-14
1.234375,6.730803734e-14,1.358465225e-13,7.925660123e-15,7.232019014e-14,3.424340919e-14,1.891826761e-14,6.771414207e-14,4.866533631e-14,3.366902511e-14,1.961294927e-13,2.726779894e-13,1.400492663e-13,5.437678506e-14,1.160282056e-13,6.811472001e-13,2.688267899e-13,1.032037695e-13,3.631794448e-14,3.189252882e-14,1.05945765e-13,2.155416865e-13,7.446989533e-14,2.467777533e-13,6.316573938e-13,9.561114821e-14,5.148868568e-14,7.13345892e-14,4.138883162e-14,4.092774307e-14,9.028479094e-14,6.686013841e-14,2.360018362e-14
1.2421875,7.863073363e-14,1.419291031e-13,9.682436068e-15,7.575258317e-14,3.313018328e-14,1.91803489e-14,6.541210123e-14,5.266930847e-14,3.279113596e-14,2.019794834e-13,2.762617887e-13,1.390919739e-13,4.819597029e-14,1.098288732e-13,6.96311249e-13,2.937313311e-13,1.026486806e-13,3.887506055e-14,3.128404802e-14,1.038476733e-13,2.098272888e-13,7.39755572e-14,2.520129719e-13,5.861758907e-13,9.509587298e-14,5.124585358e-14,8.447983894e-14,3.761532631e-14,4.576178963e-14,9.925259064e-14,6.86303565e-14,2.538081671e-14
1.25,8.996988806e-14,1.450825955e-13,1.279293879e-14,7.806417642e-14,3.139764183e-14,2.023131437e-14,6.457983412e-14,5.641176415e-14,3.201926708e-14,2.015076869e-13,2.693693212e-13,1.382110125e-13,4.249930902e-14,1.016455765e-13,7.060981288e-13,3.222889303e-13,1.029022457e-13,4.221518202e-14,3.0291816e-14,9.983153874e-14,1.981462822e-13,7.265730456e-14,2.545340926e-13,5.419438505e-13,9.399417168e-14,5.089832034e-14,9.728333618e-14,3.425905795e-14,4.97907329e-14,1.09205654e-13,7.079777371e-14,2.737106793e-14
1.2578125,9.80939299e-14,1.429184769e-13,1.717559432e-14,7.943521539e-14,2.859792049e-14,2.207971115e-14,6.666535724e-14,5.849242786e-14,3.081095729e-14,1.94226528e-13,2.553046166e-13,1.348413762e-13,3.733471974e-14,9.133318144e-14,7.063458893e-13,3.535150998e-13,1.02413626e-13,4.514832973e-14,2.947401393e-14,9.511674091e-14,1.808977326e-13,7.134240197e-14,2.545671899e-13,5.050232354e-13,9.198131099e-14,5.01442686e-14,1.073838227e-13,3.097047452e-14,5.237298681e-14,1.152103974e-13,7.131221286e-14,2.944479078e-14
1.265625,1.039007714e-13,1.379301906e-13,2.308551895e-14,8.024306938e-14,2.502211854e-14,2.406773334e-14,7.167071964e-14,5.864533266e-14,2.944118639e-14,1.82181669e-13,2.384164314e-13,1.28188804e-13,3.311816398e-14,8.001416414e-14,7.016032316e-13,3.889940634e-13,1.007151086e-13,4.740113448e-14,2.8754653e-14,9.002994878e-14,1.593868611e-13,7.041055496e-14,2.516896718e-13,4.860484915e-13,8.9408533e-14,4.927169964e-14,1.124319915e-13,2.753226161e-14,5.351733046e-14,1.161924352e-13,6.930297342e-14,3.126973898e-14
1.2734375,1.069341536e-13,1.316804973e-13,3.050302831e-14,8.055229855e-14,2.112031274e-14,2.606105896e-14,7.937154638e-14,5.7207704e-14,2.809067241e-14,1.664380923e-13,2.207988336e-13,1.209194667e-13,3.034000963e-14,6.850072001e-14,6.949076483e-13,4.273400027e-13,9.869494695e-14,4.91885878e-14,2.816716462e-14,8.533590995e-14,1.379577545e-13,7.081116161e-14,2.493151209e-13,4.958283652e-13,8.721094167e-14,4.826565588e-14,1.127456859e-13,2.435388056e-14,5.322081464e-14,1.132239417e-13,6.553438143e-14,3.28406458e-14
1.28125,1.097088218e-13,1.278265662e-13,3.956846058e-14,8.086626989e-14,1.756706079e-14,2.814838777e-14,8.939193092e-14,5.520191715e-14,2.717982308e-14,1.48807376e-13,2.028544343e-13,1.151931419e-13,2.859825375e-14,5.853186629e-14,6.916819739e-13,4.660747401e-13,9.64260327e-14,5.073655657e-14,2.765349227e-14,8.21057881e-14,1.188251817e-13,7.172981834e-14,2.469680542e-13,5.351396831e-13,8.557726971e-14,4.717811089e-14,1.088212551e-13,2.115671891e-14,5.285633562e-14,1.103268898e-13,6.205584408e-14,3.421526667e-14
1.2890625,1.130999285e-13,1.251818288e-13,5.02021891e-14,8.164066521e-14,1.470195525e-14,3.082694218e-14,1.011643092e-13,5.303278854e-14,2.600085827e-14,1.309029016e-13,1.866083007e-13,1.107709038e-13,2.723882184e-14,5.026026142e-14,6.954533976e-13,5.018342592e-13,9.333168979e-14,5.162902001e-14,2.751175376e-14,8.086208251e-14,1.023364668e-13,7.173737031e-14,2.419990589e-13,6.0328049e-13,8.457205169e-14,4.605102103e-14,1.020286341e-13,1.870555897e-14,5.25680402e-14,1.083899715e-13,5.949596433e-14,3.524795221e-14
1.296875,1.186058776e-13,1.253262805e-13,6.291210294e-14,8.306952938e-14,1.27172815e-14,3.410609391e-14,1.142976131e-13,5.159828983e-14,2.502152706e-14,1.145100993e-13,1.730175876e-13,1.072766408e-13,2.593610287e-14,4.475169703e-14,7.041738999e-13,5.292723219e-13,8.878583511e-14,5.195152432e-14,2.745053232e-14,8.222627676e-14,8.686884002e-14,6.961480953e-14,2.298928702e-13,6.930433712e-13,8.400521187e-14,4.517296459e-14,9.378182646e-14,1.744227018e-14,5.347571864e-14,1.076933577e-13,5.731929283e-14,3.581077269e-14
1.3046875,1.238598385e-13,1.258846711e-13,7.750024222e-14,8.508546462e-14,1.126142983e-14,3.811306253e-14,1.283009961e-13,5.06686123e-14,2.395015456e-14,1.011823447e-13,1.646697403e-13,1.046253379e-13,2.465495771e-14,4.19865984e-14,7.148085729e-13,5.464961873e-13,8.267720644e-14,5.163024333e-14,2.72032003e-14,8.660735547e-14,7.140244611e-14,6.541807807e-14,2.105006859e-13,8.019616465e-13,8.314401716e-14,4.482804991e-14,8.471334753e-14,1.751843486e-14,5.418475119e-14,1.058604912e-13,5.427132139e-14,3.554641611e-14
1.3125,1.262601567e-13,1.279999292e-13,9.432120808e-14,8.771467594e-14,1.009382849e-14,4.279252205e-14,1.429538264e-13,5.071494644e-14,2.324126634e-14,9.024524113e-14,1.608020457e-13,1.030150577e-13,2.374958634e-14,4.128594319e-14,7.161680593e-13,5.496544628e-13,7.751639572e-14,5.101110579e-14,2.653470939e-14,9.343849023e-14,5.757103346e-14,6.141260021e-14,1.90740513e-13,9.22112715e-13,8.237879778e-14,4.553257098e-14,7.688939258e-14,1.924192229e-14,5.6213404e-14,1.03068314e-13,5.063155485e-14,3.460155557e-14
1.3203125,1.239831929e-13,1.29181863e-13,1.11674788e-13,9.071250216e-14,9.15699473e-15,4.76833565e-14,1.575147413e-13,5.143064776e-14,2.271265289e-14,8.120865336e-14,1.578701538e-13,1.019483368e-13,2.294403464e-14,4.138198723e-14,7.013008081e-13,5.365809007e-13,7.40929468e-14,5.094126419e-14,2.5266762e-14,1.019572689e-13,4.617113789e-14,5.77731517e-14,1.72362709e-13,1.035772615e-12,8.054856327e-14,4.650139377e-14,7.042863255e-14,2.257355186e-14,5.871828352e-14,1.00783003e-13,4.697440088e-14,3.363498459e-14
1.328125,1.197153101e-13,1.295375456e-13,1.291406045e-13,9.379948351e-14,8.395599119e-15,5.282189575e-14,1.71835149e-13,5.347156085e-14,2.223014588e-14,7.373957098e-14,1.519038995e-13,1.010046953e-13,2.194575545e-14,4.08484519e-14,6.674625305e-13,5.0619389e-13,7.197044452e-14,5.109660987e-14,2.325092521e-14,1.108303913e-13,3.651027091e-14,5.377445388e-14,1.548706111e-13,1.127563809e-12,7.74031371e-14,4.779125205e-14,6.620255294e-14,2.743115943e-14,6.187048976e-14,9.96056872e-14,4.462921404e-14,3.263568744e-14
1.3359375,1.16121608e-13,1.30100271e-13,1.455953177e-13,9.607312702e-14,7.792277066e-15,5.824851375e-14,1.876428155e-13,5.629612863e-14,2.181774498e-14,6.802437144e-14,1.425959911e-13,1.006083344e-13,2.120966044e-14,3.940043914e-14,6.178291182e-13,4.608543256e-13,7.200669115e-14,5.212870677e-14,2.089322323e-14,1.192831933e-13,2.750296335e-14,5.000981726e-14,1.385485728e-13,1.190594225e-12,7.236389927e-14,5.048038367e-14,6.433033337e-14,3.389442585e-14,6.535441599e-14,1.007345334e-13,4.38711193e-14,3.171549084e-14
1.34375,1.150662189e-13,1.313048136e-13,1.617114487e-13,9.756547504e-14,7.276725896e-15,6.377237536e-14,2.057508356e-13,5.951416168e-14,2.170018195e-14,6.371632328e-14,1.323313534e-13,1.005145337e-13,2.066470176e-14,3.716133069e-14,5.5886875e-13,4.079054881e-13,7.472189745e-14,5.396080033e-14,1.871969429e-14,1.269441265e-13,2.000797121e-14,4.848813968e-14,1.272922678e-13,1.225463682e-12,6.730195799e-14,5.534075373e-14,6.500450327e-14,4.106367469e-14,6.815492844e-14,1.025567223e-13,4.414689301e-14,3.132536894e-14
1.3515625,1.143928346e-13,1.30453158e-13,1.74344043e-13,9.718970618e-14,7.113411855e-15,6.858363884e-14,2.251582909e-13,6.284060026e-14,2.159685756e-14,6.032061235e-14,1.212559467e-13,9.849763069e-14,2.007872783e-14,3.41612034e-14,4.92505182e-13,3.513853782e-13,7.971874389e-14,5.70865961e-14,1.670258884e-14,1.329295424e-13,1.51272542e-14,4.87502647e-14,1.214480299e-13,1.233471652e-12,6.319386415e-14,6.129750564e-14,6.760200666e-14,4.803023061e-14,7.075102354e-14,1.042764989e-13,4.51470699e-14,3.118666081e-14
1.359375,1.124054431e-13,1.255854243e-13,1.844327711e-13,9.487376636e-14,7.226642415e-15,7.284034255e-14,2.449810494e-13,6.597144525e-14,2.154452251e-14,5.779399691e-14,1.093698908e-13,9.397083308e-14,1.935898557e-14,2.996387504e-14,4.23274704e-13,2.952961609e-13,8.594105016e-14,6.082404783e-14,1.496374938e-14,1.37485673e-13,1.184677112e-14,5.057091482e-14,1.199166037e-13,1.208039863e-12,5.973903264e-14,6.8822055e-14,7.10507589e-14,5.432619015e-14,7.252986627e-14,1.050397991e-13,4.626427939e-14,3.143347263e-14
1.3671875,1.093932774e-13,1.162646496e-13,1.916803028e-13,9.020803049e-14,7.918432237e-15,7.701550736e-14,2.636619185e-13,6.897885441e-14,2.103368078e-14,5.692017728e-14,9.728412615e-14,8.732471952e-14,1.858702373e-14,2.506853049e-14,3.5410621e-13,2.423252766e-13,9.311682985e-14,6.545019377e-14,1.36058049e-14,1.403596069e-13,1.021234718e-14,5.384901035e-14,1.236057135e-13,1.159088148e-12,5.768340747e-14,7.797817342e-14,7.553729849e-14,5.987294627e-14,7.455430976e-14,1.053315163e-13,4.785124818e-14,3.176474504e-14
1.375,1.059575627e-13,1.046460576e-13,1.966849993e-13,8.412222091e-14,8.82192647e-15,8.132902335e-14,2.801021297e-13,7.104739892e-14,2.052940597e-14,5.630809681e-14,8.669055724e-14,7.98076397e-14,1.800127434e-14,2.054159733e-14,2.928508814e-13,1.963897779e-13,1.021523293e-13,7.064655564e-14,1.280745456e-14,1.417914407e-13,1.059914898e-14,5.919830652e-14,1.328222623e-13,1.092300534e-12,5.708752442e-14,8.792700171e-14,8.035773596e-14,6.419536046e-14,7.611486557e-14,1.049329427e-13,4.985212685e-14,3.200004598e-14
1.3828125,1.032614836e-13,9.255548737e-14,1.991546579e-13,7.673302995e-14,1.001113398e-14,8.520304926e-14,2.90848068e-13,7.299269941e-14,1.998660699e-14,5.571521826e-14,7.734713811e-14,7.250340902e-14,1.76681515e-14,1.651257802e-14,2.408742414e-13,1.577516911e-13,1.116422594e-13,7.627452798e-14,1.246598294e-14,1.412733962e-13,1.228089577e-14,6.492840343e-14,1.439161849e-13,1.010429483e-12,5.730030849e-14,9.646553045e-14,8.483720843e-14,6.688143256e-14,7.759793241e-14,1.034014794e-13,5.230962039e-14,3.202492647e-14
1.390625,1.013552268e-13,8.147601404e-14,1.992617905e-13,6.878021625e-14,1.111804391e-14,8.804061853e-14,2.943957331e-13,7.467789895e-14,1.949499471e-14,5.46657228e-14,6.934130142e-14,6.594129208e-14,1.775325648e-14,1.344289945e-14,2.000282856e-13,1.266566429e-13,1.206725425e-13,8.128156201e-14,1.242820632e-14,1.391008637e-13,1.492668779e-14,7.106156989e-14,1.555778052e-13,9.18955571e-13,5.766227632e-14,1.0299277e-13,8.848501875e-14,6.841233473e-14,7.855290711e-14,1.00810045e-13,5.518812114e-14,3.223922599e-14
1.3984375,1.003055313e-13,7.258533613e-14,1.970904951e-13,6.073156063e-14,1.230773565e-14,8.927007621e-14,2.899159542e-13,7.666155906e-14,1.874984527e-14,5.272727301e-14,6.21931929e-14,5.994183774e-14,1.831591109e-14,1.151211521e-14,1.717953196e-13,1.035317868e-13,1.282054341e-13,8.600356695e-14,1.283156216e-14,1.367921591e-13,1.859879248e-14,7.712175208e-14,1.663542857e-13,8.232942465e-13,5.723736253e-14,1.068885971e-13,9.081456456e-14,6.817750798e-14,7.786707807e-14,9.672787006e-14,5.824047649e-14,3.285139679e-14
1.40625,9.910587357e-14,6.508577883e-14,1.930079903e-13,5.259637797e-14,1.345372522e-14,8.932088929e-14,2.774706257e-13,7.860119424e-14,1.77452275e-14,5.082807301e-14,5.740895867e-14,5.445467954e-14,1.942429834e-14,1.08091563e-14,1.539191028e-13,8.774125075e-14,1.334004162e-13,8.933745541e-14,1.350264328e-14,1.349285897e-13,2.30057815e-14,8.304248792e-14,1.766010306e-13,7.289711174e-13,5.675988179e-14,1.083771705e-13,9.260848016e-14,6.698900593e-14,7.606508749e-14,9.12887078e-14,6.16322542e-14,3.389008586e-14
1.4140625,9.942482153e-14,6.038947239e-14,1.87833682e-13,4.52591035e-14,1.459843082e-14,8.834419891e-14,2.602262045e-13,8.018845939e-14,1.648962583e-14,4.824198734e-14,5.478707193e-14,4.924088021e-14,2.151179049e-14,1.132800317e-14,1.465728733e-13,7.829586187e-14,1.359868741e-13,9.078812245e-14,1.425330007e-14,1.340038998e-13,2.838896143e-14,8.847610026e-14,1.851683583e-13,6.378256782e-13,5.55660577e-14,1.068144611e-13,9.213874632e-14,6.531453981e-14,7.285853331e-14,8.405079184e-14,6.53843601e-14,3.533294996e-14
1.421875,1.001157499e-13,5.791957779e-14,1.805285007e-13,3.891289049e-14,1.593549858e-14,8.576905289e-14,2.387369212e-13,8.129849383e-14,1.52539664e-14,4.492915043e-14,5.35167852e-14,4.480444891e-14,2.489088518e-14,1.261717388e-14,1.465419591e-13,7.392822338e-14,1.362118679e-13,9.024016692e-14,1.496912321e-14,1.341586595e-13,3.37076351e-14,9.307708284e-14,1.9141309e-13,5.575120204e-13,5.336394822e-14,1.018955751e-13,8.976347866e-14,6.291473244e-14,6.83787326e-14,7.457227957e-14,6.897595473e-14,3.706470361e-14
1.4296875,1.008591313e-13,5.826938919e-14,1.707532482e-13,3.378251587e-14,1.734294407e-14,8.177578193e-14,2.1489407e-13,8.275062206e-14,1.413535369e-14,4.167753583e-14,5.422256474e-14,4.180418182e-14,2.932149711e-14,1.444348344e-14,1.535639498e-13,7.419973764e-14,1.349432507e-13,8.82342673e-14,1.576495752e-14,1.370148895e-13,3.891842528e-14,9.66635689e-14,1.94153084e-13,4.963482573e-13,5.051534847e-14,9.521157905e-14,8.725633393e-14,6.072711595e-14,6.461554927e-14,6.472638206e-14,7.31123683e-14,3.911945061e-14
1.4375,9.907414976e-14,6.041220228e-14,1.585194171e-13,2.972749321e-14,1.867742082e-14,7.676425799e-14,1.908511894e-13,8.402574397e-14,1.293271557e-14,3.886498888e-14,5.639972257e-14,4.032644235e-14,3.441573365e-14,1.655583689e-14,1.635903503e-13,7.717504292e-14,1.325191168e-13,8.590639416e-14,1.673798439e-14,1.438400121e-13,4.414714938e-14,9.967827844e-14,1.926645046e-13,4.564977269e-13,4.709950314e-14,8.793469234e-14,8.476095123e-14,5.905392701e-14,6.090606679e-14,5.425446604e-14,7.821763179e-14,4.138092942e-14
1.4453125,9.380388112e-14,6.352872931e-14,1.451229266e-13,2.685412142e-14,1.994246015e-14,7.172820003e-14,1.678106252e-13,8.542524675e-14,1.189633148e-14,3.709210936e-14,5.946541118e-14,4.036313278e-14,4.013567671e-14,1.844895665e-14,1.743206876e-13,8.203496732e-14,1.299310458e-13,8.387171672e-14,1.761373528e-14,1.54497954e-13,5.054530161e-14,1.032367295e-13,1.88220852e-13,4.434693157e-13,4.421946518e-14,8.089548215e-14,8.250918889e-14,5.834209063e-14,5.815331702e-14,4.450711148e-14,8.403870281e-14,4.359295387e-14
1.453125,8.536428846e-14,6.717845416e-14,1.310474783e-13,2.536232268e-14,2.115947682e-14,6.720957515e-14,1.493728953e-13,8.63112589e-14,1.114452815e-14,3.646219876e-14,6.272790923e-14,4.213065617e-14,4.610873445e-14,1.953607014e-14,1.795569799e-13,8.619191179e-14,1.275386496e-13,8.309417821e-14,1.813931668e-14,1.690357337e-13,5.825319866e-14,1.064256852e-13,1.809250994e-13,4.58399584e-13,4.225517612e-14,7.527182212e-14,8.14314187e-14,5.904998242e-14,5.599176485e-14,3.608692748e-14,9.073027806e-14,4.57138553e-14
1.4609375,7.537517758e-14,7.165304959e-14,1.17015839e-13,2.500908386e-14,2.22456662e-14,6.326648883e-14,1.351898851e-13,8.698635013e-14,1.086690191e-14,3.699913257e-14,6.643446195e-14,4.64956541e-14,5.179315131e-14,2.056973047e-14,1.827446855e-13,8.917327309e-14,1.249433116e-13,8.308153879e-14,1.869658097e-14,1.872200269e-13,6.741000531e-14,1.086712e-13,1.705085905e-13,4.982223106e-13,4.115607941e-14,7.172909203e-14,8.279284203e-14,6.075899329e-14,5.515287549e-14,2.986789762e-14,9.876114856e-14,4.75324599e-14
1.46875,6.478991287e-14,7.632091646e-14,1.035161544e-13,2.509993584e-14,2.298026734e-14,5.992005784e-14,1.252753039e-13,8.657271919e-14,1.065809397e-14,3.87162069e-14,6.940572536e-14,5.25036658e-14,5.611548437e-14,2.137945838e-14,1.791545963e-13,8.870242792e-14,1.223479089e-13,8.400227797e-14,1.91121562e-14,2.055240591e-13,7.863123492e-14,1.107209564e-13,1.593518419e-13,5.593387973e-13,4.132480682e-14,7.052738021e-14,8.574542706e-14,6.388746205e-14,5.424063384e-14,2.568290743e-14,1.077685362e-13,4.871046187e-14
1.4765625,5.386895734e-14,7.996739638e-14,9.169255479e-14,2.586271767e-14,2.283683418e-14,5.745072611e-14,1.201772492e-13,8.471883945e-14,1.094837649e-14,4.202650484e-14,7.202399697e-14,5.969060199e-14,5.879562009e-14,2.281587358e-14,1.70084997e-13,8.487337297e-14,1.199803055e-13,8.54474674e-14,1.927795438e-14,2.21335463e-13,9.448421657e-14,1.123885755e-13,1.488310828e-13,6.313472885e-13,4.303054831e-14,6.997540422e-14,8.946082493e-14,6.858638732e-14,5.430676254e-14,2.417232888e-14,1.165404854e-13,4.859215328e-14
1.484375,4.290390042e-14,8.25510027e-14,8.207681605e-14,2.729506584e-14,2.24192404e-14,5.54367058e-14,1.197622372e-13,8.127380184e-14,1.165730598e-14,4.725468641e-14,7.622389295e-14,6.794950928e-14,6.021537476e-14,2.591801578e-14,1.598686625e-13,7.944090966e-14,1.164990267e-13,8.635280604e-14,1.929678737e-14,2.313637153e-13,1.164273526e-13,1.133725611e-13,1.393308487e-13,7.082650564e-13,4.694756795e-14,6.999122639e-14,9.378304663e-14,7.481794578e-14,5.562711942e-14,2.523337338e-14,1.235574289e-13,4.731517968e-14
1.4921875,3.286411511e-14,8.394810987e-14,7.370845638e-14,2.88713603e-14,2.172492644e-14,5.348692943e-14,1.225854474e-13,7.699891713e-14,1.293815124e-14,5.480435548e-14,8.277505012e-14,7.8813029e-14,6.109415205e-14,3.127778637e-14,1.505385739e-13,7.28169238e-14,1.127817426e-13,8.71933631e-14,1.933862407e-14,2.370431019e-13,1.408586995e-13,1.1413039e-13,1.308226629e-13,7.720872204e-13,5.270676821e-14,7.008967127e-14,9.849219103e-14,8.283006493e-14,5.942427789e-14,2.981042529e-14,1.278567505e-13,4.509941871e-14
1.5,2.543926084e-14,8.413793866e-14,6.708293279e-14,3.060993154e-14,2.11082194e-14,5.113179328e-14,1.277102694e-13,7.280837068e-14,1.467359775e-14,6.503397139e-14,9.33929775e-14,9.323016466e-14,6.119529921e-14,3.995815525e-14,1.470529429e-13,6.552616512e-14,1.085630949e-13,8.789763639e-14,1.977444199e-14,2.366710562e-13,1.670730547e-13,1.147566864e-13,1.233985774e-13,8.262798602e-13,6.03458535e-14,6.958326365e-14,1.027809969e-13,9.224625216e-14,6.410925138e-14,3.730372897e-14,1.302010101e-13,4.227440589e-14
1.5078125,2.080530423e-14,8.354436345e-14,6.211181812e-14,3.224390578e-14,2.005070919e-14,4.842031007e-14,1.343544789e-13,6.847814276e-14,1.71290549e-14,7.881141898e-14,1.101988005e-13,1.115223997e-13,6.071446598e-14,5.235089465e-14,1.502117346e-13,5.886359136e-14,1.037217063e-13,8.739513786e-14,2.104923871e-14,2.288632265e-13,1.976444472e-13,1.160946129e-13,1.192490552e-13,8.563479996e-13,6.970814529e-14,6.814926793e-14,1.06902039e-13,1.039900605e-13,6.954770367e-14,4.845694377e-14,1.313459026e-13,3.898046823e-14
1.515625,1.822899075e-14,8.11992555e-14,5.792629249e-14,3.358598507e-14,1.897078802e-14,4.579168094e-14,1.410104013e-13,6.484077124e-14,2.032556165e-14,9.628699748e-14,1.33178271e-13,1.338537114e-13,5.994419016e-14,6.867174895e-14,1.618784778e-13,5.485923909e-14,9.916911438e-14,8.574879718e-14,2.30336903e-14,2.165031958e-13,2.325972742e-13,1.179737927e-13,1.176465524e-13,8.586856332e-13,8.094657973e-14,6.529636056e-14,1.113073944e-13,1.185983763e-13,7.574662711e-14,6.257022469e-14,1.307351651e-13,3.557101117e-14
1.5234375,1.739445864e-14,7.787858777e-14,5.464073708e-14,3.434233688e-14,1.765325017e-14,4.312199771e-14,1.447811421e-13,6.14559881e-14,2.450604271e-14,1.176221993e-13,1.626320076e-13,1.617078472e-13,5.899196291e-14,8.844826297e-14,1.793166333e-13,5.255054711e-14,9.534191818e-14,8.431912129e-14,2.572074624e-14,2.001889675e-13,2.636297836e-13,1.205339151e-13,1.166577023e-13,8.269243393e-13,9.266962044e-14,6.117929797e-14,1.162779103e-13,1.35084951e-13,8.381522666e-14,7.975126139e-14,1.271677667e-13,3.21406186e-14
1.53125,1.741665912e-14,7.327196688e-14,5.173568975e-14,3.478839666e-14,1.674280943e-14,4.070866797e-14,1.48144937e-13,6.009091725e-14,2.943088833e-14,1.429684123e-13,1.991142262e-13,1.957002579e-13,5.823128249e-14,1.123480424e-13,2.036377173e-13,5.29879138e-14,9.297723042e-14,8.380514166e-14,2.950320634e-14,1.828560242e-13,2.888386153e-13,1.234973294e-13,1.164030587e-13,7.65576154e-13,1.045315971e-13,5.733978694e-14,1.227874968e-13,1.539620766e-13,9.386507843e-14,9.928878117e-14,1.21892691e-13,2.920068698e-14
1.5390625,1.886644435e-14,6.894015582e-14,4.996182479e-14,3.505184949e-14,1.585136502e-14,3.827805929e-14,1.528341913e-13,6.010869434e-14,3.50736803e-14,1.712003982e-13,2.391736126e-13,2.331691272e-13,5.812775719e-14,1.382644323e-13,2.29285723e-13,5.589775556e-14,9.187174946e-14,8.405196026e-14,3.352412122e-14,1.655241248e-13,3.075835561e-13,1.267437674e-13,1.175031439e-13,6.926476622e-13,1.15843801e-13,5.487375924e-14,1.323055589e-13,1.7503402e-13,1.058966848e-13,1.214940537e-13,1.170553483e-13,2.729303531e-14
1.546875,2.144355532e-14,6.552319501e-14,4.823078037e-14,3.490436167e-14,1.572865419e-14,3.567721534e-14,1.614394007e-13,6.21363571e-14,4.132150023e-14,2.012719549e-13,2.79505104e-13,2.729168573e-13,5.864033696e-14,1.644017148e-13,2.526725392e-13,6.064370629e-14,9.285338719e-14,8.560561207e-14,3.722407225e-14,1.503422805e-13,3.208161788e-13,1.285160529e-13,1.184631781e-13,6.117896756e-13,1.254247048e-13,5.378768463e-14,1.452984428e-13,1.986208853e-13,1.207928583e-13,1.466056431e-13,1.13583253e-13,2.591592837e-14
1.5546875,2.577230092e-14,6.351587208e-14,4.664546547e-14,3.495214758e-14,1.619003507e-14,3.369788774e-14,1.755994081e-13,6.597513412e-14,4.782106707e-14,2.322745763e-13,3.185259521e-13,3.15248894e-13,5.887428244e-14,1.898596829e-13,2.737161566e-13,6.684632744e-14,9.481596011e-14,8.842449237e-14,4.058772469e-14,1.385029573e-13,3.259116858e-13,1.288697685e-13,1.185297986e-13,5.358848204e-13,1.332225395e-13,5.445505035e-14,1.618196376e-13,2.242517463e-13,1.38341562e-13,1.749397059e-13,1.1186256e-13,2.519535444e-14
1.5625,3.091589101e-14,6.299799764e-14,4.596946973e-14,3.503881015e-14,1.748060859e-14,3.263739004e-14,1.980960674e-13,7.091373475e-14,5.383056653e-14,2.627028573e-13,3.5426371e-13,3.556464077e-13,5.861087899e-14,2.129280263e-13,2.923117473e-13,7.521877685e-14,9.724880739e-14,9.196958454e-14,4.340415576e-14,1.296229234e-13,3.184644581e-13,1.281920648e-13,1.170088919e-13,4.741665692e-13,1.39785181e-13,5.785259869e-14,1.803038309e-13,2.513479887e-13,1.57984557e-13,2.039404759e-13,1.12482679e-13,2.515416955e-14
1.5703125,3.618264066e-14,6.389591227e-14,4.622910224e-14,3.528012339e-14,1.90391853e-14,3.259565296e-14,2.331106979e-13,7.744641963e-14,5.95449018e-14,2.912110805e-13,3.851259491e-13,3.875806726e-13,5.822815118e-14,2.330616235e-13,3.072005602e-13,8.504770698e-14,9.964517234e-14,9.628654533e-14,4.519052781e-14,1.245965452e-13,2.987702056e-13,1.278507858e-13,1.140341693e-13,4.280366297e-13,1.450515689e-13,6.420516941e-14,2.007928413e-13,2.805516817e-13,1.79730381e-13,2.324751378e-13,1.149889478e-13,2.590140206e-14
1.578125,4.160697061e-14,6.56265259e-14,4.855666133e-14,3.59003173e-14,2.148446276e-14,3.321220658e-14,2.843447436e-13,8.455358322e-14,6.43045591e-14,3.160368596e-13,4.09996923e-13,4.053322983e-13,5.764338694e-14,2.484015719e-13,3.172740563e-13,9.663903402e-14,1.019634462e-13,1.006936884e-13,4.598388156e-14,1.226578862e-13,2.731229174e-13,1.281105603e-13,1.123675475e-13,4.033203081e-13,1.480651853e-13,7.324711474e-14,2.202748698e-13,3.120758909e-13,2.014389705e-13,2.578459022e-13,1.180746625e-13,2.768685635e-14
1.5859375,4.85769461e-14,6.872684543e-14,5.212725829e-14,3.682078384e-14,2.476326527e-14,3.401651244e-14,3.514050081e-13,9.316526149e-14,6.774443751e-14,3.355421549e-13,4.256699469e-13,4.094163707e-13,5.685018069e-14,2.579454637e-13,3.229402493e-13,1.097972416e-13,1.05382848e-13,1.056453609e-13,4.576236279e-14,1.224205129e-13,2.485003984e-13,1.273333144e-13,1.117362615e-13,3.989298418e-13,1.489173279e-13,8.426209573e-14,2.381712451e-13,3.448975579e-13,2.224857063e-13,2.80047983e-13,1.213068273e-13,3.050511764e-14
1.59375,5.715455161e-14,7.224138386e-14,5.7340015e-14,3.804107486e-14,2.961375991e-14,3.578212847e-14,4.376803729e-13,1.017067113e-13,6.927936328e-14,3.498630536e-13,4.323554683e-13,4.046900344e-13,5.581916019e-14,2.616679092e-13,3.248382727e-13,1.232936732e-13,1.098172872e-13,1.109882451e-13,4.485210226e-14,1.240631419e-13,2.232004536e-13,1.255875728e-13,1.111384713e-13,4.121330813e-13,1.500260123e-13,9.781590926e-14,2.543694289e-13,3.808108023e-13,2.400764769e-13,3.002491144e-13,1.256051859e-13,3.429754763e-14
1.6015625,6.570192083e-14,7.610149667e-14,6.435535016e-14,3.943696161e-14,3.513816445e-14,3.927786286e-14,5.374287033e-13,1.12424155e-13,6.930245974e-14,3.600937317e-13,4.327862135e-13,3.93261032e-13,5.423525346e-14,2.620976045e-13,3.29240233e-13,1.388478364e-13,1.156267494e-13,1.171481947e-13,4.41604051e-14,1.276151259e-13,2.005617277e-13,1.243956845e-13,1.123280392e-13,4.429772996e-13,1.53006988e-13,1.145620215e-13,2.696336009e-13,4.204062972e-13,2.551357167e-13,3.194534439e-13,1.3227964e-13,3.90469907e-14
1.609375,7.249700771e-14,7.834541059e-14,7.322672093e-14,4.1356869e-14,4.13948376e-14,4.391315572e-14,6.39384868e-13,1.227496097e-13,6.767506488e-14,3.647375425e-13,4.268394075e-13,3.720249734e-13,5.236878465e-14,2.583347112e-13,3.30575395e-13,1.540470963e-13,1.229340112e-13,1.237202803e-13,4.348728003e-14,1.346818679e-13,1.842412932e-13,1.243120473e-13,1.163390555e-13,4.870398981e-13,1.553543757e-13,1.326485744e-13,2.80108541e-13,4.594556179e-13,2.641945585e-13,3.315045846e-13,1.390932739e-13,4.445045242e-14
1.6171875,7.909404569e-14,8.010907246e-14,8.273384895e-14,4.379517766e-14,4.752077157e-14,4.830754157e-14,7.319392049e-13,1.326626181e-13,6.518616976e-14,3.636039094e-13,4.14313171e-13,3.414408173e-13,5.016968601e-14,2.496802681e-13,3.253833357e-13,1.672194627e-13,1.316162374e-13,1.313971299e-13,4.28579725e-14,1.463153574e-13,1.75299367e-13,1.24494988e-13,1.213391376e-13,5.392173346e-13,1.553586677e-13,1.495604082e-13,2.832014507e-13,4.915912446e-13,2.672990548e-13,3.310578284e-13,1.445084924e-13,4.997440406e-14
1.625,8.637109713e-14,8.134258548e-14,9.332786833e-14,4.656563262e-14,5.366003405e-14,5.333626836e-14,8.130916648e-13,1.410664102e-13,6.213355964e-14,3.582390425e-13,3.983581223e-13,3.067863624e-13,4.789831214e-14,2.375345418e-13,3.156183411e-13,1.789590763e-13,1.407293949e-13,1.39449887e-13,4.298792262e-14,1.62629328e-13,1.727355786e-13,1.250595042e-13,1.282621858e-13,5.906217295e-13,1.543987689e-13,1.661052084e-13,2.8132287e-13,5.144932284e-13,2.644965422e-13,3.18806238e-13,1.495058555e-13,5.554966892e-14
1.6328125,9.422241467e-14,8.313674503e-14,1.046499155e-13,4.994605523e-14,5.986789129e-14,5.995005562e-14,8.83476388e-13,1.482672524e-13,5.878509941e-14,3.504302634e-13,3.808240629e-13,2.727447672e-13,4.572595092e-14,2.240660304e-13,3.062825987e-13,1.906073809e-13,1.490714998e-13,1.466177247e-13,4.42427289e-14,1.844304303e-13,1.780636624e-13,1.265126439e-13,1.392054511e-13,6.347711117e-13,1.543046328e-13,1.830178561e-13,2.785833327e-13,5.258695711e-13,2.563536865e-13,3.005409735e-13,1.554875939e-13,6.057867676e-14
1.640625,1.000746437e-13,8.495653024e-14,1.171911118e-13,5.410557832e-14,6.57555047e-14,6.833790715e-14,9.353186955e-13,1.535456674e-13,5.567942638e-14,3.413748156e-13,3.642022608e-13,2.404249752e-13,4.389345973e-14,2.107269766e-13,2.974887605e-13,2.005580436e-13,1.569253076e-13,1.527235929e-13,4.609592937e-14,2.107880407e-13,1.893956983e-13,1.277955872e-13,1.525780204e-13,6.656014506e-13,1.542276556e-13,1.981878968e-13,2.758780866e-13,5.246682988e-13,2.4451554e-13,2.786802585e-13,1.61595411e-13,6.473029129e-14
1.6484375,1.033894934e-13,8.632938263e-14,1.301871013e-13,5.90592871e-14,7.078504563e-14,7.725208673e-14,9.621680879e-13,1.55849769e-13,5.291200809e-14,3.316412612e-13,3.499767815e-13,2.104856181e-13,4.287204692e-14,1.97279411e-13,2.849762322e-13,2.073123346e-13,1.644054875e-13,1.573792212e-13,4.816296256e-14,2.400765989e-13,2.050240483e-13,1.277305521e-13,1.66795738e-13,6.826200883e-13,1.527519283e-13,2.096708757e-13,2.700163613e-13,5.109371764e-13,2.295253638e-13,2.516208472e-13,1.657828242e-13,6.834864985e-14
1.65625,1.062432382e-13,8.837138216e-14,1.422846968e-13,6.475546614e-14,7.428663833e-14,8.655868044e-14,9.666330716e-13,1.553982793e-13,5.10060028e-14,3.216187648e-13,3.390334232e-13,1.852469645e-13,4.251421346e-14,1.850327442e-13,2.694226445e-13,2.112054453e-13,1.711614198e-13,1.602942809e-13,5.062653865e-14,2.709462357e-13,2.197708912e-13,1.258149863e-13,1.808852388e-13,6.884856847e-13,1.493481519e-13,2.173055853e-13,2.602705878e-13,4.857272372e-13,2.141626116e-13,2.199730058e-13,1.68718913e-13,7.130100496e-14
1.6640625,1.093474536e-13,9.118383809e-14,1.530971005e-13,7.109510989e-14,7.601095344e-14,9.688819263e-14,9.533921455e-13,1.520279491e-13,4.928963994e-14,3.107115127e-13,3.31826681e-13,1.641366493e-13,4.318506785e-14,1.749850885e-13,2.567621725e-13,2.135914345e-13,1.757237816e-13,1.613507402e-13,5.37888166e-14,3.029513391e-13,2.329355087e-13,1.223823712e-13,1.945603807e-13,6.851514576e-13,1.462203339e-13,2.210299371e-13,2.485294049e-13,4.511074396e-13,1.978706703e-13,1.870781986e-13,1.710152645e-13,7.336326348e-14
1.671875,1.124366961e-13,9.550725859e-14,1.635427942e-13,7.785332553e-14,7.595379004e-14,1.086641719e-13,9.318700697e-13,1.473906934e-13,4.803529075e-14,3.002347693e-13,3.279780782e-13,1.463626813e-13,4.510353593e-14,1.684510401e-13,2.469117988e-13,2.149485571e-13,1.781246982e-13,1.601514569e-13,5.68612361e-14,3.35255416e-13,2.397427682e-13,1.174802046e-13,2.050900236e-13,6.767122692e-13,1.456053752e-13,2.221286418e-13,2.387437751e-13,4.143058111e-13,1.837842088e-13,1.587337947e-13,1.73657674e-13,7.467612264e-14
1.6796875,1.138208355e-13,1.005929574e-13,1.746923145e-13,8.431876552e-14,7.443560521e-14,1.215451116e-13,9.091256051e-13,1.420107681e-13,4.716903116e-14,2.908531653e-13,3.288171001e-13,1.3146124e-13,4.792430611e-14,1.668581565e-13,2.414685874e-13,2.174998821e-13,1.798245157e-13,1.578930559e-13,5.971756633e-14,3.635301429e-13,2.427200943e-13,1.117750966e-13,2.14302325e-13,6.651003231e-13,1.481544064e-13,2.210561167e-13,2.299179413e-13,3.791265305e-13,1.719441812e-13,1.368571812e-13,1.755283112e-13,7.580160549e-14
1.6875,1.149745366e-13,1.061658323e-13,1.860139073e-13,9.020120731e-14,7.178754382e-14,1.340587462e-13,8.878184706e-13,1.367229145e-13,4.707465389e-14,2.827026837e-13,3.347125207e-13,1.20516934e-13,5.171676375e-14,1.70774978e-13,2.41652445e-13,2.224535611e-13,1.807482954e-13,1.548550675e-13,6.230872037e-14,3.841848628e-13,2.435442564e-13,1.054970448e-13,2.233850592e-13,6.665093199e-13,1.538361488e-13,2.17413864e-13,2.204588169e-13,3.486899512e-13,1.623388356e-13,1.201277649e-13,1.756697467e-13,7.696039922e-14
1.6953125,1.165923789e-13,1.113368625e-13,1.963947922e-13,9.478155585e-14,6.805753949e-14,1.449415387e-13,8.675670248e-13,1.311640023e-13,4.735528693e-14,2.760517916e-13,3.467713166e-13,1.145071701e-13,5.633351867e-14,1.803636356e-13,2.514692878e-13,2.303009273e-13,1.804784644e-13,1.51369507e-13,6.469841938e-14,3.991209353e-13,2.384872122e-13,9.821318797e-14,2.302389786e-13,6.842900183e-13,1.615848064e-13,2.118255353e-13,2.113801059e-13,3.237510524e-13,1.548765236e-13,1.071842738e-13,1.745986332e-13,7.804690921e-14
1.703125,1.155717373e-13,1.143159521e-13,2.057647194e-13,9.786818794e-14,6.358144382e-14,1.549296755e-13,8.476207818e-13,1.258241247e-13,4.750562534e-14,2.69630373e-13,3.638766557e-13,1.119173469e-13,6.136905149e-14,1.938309178e-13,2.697917526e-13,2.409510322e-13,1.797351983e-13,1.483898258e-13,6.711986071e-14,4.125995743e-13,2.289904061e-13,9.080805831e-14,2.359199762e-13,7.215641716e-13,1.716503233e-13,2.050625377e-13,2.029279628e-13,3.039814515e-13,1.478706451e-13,9.626377449e-14,1.719786107e-13,7.913311672e-14
1.7109375,1.11506487e-13,1.147784772e-13,2.147441505e-13,9.94656538e-14,5.903972647e-14,1.632236408e-13,8.266012252e-13,1.204787733e-13,4.755425933e-14,2.637836478e-13,3.849795998e-13,1.128869192e-13,6.668437924e-14,2.104276441e-13,2.960779247e-13,2.550673591e-13,1.792715308e-13,1.457206049e-13,6.922380844e-14,4.25893387e-13,2.174616201e-13,8.33476037e-14,2.406493941e-13,7.766357393e-13,1.834523521e-13,1.965678258e-13,1.95686733e-13,2.900669735e-13,1.417942979e-13,8.787171766e-14,1.665783525e-13,8.01203579e-14
1.71875,1.055031395e-13,1.134048903e-13,2.21329341e-13,9.909694514e-14,5.474544474e-14,1.678633535e-13,8.086318556e-13,1.146814225e-13,4.739596465e-14,2.59074696e-13,4.089597745e-13,1.181087538e-13,7.151810336e-14,2.283822735e-13,3.265227108e-13,2.708191349e-13,1.786900004e-13,1.429884005e-13,7.082859144e-14,4.380559432e-13,2.07312329e-13,7.603451252e-14,2.451877289e-13,8.453664622e-13,1.957033706e-13,1.862913859e-13,1.892088797e-13,2.831109527e-13,1.356296847e-13,8.292247364e-14,1.578809678e-13,8.115191735e-14
1.7265625,1.004436227e-13,1.11279476e-13,2.242150918e-13,9.694542057e-14,5.105821534e-14,1.675594219e-13,7.927123654e-13,1.079114654e-13,4.716784477e-14,2.558253927e-13,4.348793666e-13,1.2840584e-13,7.508684984e-14,2.46181608e-13,3.575516588e-13,2.867200915e-13,1.757500555e-13,1.383660453e-13,7.150181266e-14,4.520521268e-13,1.999076524e-13,6.904485158e-14,2.502388059e-13,9.24385508e-13,2.056028899e-13,1.748549124e-13,1.840150532e-13,2.804665151e-13,1.292512117e-13,8.049401288e-14,1.469702574e-13,8.203208934e-14
1.734375,9.614487093e-14,1.077967094e-13,2.230493295e-13,9.371493479e-14,4.772415076e-14,1.624881065e-13,7.7508541e-13,1.008852883e-13,4.668058719e-14,2.535419222e-13,4.608197942e-13,1.400667685e-13,7.703700455e-14,2.607482836e-13,3.846075085e-13,3.021709447e-13,1.708287727e-13,1.318799833e-13,7.109950745e-14,4.682513655e-13,1.982200752e-13,6.306910004e-14,2.567977618e-13,1.003784692e-12,2.103358883e-13,1.632969727e-13,1.79991203e-13,2.775918183e-13,1.226224824e-13,7.74833661e-14,1.359060885e-13,8.258002523e-14
1.7421875,9.1246544e-14,1.022796458e-13,2.195004655e-13,9.026015941e-14,4.522878197e-14,1.546934906e-13,7.516651418e-13,9.284385411e-14,4.609245228e-14,2.518166648e-13,4.827547174e-13,1.520198102e-13,7.794883204e-14,2.714186511e-13,4.037601281e-13,3.151170592e-13,1.651792685e-13,1.246185951e-13,6.963914575e-14,4.829167918e-13,2.014195819e-13,5.847838635e-14,2.632564056e-13,1.068158972e-12,2.10243128e-13,1.521638368e-13,1.773762137e-13,2.730241773e-13,1.154710604e-13,7.350342025e-14,1.249881811e-13,8.285560685e-14
1.75,8.638228612e-14,9.55947991e-14,2.136148169e-13,8.735161726e-14,4.317569884e-14,1.453125282e-13,7.260322562e-13,8.438178634e-14,4.563917185e-14,2.509737557e-13,4.982125649e-13,1.65892636e-13,7.831853354e-14,2.783846339e-13,4.158993761e-13,3.247769026e-13,1.592630662e-13,1.170163462e-13,6.740859479e-14,4.936123117e-13,2.066982611e-13,5.49450309e-14,2.691646375e-13,1.110116197e-12,2.064255699e-13,1.415116056e-13,1.76595485e-13,2.680507696e-13,1.085981308e-13,7.04564529e-14,1.138070982e-13,8.293656696e-14
1.7578125,8.3405935e-14,8.891136856e-14,2.05953388e-13,8.552718763e-14,4.153070528e-14,1.344547669e-13,6.977276359e-13,7.555748135e-14,4.489413158e-14,2.492351199e-13,5.037904811e-13,1.811849619e-13,7.782157412e-14,2.808399442e-13,4.237775173e-13,3.312016783e-13,1.527196316e-13,1.097657873e-13,6.529677065e-14,5.010002332e-13,2.13755701e-13,5.282473689e-14,2.752324585e-13,1.120578568e-12,2.000522699e-13,1.314165599e-13,1.777842277e-13,2.639153686e-13,1.011812687e-13,6.785500349e-14,1.023611945e-13,8.246667808e-14
1.765625,8.386764388e-14,8.352551674e-14,1.972120152e-13,8.501356599e-14,4.003311128e-14,1.226836938e-13,6.656793577e-13,6.727329677e-14,4.394992439e-14,2.451094123e-13,4.99214564e-13,1.94863937e-13,7.589103073e-14,2.78696443e-13,4.268613492e-13,3.338106129e-13,1.451583392e-13,1.029690331e-13,6.343561541e-14,5.016780178e-13,2.210297483e-13,5.195300074e-14,2.806787486e-13,1.103487326e-12,1.903171214e-13,1.213248562e-13,1.802886253e-13,2.604760372e-13,9.403014024e-14,6.553030271e-14,9.069081849e-14,8.128461367e-14
1.7734375,8.662238036e-14,7.87180692e-14,1.890256621e-13,8.600589106e-14,3.869789513e-14,1.110703299e-13,6.276704836e-13,5.991426673e-14,4.286538537e-14,2.378331266e-13,4.854145625e-13,2.049976735e-13,7.266478144e-14,2.720418774e-13,4.249241631e-13,3.334760205e-13,1.366547516e-13,9.676263098e-14,6.211630385e-14,4.95337995e-13,2.275910012e-13,5.242032935e-14,2.847168584e-13,1.06192333e-12,1.77243988e-13,1.111866396e-13,1.825498056e-13,2.565089141e-13,8.700431136e-14,6.14361317e-14,7.911094065e-14,7.956358283e-14
1.78125,9.118304205e-14,7.462750213e-14,1.814129779e-13,8.766590147e-14,3.755190058e-14,1.00157501e-13,5.881164258e-13,5.38238338e-14,4.165859801e-14,2.275929567e-13,4.620026607e-13,2.114563394e-13,6.853471746e-14,2.618762706e-13,4.203037576e-13,3.320598344e-13,1.2834297e-13,9.191378384e-14,6.143606499e-14,4.838251906e-13,2.350671443e-13,5.397003401e-14,2.874976238e-13,1.004729464e-12,1.61654815e-13,1.01768011e-13,1.847954049e-13,2.526724363e-13,8.060765599e-14,5.783491227e-14,6.851201789e-14,7.807200713e-14
1.7890625,9.794485523e-14,7.143884997e-14,1.751828769e-13,8.930334805e-14,3.612518658e-14,9.094266875e-14,5.462251462e-13,4.870128167e-14,4.013905659e-14,2.138267892e-13,4.274353807e-13,2.1517961e-13,6.405883346e-14,2.485926169e-13,4.135543339e-13,3.28352189e-13,1.204516111e-13,8.863617209e-14,6.179213018e-14,4.679072743e-13,2.404585819e-13,5.627956854e-14,2.879582597e-13,9.374288576e-13,1.440382544e-13,9.289122272e-14,1.870513177e-13,2.487531743e-13,7.455774757e-14,5.496594324e-14,5.940764749e-14,7.599516013e-14
1.796875,1.076156221e-13,6.994517241e-14,1.713755621e-13,9.04170112e-14,3.466086846e-14,8.327656658e-14,5.068457667e-13,4.472488508e-14,3.835273349e-14,1.97862938e-13,3.851879023e-13,2.174136357e-13,5.9776786e-14,2.346353959e-13,4.094912841e-13,3.247765027e-13,1.122201292e-13,8.619775641e-14,6.340721509e-14,4.488889346e-13,2.420455778e-13,5.907942908e-14,2.859466485e-13,8.718951225e-13,1.266816186e-13,8.504314558e-14,1.889788287e-13,2.461254553e-13,6.854448401e-14,5.23822959e-14,5.200685648e-14,7.327390756e-14
1.8046875,1.181536025e-13,6.957552987e-14,1.683697887e-13,9.033311748e-14,3.291592226e-14,7.738574499e-14,4.704623358e-13,4.177983459e-14,3.639244861e-14,1.798639695e-13,3.382114598e-13,2.159346472e-13,5.598422426e-14,2.200094268e-13,4.056886359e-13,3.203866597e-13,1.043162468e-13,8.43571462e-14,6.609968025e-14,4.291806869e-13,2.398482819e-13,6.209423924e-14,2.805847886e-13,8.152254277e-13,1.101108394e-13,7.816960717e-14,1.904266558e-13,2.451065618e-13,6.34116748e-14,4.954866358e-14,4.558179533e-14,7.037614073e-14
