"Time","Fp1","AF3","F7","F3","FC1","FC5","T7","C3","CP1","CP5","P7","P3","Pz","PO3","O1","Oz","O2","PO4","P4","P8","CP6","CP2","C4","T8","FC6","FC2","F4","F8","AF4","Fp2","Fz","Cz"
0.0078125,6.27722053e-12,6.108778851e-12,1.15475937e-12,1.140446863e-13,6.558585512e-12,2.586193818e-13,1.256755454e-12,1.029301893e-11,2.66556595e-12,4.526153973e-13,3.083404325e-13,5.590963485e-13,8.724376493e-16,1.78510125e-12,3.692714488e-12,6.090187185e-13,1.785573382e-14,7.732977155e-13,2.701172497e-15,5.741005885e-14,2.119531758e-13,1.983522223e-12,1.666875782e-12,5.145434812e-13,6.691126719e-13,3.600719413e-13,2.798494488e-12,6.767863446e-13,1.07248107e-11,8.533633381e-12,9.822641605e-13,1.777095687e-13
0.015625,6.914817031e-12,7.161598692e-12,1.456043401e-12,1.510578713e-13,7.830778105e-12,2.343363547e-13,1.406802826e-12,1.193510155e-11,3.169680311e-12,4.694578041e-13,3.806553427e-13,5.053457186e-13,1.213806055e-15,2.00948022e-12,3.971979772e-12,6.29973266e-13,1.879183876e-14,9.095875392e-13,3.264287302e-15,5.27343062e-14,2.932009429e-13,2.34519366e-12,1.991288725e-12,5.336421461e-13,6.248266067e-13,4.610558792e-13,2.899031191e-12,6.163768005e-13,1.234131097e-11,9.381052432e-12,9.488009976e-13,2.238037988e-13
0.0234375,7.317332648e-12,8.00838759e-12,1.724643441e-12,1.851338098e-13,8.84206231e-12,1.963147731e-13,1.471307687e-12,1.310653895e-11,3.551912294e-12,4.671883727e-13,4.383981743e-13,4.21430143e-13,1.812201279e-15,2.148837674e-12,4.072111223e-12,6.13463666e-13,1.875347906e-14,1.009298767e-12,4.367965604e-15,4.497546777e-14,3.61130258e-13,2.638207246e-12,2.266215628e-12,5.396195922e-13,5.317125392e-13,5.50595927e-13,2.833468145e-12,5.120716079e-13,1.346945028e-11,9.867341045e-12,8.75221652e-13,2.683730375e-13
0.03125,7.430576873e-12,8.561994682e-12,1.914484817e-12,2.125957834e-13,9.509121196e-12,1.566384797e-13,1.475244217e-12,1.376350636e-11,3.795161447e-12,4.598002145e-13,4.66784893e-13,3.301197645e-13,2.538431705e-15,2.204223215e-12,3.996725509e-12,5.685027677e-13,1.811094338e-14,1.076078385e-12,5.798538172e-15,3.696740115e-14,4.209315778e-13,2.822032001e-12,2.446310239e-12,5.58596481e-13,4.164997634e-13,6.216099529e-13,2.656481533e-12,3.908485388e-13,1.409587942e-11,9.974073015e-12,7.821573331e-13,3.016294282e-13
0.0390625,7.278215769e-12,8.854472213e-12,2.015023607e-12,2.339497403e-13,9.884324579e-12,1.238774795e-13,1.411478865e-12,1.405585723e-11,3.940270291e-12,4.610697158e-13,4.601972073e-13,2.327834375e-13,3.352730207e-15,2.206569113e-12,3.795562024e-12,5.161969686e-13,1.980437669e-14,1.131186498e-12,7.775573233e-15,2.943864836e-14,4.839113464e-13,2.897264751e-12,2.523004705e-12,6.373857408e-13,3.013085911e-13,6.694779737e-13,2.456855211e-12,2.783469828e-13,1.439924649e-11,9.784586366e-12,6.800133854e-13,3.199094035e-13
0.046875,7.09561788e-12,8.951795566e-12,2.033742169e-12,2.410218418e-13,9.961886572e-12,1.00263359e-13,1.257994457e-12,1.399691081e-11,3.953517131e-12,4.763507535e-13,4.235591021e-13,1.563800018e-13,4.543878167e-15,2.153776743e-12,3.546917447e-12,4.608960642e-13,2.333198623e-14,1.164550674e-12,1.140859596e-14,2.45040298e-14,5.079755307e-13,2.899151608e-12,2.527905579e-12,7.761264509e-13,2.045914448e-13,6.812052094e-13,2.288131959e-12,1.913160313e-13,1.43650961e-11,9.506449053e-12,6.130593817e-13,3.291151417e-13
0.0546875,6.924968675e-12,8.895052294e-12,1.99589019e-12,2.340348034e-13,9.822797978e-12,8.450517343e-14,1.069017689e-12,1.37034935e-11,3.871150738e-12,5.004537079e-13,3.664726242e-13,1.088890942e-13,6.015570717e-15,2.057636739e-12,3.282791793e-12,4.076732796e-13,2.890333236e-14,1.187539418e-12,1.741292493e-14,2.306255541e-14,4.93510266e-13,2.84733314e-12,2.473711799e-12,9.682417168e-13,1.382369217e-13,6.651592481e-13,2.179638223e-12,1.346564471e-13,1.408476371e-11,9.189769916e-12,5.770529833e-13,3.288638719e-13
0.0625,6.671741817e-12,8.710501621e-12,1.955105749e-12,2.214778686e-13,9.623316749e-12,7.408222755e-14,9.208139944e-13,1.332148664e-11,3.763650084e-12,5.1349027e-13,3.044456742e-13,7.413453813e-14,7.000303271e-15,1.936186994e-12,2.988828175e-12,3.587534562e-13,3.646023996e-14,1.215554827e-12,2.569654282e-14,2.362428927e-14,4.778730128e-13,2.763800168e-12,2.386535697e-12,1.187025195e-12,9.476915608e-14,6.484529445e-13,2.112531612e-12,1.015606767e-13,1.369400948e-11,8.749300933e-12,5.329832729e-13,3.185349195e-13
0.0703125,6.466478716e-12,8.45409952e-12,1.931307594e-12,2.03492189e-13,9.34394159e-12,6.949815257e-14,7.902194066e-13,1.283300326e-11,3.618887707e-12,5.147062772e-13,2.504037871e-13,5.993589367e-14,7.698469322e-15,1.792324486e-12,2.708597701e-12,3.125789607e-13,4.292938544e-14,1.231705406e-12,3.54147954e-14,2.635295567e-14,4.439027256e-13,2.668767367e-12,2.285934103e-12,1.377842295e-12,7.07432502e-14,6.239161735e-13,2.072483405e-12,8.485746271e-14,1.313188066e-11,8.278339373e-12,5.051921749e-13,3.041725068e-13
0.078125,6.327319438e-12,8.180817622e-12,1.938374535e-12,1.815597068e-13,9.019245625e-12,6.807867034e-14,6.859085149e-13,1.228844456e-11,3.465043235e-12,5.005443141e-13,2.136616951e-13,6.181571498e-14,8.898232471e-15,1.650965606e-12,2.48381844e-12,2.724337894e-13,4.632092586e-14,1.228290909e-12,4.622737157e-14,3.027373902e-14,3.842317671e-13,2.575812583e-12,2.188378675e-12,1.477896841e-12,5.88787264e-14,5.91591275e-13,2.044458881e-12,8.160321763e-14,1.244275254e-11,7.825327246e-12,4.868442484e-13,2.885625535e-13
0.0859375,6.097367527e-12,7.892873773e-12,1.996033487e-12,1.661778245e-13,8.721236931e-12,6.693375843e-14,6.456318815e-13,1.174021575e-11,3.341495739e-12,4.619068358e-13,1.928483053e-13,6.69159036e-14,1.049149378e-14,1.537705591e-12,2.314579625e-12,2.483038623e-13,4.859942552e-14,1.21379876e-12,5.785731244e-14,3.383584383e-14,3.371500436e-13,2.471587457e-12,2.093513458e-12,1.503548541e-12,4.940481473e-14,5.689656222e-13,1.994233437e-12,8.577213647e-14,1.175572856e-11,7.28698028e-12,4.420180124e-13,2.668950672e-13
0.09375,5.869690155e-12,7.624147615e-12,2.066954687e-12,1.589365255e-13,8.396877795e-12,6.609294523e-14,6.244441521e-13,1.117208279e-11,3.241581982e-12,4.133936935e-13,1.836439985e-13,8.632421513e-14,1.181040903e-14,1.471498171e-12,2.242052238e-12,2.442945186e-13,4.874219069e-14,1.172910727e-12,6.781429366e-14,3.711268166e-14,3.082285742e-13,2.355982862e-12,1.998155814e-12,1.443664635e-12,4.515851638e-14,5.4280905e-13,1.937663381e-12,9.200751307e-14,1.107559384e-11,6.771835938e-12,4.063592537e-13,2.430400134e-13
0.1015625,5.748916968e-12,7.442183339e-12,2.12470315e-12,1.57794339e-13,8.058823456e-12,6.782609442e-14,5.866434227e-13,1.063547328e-11,3.168014595e-12,3.709028139e-13,1.815731611e-13,1.115034792e-13,1.247864876e-14,1.469165748e-12,2.299659935e-12,2.630523868e-13,4.382238682e-14,1.099721286e-12,7.278964724e-14,4.166980587e-14,2.83135703e-13,2.250787182e-12,1.916094361e-12,1.298861832e-12,4.670996183e-14,5.013338621e-13,1.903250828e-12,9.965574803e-14,1.047411707e-11,6.431953922e-12,4.004775577e-13,2.247116649e-13
0.109375,5.51559537e-12,7.262079317e-12,2.171943791e-12,1.665889661e-13,7.714457653e-12,7.459327288e-14,5.702270476e-13,1.011306273e-11,3.124121332e-12,3.292539946e-13,1.783912943e-13,1.260339737e-13,1.306225317e-14,1.516508315e-12,2.401060786e-12,2.974050257e-13,3.711180765e-14,1.01008831e-12,7.317001314e-14,4.764599108e-14,2.859333553e-13,2.124696097e-12,1.815106314e-12,1.118004656e-12,4.655487923e-14,4.58657331e-13,1.858321572e-12,1.092761951e-13,9.969993407e-12,6.078170267e-12,3.852427303e-13,2.060033728e-13
0.1171875,5.321419915e-12,7.160589212e-12,2.187723378e-12,1.814218679e-13,7.446183536e-12,8.162213863e-14,5.487441823e-13,9.755583482e-12,3.12656143e-12,2.990299082e-13,1.752938126e-13,1.473046229e-13,1.413591821e-14,1.624102948e-12,2.584317775e-12,3.464275965e-13,3.242604716e-14,9.24075426e-13,7.016608252e-14,5.25918616e-14,3.130274025e-13,2.013417539e-12,1.715999251e-12,9.641695624e-13,5.175756936e-14,4.158961965e-13,1.864526003e-12,1.218917009e-13,9.700180365e-12,5.86588648e-12,3.940851757e-13,1.904649891e-13
0.125,5.195737686e-12,7.063261882e-12,2.16638638e-12,1.917558323e-13,7.172647884e-12,8.641918883e-14,5.17882858e-13,9.393913921e-12,3.091989717e-12,2.75462612e-13,1.820412425e-13,1.616679406e-13,1.472257034e-14,1.720773382e-12,2.749750295e-12,3.845863075e-13,2.863508808e-14,8.284935072e-13,6.230874644e-14,5.85758197e-14,3.315161102e-13,1.930710428e-12,1.635013133e-12,8.709440521e-13,5.596133635e-14,3.708632926e-13,1.885264802e-12,1.243165211e-13,9.43739166e-12,5.744207421e-12,4.178552244e-13,1.858700589e-13
0.1328125,4.989807471e-12,6.921914975e-12,2.140991957e-12,2.011340189e-13,6.901566823e-12,9.440916806e-14,5.119474002e-13,9.032227031e-12,3.0216377e-12,2.509438081e-13,1.985894872e-13,1.509895948e-13,1.389302959e-14,1.7861064e-12,2.828858181e-12,4.138994198e-13,2.580943133e-14,7.436250673e-13,5.151269357e-14,6.522435583e-14,3.532730629e-13,1.858740789e-12,1.558400844e-12,8.265877668e-13,5.540041996e-14,3.353982245e-13,1.890505077e-12,1.194148428e-13,9.178812377e-12,5.557176546e-12,4.24758429e-13,1.811013312e-13
0.140625,4.776140537e-12,6.778809054e-12,2.097713365e-12,2.086741134e-13,6.710701021e-12,1.047979094e-13,5.353460317e-13,8.829254419e-12,2.961432772e-12,2.294063996e-13,2.291295119e-13,1.289980997e-13,1.258116152e-14,1.837636575e-12,2.879456099e-12,4.412659649e-13,2.62938264e-14,6.929619463e-13,4.107538268e-14,7.240939076e-14,3.91037265e-13,1.808820218e-12,1.491046595e-12,8.64190555e-13,5.712174971e-14,3.151163536e-13,1.910885878e-12,1.144602189e-13,9.030024238e-12,5.376761277e-12,4.328424604e-13,1.731112872e-13
0.1484375,4.698465989e-12,6.656641126e-12,2.010602814e-12,2.069657425e-13,6.499017778e-12,1.077591502e-13,5.30700138e-13,8.650794107e-12,2.845428647e-12,2.179481416e-13,2.722603744e-13,1.163260329e-13,1.195601404e-14,1.837960536e-12,2.926766245e-12,4.643992773e-13,3.053449863e-14,6.666114011e-13,3.249502311e-14,7.633903165e-14,3.954255332e-13,1.787641262e-12,1.44308067e-12,9.844139065e-13,6.534170436e-14,2.946357086e-13,1.946051627e-12,1.067172413e-13,8.853931141e-12,5.293180742e-12,4.676559684e-13,1.667737349e-13
0.15625,4.633388853e-12,6.522532486e-12,1.912666459e-12,2.03104017e-13,6.241275411e-12,1.053454874e-13,5.255895075e-13,8.443014162e-12,2.677951162e-12,2.128940485e-13,3.203400134e-13,1.031716264e-13,1.129188457e-14,1.782661384e-12,2.935463184e-12,4.857086377e-13,3.864371872e-14,6.591178219e-13,2.617534833e-14,7.554448428e-14,3.75328292e-13,1.766158654e-12,1.399376995e-12,1.175110298e-12,7.380835973e-14,2.731273328e-13,1.939477315e-12,9.382599341e-14,8.608887123e-12,5.17899169e-12,4.940986075e-13,1.548958426e-13
0.1640625,4.542342075e-12,6.38595155e-12,1.813363883e-12,2.059598174e-13,6.020236581e-12,1.054940736e-13,5.401990697e-13,8.314834733e-12,2.53519975e-12,2.218712524e-13,3.576472884e-13,9.083903523e-14,9.660260041e-15,1.714466131e-12,2.953826532e-12,5.157337207e-13,4.815416694e-14,6.772752233e-13,2.275774076e-14,7.234587542e-14,3.778478744e-13,1.737651197e-12,1.350696958e-12,1.370819708e-12,9.020651995e-14,2.618573198e-13,1.888176719e-12,8.40479425e-14,8.440866185e-12,5.043213634e-12,5.064184266e-13,1.359961536e-13
0.171875,4.563074699e-12,6.273235373e-12,1.667714415e-12,2.092754633e-13,5.789253363e-12,1.028077736e-13,5.27712296e-13,8.215091126e-12,2.407350764e-12,2.475652753e-13,3.823482978e-13,9.198655669e-14,8.383516874e-15,1.645980755e-12,3.043643974e-12,5.497510963e-13,5.672042478e-14,6.951080123e-13,2.346832609e-14,6.743346167e-14,3.732098225e-13,1.711691778e-12,1.29997748e-12,1.548608818e-12,1.155053374e-13,2.439445223e-13,1.833997298e-12,8.177407351e-14,8.291293272e-12,5.017865567e-12,5.481006202e-13,1.198863349e-13
0.1796875,4.600869249e-12,6.124412213e-12,1.500159795e-12,2.122543617e-13,5.518608264e-12,9.189139709e-14,5.112362514e-13,8.049448229e-12,2.286037543e-12,2.841056921e-13,3.850365382e-13,9.754204444e-14,8.719755069e-15,1.570275677e-12,3.14939719e-12,5.733925187e-13,6.356371675e-14,6.860433875e-13,2.594302066e-14,5.868392415e-14,3.520728977e-13,1.665150404e-12,1.232123814e-12,1.7374206e-12,1.394513674e-13,2.194111572e-13,1.737185538e-12,8.738883881e-14,8.049790934e-12,4.998834229e-12,5.827250377e-13,1.103737659e-13
0.1875,4.472946264e-12,5.88042328e-12,1.357217678e-12,2.181998428e-13,5.327666544e-12,8.192305273e-14,5.646772639e-13,7.862859678e-12,2.203174403e-12,3.14114745e-13,3.603685205e-13,1.002133449e-13,9.980282411e-15,1.498463939e-12,3.210996326e-12,5.862641812e-13,7.000322751e-14,6.621640569e-13,2.906544623e-14,4.936931007e-14,3.604191889e-13,1.593096845e-12,1.15087555e-12,1.917330716e-12,1.612939996e-13,2.111091663e-13,1.570389148e-12,9.99674386e-14,7.812748063e-12,4.848223626e-12,5.558609469e-13,1.09311166e-13
0.1953125,4.335702549e-12,5.588909879e-12,1.206118311e-12,2.185076119e-13,5.207168585e-12,7.936446914e-14,6.694487747e-13,7.691818235e-12,2.155702289e-12,3.443622283e-13,3.171024821e-13,1.162870583e-13,1.116988738e-14,1.446683516e-12,3.290253655e-12,5.913671345e-13,7.331744632e-14,6.186416585e-13,3.414440552e-14,4.422286195e-14,3.817248386e-13,1.519584894e-12,1.071559084e-12,2.064559773e-12,1.905135898e-13,2.156673152e-13,1.401243603e-12,1.135418017e-13,7.587022799e-12,4.727301882e-12,5.237452233e-13,1.205405074e-13
0.203125,4.234883245e-12,5.253585506e-12,1.048627723e-12,2.028087328e-13,5.104688707e-12,7.541787709e-14,8.10819366e-13,7.444013176e-12,2.094688486e-12,3.645514172e-13,2.661998697e-13,1.23720801e-13,1.398466293e-14,1.39225782e-12,3.352676177e-12,5.830407744e-13,7.077855669e-14,5.436808001e-13,3.769814172e-14,4.542362202e-14,3.790514347e-13,1.448328872e-12,9.997716951e-13,2.257626582e-12,2.126272377e-13,2.286466645e-13,1.244888524e-12,1.200979965e-13,7.25550461e-12,4.652542075e-12,4.98981432e-13,1.437855155e-13
0.2109375,3.980962121e-12,4.873659985e-12,9.351101564e-13,1.811527038e-13,5.073152859e-12,7.298963901e-14,1.027135842e-12,7.176479865e-12,2.042678438e-12,3.622926354e-13,2.145114883e-13,1.062559957e-13,1.888031938e-14,1.341182136e-12,3.32703261e-12,5.759998278e-13,6.756234549e-14,4.670361959e-13,3.835836087e-14,5.342345143e-14,3.99955953e-13,1.356814028e-12,9.239681203e-13,2.566199146e-12,2.159238613e-13,2.653166992e-13,1.069003703e-12,1.24885682e-13,6.915835489e-12,4.469150509e-12,4.216860092e-13,1.694900964e-13
0.21875,3.709568995e-12,4.535392517e-12,8.516605278e-13,1.570887571e-13,5.104504952e-12,8.118031716e-14,1.233553021e-12,6.978704936e-12,2.00946913e-12,3.545732868e-13,1.625775303e-13,9.374938493e-14,2.326692543e-14,1.308686487e-12,3.273038909e-12,5.792752022e-13,6.832547255e-14,4.128366142e-13,3.788950913e-14,6.996175786e-14,4.355205801e-13,1.266123818e-12,8.540117204e-13,2.938817023e-12,2.190903393e-13,3.096222385e-13,9.276730686e-13,1.354446203e-13,6.668095989e-12,4.337715196e-12,3.241588919e-13,1.951587762e-13
0.2265625,3.618320215e-12,4.325462709e-12,7.739803348e-13,1.25998918e-13,5.108231119e-12,9.211495568e-14,1.333361575e-12,6.774560895e-12,1.938656548e-12,3.46404557e-13,1.201759447e-13,9.229283047e-14,2.621137166e-14,1.278194976e-12,3.246012213e-12,5.989450297e-13,7.409328829e-14,3.802044469e-13,3.726608745e-14,9.083677494e-14,4.203897924e-13,1.205624855e-12,8.168262841e-13,3.342701072e-12,2.222957371e-13,3.437812038e-13,8.535134245e-13,1.417728734e-13,6.441944028e-12,4.402454546e-12,2.667399899e-13,2.175774928e-13
0.234375,3.518056588e-12,4.206883552e-12,7.37384762e-13,9.494493768e-14,5.100760072e-12,1.006080031e-13,1.383096837e-12,6.59279126e-12,1.864312833e-12,3.356944881e-13,9.168899876e-14,7.819241848e-14,3.026599782e-14,1.248455857e-12,3.15427668e-12,6.321892756e-13,8.472160726e-14,3.793144391e-13,3.361221077e-14,1.100547205e-13,3.938373832e-13,1.146694368e-12,7.89769019e-13,3.818519399e-12,2.047278137e-13,3.765838878e-13,8.144828892e-13,1.462957151e-13,6.287601249e-12,4.46985419e-12,2.198826755e-13,2.219477968e-13
0.2421875,3.408005696e-12,4.189369375e-12,7.281874154e-13,7.403579559e-14,5.099049219e-12,1.154938451e-13,1.386324796e-12,6.518057847e-12,1.828586397e-12,3.321258779e-13,7.519582664e-14,6.664857763e-14,3.401922714e-14,1.237774661e-12,3.030765017e-12,6.843725372e-13,1.004283029e-13,4.168982622e-13,2.794342969e-14,1.300251515e-13,3.987770832e-13,1.093906669e-12,7.709503513e-13,4.242603555e-12,1.789441335e-13,3.982490371e-13,8.295367088e-13,1.66829062e-13,6.295919164e-12,4.580797987e-12,1.816596834e-13,2.102768248e-13
0.25,3.48698099e-12,4.277793979e-12,7.236780225e-13,5.775006491e-14,5.037085449e-12,1.315353323e-13,1.246440452e-12,6.455198954e-12,1.774052169e-12,3.392231119e-13,6.474448213e-14,7.384379473e-14,3.42464091e-14,1.232311266e-12,2.965738903e-12,7.410972979e-13,1.175721282e-13,4.628959521e-13,2.289469037e-14,1.490038254e-13,3.68309953e-13,1.080332019e-12,7.896650539e-13,4.45153831e-12,1.627580131e-13,3.880326814e-13,9.051444498e-13,1.957837421e-13,6.339800406e-12,4.861397035e-12,1.804347102e-13,1.964298712e-13
0.2578125,3.552582014e-12,4.378894918e-12,7.479653743e-13,4.606579496e-14,4.928149319e-12,1.339290252e-13,1.011144829e-12,6.372815675e-12,1.717484763e-12,3.467448069e-13,5.871530186e-14,7.743805177e-14,3.202990511e-14,1.222435898e-12,2.879654802e-12,7.856369582e-13,1.38151479e-13,5.135504196e-13,1.905046325e-14,1.56873219e-13,3.186336059e-13,1.08285557e-12,8.275170974e-13,4.500491341e-12,1.418220596e-13,3.663869309e-13,9.82699263e-13,2.20433414e-13,6.397161103e-12,5.067221718e-12,1.814822734e-13,1.781276544e-13
0.265625,3.472473903e-12,4.40804728e-12,7.928673523e-13,4.248105407e-14,4.824129163e-12,1.271201726e-13,8.140131233e-13,6.29144966e-12,1.693024186e-12,3.439260358e-13,5.64859727e-14,8.405851816e-14,3.082235752e-14,1.216511529e-12,2.739210652e-12,8.125174915e-13,1.594158856e-13,5.597986043e-13,1.456216883e-14,1.533308127e-13,3.108970907e-13,1.092472738e-12,8.76203093e-13,4.418251036e-12,1.114435151e-13,3.566045893e-13,1.044775405e-12,2.492845535e-13,6.483785087e-12,5.087900484e-12,1.731340344e-13,1.571105267e-13
0.2734375,3.491750401e-12,4.397570233e-12,8.311163035e-13,4.221233519e-14,4.671263461e-12,1.223735846e-13,6.502358848e-13,6.163255255e-12,1.655538369e-12,3.45697853e-13,5.559765654e-14,1.120875343e-13,2.898540341e-14,1.212607513e-12,2.645061982e-12,8.130360852e-13,1.690574811e-13,5.716129384e-13,1.074704531e-14,1.459669808e-13,3.050521765e-13,1.125895814e-12,9.426530574e-13,4.104352116e-12,9.310716515e-14,3.440667958e-13,1.107874925e-12,2.797808919e-13,6.487780653e-12,5.131528275e-12,1.922390614e-13,1.468133447e-13
0.28125,3.505379043e-12,4.32250909e-12,8.689069532e-13,4.391204823e-14,4.462425775e-12,1.114137294e-13,4.912089986e-13,5.962629246e-12,1.605737254e-12,3.461184515e-13,5.349932109e-14,1.283706016e-13,2.375687383e-14,1.207443264e-12,2.556509542e-12,7.754394458e-13,1.671759928e-13,5.537754434e-13,9.055937345e-15,1.383180686e-13,2.950858942e-13,1.162978735e-12,9.996761523e-13,3.610269502e-12,8.783889318e-14,3.343717101e-13,1.139190329e-12,2.880188643e-13,6.385855669e-12,5.077790432e-12,2.05732601e-13,1.450384011e-13
0.2890625,3.313435664e-12,4.130598801e-12,9.21513509e-13,5.114341914e-14,4.266723162e-12,8.834880956e-14,4.152946134e-13,5.69375283e-12,1.55951683e-12,3.254831261e-13,5.0524419e-14,1.301321703e-13,1.82230539e-14,1.197342985e-12,2.394542978e-12,7.045571948e-13,1.613547211e-13,5.278612789e-13,8.857416094e-15,1.262612255e-13,3.208798992e-13,1.179131245e-12,1.028743217e-12,3.104208863e-12,8.505885769e-14,3.528588906e-13,1.110623034e-12,2.753981896e-13,6.239879812e-12,4.752809149e-12,1.88917383e-13,1.4491625e-13
0.296875,3.172496654e-12,3.929018283e-12,9.36060577e-13,5.971459528e-14,4.044522921e-12,6.876039246e-14,4.070217377e-13,5.410271905e-12,1.505074067e-12,3.103094683e-13,5.000712623e-14,1.586702509e-13,1.537108991e-14,1.198642843e-12,2.266457016e-12,6.204038325e-13,1.526303412e-13,4.928991242e-13,1.038795188e-14,1.120049425e-13,3.491288609e-13,1.187460738e-12,1.032539192e-12,2.574080463e-12,9.767420622e-14,3.66174037e-13,1.107951032e-12,2.684305565e-13,6.058636514e-12,4.448433663e-12,2.020822731e-13,1.493199937e-13
0.3046875,3.13560051e-12,3.771327182e-12,9.058090576e-13,6.623915101e-14,3.787112642e-12,5.805969392e-14,4.072642099e-13,5.115032763e-12,1.430520367e-12,3.032836332e-13,5.4160879e-14,1.802848877e-13,1.253583722e-14,1.204793888e-12,2.194831287e-12,5.327159336e-13,1.383419096e-13,4.59799172e-13,1.427896552e-14,1.026677689e-13,3.465915783e-13,1.186333883e-12,1.005701713e-12,2.026972828e-12,1.257246554e-13,3.552810988e-13,1.146399881e-12,2.565863758e-13,5.850614862e-12,4.253974722e-12,2.352518295e-13,1.544185872e-13
0.3125,2.952868412e-12,3.611955779e-12,8.735953323e-13,7.481514502e-14,3.55093469e-12,5.16789039e-14,4.50656348e-13,4.842137479e-12,1.363522185e-12,2.873536029e-13,6.282773898e-14,1.630777289e-13,8.720674676e-15,1.208584269e-12,2.079345415e-12,4.542194875e-13,1.236102357e-13,4.570951813e-13,1.942925644e-14,9.917763816e-14,3.670340647e-13,1.135499964e-12,9.203605018e-13,1.538459229e-12,1.586783977e-13,3.401865557e-13,1.197116773e-12,2.323826105e-13,5.690805252e-12,3.946263201e-12,2.500498247e-13,1.45665372e-13
0.3203125,2.802686202e-12,3.512216503e-12,8.139220932e-13,8.162900562e-14,3.337089535e-12,5.292770958e-14,5.403436144e-13,4.623862808e-12,1.300459927e-12,2.710491323e-13,8.290613102e-14,1.531871561e-13,6.013357805e-15,1.207951903e-12,1.980605451e-12,3.986377289e-13,1.166464213e-13,4.831679031e-13,2.601988911e-14,1.009994153e-13,3.948747537e-13,1.07085542e-12,8.115681777e-13,1.16210535e-12,2.059496287e-13,3.138019425e-13,1.297507889e-12,2.186408976e-13,5.600878629e-12,3.712373389e-12,2.931262998e-13,1.291526901e-13
0.328125,2.809710314e-12,3.491621322e-12,7.289175208e-13,7.976023703e-14,3.144915037e-12,5.807598202e-14,6.103826032e-13,4.432771655e-12,1.219790889e-12,2.57879179e-13,1.122573792e-13,1.601608289e-13,4.959785147e-15,1.184738252e-12,1.935119726e-12,3.632429955e-13,1.182512342e-13,5.218054804e-13,3.61834181e-14,1.065467331e-13,3.647898858e-13,1.026600363e-12,7.235842752e-13,8.409306086e-13,2.567574462e-13,2.651874047e-13,1.43545765e-12,2.218445384e-13,5.512456608e-12,3.660964079e-12,3.501480179e-13,1.170527998e-13
0.3359375,2.712275017e-12,3.451379843e-12,6.697655477e-13,7.782651409e-14,2.98614072e-12,5.967602775e-14,6.623927955e-13,4.26601048e-12,1.156767608e-12,2.372366132e-13,1.460184893e-13,1.398924149e-13,4.467549307e-15,1.131964701e-12,1.817528855e-12,3.366319473e-13,1.270821071e-13,5.781117219e-13,4.934925221e-14,1.155450378e-13,3.254683844e-13,9.71332772e-13,6.426399333e-13,5.915342179e-13,2.78823753e-13,2.154252715e-13,1.515763792e-12,2.173500137e-13,5.426154239e-12,3.514807025e-12,3.533148303e-13,9.836343177e-14
0.34375,2.557805989e-12,3.378426479e-12,6.424893433e-13,7.732332159e-14,2.876981704e-12,6.04069676e-14,7.450924872e-13,4.12941484e-12,1.119105555e-12,2.071634011e-13,1.879198581e-13,1.055079501e-13,4.047824804e-15,1.05209671e-12,1.632625214e-12,3.121792233e-13,1.379858309e-13,6.269328956e-13,6.151709922e-14,1.294286468e-13,3.127293885e-13,9.23628498e-13,5.899875338e-13,4.452499358e-13,2.79545071e-13,1.834045366e-13,1.519045836e-12,2.06903558e-13,5.314689934e-12,3.294458534e-12,3.403704745e-13,7.647634913e-14
0.3515625,2.55162325e-12,3.313248687e-12,6.277898275e-13,7.171077162e-14,2.795441703e-12,6.476297331e-14,8.735280525e-13,3.992616293e-12,1.08137001e-12,1.816903042e-13,2.265624264e-13,9.431766272e-14,3.42514914e-15,9.548908154e-13,1.482974824e-12,2.862443454e-13,1.425237037e-13,6.377871109e-13,7.170398067e-14,1.478277151e-13,2.667575332e-13,9.144689949e-13,5.864526964e-13,3.655946397e-13,2.801037997e-13,1.67422964e-13,1.481828335e-12,2.068899805e-13,5.103754856e-12,3.184324328e-12,3.500438019e-13,6.491147676e-14
0.359375,2.457427239e-12,3.17270148e-12,6.471139369e-13,6.672097557e-14,2.730711477e-12,6.513669866e-14,1.004683836e-12,3.849985664e-12,1.067455983e-12,1.616552981e-13,2.493507966e-13,9.337947844e-14,3.188613906e-15,8.501854614e-13,1.31246223e-12,2.527999552e-13,1.427976941e-13,6.193612602e-13,8.196618209e-14,1.641108613e-13,1.991943331e-13,9.045861434e-13,6.017927195e-13,3.402319187e-13,2.617084063e-13,1.666474705e-13,1.35441894e-12,1.952556104e-13,4.805248491e-12,2.973978341e-12,3.179793946e-13,5.827591436e-14
0.3671875,2.255476583e-12,2.970739813e-12,7.053506588e-13,6.853841852e-14,2.700663176e-12,5.712375433e-14,1.079436309e-12,3.725397443e-12,1.086950674e-12,1.455337284e-13,2.563920572e-13,9.354496466e-14,3.732510188e-15,7.582075127e-13,1.119035986e-12,2.165776722e-13,1.401787389e-13,5.757638858e-13,9.124794415e-14,1.726142499e-13,1.598683046e-13,8.829911717e-13,6.273512242e-13,3.819199517e-13,2.110071289e-13,1.800042592e-13,1.117800316e-12,1.595270578e-13,4.462581041e-12,2.637732156e-12,2.473990829e-13,5.485030503e-14
0.375,2.198079396e-12,2.822018267e-12,7.39170503e-13,7.064234743e-14,2.662613335e-12,4.846740858e-14,1.091077716e-12,3.666230518e-12,1.116394156e-12,1.489617514e-13,2.512351911e-13,1.035932823e-13,3.761399063e-15,7.097125281e-13,1.041298854e-12,1.972672064e-13,1.277871385e-13,5.019782157e-13,9.352363132e-14,1.750081971e-13,1.322769569e-13,8.6529232e-13,6.52455019e-13,4.963224878e-13,1.608545727e-13,1.842080597e-13,8.966062994e-13,1.300090161e-13,4.118905399e-12,2.465311168e-12,2.171998352e-13,5.813533625e-14
0.3828125,2.16939869e-12,2.707552337e-12,7.706482296e-13,7.515954003e-14,2.613105899e-12,4.414402521e-14,1.102888852e-12,3.641337313e-12,1.15334864e-12,1.67316985e-13,2.282580184e-13,1.102181483e-13,2.80397598e-15,7.025904149e-13,1.049841725e-12,1.952144019e-13,1.046868039e-13,4.180988651e-13,8.749373941e-14,1.727748945e-13,1.076072536e-13,8.293768826e-13,6.526307094e-13,6.586199142e-13,1.263291473e-13,1.852353184e-13,7.17135636e-13,1.10421879e-13,3.803228147e-12,2.37481723e-12,1.95085782e-13,6.143179066e-14
0.390625,2.072543929e-12,2.617649331e-12,8.26865122e-13,8.46085268e-14,2.591183873e-12,4.199914629e-14,1.082433134e-12,3.639740721e-12,1.188417136e-12,1.888210129e-13,1.89692199e-13,1.22438552e-13,2.131977914e-15,7.243089938e-13,1.114475723e-12,2.127179963e-13,8.036147339e-14,3.528464664e-13,7.860205731e-14,1.601206483e-13,1.051832493e-13,7.623503274e-13,6.267023811e-13,8.546339249e-13,9.700819316e-14,1.890859695e-13,5.53950602e-13,8.689326035e-14,3.565639978e-12,2.277813393e-12,1.540951613e-13,6.301156892e-14
0.3984375,2.12447788e-12,2.629999596e-12,8.419055106e-13,9.292719968e-14,2.557419674e-12,3.794370561e-14,9.458086091e-13,3.69375998e-12,1.21035192e-12,2.226799344e-13,1.506425208e-13,1.552127025e-13,1.969280171e-15,7.747120143e-13,1.278021673e-12,2.472670834e-13,6.030856487e-14,3.039045979e-13,6.918141702e-14,1.37163947e-13,1.032936277e-13,7.067000834e-13,6.031237e-13,1.073816999e-12,7.28419786e-14,1.756767919e-13,4.585193299e-13,7.203933047e-14,3.426146434e-12,2.371249296e-12,1.458699667e-13,6.843057596e-14
0.40625,2.229008437e-12,2.687447912e-12,8.20712563e-13,9.499254088e-14,2.517612043e-12,2.992815926e-14,7.586916501e-13,3.749607891e-12,1.205281977e-12,2.517790016e-13,1.170248262e-13,1.644304324e-13,1.923121416e-15,8.28969206e-13,1.463538355e-12,2.881404219e-13,4.158126362e-14,2.754470218e-13,5.683495819e-14,1.105082512e-13,9.379711295e-14,6.656886932e-13,5.785835709e-13,1.297563435e-12,5.516885915e-14,1.504393357e-13,4.329988544e-13,7.013264829e-14,3.362486135e-12,2.548797717e-12,1.498724147e-13,7.406627466e-14
0.4140625,2.18716828e-12,2.710933319e-12,8.257227532e-13,9.748387291e-14,2.496640874e-12,2.376856237e-14,6.336238413e-13,3.762803268e-12,1.185368106e-12,2.576244161e-13,8.595194785e-14,1.420054577e-13,1.931330044e-15,8.603408205e-13,1.583649516e-12,3.229377446e-13,2.716388663e-14,2.717762918e-13,4.284164652e-14,8.903172332e-14,1.030769745e-13,6.171922453e-13,5.422168268e-13,1.472799791e-12,4.244155846e-14,1.376204308e-13,4.267448782e-13,6.560540961e-14,3.34409069e-12,2.603266156e-12,1.249155425e-13,7.68202515e-14
0.421875,2.165311065e-12,2.720642308e-12,8.047352975e-13,9.547415986e-14,2.484842162e-12,2.24010196e-14,5.526073382e-13,3.741054166e-12,1.145399844e-12,2.523130284e-13,6.530325176e-14,1.339456861e-13,1.649724415e-15,8.664361553e-13,1.697646602e-12,3.488014034e-13,1.74048517e-14,2.75396838e-13,3.095686727e-14,7.404139484e-14,1.120449232e-13,5.920362782e-13,5.241622549e-13,1.539159202e-12,3.834351852e-14,1.284660782e-13,4.543349924e-13,6.469093232e-14,3.337556732e-12,2.691421152e-12,1.1336189e-13,8.407572968e-14
0.4296875,2.169460912e-12,2.705792896e-12,7.347819141e-13,8.34898596e-14,2.45892703e-12,1.915616259e-14,5.088310605e-13,3.682254626e-12,1.08530762e-12,2.416699794e-13,5.607064967e-14,1.344190289e-13,1.600232354e-15,8.486113562e-13,1.781459999e-12,3.632486567e-13,1.113368632e-14,2.795940711e-13,2.26625154e-14,6.803698171e-14,1.064549055e-13,5.921988718e-13,5.218532503e-13,1.508078277e-12,3.710188728e-14,1.159881963e-13,5.071408433e-13,7.19366335e-14,3.326879396e-12,2.788497702e-12,1.198885144e-13,9.242512029e-14
0.4375,1.978753942e-12,2.588216647e-12,6.812437189e-13,7.001659068e-14,2.426466065e-12,1.359623516e-14,5.36249928e-13,3.563623083e-12,1.031158881e-12,2.119799831e-13,5.338957184e-14,1.068165709e-13,2.599107632e-15,7.982325776e-13,1.740256998e-12,3.639718805e-13,7.446731226e-15,2.860773029e-13,1.720365783e-14,7.610249222e-14,1.191786365e-13,5.744334554e-13,5.019083777e-13,1.41106398e-12,3.033053974e-14,1.138492511e-13,5.256334639e-13,6.661328788e-14,3.281765025e-12,2.65410417e-12,1.020085403e-13,9.279860456e-14
0.4453125,1.747163106e-12,2.43652313e-12,6.329976707e-13,5.988006776e-14,2.390321021e-12,1.196539332e-14,5.816477046e-13,3.418091442e-12,9.813157926e-13,1.748238891e-13,5.733721809e-14,7.437761615e-14,3.462065305e-15,7.317439139e-13,1.654836023e-12,3.547659397e-13,6.097554877e-15,2.875230399e-13,1.372828005e-14,9.368620437e-14,1.404160952e-13,5.55891841e-13,4.841981205e-13,1.255860042e-12,2.620533612e-14,1.157814929e-13,5.32385581e-13,5.395145423e-14,3.218663349e-12,2.463442951e-12,8.745592358e-14,9.154664048e-14
0.453125,1.62815718e-12,2.311862309e-12,5.5529093e-13,5.120388437e-14,2.335208397e-12,1.246481242e-14,6.098260514e-13,3.274430057e-12,9.277823375e-13,1.464216783e-13,6.526430021e-14,6.083221688e-14,3.673696073e-15,6.743958573e-13,1.595630097e-12,3.445367745e-13,5.498159668e-15,2.815328981e-13,1.167890113e-14,1.11314406e-13,1.489384757e-13,5.479244782e-13,4.744504377e-13,1.070202466e-12,2.970786501e-14,1.111597612e-13,5.582624682e-13,5.211644478e-14,3.156275282e-12,2.369255535e-12,9.468213976e-14,9.057250919e-14
0.4609375,1.481203237e-12,2.168226443e-12,4.988019244e-13,4.659419602e-14,2.269680945e-12,1.189105511e-14,6.627894392e-13,3.101800093e-12,8.797616418e-13,1.182580971e-13,6.910796395e-14,4.874930655e-14,4.935524609e-15,6.171447633e-13,1.468515489e-12,3.25765898e-13,5.045031993e-15,2.77575286e-13,1.031283349e-14,1.305737318e-13,1.682175513e-13,5.228112105e-13,4.584801242e-13,9.306217408e-13,3.253301034e-14,1.153420338e-13,5.408916626e-13,5.212493359e-14,3.078583657e-12,2.184721559e-12,8.747508252e-14,8.264857762e-14
0.46875,1.35747157e-12,2.045952023e-12,4.657062645e-13,4.781384228e-14,2.207505785e-12,1.449411092e-14,6.751295787e-13,2.933543301e-12,8.410570341e-13,9.326000126e-14,6.772713826e-14,3.834479985e-14,6.410988649e-15,5.776772498e-13,1.321824657e-12,3.00840442e-13,5.466357897e-15,2.776426697e-13,9.844281974e-15,1.474413359e-13,1.941946946e-13,4.910080863e-13,4.41133889e-13,8.69486664e-13,4.062925174e-14,1.225602151e-13,4.989072459e-13,5.24681126e-14,3.028373924e-12,1.996150174e-12,8.226297255e-14,7.007760813e-14
0.4765625,1.381925355e-12,1.986645339e-12,4.217887076e-13,5.118347496e-14,2.154544691e-12,1.831546629e-14,5.932148967e-13,2.81146821e-12,7.988443221e-13,8.114816466e-14,6.514094743e-14,3.623346503e-14,6.058804752e-15,5.675779117e-13,1.240848853e-12,2.772232236e-13,6.468221338e-15,2.751507312e-13,1.005113803e-14,1.502546588e-13,1.924772701e-13,4.740487852e-13,4.383374753e-13,9.051135612e-13,5.328702803e-14,1.232636993e-13,4.782000809e-13,6.377319329e-14,2.997322236e-12,1.957600873e-12,9.627911563e-14,6.071840262e-14
0.484375,1.399299569e-12,1.924633791e-12,3.889536372e-13,5.653600856e-14,2.117163342e-12,1.77825695e-14,4.937673279e-13,2.683200047e-12,7.522316287e-13,7.161856479e-14,5.869792421e-14,3.033811194e-14,5.227831965e-15,5.640274825e-13,1.158039596e-12,2.505613375e-13,8.427642665e-15,2.748443781e-13,9.480090585e-15,1.395720333e-13,1.83958178e-13,4.585792744e-13,4.36945637e-13,1.020970609e-12,5.833430485e-14,1.319296122e-13,4.455541299e-13,7.709117486e-14,2.943940991e-12,1.902088134e-12,9.270170115e-14,5.261184224e-14
0.4921875,1.392388915e-12,1.853246783e-12,3.777060641e-13,6.071314093e-14,2.116208806e-12,1.790752783e-14,4.291416532e-13,2.564766667e-12,7.067368237e-13,6.18281655e-14,4.799746546e-14,2.480864274e-14,5.388786301e-15,5.611295162e-13,1.059413813e-12,2.19545735e-13,1.084281032e-14,2.782021743e-13,7.808072315e-15,1.272699692e-13,1.863485928e-13,4.452538868e-13,4.375094682e-13,1.19705019e-12,6.114006918e-14,1.487425544e-13,3.86190114e-13,8.385067942e-14,2.881509648e-12,1.814747253e-12,7.756560886e-14,4.432911338e-14
0.5,1.481134677e-12,1.827576915e-12,3.537974561e-13,6.120522255e-14,2.127646846e-12,2.145185744e-14,3.675106504e-13,2.513394416e-12,6.701400333e-13,6.363435193e-14,3.775333698e-14,3.026316924e-14,5.099822066e-15,5.719398413e-13,1.033403735e-12,1.972714904e-13,1.29238054e-14,2.708267568e-13,6.683153583e-15,1.110343278e-13,1.682365014e-13,4.497711638e-13,4.513889054e-13,1.383945624e-12,6.988258185e-14,1.54132921e-13,3.543580253e-13,9.670940758e-14,2.818601869e-12,1.837100527e-12,8.346409757e-14,3.997343192e-14
0.5078125,1.533691351e-12,1.802466565e-12,3.291403197e-13,5.859039013e-14,2.149764614e-12,2.256503704e-14,3.329599487e-13,2.475618153e-12,6.372437192e-13,6.805409613e-14,3.13379895e-14,3.13635211e-14,4.402374958e-15,5.709287555e-13,1.025621336e-12,1.823399753e-13,1.344529009e-14,2.565665897e-13,6.174665754e-15,9.073856627e-14,1.351456357e-13,4.578658474e-13,4.616125835e-13,1.598829682e-12,7.222109539e-14,1.60945645e-13,3.296224053e-13,1.119799439e-13,2.709806737e-12,1.832770281e-12,8.340973286e-14,3.884010776e-14
0.515625,1.503305946e-12,1.77835762e-12,3.333893845e-13,5.733824212e-14,2.176022378e-12,2.053375477e-14,3.477728522e-13,2.457227429e-12,6.27015478e-13,7.547085982e-14,2.690579739e-14,2.916314681e-14,4.946487996e-15,5.611167669e-13,1.000589579e-12,1.709366178e-13,1.431950841e-14,2.400151702e-13,5.61193274e-15,7.190401839e-14,1.19494563e-13,4.557019837e-13,4.561614954e-13,1.762586462e-12,6.229330675e-14,1.721285491e-13,2.886598787e-13,1.120729728e-13,2.570190132e-12,1.732986756e-12,7.19589672e-14,3.694138571e-14
0.5234375,1.549397291e-12,1.814026475e-12,3.448445041e-13,5.859706102e-14,2.182416467e-12,2.233255492e-14,3.706683718e-13,2.478899477e-12,6.40192799e-13,9.053859339e-14,2.746101314e-14,3.508310371e-14,5.656363763e-15,5.545571971e-13,1.020178553e-12,1.658814364e-13,1.661200303e-14,2.135890091e-13,4.923303917e-15,6.049841369e-14,1.044051517e-13,4.669436155e-13,4.584474554e-13,1.839210161e-12,5.513753623e-14,1.706755735e-13,2.636890535e-13,1.042639941e-13,2.440694669e-12,1.700627937e-12,7.715473297e-14,3.803707617e-14
0.53125,1.601680479e-12,1.887519452e-12,3.672814077e-13,6.435672886e-14,2.152475494e-12,2.773960128e-14,3.999177275e-13,2.499128807e-12,6.698256154e-13,1.062252309e-13,3.202259943e-14,4.413830286e-14,6.070033025e-15,5.518678098e-13,1.060688582e-12,1.637768799e-13,1.955507216e-14,1.800586662e-13,4.756448998e-15,4.893793099e-14,8.189760252e-14,4.780720756e-13,4.526346901e-13,1.824332026e-12,5.265033396e-14,1.587462856e-13,2.56612709e-13,1.036855244e-13,2.316708691e-12,1.682260568e-12,8.591960022e-14,4.042899482e-14
0.5390625,1.571759981e-12,1.962483603e-12,4.204179649e-13,7.781716217e-14,2.082245947e-12,3.111815821e-14,4.419985381e-13,2.498387504e-12,7.214500844e-13,1.205627143e-13,4.170258408e-14,5.47156422e-14,7.352465617e-15,5.571156952e-13,1.075926089e-12,1.577730672e-13,2.384219472e-14,1.474278088e-13,5.280283738e-15,3.87751728e-14,7.406324249e-14,4.725584851e-13,4.226679783e-13,1.756428622e-12,4.482336371e-14,1.476743223e-13,2.488523974e-13,9.909122974e-14,2.212769734e-12,1.591276449e-12,8.850629479e-14,3.956906296e-14
0.546875,1.578323143e-12,2.058365764e-12,4.772410936e-13,9.639746249e-14,1.985705696e-12,3.462060808e-14,4.467091551e-13,2.48806849e-12,7.752761603e-13,1.329991964e-13,5.430114267e-14,7.460279388e-14,8.674508948e-15,5.703514673e-13,1.106549813e-12,1.514534826e-13,3.197666915e-14,1.198812603e-13,6.163256472e-15,3.220646785e-14,7.161571854e-14,4.722229474e-13,3.921850631e-13,1.619673699e-12,3.690949063e-14,1.317089412e-13,2.594526156e-13,8.663788559e-14,2.162517962e-12,1.551501025e-12,1.053078656e-13,4.113092532e-14
0.5546875,1.619320742e-12,2.149358744e-12,5.224963172e-13,1.167352531e-13,1.877205944e-12,4.247921133e-14,4.04892212e-13,2.455420154e-12,8.16078211e-13,1.385814062e-13,6.609610417e-14,9.410074169e-14,8.317744856e-15,5.913006043e-13,1.164996204e-12,1.480268888e-13,4.563344786e-14,9.614323598e-14,7.825689222e-15,2.672800798e-14,6.227946526e-14,4.790287869e-13,3.670810037e-13,1.472258692e-12,3.62300835e-14,1.107893343e-13,2.87308445e-13,7.689525399e-14,2.153331778e-12,1.578149002e-12,1.21735483e-13,4.588498758e-14
0.5625,1.57086688e-12,2.163350511e-12,5.707209517e-13,1.375356555e-13,1.76658354e-12,5.359969596e-14,3.612759704e-13,2.384821783e-12,8.397791063e-13,1.333858607e-13,7.831205017e-14,9.896235751e-14,7.46260854e-15,5.99548935e-13,1.17942543e-12,1.440351878e-13,6.135758931e-14,8.293064188e-14,8.96458568e-15,2.075011531e-14,5.727951321e-14,4.778672486e-13,3.409873631e-13,1.404153117e-12,4.07143584e-14,9.655530525e-14,3.116400303e-13,7.368145421e-14,2.17090481e-12,1.571748213e-12,1.182553775e-13,5.099431946e-14
0.5703125,1.525488378e-12,2.126499483e-12,5.910688408e-13,1.534475299e-13,1.681687973e-12,6.28611458e-14,3.161978958e-13,2.311905807e-12,8.382166555e-13,1.2407657e-13,9.455502897e-14,1.062184525e-13,7.344975508e-15,5.991602718e-13,1.192731606e-12,1.484639087e-13,7.740322175e-14,8.178935379e-14,9.144388144e-15,1.624094682e-14,6.006525602e-14,4.805346488e-13,3.24195695e-13,1.486283342e-12,5.132517199e-14,9.211435305e-14,3.38982712e-13,6.978822179e-14,2.221653248e-12,1.611786555e-12,1.179481005e-13,6.131051561e-14
0.578125,1.533015063e-12,2.058626478e-12,5.645710299e-13,1.601202034e-13,1.635531083e-12,6.821502571e-14,2.546430525e-13,2.268099422e-12,8.078514748e-13,1.138212873e-13,1.127405613e-13,1.200977655e-13,7.443532865e-15,5.886907122e-13,1.241413108e-12,1.674494604e-13,9.328227202e-14,9.025585852e-14,9.769930668e-15,1.324339384e-14,6.209702812e-14,4.89154085e-13,3.23674478e-13,1.723714848e-12,6.702018031e-14,9.440892421e-14,3.682762848e-13,6.339215016e-14,2.277219688e-12,1.722963634e-12,1.238072468e-13,7.571459986e-14
0.5859375,1.479560668e-12,1.902145591e-12,5.21598616e-13,1.561455736e-13,1.620418017e-12,7.225744209e-14,2.059711001e-13,2.209740204e-12,7.531071343e-13,9.817370706e-14,1.341821541e-13,1.175978635e-13,7.408106103e-15,5.521169007e-13,1.234163399e-12,1.867976969e-13,1.055744602e-13,1.075824085e-13,1.052863168e-14,1.086327375e-14,7.031805316e-14,4.897546914e-13,3.34845578e-13,2.110076632e-12,8.187314401e-14,1.102318261e-13,3.597233079e-13,5.875590784e-14,2.277362297e-12,1.766607494e-12,1.077221565e-13,9.081575333e-14
0.59375,1.394473621e-12,1.690446589e-12,4.78288814e-13,1.440503114e-13,1.628116017e-12,7.726072459e-14,1.882616081e-13,2.15852302e-12,6.860370091e-13,8.139416785e-14,1.618519346e-13,1.010322038e-13,7.89102575e-15,4.963757067e-13,1.185682953e-12,2.101342543e-13,1.093995195e-13,1.303646442e-13,9.995969316e-15,1.002925897e-14,8.724579088e-14,4.812169278e-13,3.552024454e-13,2.536160537e-12,9.856654968e-14,1.315629837e-13,3.252001226e-13,5.764991046e-14,2.237502333e-12,1.769189023e-12,8.44841598e-14,1.052279113e-13
0.6015625,1.367880952e-12,1.499460705e-12,4.266332368e-13,1.293407093e-13,1.638265896e-12,7.910034836e-14,1.872394633e-13,2.147476851e-12,6.256157635e-13,7.130665499e-14,1.989041436e-13,9.447930427e-14,8.538099319e-15,4.364301525e-13,1.143985124e-12,2.301238154e-13,1.033198324e-13,1.528772727e-13,9.190746921e-15,1.133265479e-14,1.003711683e-13,4.795681977e-13,3.983669262e-13,2.896147272e-12,1.208929383e-13,1.513650286e-13,2.94136168e-13,5.643949074e-14,2.169556277e-12,1.797418321e-12,7.495027243e-14,1.186182498e-13
0.609375,1.306724704e-12,1.302485854e-12,3.970894188e-13,1.145356297e-13,1.633565261e-12,7.562069402e-14,2.101019074e-13,2.106484861e-12,5.65924437e-13,6.072399992e-14,2.400255634e-13,9.149611987e-14,9.738321557e-15,3.68570374e-13,1.054192411e-12,2.319848187e-13,9.336100354e-14,1.770416151e-13,9.580391939e-15,1.372653779e-14,1.114864842e-13,4.691041976e-13,4.419142428e-13,3.108621533e-12,1.421162465e-13,1.738046636e-13,2.530440409e-13,5.118293883e-14,2.035305535e-12,1.733260484e-12,6.74740244e-14,1.240027463e-13
0.6171875,1.203328137e-12,1.120024888e-12,4.036417709e-13,1.02642496e-13,1.598324434e-12,7.145964585e-14,2.401710545e-13,2.049813079e-12,5.21112494e-13,5.093011694e-14,2.83809985e-13,7.847646764e-14,1.143700585e-14,2.993190149e-13,9.029979952e-13,2.192053739e-13,7.936908251e-14,2.02932251e-13,1.067224686e-14,1.772301316e-14,1.257669191e-13,4.505393529e-13,4.838959289e-13,3.104120739e-12,1.581694135e-13,1.901780689e-13,2.108658585e-13,4.431506942e-14,1.886118277e-12,1.587463367e-12,6.34557972e-14,1.202964049e-13
0.625,1.142906665e-12,1.00215736e-12,4.330476315e-13,9.703401728e-14,1.54401926e-12,7.112410205e-14,2.604425034e-13,1.998024211e-12,4.959678185e-13,4.429093349e-14,3.322208168e-13,6.544255124e-14,1.177006665e-14,2.390636256e-13,7.473350565e-13,1.948638141e-13,6.118800633e-14,2.249786056e-13,1.24042563e-14,2.324172686e-14,1.263016367e-13,4.490859289e-13,5.421865545e-13,2.854956743e-12,1.738509442e-13,1.962327815e-13,1.900245079e-13,3.940574613e-14,1.759111131e-12,1.473060728e-12,6.837156643e-14,1.149766773e-13
0.6328125,1.090388873e-12,9.318440186e-13,4.748514952e-13,9.69034101e-14,1.467561948e-12,7.490265554e-14,2.65578015e-13,1.928549885e-12,4.794627408e-13,4.067012234e-14,3.65750869e-13,6.190414781e-14,1.085761067e-14,1.930612768e-13,6.083142301e-13,1.633205759e-13,4.570603974e-14,2.482732731e-13,1.528319987e-14,2.80411557e-14,1.117138621e-13,4.527126019e-13,5.84751905e-13,2.430166026e-12,1.930031355e-13,1.950871877e-13,1.9124295e-13,3.659953729e-14,1.661892722e-12,1.378996568e-12,7.499812524e-14,1.062352578e-13
0.640625,1.008866459e-12,8.921676834e-13,5.212424709e-13,1.006287074e-13,1.370348838e-12,8.189753229e-14,2.591161065e-13,1.854237593e-12,4.737700221e-13,4.113243028e-14,3.822644458e-13,6.28044915e-14,1.010597519e-14,1.641177492e-13,4.835678992e-13,1.332402854e-13,3.563066388e-14,2.732748165e-13,1.906299355e-14,3.131950311e-14,9.65244277e-14,4.556813811e-13,6.041243883e-13,1.951192419e-12,2.142422046e-13,1.884314492e-13,2.137385377e-13,3.450984791e-14,1.614062663e-12,1.286748383e-12,8.241779042e-14,9.10308543e-14
0.6484375,9.620850512e-13,8.954577128e-13,5.440009027e-13,1.041941811e-13,1.289936822e-12,9.04473757e-14,2.340882755e-13,1.798248421e-12,4.727630099e-13,4.70148167e-14,3.875223855e-13,6.209781149e-14,9.27657264e-15,1.57251339e-13,4.096996653e-13,1.147925981e-13,3.061382898e-14,2.940202015e-13,2.229933746e-14,3.484080855e-14,8.501616731e-14,4.701282764e-13,6.13030736e-13,1.521676327e-12,2.327010412e-13,1.790633043e-13,2.531492974e-13,3.35943426e-14,1.629993457e-12,1.272328328e-12,9.569242785e-14,7.92263881e-14
0.65625,9.381635407e-13,9.0753452e-13,5.238644037e-13,1.034320883e-13,1.220638311e-12,9.688835122e-14,1.916364732e-13,1.75386026e-12,4.686418149e-13,5.77991514e-14,3.695789642e-13,6.023923257e-14,7.538943253e-15,1.681385777e-13,3.959293412e-13,1.085760596e-13,2.895755252e-14,3.043739293e-13,2.420592142e-14,3.720999557e-14,7.312160554e-14,4.847058701e-13,6.004462969e-13,1.185052144e-12,2.408039934e-13,1.639487844e-13,2.954532117e-13,3.324087049e-14,1.680643168e-12,1.309484143e-12,1.03397741e-13,6.975005762e-14
0.6640625,8.904817856e-13,9.049810988e-13,4.7123784e-13,9.603942473e-14,1.157706688e-12,1.006863924e-13,1.49134106e-13,1.708331261e-12,4.613607559e-13,7.026885568e-14,3.280838283e-13,6.165875298e-14,5.632464717e-15,1.895591285e-13,4.344296623e-13,1.166441683e-13,3.062445692e-14,3.057484633e-13,2.519520292e-14,3.583727988e-14,6.622730766e-14,4.853689386e-13,5.569320859e-13,9.805174708e-13,2.386624097e-13,1.466157585e-13,3.26209924e-13,3.306896413e-14,1.739135877e-12,1.331254568e-12,9.977908829e-14,5.882601874e-14
0.671875,8.546600543e-13,9.07128607e-13,3.997237139e-13,8.347971846e-14,1.119054333e-12,1.027935452e-13,1.190770162e-13,1.677415988e-12,4.549246366e-13,8.61556167e-14,2.763312993e-13,6.633472915e-14,4.448342345e-15,2.196476576e-13,5.189884112e-13,1.356623865e-13,3.23240323e-14,2.962419175e-13,2.496348028e-14,3.303131551e-14,6.764999627e-14,4.771624055e-13,4.971229853e-13,8.970007232e-13,2.317308907e-13,1.298612033e-13,3.494816568e-13,3.362213578e-14,1.80646868e-12,1.362748243e-12,1.010269478e-13,4.886798547e-14
0.6796875,8.51265605e-13,9.220581036e-13,3.105877254e-13,6.779012842e-14,1.093291814e-12,9.793566021e-14,9.395945097e-14,1.666849855e-12,4.530913933e-13,1.051260328e-13,2.157199614e-13,6.4866785e-14,3.646831152e-15,2.548743067e-13,6.231476077e-13,1.619332892e-13,3.347093802e-14,2.738983008e-13,2.215561298e-14,3.106680756e-14,7.45859674e-14,4.584874186e-13,4.269072133e-13,8.968363345e-13,2.138702463e-13,1.055182031e-13,3.598997759e-13,3.371041239e-14,1.866700366e-12,1.403611605e-12,1.059703838e-13,3.968563137e-14
0.6875,8.39382629e-13,9.301131318e-13,2.211736455e-13,4.990659045e-14,1.074536167e-12,8.373942761e-14,8.27028546e-14,1.632876958e-12,4.519155586e-13,1.178918606e-13,1.580045731e-13,5.760071124e-14,3.148010556e-15,2.792080309e-13,7.073343915e-13,1.884442567e-13,3.515683067e-14,2.454364219e-13,1.803458905e-14,2.921370622e-14,8.479566753e-14,4.260708747e-13,3.527117284e-13,9.600324244e-13,1.793102763e-13,8.303004323e-14,3.438112216e-13,3.002143328e-14,1.876704614e-12,1.382897371e-12,1.030864452e-13,3.294109224e-14
0.6953125,8.358875041e-13,9.605142567e-13,1.520150409e-13,3.348844887e-14,1.065125509e-12,7.033339365e-14,7.93134891e-14,1.607956444e-12,4.618511377e-13,1.313098398e-13,1.101842913e-13,5.392552994e-14,3.030730612e-15,3.020414915e-13,7.757590949e-13,2.146880763e-13,3.71859107e-14,2.202110541e-13,1.414255058e-14,2.688026769e-14,9.461757838e-14,3.858900588e-13,2.839591516e-13,1.070325423e-12,1.41108602e-13,6.609959539e-14,3.158951021e-13,2.414341023e-14,1.875685725e-12,1.345560068e-12,1.067038344e-13,2.78520842e-14
0.703125,8.698650282e-13,1.020324089e-12,1.032602103e-13,2.063770505e-14,1.060440355e-12,6.004626054e-14,7.17651431e-14,1.610360946e-12,4.838334176e-13,1.477024454e-13,7.039949081e-14,5.271308127e-14,2.810289179e-15,3.288303001e-13,8.286143227e-13,2.395439209e-13,3.815558645e-14,1.984040944e-13,1.048973027e-14,2.476666503e-14,9.662528102e-14,3.483499741e-13,2.317353977e-13,1.226193716e-12,1.092885129e-13,5.038475659e-14,2.913828617e-13,1.995949227e-14,1.88894015e-12,1.351283956e-12,1.186964324e-13,2.515048947e-14
0.7109375,8.971430988e-13,1.066970823e-12,7.381990701e-14,1.195584427e-14,1.056012583e-12,5.079083976e-14,6.317365419e-14,1.597123056e-12,4.999164976e-13,1.556021359e-13,4.306670039e-14,4.540740512e-14,2.555465039e-15,3.452374978e-13,8.356889442e-13,2.621351865e-13,4.154854795e-14,1.859064256e-13,7.124835118e-15,2.353506684e-14,9.44101171e-14,3.102543249e-13,1.933527473e-13,1.442083011e-12,8.113147731e-14,3.951280086e-14,2.622395999e-13,1.698490909e-14,1.865001627e-12,1.352269285e-12,1.235841525e-13,2.654925293e-14
0.71875,9.103941746e-13,1.107852979e-12,6.009770319e-14,6.948899302e-15,1.051546364e-12,4.519695289e-14,5.662640089e-14,1.58747594e-12,5.179647156e-13,1.609454863e-13,2.798381183e-14,3.660628234e-14,2.59033652e-15,3.587451776e-13,8.175793163e-13,2.838889658e-13,4.675151305e-14,1.825559761e-13,4.504336707e-15,2.306658367e-14,9.119810931e-14,2.752184099e-13,1.695366111e-13,1.715836955e-12,5.777637658e-14,3.563424805e-14,2.385063584e-13,1.450388214e-14,1.841045854e-12,1.35966034e-12,1.262431792e-13,2.990213462e-14
0.7265625,9.392584121e-13,1.140552245e-12,5.923912674e-14,5.815575413e-15,1.05161837e-12,4.641935617e-14,4.944145445e-14,1.598383273e-12,5.34759048e-13,1.665061294e-13,2.408369456e-14,3.174071971e-14,2.596119822e-15,3.709200188e-13,7.976616216e-13,3.049321365e-13,5.050118269e-14,1.830484984e-13,2.836632331e-15,2.245051869e-14,7.882414062e-14,2.523961487e-13,1.675608029e-13,2.03580357e-12,4.281562899e-14,3.826998404e-14,2.259158412e-13,1.394441672e-14,1.834206168e-12,1.410186453e-12,1.306514833e-13,3.454145478e-14
0.734375,9.521966167e-13,1.134634081e-12,6.770949155e-14,7.976717536e-15,1.045514191e-12,5.179260024e-14,4.293958953e-14,1.589900254e-12,5.321480111e-13,1.666931395e-13,2.835810435e-14,2.951773305e-14,2.636585166e-15,3.724497576e-13,7.823462808e-13,3.276921096e-13,5.48572119e-14,1.845990553e-13,1.938404507e-15,2.111543139e-14,6.339270312e-14,2.349986531e-13,1.742493475e-13,2.345970323e-12,3.715581148e-14,4.507025058e-14,2.222555372e-13,1.603425632e-14,1.80101485e-12,1.451865981e-12,1.278773379e-13,3.999784783e-14
0.7421875,9.334787228e-13,1.09821142e-12,8.529895896e-14,1.349962383e-14,1.034762758e-12,5.765437855e-14,4.180947701e-14,1.555850808e-12,5.144631778e-13,1.577010225e-13,3.881883607e-14,2.628048476e-14,2.967029632e-15,3.605537551e-13,7.627932005e-13,3.461389243e-13,5.906690269e-14,1.85282419e-13,1.747225018e-15,2.028619511e-14,5.159708881e-14,2.257332751e-13,1.890418088e-13,2.637191857e-12,3.519855455e-14,5.538379381e-14,2.19256411e-13,1.923693312e-14,1.749521159e-12,1.455633303e-12,1.141318975e-13,4.404948154e-14
0.75,9.12283019e-13,1.05509008e-12,1.083190116e-13,2.205309067e-14,1.028122038e-12,6.315898717e-14,4.620368318e-14,1.514561957e-12,4.895417024e-13,1.418025816e-13,5.292469772e-14,2.199540881e-14,3.637810541e-15,3.370198696e-13,7.456764189e-13,3.592217108e-13,6.194484493e-14,1.852982489e-13,2.268256528e-15,2.050476256e-14,4.26748737e-14,2.270861306e-13,2.107404879e-13,2.837848775e-12,3.427665776e-14,6.52904237e-14,2.183863237e-13,2.277378181e-14,1.702403566e-12,1.440023434e-12,9.923833875e-14,4.597401951e-14
0.7578125,8.97135755e-13,1.008043138e-12,1.295291424e-13,3.274274575e-14,1.006097958e-12,6.998791345e-14,5.5660511e-14,1.452200243e-12,4.536835752e-13,1.243532081e-13,6.743537356e-14,1.959561904e-14,4.141601753e-15,3.094172971e-13,7.393392661e-13,3.667999263e-13,6.307418403e-14,1.796814715e-13,3.341260685e-15,2.068018351e-14,3.646667203e-14,2.361526038e-13,2.302124119e-13,2.937589537e-12,3.612735661e-14,7.042276203e-14,2.170827888e-13,2.789027787e-14,1.64003125e-12,1.402622646e-12,8.888741012e-14,4.584998708e-14
0.765625,8.606528629e-13,9.547032815e-13,1.533505925e-13,4.478449036e-14,9.734040637e-13,7.251660283e-14,8.047962566e-14,1.360486303e-12,4.119567531e-13,1.023543822e-13,8.274073613e-14,1.946216652e-14,4.497595643e-15,2.737115385e-13,7.103954882e-13,3.57248778e-13,6.195789364e-14,1.699995089e-13,5.367821701e-15,2.108589365e-14,3.252096328e-14,2.496535865e-13,2.456924532e-13,2.917503107e-12,3.72373868e-14,7.375891671e-14,2.058131332e-13,3.271747281e-14,1.546063224e-12,1.30716858e-12,7.571201761e-14,4.33267624e-14
0.7734375,8.098463199e-13,9.094954515e-13,1.700514991e-13,5.658101609e-14,9.443644208e-13,7.007926294e-14,1.204795428e-13,1.265929566e-12,3.748601009e-13,7.795484638e-14,9.411661588e-14,1.934327501e-14,5.233249484e-15,2.393906681e-13,6.65599922e-13,3.372216633e-13,6.090845355e-14,1.621539596e-13,8.286547216e-15,2.242265062e-14,3.448780739e-14,2.642307326e-13,2.527361854e-13,2.81996192e-12,3.590297225e-14,7.396319092e-14,1.890310689e-13,3.463907553e-14,1.452739094e-12,1.176762268e-12,6.336521449e-14,3.914960574e-14
0.78125,7.677114046e-13,8.762607447e-13,1.761112434e-13,6.559482561e-14,9.060443048e-13,6.792329114e-14,1.816906965e-13,1.179708781e-12,3.444353859e-13,5.893727989e-14,9.905026731e-14,1.830472722e-14,6.268526636e-15,2.116925842e-13,6.160445325e-13,3.082800234e-13,6.001638122e-14,1.521492305e-13,1.205014291e-14,2.506850955e-14,3.680431954e-14,2.756100364e-13,2.524377717e-13,2.635378305e-12,3.5131179e-14,6.743065348e-14,1.75641106e-13,3.680031455e-14,1.356913983e-12,1.047313717e-12,5.953471651e-14,3.450477814e-14
0.7890625,7.134781871e-13,8.354189071e-13,1.769816016e-13,7.017219003e-14,8.666285166e-13,6.587192189e-14,2.719718192e-13,1.091865302e-12,3.203881402e-13,4.444538384e-14,9.981544776e-14,1.712990304e-14,7.633562303e-15,1.865794197e-13,5.54976102e-13,2.659043886e-13,5.602286045e-14,1.377188977e-13,1.632193296e-14,2.652834881e-14,3.962857221e-14,2.784454048e-13,2.445084248e-13,2.392885532e-12,3.565172044e-14,6.043041025e-14,1.577543289e-13,3.92367176e-14,1.230537779e-12,9.05670325e-13,5.422351737e-14,3.010493144e-14
0.796875,6.389946579e-13,7.94634999e-13,1.776582905e-13,7.10942215e-14,8.398316208e-13,6.084610887e-14,3.781262979e-13,1.022895121e-12,3.09102141e-13,3.471951509e-14,9.213840422e-14,1.748603577e-14,9.545665709e-15,1.694137978e-13,5.01204171e-13,2.205607716e-13,5.057802571e-14,1.228977275e-13,2.102213821e-14,2.636593758e-14,4.652772981e-14,2.664535474e-13,2.265590034e-13,2.140830328e-12,3.668882217e-14,5.472316784e-14,1.397860219e-13,3.967592395e-14,1.105534125e-12,7.559413364e-13,4.650426354e-14,2.56584388e-14
0.8046875,5.767041785e-13,7.664848266e-13,1.743275746e-13,6.877440766e-14,8.143967897e-13,5.621349678e-14,4.827225246e-13,9.781799097e-13,3.064823193e-13,3.049630144e-14,7.959352099e-14,1.757834479e-14,1.214698151e-14,1.617716953e-13,4.788539217e-13,1.86685166e-13,4.628759722e-14,1.078138624e-13,2.520105684e-14,2.615445475e-14,5.191736198e-14,2.472826608e-13,2.098978657e-13,1.912869528e-12,3.820284336e-14,4.816419653e-14,1.313840179e-13,3.792840437e-14,1.004934257e-12,6.372719654e-13,4.4479269e-14,2.235620244e-14
0.8125,5.333391696e-13,7.415549087e-13,1.753505874e-13,6.214700651e-14,7.902748924e-13,5.443747568e-14,5.810315904e-13,9.392824007e-13,3.030674435e-13,2.930564875e-14,6.695742347e-14,1.547802466e-14,1.538233739e-14,1.60373653e-13,4.907225882e-13,1.639969047e-13,4.06864646e-14,9.020611526e-14,2.833690987e-14,2.507480952e-14,5.42200542e-14,2.23816511e-13,1.970700138e-13,1.689429112e-12,4.188057204e-14,4.488144306e-14,1.216692239e-13,3.684427748e-14,9.091686512e-13,5.555856414e-13,4.402124359e-14,2.054723876e-14
0.8203125,4.922918598e-13,7.257426113e-13,1.82338424e-13,5.547364334e-14,7.698970695e-13,5.382220379e-14,6.616869902e-13,9.138797855e-13,3.042422651e-13,2.89164432e-14,5.440981187e-14,1.278795464e-14,1.926959595e-14,1.667102255e-13,5.327829031e-13,1.574479515e-13,3.426505085e-14,7.412456775e-14,3.019725129e-14,2.210254116e-14,5.992546547e-14,1.978048348e-13,1.883769383e-13,1.498661933e-12,4.832268515e-14,4.524126077e-14,1.108412067e-13,3.822754471e-14,8.418891153e-13,4.965256596e-13,4.250352352e-14,1.877297919e-14
0.828125,4.710067486e-13,7.329942143e-13,1.881074184e-13,5.040634367e-14,7.434966914e-13,5.168453925e-14,6.939082236e-13,9.030217101e-13,3.075191467e-13,2.92092618e-14,4.366792116e-14,1.24004698e-14,2.259539517e-14,1.802640493e-13,6.077421861e-13,1.71606605e-13,2.917839194e-14,6.10151348e-14,3.149252268e-14,1.847763672e-14,6.608220893e-14,1.781121267e-13,1.88130866e-13,1.34796716e-12,5.7366445e-14,4.645446613e-14,1.050372163e-13,3.98263808e-14,8.175725646e-13,4.70745637e-13,4.603805135e-14,1.736481428e-14
0.8359375,4.746431667e-13,7.475842434e-13,1.879666293e-13,4.457915018e-14,7.066948394e-13,4.900421512e-14,6.819970467e-13,8.881984517e-13,3.008273977e-13,2.811277292e-14,3.639015715e-14,1.223939047e-14,2.459612618e-14,1.966486537e-13,6.948951144e-13,1.992696288e-13,2.548580425e-14,4.950212614e-14,3.192819817e-14,1.564455442e-14,6.671731567e-14,1.693562922e-13,1.944861958e-13,1.198659776e-12,6.366419818e-14,4.870311396e-14,9.881285568e-14,4.117225274e-14,8.128246923e-13,4.785454638e-13,5.303711638e-14,1.733000118e-14
0.84375,4.679873866e-13,7.594758369e-13,1.888839746e-13,3.970563237e-14,6.703524615e-13,4.838061979e-14,6.707559114e-13,8.674650858e-13,2.896348569e-13,2.397464784e-14,3.357131966e-14,1.166038893e-14,2.603357922e-14,2.09669065e-13,7.618874495e-13,2.338707533e-13,2.272324955e-14,4.036710683e-14,3.02543719e-14,1.321491458e-14,6.597164389e-14,1.702087975e-13,2.03792877e-13,1.060581894e-12,6.783643251e-14,5.501718992e-14,8.732362582e-14,4.585738158e-14,8.183292672e-13,4.837263708e-13,5.401078988e-14,1.811506132e-14
0.8515625,4.532724485e-13,7.723526806e-13,1.860395225e-13,3.647857483e-14,6.407514994e-13,4.68924476e-14,6.654565461e-13,8.537516278e-13,2.792417368e-13,1.906902673e-14,3.43840341e-14,1.344293289e-14,2.767558944e-14,2.191629961e-13,8.048971477e-13,2.719800628e-13,2.082516315e-14,3.51082144e-14,2.763186132e-14,1.084412653e-14,6.676986014e-14,1.80330724e-13,2.140004197e-13,9.291347962e-13,7.394875984e-14,6.42730266e-14,7.716731926e-14,5.244376041e-14,8.323198548e-13,4.858437149e-13,5.337883759e-14,2.028388555e-14
0.859375,4.415110311e-13,7.654967591e-13,1.723834918e-13,3.199128507e-14,6.126501298e-13,4.146493336e-14,6.679464078e-13,8.391623783e-13,2.630410615e-13,1.51800595e-14,3.852246508e-14,1.831089986e-14,2.870276368e-14,2.210731896e-13,8.271854121e-13,3.087362809e-13,2.076112085e-14,3.101395093e-14,2.583688231e-14,9.190779015e-15,6.318547055e-14,1.975084798e-13,2.229512149e-13,8.327621861e-13,7.73011413e-14,7.304263018e-14,7.396155353e-14,5.514157301e-14,8.285511784e-13,4.915692523e-13,5.49533645e-14,2.388301431e-14
0.8671875,4.122931835e-13,7.358927439e-13,1.631149346e-13,2.749230518e-14,5.9412861e-13,3.492321876e-14,7.161229921e-13,8.273341714e-13,2.470988845e-13,1.209180689e-14,4.626259109e-14,2.701483121e-14,3.027102127e-14,2.105583635e-13,8.010318278e-13,3.335957876e-13,2.102407161e-14,2.829987696e-14,2.395586148e-14,8.389049703e-15,5.336761037e-14,2.184728976e-13,2.350238692e-13,7.567176536e-13,7.295947116e-14,8.583126236e-14,7.360962289e-14,5.546040423e-14,8.017405586e-13,4.75236359e-13,5.095443595e-14,2.786861669e-14
0.875,3.626903649e-13,6.91539256e-13,1.645672962e-13,2.382908949e-14,5.959911549e-13,3.027675263e-14,8.270418388e-13,8.264480318e-13,2.356791572e-13,1.027622994e-14,5.83306354e-14,4.010148461e-14,3.458295387e-14,1.91414653e-13,7.285901525e-13,3.447177089e-13,2.117847427e-14,2.931735595e-14,2.130904884e-14,7.97388425e-15,4.869718651e-14,2.389207505e-13,2.489357839e-13,7.240893847e-13,6.781219455e-14,1.029291205e-13,8.200596289e-14,5.702679004e-14,7.665796629e-13,4.343915237e-13,4.178167979e-14,3.208596512e-14
0.8828125,3.291942898e-13,6.382753626e-13,1.680430431e-13,2.103291174e-14,6.014707578e-13,2.513770197e-14,9.586765976e-13,8.344041853e-13,2.271106442e-13,1.162102263e-14,7.272787223e-14,5.418705054e-14,4.119243673e-14,1.712456414e-13,6.376520519e-13,3.44214571e-13,2.259295251e-14,3.196370574e-14,1.86701474e-14,7.826797215e-15,4.964326479e-14,2.583149413e-13,2.632496513e-13,7.362342187e-13,6.824662582e-14,1.152807516e-13,1.03757514e-13,5.816375605e-14,7.226845794e-13,4.036455798e-13,3.790974808e-14,3.576682303e-14
0.890625,3.13864065e-13,5.83933676e-13,1.797149838e-13,1.949075996e-14,6.087471503e-13,1.891326895e-14,1.093156378e-12,8.512773149e-13,2.233422686e-13,1.57967283e-14,8.53022335e-14,6.837282411e-14,4.845835311e-14,1.552319886e-13,5.492766578e-13,3.331233034e-13,2.334414568e-14,3.656489059e-14,1.691490236e-14,8.04592562e-15,5.313262688e-14,2.716213457e-13,2.751587864e-13,7.741732821e-13,7.421791786e-14,1.237648404e-13,1.367286456e-13,5.801339969e-14,6.840432111e-13,3.847738608e-13,3.818272653e-14,3.722200695e-14
0.8984375,3.080158561e-13,5.413956038e-13,2.026489557e-13,2.035257501e-14,6.178690914e-13,1.502029818e-14,1.241961588e-12,8.784549864e-13,2.297176586e-13,2.292028264e-14,9.686274687e-14,8.931326603e-14,5.852536509e-14,1.511679188e-13,4.624855893e-13,3.120689346e-13,2.270127168e-14,4.40176611e-14,1.552420075e-14,9.106307586e-15,6.314544355e-14,2.75868407e-13,2.806309257e-13,8.405983904e-13,8.816859283e-14,1.304161848e-13,1.815261474e-13,6.444885578e-14,6.73857374e-13,3.697893373e-13,4.183520923e-14,3.500829951e-14
0.90625,3.361001398e-13,5.210029685e-13,2.198167344e-13,2.208444099e-14,6.200572591e-13,1.387512571e-14,1.337232713e-12,9.069934185e-13,2.398437647e-13,3.288064073e-14,1.036440337e-13,1.098700989e-13,6.89530974e-14,1.646370318e-13,4.009126143e-13,2.868645753e-13,2.219542569e-14,5.04857289e-14,1.356226915e-14,1.108969904e-14,8.278906425e-14,2.748978225e-13,2.795144992e-13,9.091297284e-13,1.144586311e-13,1.284468377e-13,2.361835854e-13,7.968605192e-14,6.940665911e-13,3.913306513e-13,5.063802545e-14,3.199549793e-14
0.9140625,3.859255784e-13,5.186993341e-13,2.280414781e-13,2.341224832e-14,6.127530267e-13,1.257953609e-14,1.330890017e-12,9.290762441e-13,2.514975925e-13,4.263644518e-14,1.024822912e-13,1.172162977e-13,7.513447472e-14,1.970915217e-13,3.797834021e-13,2.617126786e-13,2.176091362e-14,5.658189967e-14,1.154029703e-14,1.38405386e-14,1.150244481e-13,2.655920249e-13,2.647977302e-13,9.667148096e-13,1.455841542e-13,1.157037382e-13,2.888734278e-13,9.592296226e-14,7.427070521e-13,4.421153995e-13,5.802580752e-14,2.959659306e-14
0.921875,4.329960846e-13,5.321071057e-13,2.342886964e-13,2.477020434e-14,6.016720833e-13,1.28663757e-14,1.262551275e-12,9.452273392e-13,2.721622565e-13,5.141919762e-14,9.52901893e-14,1.208657301e-13,7.821937236e-14,2.460530402e-13,4.018411818e-13,2.432524259e-13,1.981341869e-14,6.30111265e-14,1.0418202e-14,1.731882691e-14,1.549247879e-13,2.472371197e-13,2.354202174e-13,9.960368481e-13,1.785837771e-13,1.013579974e-13,3.298983636e-13,1.131574059e-13,8.166186014e-13,4.985965292e-13,6.138457825e-14,2.65669629e-14
0.9296875,4.934397463e-13,5.582090947e-13,2.258827222e-13,2.489651754e-14,5.865833917e-13,1.506803187e-14,1.153483954e-12,9.531270466e-13,2.950266356e-13,5.932114029e-14,8.600979101e-14,1.289467984e-13,7.954870964e-14,3.007081178e-13,4.531775091e-13,2.30591612e-13,1.683941173e-14,6.7674605e-14,1.008258145e-14,2.131690137e-14,1.917041714e-13,2.296951075e-13,2.032153678e-13,9.956890334e-13,2.152067015e-13,8.808390636e-14,3.632550253e-13,1.363123089e-13,8.976663701e-13,5.745477303e-13,6.917372837e-14,2.567007694e-14
0.9375,5.494655469e-13,5.824194331e-13,2.009181205e-13,2.338506065e-14,5.695788275e-13,1.576692816e-14,9.690216369e-13,9.480932144e-13,3.142479912e-13,6.32596381e-14,7.668024422e-14,1.261212129e-13,7.545393764e-14,3.480871964e-13,5.144423785e-13,2.224117596e-13,1.394845681e-14,7.07239235e-14,9.828965548e-15,2.579562218e-14,2.262829841e-13,2.149929313e-13,1.726333303e-13,9.898969419e-13,2.391372693e-13,7.44610784e-14,3.766183742e-13,1.55584104e-13,9.544224938e-13,6.448845809e-13,7.238943518e-14,2.789278048e-14
0.9453125,5.562969063e-13,5.929142998e-13,1.751295176e-13,2.23881418e-14,5.565324319e-13,1.496393469e-14,7.5179597e-13,9.254130386e-13,3.319394569e-13,6.002410178e-14,7.176476987e-14,1.07743402e-13,6.628579813e-14,3.732462695e-13,5.476879311e-13,2.147828708e-13,1.131570935e-14,7.587249799e-14,9.922261529e-15,3.014594179e-14,2.618445832e-13,2.074881194e-13,1.4957164e-13,9.615567099e-13,2.380472209e-13,6.816032589e-14,3.561392661e-13,1.60627509e-13,9.7702389e-13,6.611933352e-13,6.350805499e-14,3.24836752e-14
0.953125,5.44455001e-13,5.990921807e-13,1.529146822e-13,2.337662553e-14,5.471470926e-13,1.587032316e-14,5.662608619e-13,8.928813889e-13,3.440067871e-13,5.364834639e-14,7.22769672e-14,9.064099309e-14,5.638536867e-14,3.739023777e-13,5.480958664e-13,2.054519727e-13,8.819758348e-15,8.195481525e-14,1.042344355e-14,3.269295821e-14,2.811141372e-13,2.11201992e-13,1.415850454e-13,9.208284753e-13,2.215227758e-13,7.127980267e-14,3.159046446e-13,1.562336381e-13,9.659047165e-13,6.52087437e-13,5.540704684e-14,3.95696891e-14
0.9609375,5.366158482e-13,6.036191931e-13,1.313598166e-13,2.709857978e-14,5.332251798e-13,1.698766353e-14,4.190720126e-13,8.580736105e-13,3.432369591e-13,4.703652406e-14,7.682146331e-14,7.924784266e-14,4.674324179e-14,3.531432072e-13,5.255671662e-13,1.913406847e-13,6.367742889e-15,8.688172012e-14,1.151757727e-14,3.286838565e-14,2.746022559e-13,2.24579635e-13,1.484092617e-13,8.89468984e-13,2.009809293e-13,7.937995895e-14,2.688798615e-13,1.501310572e-13,9.177039373e-13,6.356429376e-13,5.389738566e-14,4.678330263e-14
0.96875,4.970184078e-13,6.005205465e-13,1.221682197e-13,3.436841926e-14,5.182067969e-13,1.579828593e-14,3.071662502e-13,8.199942647e-13,3.309872662e-13,3.894176951e-14,8.434702684e-14,6.403347814e-14,3.618591997e-14,3.106850396e-13,4.649694354e-13,1.713276863e-13,4.494788869e-15,9.415274242e-14,1.285115059e-14,3.115975369e-14,2.557912583e-13,2.429409733e-13,1.675009564e-13,8.842536009e-13,1.717275595e-13,9.338541609e-14,2.141625746e-13,1.400431059e-13,8.460673162e-13,5.807816777e-13,4.825141267e-14,5.089995111e-14
0.9765625,4.383668146e-13,5.976308852e-13,1.281441729e-13,4.459149012e-14,5.072058402e-13,1.451276315e-14,2.442194895e-13,7.788048918e-13,3.084231112e-13,2.969518002e-14,9.245304585e-14,4.679134835e-14,2.699536713e-14,2.56066219e-13,3.677782367e-13,1.443685131e-13,3.349546042e-15,1.024036112e-13,1.316810028e-14,2.85590538e-14,2.345287522e-13,2.602599481e-13,1.93059137e-13,8.982961891e-13,1.354508019e-13,1.112112655e-13,1.555075761e-13,1.225113786e-13,7.683806651e-13,5.02407865e-13,4.457572316e-14,5.185492535e-14
0.984375,4.095631866e-13,6.130049436e-13,1.398018744e-13,5.752169966e-14,4.849979065e-13,1.581932693e-14,2.166578713e-13,7.502901935e-13,2.783961081e-13,2.508830559e-14,9.493224918e-14,3.535951265e-14,2.19173048e-14,2.076392142e-13,2.7190113e-13,1.14712258e-13,2.747664832e-15,1.066936418e-13,1.245207913e-14,2.421023311e-14,1.962108689e-13,2.733495538e-13,2.18993019e-13,9.27694311e-13,1.046050117e-13,1.20600906e-13,1.127002506e-13,1.042365462e-13,7.110618197e-13,4.532654484e-13,5.180343352e-14,4.987190285e-14
0.9921875,3.808342671e-13,6.251799218e-13,1.58555782e-13,7.15037078e-14,4.566608778e-13,1.741545873e-14,2.077616202e-13,7.285310219e-13,2.459810746e-13,2.326830885e-14,9.186612479e-14,3.018775167e-14,1.909723385e-14,1.703489394e-13,1.953916179e-13,8.783464476e-14,2.392522707e-15,1.112860687e-13,1.176975416e-14,1.838958801e-14,1.512485317e-13,2.731507761e-13,2.319028443e-13,9.746954171e-13,8.513528957e-14,1.227707262e-13,8.418656638e-14,9.386249447e-14,6.740872714e-13,4.07789514e-13,5.655059435e-14,4.424312429e-14
1,3.414006907e-13,6.294977855e-13,1.819143099e-13,8.364558455e-14,4.341004539e-13,1.752968242e-14,2.230120856e-13,7.110106161e-13,2.200933567e-13,2.352119717e-14,8.478829074e-14,2.926739223e-14,1.914892492e-14,1.458822119e-13,1.333838932e-13,6.552683589e-14,2.289962326e-15,1.145811069e-13,1.074451152e-14,1.365033645e-14,1.228792945e-13,2.559786264e-13,2.266698125e-13,1.037787743e-12,7.512632186e-14,1.240875913e-13,6.296466386e-14,9.0345631e-14,6.586157428e-13,3.577102337e-13,6.146266532e-14,3.535674694e-14
1.0078125,3.352941064e-13,6.470350008e-13,1.938187484e-13,9.34561831e-14,4.07316301e-13,1.75285009e-14,2.412846305e-13,7.066279423e-13,2.037928111e-13,2.813116959e-14,7.425538328e-14,2.866748664e-14,2.179891103e-14,1.35569392e-13,9.311625343e-14,4.985824228e-14,3.140849525e-15,1.139821729e-13,9.200719744e-15,1.054604529e-14,1.063361727e-13,2.333541672e-13,2.135268449e-13,1.105098817e-12,7.179406414e-14,1.167633794e-13,5.528231717e-14,8.870573262e-14,6.736328282e-13,3.442474443e-13,7.710669457e-14,2.665675602e-14
1.015625,3.397049958e-13,6.587953179e-13,1.942040091e-13,9.815841679e-14,3.779937068e-13,1.880456676e-14,2.450567598e-13,7.078695643e-13,1.96464606e-13,3.54403987e-14,6.093215709e-14,2.652841599e-14,2.487621228e-14,1.341974482e-13,7.484943977e-14,4.160156132e-14,4.8330286e-15,1.121936284e-13,7.586704797e-15,8.26153085e-15,9.831018482e-14,2.076693385e-13,1.915267108e-13,1.137249183e-12,7.185533704e-14,9.909221428e-14,5.524123406e-14,8.879043143e-14,7.086786941e-13,3.559788801e-13,8.633188543e-14,1.983072805e-14
1.0234375,3.409364358e-13,6.606824761e-13,1.932022411e-13,9.673945272e-14,3.566624002e-13,2.083040757e-14,2.526770522e-13,7.163035581e-13,2.027981453e-13,4.463201553e-14,4.70179965e-14,2.74249167e-14,2.812699846e-14,1.387457306e-13,7.416927932e-14,4.174033422e-14,6.66470066e-15,1.114556172e-13,6.678889579e-15,7.403686383e-15,1.072112579e-13,1.788128716e-13,1.590867003e-13,1.124505651e-12,7.519077657e-14,7.995698032e-14,5.692399001e-14,9.544936367e-14,7.545002429e-13,3.807342909e-13,8.678202191e-14,1.441405151e-14
1.03125,3.760164414e-13,6.818249513e-13,1.837379106e-13,8.934505029e-14,3.367964875e-13,2.139362549e-14,2.786541196e-13,7.318105061e-13,2.153671706e-13,5.701664086e-14,3.595079958e-14,3.163538013e-14,3.242851801e-14,1.464470318e-13,8.917328978e-14,4.929473349e-14,8.985615759e-15,1.090266119e-13,6.465379211e-15,7.738446992e-15,1.215488161e-13,1.580670055e-13,1.325759108e-13,1.08281848e-12,8.121053445e-14,6.393555261e-14,6.600982344e-14,1.057907818e-13,8.083843772e-13,4.476806942e-13,9.762075936e-14,1.107412669e-14
1.0390625,4.286242527e-13,7.171617978e-13,1.689238195e-13,7.894377751e-14,3.132137806e-13,1.986506076e-14,2.913961699e-13,7.523186053e-13,2.296691508e-13,6.981025235e-14,2.777331622e-14,3.113527731e-14,3.433623984e-14,1.553266447e-13,1.128134267e-13,6.330097686e-14,1.230507657e-14,1.06520319e-13,7.035856512e-15,8.78774349e-15,1.318815569e-13,1.485448646e-13,1.179449804e-13,1.014268649e-12,8.415304384e-14,4.627489734e-14,8.082549729e-14,1.093354095e-13,8.636513364e-13,5.377593681e-13,1.089209484e-13,9.127050472e-15
1.046875,4.679160513e-13,7.524216826e-13,1.641809064e-13,6.629978245e-14,2.951862018e-13,1.781093242e-14,2.980934344e-13,7.64617293e-13,2.414621233e-13,7.685053701e-14,2.299934118e-14,2.684990592e-14,3.341426602e-14,1.618888513e-13,1.343338575e-13,8.163834344e-14,1.521801734e-14,1.069312914e-13,8.724564912e-15,1.117090013e-14,1.479333636e-13,1.47203519e-13,1.171471232e-13,8.875054497e-13,8.033118189e-14,3.005509578e-14,9.477100668e-14,1.065847588e-13,9.051873763e-13,6.178839186e-13,1.067798916e-13,7.67955813e-15
1.0546875,5.208974191e-13,8.025972854e-13,1.703584315e-13,5.463904594e-14,2.793927776e-13,1.698727483e-14,3.232527293e-13,7.667710469e-13,2.464244874e-13,8.139181841e-14,2.217200967e-14,2.671868395e-14,3.24804865e-14,1.661280327e-13,1.576612475e-13,1.033715937e-13,1.724808264e-14,1.080326423e-13,1.09537625e-14,1.425503019e-14,1.617360826e-13,1.528193756e-13,1.291653246e-13,7.35154524e-13,7.331746669e-14,1.967133724e-14,1.152820362e-13,1.033584638e-13,9.263673593e-13,7.024954928e-13,1.109266982e-13,6.96721814e-15
1.0625,5.72929139e-13,8.533978129e-13,1.771621902e-13,4.496708555e-14,2.623631193e-13,1.60584048e-14,3.493251811e-13,7.612433631e-13,2.419080883e-13,8.399084612e-14,2.349635266e-14,2.700638271e-14,3.094234375e-14,1.715644558e-13,1.858837625e-13,1.289482978e-13,1.933019272e-14,1.095776152e-13,1.394933069e-14,1.637426765e-14,1.625030178e-13,1.605617507e-13,1.449915977e-13,5.840148363e-13,6.828962422e-14,1.348182717e-14,1.429089838e-13,9.6660514e-14,9.312230383e-13,7.779987648e-13,1.22964946e-13,6.868722215e-15
1.0703125,5.709855206e-13,8.750065797e-13,1.936994578e-13,3.926864222e-14,2.530650045e-13,1.505639317e-14,3.479161501e-13,7.350103847e-13,2.283051732e-13,7.769844567e-14,2.759750065e-14,2.178454521e-14,2.790788574e-14,1.681495664e-13,1.93401049e-13,1.501692783e-13,2.059205269e-14,1.132112964e-13,1.858104366e-14,1.758056388e-14,1.591707479e-13,1.679374073e-13,1.622042053e-13,4.483452688e-13,6.110801209e-14,9.097235314e-15,1.618774427e-13,8.03480821e-14,9.045637979e-13,7.83618997e-13,1.207009528e-13,7.120659035e-15
1.078125,5.43158297e-13,8.76911685e-13,2.13059894e-13,3.770660769e-14,2.534784195e-13,1.583874348e-14,3.427333485e-13,6.947701075e-13,2.101441787e-13,6.655316058e-14,3.360115495e-14,1.735004618e-14,2.565769693e-14,1.577943739e-13,1.884070911e-13,1.674751384e-13,2.004015236e-14,1.163654511e-13,2.29660253e-14,1.889976007e-14,1.600041448e-13,1.742118721e-13,1.798453307e-13,3.355356933e-13,5.315285578e-14,7.428082219e-15,1.825053211e-13,6.297184533e-14,8.557035767e-13,7.518216024e-13,1.153387989e-13,8.202499195e-15
1.0859375,5.110534614e-13,8.55740904e-13,2.142168395e-13,3.739835773e-14,2.636270007e-13,1.85018184e-14,3.445290617e-13,6.472414258e-13,1.888982127e-13,5.677588677e-14,4.240491887e-14,1.678221566e-14,2.503260426e-14,1.453945368e-13,1.871618313e-13,1.854970178e-13,1.867581807e-14,1.17790013e-13,2.671762053e-14,1.879215279e-14,1.613933367e-13,1.78356768e-13,1.885657351e-13,2.594329312e-13,4.858239837e-14,9.085421568e-15,2.029489599e-13,4.885109003e-14,7.919234281e-13,7.111758324e-13,1.184623676e-13,1.059088575e-14
1.09375,4.452627023e-13,7.94252844e-13,2.045222909e-13,3.758570043e-14,2.846534724e-13,2.356993449e-14,3.243445374e-13,5.96371292e-13,1.688637717e-13,4.758984585e-14,5.220405495e-14,1.773063931e-14,2.389719802e-14,1.274563367e-13,1.836787011e-13,2.010973462e-13,1.743081957e-14,1.195342089e-13,3.164773367e-14,1.703384473e-14,1.61241254e-13,1.772036807e-13,1.880064591e-13,2.219169597e-13,5.056856806e-14,1.212684756e-14,2.062733011e-13,3.710208103e-14,7.162106768e-13,6.271100287e-13,1.119161051e-13,1.299245605e-14
1.1015625,3.589106851e-13,7.079295558e-13,1.89873719e-13,3.763461219e-14,3.139191122e-13,3.100921661e-14,2.809707303e-13,5.523564616e-13,1.569639252e-13,3.989657908e-14,6.231205109e-14,2.050485896e-14,2.269007831e-14,1.044403367e-13,1.702839862e-13,2.085629881e-13,1.669504612e-14,1.218865703e-13,3.656713846e-14,1.495504599e-14,1.646096762e-13,1.712269407e-13,1.814509383e-13,2.165960411e-13,5.78746416e-14,1.466535838e-14,1.983334738e-13,2.720393546e-14,6.385839936e-13,5.129652048e-13,9.360368404e-14,1.560500299e-14
1.109375,2.97117089e-13,6.178950126e-13,1.621919317e-13,3.63872785e-14,3.487228809e-13,3.826315076e-14,2.375332561e-13,5.219482308e-13,1.516173156e-13,3.667318487e-14,7.435287721e-14,2.297047106e-14,2.244923872e-14,8.335019553e-14,1.615311123e-13,2.104273242e-13,1.680375835e-14,1.232919411e-13,3.900811999e-14,1.324345967e-14,1.768093604e-13,1.629526422e-13,1.703959387e-13,2.350455783e-13,6.70091497e-14,1.745389493e-14,1.875271927e-13,2.128853901e-14,5.64247791e-13,4.197535814e-13,8.061867732e-14,1.853842601e-14
1.1171875,2.506274257e-13,5.227428793e-13,1.263141849e-13,3.307525183e-14,3.835138637e-13,4.294376828e-14,1.975777753e-13,5.025497334e-13,1.529455458e-13,3.899672978e-14,8.497530146e-14,2.521176751e-14,2.154969816e-14,6.717975697e-14,1.678038395e-13,2.097833173e-13,1.896153104e-14,1.262802916e-13,4.037427348e-14,1.144711222e-14,1.9130241e-13,1.503997718e-13,1.540629346e-13,2.657093085e-13,7.546886042e-14,2.100187677e-14,1.676633139e-13,1.842099451e-14,4.974302582e-13,3.399449352e-13,6.944582886e-14,2.000351067e-14
1.125,2.127292812e-13,4.279325006e-13,9.599978407e-14,2.963547366e-14,4.152345532e-13,4.788382725e-14,1.555772338e-13,4.961797354e-13,1.611678241e-13,4.553014772e-14,9.080436256e-14,3.06574715e-14,1.895341635e-14,5.730069569e-14,1.854481994e-13,2.052449003e-13,2.378433727e-14,1.321347593e-13,4.105378392e-14,1.022381122e-14,1.976731935e-13,1.299897544e-13,1.298336861e-13,2.919783927e-13,8.63013666e-14,2.456419783e-14,1.391636227e-13,1.815283816e-14,4.421922838e-13,2.624092364e-13,5.14392062e-14,1.9358958e-14
1.1328125,2.06085397e-13,3.531363895e-13,7.425364895e-14,2.69299731e-14,4.384154661e-13,5.360901881e-14,1.170286032e-13,5.045342743e-13,1.71998753e-13,5.621726216e-14,9.500466322e-14,3.735407887e-14,1.660337309e-14,5.552975016e-14,2.114158031e-13,1.955780664e-13,3.04581205e-14,1.369914385e-13,3.978212808e-14,1.06241148e-14,1.942361977e-13,1.088266142e-13,1.062290243e-13,3.023891276e-13,9.815023569e-14,2.704464138e-14,1.170792237e-13,2.014528361e-14,4.033318425e-13,2.189548193e-13,3.576956297e-14,1.856352996e-14
1.140625,2.138969754e-13,2.999683685e-13,6.057762176e-14,2.559048108e-14,4.527348703e-13,5.536109661e-14,9.844930847e-14,5.166168133e-13,1.816467732e-13,6.671818867e-14,9.499446735e-14,3.833047418e-14,1.499363149e-14,6.050557782e-14,2.429867718e-13,1.81026193e-13,3.90616513e-14,1.38743618e-13,3.638768629e-14,1.138221759e-14,1.914951373e-13,9.061391684e-14,8.85989146e-14,2.992551655e-13,1.044625384e-13,3.142073384e-14,1.009902401e-13,2.177857787e-14,3.818180169e-13,2.03246387e-13,2.878216388e-14,1.701196369e-14
1.1484375,2.1862175e-13,2.572987317e-13,5.709531923e-14,2.682326492e-14,4.595599249e-13,5.205399793e-14,9.520810937e-14,5.203685766e-13,1.857232989e-13,7.579084059e-14,9.043690237e-14,3.873395928e-14,1.295709521e-14,7.034504191e-14,2.899194372e-13,1.641061774e-13,4.90811099e-14,1.383485137e-13,3.233087887e-14,1.176187634e-14,1.833055918e-13,7.482942676e-14,7.628835057e-14,2.763776878e-13,1.036961711e-13,3.803039358e-14,8.257112923e-14,2.242065328e-14,3.687971495e-13,1.963887548e-13,2.562783162e-14,1.421433461e-14
1.15625,2.386408414e-13,2.330357733e-13,6.112889427e-14,3.118502356e-14,4.549669788e-13,4.894776937e-14,9.555716836e-14,5.210928807e-13,1.846077559e-13,8.495601469e-14,8.323354991e-14,4.457580972e-14,1.101385163e-14,8.393132442e-14,3.472939474e-13,1.465292128e-13,5.738103751e-14,1.316758693e-13,2.826112936e-14,1.277115099e-14,1.575863519e-13,6.438310557e-14,7.0107001e-14,2.344229714e-13,1.018420942e-13,4.253421273e-14,7.029330203e-14,2.472057916e-14,3.649950751e-13,2.126579981e-13,2.515157495e-14,1.16412987e-14
1.1640625,2.610262529e-13,2.271688191e-13,7.178912829e-14,3.88451439e-14,4.369701695e-13,4.669211334e-14,1.077046226e-13,5.133676046e-13,1.773903408e-13,8.976116131e-14,7.471559625e-14,4.701242014e-14,1.031718922e-14,9.738203148e-14,3.949465666e-13,1.271831192e-13,6.360192895e-14,1.184131346e-13,2.363584177e-14,1.452646417e-14,1.264838859e-13,6.130097061e-14,7.236693323e-14,1.836786455e-13,9.832594547e-14,4.614655066e-14,6.367652961e-14,2.680430998e-14,3.694356656e-13,2.354734757e-13,2.855313255e-14,9.917069947e-15
1.171875,2.681907576e-13,2.268165336e-13,8.691631298e-14,4.933844042e-14,4.090855086e-13,4.15950121e-14,1.26697709e-13,4.903992688e-13,1.642602939e-13,8.944638476e-14,6.565802348e-14,4.362701729e-14,1.037157207e-14,1.077332624e-13,4.320087198e-13,1.08236716e-13,6.784566799e-14,1.018561216e-13,1.87546743e-14,1.521989428e-14,1.010169779e-13,6.486711182e-14,8.353770102e-14,1.370115592e-13,8.800575542e-14,5.047808576e-14,5.289263843e-14,2.701300218e-14,3.700749482e-13,2.449795156e-13,3.719588309e-14,8.174455271e-15
1.1796875,2.802168702e-13,2.34081337e-13,9.917671005e-14,6.130500059e-14,3.734184377e-13,3.465308818e-14,1.3460064e-13,4.62022337e-13,1.487373462e-13,8.863121962e-14,5.793672145e-14,4.359262571e-14,1.060791067e-14,1.159411078e-13,4.65697067e-13,9.187668839e-14,6.98264505e-14,8.500259116e-14,1.503124129e-14,1.491188979e-14,7.696179031e-14,7.446173323e-14,1.014538194e-13,9.432361214e-14,7.686245797e-14,5.036109495e-14,4.363819974e-14,2.764461029e-14,3.693783408e-13,2.595516972e-13,5.136838519e-14,7.183381635e-15
1.1875,2.975808128e-13,2.489472671e-13,1.081491046e-13,7.337800376e-14,3.305944706e-13,2.938547807e-14,1.315141341e-13,4.280079631e-13,1.328799869e-13,8.590534959e-14,5.50674479e-14,4.697129726e-14,1.134151662e-14,1.200759578e-13,4.734773678e-13,7.678477345e-14,6.83661329e-14,7.0003573e-14,1.260577088e-14,1.481794845e-14,5.249579207e-14,8.87957975e-14,1.224375725e-13,6.125912485e-14,6.964766507e-14,4.616011569e-14,3.840607224e-14,3.044332747e-14,3.684929881e-13,2.740082807e-13,6.295697644e-14,7.201540606e-15
1.1953125,2.956769077e-13,2.532606655e-13,1.149619799e-13,8.402843562e-14,2.865636571e-13,2.602208887e-14,1.266073135e-13,3.879311573e-13,1.181109242e-13,8.011339284e-14,5.860256755e-14,4.813606072e-14,1.277674744e-14,1.178034351e-13,4.426521549e-13,6.288241733e-14,6.352303237e-14,5.970997016e-14,1.092864433e-14,1.469487256e-14,3.717677075e-14,1.035758554e-13,1.407325069e-13,4.463088895e-14,6.63752488e-14,4.178385747e-14,3.231969698e-14,3.499928649e-14,3.593748493e-13,2.661325875e-13,6.735100222e-14,7.420595562e-15
1.203125,2.877063424e-13,2.492259255e-13,1.164773503e-13,9.153485216e-14,2.487860229e-13,2.256735918e-14,1.15576309e-13,3.498489889e-13,1.060293355e-13,7.407979287e-14,7.022077519e-14,4.995049118e-14,1.453296113e-14,1.119232552e-13,3.979807832e-13,5.11269149e-14,5.742952126e-14,5.619571906e-14,9.915071799e-15,1.408425226e-14,2.959972252e-14,1.186047841e-13,1.576035759e-13,4.135967203e-14,6.562764766e-14,3.630440282e-14,2.86237061e-14,4.181576059e-14,3.484376915e-13,2.566257728e-13,7.109226087e-14,7.956633986e-15
1.2109375,2.875744921e-13,2.443346363e-13,1.129892133e-13,9.433895867e-14,2.219786623e-13,1.920374577e-14,9.495224525e-14,3.209486665e-13,9.837535888e-14,6.876877672e-14,9.093361386e-14,5.802773707e-14,1.637905615e-14,1.052432066e-13,3.52928226e-13,4.389264352e-14,5.08828326e-14,5.6909017e-14,9.986202678e-15,1.336953583e-14,2.669706236e-14,1.336395502e-13,1.739172623e-13,5.293245184e-14,6.865602533e-14,2.986599798e-14,3.11285851e-14,5.055837315e-14,3.406100711e-13,2.580984932e-13,7.402438753e-14,9.459914922e-15
1.21875,2.69827389e-13,2.248820451e-13,1.06880476e-13,9.141470373e-14,2.10065542e-13,1.680657627e-14,7.428511086e-14,2.977091338e-13,9.241733199e-14,6.426727474e-14,1.17165151e-13,7.218035076e-14,1.696488878e-14,9.9316154e-14,3.101878855e-13,4.114657349e-14,4.259368657e-14,6.106591886e-14,1.063155766e-14,1.342887651e-14,3.073384477e-14,1.40223187e-13,1.766476734e-13,7.897248773e-14,7.578171854e-14,2.55487939e-14,3.732612931e-14,6.081781101e-14,3.316069947e-13,2.534700853e-13,6.681923981e-14,1.102057394e-14
1.2265625,2.396952002e-13,1.968058939e-13,1.002443519e-13,8.384755106e-14,2.127700189e-13,1.541393834e-14,5.842123181e-14,2.885785321e-13,9.017278872e-14,6.226134139e-14,1.455148989e-13,9.156785668e-14,1.630702414e-14,1.000778081e-13,2.919578242e-13,4.329442757e-14,3.459477023e-14,6.716977184e-14,1.143769618e-14,1.4764686e-14,3.954173684e-14,1.403757636e-13,1.673691664e-13,1.195260598e-13,8.487534236e-14,2.309287138e-14,4.998382393e-14,7.332104729e-14,3.281663725e-13,2.571263637e-13,5.455330551e-14,1.241457561e-14
1.234375,2.243526046e-13,1.788580836e-13,9.371533658e-14,7.246869239e-14,2.27883101e-13,1.382761652e-14,4.689825923e-14,2.995532645e-13,9.38336506e-14,6.363053389e-14,1.707965637e-13,1.107477705e-13,1.513865334e-14,1.109233639e-13,3.060806177e-13,4.847856138e-14,3.025735745e-14,7.028207659e-14,1.161220006e-14,1.776291473e-14,5.090913012e-14,1.369275397e-13,1.560232177e-13,1.727774585e-13,9.190111161e-14,2.198904396e-14,6.812310824e-14,8.524087331e-14,3.319537556e-13,2.80479897e-13,4.508018329e-14,1.422607124e-14
1.2421875,2.084528793e-13,1.700354437e-13,8.809885306e-14,5.879150494e-14,2.48761774e-13,1.194489757e-14,3.9939128e-14,3.203962274e-13,1.005154821e-13,6.782803694e-14,1.87819073e-13,1.276730296e-13,1.347108912e-14,1.315255838e-13,3.420482496e-13,5.555667156e-14,3.024044537e-14,6.917386539e-14,1.10902938e-14,2.238579076e-14,6.682848914e-14,1.295864558e-13,1.423466408e-13,2.405460148e-13,9.616250992e-14,2.288447271e-14,8.760874405e-14,9.436406101e-14,3.431464654e-13,3.095545938e-13,3.690277333e-14,1.547639472e-14
1.25,1.885662246e-13,1.717434246e-13,8.468327051e-14,4.509429936e-14,2.702972482e-13,1.018109211e-14,3.569151854e-14,3.485443805e-13,1.108006475e-13,7.326181285e-14,1.892778553e-13,1.460656603e-13,1.088024777e-14,1.606957919e-13,3.9502401e-13,6.384818554e-14,3.481496311e-14,6.508890581e-14,1.022112877e-14,2.82208388e-14,8.313172819e-14,1.211439959e-13,1.257286507e-13,3.20234177e-13,9.730673983e-14,2.467626889e-14,1.075800064e-13,9.954902581e-14,3.60949888e-13,3.417442567e-13,2.846964496e-14,1.567468738e-14
1.2578125,1.815813106e-13,1.899944838e-13,8.215485945e-14,3.29488837e-14,2.884735752e-13,9.032471854e-15,3.290958423e-14,3.769275353e-13,1.238889356e-13,7.805950345e-14,1.781473465e-13,1.618904176e-13,8.399207457e-15,1.962987192e-13,4.538153107e-13,7.386003568e-14,4.439205344e-14,5.730395418e-14,9.442257002e-15,3.470111093e-14,9.650927581e-14,1.144738092e-13,1.15383532e-13,4.19948518e-13,9.628415826e-14,2.680196881e-14,1.244694377e-13,1.010947116e-13,3.801955408e-13,3.79274231e-13,2.365283456e-14,1.564068508e-14
1.265625,1.792466588e-13,2.149966694e-13,8.021791422e-14,2.30824881e-14,2.974515511e-13,8.391196917e-15,3.128963963e-14,3.94951364e-13,1.360639082e-13,8.023196957e-14,1.604862545e-13,1.649961331e-13,7.011412465e-15,2.301645672e-13,4.994990471e-13,8.672159458e-14,5.741693593e-14,4.684602266e-14,8.817791727e-15,4.147721886e-14,1.099295785e-13,1.082832579e-13,1.124504386e-13,5.551536864e-13,9.2596623e-14,2.867710452e-14,1.328584419e-13,9.865364052e-14,3.97314165e-13,4.040302338e-13,2.168620566e-14,1.557759532e-14
1.2734375,1.705825226e-13,2.370447652e-13,7.739562756e-14,1.648894894e-14,2.999660788e-13,8.731554894e-15,3.073744894e-14,4.006256808e-13,1.454083377e-13,7.985774589e-14,1.371439341e-13,1.582521576e-13,6.430999807e-15,2.584720939e-13,5.329094871e-13,1.062600575e-13,7.134979054e-14,3.632325524e-14,9.182967816e-15,4.762186283e-14,1.280035813e-13,1.017051249e-13,1.107426979e-13,7.316666651e-13,8.967381323e-14,2.956287101e-14,1.303309838e-13,9.176985739e-14,4.100897733e-13,4.0908007e-13,1.87087615e-14,1.497301536e-14
1.28125,1.681366324e-13,2.581008231e-13,7.466954955e-14,1.279376215e-14,3.006186115e-13,1.033086206e-14,3.187066794e-14,3.938335139e-13,1.504642436e-13,7.754678487e-14,1.12931019e-13,1.502917696e-13,6.56969666e-15,2.788915619e-13,5.669246121e-13,1.329029244e-13,8.493389842e-14,2.785331767e-14,1.091148116e-14,5.264880646e-14,1.435484998e-13,9.567078261e-14,1.106945403e-13,9.488622692e-13,8.802942363e-14,2.943759837e-14,1.192854977e-13,8.17952183e-14,4.16464746e-13,4.06989707e-13,1.58534122e-14,1.463178342e-14
1.2890625,1.679759272e-13,2.694504278e-13,7.105184989e-14,1.129180483e-14,2.993454181e-13,1.323142892e-14,3.587541418e-14,3.783905155e-13,1.503308202e-13,7.584617305e-14,9.682632684e-14,1.3934452e-13,7.72843431e-15,2.908604501e-13,5.974159282e-13,1.666290959e-13,9.745719697e-14,2.17253829e-14,1.373192117e-14,5.641003346e-14,1.592021968e-13,8.740325871e-14,1.115928767e-13,1.223030791e-12,8.868243179e-14,2.81552832e-14,1.027214557e-13,7.154439894e-14,4.157976602e-13,3.963010648e-13,1.388789722e-14,1.538079194e-14
1.296875,1.567195165e-13,2.593887272e-13,6.627198138e-14,1.145622415e-14,2.977273375e-13,1.716292703e-14,4.697391227e-14,3.589754506e-13,1.427367014e-13,7.514601093e-14,9.005745005e-14,1.202405237e-13,9.037712127e-15,2.901145747e-13,6.181841089e-13,2.018595704e-13,1.038123148e-13,1.85728743e-14,1.716206077e-14,5.900701834e-14,1.815274573e-13,7.350505739e-14,1.039962091e-13,1.514560065e-12,8.998549171e-14,2.573006364e-14,8.056244095e-14,6.040162024e-14,4.067269965e-13,3.675653387e-13,1.094174069e-14,1.745421515e-14
1.3046875,1.45944118e-13,2.423788211e-13,6.30450294e-14,1.265989355e-14,2.995890828e-13,2.171580571e-14,6.339639662e-14,3.436742532e-13,1.317141282e-13,7.747641405e-14,8.949077082e-14,1.010276635e-13,9.597614822e-15,2.790783934e-13,6.311111849e-13,2.298196294e-13,1.030101668e-13,1.781852386e-14,2.040529274e-14,5.990588302e-14,2.013059319e-13,5.97791513e-14,8.988386872e-14,1.793140886e-12,9.036190499e-14,2.349843935e-14,5.779360912e-14,5.075587646e-14,3.931090086e-13,3.415296006e-13,7.243954087e-15,2.049090558e-14
1.3125,1.390578348e-13,2.247681035e-13,6.295568851e-14,1.448973098e-14,3.008679828e-13,2.593311644e-14,8.682930656e-14,3.368701794e-13,1.196141484e-13,8.224016715e-14,9.511798063e-14,8.78301085e-14,1.035665147e-14,2.602529375e-13,6.295517594e-13,2.454351547e-13,9.915665053e-14,1.842647793e-14,2.277197115e-14,5.938419378e-14,2.125080077e-13,4.831966186e-14,7.530549742e-14,2.009787497e-12,8.868215101e-14,2.24266817e-14,3.944023335e-14,4.42392838e-14,3.751563098e-13,3.219848895e-13,4.751883402e-15,2.421147185e-14
1.3203125,1.271144204e-13,2.033917043e-13,6.781766335e-14,1.689444443e-14,3.00047386e-13,2.879374002e-14,1.178436339e-13,3.311536117e-13,1.046585523e-13,8.471045114e-14,1.034804648e-13,7.465996911e-14,1.085173748e-14,2.314448737e-13,5.923597349e-13,2.431832857e-13,9.208775069e-14,2.007085681e-14,2.34973331e-14,5.641568376e-14,2.179190961e-13,4.020529275e-14,6.307708877e-14,2.131292388e-12,8.327426416e-14,2.424775574e-14,2.666790622e-14,4.064474492e-14,3.506112805e-13,2.948715225e-13,3.248414883e-15,2.912021258e-14
1.328125,1.167825178e-13,1.879018097e-13,7.839720026e-14,1.955017133e-14,2.976663429e-13,3.007153989e-14,1.498926543e-13,3.305245538e-13,9.113099228e-14,8.450333726e-14,1.098590292e-13,6.034699333e-14,1.042985158e-14,1.956903657e-13,5.254395546e-13,2.234345068e-13,8.133512871e-14,2.152845206e-14,2.277259421e-14,5.195316928e-14,2.197681235e-13,3.657368237e-14,5.290566963e-14,2.124877887e-12,7.379212532e-14,2.914378407e-14,1.868620009e-14,3.86669561e-14,3.204891943e-13,2.648808586e-13,2.380152313e-15,3.43913413e-14
1.3359375,1.17811534e-13,1.876170915e-13,9.454956981e-14,2.224196224e-14,2.901336327e-13,2.971316385e-14,1.777653721e-13,3.350691316e-13,8.117083331e-14,8.171457909e-14,1.11413422e-13,4.945490642e-14,9.320771852e-15,1.573230498e-13,4.397920097e-13,1.897095155e-13,6.777247139e-14,2.273376108e-14,2.067769678e-14,4.534005449e-14,2.090850497e-13,3.679429758e-14,4.504431485e-14,1.981652604e-12,6.197141834e-14,3.66829386e-14,1.633413823e-14,3.786821061e-14,2.888207406e-13,2.407555676e-13,2.579323046e-15,3.944816404e-14
1.34375,1.274496256e-13,1.987716843e-13,1.14795004e-13,2.489146515e-14,2.79584802e-13,2.7733294e-14,2.023726166e-13,3.335000882e-13,7.332649415e-14,7.451640886e-14,1.105685354e-13,4.299219576e-14,8.384526007e-15,1.218706208e-13,3.500544984e-13,1.519758995e-13,5.512514878e-14,2.343701879e-14,1.776776198e-14,3.710866473e-14,1.893687444e-13,4.057294867e-14,4.216783999e-14,1.739695313e-12,5.016742627e-14,4.778587425e-14,1.956517999e-14,3.806515798e-14,2.595801182e-13,2.181476869e-13,3.581559333e-15,4.427050952e-14
1.3515625,1.464266741e-13,2.206080372e-13,1.342166348e-13,2.711071378e-14,2.680786881e-13,2.439979702e-14,2.204119853e-13,3.260941103e-13,6.71814699e-14,6.326031287e-14,1.061056644e-13,3.782097342e-14,7.484335825e-15,9.142224949e-14,2.661238748e-13,1.171765969e-13,4.394496508e-14,2.464416129e-14,1.423781242e-14,2.907872434e-14,1.666478015e-13,4.626736671e-14,4.242140289e-14,1.439634255e-12,3.934911101e-14,6.030702038e-14,2.845031105e-14,3.794803125e-14,2.372321004e-13,1.9800935e-13,5.756380302e-15,4.769525406e-14
1.359375,1.729158412e-13,2.478092298e-13,1.473313222e-13,2.780239027e-14,2.574536562e-13,2.098315101e-14,2.266202122e-13,3.164973514e-13,6.313501253e-14,5.135739558e-14,9.827300112e-14,3.376266661e-14,6.702355888e-15,7.020720484e-14,2.047026834e-13,9.01212319e-14,3.460593572e-14,2.667653514e-14,1.083135326e-14,2.309559577e-14,1.414906412e-13,5.02241771e-14,4.281134059e-14,1.13891346e-12,3.065908156e-14,7.130845272e-14,4.165350427e-14,3.638678837e-14,2.239068017e-13,1.906411392e-13,8.743675546e-15,4.912797201e-14
1.3671875,2.002385629e-13,2.729343953e-13,1.51829187e-13,2.706368801e-14,2.450147843e-13,1.880142224e-14,2.187720798e-13,3.031788324e-13,5.987012431e-14,4.222197356e-14,8.867188898e-14,3.250159298e-14,6.13097909e-15,6.06782539e-14,1.750118537e-13,7.435162034e-14,2.838211274e-14,2.970071581e-14,8.046808364e-15,1.943019275e-14,1.140045555e-13,5.115293716e-14,4.175750344e-14,8.854631159e-13,2.505136568e-14,7.89022067e-14,5.743699275e-14,3.360413968e-14,2.247983142e-13,1.961259868e-13,1.234912625e-14,4.834015806e-14
1.375,2.204211408e-13,2.896808165e-13,1.475442224e-13,2.518418243e-14,2.319372531e-13,1.836846728e-14,2.013530734e-13,2.856224031e-13,5.598178345e-14,3.685060588e-14,8.220001308e-14,3.45513556e-14,5.995844707e-15,6.205034723e-14,1.745851174e-13,6.890113743e-14,2.590018811e-14,3.430350917e-14,6.050398661e-15,1.812734268e-14,8.982701677e-14,5.004903577e-14,4.014762592e-14,7.142704739e-13,2.274066554e-14,8.318632203e-14,7.506168108e-14,3.095291297e-14,2.383744498e-13,2.096261589e-13,1.582695574e-14,4.531675394e-14
1.3828125,2.342474054e-13,2.988519731e-13,1.350394309e-13,2.262898363e-14,2.205502756e-13,1.974536428e-14,1.776581946e-13,2.702292206e-13,5.207596054e-14,3.526726473e-14,7.896370046e-14,3.89316961e-14,6.428025318e-15,7.325560201e-14,2.049442654e-13,7.242828634e-14,2.626241335e-14,3.964352198e-14,4.325215792e-15,1.976661301e-14,6.942482136e-14,4.774435379e-14,3.816431944e-14,6.259461168e-13,2.286431535e-14,8.396527801e-14,9.708455289e-14,2.813662543e-14,2.628406002e-13,2.363700671e-13,1.997544114e-14,4.028528733e-14
1.390625,2.391008204e-13,2.978331615e-13,1.182436263e-13,2.012375635e-14,2.071996231e-13,2.300503625e-14,1.473845695e-13,2.594910063e-13,4.988164287e-14,3.808297607e-14,7.971275039e-14,4.454957141e-14,7.487194016e-15,9.259733575e-14,2.632598992e-13,8.232056821e-14,2.904290506e-14,4.474661517e-14,3.059623035e-15,2.197572183e-14,5.095984972e-14,4.323296371e-14,3.402446232e-14,6.122455493e-13,2.425146135e-14,7.982037033e-14,1.152361827e-13,2.631764028e-14,2.922745949e-13,2.658054523e-13,2.351342831e-14,3.418931907e-14
1.3984375,2.345732965e-13,2.887198592e-13,1.04001209e-13,1.897401769e-14,1.911641692e-13,2.690339413e-14,1.139710808e-13,2.502475885e-13,4.973810202e-14,4.240383127e-14,8.351063824e-14,5.067841255e-14,9.274488862e-15,1.167976835e-13,3.415581828e-13,9.458547901e-14,3.336035572e-14,4.81776651e-14,2.515817943e-15,2.434036954e-14,3.81044048e-14,3.940517743e-14,3.065540829e-14,6.341923148e-13,2.502603982e-14,7.311643012e-14,1.279811102e-13,2.585152596e-14,3.210343101e-13,2.878933962e-13,2.54257014e-14,2.770428502e-14
1.40625,2.317935393e-13,2.80104306e-13,9.797646629e-14,1.996423107e-14,1.77070918e-13,3.084642139e-14,8.344600397e-14,2.486980925e-13,5.332239522e-14,4.782141342e-14,9.306119761e-14,5.810126769e-14,1.153428874e-14,1.434462369e-13,4.427959986e-13,1.092607868e-13,3.778610763e-14,5.036032918e-14,2.397784868e-15,2.748014172e-14,3.196572805e-14,3.946255118e-14,2.972002958e-14,6.668634325e-13,2.540637531e-14,6.610005271e-14,1.391594449e-13,2.730794958e-14,3.476488528e-13,3.072035833e-13,2.653514912e-14,2.102463956e-14
1.4140625,2.369426613e-13,2.734937929e-13,1.022300176e-13,2.318666061e-14,1.63534955e-13,3.442124539e-14,5.696553098e-14,2.509563663e-13,6.074164825e-14,5.237313053e-14,1.07665088e-13,6.614667875e-14,1.415101073e-14,1.715050229e-13,5.597611069e-13,1.248971883e-13,4.030612204e-14,4.957430854e-14,2.698090831e-15,2.988115477e-14,3.206478675e-14,4.332012048e-14,3.081635943e-14,6.722387544e-13,2.518477384e-14,5.94519452e-14,1.445734113e-13,3.037624826e-14,3.663487968e-13,3.194053363e-13,2.767694955e-14,1.529545238e-14
1.421875,2.506657888e-13,2.664262442e-13,1.164095624e-13,2.833963604e-14,1.514885778e-13,3.670571287e-14,3.598570787e-14,2.492455207e-13,6.955859301e-14,5.378353808e-14,1.265615739e-13,7.272012492e-14,1.771389195e-14,1.97240011e-13,6.86047465e-13,1.44224641e-13,4.077324948e-14,4.563011286e-14,3.476253494e-15,3.112788247e-14,3.874068714e-14,5.114086913e-14,3.305870315e-14,6.492123366e-13,2.376530148e-14,5.4241354e-14,1.377386812e-13,3.449590394e-14,3.721808679e-13,3.166696287e-13,2.686119068e-14,1.188803966e-14
1.4296875,2.710314436e-13,2.603507738e-13,1.362216883e-13,3.47003801e-14,1.419613024e-13,3.666545133e-14,2.075836062e-14,2.477219066e-13,8.059151582e-14,5.262879037e-14,1.480779088e-13,7.847355876e-14,2.195668206e-14,2.168212529e-13,8.040666424e-13,1.630512648e-13,4.001137073e-14,4.092616119e-14,4.581487354e-15,3.300091572e-14,5.005195925e-14,6.30275393e-14,3.623746392e-14,5.891102221e-13,2.131471594e-14,5.121663527e-14,1.260198848e-13,3.953378851e-14,3.678163007e-13,3.034619073e-13,2.485493091e-14,1.018794771e-14
1.4375,2.983842374e-13,2.550976806e-13,1.554290626e-13,4.097908362e-14,1.341944614e-13,3.495406246e-14,1.152027377e-14,2.452892955e-13,9.153967218e-14,5.061541746e-14,1.747878345e-13,8.458016075e-14,2.614577612e-14,2.318343833e-13,9.180420921e-13,1.849568481e-13,3.894624167e-14,3.720130277e-14,6.379754227e-15,3.69752194e-14,6.721689073e-14,7.685043234e-14,3.954420245e-14,5.18445676e-13,2.021900243e-14,5.12441302e-14,1.132180581e-13,4.539932637e-14,3.532812691e-13,2.875529327e-13,2.370038145e-14,1.028577235e-14
1.4453125,3.214249853e-13,2.436699138e-13,1.68247985e-13,4.538888339e-14,1.269195889e-13,3.232584602e-14,7.162027647e-15,2.339747022e-13,9.847318542e-14,4.618695819e-14,2.001587151e-13,8.809312722e-14,2.951070304e-14,2.344835295e-13,9.928838887e-13,2.022108588e-13,3.74176273e-14,3.516237643e-14,8.39830744e-15,4.352290112e-14,8.642290631e-14,9.147268003e-14,4.390912917e-14,4.399753787e-13,2.00170078e-14,5.384901064e-14,9.733948777e-14,5.18524255e-14,3.274422711e-13,2.666464528e-13,2.313759926e-14,1.209467548e-14
1.453125,3.296227806e-13,2.284851532e-13,1.727299714e-13,4.803975885e-14,1.211346145e-13,2.926724863e-14,6.301562972e-15,2.188414309e-13,1.028190142e-13,4.040713078e-14,2.249295684e-13,8.927720063e-14,3.213210467e-14,2.271242826e-13,1.02756892e-12,2.148843457e-13,3.58979498e-14,3.653302555e-14,1.043026951e-14,5.252491836e-14,1.094845324e-13,1.037309878e-13,4.63214086e-14,3.839968652e-13,2.126593318e-14,5.736999307e-14,8.086261019e-14,5.851852932e-14,2.947342984e-13,2.395345622e-13,2.182483029e-14,1.462802018e-14
1.4609375,3.238195647e-13,2.132171149e-13,1.65995176e-13,4.781482217e-14,1.172051184e-13,2.524802704e-14,7.90767809e-15,2.028699736e-13,1.044830138e-13,3.46167599e-14,2.46422284e-13,8.754385721e-14,3.422359096e-14,2.115323416e-13,1.021907428e-12,2.229796561e-13,3.564994738e-14,4.215691922e-14,1.250570137e-14,6.386892223e-14,1.332898181e-13,1.126459185e-13,4.887912461e-14,3.666035721e-13,2.456786537e-14,6.179991597e-14,6.897972233e-14,6.261778199e-14,2.586384517e-13,2.118481348e-13,2.160227954e-14,1.795392918e-14
1.46875,3.074351506e-13,2.026787941e-13,1.4937169e-13,4.450370186e-14,1.133699947e-13,2.083589891e-14,1.084767442e-14,1.875240503e-13,1.029532588e-13,2.911533377e-14,2.633753048e-13,8.534722434e-14,3.425522905e-14,1.888262771e-13,9.769520955e-13,2.221694466e-13,3.719580804e-14,5.314581586e-14,1.467535833e-14,7.712873922e-14,1.50237843e-13,1.158022166e-13,5.372987556e-14,3.910308015e-13,3.063249159e-14,6.665119137e-14,6.446290592e-14,6.579798727e-14,2.250672831e-13,1.884867303e-13,2.441814639e-14,2.126085682e-14
1.4765625,2.764054402e-13,1.98426719e-13,1.273701129e-13,3.908818904e-14,1.114805913e-13,1.680771604e-14,1.44380957e-14,1.74334722e-13,9.872688639e-14,2.397345227e-14,2.744187477e-13,8.04267904e-14,3.162860698e-14,1.603943644e-13,8.922670943e-13,2.112100197e-13,3.889409437e-14,6.8305788e-14,1.656317906e-14,8.983516844e-14,1.614562068e-13,1.136230739e-13,5.967348681e-14,4.553065942e-13,3.874810456e-14,7.113152307e-14,6.732378468e-14,6.914573772e-14,1.997533837e-13,1.664572691e-13,3.027417462e-14,2.32557574e-14
1.484375,2.383179703e-13,2.037200149e-13,1.052764693e-13,3.247132182e-14,1.141096898e-13,1.347984173e-14,1.735132945e-14,1.660281487e-13,9.321725615e-14,1.892945015e-14,2.786547429e-13,7.10926866e-14,2.772305168e-14,1.297577507e-13,7.782463653e-13,1.925585829e-13,4.019225085e-14,8.525582797e-14,1.784505806e-14,9.930894925e-14,1.704850729e-13,1.098530593e-13,6.775089706e-14,5.503918901e-13,4.887272415e-14,7.341662967e-14,7.617092225e-14,7.016933625e-14,1.876583712e-13,1.485000891e-13,3.92019903e-14,2.392147769e-14
1.4921875,2.040420138e-13,2.16699437e-13,8.410215128e-14,2.548995935e-14,1.166409497e-13,1.039433697e-14,1.898761923e-14,1.623196303e-13,8.695304079e-14,1.490602883e-14,2.75318467e-13,6.10543124e-14,2.33508966e-14,1.01712977e-13,6.605375353e-13,1.699418086e-13,4.185353594e-14,1.02382585e-13,1.880129668e-14,1.047153558e-13,1.740204307e-13,1.01586118e-13,7.596524866e-14,6.481124795e-13,6.199275262e-14,7.196689178e-14,8.906682607e-14,6.876145237e-14,1.880777668e-13,1.377456973e-13,5.043110364e-14,2.372949647e-14
1.5,1.726456836e-13,2.307820328e-13,6.648475345e-14,1.947449806e-14,1.194315165e-13,7.766569711e-15,2.176902858e-14,1.612873573e-13,7.969114388e-14,1.169466043e-14,2.6756863e-13,5.300220164e-14,1.838543544e-14,7.855502539e-14,5.500347627e-13,1.455140549e-13,4.330955683e-14,1.1838971e-13,1.99330269e-14,1.049277425e-13,1.710357448e-13,9.13288442e-14,8.303543578e-14,7.337023387e-13,7.85155244e-14,6.740671408e-14,1.018079477e-13,6.665668237e-14,1.982199175e-13,1.278898545e-13,6.138159609e-14,2.243843512e-14
1.5078125,1.453755911e-13,2.419175738e-13,5.37996668e-14,1.51821986e-14,1.236503655e-13,5.680357981e-15,2.674446092e-14,1.646359156e-13,7.333015143e-14,9.380428293e-15,2.571982852e-13,4.611182357e-14,1.345262836e-14,6.121322061e-14,4.532206974e-13,1.220348124e-13,4.478015532e-14,1.305107366e-13,2.143594461e-14,9.922668198e-14,1.665443183e-13,8.507774413e-14,8.920593985e-14,7.835013999e-13,9.761764416e-14,6.026473998e-14,1.124472793e-13,6.435297606e-14,2.162877731e-13,1.20306567e-13,7.203516539e-14,2.048363014e-14
1.515625,1.254938434e-13,2.427581395e-13,4.494105784e-14,1.246937166e-14,1.261105313e-13,4.173220364e-15,3.566321049e-14,1.679445487e-13,6.734157627e-14,8.188489043e-15,2.442950997e-13,4.09846657e-14,9.535942049e-15,5.183417193e-14,3.773000014e-13,1.01830707e-13,4.626590567e-14,1.353770425e-13,2.282534533e-14,8.80800791e-14,1.666502149e-13,8.037403066e-14,9.253507767e-14,7.88711905e-13,1.187315583e-13,5.179622306e-14,1.174695395e-13,6.206608888e-14,2.297442128e-13,1.132987545e-13,8.093616943e-14,1.914238688e-14
1.5234375,1.113099992e-13,2.326275547e-13,3.72227574e-14,1.082473888e-14,1.263089768e-13,3.076997652e-15,4.947254815e-14,1.721224468e-13,6.207629169e-14,8.27335385e-15,2.261795604e-13,3.947773066e-14,6.648383006e-15,5.120997195e-14,3.249407978e-13,8.479737152e-14,4.942747864e-14,1.343450596e-13,2.413836666e-14,7.428049932e-14,1.70674354e-13,7.462602228e-14,9.039256201e-14,7.385525086e-13,1.397740191e-13,4.282064919e-14,1.163330602e-13,5.83292621e-14,2.397911463e-13,1.060301455e-13,8.503782045e-14,1.902832383e-14
1.53125,9.80367708e-14,2.105591482e-13,3.170998088e-14,1.008910925e-14,1.262017695e-13,2.382069178e-15,6.937091879e-14,1.791486353e-13,6.050718053e-14,1.010923417e-14,2.052817844e-13,4.379755908e-14,4.591615842e-15,5.955228377e-14,2.958182787e-13,7.145131192e-14,5.39355823e-14,1.280337199e-13,2.578838529e-14,5.94477176e-14,1.776664314e-13,6.853379802e-14,8.186455606e-14,6.472799325e-13,1.58413807e-13,3.550835565e-14,1.089540873e-13,5.446245771e-14,2.41648148e-13,9.567309909e-14,8.232494034e-14,2.033541653e-14
1.5390625,8.998166984e-14,1.830735727e-13,2.788791845e-14,9.728349568e-15,1.243650428e-13,1.978329151e-15,9.36751918e-14,1.871944155e-13,6.160234966e-14,1.367841329e-14,1.836091317e-13,5.310244542e-14,3.3641072e-15,7.464905657e-14,2.809785952e-13,6.20336567e-14,5.995478322e-14,1.163260134e-13,2.720336944e-14,4.547645074e-14,1.893130627e-13,6.177095985e-14,7.06040321e-14,5.391390871e-13,1.728885715e-13,3.225932012e-14,1.008898713e-13,5.09140259e-14,2.324557552e-13,8.596107234e-14,7.808920494e-14,2.371421033e-14
1.546875,8.929385505e-14,1.571518807e-13,2.636415627e-14,9.386641184e-15,1.198000858e-13,2.092014386e-15,1.24826654e-13,1.928408208e-13,6.507582089e-14,1.853019532e-14,1.5848159e-13,6.512850247e-14,2.704464236e-15,9.275313851e-14,2.704580555e-13,5.550346801e-14,6.672936088e-14,9.997751405e-14,2.776470298e-14,3.381171977e-14,2.044998513e-13,5.401142752e-14,6.069765561e-14,4.238146381e-13,1.797893785e-13,3.296972172e-14,9.266944428e-14,4.584677787e-14,2.162274886e-13,7.950842406e-14,7.378343107e-14,2.883752978e-14
1.5546875,8.881563745e-14,1.333424336e-13,2.665575981e-14,8.988125938e-15,1.159129005e-13,2.981418002e-15,1.612097289e-13,1.958331154e-13,7.02856955e-14,2.435300687e-14,1.322265879e-13,7.922168266e-14,2.329878441e-15,1.091840133e-13,2.586054359e-13,5.103396182e-14,7.359450969e-14,8.267062012e-14,2.748204122e-14,2.44883083e-14,2.233067298e-13,4.542032035e-14,5.091602545e-14,3.140503361e-13,1.767893499e-13,3.730758774e-14,8.234952064e-14,4.02283024e-14,1.964442981e-13,7.287285448e-14,6.646214362e-14,3.539614294e-14
1.5625,9.195348273e-14,1.150190244e-13,3.012453384e-14,9.198844419e-15,1.118346717e-13,4.931880312e-15,1.993494967e-13,1.927332459e-13,7.485405033e-14,3.008365484e-14,1.094554017e-13,9.601444518e-14,2.097681178e-15,1.1988564e-13,2.443310987e-13,4.978664102e-14,8.145071479e-14,6.627503004e-14,2.64432316e-14,1.765742325e-14,2.364945014e-13,3.935017123e-14,4.534230846e-14,2.291880421e-13,1.654418703e-13,4.516972781e-14,7.417919347e-14,3.749759047e-14,1.72848518e-13,6.683699501e-14,5.860983235e-14,4.300574965e-14
1.5703125,9.891145421e-14,1.036007598e-13,3.506295953e-14,1.010463667e-14,1.059744538e-13,7.864759019e-15,2.42947877e-13,1.843652552e-13,7.798839395e-14,3.539290393e-14,9.031180911e-14,1.139578875e-13,2.143230751e-15,1.241742606e-13,2.294942825e-13,5.350369015e-14,8.811607799e-14,5.14597458e-14,2.433969765e-14,1.291621513e-14,2.386190111e-13,3.495579445e-14,4.39121772e-14,1.692652981e-13,1.484880484e-13,5.627428314e-14,6.968459287e-14,3.971995885e-14,1.488731899e-13,6.520761173e-14,5.504307471e-14,5.094502309e-14
1.578125,9.994274786e-14,9.390475931e-14,4.106532025e-14,1.125505896e-14,1.038041236e-13,1.221675766e-14,2.979628714e-13,1.679533605e-13,7.681073077e-14,3.929397014e-14,7.586287139e-14,1.2672509e-13,2.337357129e-15,1.200254548e-13,2.130272622e-13,6.34902938e-14,9.196113682e-14,3.851803022e-14,2.080245347e-14,1.02828995e-14,2.325687026e-13,3.441358901e-14,4.693113565e-14,1.30274578e-13,1.266581033e-13,7.161001813e-14,6.555908419e-14,4.951279492e-14,1.300354838e-13,6.662571124e-14,5.466729174e-14,5.916568601e-14
1.5859375,9.607716309e-14,8.501299984e-14,4.707110658e-14,1.286298919e-14,1.034306777e-13,1.758914244e-14,3.527805954e-13,1.489043163e-13,7.065703594e-14,4.110045175e-14,6.797845052e-14,1.311759099e-13,2.626278721e-15,1.103073298e-13,2.126138697e-13,8.352787991e-14,9.451265122e-14,2.881213807e-14,1.673136968e-14,9.214132508e-15,2.224860742e-13,3.81208914e-14,5.487456739e-14,1.119265085e-13,1.046801602e-13,8.661185656e-14,6.299857735e-14,7.04203701e-14,1.206990063e-13,7.392500633e-14,5.390181787e-14,6.603687453e-14
1.59375,9.137878274e-14,7.69512803e-14,4.982007055e-14,1.412332005e-14,1.026751846e-13,2.261597995e-14,3.963007355e-13,1.356655336e-13,6.226847829e-14,4.15651596e-14,6.509631893e-14,1.304286794e-13,2.954543747e-15,1.026133044e-13,2.424725514e-13,1.143487192e-13,9.491794551e-14,2.247522533e-14,1.325973275e-14,1.001266643e-14,2.081790797e-13,4.096928961e-14,6.163850714e-14,1.079274271e-13,9.055173434e-14,9.736804031e-14,6.652516931e-14,1.031764091e-13,1.252499433e-13,9.284503913e-14,5.343227742e-14,7.08445847e-14
1.6015625,8.421544516e-14,6.97688942e-14,5.031609956e-14,1.453727776e-14,1.019976935e-13,2.749118089e-14,4.345232689e-13,1.322282643e-13,5.351557949e-14,4.313831565e-14,6.74104832e-14,1.273473183e-13,3.419540559e-15,1.021536956e-13,3.064261195e-13,1.569273201e-13,9.272337679e-14,1.893049593e-14,1.032796699e-14,1.298908668e-14,1.921138594e-13,4.309057216e-14,6.602057358e-14,1.130388942e-13,8.567464057e-14,1.063756816e-13,7.746182578e-14,1.465724291e-13,1.50023891e-13,1.259258729e-13,5.604628173e-14,7.308455853e-14
1.609375,7.598662959e-14,6.567186544e-14,5.028823969e-14,1.44239246e-14,1.00997343e-13,3.286231602e-14,4.608106812e-13,1.425082175e-13,4.585375545e-14,4.607098099e-14,7.441087631e-14,1.177477784e-13,3.626334618e-15,1.110767984e-13,4.08454046e-13,2.125319422e-13,8.829257024e-14,1.761014239e-14,7.86527788e-15,1.94225588e-14,1.800402656e-13,4.454159525e-14,6.963850735e-14,1.282964836e-13,9.047228015e-14,1.131586297e-13,9.479594654e-14,1.979551737e-13,1.944180505e-13,1.717160963e-13,6.038951255e-14,7.193695996e-14
1.6171875,7.519475853e-14,6.672422962e-14,4.943053298e-14,1.338681895e-14,9.742860478e-14,3.636627518e-14,4.567810419e-13,1.63076172e-13,4.060320128e-14,4.920062083e-14,8.293941327e-14,1.011443585e-13,3.369141472e-15,1.28940832e-13,5.461425091e-13,2.753195297e-13,8.224713354e-14,1.769081801e-14,6.184473326e-15,3.043039914e-14,1.749235214e-13,4.329046614e-14,7.065552204e-14,1.541608023e-13,1.03208408e-13,1.119347919e-13,1.151910114e-13,2.496536737e-13,2.521778835e-13,2.243883989e-13,6.183938376e-14,6.814666294e-14
1.625,8.261428717e-14,7.287879444e-14,5.046832601e-14,1.155040162e-14,9.24892823e-14,3.722907496e-14,4.27307077e-13,1.888607833e-13,3.850678407e-14,5.229152796e-14,9.110828916e-14,8.458378432e-14,2.961429845e-15,1.508260314e-13,6.946493414e-13,3.380493406e-13,7.447885874e-14,1.895301394e-14,5.612229011e-15,4.768920924e-14,1.75379873e-13,3.891234476e-14,6.908712498e-14,1.861763085e-13,1.180917448e-13,1.046030833e-13,1.314661439e-13,2.911623087e-13,3.139802117e-13,2.670333986e-13,6.066901764e-14,6.19908094e-14
1.6328125,9.687716066e-14,8.296950421e-14,5.736515303e-14,9.917797395e-15,8.856807774e-14,3.792415349e-14,3.91674603e-13,2.133735164e-13,3.908387198e-14,5.61266288e-14,1.002486098e-13,7.223286958e-14,2.646668463e-15,1.726165246e-13,8.401116837e-13,3.982234091e-13,6.480626156e-14,2.091411271e-14,6.177998141e-15,7.254678913e-14,1.800527041e-13,3.265896372e-14,6.739815368e-14,2.250490742e-13,1.323031267e-13,9.511337615e-14,1.433281851e-13,3.194084555e-13,3.708040932e-13,2.952858049e-13,6.038828099e-14,5.280818394e-14
1.640625,1.202525922e-13,9.673244691e-14,6.969273049e-14,8.902486047e-15,8.632017867e-14,3.930868714e-14,3.481167056e-13,2.29067581e-13,4.066856731e-14,5.940463072e-14,1.10470682e-13,6.075047329e-14,2.165345008e-15,1.896838953e-13,9.761426116e-13,4.496157459e-13,5.312868897e-14,2.169152603e-14,7.573578876e-15,1.063422889e-13,1.862166497e-13,2.657137276e-14,6.740800497e-14,2.637126752e-13,1.447635784e-13,8.372675822e-14,1.500725454e-13,3.303302607e-13,4.106829779e-13,3.101638866e-13,5.972758748e-14,4.210560727e-14
1.6484375,1.451792823e-13,1.095124193e-13,8.87782058e-14,8.917827918e-15,8.622339067e-14,4.050868789e-14,2.995024395e-13,2.290384306e-13,4.215834064e-14,6.067527637e-14,1.207011263e-13,4.982634708e-14,1.584996102e-15,1.968923057e-13,1.070691343e-12,4.814203459e-13,4.244454133e-14,2.115068075e-14,9.181789838e-15,1.514712848e-13,1.918768498e-13,2.158178545e-14,6.87585441e-14,2.982103448e-13,1.474445421e-13,7.067489284e-14,1.440873808e-13,3.205770696e-13,4.255376062e-13,3.013127841e-13,5.425279737e-14,3.252633456e-14
1.65625,1.621773309e-13,1.172657581e-13,1.136707041e-13,1.017188386e-14,8.945089036e-14,4.16697898e-14,2.553649884e-13,2.120491102e-13,4.231932306e-14,5.823610111e-14,1.294367965e-13,4.204114252e-14,1.323095312e-15,1.917659047e-13,1.109766516e-12,4.92839168e-13,3.309409573e-14,2.011459217e-14,1.080699691e-14,2.054884164e-13,1.969115191e-13,1.775213239e-14,7.258502927e-14,3.19382306e-13,1.385858399e-13,5.897902815e-14,1.242852716e-13,2.896981324e-13,4.124297531e-13,2.625652545e-13,4.502582688e-14,2.460547095e-14
1.6640625,1.761411571e-13,1.23826618e-13,1.387304619e-13,1.266478272e-14,9.221771238e-14,4.360631639e-14,2.244732101e-13,1.84808541e-13,4.156213754e-14,5.372543455e-14,1.376246667e-13,3.921504172e-14,1.329315378e-15,1.787021155e-13,1.102316128e-12,4.830935144e-13,2.456086775e-14,1.88532838e-14,1.229845604e-14,2.650040074e-13,1.933649992e-13,1.605370563e-14,7.701170104e-14,3.273849246e-13,1.241737139e-13,4.981475006e-14,1.017108922e-13,2.439246061e-13,3.796071522e-13,2.179827523e-13,3.787114804e-14,1.825890435e-14
1.671875,1.840902781e-13,1.256035363e-13,1.598608187e-13,1.576454691e-14,9.255868154e-14,4.675495455e-14,2.107577572e-13,1.529926064e-13,4.019341829e-14,4.8761121e-14,1.475369216e-13,3.917535699e-14,1.536950929e-15,1.63188843e-13,1.061290159e-12,4.538688047e-13,1.842648151e-14,1.6817742e-14,1.355116134e-14,3.268150594e-13,1.779909404e-13,1.576148054e-14,7.913481331e-14,3.180234155e-13,1.096419473e-13,4.308250092e-14,8.054068667e-14,1.94061233e-13,3.304722008e-13,1.759819244e-13,3.182586722e-14,1.412724184e-14
1.6796875,1.75168085e-13,1.192749549e-13,1.763486045e-13,1.922858005e-14,9.083640526e-14,5.098241658e-14,2.118168241e-13,1.205280353e-13,3.767912228e-14,4.331885701e-14,1.582076356e-13,3.975154802e-14,1.928217631e-15,1.467261104e-13,9.807590146e-13,4.105368233e-13,1.530291728e-14,1.517564261e-14,1.380237713e-14,3.916207698e-13,1.56131698e-13,1.683161596e-14,7.745371962e-14,2.936978256e-13,9.48734337e-14,3.801494184e-14,6.09256761e-14,1.46915144e-13,2.745592286e-13,1.339357139e-13,2.415332959e-14,1.199415008e-14
1.6875,1.554522689e-13,1.095023875e-13,1.854977993e-13,2.234873096e-14,8.589043586e-14,5.454316246e-14,2.254381933e-13,9.592432737e-14,3.47697326e-14,3.825365213e-14,1.700392319e-13,4.19352634e-14,2.552336686e-15,1.330288036e-13,8.753265455e-13,3.586077923e-13,1.550075435e-14,1.514699688e-14,1.336693704e-14,4.465738906e-13,1.347450838e-13,1.805326839e-14,7.257572873e-14,2.673357946e-13,8.396869964e-14,3.347210203e-14,4.602259821e-14,1.079890716e-13,2.199344289e-13,9.938542778e-14,1.74792492e-14,1.144539373e-14
1.6953125,1.34978069e-13,9.882574057e-14,1.84474589e-13,2.444406724e-14,7.793127912e-14,5.598464095e-14,2.555169606e-13,8.266545597e-14,3.231831468e-14,3.451732326e-14,1.815780894e-13,4.768386804e-14,3.089221666e-15,1.243592204e-13,7.739909805e-13,3.052000529e-13,1.821103645e-14,1.713245742e-14,1.338315368e-14,4.852270542e-13,1.123749972e-13,1.839687975e-14,6.393430404e-14,2.557155096e-13,8.047724693e-14,2.893870482e-14,3.846571222e-14,8.122649464e-14,1.694540398e-13,7.751780344e-14,1.356101869e-14,1.17918612e-14
1.703125,1.109000218e-13,8.57534855e-14,1.765419505e-13,2.506257993e-14,6.993743668e-14,5.5647064e-14,3.023931023e-13,8.058611812e-14,2.961724766e-14,3.374370208e-14,1.948478407e-13,5.635632713e-14,3.228099193e-15,1.201267948e-13,6.793170478e-13,2.551327248e-13,2.272605218e-14,2.046520459e-14,1.383157503e-14,5.119394422e-13,9.036082915e-14,1.748220345e-14,5.2302378e-14,2.697243666e-13,8.15621847e-14,2.47829747e-14,3.515112036e-14,6.965684897e-14,1.281909862e-13,6.213865501e-14,1.159439243e-14,1.250909132e-14
1.7109375,8.351175019e-14,7.546976297e-14,1.657128424e-13,2.482932931e-14,6.342476798e-14,5.475032915e-14,3.503226641e-13,8.907396841e-14,2.723078174e-14,3.587459481e-14,2.073481537e-13,6.381751186e-14,3.26971798e-15,1.150353785e-13,5.786318281e-13,2.093070915e-13,2.844057169e-14,2.508762988e-14,1.398830887e-14,5.246644182e-13,7.343033605e-14,1.58375917e-14,4.070906471e-14,3.226589056e-13,8.186349235e-14,2.072218077e-14,3.632415312e-14,6.913327536e-14,9.810773928e-14,4.905309165e-14,1.132496192e-14,1.307850805e-14
1.71875,6.151592549e-14,7.166061054e-14,1.549236218e-13,2.411444792e-14,5.976520219e-14,5.291230344e-14,3.914810199e-13,1.037288308e-13,2.498994866e-14,4.022829307e-14,2.154539817e-13,7.099525646e-14,3.282898141e-15,1.087978818e-13,4.879506663e-13,1.698566988e-13,3.507467419e-14,3.071972869e-14,1.448101861e-14,5.155899724e-13,6.492433534e-14,1.415470195e-14,3.129964776e-14,4.23311538e-13,8.220741951e-14,1.620919385e-14,3.988509253e-14,7.627469903e-14,7.820223668e-14,4.318529638e-14,1.23417878e-14,1.385676985e-14
1.7265625,4.66356301e-14,7.474409425e-14,1.450024862e-13,2.334092411e-14,5.786962354e-14,4.967692034e-14,4.203619677e-13,1.208802824e-13,2.365012735e-14,4.739072262e-14,2.162267638e-13,8.085030195e-14,3.197173391e-15,1.005183483e-13,4.080116213e-13,1.355930627e-13,4.10336651e-14,3.577513051e-14,1.529281968e-14,4.902848975e-13,6.27021191e-14,1.176764035e-14,2.289619907e-14,5.62989893e-13,7.962028334e-14,1.193644076e-14,4.254984065e-14,8.555197719e-14,6.748985291e-14,4.278439307e-14,1.327166123e-14,1.538319498e-14
1.734375,3.657617087e-14,8.495224372e-14,1.374497012e-13,2.318577703e-14,5.78055539e-14,4.622906945e-14,4.290685258e-13,1.369669348e-13,2.374607726e-14,5.608892924e-14,2.090635111e-13,9.016290082e-14,3.147422142e-15,9.054594454e-14,3.312245299e-13,1.082340463e-13,4.382138806e-14,3.815268908e-14,1.568402069e-14,4.577361401e-13,6.615036631e-14,9.591196263e-15,1.803084142e-14,7.274577812e-13,7.177267772e-14,8.711660231e-15,4.539602852e-14,9.123059612e-14,6.639178136e-14,4.578380778e-14,1.464481191e-14,1.738717127e-14
1.7421875,3.205420132e-14,1.008444732e-13,1.325798136e-13,2.460681653e-14,5.829464185e-14,4.370013579e-14,4.085447528e-13,1.472662253e-13,2.441739623e-14,6.533105512e-14,1.963419072e-13,9.497932922e-14,3.600339847e-15,7.88440865e-14,2.580917833e-13,8.590179034e-14,4.392645676e-14,3.760646963e-14,1.512772424e-14,4.155078136e-13,7.25642236e-14,9.631480886e-15,1.818185104e-14,9.004231467e-13,6.01492512e-14,6.597253104e-15,4.93857292e-14,9.212949653e-14,6.949356079e-14,5.333922791e-14,1.695220807e-14,2.001226742e-14
1.75,2.98432183e-14,1.157795592e-13,1.285469464e-13,2.780347312e-14,5.827429023e-14,4.23679145e-14,3.648109471e-13,1.498743137e-13,2.63461518e-14,7.432270018e-14,1.765076016e-13,9.746836349e-14,4.516130819e-15,6.783594824e-14,1.955712486e-13,6.664466172e-14,4.280271849e-14,3.52258082e-14,1.36953832e-14,3.627928439e-13,8.069881393e-14,1.027482993e-14,2.019199793e-14,1.045001661e-12,4.801891097e-14,5.497404401e-15,5.252739511e-14,8.809563428e-14,7.480954623e-14,6.408541207e-14,1.816072703e-14,2.381050802e-14
1.7578125,2.815142547e-14,1.255229266e-13,1.226233762e-13,3.237266539e-14,5.820908974e-14,4.115866574e-14,3.075140867e-13,1.460030052e-13,2.899205465e-14,8.169074528e-14,1.512365503e-13,9.987554322e-14,5.925823047e-15,5.962650911e-14,1.463686215e-13,5.283218421e-14,4.00691098e-14,3.111113186e-14,1.235589555e-14,3.088042655e-13,9.253984297e-14,1.236146265e-14,2.527875426e-14,1.130154393e-12,3.689100398e-14,5.570123396e-15,5.479093982e-14,7.78106435e-14,8.24197949e-14,7.817091933e-14,1.801304173e-14,2.912437015e-14
1.765625,2.863870142e-14,1.297102311e-13,1.145194619e-13,3.75086026e-14,5.791001769e-14,3.963834648e-14,2.457377089e-13,1.375214766e-13,3.198294868e-14,8.546280204e-14,1.282571562e-13,1.002966136e-13,7.523500404e-15,5.416706541e-14,1.125276369e-13,4.676079839e-14,3.57670845e-14,2.523749726e-14,1.102720183e-14,2.598247267e-13,1.016848376e-13,1.621262116e-14,3.363077293e-14,1.149554196e-12,2.890639678e-14,6.320714501e-15,5.813548259e-14,6.351768785e-14,8.617850081e-14,9.127105035e-14,1.867802658e-14,3.479308556e-14
1.7734375,2.93713905e-14,1.257146999e-13,1.042140046e-13,4.308433507e-14,5.759908518e-14,3.786540397e-14,1.828647187e-13,1.256634276e-13,3.441704825e-14,8.472622705e-14,1.118017394e-13,9.665591495e-14,8.661989746e-15,5.122265027e-14,9.663617896e-14,4.747217268e-14,3.131654324e-14,2.041058129e-14,1.06845877e-14,2.150914305e-13,1.040852465e-13,2.123406436e-14,4.269756553e-14,1.124484974e-12,2.444167988e-14,8.054789432e-15,6.227733286e-14,4.947187516e-14,8.699441049e-14,9.785375762e-14,2.065047932e-14,4.051622729e-14
1.78125,2.848360165e-14,1.106521845e-13,9.214135429e-14,4.73234069e-14,6.109532252e-14,3.631940639e-14,1.340556084e-13,1.088756755e-13,3.470125465e-14,7.964283556e-14,1.046380829e-13,9.153360161e-14,9.384628406e-15,4.953964509e-14,9.679025551e-14,5.579036484e-14,2.76628574e-14,1.712114902e-14,1.155459468e-14,1.781940435e-13,1.033518761e-13,2.848705654e-14,5.256965674e-14,1.051502083e-12,2.311487245e-14,1.049493176e-14,6.269724474e-14,3.783774903e-14,8.606845835e-14,9.834928938e-14,2.066591498e-14,4.613001596e-14
1.7890625,2.984065729e-14,9.172958881e-14,7.98912122e-14,4.885543092e-14,6.529700753e-14,3.356229788e-14,1.00418042e-13,9.3968919e-14,3.35829883e-14,7.209806585e-14,1.03988301e-13,8.63397476e-14,9.789842014e-15,4.693578612e-14,1.055751924e-13,6.945583054e-14,2.531642971e-14,1.547463029e-14,1.273323799e-14,1.492479597e-13,1.007889251e-13,3.611871435e-14,6.105510006e-14,9.493747729e-13,2.377923619e-14,1.212636246e-14,6.233597749e-14,2.841556504e-14,8.263090429e-14,9.547058657e-14,2.000736268e-14,5.007528199e-14
1.796875,3.490929279e-14,7.346698193e-14,7.147338755e-14,4.86626904e-14,7.071473023e-14,2.974036853e-14,7.949873295e-14,8.137654323e-14,3.089762272e-14,6.257710538e-14,1.066551293e-13,8.206439741e-14,9.652273967e-15,4.323592225e-14,1.197140862e-13,8.580416164e-14,2.347275798e-14,1.466987233e-14,1.413157722e-14,1.268195549e-13,9.188807923e-14,4.37383944e-14,6.613675378e-14,8.56323321e-13,2.576542074e-14,1.386513889e-14,6.175042416e-14,2.217693994e-14,7.719645974e-14,8.705894001e-14,2.107866272e-14,5.2318751e-14
1.8046875,4.434926209e-14,5.788677246e-14,6.864832944e-14,4.576778536e-14,7.767709224e-14,2.563321058e-14,7.088366046e-14,7.061772371e-14,2.686138015e-14,5.246324254e-14,1.094556406e-13,7.728878874e-14,8.814703808e-15,3.76808067e-14,1.3675944e-13,1.025454589e-13,2.199630421e-14,1.466365092e-14,1.597613229e-14,1.088681896e-13,7.952618959e-14,5.078591112e-14,6.786225626e-14,7.807334507e-13,2.789197017e-14,1.563428963e-14,5.775281824e-14,2.00449122e-14,7.330234109e-14,7.388467053e-14,2.182960823e-14,5.318983989e-14
