"Time","Fp1","AF3","F7","F3","FC1","FC5","T7","C3","CP1","CP5","P7","P3","Pz","PO3","O1","Oz","O2","PO4","P4","P8","CP6","CP2","C4","T8","FC6","FC2","F4","F8","AF4","Fp2","Fz","Cz"
0.0078125,2.195245135e-13,4.190316164e-13,3.957633235e-13,1.466647112e-13,2.061043838e-13,2.89502587e-13,3.080683781e-14,4.835850752e-13,3.483728429e-14,3.256623321e-13,6.529476223e-13,8.671967624e-14,1.048990983e-13,2.405068386e-13,2.461739764e-13,3.423790138e-13,1.395342449e-13,1.447632948e-13,4.076523184e-13,2.406693839e-13,4.337440242e-13,3.841848496e-13,1.015608651e-12,3.313113292e-14,8.991962821e-14,2.337651527e-13,2.669164664e-13,8.435238686e-13,2.794419484e-13,1.027481406e-12,2.563493935e-13,5.512056636e-14
0.015625,2.328475459e-13,4.403597826e-13,3.978644305e-13,1.579860428e-13,2.228320333e-13,2.935438527e-13,3.370424332e-14,4.923417325e-13,3.563420816e-14,3.318684658e-13,6.758229992e-13,9.097343068e-14,1.112018804e-13,2.508721795e-13,2.602235738e-13,3.592549072e-13,1.535643067e-13,1.524092553e-13,4.213916429e-13,2.430821277e-13,4.509738331e-13,4.040551566e-13,1.068579644e-12,3.435876254e-14,9.842365546e-14,2.48329687e-13,2.800239981e-13,8.815543381e-13,2.93569834e-13,1.084434593e-12,2.722186847e-13,5.96924961e-14
0.0234375,2.4624914e-13,4.618415381e-13,3.989361624e-13,1.702323787e-13,2.405153531e-13,2.971785175e-13,3.68501739e-14,5.004659324e-13,3.63284957e-14,3.376378605e-13,6.994936786e-13,9.537035396e-14,1.176572355e-13,2.613334346e-13,2.748629339e-13,3.765246693e-13,1.687605384e-13,1.605751489e-13,4.345944708e-13,2.454279728e-13,4.67672781e-13,4.238103663e-13,1.121930896e-12,3.562025629e-14,1.073369145e-13,2.637158553e-13,2.936542404e-13,9.214352515e-13,3.082025386e-13,1.141994466e-12,2.885783327e-13,6.460172077e-14
0.03125,2.599678926e-13,4.835975763e-13,3.987067629e-13,1.833420717e-13,2.590994068e-13,3.006565637e-13,4.023967796e-14,5.07998499e-13,3.689826955e-14,3.428877827e-13,7.236109366e-13,9.993062181e-14,1.240988819e-13,2.719597869e-13,2.902590169e-13,3.939110913e-13,1.849127704e-13,1.69054576e-13,4.471897311e-13,2.477397176e-13,4.840439781e-13,4.434946729e-13,1.175682508e-12,3.702425422e-14,1.167181941e-13,2.799113673e-13,3.077398228e-13,9.618832865e-13,3.230693306e-13,1.200684086e-12,3.054463408e-13,7.002998639e-14
0.0390625,2.737478475e-13,5.053494984e-13,3.978745554e-13,1.968475977e-13,2.782398229e-13,3.033109691e-13,4.386239495e-14,5.149695844e-13,3.732338597e-14,3.477165422e-13,7.484102262e-13,1.046753919e-13,1.305913812e-13,2.827630107e-13,3.06081572e-13,4.111074938e-13,2.019463563e-13,1.781085699e-13,4.593528393e-13,2.501579457e-13,5.000403217e-13,4.634029136e-13,1.229710496e-12,3.844544909e-14,1.269908426e-13,2.970751271e-13,3.225149981e-13,1.003571607e-12,3.37996072e-13,1.260748258e-12,3.226055138e-13,7.613708604e-14
0.046875,2.875457889e-13,5.276355625e-13,3.967839534e-13,2.110430603e-13,2.980721084e-13,3.048848173e-13,4.779542963e-14,5.211036154e-13,3.76850899e-14,3.518413244e-13,7.743948659e-13,1.09842077e-13,1.371787743e-13,2.940896063e-13,3.226732857e-13,4.281608919e-13,2.201341471e-13,1.880892938e-13,4.71055506e-13,2.527585421e-13,5.152372031e-13,4.834159079e-13,1.283680212e-12,3.980750299e-14,1.38160527e-13,3.152534645e-13,3.381659405e-13,1.047772168e-12,3.533389891e-13,1.322541681e-12,3.40273926e-13,8.297583081e-14
0.0546875,3.014476721e-13,5.506889735e-13,3.941095933e-13,2.261844783e-13,3.18559199e-13,3.06394038e-13,5.1998065e-14,5.264482418e-13,3.801400301e-14,3.550448896e-13,8.009339396e-13,1.154733189e-13,1.436503631e-13,3.058740987e-13,3.401767346e-13,4.450493949e-13,2.395419999e-13,1.987416875e-13,4.820338372e-13,2.555718994e-13,5.297742234e-13,5.033689466e-13,1.337614625e-12,4.127423591e-14,1.497470439e-13,3.34278166e-13,3.544105687e-13,1.093342826e-12,3.688347074e-13,1.3854268e-12,3.584280762e-13,9.0402068e-14
0.0625,3.150078004e-13,5.735182882e-13,3.899999597e-13,2.417845739e-13,3.39290551e-13,3.078259412e-13,5.636199465e-14,5.310886617e-13,3.822440046e-14,3.577989887e-13,8.281778054e-13,1.212455852e-13,1.499230229e-13,3.174920162e-13,3.579381275e-13,4.620067936e-13,2.599612026e-13,2.098134842e-13,4.921695591e-13,2.585189698e-13,5.437819487e-13,5.233645093e-13,1.39131717e-12,4.289512061e-14,1.618642633e-13,3.540409768e-13,3.709917195e-13,1.139746822e-12,3.840679057e-13,1.447994887e-12,3.765734951e-13,9.828512943e-14
0.0703125,3.279209894e-13,5.956879352e-13,3.856180995e-13,2.577500933e-13,3.602828735e-13,3.086234987e-13,6.095437857e-14,5.348964939e-13,3.823536931e-14,3.604168702e-13,8.569184338e-13,1.270446972e-13,1.560547251e-13,3.288320607e-13,3.757233105e-13,4.788704018e-13,2.81198807e-13,2.214801451e-13,5.013639336e-13,2.615831837e-13,5.568497134e-13,5.43253285e-13,1.444530511e-12,4.466087018e-14,1.747570796e-13,3.748114553e-13,3.879756079e-13,1.188260484e-12,3.992014394e-13,1.5099792e-12,3.945670422e-13,1.067917763e-13
0.078125,3.402211272e-13,6.17523295e-13,3.805572548e-13,2.742508595e-13,3.816379447e-13,3.090691231e-13,6.585202446e-14,5.379116357e-13,3.808541898e-14,3.627290288e-13,8.871905549e-13,1.331010367e-13,1.620563309e-13,3.402578864e-13,3.936675006e-13,4.95166524e-13,3.032071558e-13,2.338039328e-13,5.095876762e-13,2.648301387e-13,5.688276677e-13,5.630262308e-13,1.497436145e-12,4.651587003e-14,1.883329461e-13,3.97075807e-13,4.05653813e-13,1.239090554e-12,4.14266709e-13,1.57163939e-12,4.125535158e-13,1.160786919e-13
0.0859375,3.520240826e-13,6.390056893e-13,3.744671248e-13,2.911211682e-13,4.032987785e-13,3.090142295e-13,7.109284171e-14,5.401039846e-13,3.788403718e-14,3.646088321e-13,9.194040884e-13,1.395423008e-13,1.678418757e-13,3.519065046e-13,4.120041849e-13,5.112924427e-13,3.261153796e-13,2.465776859e-13,5.168022103e-13,2.680059636e-13,5.797465277e-13,5.827876305e-13,1.550047602e-12,4.842769598e-14,2.029505905e-13,4.210371326e-13,4.244336752e-13,1.2927872e-12,4.292048295e-13,1.632640014e-12,4.305327052e-13,1.261591274e-13
0.09375,3.635945888e-13,6.599920796e-13,3.677486884e-13,3.083606217e-13,4.254326546e-13,3.085072306e-13,7.675068449e-14,5.414827905e-13,3.763016313e-14,3.660549197e-13,9.54137293e-13,1.463546442e-13,1.732828293e-13,3.639317696e-13,4.311934473e-13,5.276264178e-13,3.500319978e-13,2.596944028e-13,5.229077381e-13,2.710309492e-13,5.895400787e-13,6.023166684e-13,1.601989131e-12,5.063582532e-14,2.186813031e-13,4.466316139e-13,4.444825762e-13,1.350744374e-12,4.441343008e-13,1.69253729e-12,4.485333271e-13,1.371823199e-13
0.1015625,3.747799536e-13,6.807001065e-13,3.602242368e-13,3.261939397e-13,4.480708795e-13,3.084847404e-13,8.278030461e-14,5.422732956e-13,3.727806744e-14,3.671802472e-13,9.913088185e-13,1.535526217e-13,1.784377104e-13,3.765608961e-13,4.51293531e-13,5.440506603e-13,3.74939938e-13,2.732271391e-13,5.28101077e-13,2.743962045e-13,5.984160155e-13,6.217828421e-13,1.652938424e-12,5.318737077e-14,2.350080181e-13,4.738486586e-13,4.656687877e-13,1.411570378e-12,4.590693325e-13,1.751709081e-12,4.666820678e-13,1.492491589e-13
0.109375,3.851300502e-13,7.012422967e-13,3.517610876e-13,3.445911606e-13,4.709441106e-13,3.086427695e-13,8.910023895e-14,5.423337636e-13,3.684017756e-14,3.680243961e-13,1.030702881e-12,1.611034712e-13,1.833709081e-13,3.896413949e-13,4.720297436e-13,5.606918729e-13,4.007897062e-13,2.873541987e-13,5.324860974e-13,2.782503689e-13,6.062986617e-13,6.413109344e-13,1.702574208e-12,5.582186899e-14,2.520424046e-13,5.027442401e-13,4.879526077e-13,1.474102536e-12,4.740147673e-13,1.810716378e-12,4.848330152e-13,1.622761366e-13
0.1171875,3.946653205e-13,7.212279068e-13,3.429576239e-13,3.632289545e-13,4.939610687e-13,3.080920514e-13,9.570860447e-14,5.41470891e-13,3.627750782e-14,3.685088705e-13,1.072255637e-12,1.689842406e-13,1.879532289e-13,4.029513637e-13,4.933540433e-13,5.775332927e-13,4.274903298e-13,3.022421724e-13,5.358358059e-13,2.82428863e-13,6.127347379e-13,6.604289476e-13,1.750537048e-12,5.861876374e-14,2.700645607e-13,5.33417141e-13,5.114287729e-13,1.54065957e-12,4.889221676e-13,1.868674918e-12,5.027706254e-13,1.762520492e-13
0.125,4.035062176e-13,7.405123596e-13,3.340225284e-13,3.820321877e-13,5.173013417e-13,3.075575826e-13,1.026845436e-13,5.397859479e-13,3.560706008e-14,3.687146272e-13,1.116424655e-12,1.772894267e-13,1.921819828e-13,4.166774879e-13,5.155165176e-13,5.944850417e-13,4.55046717e-13,3.178283325e-13,5.380271084e-13,2.872323265e-13,6.177152078e-13,6.790517293e-13,1.796965579e-12,6.173314489e-14,2.891226342e-13,5.660416287e-13,5.362778076e-13,1.61295382e-12,5.037462922e-13,1.924514543e-12,5.207611526e-13,1.913072927e-13
0.1328125,4.116298035e-13,7.592837303e-13,3.244334482e-13,4.011992351e-13,5.410916268e-13,3.07738141e-13,1.102461395e-13,5.372048765e-13,3.493438916e-14,3.686270775e-13,1.163568944e-12,1.861138717e-13,1.961172171e-13,4.311421974e-13,5.38932062e-13,6.116326223e-13,4.837649354e-13,3.341275578e-13,5.389821865e-13,2.930303992e-13,6.21312021e-13,6.971688188e-13,1.842189955e-12,6.496850182e-14,3.094569625e-13,6.007740291e-13,5.628438024e-13,1.691893513e-12,5.186101487e-13,1.978256029e-12,5.390356555e-13,2.077490278e-13
0.140625,4.191519808e-13,7.775533139e-13,3.142302541e-13,4.207853732e-13,5.652865868e-13,3.082822139e-13,1.183482988e-13,5.339993449e-13,3.42042015e-14,3.682334791e-13,1.213380027e-12,1.955504218e-13,1.996967885e-13,4.465820874e-13,5.637834168e-13,6.290539079e-13,5.138756435e-13,3.513540589e-13,5.38803142e-13,2.999218341e-13,6.235025915e-13,7.145319422e-13,1.885729592e-12,6.83304939e-14,3.308070876e-13,6.375968915e-13,5.912575478e-13,1.778247387e-12,5.335842999e-13,2.029636834e-12,5.575433241e-13,2.257249917e-13
0.1484375,4.260267543e-13,7.95603802e-13,3.039584614e-13,4.408790451e-13,5.897916234e-13,3.093115418e-13,1.266105659e-13,5.307476194e-13,3.333592153e-14,3.678205238e-13,1.265899555e-12,2.057288744e-13,2.029648854e-13,4.631877756e-13,5.90030339e-13,6.470061076e-13,5.449960429e-13,3.693928959e-13,5.378226091e-13,3.078676151e-13,6.24537871e-13,7.312808733e-13,1.926796668e-12,7.20304503e-14,3.52803222e-13,6.762885391e-13,6.21375212e-13,1.870815684e-12,5.488754543e-13,2.07867084e-12,5.764208426e-13,2.448338689e-13
0.15625,4.320954352e-13,8.136010791e-13,2.938700951e-13,4.613143648e-13,6.144014834e-13,3.112207955e-13,1.350216582e-13,5.272942258e-13,3.24262168e-14,3.673204659e-13,1.320900932e-12,2.166305976e-13,2.059280959e-13,4.809012229e-13,6.176248522e-13,6.651943315e-13,5.765805429e-13,3.880195768e-13,5.361701277e-13,3.16736476e-13,6.244070623e-13,7.473912307e-13,1.965189988e-12,7.595070072e-14,3.756070614e-13,7.166634193e-13,6.533131898e-13,1.969605088e-12,5.645452263e-13,2.126061362e-12,5.955390359e-13,2.648521871e-13
0.1640625,4.374653073e-13,8.312833993e-13,2.843888855e-13,4.81621958e-13,6.389074759e-13,3.140244868e-13,1.437853724e-13,5.234239372e-13,3.153496093e-14,3.664200371e-13,1.377467336e-12,2.280646718e-13,2.084246213e-13,4.994253907e-13,6.46452497e-13,6.829796256e-13,6.084885208e-13,4.070122674e-13,5.338276484e-13,3.265348005e-13,6.230128195e-13,7.627649274e-13,2.000982278e-12,7.997675824e-14,3.991040676e-13,7.586919692e-13,6.871781976e-13,2.075566402e-12,5.799830399e-13,2.171319808e-12,6.146483669e-13,2.860498897e-13
0.171875,4.421516184e-13,8.485767796e-13,2.757476664e-13,5.018082158e-13,6.632978991e-13,3.175486094e-13,1.528286826e-13,5.192655245e-13,3.062652896e-14,3.652507493e-13,1.435575673e-12,2.399396418e-13,2.104754565e-13,5.186787589e-13,6.764913337e-13,7.005966476e-13,6.404387624e-13,4.258614491e-13,5.305675687e-13,3.372901102e-13,6.204406959e-13,7.774790698e-13,2.034133509e-12,8.424745601e-14,4.233033724e-13,8.023160846e-13,7.227188398e-13,2.1883338e-12,5.949913359e-13,2.213321832e-12,6.339275263e-13,3.084575661e-13
0.1796875,4.458897944e-13,8.651688828e-13,2.673817382e-13,5.219558341e-13,6.875209061e-13,3.215471874e-13,1.621864069e-13,5.144532526e-13,2.970341031e-14,3.638817739e-13,1.495678864e-12,2.52388814e-13,2.122283959e-13,5.389487669e-13,7.077384784e-13,7.181544488e-13,6.720384578e-13,4.445742361e-13,5.261806869e-13,3.48963516e-13,6.163460147e-13,7.91220926e-13,2.064327249e-12,8.876772471e-14,4.482524239e-13,8.474993211e-13,7.59919146e-13,2.309491504e-12,6.101414951e-13,2.251881425e-12,6.53269452e-13,3.321332549e-13
0.1875,4.486517485e-13,8.809535524e-13,2.587685803e-13,5.419241389e-13,7.114970859e-13,3.26351802e-13,1.719931383e-13,5.089373271e-13,2.878454812e-14,3.621923199e-13,1.557851424e-12,2.655405222e-13,2.13660154e-13,5.604485413e-13,7.402103354e-13,7.353759892e-13,7.035186061e-13,4.635664846e-13,5.210699206e-13,3.616123921e-13,6.106971545e-13,8.041533949e-13,2.091467251e-12,9.344180688e-14,4.732647765e-13,8.943358917e-13,7.990013697e-13,2.439940989e-12,6.254968517e-13,2.287422655e-12,6.724440091e-13,3.57401938e-13
0.1953125,4.50698032e-13,8.963264621e-13,2.502231732e-13,5.615982025e-13,7.35141261e-13,3.322970602e-13,1.821070868e-13,5.035294712e-13,2.787383442e-14,3.603782988e-13,1.622199887e-12,2.793202495e-13,2.146984388e-13,5.830620104e-13,7.740215474e-13,7.52514215e-13,7.350193368e-13,4.826311186e-13,5.155874239e-13,3.751005943e-13,6.041365534e-13,8.166967744e-13,2.115919934e-12,9.831538216e-14,4.984251838e-13,9.42727676e-13,8.399576846e-13,2.577225216e-12,6.407275571e-13,2.320060557e-12,6.915511717e-13,3.840592511e-13
0.203125,4.521025174e-13,9.109819745e-13,2.426507605e-13,5.805885519e-13,7.58148488e-13,3.389904084e-13,1.923072288e-13,4.984132435e-13,2.696568116e-14,3.584869276e-13,1.688113457e-12,2.935841443e-13,2.153268911e-13,6.065676657e-13,8.089477372e-13,7.695008681e-13,7.660046079e-13,5.013620891e-13,5.095427638e-13,3.890818135e-13,5.966428652e-13,8.283056237e-13,2.137121767e-12,1.034699657e-13,5.241818516e-13,9.921537791e-13,8.826020186e-13,2.720049585e-12,6.557877056e-13,2.34920778e-12,7.104551062e-13,4.116361284e-13
0.2109375,4.527330191e-13,9.24731343e-13,2.35977565e-13,5.987518033e-13,7.803276888e-13,3.46482413e-13,2.025623298e-13,4.928022782e-13,2.608257323e-14,3.560834552e-13,1.754145598e-12,3.081225299e-13,2.155322652e-13,6.306358707e-13,8.446457662e-13,7.861607715e-13,7.961229619e-13,5.194717164e-13,5.026992619e-13,4.033196423e-13,5.877950775e-13,8.388257244e-13,2.154219808e-12,1.088875641e-13,5.498928768e-13,1.042179234e-12,9.26605512e-13,2.868731537e-12,6.705366411e-13,2.374840815e-12,7.289264641e-13,4.400957189e-13
0.21875,4.525017769e-13,9.376831737e-13,2.29126285e-13,6.161181636e-13,8.017856671e-13,3.549181385e-13,2.130919299e-13,4.863255622e-13,2.528710211e-14,3.530183276e-13,1.819834967e-12,3.22698683e-13,2.1537113e-13,6.550479007e-13,8.811366545e-13,8.029198982e-13,8.254232838e-13,5.368679767e-13,4.949727761e-13,4.177947457e-13,5.777612183e-13,8.488458453e-13,2.167994792e-12,1.144934295e-13,5.75890955e-13,1.093148903e-12,9.720870734e-13,3.025712979e-12,6.848460558e-13,2.397555382e-12,7.468604975e-13,4.69476828e-13
0.2265625,4.514416802e-13,9.494679252e-13,2.222538797e-13,6.325206187e-13,8.228320756e-13,3.642372933e-13,2.240341565e-13,4.795724786e-13,2.457752682e-14,3.49854104e-13,1.886530405e-12,3.375288199e-13,2.149156474e-13,6.803092285e-13,9.187911852e-13,8.198988536e-13,8.540690109e-13,5.539349466e-13,4.866181846e-13,4.327098365e-13,5.668304095e-13,8.58270971e-13,2.179204239e-12,1.204231023e-13,6.030727171e-13,1.145702445e-12,1.01984902e-12,3.193705908e-12,6.990886154e-13,2.416751863e-12,7.646020776e-13,4.997658848e-13
0.234375,4.496940222e-13,9.606501144e-13,2.160708375e-13,6.483287462e-13,8.436528878e-13,3.751162071e-13,2.351457443e-13,4.731040111e-13,2.390784409e-14,3.470218397e-13,1.954999059e-12,3.53015004e-13,2.141411177e-13,7.070504923e-13,9.580532792e-13,8.369728643e-13,8.822121887e-13,5.706973316e-13,4.779367651e-13,4.481597102e-13,5.550980454e-13,8.668284356e-13,2.187328662e-12,1.268914806e-13,6.303957041e-13,1.199616648e-12,1.069883693e-12,3.368234457e-12,7.13682278e-13,2.432007675e-12,7.828327056e-13,5.310406663e-13
0.2421875,4.473597699e-13,9.715849644e-13,2.104504752e-13,6.63526844e-13,8.638396536e-13,3.872304729e-13,2.462457346e-13,4.667315277e-13,2.328851002e-14,3.441821843e-13,2.023373867e-12,3.689360329e-13,2.131040717e-13,7.350397996e-13,9.98522138e-13,8.540036739e-13,9.094548454e-13,5.867126389e-13,4.688462983e-13,4.639427905e-13,5.425679389e-13,8.745575975e-13,2.191948799e-12,1.336223115e-13,6.568872607e-13,1.254083524e-12,1.12120071e-12,3.544604215e-12,7.2847505e-13,2.444213143e-12,8.010672208e-13,5.631800366e-13
0.25,4.445688929e-13,9.814835017e-13,2.053642404e-13,6.776825984e-13,8.833048335e-13,3.99469983e-13,2.573331195e-13,4.602201534e-13,2.274130756e-14,3.409752492e-13,2.089814309e-12,3.848757661e-13,2.119830489e-13,7.636979245e-13,1.039467243e-12,8.707614234e-13,9.350837578e-13,6.01650214e-13,4.593548809e-13,4.795994136e-13,5.29244926e-13,8.814416927e-13,2.193099346e-12,1.402791124e-13,6.828334981e-13,1.308714232e-12,1.173270439e-12,3.725917524e-12,7.43155807e-13,2.453378634e-12,8.186984761e-13,5.958439778e-13
0.2578125,4.41565495e-13,9.908438625e-13,2.004746722e-13,6.912225389e-13,9.024540553e-13,4.124333738e-13,2.683367019e-13,4.538101479e-13,2.229660833e-14,3.375518841e-13,2.154401848e-12,4.008311853e-13,2.10808305e-13,7.92770025e-13,1.081024673e-12,8.875031443e-13,9.588694942e-13,6.151451758e-13,4.495435899e-13,4.946012574e-13,5.153781061e-13,8.876456992e-13,2.191420132e-12,1.471195534e-13,7.081729546e-13,1.363520924e-12,1.225982383e-12,3.91320202e-12,7.577845304e-13,2.459459173e-12,8.363479894e-13,6.288257095e-13
0.265625,4.383434684e-13,9.997915818e-13,1.956516039e-13,7.0380245e-13,9.21017516e-13,4.265865303e-13,2.793250583e-13,4.477056418e-13,2.198764374e-14,3.341370219e-13,2.217330988e-12,4.16841667e-13,2.095264044e-13,8.223128682e-13,1.123220881e-12,9.043545491e-13,9.808660319e-13,6.272523964e-13,4.393914529e-13,5.090008709e-13,5.011148339e-13,8.932705241e-13,2.187357057e-12,1.543324807e-13,7.329641453e-13,1.418655494e-12,1.279497241e-12,4.104477655e-12,7.724425507e-13,2.463414368e-12,8.539300842e-13,6.621890856e-13
0.2734375,4.348027647e-13,1.007068787e-12,1.918368506e-13,7.146607888e-13,9.389206603e-13,4.413529489e-13,2.90262989e-13,4.418205072e-13,2.176805377e-14,3.308071255e-13,2.278452853e-12,4.328070287e-13,2.08195236e-13,8.52554257e-13,1.165908813e-12,9.21059468e-13,1.001039117e-12,6.381661851e-13,4.290859029e-13,5.230691806e-13,4.863111574e-13,8.980811904e-13,2.179854233e-12,1.617464585e-13,7.57318279e-13,1.474010603e-12,1.334206254e-12,4.300949966e-12,7.871156817e-13,2.46434659e-12,8.7107649e-13,6.958584875e-13
0.28125,4.311543723e-13,1.013135744e-12,1.888141556e-13,7.243431343e-13,9.564499229e-13,4.566433271e-13,3.009020643e-13,4.359730591e-13,2.161671854e-14,3.274749069e-13,2.336985658e-12,4.485623791e-13,2.068095578e-13,8.834365164e-13,1.20920761e-12,9.376155906e-13,1.019267894e-12,6.476365681e-13,4.186640086e-13,5.365621604e-13,4.710179668e-13,9.018784064e-13,2.168480567e-12,1.692970155e-13,7.806107071e-13,1.528940038e-12,1.389607632e-12,4.500714554e-12,8.019316598e-13,2.460654674e-12,8.882326265e-13,7.294428859e-13
0.2890625,4.275805852e-13,1.018659749e-12,1.856441018e-13,7.328352212e-13,9.733353721e-13,4.721637382e-13,3.113409198e-13,4.302120148e-13,2.159361214e-14,3.240663521e-13,2.391806458e-12,4.63984778e-13,2.053031327e-13,9.147186848e-13,1.252508159e-12,9.537708456e-13,1.035251344e-12,6.558303217e-13,4.07999474e-13,5.492767888e-13,4.553710494e-13,9.045925643e-13,2.154193825e-12,1.76897195e-13,8.023308147e-13,1.583237133e-12,1.444881149e-12,4.700161554e-12,8.169013177e-13,2.453128898e-12,9.052294662e-13,7.628951877e-13
0.296875,4.241740808e-13,1.023070875e-12,1.826871028e-13,7.398998243e-13,9.898558296e-13,4.881416651e-13,3.216463251e-13,4.248862322e-13,2.168300808e-14,3.206734e-13,2.443081967e-12,4.791430311e-13,2.038147075e-13,9.46451629e-13,1.295558121e-12,9.694879672e-13,1.048794742e-12,6.627601825e-13,3.971903611e-13,5.611112877e-13,4.393405256e-13,9.061770831e-13,2.136904776e-12,1.845786788e-13,8.221749295e-13,1.637001052e-12,1.500075242e-12,4.900010993e-12,8.320555514e-13,2.442412867e-12,9.221064063e-13,7.962076974e-13
0.3046875,4.209407174e-13,1.026523932e-12,1.803253389e-13,7.460006334e-13,1.005944186e-12,5.052323922e-13,3.315169173e-13,4.197604842e-13,2.185360066e-14,3.17049407e-13,2.490395689e-12,4.938378142e-13,2.025372665e-13,9.783937339e-13,1.33880014e-12,9.853711289e-13,1.060179264e-12,6.677433583e-13,3.862404066e-13,5.718689211e-13,4.229813821e-13,9.065959901e-13,2.116064044e-12,1.92611205e-13,8.403156086e-13,1.689286186e-12,1.555270042e-12,5.098979123e-12,8.475864732e-13,2.428257319e-12,9.391005459e-13,8.285198226e-13
0.3125,4.17593308e-13,1.028858621e-12,1.786437657e-13,7.505750752e-13,1.020490812e-12,5.222342535e-13,3.409109991e-13,4.141601111e-13,2.216985739e-14,3.128391921e-13,2.532327985e-12,5.075818607e-13,2.013984986e-13,1.009797255e-12,1.381585922e-12,1.001445016e-12,1.06974459e-12,6.709183767e-13,3.751163968e-13,5.816377055e-13,4.063255266e-13,9.059357906e-13,2.091849667e-12,2.009299783e-13,8.576142026e-13,1.739261832e-12,1.610170169e-12,5.295014024e-12,8.631611406e-13,2.41121436e-12,9.553005667e-13,8.59265017e-13
0.3203125,4.143304209e-13,1.029813619e-12,1.775859742e-13,7.53703261e-13,1.034110419e-12,5.383526655e-13,3.499207584e-13,4.085869718e-13,2.265036381e-14,3.083861421e-13,2.569201198e-12,5.203675193e-13,2.002584045e-13,1.040443353e-12,1.423440656e-12,1.017392457e-12,1.077338329e-12,6.728533416e-13,3.639519934e-13,5.904164146e-13,3.893866725e-13,9.042676009e-13,2.064539246e-12,2.094287375e-13,8.737834863e-13,1.78732176e-12,1.664253805e-12,5.490546677e-12,8.782783897e-13,2.390332975e-12,9.708370088e-13,8.8896385e-13
0.328125,4.117876613e-13,1.030392136e-12,1.763055302e-13,7.566292911e-13,1.047941311e-12,5.547218929e-13,3.58422187e-13,4.039235221e-13,2.32480538e-14,3.041173417e-13,2.60175448e-12,5.325026019e-13,1.991976246e-13,1.070853429e-12,1.46487062e-12,1.033073648e-12,1.082582952e-12,6.733543553e-13,3.52753186e-13,5.980995194e-13,3.724332621e-13,9.013305023e-13,2.034619703e-12,2.182433065e-13,8.878136523e-13,1.833582096e-12,1.716936443e-12,5.68503889e-12,8.933315039e-13,2.364717991e-12,9.867628728e-13,9.17648572e-13
0.3359375,4.097480011e-13,1.03048211e-12,1.746652446e-13,7.587952976e-13,1.061164723e-12,5.716213761e-13,3.662601027e-13,3.996545922e-13,2.395371932e-14,2.998012147e-13,2.629289914e-12,5.440632985e-13,1.983054941e-13,1.101300538e-12,1.505663352e-12,1.048138964e-12,1.085455196e-12,6.722548936e-13,3.414422184e-13,6.047982064e-13,3.555021818e-13,8.969166054e-13,2.001790105e-12,2.27216643e-13,8.998500162e-13,1.877485951e-12,1.768421653e-12,5.874046947e-12,9.089568642e-13,2.336793467e-12,1.002654178e-12,9.445094221e-13
0.34375,4.076717671e-13,1.029124065e-12,1.734399341e-13,7.593156446e-13,1.073176833e-12,5.887575094e-13,3.73315305e-13,3.953224408e-13,2.479012722e-14,2.951271284e-13,2.650652028e-12,5.548908809e-13,1.976184733e-13,1.131311957e-12,1.545263109e-12,1.062630713e-12,1.086310898e-12,6.698249291e-13,3.300996699e-13,6.105308971e-13,3.383657305e-13,8.912762698e-13,1.965142349e-12,2.363628905e-13,9.100090244e-13,1.918434463e-12,1.818660647e-12,6.054748047e-12,9.250611093e-13,2.307856047e-12,1.01792125e-12,9.691597628e-13
0.3515625,4.057111731e-13,1.02680612e-12,1.727548538e-13,7.588009827e-13,1.084241383e-12,6.060536787e-13,3.798423285e-13,3.914650234e-13,2.582534179e-14,2.902480688e-13,2.666070553e-12,5.645849227e-13,1.973134305e-13,1.160189774e-12,1.583508313e-12,1.076930527e-12,1.085429939e-12,6.662644001e-13,3.189913936e-13,6.153013715e-13,3.213389601e-13,8.848649186e-13,1.92571154e-12,2.459075641e-13,9.179920424e-13,1.956016975e-12,1.866625608e-12,6.225491793e-12,9.41232986e-13,2.277084414e-12,1.032532462e-12,9.918599111e-13
0.359375,4.040923463e-13,1.023922774e-12,1.72415688e-13,7.576025607e-13,1.094478456e-12,6.228292839e-13,3.860925828e-13,3.880647591e-13,2.708633972e-14,2.854426346e-13,2.676952208e-12,5.729594919e-13,1.9739023e-13,1.187732033e-12,1.620293013e-12,1.091061896e-12,1.08271965e-12,6.615198944e-13,3.08246402e-13,6.188932623e-13,3.048058666e-13,8.778196777e-13,1.884889815e-12,2.554694822e-13,9.239815071e-13,1.990617568e-12,1.912245219e-12,6.387699389e-12,9.572341941e-13,2.24500079e-12,1.046438235e-12,1.012886238e-12
0.3671875,4.027683943e-13,1.020188179e-12,1.722747914e-13,7.558098256e-13,1.104128804e-12,6.393477848e-13,3.914260307e-13,3.849673256e-13,2.844329187e-14,2.806440156e-13,2.681878012e-12,5.804337717e-13,1.976381801e-13,1.214377239e-12,1.655413038e-12,1.104808913e-12,1.077998058e-12,6.55689485e-13,2.97700959e-13,6.210207342e-13,2.885958064e-13,8.696041062e-13,1.842080641e-12,2.649074604e-13,9.277366737e-13,2.022374886e-12,1.955700923e-12,6.541458529e-12,9.731951163e-13,2.211101755e-12,1.059999839e-12,1.031758989e-12
0.375,4.016361792e-13,1.015916195e-12,1.722009995e-13,7.53752337e-13,1.112891386e-12,6.564238386e-13,3.953874682e-13,3.827125676e-13,2.98231589e-14,2.758035635e-13,2.679133201e-12,5.873338867e-13,1.981969942e-13,1.240466268e-12,1.688361602e-12,1.11775491e-12,1.07129946e-12,6.491104922e-13,2.874153322e-13,6.220573781e-13,2.727375674e-13,8.598076108e-13,1.797054941e-12,2.746877345e-13,9.291218138e-13,2.050337492e-12,1.996189633e-12,6.680528803e-12,9.895518397e-13,2.174347862e-12,1.073151603e-12,1.047624236e-12
0.3828125,4.006164742e-13,1.011127316e-12,1.723377653e-13,7.510386441e-13,1.120221826e-12,6.729004096e-13,3.985350719e-13,3.814946146e-13,3.134850512e-14,2.712498675e-13,2.671220978e-12,5.93413906e-13,1.992868918e-13,1.265450935e-12,1.719020006e-12,1.129679719e-12,1.062705283e-12,6.415640156e-13,2.775895524e-13,6.220248361e-13,2.574765329e-13,8.48795653e-13,1.750619372e-12,2.848192664e-13,9.289977234e-13,2.074296408e-12,2.033994606e-12,6.804723936e-12,1.006161616e-12,2.136163723e-12,1.085330897e-12,1.060643667e-12
0.390625,3.998685706e-13,1.005341099e-12,1.72720121e-13,7.470603229e-13,1.126309793e-12,6.873795182e-13,4.01082655e-13,3.812948903e-13,3.309289478e-14,2.670181547e-13,2.658405644e-12,5.982899889e-13,2.007914356e-13,1.288566429e-12,1.747621146e-12,1.140801117e-12,1.052282423e-12,6.326856123e-13,2.681617984e-13,6.202306157e-13,2.427879488e-13,8.368705864e-13,1.702834404e-12,2.951994941e-13,9.274752119e-13,2.094661436e-12,2.069643883e-12,6.920248646e-12,1.022350712e-12,2.097374107e-12,1.096543182e-12,1.071321411e-12
0.3984375,3.995462056e-13,9.989172899e-13,1.732727724e-13,7.42424935e-13,1.131563207e-12,7.004790099e-13,4.027287358e-13,3.822102678e-13,3.500274506e-14,2.628329718e-13,2.63847636e-12,6.018798722e-13,2.027078105e-13,1.309785265e-12,1.773698322e-12,1.151220597e-12,1.040066869e-12,6.227974987e-13,2.591395484e-13,6.1654659e-13,2.287198972e-13,8.240047894e-13,1.653747042e-12,3.058431346e-13,9.238153297e-13,2.111092783e-12,2.101885417e-12,7.02516489e-12,1.038142245e-12,2.057353101e-12,1.107043037e-12,1.079382745e-12
0.40625,3.995841925e-13,9.922493312e-13,1.738542381e-13,7.381806213e-13,1.136287507e-12,7.12860044e-13,4.034842676e-13,3.83857507e-13,3.706385518e-14,2.588172978e-13,2.613072601e-12,6.043870045e-13,2.05140013e-13,1.329289474e-12,1.796913325e-12,1.160951372e-12,1.0260357e-12,6.121072383e-13,2.504874384e-13,6.112047358e-13,2.152417669e-13,8.100027632e-13,1.603753229e-12,3.163309174e-13,9.179887118e-13,2.123533318e-12,2.130082415e-12,7.115321525e-12,1.053873909e-12,2.015467632e-12,1.117023547e-12,1.084670709e-12
0.4140625,3.99927599e-13,9.847584455e-13,1.742066441e-13,7.340228745e-13,1.140271811e-12,7.24008283e-13,4.032575783e-13,3.85923865e-13,3.93155201e-14,2.551069799e-13,2.583127171e-12,6.059557363e-13,2.080381006e-13,1.347151167e-12,1.81755668e-12,1.170012564e-12,1.010361106e-12,6.004918418e-13,2.420195689e-13,6.042823668e-13,2.021618375e-13,7.944501958e-13,1.552519375e-12,3.264725209e-13,9.102621094e-13,2.1320896e-12,2.155017737e-12,7.191430014e-12,1.069478027e-12,1.970951613e-12,1.126458002e-12,1.087202741e-12
0.421875,4.003897976e-13,9.763656317e-13,1.744976255e-13,7.292431681e-13,1.142925043e-12,7.33653783e-13,4.019280563e-13,3.884261023e-13,4.177532167e-14,2.515751104e-13,2.547822672e-12,6.066106962e-13,2.115078111e-13,1.363515255e-12,1.835519788e-12,1.178153715e-12,9.930610163e-13,5.878936958e-13,2.33851937e-13,5.956888597e-13,1.896396937e-13,7.775621365e-13,1.499892431e-12,3.364407146e-13,9.007205476e-13,2.136225959e-12,2.176701498e-12,7.251945978e-12,1.085150713e-12,1.925289542e-12,1.135121248e-12,1.086734421e-12
0.4296875,4.00748732e-13,9.677729628e-13,1.748710559e-13,7.240270682e-13,1.144139947e-12,7.417175816e-13,3.998463966e-13,3.913447474e-13,4.444645952e-14,2.482648326e-13,2.50812299e-12,6.06380822e-13,2.156600463e-13,1.378096175e-12,1.850406746e-12,1.184921711e-12,9.739301966e-13,5.741878137e-13,2.260870062e-13,5.852669935e-13,1.777844182e-13,7.599986749e-13,1.446808091e-12,3.462631151e-13,8.896352227e-13,2.13587994e-12,2.194745865e-12,7.296223813e-12,1.10094204e-12,1.880895776e-12,1.142915097e-12,1.083460547e-12
0.4375,4.010530714e-13,9.589306009e-13,1.751309159e-13,7.185520664e-13,1.143859178e-12,7.48102977e-13,3.972541365e-13,3.949316802e-13,4.73596987e-14,2.451796673e-13,2.463688627e-12,6.051449858e-13,2.203311098e-13,1.390499251e-12,1.862302732e-12,1.190232033e-12,9.535033407e-13,5.596542453e-13,2.185728203e-13,5.735600269e-13,1.663728611e-13,7.417614729e-13,1.393894008e-12,3.560948192e-13,8.774035212e-13,2.131456476e-12,2.209541541e-12,7.32839189e-12,1.116260544e-12,1.837209837e-12,1.149524693e-12,1.077659632e-12
0.4453125,4.013725838e-13,9.49421695e-13,1.755222164e-13,7.131399446e-13,1.142332317e-12,7.537640305e-13,3.939500751e-13,3.993380475e-13,5.055041919e-14,2.422453401e-13,2.414930636e-12,6.029042163e-13,2.254740602e-13,1.400933597e-12,1.871633483e-12,1.194699708e-12,9.323893603e-13,5.448399179e-13,2.112950808e-13,5.610847822e-13,1.553767452e-13,7.226024585e-13,1.340667092e-12,3.65945785e-13,8.641023588e-13,2.123054246e-12,2.22132377e-12,7.348563876e-12,1.131045239e-12,1.792637625e-12,1.155058017e-12,1.069259634e-12
0.453125,4.017511642e-13,9.393241674e-13,1.761999165e-13,7.081517206e-13,1.140114366e-12,7.590777221e-13,3.896594502e-13,4.042221314e-13,5.401037073e-14,2.396259247e-13,2.364082509e-12,6.000631144e-13,2.312370124e-13,1.409667305e-12,1.878081605e-12,1.198141225e-12,9.100649045e-13,5.297942886e-13,2.042896473e-13,5.474994339e-13,1.449143561e-13,7.025327784e-13,1.286639605e-12,3.754813313e-13,8.490449058e-13,2.110567213e-12,2.229072436e-12,7.3499791e-12,1.145681416e-12,1.74670626e-12,1.160062628e-12,1.0584163e-12
0.4609375,4.021591987e-13,9.287133554e-13,1.768307765e-13,7.027928337e-13,1.136469715e-12,7.623582432e-13,3.843091471e-13,4.09225515e-13,5.773424425e-14,2.373539947e-13,2.30993921e-12,5.96750788e-13,2.375655023e-13,1.416562349e-12,1.880769093e-12,1.199283118e-12,8.861303746e-13,5.143595322e-13,1.975137197e-13,5.328443458e-13,1.350232486e-13,6.818163459e-13,1.232129944e-12,3.845265322e-13,8.31951994e-13,2.093651954e-12,2.231746337e-12,7.329702565e-12,1.15987849e-12,1.700298733e-12,1.163914926e-12,1.045261491e-12
0.46875,4.022461538e-13,9.175566536e-13,1.774867837e-13,6.966128577e-13,1.130621483e-12,7.6290092e-13,3.781279241e-13,4.142760595e-13,6.174936729e-14,2.352363919e-13,2.251270828e-12,5.926532582e-13,2.442613911e-13,1.42123746e-12,1.88001119e-12,1.198286791e-12,8.612100537e-13,4.985621909e-13,1.909596599e-13,5.175291747e-13,1.256810527e-13,6.60819097e-13,1.177904853e-12,3.930703548e-13,8.140359189e-13,2.072536403e-12,2.230452007e-12,7.29540854e-12,1.173049711e-12,1.654576433e-12,1.166018549e-12,1.029842955e-12
0.4765625,4.018024178e-13,9.05970782e-13,1.783109925e-13,6.904926748e-13,1.123322973e-12,7.620990226e-13,3.713106371e-13,4.197365264e-13,6.607445011e-14,2.332621274e-13,2.190043931e-12,5.87925424e-13,2.513762399e-13,1.423692563e-12,1.876718678e-12,1.196157298e-12,8.359660606e-13,4.827167842e-13,1.846920427e-13,5.01619343e-13,1.167965587e-13,6.394996224e-13,1.124507655e-12,4.011550493e-13,7.961490585e-13,2.048253412e-12,2.227072451e-12,7.253489801e-12,1.185244697e-12,1.608364588e-12,1.167183068e-12,1.012439662e-12
0.484375,4.009905297e-13,8.943527813e-13,1.7915426e-13,6.850668927e-13,1.115183121e-12,7.605511499e-13,3.637928118e-13,4.258287867e-13,7.071605257e-14,2.31548767e-13,2.127403131e-12,5.831547579e-13,2.590380946e-13,1.424731496e-12,1.870955274e-12,1.192668856e-12,8.106060773e-13,4.672495109e-13,1.788337537e-13,4.853546363e-13,1.083851382e-13,6.179201773e-13,1.071922649e-12,4.086257024e-13,7.779418237e-13,2.02121088e-12,2.221501037e-12,7.20015425e-12,1.197156162e-12,1.561106007e-12,1.167862023e-12,9.931846969e-13
0.4921875,3.9991828e-13,8.829125245e-13,1.801890177e-13,6.80412409e-13,1.10621684e-12,7.577739016e-13,3.555493611e-13,4.322135235e-13,7.564515261e-14,2.302004338e-13,2.06386887e-12,5.784402196e-13,2.670728181e-13,1.424719543e-12,1.862679774e-12,1.187708716e-12,7.850138211e-13,4.522636261e-13,1.73347984e-13,4.688849622e-13,1.005003993e-13,5.963412206e-13,1.019891578e-12,4.152190905e-13,7.593443873e-13,1.991398095e-12,2.212745667e-12,7.133117197e-12,1.208935864e-12,1.514378519e-12,1.167775384e-12,9.723476807e-13
0.5,3.986312734e-13,8.710965365e-13,1.813743625e-13,6.764106895e-13,1.096493791e-12,7.534952556e-13,3.466029173e-13,4.386744706e-13,8.085548449e-14,2.292287174e-13,2.000271007e-12,5.735805516e-13,2.754902985e-13,1.423288008e-12,1.852062918e-12,1.181566258e-12,7.590786035e-13,4.377908866e-13,1.681774241e-13,4.520660451e-13,9.311802968e-14,5.744253976e-13,9.684815301e-13,4.210148356e-13,7.405725067e-13,1.959187796e-12,2.200929567e-12,7.055598567e-12,1.219983717e-12,1.467199637e-12,1.166896203e-12,9.504082816e-13
0.5078125,3.971093605e-13,8.588725552e-13,1.824167889e-13,6.729006112e-13,1.085878149e-12,7.473527618e-13,3.370188198e-13,4.451050356e-13,8.64640803e-14,2.28539259e-13,1.936710774e-12,5.687465024e-13,2.846482029e-13,1.420670594e-12,1.8394072e-12,1.17412864e-12,7.330526936e-13,4.237961876e-13,1.634756264e-13,4.349097209e-13,8.630890444e-14,5.522392283e-13,9.181706377e-13,4.258005011e-13,7.218778691e-13,1.924787582e-12,2.186797804e-12,6.968732649e-12,1.230449852e-12,1.418750391e-12,1.165392868e-12,9.273678682e-13
0.515625,3.952586815e-13,8.470356875e-13,1.838558167e-13,6.699345182e-13,1.074490591e-12,7.396310607e-13,3.27115224e-13,4.515612367e-13,9.252300869e-14,2.282019519e-13,1.873700266e-12,5.640759991e-13,2.944902598e-13,1.416962742e-12,1.825121558e-12,1.165678768e-12,7.072297568e-13,4.100921439e-13,1.59262994e-13,4.174037366e-13,8.010302523e-14,5.305638208e-13,8.694308133e-13,4.294719784e-13,7.036834922e-13,1.888462998e-12,2.170719719e-12,6.873659173e-12,1.240687312e-12,1.371542883e-12,1.16344936e-12,9.033390914e-13
0.5234375,3.931988591e-13,8.356375396e-13,1.860432027e-13,6.676524763e-13,1.062687925e-12,7.315674093e-13,3.171231464e-13,4.582961014e-13,9.894837002e-14,2.282710123e-13,1.812043088e-12,5.594111581e-13,3.048132798e-13,1.411802065e-12,1.809056823e-12,1.156298112e-12,6.816286378e-13,3.96924659e-13,1.554757711e-13,3.99623121e-13,7.439150632e-14,5.094231025e-13,8.222976472e-13,4.327977626e-13,6.858176582e-13,1.850625668e-12,2.152476301e-12,6.771343103e-12,1.250322445e-12,1.326108325e-12,1.161019749e-12,8.789183128e-13
0.53125,3.90947596e-13,8.245775752e-13,1.88114163e-13,6.665084505e-13,1.050431471e-12,7.231608614e-13,3.069279308e-13,4.648772119e-13,1.057753138e-13,2.285863445e-13,1.751613528e-12,5.548800044e-13,3.157878715e-13,1.405927371e-12,1.791304438e-12,1.145661323e-12,6.561523785e-13,3.845159638e-13,1.521346523e-13,3.818514985e-13,6.90933308e-14,4.883306243e-13,7.764764546e-13,4.357640107e-13,6.681871989e-13,1.811199176e-12,2.132028623e-12,6.660982121e-12,1.25970936e-12,1.281191778e-12,1.158226058e-12,8.541705872e-13
0.5390625,3.882003782e-13,8.140307059e-13,1.89680581e-13,6.665455279e-13,1.037515232e-12,7.132332709e-13,2.964257615e-13,4.710112472e-13,1.130634049e-13,2.2916059e-13,1.691719985e-12,5.506936394e-13,3.273831925e-13,1.399926092e-12,1.772280054e-12,1.134078785e-12,6.307976706e-13,3.72629376e-13,1.491137726e-13,3.64136235e-13,6.418688903e-14,4.671930801e-13,7.319284965e-13,4.376425618e-13,6.514624095e-13,1.770243244e-12,2.110034399e-12,6.545817265e-12,1.269273299e-12,1.236989373e-12,1.155454555e-12,8.287097508e-13
0.546875,3.848495207e-13,8.037069357e-13,1.913300933e-13,6.66981259e-13,1.023677791e-12,7.01578192e-13,2.856958627e-13,4.77014651e-13,1.20735948e-13,2.300808561e-13,1.632404522e-12,5.467099483e-13,3.394501924e-13,1.392887812e-12,1.751329661e-12,1.121375647e-12,6.056238814e-13,3.612223655e-13,1.46427447e-13,3.462860961e-13,5.974023705e-14,4.463864028e-13,6.891306323e-13,4.385438507e-13,6.357619026e-13,1.728141397e-12,2.086718734e-12,6.42799475e-12,1.278255748e-12,1.193452953e-12,1.152255821e-12,8.027153298e-13
0.5546875,3.810585782e-13,7.940240235e-13,1.933058671e-13,6.680119036e-13,1.008856875e-12,6.879861095e-13,2.749501583e-13,4.82669363e-13,1.288070232e-13,2.313532391e-13,1.575099962e-12,5.430026913e-13,3.520852375e-13,1.384562118e-12,1.728332885e-12,1.107057875e-12,5.806842895e-13,3.502179475e-13,1.441602822e-13,3.282234194e-13,5.567169001e-14,4.264367705e-13,6.485141256e-13,4.385663377e-13,6.20903109e-13,1.68483534e-12,2.061522168e-12,6.303829866e-12,1.28665865e-12,1.150996611e-12,1.148163039e-12,7.768012399e-13
0.5625,3.767052883e-13,7.851526351e-13,1.953075898e-13,6.699612163e-13,9.930837288e-13,6.742731875e-13,2.644107522e-13,4.881749419e-13,1.373168272e-13,2.330760762e-13,1.521214165e-12,5.395511252e-13,3.650365266e-13,1.374659163e-12,1.703413011e-12,1.090864032e-12,5.556633156e-13,3.393277801e-13,1.421851962e-13,3.10338091e-13,5.191803772e-14,4.071007865e-13,6.096174714e-13,4.378555283e-13,6.0653598e-13,1.639902162e-12,2.033855239e-12,6.170263844e-12,1.29395653e-12,1.109989721e-12,1.143210058e-12,7.512367471e-13
0.5703125,3.716874187e-13,7.766658704e-13,1.97353474e-13,6.721490077e-13,9.760567511e-13,6.602736434e-13,2.539845476e-13,4.930855526e-13,1.462589662e-13,2.349687269e-13,1.469297922e-12,5.362423476e-13,3.781845926e-13,1.363338363e-12,1.676833689e-12,1.073118994e-12,5.309575376e-13,3.288179593e-13,1.40290072e-13,2.9316212e-13,4.836783123e-14,3.880232576e-13,5.717965921e-13,4.366514965e-13,5.926596312e-13,1.59348097e-12,2.004236272e-12,6.028776528e-12,1.300076776e-12,1.070554978e-12,1.137264784e-12,7.258189425e-13
0.578125,3.659037002e-13,7.680653457e-13,1.994466634e-13,6.739468861e-13,9.572300143e-13,6.453070696e-13,2.437114634e-13,4.967654578e-13,1.555813695e-13,2.365424059e-13,1.417683112e-12,5.327423253e-13,3.912578632e-13,1.35059781e-12,1.648730148e-12,1.054089711e-12,5.067785157e-13,3.187643721e-13,1.384206537e-13,2.766690284e-13,4.508613905e-14,3.694114862e-13,5.350045912e-13,4.344527706e-13,5.794455881e-13,1.545800181e-12,1.972962776e-12,5.883074323e-12,1.304724257e-12,1.032600442e-12,1.129639832e-12,7.008123895e-13
0.5859375,3.594228091e-13,7.598231028e-13,2.016424788e-13,6.760109116e-13,9.370019894e-13,6.296545633e-13,2.33598504e-13,4.99685311e-13,1.652698315e-13,2.379017334e-13,1.367172615e-12,5.290726014e-13,4.041760981e-13,1.336344015e-12,1.61902357e-12,1.033539895e-12,4.83106945e-13,3.092745567e-13,1.367285577e-13,2.607689995e-13,4.207731264e-14,3.515613639e-13,4.996947575e-13,4.311216476e-13,5.670465568e-13,1.49702753e-12,1.939688857e-12,5.734429774e-12,1.307546362e-12,9.952614519e-13,1.1205873e-12,6.764332556e-13
0.59375,3.524545589e-13,7.522516523e-13,2.038905434e-13,6.789015273e-13,9.158830671e-13,6.140446229e-13,2.234922227e-13,5.025971774e-13,1.753285397e-13,2.392738813e-13,1.318748097e-12,5.253688802e-13,4.171359991e-13,1.320423108e-12,1.587331717e-12,1.011089653e-12,4.599857268e-13,3.004565826e-13,1.354294076e-13,2.454931991e-13,3.941111345e-14,3.347238738e-13,4.663431503e-13,4.275524152e-13,5.552034181e-13,1.447356906e-12,1.904068441e-12,5.58160452e-12,1.308273009e-12,9.583574508e-13,1.110364053e-12,6.526369458e-13
0.6015625,3.449369499e-13,7.45057603e-13,2.060567026e-13,6.822941181e-13,8.937537294e-13,5.980033228e-13,2.134655432e-13,5.046644489e-13,1.856582e-13,2.404559272e-13,1.272280671e-12,5.216806548e-13,4.299444737e-13,1.302906683e-12,1.553858264e-12,9.868610512e-13,4.373298028e-13,2.921231857e-13,1.344716554e-13,2.303385105e-13,3.711664935e-14,3.189583608e-13,4.352084432e-13,4.235755741e-13,5.440106522e-13,1.397217366e-12,1.866649014e-12,5.425858689e-12,1.306964571e-12,9.227810936e-13,1.098804981e-12,6.297706329e-13
0.609375,3.369776887e-13,7.381037289e-13,2.082742187e-13,6.85480282e-13,8.705652792e-13,5.81236234e-13,2.038454701e-13,5.055698676e-13,1.962463916e-13,2.412694607e-13,1.227773452e-12,5.179990472e-13,4.424060684e-13,1.284050295e-12,1.519155868e-12,9.612108725e-13,4.152221036e-13,2.840526691e-13,1.336638395e-13,2.154968577e-13,3.514625069e-14,3.042149858e-13,4.060882263e-13,4.186908953e-13,5.335390301e-13,1.347015032e-12,1.828050969e-12,5.269292469e-12,1.303691695e-12,8.883761851e-13,1.085960547e-12,6.08179237e-13
0.6171875,3.289217683e-13,7.316269585e-13,2.103335223e-13,6.888334888e-13,8.467685642e-13,5.647683519e-13,1.947154373e-13,5.055928262e-13,2.071066086e-13,2.416505704e-13,1.185555608e-12,5.142614216e-13,4.546396665e-13,1.264193907e-12,1.483543517e-12,9.34514203e-13,3.938590618e-13,2.761213406e-13,1.329404179e-13,2.016851826e-13,3.344172055e-14,2.905636758e-13,3.786020896e-13,4.131839202e-13,5.233700576e-13,1.296898221e-12,1.788077885e-12,5.110408277e-12,1.298608532e-12,8.54644296e-13,1.071990541e-12,5.878235528e-13
0.625,3.204917317e-13,7.255142878e-13,2.122722538e-13,6.927600545e-13,8.224026196e-13,5.473513998e-13,1.857861214e-13,5.038142385e-13,2.180544882e-13,2.414748644e-13,1.145447467e-12,5.104608951e-13,4.664740271e-13,1.243249353e-12,1.447056287e-12,9.070401735e-13,3.734387427e-13,2.687108238e-13,1.323386931e-13,1.885233178e-13,3.182207845e-14,2.779024424e-13,3.52996141e-13,4.07137222e-13,5.138558431e-13,1.247140304e-12,1.746817782e-12,4.9505612e-12,1.291750703e-12,8.21574096e-13,1.056957591e-12,5.685821081e-13
0.6328125,3.113947017e-13,7.1992467e-13,2.143838963e-13,6.969208535e-13,7.973317249e-13,5.295973478e-13,1.772412201e-13,5.006757056e-13,2.29000595e-13,2.40916863e-13,1.107042322e-12,5.065073217e-13,4.778252981e-13,1.221078244e-12,1.409790451e-12,8.789592841e-13,3.539662649e-13,2.6220741e-13,1.320049365e-13,1.756692467e-13,3.0277342e-14,2.662004758e-13,3.291717753e-13,4.006491107e-13,5.053512841e-13,1.198019923e-12,1.704783038e-12,4.795717823e-12,1.283110146e-12,7.90278144e-13,1.04118833e-12,5.50615994e-13
0.640625,3.022988786e-13,7.154111633e-13,2.161664897e-13,7.022239358e-13,7.726527914e-13,5.12643467e-13,1.694231186e-13,4.968036249e-13,2.401937088e-13,2.399673428e-13,1.070944214e-12,5.025462886e-13,4.89323731e-13,1.198066738e-12,1.371919615e-12,8.501412643e-13,3.352020027e-13,2.563574299e-13,1.320635624e-13,1.634888254e-13,2.901634006e-14,2.55584489e-13,3.069436481e-13,3.935890442e-13,4.972187968e-13,1.149636036e-12,1.662029798e-12,4.644771117e-12,1.273177981e-12,7.601231361e-13,1.025445536e-12,5.342144441e-13
0.6484375,2.937418667e-13,7.114648228e-13,2.17204757e-13,7.082664955e-13,7.488052633e-13,4.954113097e-13,1.622675391e-13,4.920160347e-13,2.515820439e-13,2.3865508e-13,1.037370687e-12,4.987612892e-13,5.009136177e-13,1.174787585e-12,1.333859738e-12,8.208435355e-13,3.170077632e-13,2.506247583e-13,1.323093319e-13,1.520230788e-13,2.803420682e-14,2.459399668e-13,2.863104114e-13,3.862152155e-13,4.893435921e-13,1.10202718e-12,1.618462914e-12,4.494608075e-12,1.262400221e-12,7.312429481e-13,1.0095577e-12,5.192124562e-13
0.65625,2.851339026e-13,7.073907265e-13,2.177058636e-13,7.134416381e-13,7.247533326e-13,4.77719767e-13,1.554784392e-13,4.857282635e-13,2.627775262e-13,2.369530263e-13,1.005178147e-12,4.947499613e-13,5.117168129e-13,1.150968497e-12,1.295726544e-12,7.91861981e-13,2.99524155e-13,2.448765153e-13,1.323960219e-13,1.410126904e-13,2.721539399e-14,2.370669108e-13,2.672783423e-13,3.787050438e-13,4.820580173e-13,1.055406798e-12,1.574577089e-12,4.348547319e-12,1.250452669e-12,7.040902678e-13,9.929797668e-13,5.049268895e-13
0.6640625,2.759160859e-13,7.040663117e-13,2.178467779e-13,7.183824942e-13,7.000785491e-13,4.597290183e-13,1.489836477e-13,4.777896828e-13,2.737144554e-13,2.350484434e-13,9.73560592e-13,4.904757181e-13,5.214873265e-13,1.126438528e-12,1.257288666e-12,7.632010977e-13,2.826937222e-13,2.392952822e-13,1.322383015e-13,1.305541924e-13,2.649274502e-14,2.289009544e-13,2.498405415e-13,3.706559034e-13,4.751433894e-13,1.009892222e-12,1.530707637e-12,4.20667837e-12,1.237448671e-12,6.777998241e-13,9.762275406e-13,4.911864306e-13
0.671875,2.663818245e-13,7.013949869e-13,2.18091416e-13,7.231598749e-13,6.748970661e-13,4.406885183e-13,1.429547921e-13,4.69098445e-13,2.844786312e-13,2.333103768e-13,9.43392093e-13,4.863797844e-13,5.304341151e-13,1.10158278e-12,1.218673826e-12,7.342757017e-13,2.665008032e-13,2.340778769e-13,1.319253969e-13,1.208391456e-13,2.577656916e-14,2.212715096e-13,2.338239531e-13,3.625714459e-13,4.688414044e-13,9.653092589e-13,1.486552508e-12,4.065224529e-12,1.223464917e-12,6.525210216e-13,9.591058321e-13,4.783792205e-13
0.6796875,2.569460261e-13,6.985929521e-13,2.181670428e-13,7.273395977e-13,6.495242957e-13,4.223821502e-13,1.375341766e-13,4.606428757e-13,2.950824102e-13,2.316781957e-13,9.153147513e-13,4.823555706e-13,5.385445209e-13,1.076429722e-12,1.180365165e-12,7.053842302e-13,2.510733723e-13,2.289306921e-13,1.314049121e-13,1.118718225e-13,2.512740967e-14,2.141455695e-13,2.188030924e-13,3.554867637e-13,4.634598808e-13,9.21638574e-13,1.44216956e-12,3.925619704e-12,1.208250758e-12,6.293932952e-13,9.41115646e-13,4.666464143e-13
0.6875,2.476708068e-13,6.961876443e-13,2.172836043e-13,7.319551968e-13,6.245926677e-13,4.05795937e-13,1.326114203e-13,4.524334041e-13,3.055362455e-13,2.299776639e-13,8.886930972e-13,4.782520218e-13,5.457565593e-13,1.050691596e-12,1.142336342e-12,6.768167176e-13,2.36252365e-13,2.234837471e-13,1.306307585e-13,1.037004525e-13,2.471043939e-14,2.076305947e-13,2.046135932e-13,3.492385796e-13,4.580189917e-13,8.789550955e-13,1.397627017e-12,3.787612249e-12,1.191908596e-12,6.083238243e-13,9.229698602e-13,4.557814267e-13
0.6953125,2.38509854e-13,6.937902613e-13,2.157948147e-13,7.358907963e-13,5.998445355e-13,3.888245728e-13,1.279585538e-13,4.438536063e-13,3.155393636e-13,2.284073649e-13,8.625207532e-13,4.743201476e-13,5.519409711e-13,1.02510251e-12,1.104699857e-12,6.484615044e-13,2.220472385e-13,2.180069783e-13,1.297807378e-13,9.613478504e-14,2.449776415e-14,2.016738691e-13,1.917207763e-13,3.433270958e-13,4.523729674e-13,8.373881098e-13,1.352776479e-12,3.650564782e-12,1.174581734e-12,5.892203607e-13,9.046616474e-13,4.4541542e-13
0.703125,2.291304337e-13,6.908280132e-13,2.144014933e-13,7.379907952e-13,5.745919659e-13,3.716397936e-13,1.235652413e-13,4.333158423e-13,3.250263813e-13,2.265740133e-13,8.370005228e-13,4.70083826e-13,5.570334494e-13,9.991569973e-13,1.066994693e-12,6.201087416e-13,2.084757061e-13,2.126950915e-13,1.288274592e-13,8.878846867e-14,2.435835133e-14,1.962308557e-13,1.800972204e-13,3.375115018e-13,4.472447962e-13,7.970118573e-13,1.308156983e-12,3.519810852e-12,1.155706549e-12,5.706164347e-13,8.855888831e-13,4.357217811e-13
0.7109375,2.194322279e-13,6.880314735e-13,2.129223575e-13,7.395406454e-13,5.490588267e-13,3.555546455e-13,1.194332643e-13,4.211084459e-13,3.341112324e-13,2.245329866e-13,8.128684815e-13,4.654561927e-13,5.608329248e-13,9.726844717e-13,1.029416815e-12,5.919406388e-13,1.954700275e-13,2.07404747e-13,1.275857934e-13,8.189303193e-14,2.430280954e-14,1.912170041e-13,1.694368392e-13,3.317641167e-13,4.426073728e-13,7.578984248e-13,1.264391649e-12,3.395058007e-12,1.135504663e-12,5.513361332e-13,8.663045025e-13,4.267148447e-13
0.71875,2.098224384e-13,6.852649027e-13,2.113580367e-13,7.404207366e-13,5.235995931e-13,3.403578803e-13,1.155825045e-13,4.087678839e-13,3.427256299e-13,2.225788888e-13,7.903107239e-13,4.607560968e-13,5.634920151e-13,9.460846923e-13,9.920917826e-13,5.638720187e-13,1.830223526e-13,2.022762722e-13,1.262421194e-13,7.575449034e-14,2.439266709e-14,1.866185e-13,1.595478697e-13,3.262889227e-13,4.372964948e-13,7.198503052e-13,1.220183399e-12,3.26801849e-12,1.114002566e-12,5.332513129e-13,8.466356722e-13,4.181667233e-13
0.7265625,2.005699339e-13,6.823955421e-13,2.093143364e-13,7.404172859e-13,4.985504078e-13,3.260131663e-13,1.121129379e-13,3.968275663e-13,3.508919215e-13,2.208356047e-13,7.691192239e-13,4.561750506e-13,5.656683113e-13,9.195127781e-13,9.544451829e-13,5.354126744e-13,1.710558288e-13,1.972321957e-13,1.25019229e-13,7.015814828e-14,2.462365269e-14,1.825490542e-13,1.504758741e-13,3.213206334e-13,4.314665426e-13,6.827925336e-13,1.174811843e-12,3.138871294e-12,1.091542928e-12,5.178103475e-13,8.263257577e-13,4.102949742e-13
0.734375,1.915747611e-13,6.799123928e-13,2.064550893e-13,7.404652078e-13,4.741633796e-13,3.121157231e-13,1.090024239e-13,3.852625413e-13,3.587207714e-13,2.192664141e-13,7.492269155e-13,4.516316681e-13,5.674126004e-13,8.928721256e-13,9.167936935e-13,5.068448283e-13,1.596707998e-13,1.920719759e-13,1.237959344e-13,6.515857762e-14,2.498961446e-14,1.790864521e-13,1.423545438e-13,3.170484294e-13,4.259854477e-13,6.468076843e-13,1.129441291e-12,3.014407762e-12,1.068552229e-12,5.033996936e-13,8.061085617e-13,4.031842457e-13
0.7421875,1.828488488e-13,6.77179261e-13,2.034447378e-13,7.39979588e-13,4.505886697e-13,2.985086755e-13,1.060747576e-13,3.734757937e-13,3.657854468e-13,2.173559388e-13,7.310097937e-13,4.467863866e-13,5.68109525e-13,8.663750039e-13,8.803095397e-13,4.792198717e-13,1.489877869e-13,1.869365646e-13,1.224612063e-13,6.070599938e-14,2.542750622e-14,1.760308637e-13,1.351350192e-13,3.130299705e-13,4.200065627e-13,6.121471145e-13,1.084651094e-12,2.896033268e-12,1.044606271e-12,4.891640541e-13,7.862360799e-13,3.963407757e-13
0.75,1.74606611e-13,6.736693951e-13,2.003135817e-13,7.383531993e-13,4.28134841e-13,2.860702783e-13,1.032605431e-13,3.60327396e-13,3.717726733e-13,2.148411824e-13,7.138319496e-13,4.41505044e-13,5.676915846e-13,8.402097997e-13,8.44962915e-13,4.525875602e-13,1.385521125e-13,1.816588227e-13,1.209584167e-13,5.640328583e-14,2.582047647e-14,1.730394665e-13,1.285836712e-13,3.087049408e-13,4.128567184e-13,5.792454235e-13,1.040314007e-12,2.782629318e-12,1.019702161e-12,4.758022693e-13,7.665909262e-13,3.897042899e-13
0.7578125,1.668886106e-13,6.696441261e-13,1.964388078e-13,7.353481397e-13,4.063273211e-13,2.745527447e-13,1.007163129e-13,3.467061852e-13,3.771555365e-13,2.123557282e-13,6.969576091e-13,4.360342134e-13,5.663534944e-13,8.140231488e-13,8.098627713e-13,4.262441756e-13,1.283341683e-13,1.760089916e-13,1.191720737e-13,5.255822827e-14,2.627559278e-14,1.701589231e-13,1.225303545e-13,3.051404403e-13,4.054277045e-13,5.480186244e-13,9.963809379e-13,2.672730622e-12,9.941064335e-13,4.633921027e-13,7.467232478e-13,3.835275966e-13
0.765625,1.59471582e-13,6.654078336e-13,1.91907882e-13,7.310300228e-13,3.845495764e-13,2.635284501e-13,9.851707727e-14,3.344095569e-13,3.821187293e-13,2.100612435e-13,6.805344902e-13,4.303305943e-13,5.638773174e-13,7.875041958e-13,7.750483681e-13,4.005171235e-13,1.190795752e-13,1.703618063e-13,1.172366517e-13,4.958729561e-14,2.699949815e-14,1.676656813e-13,1.170338261e-13,3.032348175e-13,3.979373573e-13,5.17861862e-13,9.524732911e-13,2.56384393e-12,9.674650809e-13,4.514932338e-13,7.261619926e-13,3.776558695e-13
0.7734375,1.522683799e-13,6.611339403e-13,1.870925361e-13,7.267865788e-13,3.636178392e-13,2.529438773e-13,9.645204411e-14,3.230748619e-13,3.862490478e-13,2.07627434e-13,6.644300941e-13,4.243708398e-13,5.604485967e-13,7.612337657e-13,7.413071627e-13,3.761139775e-13,1.108712981e-13,1.650380831e-13,1.154743369e-13,4.710338877e-14,2.787981677e-14,1.655252881e-13,1.123295274e-13,3.020320247e-13,3.901239569e-13,4.888439261e-13,9.089143341e-13,2.457083336e-12,9.401469032e-13,4.399811954e-13,7.058916592e-13,3.718817744e-13
0.78125,1.452476654e-13,6.563314218e-13,1.825477799e-13,7.220716342e-13,3.439550913e-13,2.429765112e-13,9.452475662e-14,3.118335007e-13,3.89526407e-13,2.053191441e-13,6.502093088e-13,4.183907731e-13,5.565824954e-13,7.353062472e-13,7.082010742e-13,3.525737001e-13,1.032078895e-13,1.598691354e-13,1.137519924e-13,4.471965557e-14,2.881233967e-14,1.635245711e-13,1.081521536e-13,3.010715237e-13,3.823604477e-13,4.614210333e-13,8.663964927e-13,2.354958848e-12,9.127464152e-13,4.295598059e-13,6.863406845e-13,3.662623218e-13
0.7890625,1.384358042e-13,6.503617803e-13,1.777003985e-13,7.151682963e-13,3.247621747e-13,2.335561855e-13,9.2709206e-14,3.010778361e-13,3.918712165e-13,2.032953527e-13,6.387953329e-13,4.123192867e-13,5.517324229e-13,7.098679743e-13,6.754842523e-13,3.297210022e-13,9.600835607e-14,1.546097904e-13,1.116862705e-13,4.253102412e-14,2.981372722e-14,1.613796271e-13,1.043214354e-13,3.005060534e-13,3.744187188e-13,4.35632374e-13,8.24976608e-13,2.257768431e-12,8.850771116e-13,4.196830993e-13,6.666684138e-13,3.60331971e-13
0.796875,1.318340795e-13,6.441316875e-13,1.720780238e-13,7.069895025e-13,3.05767803e-13,2.245400091e-13,9.083109302e-14,2.910387978e-13,3.932823719e-13,2.015189886e-13,6.275308073e-13,4.059326942e-13,5.453877508e-13,6.848643701e-13,6.438929609e-13,3.082045688e-13,8.953508716e-14,1.493473525e-13,1.092613777e-13,4.086359414e-14,3.091031995e-14,1.590391022e-13,1.008526444e-13,3.005770223e-13,3.658706784e-13,4.110976557e-13,7.845484687e-13,2.164602786e-12,8.569315513e-13,4.09289102e-13,6.471471105e-13,3.539477548e-13
0.8046875,1.254732909e-13,6.375113166e-13,1.661061917e-13,6.979187495e-13,2.874510358e-13,2.159170504e-13,8.893829327e-14,2.813535705e-13,3.940000808e-13,2.00261608e-13,6.15822378e-13,3.996409651e-13,5.380754032e-13,6.603748693e-13,6.137112477e-13,2.88078735e-13,8.390418201e-14,1.441104284e-13,1.066392854e-13,3.990205956e-14,3.209850225e-14,1.566121145e-13,9.771286794e-14,3.015297454e-13,3.572718863e-13,3.877764712e-13,7.452451987e-13,2.073300155e-12,8.287668964e-13,3.993883697e-13,6.281725047e-13,3.475614517e-13
0.8125,1.194026409e-13,6.301224749e-13,1.599472585e-13,6.878104449e-13,2.700839294e-13,2.086701989e-13,8.726237602e-14,2.716834109e-13,3.942706673e-13,1.994559157e-13,6.050665087e-13,3.936017222e-13,5.304099986e-13,6.36509863e-13,5.842307977e-13,2.687228058e-13,7.877009066e-14,1.387529927e-13,1.038352556e-13,3.929311513e-14,3.347234252e-14,1.54112656e-13,9.480176772e-14,3.032810636e-13,3.4884828e-13,3.656254718e-13,7.068472973e-13,1.983027458e-12,8.009948735e-13,3.908791308e-13,6.094814665e-13,3.413715662e-13
0.8203125,1.136962386e-13,6.225554592e-13,1.537360459e-13,6.772503782e-13,2.536978712e-13,2.023906561e-13,8.56906892e-14,2.620768625e-13,3.940583687e-13,1.987686159e-13,5.949416884e-13,3.875495623e-13,5.223958848e-13,6.133312337e-13,5.554245307e-13,2.500606403e-13,7.380043233e-14,1.332947611e-13,1.008979479e-13,3.855390769e-14,3.500909602e-14,1.515344115e-13,9.214718985e-14,3.056378114e-13,3.398670403e-13,3.445552261e-13,6.694401943e-13,1.89509931e-12,7.735763307e-13,3.825613541e-13,5.9145335e-13,3.350362689e-13
0.828125,1.085431706e-13,6.14638941e-13,1.477155961e-13,6.656033196e-13,2.382537528e-13,1.958642473e-13,8.405954914e-14,2.527864146e-13,3.930780598e-13,1.981432826e-13,5.859776602e-13,3.814582604e-13,5.137404549e-13,5.909298729e-13,5.279943255e-13,2.325397532e-13,6.926023209e-14,1.279799124e-13,9.786620953e-14,3.793145861e-14,3.653061623e-14,1.488567902e-13,8.967694599e-14,3.084404405e-13,3.30266352e-13,3.246823761e-13,6.332364164e-13,1.810742772e-12,7.462911819e-13,3.741308682e-13,5.740958474e-13,3.284648495e-13
0.8359375,1.040174327e-13,6.065446054e-13,1.41534231e-13,6.532410927e-13,2.239635786e-13,1.898093701e-13,8.241262754e-14,2.438692942e-13,3.911682619e-13,1.977480083e-13,5.789014488e-13,3.75385485e-13,5.042627653e-13,5.694062346e-13,5.020859218e-13,2.162986774e-13,6.546683039e-14,1.230716413e-13,9.473880365e-14,3.781905876e-14,3.802415354e-14,1.460104231e-13,8.732785371e-14,3.112574836e-13,3.206449095e-13,3.060071072e-13,5.979528689e-13,1.731571481e-12,7.19195521e-13,3.664135917e-13,5.573302295e-13,3.217888651e-13
0.84375,9.976016285e-14,5.98817265e-13,1.350408157e-13,6.411544213e-13,2.10805006e-13,1.847241694e-13,8.069959978e-14,2.356179106e-13,3.884381624e-13,1.978391604e-13,5.728867565e-13,3.693410374e-13,4.94193752e-13,5.486909474e-13,4.77450857e-13,2.01234297e-13,6.236660723e-14,1.186538515e-13,9.169981444e-14,3.7794749e-14,3.960091286e-14,1.432380378e-13,8.538153365e-14,3.142325082e-13,3.107551229e-13,2.885043888e-13,5.636755125e-13,1.656904778e-12,6.923759394e-13,3.593252804e-13,5.416271174e-13,3.148864653e-13
0.8515625,9.545343681e-14,5.90636522e-13,1.285722484e-13,6.28081413e-13,1.9830953e-13,1.802309808e-13,7.891956308e-14,2.283869972e-13,3.848960621e-13,1.982569436e-13,5.681228999e-13,3.633186391e-13,4.839869997e-13,5.287805264e-13,4.540962957e-13,1.873986736e-13,5.987094219e-14,1.14599951e-13,8.890911453e-14,3.759290617e-14,4.127946297e-14,1.407099544e-13,8.396428089e-14,3.174738705e-13,3.0038349e-13,2.722978662e-13,5.308769173e-13,1.583300206e-12,6.660206753e-13,3.525054079e-13,5.26526876e-13,3.078242069e-13
0.859375,9.144138381e-14,5.820411585e-13,1.222980123e-13,6.140481267e-13,1.866885538e-13,1.765811718e-13,7.715597863e-14,2.221027955e-13,3.806221316e-13,1.988155071e-13,5.646416752e-13,3.573284123e-13,4.737466973e-13,5.099063903e-13,4.321888007e-13,1.748822565e-13,5.803626646e-14,1.108352631e-13,8.623982387e-14,3.770625614e-14,4.313210705e-14,1.380702008e-13,8.268319729e-14,3.205552959e-13,2.903139234e-13,2.573186524e-13,4.996469787e-13,1.511484555e-12,6.406921977e-13,3.457182204e-13,5.118480639e-13,3.007515619e-13
0.8671875,8.812746438e-14,5.742270381e-13,1.161018866e-13,6.008013242e-13,1.763662929e-13,1.736632394e-13,7.534551682e-14,2.169292434e-13,3.760246309e-13,1.999481341e-13,5.614261515e-13,3.51512061e-13,4.631220776e-13,4.918909624e-13,4.116482397e-13,1.636156709e-13,5.686172666e-14,1.07384241e-13,8.355834393e-14,3.813987836e-14,4.529192139e-14,1.352061932e-13,8.132665458e-14,3.243290129e-13,2.807884469e-13,2.434137146e-13,4.699936009e-13,1.444988885e-12,6.162247388e-13,3.386040836e-13,4.984114314e-13,2.934615948e-13
0.875,8.535556755e-14,5.668891122e-13,1.100026252e-13,5.878862199e-13,1.669519561e-13,1.712642272e-13,7.351301396e-14,2.129113052e-13,3.710996463e-13,2.015320366e-13,5.585175084e-13,3.457805542e-13,4.519378907e-13,4.743961139e-13,3.922377113e-13,1.533661112e-13,5.613549215e-14,1.043015999e-13,8.096726542e-14,3.853557755e-14,4.764959137e-14,1.323547435e-13,8.010801272e-14,3.295215264e-13,2.712969047e-13,2.305551237e-13,4.419321717e-13,1.384001101e-12,5.919630699e-13,3.313535448e-13,4.859156434e-13,2.860003331e-13
0.8828125,8.293242763e-14,5.591337948e-13,1.045750668e-13,5.739696963e-13,1.581691372e-13,1.69665779e-13,7.168020973e-14,2.093649487e-13,3.653879315e-13,2.030487002e-13,5.562850846e-13,3.399393137e-13,4.405519033e-13,4.578626245e-13,3.74190955e-13,1.441503656e-13,5.577643228e-14,1.016796608e-13,7.855486375e-14,3.905993858e-14,4.999649154e-14,1.294778057e-13,7.901496256e-14,3.349114063e-13,2.620761494e-13,2.187543532e-13,4.154502372e-13,1.327068298e-12,5.684149364e-13,3.244663349e-13,4.73720899e-13,2.786508186e-13
0.890625,8.085153593e-14,5.508854187e-13,9.982492486e-14,5.591129832e-13,1.50205773e-13,1.687898519e-13,6.963088216e-14,2.061324177e-13,3.589035884e-13,2.050546459e-13,5.552662177e-13,3.342904487e-13,4.291399368e-13,4.42736692e-13,3.57851932e-13,1.362232318e-13,5.589823734e-14,9.942212812e-14,7.616097131e-14,3.978867787e-14,5.239603048e-14,1.265130854e-13,7.791627554e-14,3.400282004e-13,2.536948308e-13,2.081562421e-13,3.908873038e-13,1.273104896e-12,5.462171395e-13,3.177526797e-13,4.621810583e-13,2.71329024e-13
0.8984375,7.898689251e-14,5.42471497e-13,9.46857798e-14,5.441439701e-13,1.43101138e-13,1.68448023e-13,6.737462514e-14,2.036130605e-13,3.519460174e-13,2.079217172e-13,5.556747225e-13,3.290927573e-13,4.174676525e-13,4.287559668e-13,3.428355349e-13,1.292987141e-13,5.64216785e-14,9.737374203e-14,7.366450899e-14,4.06639605e-14,5.495903799e-14,1.234841427e-13,7.699267426e-14,3.454499325e-13,2.456106453e-13,1.987555666e-13,3.681255687e-13,1.221349988e-12,5.249279402e-13,3.10840018e-13,4.515452495e-13,2.639633984e-13
0.90625,7.732046334e-14,5.342006488e-13,8.898655496e-14,5.29230776e-13,1.367623638e-13,1.683692706e-13,6.520094115e-14,2.016780022e-13,3.445426709e-13,2.109947167e-13,5.562212815e-13,3.240032371e-13,4.056426558e-13,4.156259267e-13,3.285605281e-13,1.229236478e-13,5.734252293e-14,9.56590777e-14,7.119610113e-14,4.185354249e-14,5.762109083e-14,1.202888517e-13,7.628229452e-14,3.507815828e-13,2.369377225e-13,1.901620484e-13,3.461994498e-13,1.171785728e-12,5.041925227e-13,3.041190737e-13,4.416011833e-13,2.567154448e-13
0.9140625,7.602946243e-14,5.258452322e-13,8.353189248e-14,5.135605547e-13,1.309834126e-13,1.684589706e-13,6.318985232e-14,2.003100187e-13,3.367201809e-13,2.141308506e-13,5.566968854e-13,3.187072274e-13,3.938786284e-13,4.030937313e-13,3.148767411e-13,1.171900505e-13,5.878425737e-14,9.442745167e-14,6.88553708e-14,4.315065827e-14,6.041570829e-14,1.169390986e-13,7.556491083e-14,3.560108532e-13,2.282268104e-13,1.821101413e-13,3.248771392e-13,1.123840926e-12,4.840835181e-13,2.977919101e-13,4.319477009e-13,2.496872265e-13
0.921875,7.512732916e-14,5.175251136e-13,7.847196358e-14,4.97449594e-13,1.257486321e-13,1.69290193e-13,6.124409513e-14,1.998383372e-13,3.285490884e-13,2.177195554e-13,5.58027127e-13,3.13333031e-13,3.820466548e-13,3.910581612e-13,3.020000527e-13,1.122466195e-13,6.056833764e-14,9.365807038e-14,6.666857449e-14,4.425957489e-14,6.343051057e-14,1.136294884e-13,7.483858477e-14,3.618647849e-13,2.203362526e-13,1.746841827e-13,3.048507476e-13,1.077124421e-12,4.647109276e-13,2.912324548e-13,4.226127579e-13,2.429397604e-13
0.9296875,7.453547212e-14,5.101335057e-13,7.357475307e-14,4.822353548e-13,1.213367187e-13,1.70848236e-13,5.927044836e-14,2.002041368e-13,3.200302096e-13,2.218285799e-13,5.6014485e-13,3.0805025e-13,3.702397199e-13,3.798941332e-13,2.903478423e-13,1.081839609e-13,6.253782924e-14,9.330338813e-14,6.47249661e-14,4.538856322e-14,6.657079413e-14,1.104850794e-13,7.417459403e-14,3.682419281e-13,2.128408228e-13,1.680708762e-13,2.862640209e-13,1.033119829e-12,4.462930992e-13,2.844062972e-13,4.142523865e-13,2.365157801e-13
0.9375,7.433455475e-14,5.036099477e-13,6.882176472e-14,4.678014025e-13,1.176287023e-13,1.725747249e-13,5.725426254e-14,2.013508686e-13,3.113394067e-13,2.263423494e-13,5.628678232e-13,3.028341511e-13,3.586708043e-13,3.697580288e-13,2.799396387e-13,1.050359558e-13,6.477815905e-14,9.332955831e-14,6.297495248e-14,4.67798041e-14,6.978460406e-14,1.073515939e-13,7.352227073e-14,3.748829003e-13,2.055704663e-13,1.623314902e-13,2.688522299e-13,9.930083957e-13,4.288443738e-13,2.779955659e-13,4.067804017e-13,2.304544605e-13
0.9453125,7.456285175e-14,4.973103816e-13,6.427777878e-14,4.534044869e-13,1.143784073e-13,1.745509281e-13,5.533139871e-14,2.033889572e-13,3.026718999e-13,2.311202926e-13,5.658456707e-13,2.978117263e-13,3.472235034e-13,3.605344938e-13,2.705124618e-13,1.025378308e-13,6.735512036e-14,9.378512332e-14,6.127624339e-14,4.837276829e-14,7.313468002e-14,1.040499997e-13,7.293382239e-14,3.817059264e-13,1.989560227e-13,1.573118533e-13,2.526556481e-13,9.555645153e-13,4.124036332e-13,2.72110167e-13,3.997283708e-13,2.247793971e-13
0.953125,7.504036411e-14,4.91458511e-13,6.002471332e-14,4.391748608e-13,1.116875106e-13,1.770477334e-13,5.355330476e-14,2.063889053e-13,2.939544091e-13,2.362789508e-13,5.689750255e-13,2.931543584e-13,3.358663099e-13,3.521103629e-13,2.619806058e-13,1.006056534e-13,7.031321685e-14,9.482729056e-14,5.974796019e-14,4.991281225e-14,7.665587526e-14,1.008018238e-13,7.253045144e-14,3.885045168e-13,1.927588585e-13,1.528467626e-13,2.375987644e-13,9.190960713e-13,3.970821812e-13,2.663876933e-13,3.933391053e-13,2.194213854e-13
0.9609375,7.573976216e-14,4.863330561e-13,5.608713574e-14,4.25460658e-13,1.094863843e-13,1.80259416e-13,5.182875349e-14,2.105650848e-13,2.851642699e-13,2.418529606e-13,5.72390787e-13,2.884608908e-13,3.247682894e-13,3.439044674e-13,2.53897207e-13,9.925936339e-14,7.359996414e-14,9.653055884e-14,5.861680609e-14,5.138919193e-14,8.042852908e-14,9.782228178e-14,7.225980277e-14,3.959147866e-13,1.869154878e-13,1.487745749e-13,2.233371333e-13,8.839417509e-13,3.823874312e-13,2.603767823e-13,3.874700387e-13,2.143977007e-13
0.96875,7.690890705e-14,4.817900115e-13,5.255003702e-14,4.123704105e-13,1.076913915e-13,1.841575166e-13,5.01931703e-14,2.157062709e-13,2.764429319e-13,2.473760435e-13,5.750301488e-13,2.833665025e-13,3.139551969e-13,3.356672577e-13,2.461110265e-13,9.84161833e-14,7.713053439e-14,9.874361857e-14,5.781329229e-14,5.311818042e-14,8.443201622e-14,9.502170915e-14,7.193533658e-14,4.042784179e-13,1.816525404e-13,1.45060671e-13,2.098495961e-13,8.517018511e-13,3.680294798e-13,2.539408706e-13,3.817187139e-13,2.099155968e-13
0.9765625,7.854791429e-14,4.776683309e-13,4.934332439e-14,3.997544596e-13,1.064841602e-13,1.882479426e-13,4.872479911e-14,2.214498714e-13,2.677241294e-13,2.529071563e-13,5.774094357e-13,2.783211996e-13,3.032636316e-13,3.280582878e-13,2.39433003e-13,9.828280803e-14,8.100704194e-14,1.013323705e-13,5.714321582e-14,5.503536887e-14,8.85255171e-14,9.237766483e-14,7.156183126e-14,4.122748417e-13,1.767178847e-13,1.420422483e-13,1.975120673e-13,8.22802371e-13,3.544600554e-13,2.477050046e-13,3.763785729e-13,2.062181476e-13
0.984375,8.040081167e-14,4.740159397e-13,4.604053663e-14,3.87695708e-13,1.05819621e-13,1.923387083e-13,4.736413885e-14,2.280979131e-13,2.589085516e-13,2.588535864e-13,5.814755495e-13,2.736806249e-13,2.925942503e-13,3.213575e-13,2.339758936e-13,9.881856447e-14,8.529433774e-14,1.044220547e-13,5.664357622e-14,5.686124497e-14,9.268542953e-14,8.981826754e-14,7.125339402e-14,4.193150106e-13,1.720833625e-13,1.397268522e-13,1.863246594e-13,7.965155606e-13,3.417217774e-13,2.420543242e-13,3.716290651e-13,2.033058299e-13
0.9921875,8.242998166e-14,4.713048706e-13,4.266216458e-14,3.766451893e-13,1.055179981e-13,1.965850484e-13,4.602788238e-14,2.355789471e-13,2.501944322e-13,2.648710301e-13,5.865057947e-13,2.691955759e-13,2.821550179e-13,3.152651382e-13,2.289719066e-13,9.960413119e-14,8.983437531e-14,1.080897414e-13,5.638453493e-14,5.868022626e-14,9.682102528e-14,8.719029294e-14,7.087307245e-14,4.263896837e-13,1.678868144e-13,1.376032859e-13,1.757787485e-13,7.72760608e-13,3.295832703e-13,2.366245823e-13,3.673570596e-13,2.008339002e-13
1,8.469826465e-14,4.695119604e-13,3.976356456e-14,3.663692269e-13,1.055128779e-13,2.011774359e-13,4.468608607e-14,2.433113039e-13,2.416584574e-13,2.707206721e-13,5.908571057e-13,2.647200377e-13,2.72049751e-13,3.096277421e-13,2.242532761e-13,1.006239706e-13,9.436478341e-14,1.121435834e-13,5.629857166e-14,6.053921201e-14,1.008896342e-13,8.459643877e-14,7.037441713e-14,4.335850079e-13,1.640945471e-13,1.355652861e-13,1.657021207e-13,7.513560688e-13,3.18123067e-13,2.310877301e-13,3.634113157e-13,1.985583006e-13
1.0078125,8.71885055e-14,4.679762084e-13,3.737828394e-14,3.564358499e-13,1.057870982e-13,2.060215151e-13,4.336105859e-14,2.513571007e-13,2.331134456e-13,2.765997012e-13,5.937889223e-13,2.603782524e-13,2.620499773e-13,3.044419425e-13,2.200219763e-13,1.020205471e-13,9.876356913e-14,1.163945079e-13,5.64176353e-14,6.242735901e-14,1.051179943e-13,8.213311883e-14,6.991637653e-14,4.401037807e-13,1.606555243e-13,1.337993808e-13,1.562113259e-13,7.298663257e-13,3.072564639e-13,2.25361788e-13,3.594723564e-13,1.965400131e-13
1.015625,8.999456816e-14,4.667306425e-13,3.511618658e-14,3.471901908e-13,1.06459417e-13,2.103738688e-13,4.213493724e-14,2.59905564e-13,2.245985498e-13,2.824224771e-13,5.952916569e-13,2.563112496e-13,2.521407225e-13,2.99886845e-13,2.163237365e-13,1.037666101e-13,1.032236789e-13,1.208361273e-13,5.674656461e-14,6.450954735e-14,1.094669659e-13,7.973787533e-14,6.940936858e-14,4.461917388e-13,1.573062319e-13,1.323559857e-13,1.472310094e-13,7.072866649e-13,2.969227316e-13,2.197951922e-13,3.556316439e-13,1.949222817e-13
1.0234375,9.324499155e-14,4.659869296e-13,3.294704844e-14,3.386997693e-13,1.075273177e-13,2.144656048e-13,4.109785856e-14,2.68927711e-13,2.162988065e-13,2.881495301e-13,5.965609979e-13,2.524932467e-13,2.423476182e-13,2.960053431e-13,2.13223663e-13,1.058902057e-13,1.079612351e-13,1.254660886e-13,5.707088075e-14,6.673606407e-14,1.137259642e-13,7.746124873e-14,6.885286498e-14,4.527500997e-13,1.541718269e-13,1.313644128e-13,1.389102688e-13,6.875227674e-13,2.871471065e-13,2.146893673e-13,3.521160298e-13,1.939605465e-13
1.03125,9.685783828e-14,4.655826535e-13,3.099731486e-14,3.306307207e-13,1.088649949e-13,2.194843178e-13,4.029350751e-14,2.782938066e-13,2.082037102e-13,2.937299767e-13,5.975366567e-13,2.487874841e-13,2.324895941e-13,2.92599012e-13,2.10853607e-13,1.084502244e-13,1.129761888e-13,1.301627597e-13,5.734660573e-14,6.902988406e-14,1.179886127e-13,7.539450312e-14,6.849188976e-14,4.595959533e-13,1.515482922e-13,1.308240442e-13,1.314325453e-13,6.718903615e-13,2.777378005e-13,2.095276362e-13,3.487425971e-13,1.937326338e-13
1.0390625,1.006094321e-13,4.657921447e-13,2.928551971e-14,3.230721068e-13,1.104434048e-13,2.250671999e-13,3.968134672e-14,2.876642194e-13,2.003047176e-13,2.991752192e-13,5.978880882e-13,2.453245442e-13,2.227133157e-13,2.897173721e-13,2.092390748e-13,1.114632449e-13,1.182444772e-13,1.350346136e-13,5.776034041e-14,7.156638784e-14,1.222604291e-13,7.350519062e-14,6.833854933e-14,4.658993898e-13,1.491088798e-13,1.305876038e-13,1.244704433e-13,6.561175105e-13,2.688112458e-13,2.044519401e-13,3.454510499e-13,1.939875512e-13
1.046875,1.044708154e-13,4.666269437e-13,2.78047066e-14,3.160358469e-13,1.120756028e-13,2.304208267e-13,3.923018015e-14,2.973518525e-13,1.928069081e-13,3.049107277e-13,5.985173493e-13,2.422218149e-13,2.132639782e-13,2.871943457e-13,2.079882979e-13,1.148496628e-13,1.237916481e-13,1.402701387e-13,5.829406358e-14,7.43402218e-14,1.265365225e-13,7.169820903e-14,6.839400223e-14,4.719774283e-13,1.469005117e-13,1.306338162e-13,1.178208712e-13,6.400304483e-13,2.605702103e-13,2.002767949e-13,3.422447552e-13,1.948141415e-13
1.0546875,1.086247514e-13,4.675750271e-13,2.644008822e-14,3.095334819e-13,1.1375007e-13,2.355989163e-13,3.901514083e-14,3.075625716e-13,1.859474921e-13,3.107070394e-13,5.981399327e-13,2.392669271e-13,2.041050641e-13,2.845550071e-13,2.068640949e-13,1.185757822e-13,1.295438682e-13,1.455118257e-13,5.882596293e-14,7.718801754e-14,1.30978178e-13,6.999055591e-14,6.866913076e-14,4.78155172e-13,1.451238868e-13,1.309063623e-13,1.116219694e-13,6.267940652e-13,2.526975963e-13,1.961500437e-13,3.39089478e-13,1.964619956e-13
1.0625,1.129946819e-13,4.686652886e-13,2.520108723e-14,3.037661813e-13,1.157340817e-13,2.402703422e-13,3.903100501e-14,3.17499784e-13,1.796948858e-13,3.160353137e-13,5.961481155e-13,2.364345213e-13,1.952067896e-13,2.818195302e-13,2.060933378e-13,1.226296104e-13,1.352500664e-13,1.50483459e-13,5.938308453e-14,8.011327038e-14,1.354014567e-13,6.85279195e-14,6.887431289e-14,4.836361417e-13,1.433034876e-13,1.313105879e-13,1.057691173e-13,6.152121549e-13,2.449739469e-13,1.911799547e-13,3.360744319e-13,1.986123741e-13
1.0703125,1.173508206e-13,4.700206107e-13,2.426235089e-14,2.984425652e-13,1.179009065e-13,2.448181585e-13,3.916592727e-14,3.272630089e-13,1.738810172e-13,3.213350513e-13,5.946305776e-13,2.339045087e-13,1.865210501e-13,2.792723534e-13,2.056212993e-13,1.269003308e-13,1.407293958e-13,1.554024616e-13,5.9952106e-14,8.314700114e-14,1.396352269e-13,6.734834656e-14,6.887478982e-14,4.88773819e-13,1.413839237e-13,1.318060641e-13,1.001643869e-13,6.042881105e-13,2.375780333e-13,1.865870759e-13,3.330775457e-13,2.009734218e-13
1.078125,1.218538647e-13,4.714906958e-13,2.358481848e-14,2.934158046e-13,1.201447617e-13,2.498924286e-13,3.942887349e-14,3.373754993e-13,1.68564182e-13,3.267697083e-13,5.928504876e-13,2.317367721e-13,1.780821267e-13,2.770829304e-13,2.054175193e-13,1.31537821e-13,1.461092121e-13,1.602069736e-13,6.048390886e-14,8.625780076e-14,1.438260789e-13,6.639289003e-14,6.880048287e-14,4.944701041e-13,1.3953586e-13,1.323945659e-13,9.490913427e-14,5.953417622e-13,2.306826692e-13,1.832234314e-13,3.301134794e-13,2.03760948e-13
1.0859375,1.266754313e-13,4.730724308e-13,2.304517495e-14,2.88918224e-13,1.225693376e-13,2.54641185e-13,3.9857381e-14,3.47237192e-13,1.638238728e-13,3.319129937e-13,5.892021379e-13,2.299414907e-13,1.699976076e-13,2.750960093e-13,2.055103746e-13,1.365524149e-13,1.514615244e-13,1.648055874e-13,6.103398834e-14,8.93736497e-14,1.479298871e-13,6.568837275e-14,6.872397444e-14,4.999332631e-13,1.376213128e-13,1.330580732e-13,8.987410398e-14,5.868073063e-13,2.242075916e-13,1.802756848e-13,3.272299818e-13,2.069979029e-13
1.09375,1.315896764e-13,4.747074957e-13,2.260627418e-14,2.846644301e-13,1.248360757e-13,2.589892977e-13,4.043725001e-14,3.569682042e-13,1.595979586e-13,3.368651834e-13,5.847775729e-13,2.283410728e-13,1.620823107e-13,2.726668571e-13,2.054513861e-13,1.415067102e-13,1.565467603e-13,1.692221858e-13,6.160449142e-14,9.241122449e-14,1.519567415e-13,6.531292995e-14,6.871395889e-14,5.048131595e-13,1.360331471e-13,1.335839806e-13,8.492332097e-14,5.768065596e-13,2.177637161e-13,1.770760454e-13,3.238981604e-13,2.104452182e-13
1.1015625,1.365056781e-13,4.76444401e-13,2.231601255e-14,2.805230814e-13,1.26820456e-13,2.635788027e-13,4.119321609e-14,3.672400742e-13,1.559620926e-13,3.41605095e-13,5.800553423e-13,2.268164299e-13,1.54338102e-13,2.698336457e-13,2.052736976e-13,1.464590877e-13,1.612042263e-13,1.731428454e-13,6.213962076e-14,9.544703255e-14,1.560062249e-13,6.531276898e-14,6.869517855e-14,5.098423898e-13,1.348694297e-13,1.339127804e-13,8.013964413e-14,5.660743256e-13,2.113116468e-13,1.740175055e-13,3.200169368e-13,2.141130094e-13
1.109375,1.416155231e-13,4.783307032e-13,2.228228981e-14,2.767988444e-13,1.289582664e-13,2.678015294e-13,4.206734557e-14,3.776152446e-13,1.529906915e-13,3.459827073e-13,5.747183689e-13,2.2568352e-13,1.470366717e-13,2.673927391e-13,2.052684582e-13,1.516056571e-13,1.654710431e-13,1.766442442e-13,6.26428479e-14,9.860449108e-14,1.599009333e-13,6.560232141e-14,6.854321546e-14,5.148189358e-13,1.335338457e-13,1.343080563e-13,7.548561751e-14,5.559311203e-13,2.053751327e-13,1.717796685e-13,3.161886345e-13,2.180754231e-13
1.1171875,1.469775756e-13,4.801025019e-13,2.245941437e-14,2.735609429e-13,1.313791329e-13,2.714048407e-13,4.305111746e-14,3.877632013e-13,1.50602851e-13,3.502441348e-13,5.684915484e-13,2.250875124e-13,1.399993251e-13,2.653182352e-13,2.05175835e-13,1.567409644e-13,1.694200139e-13,1.800542814e-13,6.309420432e-14,1.018702789e-13,1.636521107e-13,6.603399563e-14,6.838859772e-14,5.193604708e-13,1.321483456e-13,1.348168181e-13,7.105995941e-14,5.479125166e-13,2.000094484e-13,1.698123819e-13,3.126254623e-13,2.223699897e-13
1.125,1.525615012e-13,4.816038656e-13,2.283342233e-14,2.707551348e-13,1.339169167e-13,2.744371979e-13,4.433674728e-14,3.977367975e-13,1.487833762e-13,3.54283644e-13,5.609828564e-13,2.248433286e-13,1.33001779e-13,2.632737539e-13,2.053725904e-13,1.622809173e-13,1.733189997e-13,1.831579769e-13,6.345924351e-14,1.052538484e-13,1.673638196e-13,6.663062529e-14,6.836673042e-14,5.236188211e-13,1.311184768e-13,1.354340586e-13,6.719305417e-14,5.414912064e-13,1.94763385e-13,1.672516726e-13,3.091467503e-13,2.271822294e-13
1.1328125,1.584227758e-13,4.825084493e-13,2.340739178e-14,2.677763989e-13,1.364666576e-13,2.770040785e-13,4.592076943e-14,4.074048967e-13,1.47547412e-13,3.579999946e-13,5.530832531e-13,2.250575732e-13,1.261682171e-13,2.615623761e-13,2.064105648e-13,1.687104985e-13,1.774716219e-13,1.859351211e-13,6.372793373e-14,1.087207118e-13,1.708802905e-13,6.750011632e-14,6.856880394e-14,5.278981189e-13,1.302078439e-13,1.363622244e-13,6.376139949e-14,5.343898881e-13,1.895700803e-13,1.651749509e-13,3.054312741e-13,2.325496365e-13
1.140625,1.645326695e-13,4.826459917e-13,2.406538101e-14,2.641580505e-13,1.390095932e-13,2.79972941e-13,4.761539882e-14,4.16899259e-13,1.468889734e-13,3.616409602e-13,5.453377302e-13,2.258525565e-13,1.195060685e-13,2.601903745e-13,2.078082787e-13,1.756127851e-13,1.817089763e-13,1.8855137e-13,6.389296606e-14,1.121177561e-13,1.742168458e-13,6.868597116e-14,6.905634257e-14,5.322493096e-13,1.290899343e-13,1.375173196e-13,6.037005574e-14,5.272569604e-13,1.845680095e-13,1.645885163e-13,3.013608041e-13,2.383057879e-13
1.1484375,1.706563629e-13,4.826108612e-13,2.500619616e-14,2.607017697e-13,1.415485727e-13,2.824095945e-13,4.941237667e-14,4.26051898e-13,1.467911076e-13,3.649263215e-13,5.372681666e-13,2.269211454e-13,1.13007179e-13,2.586901622e-13,2.091121482e-13,1.82658192e-13,1.855608247e-13,1.90739936e-13,6.399341326e-14,1.153537703e-13,1.773382946e-13,7.018292546e-14,6.961276352e-14,5.356474889e-13,1.276427341e-13,1.386393188e-13,5.698692865e-14,5.214314053e-13,1.795892263e-13,1.642875964e-13,2.972303897e-13,2.443414131e-13
1.15625,1.766653529e-13,4.822008018e-13,2.62930841e-14,2.575823431e-13,1.438757378e-13,2.829948815e-13,5.130719014e-14,4.346999054e-13,1.471559238e-13,3.675127752e-13,5.288746004e-13,2.279963112e-13,1.067725725e-13,2.56949385e-13,2.101692329e-13,1.898707218e-13,1.888235908e-13,1.92400875e-13,6.402367374e-14,1.183130468e-13,1.800893193e-13,7.192855441e-14,7.012247908e-14,5.380705322e-13,1.262060877e-13,1.397046702e-13,5.373792057e-14,5.161263633e-13,1.744629858e-13,1.632009818e-13,2.928869523e-13,2.50494514e-13
1.1640625,1.827705204e-13,4.806756074e-13,2.766753626e-14,2.541080305e-13,1.459587757e-13,2.829451943e-13,5.32722112e-14,4.431002101e-13,1.480005859e-13,3.695090743e-13,5.195797594e-13,2.292265411e-13,1.007800034e-13,2.552674177e-13,2.10912299e-13,1.972422192e-13,1.916508395e-13,1.936628945e-13,6.389741103e-14,1.209706112e-13,1.826564519e-13,7.392257832e-14,7.080117813e-14,5.409242301e-13,1.253092164e-13,1.407387987e-13,5.066553424e-14,5.106579589e-13,1.694045307e-13,1.618170055e-13,2.880447165e-13,2.566576871e-13
1.171875,1.889750826e-13,4.784898554e-13,2.933547861e-14,2.506080465e-13,1.480344464e-13,2.822181161e-13,5.539890493e-14,4.506789206e-13,1.494100587e-13,3.709177679e-13,5.091850673e-13,2.308453159e-13,9.499418893e-14,2.537231156e-13,2.117028682e-13,2.049927429e-13,1.942581256e-13,1.944302323e-13,6.356253758e-14,1.234388339e-13,1.848937742e-13,7.622189765e-14,7.171468203e-14,5.431043262e-13,1.245035638e-13,1.417514637e-13,4.774769961e-14,5.044252378e-13,1.645981319e-13,1.60901066e-13,2.830082772e-13,2.628840116e-13
1.1796875,1.948981133e-13,4.757617388e-13,3.140836087e-14,2.472814293e-13,1.500343806e-13,2.798500531e-13,5.768625135e-14,4.569443919e-13,1.512451248e-13,3.717950591e-13,4.986610805e-13,2.327696968e-13,8.945633508e-14,2.519531609e-13,2.124388738e-13,2.12999623e-13,1.964803223e-13,1.945133786e-13,6.298862598e-14,1.255146021e-13,1.863705029e-13,7.87320638e-14,7.275213529e-14,5.431776359e-13,1.2307773e-13,1.427878022e-13,4.493401325e-14,4.981532154e-13,1.598186679e-13,1.604122283e-13,2.778637062e-13,2.690825692e-13
1.1875,2.005769782e-13,4.719819607e-13,3.369761526e-14,2.437805192e-13,1.519834892e-13,2.773178368e-13,6.005552436e-14,4.625586714e-13,1.533817693e-13,3.722818453e-13,4.876740927e-13,2.348831354e-13,8.423093199e-14,2.500702667e-13,2.127194721e-13,2.206093715e-13,1.978625048e-13,1.937949107e-13,6.223581485e-14,1.270877232e-13,1.874201566e-13,8.130783554e-14,7.384945689e-14,5.430241785e-13,1.214744716e-13,1.437761733e-13,4.232205231e-14,4.940658794e-13,1.550393244e-13,1.596949135e-13,2.726000972e-13,2.7513769e-13
1.1953125,2.062863871e-13,4.676064261e-13,3.62967235e-14,2.402111881e-13,1.539833133e-13,2.751770322e-13,6.245265471e-14,4.675588826e-13,1.559163735e-13,3.722013728e-13,4.754282964e-13,2.373785554e-13,7.934210615e-14,2.486260149e-13,2.127814993e-13,2.278773395e-13,1.985182152e-13,1.92484815e-13,6.142968953e-14,1.28519493e-13,1.88358756e-13,8.393090949e-14,7.491577141e-14,5.432872503e-13,1.201772e-13,1.445845673e-13,3.994286536e-14,4.907006609e-13,1.504999406e-13,1.590455057e-13,2.67353376e-13,2.810236148e-13
1.203125,2.117340227e-13,4.626637729e-13,3.889821553e-14,2.360681553e-13,1.55553828e-13,2.724969866e-13,6.480832542e-14,4.713208196e-13,1.588719791e-13,3.713152177e-13,4.622603105e-13,2.401167367e-13,7.470468904e-14,2.472066994e-13,2.126209906e-13,2.355124781e-13,1.990577834e-13,1.909553895e-13,6.051596689e-14,1.297852896e-13,1.887811406e-13,8.671921634e-14,7.593457896e-14,5.423530153e-13,1.186548572e-13,1.452329271e-13,3.759345393e-14,4.853006185e-13,1.45958287e-13,1.594140975e-13,2.616482234e-13,2.865962214e-13
1.2109375,2.166868446e-13,4.566412388e-13,4.123025543e-14,2.310330955e-13,1.565686399e-13,2.694729967e-13,6.71520445e-14,4.739296943e-13,1.620695801e-13,3.695664874e-13,4.48567908e-13,2.42562582e-13,7.024857536e-14,2.452342165e-13,2.120646499e-13,2.436154996e-13,1.995711889e-13,1.892187033e-13,5.94147891e-14,1.306123127e-13,1.885779094e-13,8.987832493e-14,7.705883996e-14,5.405240458e-13,1.165372859e-13,1.458945827e-13,3.527736612e-14,4.793854306e-13,1.411947173e-13,1.602363565e-13,2.553123788e-13,2.9181865e-13
1.21875,2.215249437e-13,4.501821404e-13,4.387129772e-14,2.262657412e-13,1.576982235e-13,2.657524604e-13,6.950911755e-14,4.7562553e-13,1.653861682e-13,3.671202988e-13,4.347204847e-13,2.449355978e-13,6.596688052e-14,2.433980869e-13,2.115934701e-13,2.518904187e-13,1.997092064e-13,1.871206252e-13,5.821978165e-14,1.312154717e-13,1.880343137e-13,9.342812802e-14,7.841208173e-14,5.383274156e-13,1.142754172e-13,1.467238091e-13,3.318670039e-14,4.74555995e-13,1.366357751e-13,1.605290141e-13,2.491008323e-13,2.968566367e-13
1.2265625,2.264505914e-13,4.436068284e-13,4.715340131e-14,2.220873135e-13,1.591582667e-13,2.606914956e-13,7.182151875e-14,4.762807752e-13,1.688605058e-13,3.642944488e-13,4.209365969e-13,2.478591577e-13,6.188810534e-14,2.423107184e-13,2.114891634e-13,2.603600428e-13,1.994001833e-13,1.846308754e-13,5.698380906e-14,1.31659935e-13,1.871710566e-13,9.711936118e-14,7.993744913e-14,5.349453558e-13,1.12222464e-13,1.477723772e-13,3.131559607e-14,4.697559408e-13,1.325144296e-13,1.608777425e-13,2.433381671e-13,3.018541513e-13
1.234375,2.31216735e-13,4.362437849e-13,5.084965871e-14,2.174629291e-13,1.605904965e-13,2.550531313e-13,7.41282977e-14,4.757072101e-13,1.724450454e-13,3.611507694e-13,4.071618318e-13,2.511346434e-13,5.811427335e-14,2.416772479e-13,2.116149114e-13,2.691219119e-13,1.988646937e-13,1.817837209e-13,5.568562722e-14,1.316510861e-13,1.858791735e-13,1.008651482e-13,8.15622985e-14,5.306274696e-13,1.100698189e-13,1.490456376e-13,2.965413275e-14,4.648427571e-13,1.285897571e-13,1.62039228e-13,2.377624262e-13,3.068817991e-13
1.2421875,2.357137398e-13,4.281514818e-13,5.473213844e-14,2.122695032e-13,1.619218032e-13,2.492137173e-13,7.646420718e-14,4.73896562e-13,1.760673497e-13,3.574439904e-13,3.936299179e-13,2.543811925e-13,5.469137318e-14,2.413805036e-13,2.120792238e-13,2.784328967e-13,1.983548344e-13,1.786650215e-13,5.433217139e-14,1.312063043e-13,1.840535764e-13,1.049080961e-13,8.336669268e-14,5.259880868e-13,1.074727634e-13,1.505977495e-13,2.832735184e-14,4.610035513e-13,1.248145139e-13,1.636842939e-13,2.323074305e-13,3.118678434e-13
1.25,2.400823074e-13,4.198003069e-13,5.874023207e-14,2.071919713e-13,1.633524686e-13,2.427498479e-13,7.886525842e-14,4.712288766e-13,1.798367407e-13,3.531529734e-13,3.806884973e-13,2.577100517e-13,5.155274933e-14,2.414202833e-13,2.129811654e-13,2.886515491e-13,1.979540802e-13,1.753086556e-13,5.289026875e-14,1.30553707e-13,1.816990117e-13,1.094128219e-13,8.543350619e-14,5.209321272e-13,1.047961372e-13,1.524967594e-13,2.734401579e-14,4.584701445e-13,1.212966749e-13,1.653736653e-13,2.270372222e-13,3.16792973e-13
1.2578125,2.443644544e-13,4.111706631e-13,6.288898699e-14,2.022890378e-13,1.647744063e-13,2.358242827e-13,8.138364767e-14,4.682081753e-13,1.836963576e-13,3.486204952e-13,3.686972613e-13,2.610262476e-13,4.863009519e-14,2.414046339e-13,2.141180796e-13,2.99459737e-13,1.975727881e-13,1.716775712e-13,5.133776518e-14,1.298008057e-13,1.790670468e-13,1.142346141e-13,8.773669407e-14,5.157933778e-13,1.025645136e-13,1.545562237e-13,2.654225975e-14,4.556586541e-13,1.179212505e-13,1.671161633e-13,2.21857027e-13,3.217118349e-13
1.265625,2.484750865e-13,4.020905658e-13,6.693187769e-14,1.971790921e-13,1.65945583e-13,2.288620563e-13,8.38451154e-14,4.648247496e-13,1.873844905e-13,3.438023931e-13,3.572631762e-13,2.639600649e-13,4.591132338e-14,2.412816394e-13,2.153070678e-13,3.103861454e-13,1.971940799e-13,1.677838224e-13,4.975335398e-14,1.289933549e-13,1.762628258e-13,1.192182332e-13,9.020178334e-14,5.107398341e-13,1.005019724e-13,1.565623106e-13,2.581217391e-14,4.518147927e-13,1.145205209e-13,1.689490102e-13,2.165817352e-13,3.264074045e-13
1.2734375,2.525296265e-13,3.925933484e-13,7.104724578e-14,1.920693625e-13,1.672298407e-13,2.217169842e-13,8.62236457e-14,4.605695864e-13,1.909026634e-13,3.383670309e-13,3.458920468e-13,2.665716996e-13,4.344199264e-14,2.416917827e-13,2.168439099e-13,3.215250532e-13,1.968649015e-13,1.637088554e-13,4.822341556e-14,1.281667758e-13,1.732030735e-13,1.24363634e-13,9.279464474e-14,5.053933473e-13,9.815029283e-14,1.587757931e-13,2.52803218e-14,4.486995942e-13,1.112597398e-13,1.707840825e-13,2.114814405e-13,3.308706888e-13
1.28125,2.566211807e-13,3.830192809e-13,7.578361096e-14,1.874439655e-13,1.689156537e-13,2.139014818e-13,8.879986948e-14,4.554672164e-13,1.94385091e-13,3.327592446e-13,3.358546446e-13,2.693421138e-13,4.118280799e-14,2.429212816e-13,2.190284914e-13,3.327724169e-13,1.965424387e-13,1.595049404e-13,4.672737817e-14,1.272802833e-13,1.699549801e-13,1.295621159e-13,9.56223863e-14,4.997881072e-13,9.579804235e-14,1.613411856e-13,2.509404553e-14,4.466427676e-13,1.083739275e-13,1.727692228e-13,2.069407542e-13,3.354378803e-13
1.2890625,2.602629276e-13,3.733513505e-13,8.065965104e-14,1.829232603e-13,1.703465466e-13,2.054206323e-13,9.147266276e-14,4.499442684e-13,1.977958869e-13,3.272736439e-13,3.273228267e-13,2.72294817e-13,3.901839182e-14,2.441937988e-13,2.212289864e-13,3.438604582e-13,1.961003626e-13,1.550946975e-13,4.516733239e-14,1.26101157e-13,1.664507883e-13,1.346865302e-13,9.868832894e-14,4.93907953e-13,9.373469901e-14,1.638334081e-13,2.512389461e-14,4.44026212e-13,1.055798207e-13,1.751238451e-13,2.024858474e-13,3.398260408e-13
1.296875,2.629518975e-13,3.631712815e-13,8.500693879e-14,1.779540795e-13,1.710773444e-13,1.968523027e-13,9.390508895e-14,4.434118633e-13,2.010703606e-13,3.211910574e-13,3.182824504e-13,2.748856886e-13,3.699984422e-14,2.448459459e-13,2.227583351e-13,3.548441116e-13,1.953468252e-13,1.50390717e-13,4.346396854e-14,1.243906912e-13,1.624690414e-13,1.398794136e-13,1.017630093e-13,4.875364616e-13,9.169941551e-14,1.660513858e-13,2.523684062e-14,4.405578506e-13,1.026166024e-13,1.776422027e-13,1.976306143e-13,3.434145171e-13
1.3046875,2.649241249e-13,3.526983319e-13,8.922809571e-14,1.727927777e-13,1.714479655e-13,1.884986632e-13,9.61043999e-14,4.354404277e-13,2.041897001e-13,3.144257645e-13,3.089892779e-13,2.771287999e-13,3.527090537e-14,2.452834672e-13,2.238470727e-13,3.655635992e-13,1.941181869e-13,1.453143842e-13,4.16465975e-14,1.22170069e-13,1.580988112e-13,1.452713091e-13,1.047611366e-13,4.809507498e-13,8.969322209e-14,1.681428254e-13,2.553543836e-14,4.361951095e-13,9.980694683e-14,1.804183041e-13,1.926640844e-13,3.46245829e-13
1.3125,2.664834329e-13,3.422368619e-13,9.401353644e-14,1.676213192e-13,1.716369439e-13,1.80041558e-13,9.816072815e-14,4.269560073e-13,2.070348899e-13,3.074298528e-13,3.008148154e-13,2.793138057e-13,3.386506823e-14,2.457862528e-13,2.246725523e-13,3.757796004e-13,1.923893487e-13,1.398429158e-13,3.992114258e-14,1.195422586e-13,1.53452519e-13,1.507713745e-13,1.076865887e-13,4.741039759e-13,8.786306228e-14,1.701365951e-13,2.603304337e-14,4.314500774e-13,9.723331027e-14,1.842057597e-13,1.877576817e-13,3.486536112e-13
1.3203125,2.674586295e-13,3.315231401e-13,9.952402517e-14,1.622650658e-13,1.715555017e-13,1.714547375e-13,1.00034953e-13,4.182112296e-13,2.093939771e-13,3.001027174e-13,2.930641899e-13,2.810387805e-13,3.2728686e-14,2.459843879e-13,2.250495486e-13,3.854620084e-13,1.902252614e-13,1.34289098e-13,3.84656132e-14,1.166369057e-13,1.485459603e-13,1.562046894e-13,1.104839383e-13,4.66597698e-13,8.599939674e-14,1.720084328e-13,2.662915588e-14,4.273579533e-13,9.463299745e-14,1.887377124e-13,1.828625368e-13,3.505750657e-13
1.328125,2.677098445e-13,3.206090321e-13,1.051550396e-13,1.568039807e-13,1.710002872e-13,1.6346239e-13,1.016555639e-13,4.088088387e-13,2.113209642e-13,2.926892494e-13,2.851903935e-13,2.822141828e-13,3.178491525e-14,2.458086455e-13,2.249452293e-13,3.944588918e-13,1.877364543e-13,1.28851046e-13,3.718356302e-14,1.137164813e-13,1.436852575e-13,1.613629102e-13,1.131673002e-13,4.590030857e-13,8.425877679e-14,1.734762769e-13,2.733054646e-14,4.216369653e-13,9.207694575e-14,1.928021305e-13,1.778908528e-13,3.516748426e-13
1.3359375,2.672183751e-13,3.096215507e-13,1.103658392e-13,1.51277975e-13,1.697819658e-13,1.55988001e-13,1.030365875e-13,3.989565479e-13,2.130460572e-13,2.851667108e-13,2.774023766e-13,2.831858303e-13,3.097790917e-14,2.45260409e-13,2.243106764e-13,4.030105448e-13,1.850958348e-13,1.232243667e-13,3.591530853e-14,1.107375973e-13,1.388993068e-13,1.663080492e-13,1.156576098e-13,4.516821511e-13,8.286636436e-14,1.743443427e-13,2.812877068e-14,4.129520094e-13,8.948983232e-14,1.964878766e-13,1.725325466e-13,3.518995764e-13
1.34375,2.659537238e-13,2.983871838e-13,1.155717724e-13,1.456371365e-13,1.68302866e-13,1.480492446e-13,1.043135977e-13,3.881456441e-13,2.143551816e-13,2.768260012e-13,2.699179201e-13,2.836706935e-13,3.026485891e-14,2.44342593e-13,2.233703715e-13,4.117996651e-13,1.824194617e-13,1.172972071e-13,3.465671454e-14,1.072418102e-13,1.337514836e-13,1.714263862e-13,1.180146857e-13,4.436416924e-13,8.132707315e-14,1.751542685e-13,2.908839898e-14,4.0478398e-13,8.668463088e-14,2.005783453e-13,1.670462658e-13,3.515022042e-13
1.3515625,2.641218237e-13,2.87346984e-13,1.214208683e-13,1.401148433e-13,1.6700529e-13,1.398990973e-13,1.053597162e-13,3.758401716e-13,2.149668526e-13,2.680586451e-13,2.632252493e-13,2.836233666e-13,2.963134082e-14,2.436942869e-13,2.22616664e-13,4.209049216e-13,1.7960979e-13,1.112540112e-13,3.349615138e-14,1.031955217e-13,1.283130154e-13,1.768008722e-13,1.204277386e-13,4.346107651e-13,7.954200715e-14,1.761999285e-13,3.035061853e-14,3.977314357e-13,8.4094551e-14,2.052109765e-13,1.620796769e-13,3.504376887e-13
1.359375,2.619311265e-13,2.769710254e-13,1.279276215e-13,1.348128385e-13,1.656188904e-13,1.323162027e-13,1.060018366e-13,3.629960323e-13,2.151825727e-13,2.594120631e-13,2.569284514e-13,2.833810495e-13,2.913761505e-14,2.434401213e-13,2.219752254e-13,4.299788905e-13,1.766067292e-13,1.051690984e-13,3.253061993e-14,9.905606655e-14,1.229456564e-13,1.821847367e-13,1.226415698e-13,4.255793968e-13,7.793427384e-14,1.771489498e-13,3.178265819e-14,3.892720915e-13,8.195575368e-14,2.107334753e-13,1.574403911e-13,3.486646366e-13
1.3671875,2.59373288e-13,2.666942492e-13,1.342209435e-13,1.294322296e-13,1.639405297e-13,1.251571309e-13,1.066178796e-13,3.504906288e-13,2.152622353e-13,2.504114538e-13,2.505706409e-13,2.82575065e-13,2.878306e-14,2.428057121e-13,2.212157712e-13,4.391767935e-13,1.736976202e-13,9.919544873e-14,3.171131856e-14,9.501468818e-14,1.176472403e-13,1.875514385e-13,1.245788108e-13,4.170449981e-13,7.622715018e-14,1.781368455e-13,3.329541056e-14,3.809200278e-13,7.982298558e-14,2.171126269e-13,1.526820641e-13,3.466427055e-13
1.375,2.565787867e-13,2.561565229e-13,1.396644233e-13,1.239469791e-13,1.622990829e-13,1.185582611e-13,1.074418884e-13,3.384492942e-13,2.150447022e-13,2.412095591e-13,2.445663084e-13,2.810187733e-13,2.847937155e-14,2.419239394e-13,2.207056588e-13,4.489102678e-13,1.71198946e-13,9.348756395e-14,3.095909902e-14,9.124597056e-14,1.125707675e-13,1.929951435e-13,1.265630486e-13,4.090304799e-13,7.429573907e-14,1.794148656e-13,3.512601682e-14,3.747524552e-13,7.763179227e-14,2.232962993e-13,1.480755421e-13,3.445773456e-13
1.3828125,2.536627311e-13,2.460242823e-13,1.447666597e-13,1.188020887e-13,1.608704304e-13,1.128319389e-13,1.08139922e-13,3.266714325e-13,2.144205349e-13,2.322094299e-13,2.387670688e-13,2.791192777e-13,2.820427924e-14,2.415130612e-13,2.207185467e-13,4.590867938e-13,1.691838122e-13,8.813537969e-14,3.039358529e-14,8.807591946e-14,1.079043473e-13,1.984099677e-13,1.284485161e-13,4.012038394e-13,7.256099369e-14,1.807839086e-13,3.72816232e-14,3.691645168e-13,7.568919426e-14,2.290796307e-13,1.439642714e-13,3.422489946e-13
1.390625,2.505104961e-13,2.365337492e-13,1.496682133e-13,1.140826083e-13,1.595295593e-13,1.076210218e-13,1.086406414e-13,3.145832752e-13,2.132577734e-13,2.230566524e-13,2.332509842e-13,2.767471729e-13,2.795468081e-14,2.413166226e-13,2.209741753e-13,4.693634835e-13,1.676663144e-13,8.324655132e-14,3.00485763e-14,8.524941245e-14,1.033849883e-13,2.035806945e-13,1.301242913e-13,3.927238202e-13,7.085104147e-14,1.822005588e-13,3.958760595e-14,3.6289619e-13,7.39194283e-14,2.351161351e-13,1.401828601e-13,3.396329536e-13
1.3984375,2.471625913e-13,2.270875911e-13,1.542497421e-13,1.093867221e-13,1.582114029e-13,1.027738392e-13,1.090648544e-13,3.021808948e-13,2.113086565e-13,2.137206216e-13,2.285771672e-13,2.735672797e-13,2.771233465e-14,2.409029193e-13,2.213010976e-13,4.797213169e-13,1.664539367e-13,7.853437828e-14,2.981351614e-14,8.232082289e-14,9.890490269e-14,2.083787579e-13,1.317516827e-13,3.836519812e-13,6.896097697e-14,1.836204286e-13,4.208827755e-14,3.562766901e-13,7.216563788e-14,2.412845825e-13,1.364938705e-13,3.366253198e-13
1.40625,2.436625411e-13,2.177648298e-13,1.590488424e-13,1.046536527e-13,1.568492762e-13,9.851856452e-14,1.092662436e-13,2.899600961e-13,2.087639608e-13,2.045122344e-13,2.243763913e-13,2.698012688e-13,2.752412259e-14,2.40497186e-13,2.217951259e-13,4.898945077e-13,1.650934236e-13,7.36302481e-14,2.976918669e-14,7.950628269e-14,9.472486611e-14,2.129531485e-13,1.331553208e-13,3.747115646e-13,6.705187765e-14,1.848986216e-13,4.480582905e-14,3.495136475e-13,7.054922161e-14,2.475868402e-13,1.329660625e-13,3.330084404e-13
1.4140625,2.399204459e-13,2.091525356e-13,1.639259813e-13,1.001168082e-13,1.55475906e-13,9.491170625e-14,1.092914617e-13,2.782368482e-13,2.061987853e-13,1.954480634e-13,2.202818389e-13,2.657591607e-13,2.746388185e-14,2.402535192e-13,2.223494786e-13,4.994226803e-13,1.635434637e-13,6.879645384e-14,3.004344032e-14,7.711482641e-14,9.097641036e-14,2.176362596e-13,1.343355972e-13,3.65959589e-13,6.502377896e-14,1.86258564e-13,4.776687296e-14,3.434364312e-13,6.920539783e-14,2.55069934e-13,1.296943927e-13,3.29038479e-13
1.421875,2.362088943e-13,2.010325507e-13,1.687203644e-13,9.579677866e-14,1.544031015e-13,9.197459718e-14,1.093889461e-13,2.674121115e-13,2.036714166e-13,1.863941916e-13,2.161735465e-13,2.613300451e-13,2.755290515e-14,2.400310458e-13,2.229352212e-13,5.087180706e-13,1.623008452e-13,6.440832299e-14,3.060880448e-14,7.507977132e-14,8.766504138e-14,2.224235982e-13,1.353928802e-13,3.575441313e-13,6.305431869e-14,1.877760405e-13,5.104976208e-14,3.3870776e-13,6.805828172e-14,2.639185463e-13,1.266548882e-13,3.251376826e-13
1.4296875,2.327519841e-13,1.932140987e-13,1.736788976e-13,9.170148526e-14,1.536435696e-13,8.980772161e-14,1.095594657e-13,2.573332518e-13,2.007192274e-13,1.773752391e-13,2.119648281e-13,2.563737663e-13,2.772561303e-14,2.399348143e-13,2.238628107e-13,5.181159166e-13,1.615832645e-13,6.046481398e-14,3.142288772e-14,7.341546646e-14,8.483035394e-14,2.269904144e-13,1.362211831e-13,3.49602152e-13,6.142009118e-14,1.891506941e-13,5.457649296e-14,3.341796499e-13,6.704235972e-14,2.727216093e-13,1.239653831e-13,3.212680499e-13
1.4375,2.291918537e-13,1.862330725e-13,1.781086894e-13,8.792580895e-14,1.528100802e-13,8.840323266e-14,1.096505347e-13,2.47489143e-13,1.972966994e-13,1.688090155e-13,2.083334209e-13,2.512742969e-13,2.793639431e-14,2.401940392e-13,2.25040015e-13,5.268973853e-13,1.611341457e-13,5.693154301e-14,3.246901706e-14,7.219271272e-14,8.247057786e-14,2.312693313e-13,1.370264791e-13,3.416281862e-13,5.991399572e-14,1.902468746e-13,5.832891675e-14,3.286184895e-13,6.635252379e-14,2.811657191e-13,1.216648974e-13,3.171209104e-13
1.4453125,2.252649094e-13,1.801128115e-13,1.820298564e-13,8.453479125e-14,1.518871004e-13,8.745597922e-14,1.095038672e-13,2.380713691e-13,1.936318203e-13,1.607516979e-13,2.052553368e-13,2.462856609e-13,2.823158148e-14,2.404710595e-13,2.259676203e-13,5.348365495e-13,1.608208404e-13,5.374191222e-14,3.370529463e-14,7.113746e-14,8.047367996e-14,2.353239611e-13,1.37759387e-13,3.33604179e-13,5.864857347e-14,1.909845689e-13,6.228260114e-14,3.222941635e-13,6.603867832e-14,2.90291565e-13,1.195403441e-13,3.124988055e-13
1.453125,2.210045183e-13,1.744249742e-13,1.861231244e-13,8.153188711e-14,1.510140871e-13,8.673415164e-14,1.089816016e-13,2.291776449e-13,1.896762223e-13,1.52739187e-13,2.019508065e-13,2.410793017e-13,2.858400227e-14,2.401986535e-13,2.266151975e-13,5.425485792e-13,1.607303752e-13,5.069095173e-14,3.508286797e-14,6.982930707e-14,7.870809524e-14,2.391651239e-13,1.380447157e-13,3.257967323e-13,5.773808432e-14,1.912693347e-13,6.630795733e-14,3.158175056e-13,6.584473386e-14,2.998974534e-13,1.174946145e-13,3.072068435e-13
1.4609375,2.163712978e-13,1.692531749e-13,1.897214356e-13,7.870819669e-14,1.500472463e-13,8.642303157e-14,1.08091604e-13,2.207043221e-13,1.855738303e-13,1.448534864e-13,1.986649836e-13,2.356093768e-13,2.896069116e-14,2.394456356e-13,2.272117822e-13,5.502334125e-13,1.609119295e-13,4.776990873e-14,3.663764377e-14,6.819056645e-14,7.720213653e-14,2.430525584e-13,1.380133897e-13,3.179631435e-13,5.668018336e-14,1.911913233e-13,7.05792683e-14,3.095724087e-13,6.573935971e-14,3.097230769e-13,1.154940071e-13,3.011015421e-13
1.46875,2.11474537e-13,1.646666648e-13,1.92665438e-13,7.595145376e-14,1.490736976e-13,8.682518765e-14,1.069890933e-13,2.128233224e-13,1.814972583e-13,1.372927901e-13,1.955012523e-13,2.299972145e-13,2.945641328e-14,2.384973765e-13,2.277781298e-13,5.577747206e-13,1.614440666e-13,4.518004692e-14,3.847223816e-14,6.651776674e-14,7.6093332e-14,2.470299454e-13,1.377851543e-13,3.100319014e-13,5.537371779e-14,1.908431343e-13,7.522461026e-14,3.038548139e-13,6.582328334e-14,3.204254681e-13,1.135254536e-13,2.944653892e-13
1.4765625,2.064694441e-13,1.605648841e-13,1.95628063e-13,7.353664894e-14,1.482725761e-13,8.816141655e-14,1.057754148e-13,2.051686761e-13,1.771256103e-13,1.299112544e-13,1.921860931e-13,2.240729981e-13,3.004963411e-14,2.374306965e-13,2.283757256e-13,5.649597742e-13,1.623326957e-13,4.300055751e-14,4.061134963e-14,6.512613774e-14,7.548613044e-14,2.507278628e-13,1.373387474e-13,3.018758285e-13,5.412445656e-14,1.902619322e-13,7.995351272e-14,2.982091874e-13,6.605610694e-14,3.31223468e-13,1.11827833e-13,2.876585846e-13
1.484375,2.01252049e-13,1.572114357e-13,1.982852717e-13,7.157818888e-14,1.473984809e-13,9.026722007e-14,1.04329703e-13,1.975957278e-13,1.724185203e-13,1.22854537e-13,1.891794936e-13,2.180972859e-13,3.065076832e-14,2.364443159e-13,2.289484364e-13,5.713539683e-13,1.633768617e-13,4.120222616e-14,4.301640989e-14,6.409491221e-14,7.538933476e-14,2.541082616e-13,1.367759395e-13,2.934085125e-13,5.299032265e-14,1.892993122e-13,8.463822402e-14,2.915068748e-13,6.650336428e-14,3.413606341e-13,1.104173836e-13,2.805939836e-13
1.4921875,1.957322107e-13,1.547276955e-13,2.004525387e-13,6.986162745e-14,1.462331345e-13,9.269718226e-14,1.025562343e-13,1.909302041e-13,1.677867947e-13,1.162273592e-13,1.865157489e-13,2.124847387e-13,3.134732072e-14,2.354755593e-13,2.291910345e-13,5.769105435e-13,1.644749113e-13,3.971242161e-14,4.563393618e-14,6.328881514e-14,7.569937167e-14,2.573217665e-13,1.358915487e-13,2.853598102e-13,5.205879748e-14,1.876218073e-13,8.940020563e-14,2.835342361e-13,6.714541217e-14,3.522063531e-13,1.088931826e-13,2.73133151e-13
1.5,1.89974969e-13,1.528618968e-13,2.025818833e-13,6.831193854e-14,1.449810904e-13,9.550727038e-14,1.006357056e-13,1.85424138e-13,1.632967481e-13,1.099620397e-13,1.838173249e-13,2.070223311e-13,3.220292642e-14,2.341649563e-13,2.291160552e-13,5.820661378e-13,1.656607456e-13,3.837798685e-14,4.845388736e-14,6.256631577e-14,7.636983073e-14,2.604878238e-13,1.347407765e-13,2.7787357e-13,5.116845365e-14,1.854332674e-13,9.438027472e-14,2.760517427e-13,6.784203616e-14,3.647329826e-13,1.072016506e-13,2.653832538e-13
1.5078125,1.84181783e-13,1.51518512e-13,2.046550724e-13,6.69810641e-14,1.439859567e-13,9.905944595e-14,9.870036526e-14,1.805214243e-13,1.588289273e-13,1.040516159e-13,1.810712484e-13,2.01354183e-13,3.317131366e-14,2.32551806e-13,2.291000358e-13,5.870890266e-13,1.669365042e-13,3.719757326e-14,5.154910562e-14,6.190275388e-14,7.745389355e-14,2.638806133e-13,1.337539122e-13,2.701033475e-13,5.003445143e-14,1.833749189e-13,9.973420758e-14,2.708367122e-13,6.873231672e-14,3.78427223e-13,1.057093738e-13,2.575138271e-13
1.515625,1.785928645e-13,1.506920481e-13,2.064178718e-13,6.587864996e-14,1.433579273e-13,1.033208808e-13,9.658565134e-14,1.758956011e-13,1.543281759e-13,9.830076961e-14,1.781202877e-13,1.953559604e-13,3.424308433e-14,2.307715465e-13,2.292347349e-13,5.918486894e-13,1.684119702e-13,3.633275178e-14,5.488383961e-14,6.136168709e-14,7.896379199e-14,2.673429041e-13,1.328136523e-13,2.619759884e-13,4.89697233e-14,1.814869463e-13,1.052062673e-13,2.66736728e-13,6.993277093e-14,3.926481262e-13,1.045413904e-13,2.496793148e-13
1.5234375,1.732056332e-13,1.50431383e-13,2.079178022e-13,6.50976916e-14,1.429845417e-13,1.080973177e-13,9.414221166e-14,1.717569129e-13,1.497185942e-13,9.28607529e-14,1.75353946e-13,1.89140731e-13,3.541240228e-14,2.287509548e-13,2.292600879e-13,5.961117378e-13,1.701321971e-13,3.582588376e-14,5.840706749e-14,6.103848021e-14,8.094193262e-14,2.705602395e-13,1.317341158e-13,2.540915075e-13,4.82034239e-14,1.794245363e-13,1.103810358e-13,2.615579912e-13,7.135537031e-14,4.072985429e-13,1.0355191e-13,2.41898481e-13
1.53125,1.680440891e-13,1.508575378e-13,2.092174729e-13,6.466189702e-14,1.428353838e-13,1.135349189e-13,9.15325103e-14,1.688863682e-13,1.451623743e-13,8.811566717e-14,1.7338549e-13,1.829998359e-13,3.666500979e-14,2.266258695e-13,2.291714299e-13,5.998745435e-13,1.719541979e-13,3.569916851e-14,6.22377089e-14,6.098880367e-14,8.345500179e-14,2.737739188e-13,1.307560092e-13,2.468231966e-13,4.749818365e-14,1.772696884e-13,1.154777742e-13,2.559629955e-13,7.298277141e-14,4.225643521e-13,1.026846942e-13,2.34238325e-13
1.5390625,1.633810333e-13,1.516703018e-13,2.102206273e-13,6.430233742e-14,1.42948092e-13,1.198078258e-13,8.90372213e-14,1.675810272e-13,1.408121332e-13,8.378776959e-14,1.71473631e-13,1.768933034e-13,3.79554688e-14,2.245398439e-13,2.293001694e-13,6.033710385e-13,1.739404366e-13,3.603747168e-14,6.635342497e-14,6.127593756e-14,8.647667474e-14,2.771500518e-13,1.299721176e-13,2.403000252e-13,4.687428966e-14,1.752609272e-13,1.208464777e-13,2.517190234e-13,7.466696446e-14,4.378797148e-13,1.019627217e-13,2.270655371e-13
1.546875,1.592646194e-13,1.525270212e-13,2.113271566e-13,6.387250038e-14,1.433718019e-13,1.264575343e-13,8.668597186e-14,1.670379945e-13,1.365039393e-13,7.961027871e-14,1.690046398e-13,1.705767976e-13,3.923967654e-14,2.223688422e-13,2.296879827e-13,6.068086047e-13,1.762018068e-13,3.681126232e-14,7.063428936e-14,6.192257145e-14,8.992395196e-14,2.805306799e-13,1.293846222e-13,2.341444686e-13,4.649681762e-14,1.73464275e-13,1.263338304e-13,2.487450151e-13,7.624597057e-14,4.526974053e-13,1.013589641e-13,2.206368762e-13
1.5546875,1.55498493e-13,1.536693296e-13,2.127920499e-13,6.367243376e-14,1.441942599e-13,1.33269208e-13,8.43520291e-14,1.670554236e-13,1.321587315e-13,7.583110592e-14,1.667044506e-13,1.641871277e-13,4.062458961e-14,2.200581182e-13,2.300702414e-13,6.101311945e-13,1.7865384e-13,3.794279865e-14,7.51333775e-14,6.277627267e-14,9.370092203e-14,2.836550555e-13,1.29072261e-13,2.279779014e-13,4.638223785e-14,1.7185485e-13,1.31743679e-13,2.46526272e-13,7.788509408e-14,4.673596041e-13,1.009029995e-13,2.147798449e-13
1.5625,1.519981003e-13,1.552762108e-13,2.137604022e-13,6.388666852e-14,1.452680865e-13,1.407056244e-13,8.202445625e-14,1.683113715e-13,1.278864898e-13,7.249321581e-14,1.647965517e-13,1.579700063e-13,4.218862162e-14,2.177090019e-13,2.30486216e-13,6.132181722e-13,1.814486151e-13,3.944158554e-14,7.983107148e-14,6.380199975e-14,9.778582645e-14,2.8638221e-13,1.28853494e-13,2.219958935e-13,4.651648038e-14,1.702412088e-13,1.37181852e-13,2.45383106e-13,7.972263115e-14,4.818929024e-13,1.006910646e-13,2.091487857e-13
1.5703125,1.48762976e-13,1.572111001e-13,2.141846509e-13,6.42611696e-14,1.463950403e-13,1.483576182e-13,7.974390194e-14,1.705928937e-13,1.237875769e-13,6.944925641e-14,1.629461954e-13,1.518470453e-13,4.387686929e-14,2.153155349e-13,2.311250695e-13,6.159914049e-13,1.847023015e-13,4.138348236e-14,8.469392349e-14,6.51162896e-14,1.021917102e-13,2.891863419e-13,1.285574088e-13,2.161999768e-13,4.667260645e-14,1.685505848e-13,1.428226994e-13,2.454687522e-13,8.172863396e-14,4.964128442e-13,1.006828048e-13,2.037221133e-13
1.578125,1.458932822e-13,1.594751839e-13,2.150578922e-13,6.46277995e-14,1.47664759e-13,1.557849067e-13,7.759152745e-14,1.732338105e-13,1.199384016e-13,6.676463677e-14,1.615040033e-13,1.457077125e-13,4.572743536e-14,2.128591546e-13,2.318819063e-13,6.180199427e-13,1.880065309e-13,4.381651542e-14,8.985638302e-14,6.66039e-14,1.068596622e-13,2.923333958e-13,1.285071079e-13,2.105616128e-13,4.6767549e-14,1.669646361e-13,1.485587675e-13,2.463325681e-13,8.385831582e-14,5.113303066e-13,1.007523726e-13,1.989745732e-13
1.5859375,1.434600442e-13,1.620756884e-13,2.161090067e-13,6.512374095e-14,1.490688282e-13,1.638366909e-13,7.562375801e-14,1.765438811e-13,1.163344462e-13,6.458692227e-14,1.605027844e-13,1.39814876e-13,4.77270924e-14,2.105978394e-13,2.326286304e-13,6.191882419e-13,1.91113676e-13,4.662042036e-14,9.524898547e-14,6.818012034e-14,1.118093834e-13,2.954842787e-13,1.289647047e-13,2.057304851e-13,4.719869549e-14,1.653518524e-13,1.539825955e-13,2.475218654e-13,8.599105505e-14,5.26291183e-13,1.008384458e-13,1.951002259e-13
1.59375,1.412671135e-13,1.648502157e-13,2.167467408e-13,6.58523383e-14,1.504990683e-13,1.723650579e-13,7.367494633e-14,1.810160107e-13,1.129276714e-13,6.287811554e-14,1.592418433e-13,1.343895545e-13,4.970443215e-14,2.085317038e-13,2.331759812e-13,6.200942198e-13,1.941633241e-13,4.960697872e-14,1.00588509e-13,6.990575235e-14,1.170038403e-13,2.986842673e-13,1.296504966e-13,2.018249021e-13,4.806988702e-14,1.634233162e-13,1.588921081e-13,2.489177643e-13,8.804541273e-14,5.408966785e-13,1.008340928e-13,1.916764197e-13
1.6015625,1.392210846e-13,1.674468046e-13,2.172412101e-13,6.668117889e-14,1.520833962e-13,1.802577367e-13,7.162027683e-14,1.863182112e-13,1.096948741e-13,6.14662225e-14,1.577761086e-13,1.29126926e-13,5.167548213e-14,2.060978042e-13,2.331574599e-13,6.205570176e-13,1.970737013e-13,5.275589061e-14,1.057715597e-13,7.160571208e-14,1.221559259e-13,3.020021313e-13,1.303883712e-13,1.979598935e-13,4.902948121e-14,1.613442091e-13,1.634592536e-13,2.502189463e-13,9.002114555e-14,5.546375935e-13,1.006890484e-13,1.886489246e-13
1.609375,1.375528499e-13,1.698011543e-13,2.176515567e-13,6.742178792e-14,1.538485987e-13,1.879140303e-13,6.958408698e-14,1.918879211e-13,1.066719074e-13,6.03050605e-14,1.567827456e-13,1.238719755e-13,5.379064732e-14,2.03397406e-13,2.32826078e-13,6.200758527e-13,1.997689657e-13,5.61491703e-14,1.108759392e-13,7.325321281e-14,1.271462251e-13,3.054659685e-13,1.313316635e-13,1.939927624e-13,5.009191229e-14,1.593928164e-13,1.678618071e-13,2.50958008e-13,9.197454927e-14,5.672992697e-13,1.005903395e-13,1.865023536e-13
1.6171875,1.363469673e-13,1.725085291e-13,2.179475555e-13,6.80834434e-14,1.555984769e-13,1.959508325e-13,6.769005875e-14,1.976501107e-13,1.039716606e-13,5.940739274e-14,1.563366527e-13,1.189366413e-13,5.601483213e-14,2.011594401e-13,2.327497723e-13,6.190244455e-13,2.023868431e-13,5.975281942e-14,1.159799162e-13,7.519870696e-14,1.321056638e-13,3.094630594e-13,1.325703659e-13,1.905062061e-13,5.141455881e-14,1.575975103e-13,1.722245375e-13,2.514605751e-13,9.397987412e-14,5.800988764e-13,1.005886457e-13,1.853141612e-13
1.625,1.354313311e-13,1.756070788e-13,2.182444587e-13,6.876748655e-14,1.572666082e-13,2.039237971e-13,6.598811766e-14,2.039954051e-13,1.015651659e-13,5.88119918e-14,1.561819214e-13,1.143208042e-13,5.825871472e-14,1.991091516e-13,2.326743227e-13,6.172292432e-13,2.049156218e-13,6.35035339e-14,1.210766725e-13,7.752454725e-14,1.370107777e-13,3.137392722e-13,1.341987891e-13,1.873805461e-13,5.277811727e-14,1.559090188e-13,1.765570031e-13,2.525696438e-13,9.586675112e-14,5.930741288e-13,1.00450431e-13,1.847819961e-13
1.6328125,1.347999198e-13,1.784262217e-13,2.183580455e-13,6.947267741e-14,1.589431014e-13,2.116942683e-13,6.447496726e-14,2.114022074e-13,9.930959143e-14,5.861817603e-14,1.562092204e-13,1.097939589e-13,6.04915928e-14,1.965762568e-13,2.323283698e-13,6.145406376e-13,2.073811599e-13,6.752837074e-14,1.260779046e-13,8.003707561e-14,1.417931492e-13,3.178922287e-13,1.362131425e-13,1.845295199e-13,5.420915148e-14,1.543100363e-13,1.805594675e-13,2.547179932e-13,9.746950374e-14,6.048596493e-13,1.00124006e-13,1.849569066e-13
1.640625,1.346470458e-13,1.808984684e-13,2.181281258e-13,7.01327161e-14,1.607249859e-13,2.195519284e-13,6.310351251e-14,2.198734035e-13,9.716578586e-14,5.872622269e-14,1.56427223e-13,1.053701598e-13,6.263097929e-14,1.93733597e-13,2.319652419e-13,6.118074261e-13,2.098060691e-13,7.195652423e-14,1.308724518e-13,8.278109095e-14,1.464781827e-13,3.220221648e-13,1.383571256e-13,1.824307099e-13,5.602153382e-14,1.529154139e-13,1.839333554e-13,2.574024039e-13,9.884369071e-14,6.154145197e-13,9.971658564e-14,1.861698311e-13
1.6484375,1.350531934e-13,1.829566218e-13,2.175804577e-13,7.071732452e-14,1.626598201e-13,2.27495034e-13,6.189369413e-14,2.288808277e-13,9.502170449e-14,5.904053339e-14,1.571286076e-13,1.009814145e-13,6.464039811e-14,1.908050194e-13,2.315157888e-13,6.086327358e-13,2.119045839e-13,7.669658843e-14,1.353581676e-13,8.589496634e-14,1.509858458e-13,3.25746038e-13,1.405280288e-13,1.809539236e-13,5.811146062e-14,1.518345891e-13,1.866747161e-13,2.596165889e-13,9.989441717e-14,6.243931229e-13,9.923065728e-14,1.885051694e-13
1.65625,1.359890672e-13,1.843762931e-13,2.166588515e-13,7.13348067e-14,1.64725748e-13,2.352965674e-13,6.089916468e-14,2.383238909e-13,9.283775858e-14,5.96773686e-14,1.585114462e-13,9.652836674e-14,6.663611506e-14,1.877953869e-13,2.310925592e-13,6.042393401e-13,2.137380818e-13,8.166655956e-14,1.395770896e-13,8.93697694e-14,1.55261671e-13,3.289905132e-13,1.429519127e-13,1.797958705e-13,6.034614575e-14,1.509900724e-13,1.88937682e-13,2.615933153e-13,1.006848279e-13,6.312409981e-13,9.876521517e-14,1.917580726e-13
1.6640625,1.375118351e-13,1.85593217e-13,2.153445653e-13,7.201243576e-14,1.668892804e-13,2.425876156e-13,6.023409896e-14,2.486771669e-13,9.088874106e-14,6.04893922e-14,1.602599102e-13,9.212714152e-14,6.868471211e-14,1.848308107e-13,2.311225815e-13,5.993978079e-13,2.157829683e-13,8.687180752e-14,1.436780225e-13,9.327293662e-14,1.593403724e-13,3.322092584e-13,1.457508966e-13,1.792546206e-13,6.289066143e-14,1.5036663e-13,1.909424147e-13,2.646363732e-13,1.014843843e-13,6.371635495e-13,9.840189497e-14,1.957161754e-13
1.671875,1.397129248e-13,1.865707891e-13,2.138807719e-13,7.257299563e-14,1.69196058e-13,2.490551687e-13,6.004686697e-14,2.598329991e-13,8.926494977e-14,6.119607676e-14,1.621518885e-13,8.784798771e-14,7.067035534e-14,1.818191641e-13,2.314646494e-13,5.943767011e-13,2.18017452e-13,9.228343702e-14,1.475916526e-13,9.773797748e-14,1.630762047e-13,3.351007751e-13,1.486767287e-13,1.793029534e-13,6.56673792e-14,1.50047432e-13,1.928255661e-13,2.691458004e-13,1.020883478e-13,6.422148336e-13,9.804136174e-14,2.003777971e-13
1.6796875,1.425532953e-13,1.870091313e-13,2.123465779e-13,7.315358748e-14,1.716913228e-13,2.551441595e-13,6.027790547e-14,2.715357791e-13,8.778466478e-14,6.197036426e-14,1.645289128e-13,8.373943244e-14,7.254974948e-14,1.787897918e-13,2.320160722e-13,5.888836844e-13,2.201667404e-13,9.795718034e-14,1.511696804e-13,1.027196842e-13,1.66408134e-13,3.375939293e-13,1.516531605e-13,1.798050408e-13,6.857405167e-14,1.500449925e-13,1.944728171e-13,2.745024355e-13,1.023854778e-13,6.453326421e-13,9.774976411e-14,2.059355798e-13
1.6875,1.459567095e-13,1.874157235e-13,2.10535946e-13,7.39898303e-14,1.742844374e-13,2.617485893e-13,6.082499802e-14,2.843847528e-13,8.648717138e-14,6.308080604e-14,1.675720235e-13,7.989356086e-14,7.448318825e-14,1.759863798e-13,2.328160433e-13,5.831444254e-13,2.222332322e-13,1.040419333e-13,1.545320593e-13,1.081460765e-13,1.695687842e-13,3.400714888e-13,1.54892306e-13,1.812779226e-13,7.178274199e-14,1.503588676e-13,1.956435704e-13,2.799934482e-13,1.026991657e-13,6.473682012e-13,9.762351225e-14,2.124611206e-13
1.6953125,1.500363399e-13,1.876035771e-13,2.085223997e-13,7.472345314e-14,1.768354144e-13,2.684304252e-13,6.179170636e-14,2.988026894e-13,8.546826034e-14,6.439701055e-14,1.70838119e-13,7.625517268e-14,7.650322755e-14,1.732239323e-13,2.335795523e-13,5.769171268e-13,2.242916599e-13,1.106959203e-13,1.577891856e-13,1.141121453e-13,1.725517777e-13,3.422374657e-13,1.582281567e-13,1.839167892e-13,7.523609234e-14,1.509446471e-13,1.961583454e-13,2.857545555e-13,1.028479938e-13,6.486077765e-13,9.748509575e-14,2.19920299e-13
1.703125,1.548845456e-13,1.869020034e-13,2.063183408e-13,7.508783947e-14,1.792321628e-13,2.739687549e-13,6.320614892e-14,3.146478238e-13,8.461160858e-14,6.574882928e-14,1.740753322e-13,7.2761185e-14,7.841467408e-14,1.703645582e-13,2.344782957e-13,5.702519074e-13,2.265774201e-13,1.179788431e-13,1.608399275e-13,1.2079857e-13,1.751685146e-13,3.439860588e-13,1.6152999e-13,1.872737163e-13,7.887707135e-14,1.51701554e-13,1.960699366e-13,2.922419586e-13,1.024870882e-13,6.479438895e-13,9.723729467e-14,2.283897979e-13
1.7109375,1.604132478e-13,1.858511299e-13,2.037518559e-13,7.546259862e-14,1.81551036e-13,2.786948057e-13,6.496810178e-14,3.319615508e-13,8.393708745e-14,6.713016974e-14,1.774041321e-13,6.943929865e-14,8.016665105e-14,1.676009021e-13,2.355888586e-13,5.634569686e-13,2.290758829e-13,1.256197502e-13,1.635824184e-13,1.28292784e-13,1.774516105e-13,3.45698344e-13,1.649816171e-13,1.912019012e-13,8.293420014e-14,1.525578331e-13,1.953830428e-13,2.983235717e-13,1.017773877e-13,6.460271605e-13,9.697178853e-14,2.378331653e-13
1.71875,1.668229496e-13,1.848351533e-13,2.009660759e-13,7.591914538e-14,1.841212786e-13,2.832825489e-13,6.716787196e-14,3.503714818e-13,8.369242913e-14,6.837802932e-14,1.807331689e-13,6.62338169e-14,8.186955923e-14,1.647580946e-13,2.364051448e-13,5.559626558e-13,2.31260842e-13,1.333318166e-13,1.658508587e-13,1.36401207e-13,1.792758569e-13,3.474608982e-13,1.683809347e-13,1.957069162e-13,8.728597479e-14,1.535872201e-13,1.936657148e-13,3.033802846e-13,1.006633883e-13,6.434034924e-13,9.66548332e-14,2.482112544e-13
1.7265625,1.743782963e-13,1.831512978e-13,1.978864292e-13,7.603901397e-14,1.870034998e-13,2.870936919e-13,6.989756253e-14,3.693701036e-13,8.38152411e-14,6.940557382e-14,1.840685102e-13,6.305979101e-14,8.34407921e-14,1.616731894e-13,2.373074084e-13,5.480215054e-13,2.332739233e-13,1.412345014e-13,1.674745722e-13,1.45006576e-13,1.804596668e-13,3.491065735e-13,1.715482206e-13,2.00637649e-13,9.167341558e-14,1.550771038e-13,1.909530046e-13,3.0937906e-13,9.89014956e-14,6.387415707e-13,9.620989474e-14,2.596137257e-13
1.734375,1.828137505e-13,1.805195146e-13,1.944779106e-13,7.590972536e-14,1.900757825e-13,2.899567264e-13,7.297342447e-14,3.894831562e-13,8.391557103e-14,7.044530027e-14,1.874275146e-13,5.994364002e-14,8.472344738e-14,1.587555849e-13,2.389729336e-13,5.40549963e-13,2.357577534e-13,1.494652784e-13,1.685826294e-13,1.543946045e-13,1.812270007e-13,3.503971442e-13,1.745534745e-13,2.06191583e-13,9.617058916e-14,1.571618212e-13,1.880458057e-13,3.169847618e-13,9.674964772e-14,6.318963282e-13,9.581667606e-14,2.718624526e-13
1.7421875,1.920119974e-13,1.77376775e-13,1.910950038e-13,7.585414283e-14,1.934776135e-13,2.924574611e-13,7.633558644e-14,4.112208784e-13,8.399691362e-14,7.15924385e-14,1.909397777e-13,5.700715771e-14,8.57972453e-14,1.563521881e-13,2.411275973e-13,5.332837964e-13,2.386771329e-13,1.57992339e-13,1.693920979e-13,1.646163622e-13,1.817248503e-13,3.51552981e-13,1.773290125e-13,2.125774306e-13,1.007307689e-13,1.597865008e-13,1.850277223e-13,3.250752955e-13,9.443630586e-14,6.23523329e-13,9.568651122e-14,2.849198722e-13
1.75,2.022599861e-13,1.737895265e-13,1.874816548e-13,7.572402692e-14,1.972177145e-13,2.946620124e-13,8.014342643e-14,4.343799564e-13,8.432346287e-14,7.283036313e-14,1.954165216e-13,5.43678028e-14,8.673491819e-14,1.543714121e-13,2.437210717e-13,5.26233896e-13,2.42006378e-13,1.66880599e-13,1.698715616e-13,1.753965276e-13,1.818085868e-13,3.52858209e-13,1.800281964e-13,2.19453764e-13,1.053940116e-13,1.631181771e-13,1.814220474e-13,3.341840087e-13,9.168866567e-14,6.131440292e-13,9.569183465e-14,2.991058771e-13
1.7578125,2.136141954e-13,1.694327483e-13,1.834227763e-13,7.559820132e-14,2.014491912e-13,2.967318667e-13,8.432529654e-14,4.589825315e-13,8.476614272e-14,7.422446011e-14,2.007871713e-13,5.196582718e-14,8.740923878e-14,1.525368918e-13,2.47197695e-13,5.202946493e-13,2.459950297e-13,1.761364753e-13,1.698771751e-13,1.868211278e-13,1.814694626e-13,3.538487613e-13,1.826782626e-13,2.266919198e-13,1.104269625e-13,1.672462581e-13,1.774021316e-13,3.448681872e-13,8.83829115e-14,6.009401906e-13,9.576679349e-14,3.142750873e-13
1.765625,2.260956133e-13,1.645280459e-13,1.794041916e-13,7.586017248e-14,2.065934235e-13,2.991177342e-13,8.878636988e-14,4.846712203e-13,8.518573605e-14,7.566426972e-14,2.061646347e-13,4.955130704e-14,8.78510434e-14,1.506503378e-13,2.516809339e-13,5.155236594e-13,2.504137313e-13,1.855945487e-13,1.694534734e-13,1.989844036e-13,1.808753504e-13,3.545105318e-13,1.8516785e-13,2.347079832e-13,1.156125728e-13,1.720797394e-13,1.732462501e-13,3.566996083e-13,8.4873062e-14,5.877820386e-13,9.616917689e-14,3.300749557e-13
1.7734375,2.395587909e-13,1.595286542e-13,1.755520532e-13,7.6342453e-14,2.122630137e-13,3.015987893e-13,9.358656194e-14,5.105301742e-13,8.568611064e-14,7.709779113e-14,2.120990704e-13,4.702849573e-14,8.823749974e-14,1.488620906e-13,2.570934352e-13,5.111002879e-13,2.549144559e-13,1.950028536e-13,1.687830536e-13,2.11549565e-13,1.801313916e-13,3.551366444e-13,1.87729478e-13,2.435702124e-13,1.208257083e-13,1.776388509e-13,1.691204442e-13,3.699110569e-13,8.145413913e-14,5.735151327e-13,9.694565397e-14,3.464143e-13
1.78125,2.536713453e-13,1.541551152e-13,1.7176546e-13,7.674027615e-14,2.178868819e-13,3.033674343e-13,9.862181015e-14,5.371095413e-13,8.624173385e-14,7.860387818e-14,2.188242138e-13,4.464834198e-14,8.854816965e-14,1.474621247e-13,2.631587101e-13,5.065182879e-13,2.594038036e-13,2.042788195e-13,1.678482461e-13,2.245719395e-13,1.790625986e-13,3.550857699e-13,1.900058968e-13,2.52896168e-13,1.26402659e-13,1.836047259e-13,1.652067825e-13,3.834126928e-13,7.806851694e-14,5.574984005e-13,9.791749896e-14,3.631160953e-13
1.7890625,2.688097318e-13,1.482194103e-13,1.680193851e-13,7.716965249e-14,2.237840398e-13,3.044036248e-13,1.039565033e-13,5.659633193e-13,8.695685992e-14,8.00535421e-14,2.253203639e-13,4.260711842e-14,8.883361144e-14,1.464838868e-13,2.696758787e-13,5.021424173e-13,2.64148111e-13,2.139276097e-13,1.666444941e-13,2.387134713e-13,1.775418295e-13,3.542472918e-13,1.914607571e-13,2.625377771e-13,1.320938964e-13,1.895398595e-13,1.611363904e-13,3.958247442e-13,7.46540014e-14,5.398923872e-13,9.905124355e-14,3.802661163e-13
1.796875,2.853363436e-13,1.423004e-13,1.642111589e-13,7.787718212e-14,2.302379007e-13,3.057943502e-13,1.098847706e-13,5.971884933e-13,8.8118946e-14,8.136749773e-14,2.317722414e-13,4.078900952e-14,8.937338896e-14,1.459031478e-13,2.769693894e-13,4.986443748e-13,2.696972815e-13,2.244291257e-13,1.654828937e-13,2.541542887e-13,1.758653807e-13,3.532324987e-13,1.92401323e-13,2.727197612e-13,1.375229835e-13,1.956273821e-13,1.568586318e-13,4.092878304e-13,7.135751591e-14,5.219390987e-13,1.00451707e-13,3.980766181e-13
1.8046875,3.029415228e-13,1.365897531e-13,1.606183824e-13,7.898861569e-14,2.371727475e-13,3.076842484e-13,1.163259509e-13,6.300904757e-13,8.972180655e-14,8.256698792e-14,2.385224805e-13,3.91125951e-14,9.0191979e-14,1.4573591e-13,2.853524362e-13,4.963541487e-13,2.761603131e-13,2.355133828e-13,1.643876062e-13,2.705408612e-13,1.741024748e-13,3.518437209e-13,1.929346578e-13,2.836296746e-13,1.429538029e-13,2.021031099e-13,1.529662353e-13,4.251605557e-13,6.827208268e-14,5.039452151e-13,1.022928998e-13,4.162684241e-13
