"Time","Fp1","AF3","F7","F3","FC1","FC5","T7","C3","CP1","CP5","P7","P3","Pz","PO3","O1","Oz","O2","PO4","P4","P8","CP6","CP2","C4","T8","FC6","FC2","F4","F8","AF4","Fp2","Fz","Cz"
0.0078125,3.220754026e-14,9.922839134e-15,2.70774339e-13,4.318779563e-14,7.752625965e-14,3.011234478e-13,6.301269242e-14,5.002197425e-14,8.132216813e-15,9.808013697e-15,4.310793613e-13,2.294061352e-14,4.283766151e-15,5.057999472e-14,2.736294477e-14,3.04098334e-14,1.167124109e-14,7.400657752e-15,2.041868629e-14,2.36862049e-14,1.719880045e-14,1.160801405e-14,4.131622348e-14,2.812895946e-14,8.479062225e-14,8.090281905e-15,6.97500664e-16,3.904432637e-13,3.989416783e-14,4.006920251e-13,2.489368724e-14,3.556572645e-14
0.015625,4.960713638e-14,1.393053854e-14,3.055078592e-13,5.19845649e-14,9.836823982e-14,3.304961117e-13,7.356488612e-14,5.824625713e-14,9.37790874e-15,1.314984985e-14,5.091655298e-13,2.714841982e-14,5.864753028e-15,5.691359475e-14,3.291268687e-14,3.443994467e-14,1.195998938e-14,1.223273022e-14,2.583823133e-14,4.086477758e-14,2.055178769e-14,1.461426922e-14,5.080511118e-14,3.760669365e-14,1.000140959e-13,1.066525644e-14,1.548234162e-15,4.510279768e-13,4.456283655e-14,4.702336374e-13,3.252518326e-14,4.216603066e-14
0.0234375,7.337401905e-14,2.055154243e-14,3.202745425e-13,5.952470668e-14,1.185464651e-13,3.36436957e-13,8.087826991e-14,6.579996485e-14,1.093987655e-14,1.60456303e-14,5.606226083e-13,2.899158266e-14,7.986615215e-15,5.777777673e-14,3.663254825e-14,3.664370069e-14,1.144254025e-14,1.870902833e-14,3.083190713e-14,6.56598232e-14,2.384630055e-14,1.72791279e-14,5.94515719e-14,4.632032943e-14,1.100783513e-13,1.402037987e-14,3.210317358e-15,4.86546615e-13,4.587282506e-14,5.076623077e-13,4.145389598e-14,4.741536461e-14
0.03125,1.023747368e-13,3.157412405e-14,3.10212562e-13,6.459150843e-14,1.343716878e-13,3.172653119e-13,8.367454285e-14,7.498943013e-14,1.371639816e-14,1.863075768e-14,5.746868165e-13,2.910166528e-14,1.108700094e-14,5.436490487e-14,3.889678743e-14,3.698480733e-14,1.030886668e-14,2.674338769e-14,3.489092427e-14,9.854338453e-14,2.692206208e-14,1.913634551e-14,6.646806416e-14,5.397765929e-14,1.133514579e-13,1.802019822e-14,6.447723383e-15,4.928090037e-13,4.503226227e-14,5.089404865e-13,5.122091862e-14,4.990564865e-14
0.0390625,1.346358094e-13,4.786475702e-14,2.814393523e-13,6.788112299e-14,1.448720926e-13,2.825012495e-13,8.179376264e-14,8.90685282e-14,1.821120057e-14,2.095164396e-14,5.493029162e-13,2.779124226e-14,1.562167158e-14,4.813096944e-14,3.99878311e-14,3.634452591e-14,9.507223502e-15,3.533423318e-14,3.789310289e-14,1.384876681e-13,3.028860684e-14,2.024130331e-14,7.278173635e-14,5.947840121e-14,1.107638454e-13,2.236214355e-14,1.169272399e-14,4.658562805e-13,4.371219489e-14,4.718426612e-13,6.186562279e-14,4.893207446e-14
0.046875,1.676152496e-13,6.934527674e-14,2.400220617e-13,7.023418558e-14,1.484349439e-13,2.407180722e-13,7.583200167e-14,1.107701376e-13,2.498372836e-14,2.381693641e-14,4.918107266e-13,2.630452368e-14,2.17434944e-14,4.073269281e-14,3.9250764e-14,3.560207842e-14,9.769879045e-15,4.353889676e-14,3.961507856e-14,1.813540775e-13,3.380421248e-14,2.078828931e-14,7.858503579e-14,6.322277431e-14,1.015921909e-13,2.698749536e-14,1.97126342e-14,4.163202302e-13,4.371528041e-14,4.056667994e-13,7.307374296e-14,4.488193592e-14
0.0546875,1.965421541e-13,9.547229698e-14,1.968999536e-13,7.372930821e-14,1.45814586e-13,2.033947837e-13,6.725633368e-14,1.397092414e-13,3.367404919e-14,2.79814038e-14,4.183267674e-13,2.62835093e-14,2.870174637e-14,3.509143546e-14,3.646497601e-14,3.438912179e-14,1.139971054e-14,5.029008665e-14,3.9432972e-14,2.224839429e-13,3.710872993e-14,1.992202522e-14,8.25268567e-14,6.379246303e-14,8.811209586e-14,3.176127963e-14,3.040581471e-14,3.508253683e-13,4.719623355e-14,3.242130806e-13,8.494011405e-14,3.902553124e-14
0.0625,2.186323828e-13,1.243181725e-13,1.622663752e-13,8.12381085e-14,1.387721272e-13,1.799221684e-13,5.689281415e-14,1.731936776e-13,4.329779272e-14,3.394481422e-14,3.474723702e-13,2.86684167e-14,3.556082056e-14,3.305616681e-14,3.306908113e-14,3.349651307e-14,1.455718891e-14,5.421744766e-14,3.75306965e-14,2.576426067e-13,3.937424543e-14,1.794656763e-14,8.370315751e-14,6.278800955e-14,7.156646384e-14,3.563379381e-14,4.356837833e-14,2.814198768e-13,5.370963836e-14,2.394150169e-13,9.731237326e-14,3.139329837e-14
0.0703125,2.30720675e-13,1.528326994e-13,1.438951829e-13,9.377587222e-14,1.288147167e-13,1.74921407e-13,4.578782446e-14,2.05099324e-13,5.222791571e-14,4.14273127e-14,2.941373406e-13,3.413771939e-14,4.100925634e-14,3.582643997e-14,3.001217208e-14,3.418093879e-14,1.950280182e-14,5.515742005e-14,3.435378171e-14,2.818918004e-13,4.042164402e-14,1.592611563e-14,8.309640461e-14,6.020836768e-14,5.514696222e-14,3.811372624e-14,5.822109673e-14,2.208466916e-13,6.264096415e-14,1.632490024e-13,1.094647829e-13,2.339591908e-14
0.078125,2.311294652e-13,1.776864648e-13,1.476222667e-13,1.139133055e-13,1.180579731e-13,1.91548644e-13,3.481267742e-14,2.255229014e-13,5.858820887e-14,4.920070058e-14,2.696068523e-13,4.217064382e-14,4.382645719e-14,4.356700555e-14,2.875872214e-14,3.651914119e-14,2.612190159e-14,5.378036211e-14,2.96717174e-14,2.909040497e-13,3.934184036e-14,1.348245163e-14,7.970484974e-14,5.661492425e-14,3.982917251e-14,3.917365202e-14,7.27841801e-14,1.807668201e-13,7.181889363e-14,1.057400757e-13,1.210549264e-13,1.595531392e-14
0.0859375,2.219968982e-13,1.952149308e-13,1.737764939e-13,1.407505309e-13,1.10353365e-13,2.291745984e-13,2.476114331e-14,2.303813454e-13,6.079405007e-14,5.52257626e-14,2.721542289e-13,5.083842655e-14,4.344064837e-14,5.494252242e-14,3.082850248e-14,4.006005031e-14,3.274879689e-14,5.159237486e-14,2.438356431e-14,2.87151485e-13,3.679633811e-14,1.12140465e-14,7.382678024e-14,5.088283428e-14,2.872108287e-14,3.891702893e-14,8.656506677e-14,1.674684496e-13,7.862778171e-14,6.726906519e-14,1.311200637e-13,9.912318067e-15
0.09375,2.085430389e-13,2.016755121e-13,2.226434653e-13,1.701929728e-13,1.06552688e-13,2.843458065e-13,1.674744724e-14,2.217147331e-13,5.889047862e-14,5.84358697e-14,2.961457966e-13,5.865388165e-14,3.945349688e-14,6.794374684e-14,3.668292182e-14,4.353147878e-14,3.786736516e-14,4.872464509e-14,1.908248929e-14,2.762089702e-13,3.350367583e-14,9.680963777e-15,6.559915402e-14,4.518883127e-14,2.322200685e-14,3.691118751e-14,9.801189711e-14,1.810345234e-13,8.052680922e-14,4.726289436e-14,1.370492844e-13,6.001241871e-15
0.1015625,1.936875832e-13,1.963614591e-13,2.881321962e-13,1.977197784e-13,1.051268112e-13,3.533244894e-13,1.09586007e-14,1.999220221e-13,5.333741286e-14,5.779428967e-14,3.277936226e-13,6.323818585e-14,3.307844362e-14,7.919730226e-14,4.594239641e-14,4.71188189e-14,4.148381961e-14,4.721705236e-14,1.382210959e-14,2.585371635e-13,3.050055149e-14,8.999993251e-15,5.63562013e-14,4.11378706e-14,2.611246196e-14,3.354498872e-14,1.075002538e-13,2.222428773e-13,7.680450549e-14,4.398867199e-14,1.375765776e-13,4.308837743e-15
0.109375,1.824270519e-13,1.817233089e-13,3.611410827e-13,2.213820713e-13,1.069899061e-13,4.335538098e-13,7.836917119e-15,1.705716493e-13,4.572398749e-14,5.364269098e-14,3.528204909e-13,6.387819146e-14,2.654734525e-14,8.724830472e-14,5.697798136e-14,5.013389495e-14,4.329485003e-14,4.855284663e-14,9.625248928e-15,2.382906059e-13,2.922737978e-14,9.222959702e-15,4.686135224e-14,4.089155607e-14,4.00805291e-14,2.962541366e-14,1.143560936e-13,2.835706995e-13,6.872366924e-14,5.462831282e-14,1.337690757e-13,5.547776167e-15
0.1171875,1.818881227e-13,1.587433263e-13,4.297405017e-13,2.369961192e-13,1.114754972e-13,5.204331015e-13,7.552394593e-15,1.494962449e-13,3.839460743e-14,4.827289923e-14,3.591156403e-13,6.02857727e-14,2.11958225e-14,9.056809201e-14,6.828591098e-14,5.182163655e-14,4.212432747e-14,5.054377594e-14,6.512060125e-15,2.237697567e-13,3.226086734e-14,9.760751685e-15,3.898326958e-14,4.835029123e-14,6.991720889e-14,2.556545226e-14,1.197938073e-13,3.542901095e-13,5.871568285e-14,7.825019593e-14,1.251345195e-13,9.931538037e-15
0.125,1.951820774e-13,1.302366878e-13,4.868207259e-13,2.418194762e-13,1.167404442e-13,6.068177226e-13,9.834885779e-15,1.510351519e-13,3.361185037e-14,4.521836784e-14,3.472918109e-13,5.37022903e-14,1.819789408e-14,8.882782548e-14,7.666460119e-14,5.183079909e-14,4.047973156e-14,5.301614064e-14,4.381270372e-15,2.155983928e-13,4.019559388e-14,1.048260202e-14,3.339938672e-14,6.680517214e-14,1.186294928e-13,2.138766564e-14,1.230109593e-13,4.184181809e-13,4.909224059e-14,1.145265998e-13,1.116101005e-13,1.779076156e-14
0.1328125,2.196374858e-13,1.011724785e-13,5.187536603e-13,2.338888674e-13,1.178681649e-13,6.871477074e-13,1.360907204e-14,1.816721301e-13,3.288237743e-14,4.733094033e-14,3.157845708e-13,4.616357335e-14,1.80039324e-14,8.20394248e-14,8.019302993e-14,5.178532961e-14,4.184857264e-14,5.66647668e-14,3.269359429e-15,2.122827814e-13,5.302467517e-14,1.081199012e-14,3.038798623e-14,9.862251889e-14,1.899383267e-13,1.73317444e-14,1.238745881e-13,4.677333824e-13,4.30699155e-14,1.59933137e-13,9.365935676e-14,2.956341e-14
0.140625,2.500456527e-13,7.436897465e-14,5.218760634e-13,2.188030928e-13,1.141524083e-13,7.559037553e-13,1.791863276e-14,2.499714955e-13,3.611200114e-14,5.993496887e-14,2.802721776e-13,4.041228218e-14,2.030524408e-14,7.168963199e-14,7.956344819e-14,5.436041605e-14,4.828892615e-14,5.911320882e-14,2.461512493e-15,2.160167359e-13,7.139151418e-14,1.052207884e-14,3.155739725e-14,1.456705084e-13,2.833743459e-13,1.44167678e-14,1.238336761e-13,4.945679363e-13,4.367328112e-14,2.135897662e-13,7.50456511e-14,4.387021418e-14
0.1484375,2.8477412e-13,5.179778237e-14,5.066848381e-13,1.962566573e-13,1.057408119e-13,7.968253197e-13,2.205937449e-14,3.587450555e-13,4.309811721e-14,8.482337942e-14,2.624274093e-13,3.931804004e-14,2.403802621e-14,6.087882804e-14,7.693342084e-14,6.16663933e-14,6.341526204e-14,6.310710646e-14,2.375725e-15,2.213302617e-13,9.367303009e-14,1.068733161e-14,3.698273638e-14,2.078544762e-13,3.987036085e-13,1.299706374e-14,1.235279318e-13,4.915915651e-13,5.138635835e-14,2.687583136e-13,5.715715153e-14,5.971864212e-14
0.15625,3.131699994e-13,3.558954047e-14,4.763919822e-13,1.731818127e-13,9.129776946e-14,8.061820714e-13,2.553783562e-14,4.844313991e-13,5.260081102e-14,1.196946198e-13,2.733936856e-13,4.375470666e-14,2.863020253e-14,5.102933168e-14,7.418229711e-14,7.530589259e-14,8.690048508e-14,6.811706468e-14,2.778498723e-15,2.20671422e-13,1.146419946e-13,1.195161694e-14,4.308192532e-14,2.815062202e-13,5.231484746e-13,1.327384638e-14,1.216741577e-13,4.656505639e-13,6.386404994e-14,3.17090991e-13,4.212199495e-14,7.524845419e-14
0.1640625,3.305008527e-13,2.526284403e-14,4.356956299e-13,1.538063805e-13,7.419897112e-14,7.887512537e-13,2.792778821e-14,6.19456182e-13,6.228630297e-14,1.646597688e-13,3.205321001e-13,5.435820963e-14,3.269175735e-14,4.370730478e-14,7.340538882e-14,9.556424728e-14,1.188585779e-13,7.244134901e-14,3.129520781e-15,2.159185792e-13,1.342494904e-13,1.462227087e-14,5.173951838e-14,3.639312746e-13,6.477544353e-13,1.557015279e-14,1.190343962e-13,4.206158185e-13,7.965865711e-14,3.528249377e-13,3.099684845e-14,8.799173798e-14
0.171875,3.327727246e-13,1.936933967e-14,3.957436156e-13,1.375928635e-13,5.611369558e-14,7.349082585e-13,2.947778607e-14,7.522658045e-13,7.012034174e-14,2.152017634e-13,4.087198806e-13,7.013765974e-14,3.540106346e-14,3.917195102e-14,7.554575312e-14,1.203160988e-13,1.548194228e-13,7.717029551e-14,3.811837184e-15,2.048232528e-13,1.498613638e-13,1.874630438e-14,6.165942996e-14,4.515115454e-13,7.626019191e-13,1.943338689e-14,1.195360248e-13,3.657780833e-13,9.576939366e-14,3.706665989e-13,2.429119058e-14,9.472852314e-14
0.1796875,3.189211963e-13,1.734161716e-14,3.613057084e-13,1.256500759e-13,3.948929173e-14,6.496599536e-13,3.048048764e-14,8.586694764e-13,7.506115385e-14,2.632666233e-13,5.305482298e-13,8.861134509e-14,3.704328042e-14,3.715741903e-14,7.983694029e-14,1.450110468e-13,1.877673146e-13,8.068181342e-14,4.518863952e-15,1.857963798e-13,1.577901673e-13,2.406833105e-14,6.972635773e-14,5.385007049e-13,8.577855876e-13,2.452176388e-14,1.239546057e-13,3.179682962e-13,1.081854301e-13,3.620307111e-13,2.237478392e-14,9.479403425e-14
0.1875,2.910058566e-13,1.74857966e-14,3.303853072e-13,1.161525386e-13,2.63823567e-14,5.484282708e-13,3.10299742e-14,9.228305987e-13,7.575926297e-14,3.016230516e-13,6.61684909e-13,1.056395195e-13,3.697680296e-14,3.65489624e-14,8.452278922e-14,1.670858165e-13,2.121868991e-13,8.035754606e-14,5.043151955e-15,1.587883654e-13,1.580353835e-13,3.049807669e-14,7.550945158e-14,6.175021716e-13,9.223653048e-13,2.927784696e-14,1.275054703e-13,2.775690362e-13,1.125759141e-13,3.313329448e-13,2.260700839e-14,8.866038961e-14
0.1953125,2.537145572e-13,1.869641378e-14,2.973527613e-13,1.063613645e-13,1.64886036e-14,4.41718262e-13,3.140680226e-14,9.423606062e-13,7.256314463e-14,3.276952787e-13,7.847311863e-13,1.189577202e-13,3.624370605e-14,3.694976349e-14,8.943330998e-14,1.833604943e-13,2.248985105e-13,7.634913202e-14,5.509553663e-15,1.281322474e-13,1.51094348e-13,3.652988278e-14,7.849471107e-14,6.821104966e-13,9.552608101e-13,3.398747548e-14,1.341184819e-13,2.605149505e-13,1.111870299e-13,2.851644418e-13,2.414531376e-14,7.727626102e-14
0.203125,2.073828106e-13,2.090056973e-14,2.648059666e-13,9.637147429e-14,1.120046958e-14,3.453714607e-13,3.073673387e-14,9.097028058e-13,6.512240302e-14,3.363366119e-13,8.748126891e-13,1.259446085e-13,3.473407772e-14,3.739884511e-14,9.029615002e-14,1.89033445e-13,2.227137159e-13,6.778581242e-14,5.874704072e-15,9.551226849e-14,1.367084593e-13,4.049743464e-14,7.68314582e-14,7.228150617e-13,9.533782157e-13,3.647382066e-14,1.404642393e-13,2.646262376e-13,1.040053756e-13,2.337869048e-13,2.688041867e-14,6.086853707e-14
0.2109375,1.643039055e-13,2.371362381e-14,2.299208444e-13,8.530797842e-14,9.632938069e-15,2.691224161e-13,2.90101263e-14,8.440232743e-13,5.55192629e-14,3.279165898e-13,9.189590414e-13,1.238878838e-13,3.288843442e-14,3.59139153e-14,8.554856011e-14,1.819777758e-13,2.059432251e-13,5.581150146e-14,6.212722863e-15,6.658765501e-14,1.198010499e-13,4.202617704e-14,7.166523447e-14,7.375886602e-13,9.217343883e-13,3.545648622e-14,1.40641245e-13,2.663267233e-13,9.075303048e-14,1.787753384e-13,2.822302871e-14,4.512329826e-14
0.21875,1.264608133e-13,2.597426608e-14,1.97292115e-13,7.234680201e-14,1.063763277e-14,2.198274993e-13,2.651585606e-14,7.463342551e-13,4.466425398e-14,3.03242446e-13,8.993462795e-13,1.128109353e-13,3.099979455e-14,3.307034205e-14,8.007683861e-14,1.686323167e-13,1.816753522e-13,4.32193573e-14,6.820835418e-15,4.294440321e-14,1.016227526e-13,4.094189126e-14,6.389688059e-14,7.242475155e-13,8.580601751e-13,3.261441953e-14,1.33676051e-13,2.702431788e-13,7.435728803e-14,1.342996896e-13,2.741891785e-14,3.287904748e-14
0.2265625,9.72742186e-14,2.824558742e-14,1.714431751e-13,6.088436871e-14,1.447930953e-14,1.990350403e-13,2.348755156e-14,6.379064351e-13,3.471354473e-14,2.69348321e-13,8.370975901e-13,9.819532797e-14,2.952449461e-14,3.091825779e-14,7.44197786e-14,1.512706561e-13,1.537048425e-13,3.139611047e-14,7.780816951e-15,2.614720223e-14,8.402525173e-14,3.785039048e-14,5.56063633e-14,6.833688669e-13,7.783041165e-13,2.977122105e-14,1.237871559e-13,2.709861038e-13,5.953806624e-14,1.036982696e-13,2.679707643e-14,2.450504105e-14
0.234375,7.708664342e-14,3.068041573e-14,1.577679624e-13,5.292397407e-14,2.118322983e-14,2.054720652e-13,2.078515552e-14,5.277744948e-13,2.646011653e-14,2.295698715e-13,7.319675371e-13,8.049055214e-14,2.876974421e-14,2.928110305e-14,6.928593304e-14,1.345819845e-13,1.270447213e-13,2.134279344e-14,8.89280035e-15,1.663897821e-14,6.822192819e-14,3.313134925e-14,4.777121844e-14,6.183148292e-13,6.831724976e-13,2.730517433e-14,1.083071421e-13,2.665090174e-13,4.696355824e-14,8.798938118e-14,2.705444098e-14,2.17261443e-14
0.2421875,6.44152209e-14,3.415660445e-14,1.620836253e-13,5.046533527e-14,3.018651432e-14,2.352674884e-13,1.998551481e-14,4.219163057e-13,2.015387328e-14,1.88150405e-13,6.038239571e-13,6.124990715e-14,2.913023062e-14,2.758170913e-14,6.880884855e-14,1.217712065e-13,1.063804314e-13,1.391484643e-14,1.032457056e-14,1.440113262e-14,5.595120652e-14,2.863953726e-14,4.277936249e-14,5.315362069e-13,5.81492541e-13,2.686292027e-14,9.058857108e-14,2.636469655e-13,3.724443657e-14,9.015543463e-14,2.879176296e-14,2.537984308e-14
0.25,5.79879861e-14,3.79056554e-14,1.831262414e-13,5.346043235e-14,4.19429361e-14,2.820619127e-13,2.326668397e-14,3.289092025e-13,1.624503845e-14,1.494596828e-13,4.796878008e-13,4.41254077e-14,3.075161326e-14,2.520305403e-14,7.452567169e-14,1.172563668e-13,9.241216776e-14,9.360272725e-15,1.264117808e-14,1.645084816e-14,4.759686834e-14,2.602763053e-14,4.277340769e-14,4.36934182e-13,4.896169926e-13,3.004267094e-14,7.709596573e-14,2.792370001e-13,3.094964793e-14,1.08700948e-13,3.228140769e-14,3.482744583e-14
0.2578125,5.27596286e-14,4.224364784e-14,2.208274495e-13,6.133776481e-14,5.546072356e-14,3.350136671e-13,3.057366592e-14,2.502359581e-13,1.369900941e-14,1.167448938e-13,3.813900493e-13,3.114337536e-14,3.318004524e-14,2.262076618e-14,8.222029688e-14,1.181051344e-13,8.183514622e-14,7.581537587e-15,1.644340888e-14,2.051832092e-14,4.326211276e-14,2.65540667e-14,4.880159964e-14,3.396670708e-13,4.180548304e-13,3.671003796e-14,7.01731437e-14,3.146174663e-13,2.871265385e-14,1.454967622e-13,3.760790594e-14,4.760561779e-14
0.265625,4.879891539e-14,4.796913386e-14,2.705399896e-13,7.258743415e-14,6.934740347e-14,3.926133226e-13,4.207212878e-14,1.881309546e-13,1.243593305e-14,9.114686762e-14,3.183900455e-13,2.256561513e-14,3.641272378e-14,2.008564384e-14,9.09472176e-14,1.224849214e-13,7.357111278e-14,8.742650248e-15,2.192426825e-14,2.609680635e-14,4.277407591e-14,2.982173069e-14,6.024399109e-14,2.507116748e-13,3.711956158e-13,4.60778622e-14,7.191743757e-14,3.727238282e-13,2.97946083e-14,1.982044795e-13,4.408806355e-14,6.193589182e-14
0.2734375,4.339249883e-14,5.541394179e-14,3.269533927e-13,8.419827204e-14,8.194932277e-14,4.423752145e-13,5.735400507e-14,1.38561578e-13,1.187559718e-14,7.180205222e-14,2.935288813e-13,1.817766576e-14,4.075405355e-14,1.708285089e-14,9.844940806e-14,1.288386231e-13,6.671085303e-14,1.251568766e-14,2.979162901e-14,3.170477567e-14,4.523196071e-14,3.664367102e-14,7.70448575e-14,1.757073196e-13,3.495368995e-13,5.719465646e-14,8.080839205e-14,4.507249187e-13,3.310552939e-14,2.640440215e-13,5.064785482e-14,7.66986312e-14
0.28125,3.696181569e-14,6.347509702e-14,3.870655641e-13,9.297601663e-14,9.123109915e-14,4.842228029e-13,7.428854833e-14,1.011958364e-13,1.100017951e-14,5.781286615e-14,2.996482297e-13,1.621172564e-14,4.575012983e-14,1.387516215e-14,1.004310528e-13,1.308584699e-13,5.835287829e-14,1.863774742e-14,3.886311179e-14,3.640890888e-14,4.945929705e-14,4.497706746e-14,9.538474388e-14,1.179356446e-13,3.483555644e-13,6.778438228e-14,9.35700258e-14,5.338610705e-13,3.882058562e-14,3.467669573e-13,5.547412328e-14,8.99451084e-14
0.2890625,2.935462744e-14,7.206560852e-14,4.471981084e-13,9.785555431e-14,9.62850096e-14,5.131977835e-13,9.018241922e-14,7.191590116e-14,9.60039247e-15,4.767675638e-14,3.251884958e-13,1.596366898e-14,4.922118882e-14,1.090444421e-14,9.525376268e-14,1.255363458e-13,4.7783223e-14,2.643516842e-14,4.730786607e-14,3.978181025e-14,5.361174798e-14,5.182547958e-14,1.108695192e-13,7.762184577e-14,3.571777037e-13,7.487391537e-14,1.050335564e-13,5.986333029e-13,4.524303745e-14,4.313695592e-13,5.840532254e-14,9.892207875e-14
0.296875,2.226554088e-14,8.026208497e-14,5.033512709e-13,9.606741173e-14,9.578507818e-14,5.273491896e-13,1.035919063e-13,5.028423959e-14,8.031093356e-15,4.007670247e-14,3.529554338e-13,1.586996438e-14,5.167011317e-14,8.895274186e-15,8.397628988e-14,1.164686389e-13,3.733953925e-14,3.498079404e-14,5.478339186e-14,4.175250963e-14,5.685104466e-14,5.729848897e-14,1.232425044e-13,5.31794124e-14,3.688087806e-13,7.739804718e-14,1.104253221e-13,6.283977362e-13,5.305256684e-14,5.141968904e-13,5.775988129e-14,1.034217506e-13
0.3046875,1.631916492e-14,8.547241132e-14,5.536765559e-13,8.963392032e-14,9.135440521e-14,5.248067995e-13,1.126232844e-13,3.451020036e-14,6.343901423e-15,3.368772819e-14,3.729943645e-13,1.532750335e-14,5.174076289e-14,7.946546522e-15,6.891766962e-14,1.042250301e-13,2.827211608e-14,4.216310208e-14,5.895251977e-14,4.214483619e-14,5.679563058e-14,5.914872569e-14,1.282635979e-13,4.206650304e-14,3.740837782e-13,7.526080274e-14,1.077687147e-13,6.157400838e-13,6.111257117e-14,5.861474363e-13,5.405862137e-14,1.030655266e-13
0.3125,1.264151515e-14,8.739549063e-14,5.926219747e-13,8.030290169e-14,8.494899332e-14,5.128350037e-13,1.168832192e-13,2.451987672e-14,4.704074121e-15,2.832198946e-14,3.754550107e-13,1.401761673e-14,4.916593767e-14,8.134532147e-15,5.376872345e-14,9.045541806e-14,2.124156341e-14,4.664945905e-14,5.90775808e-14,4.18570307e-14,5.378445999e-14,5.708870165e-14,1.244034151e-13,4.097737659e-14,3.722456576e-13,6.925690712e-14,9.996822493e-14,5.735783441e-13,6.817929001e-14,6.361025992e-13,4.857522336e-14,9.909592786e-14
0.3203125,1.17296642e-14,8.663013701e-14,6.215461219e-13,6.787556465e-14,7.577869954e-14,4.892518649e-13,1.14997902e-13,1.869106062e-14,3.364466721e-15,2.359923416e-14,3.619476595e-13,1.235304114e-14,4.501558322e-14,9.3932309e-15,3.961443575e-14,7.82790589e-14,1.642949401e-14,4.974054622e-14,5.642998122e-14,3.942491258e-14,4.812954964e-14,5.14096511e-14,1.12350103e-13,4.575570984e-14,3.571954123e-13,5.891282021e-14,8.67874607e-14,4.944812117e-13,7.374105431e-14,6.538927217e-13,4.185913418e-14,9.210676242e-14
0.328125,1.368873049e-14,8.232994903e-14,6.35975619e-13,5.39361448e-14,6.600815558e-14,4.523331742e-13,1.08988789e-13,1.655159672e-14,2.506535303e-15,1.972583555e-14,3.292338563e-13,1.004632407e-14,3.974008999e-14,1.133601604e-14,2.996493244e-14,7.234823029e-14,1.504660418e-14,5.007544962e-14,5.098102746e-14,3.462322447e-14,4.030173443e-14,4.431147567e-14,9.546389637e-14,5.50819722e-14,3.347645878e-13,4.685671251e-14,7.321895924e-14,4.069732834e-13,7.843888143e-14,6.440707469e-13,3.397941439e-14,8.250470827e-14
0.3359375,1.906581411e-14,7.523487845e-14,6.317552488e-13,4.268725871e-14,5.878720795e-14,4.101564156e-13,1.002528355e-13,1.901861072e-14,2.116421275e-15,1.68391632e-14,2.867231034e-13,7.883774409e-15,3.373417576e-14,1.303668612e-14,2.433020508e-14,6.92891992e-14,1.478820699e-14,4.695733983e-14,4.377684627e-14,3.020568413e-14,3.192883325e-14,3.735116407e-14,7.559304841e-14,6.503710936e-14,3.072342862e-13,3.555666405e-14,6.407826469e-14,3.282112443e-13,8.055158581e-14,6.058743335e-13,2.749892188e-14,7.328967981e-14
0.34375,2.653918774e-14,6.802694054e-14,6.087446337e-13,3.322367414e-14,5.216705085e-14,3.633474632e-13,8.837307843e-14,2.423109612e-14,2.274288535e-15,1.531082265e-14,2.390957421e-13,5.89566818e-15,2.816449048e-14,1.446340958e-14,2.164616335e-14,6.848565569e-14,1.586885562e-14,4.329044373e-14,3.722738418e-14,2.631947502e-14,2.494780332e-14,3.185557164e-14,5.599254605e-14,7.347232021e-14,2.759696375e-13,2.539833618e-14,5.984549786e-14,2.601124263e-13,7.968247104e-14,5.461360101e-13,2.259429244e-14,6.361619422e-14
0.3515625,3.40852442e-14,6.215079631e-14,5.687306216e-13,2.578064435e-14,4.51245829e-14,3.154145212e-13,7.522615466e-14,3.052948335e-14,2.999057376e-15,1.511219282e-14,1.925791168e-13,4.309572909e-15,2.40102988e-14,1.529343225e-14,2.090711015e-14,6.924489021e-14,1.731583294e-14,4.030417947e-14,3.268780321e-14,2.333809153e-14,2.04354287e-14,2.935068228e-14,3.961392976e-14,7.956265185e-14,2.412441395e-13,1.714714619e-14,6.029473099e-14,2.099747372e-13,7.696492368e-14,4.782669248e-13,1.902626211e-14,5.350880678e-14
0.359375,4.114174788e-14,5.830462677e-14,5.134080956e-13,2.051215084e-14,3.868486182e-14,2.743354792e-13,6.261673698e-14,3.670694005e-14,4.409871092e-15,1.59557289e-14,1.526159448e-13,3.177483199e-15,2.164235021e-14,1.496905184e-14,2.040030548e-14,6.807398734e-14,1.765059951e-14,3.742935032e-14,3.027777334e-14,2.18122815e-14,1.839566035e-14,3.103177639e-14,2.685051952e-14,8.348296209e-14,2.055994498e-13,1.166575697e-14,6.293423922e-14,1.835280368e-13,7.212201137e-14,4.099294234e-13,1.671854893e-14,4.467521186e-14
0.3671875,4.707865382e-14,5.769175826e-14,4.460027486e-13,1.855049486e-14,3.33498147e-14,2.461334837e-13,5.060913486e-14,4.303607559e-14,6.275063171e-15,1.745060947e-14,1.205796817e-13,2.57954714e-15,2.025192375e-14,1.385747044e-14,2.041725553e-14,6.494056343e-14,1.748851667e-14,3.48109054e-14,2.989512903e-14,2.438926508e-14,2.037538808e-14,3.642307557e-14,1.903095146e-14,8.241252042e-14,1.758784108e-13,8.968167314e-15,6.667808805e-14,1.839459215e-13,6.538723595e-14,3.464545362e-13,1.633406878e-14,3.684784933e-14
0.375,4.91360599e-14,6.153166813e-14,3.722379323e-13,1.986216228e-14,2.732106772e-14,2.378920119e-13,3.962720665e-14,4.568218151e-14,8.331533381e-15,1.845672966e-14,9.495881786e-14,2.439202065e-15,1.933145511e-14,1.251784121e-14,2.141400506e-14,6.089533988e-14,1.731766138e-14,3.276311797e-14,3.138157262e-14,3.024149964e-14,2.582250187e-14,4.417271305e-14,1.648258596e-14,7.752968489e-14,1.557136313e-13,8.680380668e-15,7.09256224e-14,2.212330155e-13,5.759841086e-14,2.978706035e-13,1.748924383e-14,2.921981555e-14
0.3828125,4.638790408e-14,7.057162147e-14,3.019564293e-13,2.585994334e-14,2.149527392e-14,2.5806367e-13,3.084795119e-14,4.373840303e-14,1.028121114e-14,1.911609917e-14,7.761021666e-14,2.638537973e-15,1.850903818e-14,1.060543533e-14,2.196787486e-14,5.399185615e-14,1.666144094e-14,3.106009211e-14,3.458960852e-14,4.133086907e-14,3.518361796e-14,5.347662341e-14,1.846046374e-14,7.031710027e-14,1.489680093e-13,9.947766805e-15,7.286771528e-14,3.073387755e-13,4.856227751e-14,2.64917705e-13,1.965004822e-14,2.292093134e-14
0.390625,4.183265285e-14,8.408457638e-14,2.433753652e-13,3.68757718e-14,1.640672896e-14,3.073523961e-13,2.390482616e-14,4.165436674e-14,1.226503766e-14,1.982473951e-14,6.726293461e-14,2.99189526e-15,1.724167202e-14,8.548075637e-15,2.314126572e-14,4.603462567e-14,1.601657099e-14,2.926211365e-14,3.81265644e-14,5.803037805e-14,4.799455228e-14,6.24829882e-14,2.417198031e-14,6.507187153e-14,1.603023286e-13,1.332761344e-14,7.681943753e-14,4.537701827e-13,3.973051512e-14,2.477193862e-13,2.232615403e-14,1.806057929e-14
0.3984375,3.515732341e-14,1.021709498e-13,2.035238456e-13,5.424888334e-14,1.232883123e-14,3.867626964e-13,1.80914872e-14,3.846453316e-14,1.414400164e-14,1.976728834e-14,6.363802878e-14,3.548119224e-15,1.512919345e-14,6.795439436e-15,2.515255718e-14,3.851464735e-14,1.606104495e-14,2.755310909e-14,4.079855878e-14,7.900226821e-14,6.212122052e-14,7.00505724e-14,3.229968027e-14,6.293352675e-14,1.877154322e-13,1.857632772e-14,8.458148005e-14,6.535654084e-13,3.17086002e-14,2.413352176e-13,2.598853401e-14,1.388083121e-14
0.40625,2.787210384e-14,1.223712696e-13,1.866785373e-13,7.772662137e-14,9.458589821e-15,4.872930551e-13,1.364858238e-14,3.449405397e-14,1.555041852e-14,1.982813877e-14,6.558278824e-14,3.842622661e-15,1.260819811e-14,5.240752169e-15,2.683795147e-14,3.08716798e-14,1.620476119e-14,2.567674218e-14,4.212779571e-14,1.037055287e-13,7.711469952e-14,7.440882929e-14,4.272978174e-14,6.892475563e-14,2.254569257e-13,2.548343451e-14,9.69355048e-14,8.944216528e-13,2.417235323e-14,2.419917958e-13,2.986069529e-14,1.097280026e-14
0.4140625,2.098494885e-14,1.414278566e-13,1.963307783e-13,1.054130221e-13,7.847722803e-15,5.99332261e-13,1.034640767e-14,3.255601079e-14,1.713778651e-14,2.124678421e-14,7.399000964e-14,4.103412639e-15,1.041702128e-14,3.978215094e-15,2.782507927e-14,2.349714248e-14,1.593584089e-14,2.387223978e-14,4.155677956e-14,1.301206541e-13,9.068654852e-14,7.524827012e-14,5.288154819e-14,8.664394783e-14,2.668721034e-13,3.330571334e-14,1.116002282e-13,1.127012324e-12,1.820239431e-14,2.43226316e-13,3.351904412e-14,9.509208791e-15
0.421875,1.56450408e-14,1.583097565e-13,2.301867567e-13,1.354818035e-13,7.606634446e-15,7.086529259e-13,7.60536856e-15,3.469665028e-14,1.887704169e-14,2.388405088e-14,8.950233216e-14,4.317197926e-15,8.735773973e-15,3.165671182e-15,2.902510273e-14,1.787870554e-14,1.59629307e-14,2.265321226e-14,3.895462969e-14,1.558836358e-13,1.006352106e-13,7.331419018e-14,6.06487094e-14,1.188554493e-13,3.021576511e-13,4.132968853e-14,1.301845187e-13,1.32038506e-12,1.441019334e-14,2.413584709e-13,3.743391937e-14,8.92958498e-15
0.4296875,1.205890508e-14,1.71810719e-13,2.84308056e-13,1.660219979e-13,8.272831655e-15,8.049079329e-13,5.402203663e-15,4.095846517e-14,2.112678639e-14,2.781060269e-14,1.100341915e-13,4.482438005e-15,8.271534319e-15,2.856674196e-15,2.880485165e-14,1.26911242e-14,1.568872544e-14,2.278095608e-14,3.489722865e-14,1.785018356e-13,1.065571768e-13,7.054271175e-14,6.577508968e-14,1.668814518e-13,3.255324549e-13,4.859203949e-14,1.447955274e-13,1.429938153e-12,1.259745403e-14,2.352400892e-13,4.11917658e-14,8.853098907e-15
0.4375,1.07414451e-14,1.778267959e-13,3.570626516e-13,1.92645406e-13,1.001747357e-14,8.769342616e-13,3.677728296e-15,5.185261631e-14,2.391140409e-14,3.234119791e-14,1.304901554e-13,4.941205409e-15,8.855092801e-15,3.152932871e-15,2.730531335e-14,8.57157027e-15,1.486908644e-14,2.459395898e-14,2.987942255e-14,1.927967916e-13,1.069030401e-13,6.672347632e-14,6.692815456e-14,2.30732153e-13,3.384643561e-13,5.408474807e-14,1.53020577e-13,1.42945185e-12,1.207608678e-14,2.210361466e-13,4.435391997e-14,9.463055431e-15
0.4453125,1.187941304e-14,1.751882765e-13,4.403834258e-13,2.122289479e-13,1.29469988e-14,9.216011412e-13,2.338175184e-15,6.551802316e-14,2.635693605e-14,3.651258119e-14,1.44824486e-13,5.420301153e-15,1.006246607e-14,4.028789327e-15,2.524715534e-14,6.056042066e-15,1.417754625e-14,2.789739554e-14,2.467504097e-14,1.99802768e-13,1.023865624e-13,6.235256601e-14,6.417156598e-14,3.065592879e-13,3.410809464e-13,5.621945081e-14,1.525585436e-13,1.315058333e-12,1.259603597e-14,1.987939284e-13,4.630133007e-14,1.026708408e-14
0.453125,1.578416781e-14,1.640412252e-13,5.367487351e-13,2.230986859e-13,1.674780436e-14,9.430882323e-13,1.323909858e-15,8.112161024e-14,2.81884972e-14,3.986111397e-14,1.53064925e-13,5.800262358e-15,1.162083139e-14,5.103069507e-15,2.276245972e-14,5.203125325e-15,1.452383308e-14,3.313273937e-14,1.987238323e-14,1.983965153e-13,9.460078299e-14,5.851671576e-14,5.890020088e-14,3.944481113e-13,3.438458362e-13,5.505137872e-14,1.428998752e-13,1.114153888e-12,1.35190237e-14,1.710776019e-13,4.658666852e-14,1.094416312e-14
0.4609375,2.206214973e-14,1.474853902e-13,6.333379298e-13,2.231341074e-13,2.105172082e-14,9.38273316e-13,6.469682736e-16,9.549131503e-14,2.917760038e-14,4.147481312e-14,1.506877562e-13,6.650408886e-15,1.264089201e-14,6.464887677e-15,2.052129275e-14,6.108793842e-15,1.739343334e-14,3.911107957e-14,1.585038834e-14,1.867841361e-13,8.480277657e-14,5.484764335e-14,5.309919643e-14,4.833145552e-13,3.469279082e-13,5.178219231e-14,1.273514039e-13,8.745648245e-13,1.430297841e-14,1.444549707e-13,4.535411263e-14,1.176721375e-14
0.46875,3.101904023e-14,1.26266811e-13,7.260776285e-13,2.131875342e-13,2.6433033e-14,9.163824057e-13,3.397784358e-16,1.085242981e-13,2.852624002e-14,4.080592086e-14,1.373685489e-13,7.661529537e-15,1.315381527e-14,8.084655513e-15,1.872400427e-14,8.859214673e-15,2.32478786e-14,4.506891837e-14,1.290947409e-14,1.671248177e-13,7.438618813e-14,5.052953721e-14,4.690870371e-14,5.646173057e-13,3.521295556e-13,4.62422766e-14,1.074602575e-13,6.325888578e-13,1.445101994e-14,1.233933721e-13,4.254007218e-14,1.292937777e-14
0.4765625,4.112827014e-14,1.027496369e-13,8.019075331e-13,1.953902718e-13,3.246448407e-14,8.83680284e-13,3.373232138e-16,1.21433566e-13,2.651269655e-14,3.936571833e-14,1.176599831e-13,8.63496598e-15,1.32727889e-14,9.755146524e-15,1.797990578e-14,1.321722521e-14,3.175370522e-14,4.930342296e-14,1.082652915e-14,1.444993921e-13,6.475483677e-14,4.509631262e-14,4.059523564e-14,6.376141361e-13,3.561594806e-13,3.890338097e-14,8.70507567e-14,4.187296851e-13,1.436906958e-14,1.066123282e-13,3.835147265e-14,1.355168448e-14
0.484375,5.005480164e-14,8.002576993e-14,8.528632121e-13,1.715708061e-13,3.772387816e-14,8.388485612e-13,6.989054194e-16,1.335711241e-13,2.351910258e-14,3.79544471e-14,9.608439314e-14,9.45481544e-15,1.302613077e-14,1.06729066e-14,1.798625349e-14,1.863333878e-14,4.265146323e-14,5.186694399e-14,9.548625711e-15,1.216816773e-13,5.639559683e-14,3.938986846e-14,3.546842053e-14,6.880295922e-13,3.570578278e-13,3.091353075e-14,6.879060027e-14,2.550243833e-13,1.35998304e-14,9.841653146e-14,3.29515648e-14,1.35844026e-14
0.4921875,5.63293864e-14,6.036749358e-14,8.620286724e-13,1.436731897e-13,4.126630281e-14,7.824446661e-13,1.390462662e-15,1.450537226e-13,1.995825154e-14,3.804582684e-14,7.616233037e-14,1.03784681e-14,1.300314343e-14,1.072602529e-14,1.937840668e-14,2.544979383e-14,5.4683014e-14,5.142833889e-14,8.609857442e-15,9.975511652e-14,4.958605221e-14,3.387085589e-14,3.110280434e-14,7.10732461e-13,3.457475674e-13,2.356833658e-14,5.401382567e-14,1.444291275e-13,1.266078897e-14,9.900537214e-14,2.665050414e-14,1.305220606e-14
0.5,5.941185359e-14,4.564589283e-14,8.267879982e-13,1.16140155e-13,4.333108693e-14,7.147732094e-13,2.310197214e-15,1.561827638e-13,1.6472932e-14,3.983390435e-14,5.931868891e-14,1.183776756e-14,1.38161647e-14,1.056717353e-14,2.268304177e-14,3.313196565e-14,6.573060641e-14,4.824121516e-14,7.749164202e-15,7.966523039e-14,4.449738244e-14,2.896620476e-14,2.784867502e-14,7.017603531e-13,3.20503443e-13,1.819849369e-14,4.415381201e-14,8.153813924e-14,1.244307315e-14,1.069980435e-13,2.104912543e-14,1.220482817e-14
0.5078125,5.903922238e-14,3.668544771e-14,7.494207192e-13,9.168638222e-14,4.434175092e-14,6.38161444e-13,3.33606436e-15,1.663998543e-13,1.339272928e-14,4.362784817e-14,4.869780761e-14,1.377607381e-14,1.566582333e-14,1.065476815e-14,2.708134688e-14,3.937359196e-14,7.234268521e-14,4.267390183e-14,6.861212457e-15,6.365624714e-14,4.135689002e-14,2.510836337e-14,2.552753424e-14,6.632020374e-13,2.8411017e-13,1.40282214e-14,3.582309551e-14,5.341152632e-14,1.326979146e-14,1.188152703e-13,1.698005527e-14,1.116841648e-14
0.515625,5.40331864e-14,3.231087988e-14,6.442801651e-13,7.134471939e-14,4.322978631e-14,5.534185766e-13,4.154943359e-15,1.722404235e-13,1.131635968e-14,4.946912979e-14,4.791730761e-14,1.614154251e-14,1.905168973e-14,1.070039462e-14,3.043977315e-14,4.320520865e-14,7.283017033e-14,3.734163339e-14,6.044133905e-15,5.163841432e-14,3.905034618e-14,2.275638284e-14,2.514943654e-14,5.987114605e-13,2.441511629e-13,1.144037995e-14,2.826355554e-14,5.110235471e-14,1.553457519e-14,1.333612138e-13,1.400928904e-14,9.315600301e-15
0.5234375,4.68541447e-14,3.15545437e-14,5.291002013e-13,5.592161266e-14,4.030119407e-14,4.612147879e-13,4.71575971e-15,1.730561732e-13,1.032186862e-14,5.581675165e-14,5.548396261e-14,1.902622528e-14,2.35825071e-14,1.118864307e-14,3.322101369e-14,4.56375205e-14,6.85833817e-14,3.472993246e-14,5.510341685e-15,4.297006914e-14,3.734038776e-14,2.157953021e-14,2.656231104e-14,5.174128985e-13,2.107802523e-13,1.084128845e-14,2.285838334e-14,7.193921066e-14,1.99399237e-14,1.458402052e-13,1.286322471e-14,7.594633834e-15
0.53125,3.968353614e-14,3.506745538e-14,4.282680109e-13,4.814237996e-14,3.762075052e-14,3.707493277e-13,5.060509375e-15,1.653076186e-13,1.019237341e-14,6.064769595e-14,6.852634854e-14,2.209046719e-14,2.936401818e-14,1.272485686e-14,3.726060714e-14,4.769818741e-14,6.110570695e-14,3.668841407e-14,5.628035569e-15,3.620560499e-14,3.569098347e-14,1.972899425e-14,2.86691375e-14,4.284920006e-13,1.859475585e-13,1.113958293e-14,1.899589243e-14,1.074390758e-13,2.704257695e-14,1.539849164e-13,1.449686787e-14,6.805464263e-15
0.5390625,3.41784605e-14,4.134197875e-14,3.569200025e-13,4.996482314e-14,3.717325873e-14,2.947141406e-13,5.099487805e-15,1.49820099e-13,1.06147073e-14,6.336354424e-14,8.463890083e-14,2.541838398e-14,3.51225047e-14,1.583709717e-14,4.02712815e-14,4.749705908e-14,5.076273859e-14,4.330278576e-14,6.337170594e-15,3.04904355e-14,3.411934635e-14,1.788894731e-14,3.163289562e-14,3.431345048e-13,1.766267399e-13,1.192423121e-14,1.576991526e-14,1.544126874e-13,3.69145742e-14,1.543508284e-13,1.831848446e-14,6.782282504e-15
0.546875,3.189264482e-14,5.083095376e-14,3.284893188e-13,6.255987048e-14,3.973514787e-14,2.383061374e-13,4.850756034e-15,1.2793935e-13,1.117818892e-14,6.313878139e-14,1.051289351e-13,2.930080929e-14,4.080069994e-14,2.136392679e-14,4.290768528e-14,4.631014173e-14,4.0570945e-14,5.573930894e-14,7.962642131e-15,2.455348685e-14,3.234868346e-14,1.601954057e-14,3.465411499e-14,2.730843163e-13,1.869758978e-13,1.341577178e-14,1.41146712e-14,2.100769903e-13,5.071444873e-14,1.481365814e-13,2.423990563e-14,7.711471478e-15
0.5546875,3.400794581e-14,6.497827025e-14,3.37847763e-13,8.646243607e-14,4.588352638e-14,2.050825999e-13,4.669306124e-15,1.025789527e-13,1.183303868e-14,5.927572441e-14,1.26881685e-13,3.304376788e-14,4.565739506e-14,2.893065247e-14,4.90565859e-14,4.843749149e-14,3.391866557e-14,7.031127232e-14,9.918574774e-15,1.93027538e-14,3.085016898e-14,1.324186847e-14,3.616652491e-14,2.239009112e-13,2.093896683e-13,1.404920252e-14,1.450036351e-14,2.562711722e-13,6.795193549e-14,1.368176397e-13,3.291008273e-14,9.861112812e-15
0.5625,4.090262516e-14,8.329591245e-14,3.77594711e-13,1.204080149e-13,5.582532069e-14,2.019540871e-13,4.79736111e-15,7.885273504e-14,1.227008903e-14,5.281531689e-14,1.461944459e-13,3.637210021e-14,4.831980452e-14,3.791670297e-14,5.830581192e-14,5.235290133e-14,3.162222628e-14,8.372910334e-14,1.170892069e-14,1.612420008e-14,3.134805441e-14,1.022481715e-14,3.712437654e-14,2.017611178e-13,2.395326642e-13,1.350261295e-14,1.613820691e-14,2.950971561e-13,8.639336109e-14,1.268249984e-13,4.227639876e-14,1.263436772e-14
0.5703125,5.130164674e-14,1.042850103e-13,4.302808027e-13,1.623374551e-13,6.906013471e-14,2.2987383e-13,4.913279122e-15,5.902519847e-14,1.203735974e-14,4.451922028e-14,1.613699579e-13,3.943554238e-14,4.813628896e-14,4.825562448e-14,7.013108368e-14,5.757050279e-14,3.408288817e-14,9.46918842e-14,1.326027901e-14,1.511681201e-14,3.425618331e-14,7.64308976e-15,3.781646784e-14,2.065924041e-13,2.750548429e-13,1.252238045e-14,1.938685256e-14,3.269908933e-13,1.049295749e-13,1.172951669e-13,5.132077364e-14,1.529508834e-14
0.578125,6.458997281e-14,1.267389921e-13,4.757165775e-13,2.088658048e-13,8.518412616e-14,2.877204349e-13,5.422929216e-15,4.594375351e-14,1.136610587e-14,3.577327226e-14,1.758505437e-13,4.217876644e-14,4.59124819e-14,5.987674283e-14,8.683777332e-14,6.526773249e-14,4.016283383e-14,9.965826307e-14,1.427719987e-14,1.830460864e-14,4.040970355e-14,5.80319825e-15,3.729069001e-14,2.341231253e-13,3.104081525e-13,1.083543276e-14,2.252665635e-14,3.481154583e-13,1.227490462e-13,1.145225545e-13,6.00971848e-14,1.808886317e-14
0.5859375,7.839124409e-14,1.479349894e-13,5.02076543e-13,2.531462392e-13,1.008383327e-13,3.691147548e-13,6.0259174e-15,4.074255039e-14,1.03649486e-14,2.771203687e-14,1.833162566e-13,4.392624521e-14,4.115864411e-14,7.045218533e-14,1.032760147e-13,7.093025207e-14,4.580044415e-14,9.580243457e-14,1.430695184e-14,2.756227266e-14,5.107452295e-14,5.289422037e-15,3.799438473e-14,2.778864783e-13,3.448045474e-13,8.709500648e-15,2.478240608e-14,3.642183036e-13,1.35404499e-13,1.178990213e-13,6.649878675e-14,2.03165429e-14
0.59375,8.930756105e-14,1.603062237e-13,5.048441887e-13,2.865898249e-13,1.134820588e-13,4.611487783e-13,6.159834235e-15,4.161220697e-14,8.686147266e-15,2.195923552e-14,1.880637583e-13,4.502023901e-14,3.409373648e-14,7.898625967e-14,1.166585232e-13,7.293616875e-14,4.955511046e-14,8.498263831e-14,1.377887516e-14,4.257171411e-14,6.429620955e-14,6.833442946e-15,3.97461134e-14,3.250561473e-13,3.775678744e-13,7.06274814e-15,2.676545489e-14,3.814365958e-13,1.412280001e-13,1.211265373e-13,6.903882122e-14,2.096601821e-14
0.6015625,9.80677018e-14,1.630651197e-13,4.907894576e-13,3.0651768e-13,1.228728632e-13,5.591574446e-13,6.45984118e-15,4.662758757e-14,7.097726848e-15,1.835206948e-14,1.930958949e-13,4.528194308e-14,2.677083019e-14,8.554348713e-14,1.282261685e-13,7.270324662e-14,5.119225387e-14,7.056703318e-14,1.351667536e-14,6.306602208e-14,7.914439779e-14,9.945981449e-15,4.049850489e-14,3.696369646e-13,4.071296826e-13,5.429201336e-15,2.711168682e-14,3.976457159e-13,1.401335219e-13,1.226891486e-13,6.845082522e-14,2.163611243e-14
0.609375,1.005759542e-13,1.574872794e-13,4.533195892e-13,3.12026749e-13,1.265859456e-13,6.463582801e-13,6.776241381e-15,5.310061889e-14,5.897007346e-15,1.688238576e-14,1.917981628e-13,4.470999201e-14,2.028653e-14,8.853348049e-14,1.321629575e-13,6.79644497e-14,4.858524593e-14,5.392405972e-14,1.380454525e-14,8.725674861e-14,9.317379645e-14,1.420987006e-14,4.034949328e-14,3.944859364e-13,4.288507784e-13,4.010418485e-15,2.534614857e-14,4.103071399e-13,1.323643788e-13,1.214118883e-13,6.50976714e-14,2.162220859e-14
0.6171875,9.609908118e-14,1.425367022e-13,4.056015331e-13,3.008621316e-13,1.232061828e-13,7.159652364e-13,6.561376778e-15,5.829921945e-14,4.815076933e-15,1.715497462e-14,1.836151889e-13,4.310752114e-14,1.461792652e-14,8.720522776e-14,1.260427223e-13,5.782258107e-14,4.178523541e-14,3.766324986e-14,1.471318899e-14,1.112556225e-13,1.044785581e-13,1.947771052e-14,4.023485116e-14,3.968243309e-13,4.408050866e-13,3.205635039e-15,2.272702358e-14,4.215667165e-13,1.17507555e-13,1.154806157e-13,5.858786432e-14,2.00760098e-14
0.625,8.631012101e-14,1.186615293e-13,3.553412354e-13,2.726903781e-13,1.138639586e-13,7.556796313e-13,6.507621266e-15,5.947895196e-14,4.412094004e-15,1.830543869e-14,1.719184122e-13,4.077222604e-14,1.057583919e-14,8.231527666e-14,1.130453795e-13,4.62729346e-14,3.342328904e-14,2.429475123e-14,1.558153703e-14,1.304968288e-13,1.104735378e-13,2.446427701e-14,3.85647316e-14,3.766013455e-13,4.392118377e-13,3.055050864e-15,1.990603251e-14,4.300897441e-13,9.850087244e-14,1.04461036e-13,4.997476931e-14,1.774638907e-14
0.6328125,7.338535812e-14,9.256315869e-14,3.082126339e-13,2.368954833e-13,1.016061951e-13,7.642100847e-13,6.470490915e-15,5.699228816e-14,4.95796454e-15,1.957331189e-14,1.561599639e-13,3.865281577e-14,8.274268597e-15,7.597392996e-14,9.650047284e-14,3.595520136e-14,2.571938274e-14,1.540530223e-14,1.591769534e-14,1.410454755e-13,1.1016031e-13,2.776209654e-14,3.477831281e-14,3.360672885e-13,4.242252246e-13,3.519934594e-15,1.699236034e-14,4.22736856e-13,7.98294252e-14,9.154922235e-14,4.181478423e-14,1.587748349e-14
0.640625,5.903079621e-14,6.824438227e-14,2.598385889e-13,1.991313766e-13,8.749402378e-14,7.397062623e-13,6.467275359e-15,5.175470699e-14,6.918956968e-15,2.004572007e-14,1.377739773e-13,3.699365738e-14,7.922478541e-15,6.899737156e-14,7.809123228e-14,2.720346312e-14,2.006013007e-14,1.037735732e-14,1.586528686e-14,1.429440128e-13,1.037432741e-13,2.903251814e-14,2.96568946e-14,2.809738107e-13,3.892760901e-13,4.472497672e-15,1.390039393e-14,3.926073559e-13,6.230392842e-14,8.035665411e-14,3.4905144e-14,1.451848197e-14
0.6484375,4.498999469e-14,4.624487155e-14,2.184440561e-13,1.599532482e-13,7.183831769e-14,6.844668686e-13,6.59892144e-15,4.497686739e-14,1.02467043e-14,1.9708087e-14,1.182210646e-13,3.510992424e-14,9.212037396e-15,6.062501519e-14,5.859786886e-14,2.054727007e-14,1.658687405e-14,8.679605391e-15,1.505311593e-14,1.35747599e-13,9.233864716e-14,2.81273273e-14,2.41297571e-14,2.219442714e-13,3.400400318e-13,5.704002501e-15,1.171854049e-14,3.486899268e-13,4.678763856e-14,7.131427905e-14,2.865270184e-14,1.412061174e-14
0.65625,3.307847216e-14,2.926944939e-14,1.819132064e-13,1.255033554e-13,5.6988325e-14,6.036098014e-13,6.756823897e-15,3.871552221e-14,1.497614555e-14,1.915566021e-14,1.001476807e-13,3.328656475e-14,1.18760361e-14,5.200773655e-14,4.231204865e-14,1.708029649e-14,1.666520165e-14,9.736769902e-15,1.324062006e-14,1.192905488e-13,7.749264791e-14,2.523775239e-14,1.88441725e-14,1.691743349e-13,2.848353355e-13,7.236350287e-15,1.113677693e-14,2.9800774e-13,3.58593446e-14,6.402822461e-14,2.387287172e-14,1.503514051e-14
0.6640625,2.491461086e-14,1.757258525e-14,1.501452768e-13,9.79992588e-14,4.455171938e-14,5.075058006e-13,7.363045539e-15,3.546365536e-14,2.0971789e-14,1.899509452e-14,8.664919626e-14,3.177238809e-14,1.571827954e-14,4.435193403e-14,3.035457143e-14,1.545138267e-14,1.974322219e-14,1.231158638e-14,1.107934626e-14,9.744073469e-14,6.191131772e-14,2.176679808e-14,1.410195669e-14,1.283313257e-13,2.311266484e-13,8.837364241e-15,1.162367494e-14,2.433898864e-13,2.911819708e-14,5.686999685e-14,2.091100327e-14,1.8204801e-14
0.671875,2.064039153e-14,9.901909285e-15,1.24822549e-13,7.660963284e-14,3.433838309e-14,4.0426094e-13,8.956855757e-15,3.720789927e-14,2.774978075e-14,2.017873195e-14,7.826447331e-14,3.016030352e-14,2.045514395e-14,3.727629741e-14,2.208482146e-14,1.464228775e-14,2.498291452e-14,1.580563414e-14,8.995273712e-15,7.507592057e-14,4.818440092e-14,1.871596546e-14,1.05878255e-14,1.058336357e-13,1.903788769e-13,1.012756699e-14,1.285991501e-14,1.98392544e-13,2.569950923e-14,5.054076704e-14,1.895446194e-14,2.369883129e-14
0.6796875,1.958986998e-14,5.647148288e-15,1.037012828e-13,6.126240035e-14,2.638388339e-14,3.064834838e-13,1.156721585e-14,4.413592099e-14,3.429436535e-14,2.345703795e-14,7.600247141e-14,2.838517739e-14,2.573426647e-14,3.08955428e-14,1.699061668e-14,1.388803112e-14,3.115605779e-14,1.911441483e-14,7.280209259e-15,5.631340339e-14,3.804531878e-14,1.651348119e-14,8.340687148e-15,9.910606515e-14,1.686127893e-13,1.116578619e-14,1.43851459e-14,1.686592247e-13,2.4929907e-14,4.388345916e-14,1.754338044e-14,3.146777306e-14
0.6875,2.105434179e-14,4.155637543e-15,8.711509313e-14,5.165847494e-14,2.034031506e-14,2.205722328e-13,1.521890268e-14,5.513516611e-14,4.03578437e-14,2.865207951e-14,7.752820372e-14,2.654086087e-14,3.099700841e-14,2.533542969e-14,1.389969279e-14,1.33671546e-14,3.745101071e-14,2.214130791e-14,6.236344566e-15,4.274637672e-14,3.244818697e-14,1.643573109e-14,7.172711105e-15,1.060396427e-13,1.697057128e-13,1.165458645e-14,1.549458478e-14,1.603861088e-13,2.601534193e-14,3.692538113e-14,1.663986523e-14,4.179992921e-14
0.6953125,2.409966506e-14,4.075153419e-15,7.283015005e-14,4.561740686e-14,1.564929508e-14,1.521615932e-13,1.985761535e-14,6.979224059e-14,4.499727572e-14,3.549716321e-14,8.038698591e-14,2.459937456e-14,3.562292986e-14,2.038987213e-14,1.177574573e-14,1.326248837e-14,4.307160286e-14,2.420834045e-14,5.668397045e-15,3.399943009e-14,3.126418974e-14,1.802222578e-14,7.105058426e-15,1.228056052e-13,1.92376158e-13,1.125040738e-14,1.609849477e-14,1.712532214e-13,2.800743159e-14,3.132455783e-14,1.578406899e-14,5.306375139e-14
0.703125,2.726649705e-14,4.677157127e-15,6.084779865e-14,4.191445162e-14,1.21920159e-14,1.034683269e-13,2.498038133e-14,8.520097966e-14,4.739338814e-14,4.262683978e-14,8.217955332e-14,2.281299051e-14,3.930791696e-14,1.655512661e-14,9.618295805e-15,1.379538802e-14,4.771349836e-14,2.534467929e-14,5.519976092e-15,3.074555805e-14,3.349482727e-14,2.097433043e-14,7.632023779e-15,1.417487723e-13,2.304422573e-13,1.037295575e-14,1.575037023e-14,1.939228905e-13,2.954756994e-14,2.746759706e-14,1.488721975e-14,6.4465966e-14
0.7109375,2.923224145e-14,5.804979413e-15,5.034639294e-14,3.981233734e-14,9.853782973e-15,7.500506907e-14,2.970313893e-14,9.735596716e-14,4.75936775e-14,4.87754613e-14,8.153917833e-14,2.124477133e-14,4.219514523e-14,1.365755243e-14,7.390186284e-15,1.67862744e-14,5.008282905e-14,2.473194968e-14,5.32106499e-15,3.01190622e-14,3.740531001e-14,2.490611853e-14,8.475640898e-15,1.586675581e-13,2.766048413e-13,9.443215858e-15,1.46194296e-14,2.210256737e-13,3.095662755e-14,2.640337215e-14,1.422984549e-14,7.452220088e-14
0.71875,3.14984804e-14,6.749129161e-15,4.157662495e-14,3.776453768e-14,7.998106769e-15,6.142453916e-14,3.448508106e-14,1.06653315e-13,4.636445291e-14,5.295303287e-14,7.928789328e-14,1.991414058e-14,4.37445375e-14,1.140929756e-14,5.854706025e-15,2.12810723e-14,5.109563653e-14,2.388368154e-14,5.063938682e-15,2.862814511e-14,4.131098651e-14,2.874348004e-14,9.170115313e-15,1.737535842e-13,3.244181345e-13,8.554830398e-15,1.376355836e-14,2.506166924e-13,3.20928102e-14,2.567952648e-14,1.271812527e-14,8.464184451e-14
0.7265625,3.337567986e-14,8.629011317e-15,3.426900541e-14,3.532930866e-14,5.900221744e-15,5.857830543e-14,3.847518403e-14,1.117391048e-13,4.365816723e-14,5.344173947e-14,7.084721456e-14,1.844835581e-14,4.451509978e-14,9.200758212e-15,4.264746562e-15,2.630954935e-14,5.16485127e-14,2.194402606e-14,4.646945824e-15,2.759627979e-14,4.443791188e-14,3.190171462e-14,9.230477975e-15,1.832760573e-13,3.68498893e-13,7.187319144e-15,1.239014147e-14,2.729797793e-13,3.15905577e-14,2.553416644e-14,1.072570457e-14,9.36503631e-14
0.734375,3.340751416e-14,1.172959863e-14,3.059541411e-14,3.330605388e-14,4.207361928e-15,6.236082323e-14,4.074058846e-14,1.11418808e-13,3.989774152e-14,5.151310348e-14,5.848755683e-14,1.760533941e-14,4.465581461e-14,7.379953183e-15,3.002843931e-15,3.252154843e-14,5.063493363e-14,1.905547364e-14,4.189884804e-15,2.566754914e-14,4.554182065e-14,3.446863905e-14,9.035222947e-15,1.882092765e-13,3.985017391e-13,5.880510526e-15,1.076784795e-14,2.788348577e-13,3.121711971e-14,2.610350471e-14,9.372317205e-15,9.855677838e-14
0.7421875,3.204855305e-14,1.735266901e-14,2.984124858e-14,3.27562413e-14,3.127459648e-15,6.884645469e-14,4.156477756e-14,1.072335343e-13,3.61082646e-14,4.796190347e-14,4.799485813e-14,1.785622194e-14,4.397187622e-14,6.530919167e-15,2.343310569e-15,3.781140124e-14,4.743027122e-14,1.567978063e-14,3.82438333e-15,2.158101945e-14,4.449317491e-14,3.785339427e-14,9.763073215e-15,1.892578575e-13,4.233111048e-13,5.421023611e-15,1.04580456e-14,2.809114276e-13,3.199640637e-14,2.648499731e-14,8.59226079e-15,1.001463756e-13
0.75,3.07687089e-14,2.613297334e-14,3.238907534e-14,3.374222243e-14,2.477750901e-15,7.592029756e-14,4.257111616e-14,1.002035574e-13,3.372954233e-14,4.277598314e-14,3.795805924e-14,1.882629083e-14,4.304981249e-14,6.380989506e-15,2.039940721e-15,3.884296302e-14,4.414458709e-14,1.285312112e-14,3.710335688e-15,1.616129273e-14,4.170328544e-14,4.014223839e-14,1.176459671e-14,1.870607485e-13,4.365807848e-13,6.012811788e-15,1.053710933e-14,2.766568277e-13,3.306013434e-14,2.807835286e-14,8.099900718e-15,1.013215274e-13
0.7578125,2.970245734e-14,3.916217898e-14,3.679038755e-14,3.678959073e-14,2.009953295e-15,8.285120547e-14,4.380151889e-14,9.25401512e-14,3.298608937e-14,3.683010123e-14,2.715245922e-14,2.023595966e-14,4.14946429e-14,6.41027507e-15,2.240019238e-15,3.788827253e-14,4.225927304e-14,1.072742815e-14,3.934823925e-15,1.162256882e-14,3.783527811e-14,4.165013564e-14,1.611206379e-14,1.817906428e-13,4.364874852e-13,7.97023187e-15,1.041962108e-14,2.676803705e-13,3.410216705e-14,3.332804664e-14,8.382001957e-15,1.016307207e-13
0.765625,2.816918094e-14,5.68499176e-14,4.212062126e-14,4.329283117e-14,2.285922124e-15,9.07388233e-14,4.550631054e-14,8.651802945e-14,3.394396759e-14,3.256367346e-14,1.859634922e-14,2.25394212e-14,3.890659743e-14,7.262731964e-15,3.274651596e-15,3.576160602e-14,4.057959677e-14,9.514145683e-15,4.31011544e-15,8.425783651e-15,3.395307503e-14,4.447728993e-14,2.381558641e-14,1.753758149e-13,4.242907681e-13,1.168684922e-14,1.04963401e-14,2.63558136e-13,3.602989154e-14,4.546204761e-14,1.019207773e-14,9.936975395e-14
0.7734375,2.639609271e-14,7.843380911e-14,4.898275129e-14,5.342428217e-14,3.656409564e-15,9.570642492e-14,4.904726212e-14,8.454702226e-14,3.692388056e-14,3.071757188e-14,1.431098859e-14,2.635651497e-14,3.541663215e-14,9.653587813e-15,4.979911892e-15,3.132656957e-14,3.821478951e-14,9.726448779e-15,4.501431574e-15,6.386447796e-15,2.992862044e-14,4.707513538e-14,3.452541168e-14,1.666981762e-13,4.023157805e-13,1.744242796e-14,1.128151456e-14,2.83283531e-13,3.900960081e-14,6.862430231e-14,1.376242987e-14,9.624898064e-14
0.78125,2.543935509e-14,1.035374369e-13,6.151382594e-14,6.703462026e-14,6.522141305e-15,9.917810076e-14,5.517690969e-14,8.666626385e-14,4.165344553e-14,3.053909702e-14,1.332519238e-14,3.109205683e-14,3.114615625e-14,1.353668079e-14,7.82794215e-15,2.51584488e-14,3.565221195e-14,1.22295135e-14,4.630750481e-15,5.982305491e-15,2.591778332e-14,4.796887132e-14,4.772916394e-14,1.550692751e-13,3.673745745e-13,2.549773087e-14,1.240869054e-14,3.225768066e-13,4.193121579e-14,1.03167681e-13,1.948407398e-14,9.530807741e-14
0.7890625,2.569687506e-14,1.306672303e-13,7.959126151e-14,8.254939821e-14,1.131962988e-14,1.011314984e-13,6.394232841e-14,9.587409071e-14,4.796068346e-14,3.312346902e-14,1.545021252e-14,3.665285417e-14,2.670140979e-14,1.874619369e-14,1.232414901e-14,2.008812666e-14,3.400424548e-14,1.692408434e-14,4.568875044e-15,8.038420834e-15,2.258141304e-14,4.862811534e-14,6.211275773e-14,1.418107588e-13,3.231619024e-13,3.627553922e-14,1.401920906e-14,3.970773544e-13,4.537166164e-14,1.526521346e-13,2.734845451e-14,9.667136628e-14
0.796875,2.723327784e-14,1.571134582e-13,1.109645607e-13,9.945694378e-14,1.945052474e-14,1.013296263e-13,7.461743055e-14,1.114979241e-13,5.50519631e-14,3.828508145e-14,2.207421136e-14,4.367084828e-14,2.195416626e-14,2.63728727e-14,1.934209625e-14,1.688997209e-14,3.113079164e-14,2.400561922e-14,4.565567158e-15,1.166063466e-14,1.924201211e-14,4.902415433e-14,7.4822923e-14,1.267684871e-13,2.751055701e-13,4.905555901e-14,1.671466949e-14,5.140767728e-13,4.961998351e-14,2.145125996e-13,3.856328312e-14,1.004578493e-13
0.8046875,2.992931574e-14,1.826120041e-13,1.563760221e-13,1.178716825e-13,3.120965975e-14,9.930506634e-14,8.441268302e-14,1.328499228e-13,6.100155685e-14,4.506966078e-14,3.347232168e-14,5.166476952e-14,1.713192188e-14,3.572431701e-14,2.943636991e-14,1.509487172e-14,2.697376718e-14,3.253927108e-14,5.100509405e-15,1.576002566e-14,1.620035068e-14,4.788868178e-14,8.213296755e-14,1.123945738e-13,2.282456579e-13,6.073499603e-14,1.945694958e-14,6.528041009e-13,5.408077119e-14,2.846634713e-13,5.361020707e-14,1.043854443e-13
0.8125,3.449758539e-14,2.049035241e-13,2.128085804e-13,1.368812309e-13,4.635307846e-14,1.000495039e-13,9.252536294e-14,1.606124937e-13,6.529992151e-14,5.237464129e-14,4.848785938e-14,5.885741489e-14,1.278007985e-14,4.444696401e-14,4.154765271e-14,1.603176857e-14,2.321897412e-14,4.04670259e-14,6.091964539e-15,2.031805309e-14,1.393717333e-14,4.537065058e-14,8.325343247e-14,9.913689464e-14,1.865425034e-13,7.036402073e-14,2.173863128e-14,8.070227277e-13,5.821157236e-14,3.616670104e-13,7.092404117e-14,1.095777359e-13
0.8203125,4.149173024e-14,2.191206064e-13,2.846756363e-13,1.546072775e-13,6.520750159e-14,1.070059325e-13,9.678470613e-14,1.945400665e-13,6.710198164e-14,5.996910008e-14,6.682673915e-14,6.463142036e-14,9.168679561e-15,5.214221352e-14,5.47137363e-14,1.974828706e-14,2.038749742e-14,4.760453042e-14,7.747214964e-15,2.5545064e-14,1.285715475e-14,4.236445884e-14,7.844894671e-14,9.061701696e-14,1.546674628e-13,7.68904912e-14,2.288169212e-14,9.461346446e-13,6.090458113e-14,4.330851108e-13,8.930802124e-14,1.146550806e-13
0.828125,5.004120895e-14,2.244030189e-13,3.620309281e-13,1.722510073e-13,8.660375323e-14,1.228153534e-13,9.52130251e-14,2.34615065e-13,6.549599562e-14,6.766843405e-14,8.999902335e-14,6.845223947e-14,6.248383421e-15,5.785855192e-14,6.87255064e-14,2.608535189e-14,1.824654974e-14,5.24710163e-14,9.954010404e-15,2.999727992e-14,1.337454861e-14,3.839701847e-14,6.844723399e-14,9.037706386e-14,1.351108268e-13,7.863877402e-14,2.34276417e-14,1.049122406e-12,6.213770347e-14,4.896532858e-13,1.074577313e-13,1.16201867e-13
0.8359375,5.919633552e-14,2.245199446e-13,4.37222248e-13,1.932924542e-13,1.085526007e-13,1.540336514e-13,8.836079171e-14,2.775600605e-13,6.100686955e-14,7.42263306e-14,1.156724165e-13,6.937814984e-14,4.183330469e-15,6.025317845e-14,8.243317957e-14,3.517683974e-14,1.670585453e-14,5.237355167e-14,1.194402901e-14,3.221127131e-14,1.589162368e-14,3.322391198e-14,5.667153352e-14,1.015046143e-13,1.298994885e-13,7.388719853e-14,2.283637796e-14,1.084279972e-12,6.165793813e-14,5.286286856e-13,1.238950343e-13,1.12184886e-13
0.84375,6.745567966e-14,2.160211841e-13,5.022912242e-13,2.140600472e-13,1.263758035e-13,2.045867126e-13,7.713694556e-14,3.197727069e-13,5.341365739e-14,7.926919445e-14,1.43424312e-13,6.588982975e-14,2.778420233e-15,5.745904476e-14,9.165052916e-14,4.451319317e-14,1.585736203e-14,4.770895413e-14,1.319393927e-14,3.198759632e-14,2.082869732e-14,2.759815207e-14,4.748929142e-14,1.264185492e-13,1.372926021e-13,6.395090549e-14,2.188465867e-14,1.042557577e-12,5.767468336e-14,5.430691585e-13,1.323449272e-13,1.027081626e-13
0.8515625,7.335964223e-14,1.980645112e-13,5.564515536e-13,2.316822207e-13,1.384800292e-13,2.734746624e-13,6.380961921e-14,3.572136637e-13,4.368164056e-14,8.339599018e-14,1.708741338e-13,5.851627969e-14,2.248177423e-15,5.037078385e-14,9.412946887e-14,5.254334886e-14,1.551966266e-14,4.110432967e-14,1.373597093e-14,3.039065978e-14,2.795202578e-14,2.221063745e-14,4.435836837e-14,1.661724804e-13,1.605962755e-13,5.241884013e-14,2.299708037e-14,9.458715403e-13,4.981119034e-14,5.270347521e-13,1.319738843e-13,8.871287919e-14
0.859375,7.615303958e-14,1.775219327e-13,5.893334787e-13,2.510173259e-13,1.455202014e-13,3.612049896e-13,5.125324712e-14,3.897997611e-13,3.367588749e-14,8.762866486e-14,1.989472149e-13,4.954832159e-14,2.833663074e-15,4.174264388e-14,9.296996816e-14,6.008898983e-14,1.585383134e-14,3.362886765e-14,1.369673825e-14,2.82593362e-14,3.693268903e-14,1.71409809e-14,4.723573468e-14,2.199714642e-13,1.910442879e-13,4.117726848e-14,2.7015154e-14,8.129518627e-13,4.070790191e-14,4.81983387e-13,1.266574022e-13,7.195551047e-14
0.8671875,7.446276115e-14,1.595242813e-13,5.940262752e-13,2.706312252e-13,1.444692233e-13,4.634156903e-13,4.235153901e-14,4.088467511e-13,2.522494829e-14,9.136311811e-14,2.241100242e-13,3.987532899e-14,4.536906636e-15,3.254817315e-14,8.7994907e-14,6.583466444e-14,1.626578581e-14,2.459181017e-14,1.224724138e-14,2.490779708e-14,4.704299023e-14,1.299066435e-14,5.627492483e-14,2.83696923e-13,2.253861511e-13,3.134757953e-14,3.419904811e-14,6.533821078e-13,3.232323865e-14,4.188651158e-13,1.158433875e-13,5.493973896e-14
0.875,6.783676222e-14,1.406985294e-13,5.835463755e-13,2.810643836e-13,1.337144238e-13,5.703815749e-13,3.853019133e-14,4.111952368e-13,1.8885464e-14,9.481261626e-14,2.458679946e-13,3.05142225e-14,7.12556942e-15,2.332653381e-14,7.672352053e-14,6.602102085e-14,1.57322656e-14,1.70091289e-14,1.015890924e-14,2.168325439e-14,5.672500168e-14,1.00545667e-14,6.879295711e-14,3.53896969e-13,2.640661292e-13,2.550284987e-14,4.53459385e-14,5.111603696e-13,2.404005402e-14,3.45745719e-13,9.811118242e-14,4.111892693e-14
0.8828125,5.77176465e-14,1.247970107e-13,5.567813635e-13,2.856106434e-13,1.186140385e-13,6.722136656e-13,3.99168569e-14,3.949487497e-13,1.529736832e-14,9.581628199e-14,2.57635075e-13,2.232621393e-14,1.096819823e-14,1.605099466e-14,6.246903461e-14,6.258277025e-14,1.464414289e-14,1.183352909e-14,8.218748351e-15,1.988515112e-14,6.481690163e-14,8.570338931e-15,8.030735551e-14,4.229826065e-13,2.954079217e-13,2.429041981e-14,5.799298196e-14,4.198044439e-13,1.750362374e-14,2.69234096e-13,7.957991708e-14,3.224818337e-14
0.890625,4.624909016e-14,1.143434861e-13,5.209878767e-13,2.837321061e-13,1.014656937e-13,7.556066151e-13,4.575228393e-14,3.615404436e-13,1.447506562e-14,9.381623048e-14,2.629082652e-13,1.618780041e-14,1.551213758e-14,1.204967792e-14,4.856417951e-14,5.677871029e-14,1.353949845e-14,9.217211888e-15,6.597007908e-15,1.987253153e-14,7.041548936e-14,8.41698797e-15,8.859988463e-14,4.80709117e-13,3.210476873e-13,2.647150176e-14,7.130925823e-14,3.903384315e-13,1.389740235e-14,1.98772279e-13,6.318216279e-14,2.890157702e-14
0.8984375,3.468808628e-14,1.07551353e-13,4.789515612e-13,2.737921782e-13,8.426063583e-14,8.111570284e-13,5.345855713e-14,3.140093451e-13,1.56615886e-14,8.819665471e-14,2.593869426e-13,1.265985378e-14,2.008113585e-14,1.147976179e-14,3.592496542e-14,4.863313704e-14,1.238586577e-14,8.953130942e-15,5.470237122e-15,2.034147844e-14,7.243997379e-14,9.105264512e-15,9.12194512e-14,5.194503675e-13,3.350166398e-13,3.078675006e-14,8.51512641e-14,4.308782131e-13,1.332074696e-14,1.438061233e-13,4.973996158e-14,3.016059501e-14
0.90625,2.4565562e-14,1.044029626e-13,4.369624156e-13,2.565865502e-13,6.82341494e-14,8.324289638e-13,6.047230045e-14,2.585095416e-13,1.775113347e-14,7.904400383e-14,2.521310409e-13,1.137245498e-14,2.407982373e-14,1.366526208e-14,2.541635666e-14,3.972747184e-14,1.182859521e-14,1.04307941e-14,5.124140749e-15,2.128097628e-14,7.112508467e-14,1.043101162e-14,8.738718611e-14,5.350587592e-13,3.37623646e-13,3.48642624e-14,9.719536646e-14,5.240674641e-13,1.507359406e-14,1.065229068e-13,3.96617474e-14,3.342236064e-14
0.9140625,1.66543701e-14,1.024740818e-13,4.045242419e-13,2.324596874e-13,5.441225722e-14,8.11064274e-13,6.560678748e-14,2.004455314e-13,1.971411534e-14,6.701972887e-14,2.50247021e-13,1.163560759e-14,2.692560619e-14,1.742034118e-14,1.727828887e-14,3.076835583e-14,1.193457737e-14,1.443695274e-14,5.805308323e-15,2.13836146e-14,6.621559062e-14,1.192118548e-14,7.971530045e-14,5.212287538e-13,3.292574713e-13,3.771650774e-14,1.070999414e-13,6.550551486e-13,1.800806849e-14,8.610802587e-14,3.234959997e-14,3.664122213e-14
0.921875,1.16080369e-14,1.004656065e-13,3.807914294e-13,2.040403079e-13,4.409148263e-14,7.496657497e-13,6.712653389e-14,1.508538e-13,2.036893929e-14,5.516224337e-14,2.618213364e-13,1.310797975e-14,2.866971979e-14,2.184905237e-14,1.175994066e-14,2.320716913e-14,1.32629665e-14,2.176935444e-14,8.158255371e-15,1.999785049e-14,5.913346292e-14,1.279010897e-14,6.916537462e-14,4.8112402e-13,3.095214435e-13,3.769259839e-14,1.13603415e-13,7.893417236e-13,2.118079148e-14,7.894273823e-14,2.760423633e-14,3.746740803e-14
0.9296875,8.753470378e-15,9.939396198e-14,3.665082598e-13,1.764479006e-13,3.618098417e-14,6.638746002e-13,6.560814477e-14,1.162153986e-13,1.973874455e-14,4.701426367e-14,2.96356788e-13,1.558867775e-14,2.961297096e-14,2.552663612e-14,8.34175804e-15,1.803790169e-14,1.552673979e-14,3.13679538e-14,1.229020858e-14,1.811032439e-14,5.165773081e-14,1.328317707e-14,5.968446975e-14,4.205012134e-13,2.821312113e-13,3.498761156e-14,1.171782622e-13,9.076710674e-13,2.372629016e-14,8.036242995e-14,2.399906268e-14,3.510590222e-14
0.9375,7.365149268e-15,9.684412444e-14,3.62762647e-13,1.502810472e-13,3.038956659e-14,5.620727096e-13,6.153444192e-14,9.825149733e-14,1.783005721e-14,4.515081778e-14,3.586578588e-13,1.885455142e-14,2.9979233e-14,2.745908908e-14,6.596448828e-15,1.525137347e-14,1.883649302e-14,4.271537335e-14,1.784603038e-14,1.599122678e-14,4.429588657e-14,1.361185938e-14,5.177099658e-14,3.46967611e-13,2.456848108e-13,3.120415256e-14,1.161681533e-13,9.867036827e-13,2.488757054e-14,8.488617413e-14,2.099761877e-14,3.153950748e-14
0.9453125,7.583846442e-15,9.294242729e-14,3.712131885e-13,1.274164791e-13,2.712766595e-14,4.546482578e-13,5.643158659e-14,9.623583328e-14,1.504889671e-14,5.023376377e-14,4.461084427e-13,2.307394665e-14,3.041856962e-14,2.821972609e-14,6.004734392e-15,1.490010839e-14,2.309664419e-14,5.557108902e-14,2.446045374e-14,1.349531362e-14,3.770408573e-14,1.391455783e-14,4.587721683e-14,2.71148749e-13,2.068137079e-13,2.680210973e-14,1.117034692e-13,1.016436064e-12,2.487035962e-14,8.87423605e-14,1.858087089e-14,2.818792716e-14
0.953125,8.89954933e-15,8.772473041e-14,3.829090325e-13,1.094095114e-13,2.605830114e-14,3.521844543e-13,5.135768272e-14,1.076107973e-13,1.190225778e-14,6.251262625e-14,5.515082139e-13,2.831334674e-14,3.177676248e-14,2.786507794e-14,6.243070533e-15,1.656966094e-14,2.709010354e-14,6.838236846e-14,3.16859098e-14,1.16857815e-14,3.259442353e-14,1.424968416e-14,4.257284501e-14,2.008849619e-13,1.664365875e-13,2.242653105e-14,1.037519504e-13,9.922830886e-13,2.364066659e-14,8.790449483e-14,1.680600624e-14,2.656464155e-14
0.9609375,1.127868515e-14,8.210750489e-14,3.970840149e-13,9.849284874e-14,2.703810529e-14,2.672501173e-13,4.810717955e-14,1.240356266e-13,9.332935501e-15,7.942380094e-14,6.604418888e-13,3.435670624e-14,3.411114896e-14,2.683547788e-14,7.050764909e-15,1.996038908e-14,3.014006777e-14,7.875375387e-14,3.826105001e-14,1.107249088e-14,2.858023703e-14,1.523781691e-14,4.196488537e-14,1.401051994e-13,1.253334846e-13,1.959581409e-14,9.251758173e-14,9.237615371e-13,2.1818803e-14,8.481228707e-14,1.557509411e-14,2.961984558e-14
0.96875,1.478960392e-14,7.526929661e-14,4.009105635e-13,9.353984102e-14,2.937297966e-14,2.028034233e-13,4.612980036e-14,1.405846155e-13,7.400438202e-15,9.679994272e-14,7.565120666e-13,4.0639986e-14,3.727756824e-14,2.589078857e-14,8.444240908e-15,2.423086406e-14,3.123213259e-14,8.544114882e-14,4.3018015e-14,1.115234607e-14,2.543365327e-14,1.653438553e-14,4.309774609e-14,9.476647098e-14,8.921088285e-14,1.854288651e-14,7.960280666e-14,8.15853348e-13,1.92632859e-14,7.826959594e-14,1.501428848e-14,3.728354887e-14
0.9765625,1.914423639e-14,6.675516123e-14,3.938877508e-13,9.295608747e-14,3.269298515e-14,1.577902897e-13,4.532033084e-14,1.511851106e-13,6.181193184e-15,1.110560787e-13,8.23984129e-13,4.685229795e-14,4.057742891e-14,2.576859944e-14,1.099542819e-14,2.930856001e-14,2.99266714e-14,8.710378829e-14,4.466022196e-14,1.064772151e-14,2.215511812e-14,1.803769087e-14,4.485957683e-14,6.197836173e-14,5.9547621e-14,1.869963179e-14,6.735533774e-14,6.949337932e-13,1.614214044e-14,7.050595028e-14,1.496702416e-14,4.847032926e-14
0.984375,2.419858761e-14,5.781807528e-14,3.745613109e-13,9.588837847e-14,3.667714574e-14,1.304485489e-13,4.567486246e-14,1.53574654e-13,5.677305412e-15,1.196152887e-13,8.481217222e-13,5.165542159e-14,4.415963717e-14,2.711519701e-14,1.463572239e-14,3.507269513e-14,2.707133947e-14,8.487465887e-14,4.401751648e-14,1.047226265e-14,1.938738484e-14,1.957078298e-14,4.802366271e-14,4.20203465e-14,3.76872804e-14,1.947661599e-14,5.665289437e-14,5.635398818e-13,1.283702285e-14,6.334708832e-14,1.55548185e-14,6.146444845e-14
0.9921875,2.9275048e-14,4.931408933e-14,3.4643558e-13,1.007476625e-13,4.107309396e-14,1.196661704e-13,4.65896256e-14,1.464991542e-13,6.004311476e-15,1.215980429e-13,8.274179278e-13,5.578456329e-14,4.741175043e-14,3.037044118e-14,1.939407431e-14,4.125610325e-14,2.322971435e-14,7.928099521e-14,4.112043117e-14,1.12967289e-14,1.687042273e-14,2.14675593e-14,5.15616372e-14,3.094932038e-14,2.329843849e-14,2.064507849e-14,4.824019707e-14,4.429289707e-13,9.964489728e-15,6.33705214e-14,1.665073167e-14,7.38659648e-14
1,3.384624928e-14,4.10161027e-14,3.073050534e-13,1.05209511e-13,4.421812244e-14,1.214746581e-13,4.705947883e-14,1.3096343e-13,6.81111102e-15,1.153698216e-13,7.661375322e-13,5.886592967e-14,4.950896473e-14,3.537259822e-14,2.605966435e-14,4.780992195e-14,1.86843244e-14,7.058872508e-14,3.596746474e-14,1.246587612e-14,1.422430324e-14,2.295971744e-14,5.552424036e-14,2.479976698e-14,1.641332614e-14,2.175929665e-14,4.368383622e-14,3.458858674e-13,7.039074453e-15,6.933104494e-14,1.744545861e-14,8.394663295e-14
1.0078125,3.656029915e-14,3.305392423e-14,2.711929282e-13,1.06952129e-13,4.552580107e-14,1.271684184e-13,4.747651305e-14,1.117059234e-13,8.184917111e-15,1.035963347e-13,6.752784179e-13,5.982711065e-14,5.127721814e-14,4.102438091e-14,3.529671292e-14,5.559445555e-14,1.537505366e-14,6.033480196e-14,2.968709757e-14,1.526573856e-14,1.175872269e-14,2.378036501e-14,5.887982395e-14,2.277447969e-14,1.663546849e-14,2.115208166e-14,4.370218439e-14,2.782039887e-13,4.673420142e-15,8.209121577e-14,1.807548334e-14,8.88380654e-14
1.015625,3.710001431e-14,2.710318599e-14,2.440054259e-13,1.072799317e-13,4.61188463e-14,1.401399632e-13,4.788779943e-14,9.355531787e-14,1.044057459e-14,8.998393722e-14,5.627625687e-13,5.94089733e-14,5.435392496e-14,4.491288938e-14,4.574701672e-14,6.682178257e-14,1.493118175e-14,5.123259352e-14,2.422559643e-14,2.0033305e-14,1.012745736e-14,2.389046155e-14,6.197077423e-14,2.165200791e-14,2.377658592e-14,1.934347287e-14,4.765412346e-14,2.445950908e-13,3.157831065e-15,9.683280878e-14,1.945937126e-14,8.893106295e-14
1.0234375,3.602605277e-14,2.283135843e-14,2.231937111e-13,1.05192724e-13,4.596928644e-14,1.596062961e-13,4.823189555e-14,7.892984395e-14,1.351383096e-14,7.63983737e-14,4.480403481e-13,5.935334419e-14,5.824632134e-14,4.829462791e-14,5.626313403e-14,7.941143775e-14,1.644365768e-14,4.45743588e-14,2.022036006e-14,2.597785128e-14,9.003437405e-15,2.356680292e-14,6.422884239e-14,2.197665963e-14,3.663527616e-14,1.711343788e-14,5.439575437e-14,2.49250262e-13,2.876004981e-15,1.129051331e-13,2.110334639e-14,8.470847573e-14
1.03125,3.339816786e-14,2.048377788e-14,2.087564737e-13,1.003348468e-13,4.433231235e-14,1.850880259e-13,4.927577382e-14,7.145229516e-14,1.745586031e-14,6.455581607e-14,3.450002669e-13,5.968320985e-14,6.309995522e-14,5.060277491e-14,6.716997263e-14,9.32966339e-14,2.001188103e-14,3.968552826e-14,1.784954836e-14,3.242521271e-14,8.415171762e-15,2.271392118e-14,6.556952907e-14,2.245844263e-14,5.447490987e-14,1.472137277e-14,6.509267644e-14,2.972921325e-13,4.050876682e-15,1.29592194e-13,2.231250136e-14,7.747195918e-14
1.0390625,2.90247934e-14,2.135491115e-14,1.961740831e-13,9.367303293e-14,4.144233172e-14,2.127969042e-13,5.153184425e-14,7.331587013e-14,2.279029584e-14,5.608466184e-14,2.583322414e-13,6.027383267e-14,7.013261818e-14,5.111682936e-14,7.702430223e-14,1.088537194e-13,2.550285942e-14,3.638676777e-14,1.773541544e-14,3.848156047e-14,8.863774481e-15,2.312956714e-14,6.512815813e-14,2.507255372e-14,7.481838511e-14,1.203649807e-14,7.815103109e-14,3.914446658e-13,7.75161137e-15,1.492862141e-13,2.401933697e-14,6.703540266e-14
1.046875,2.420407411e-14,2.665701545e-14,1.845258467e-13,8.817486282e-14,3.952046112e-14,2.447388607e-13,5.519280798e-14,8.55647822e-14,2.910003323e-14,5.293430732e-14,1.930392076e-13,6.248187926e-14,7.872704237e-14,4.974783774e-14,8.282882022e-14,1.237224513e-13,3.168267013e-14,3.494503275e-14,2.005581936e-14,4.273658721e-14,1.042996302e-14,2.600062067e-14,6.36941323e-14,2.866963719e-14,9.373994955e-14,1.088476916e-14,9.188206021e-14,5.176736218e-13,1.445227555e-14,1.716466725e-13,2.677928647e-14,5.627230966e-14
1.0546875,1.978682237e-14,3.748647811e-14,1.645882885e-13,8.307540161e-14,3.717542208e-14,2.814146464e-13,6.060803133e-14,1.109239116e-13,3.653383203e-14,5.588289976e-14,1.509990419e-13,6.803600974e-14,8.826527128e-14,5.02766353e-14,8.317263806e-14,1.337364116e-13,3.704987542e-14,3.578988429e-14,2.493525463e-14,4.356016854e-14,1.350746842e-14,3.283060711e-14,6.192573614e-14,3.543970714e-14,1.076186701e-13,1.109899501e-14,1.036773837e-13,6.58685357e-13,2.568555922e-14,2.010589299e-13,2.898227646e-14,4.672390168e-14
1.0625,1.615104628e-14,5.480353822e-14,1.401730138e-13,7.898146283e-14,3.406556775e-14,3.168547133e-13,6.716649813e-14,1.466923333e-13,4.424275824e-14,6.344265925e-14,1.286273839e-13,7.496803593e-14,9.704569944e-14,5.289384834e-14,7.936328794e-14,1.376290194e-13,4.141608225e-14,3.847619276e-14,3.235304047e-14,4.108617382e-14,1.840763345e-14,4.511676649e-14,5.989824397e-14,4.61314235e-14,1.154831206e-13,1.246565007e-14,1.136060631e-13,8.022053839e-13,4.11748481e-14,2.42729306e-13,3.073687429e-14,3.899087679e-14
1.0703125,1.355327752e-14,7.969976845e-14,1.140013151e-13,7.7457029e-14,3.09121598e-14,3.441937841e-13,7.426415399e-14,1.88161465e-13,5.224622232e-14,7.387573117e-14,1.200705729e-13,8.234047808e-14,1.044941363e-13,5.718675492e-14,7.178273842e-14,1.356453385e-13,4.502957034e-14,4.172941337e-14,4.107858247e-14,3.718167971e-14,2.450191138e-14,6.23825549e-14,5.722455959e-14,6.031544215e-14,1.156016237e-13,1.545829186e-14,1.209407064e-13,9.228781893e-13,6.059249154e-14,2.919434989e-13,3.34243902e-14,3.34325551e-14
1.078125,1.262393362e-14,1.109561882e-13,9.064793233e-14,7.941170966e-14,2.818172981e-14,3.592044775e-13,8.12532017e-14,2.345365622e-13,5.989859911e-14,8.663039308e-14,1.17861575e-13,9.130886661e-14,1.089144758e-13,6.513868331e-14,6.065040298e-14,1.272450711e-13,4.762833489e-14,4.513280022e-14,5.018727478e-14,3.256474863e-14,3.163367202e-14,8.27512519e-14,5.44471774e-14,7.689338819e-14,1.07703464e-13,1.873409081e-14,1.241407942e-13,9.977207197e-13,8.401530852e-14,3.475346119e-13,3.714460004e-14,3.074013513e-14
1.0859375,1.341585445e-14,1.479596847e-13,7.092964491e-14,8.512783326e-14,2.534256051e-14,3.643541881e-13,8.700596956e-14,2.789757936e-13,6.629205115e-14,9.977606425e-14,1.207366215e-13,9.951814815e-14,1.101632952e-13,7.597461786e-14,4.856312673e-14,1.112085588e-13,4.832577384e-14,4.915755061e-14,5.954306098e-14,2.728590246e-14,3.939561267e-14,1.037106794e-13,5.255710353e-14,9.566739966e-14,9.563376655e-14,2.120016638e-14,1.230604051e-13,1.007543104e-12,1.091275191e-13,4.029258259e-13,4.183374e-14,3.067937293e-14
1.09375,1.586498754e-14,1.865388099e-13,5.693698946e-14,9.270064527e-14,2.190089891e-14,3.544844415e-13,9.099740838e-14,3.110428302e-13,7.131500942e-14,1.092894013e-13,1.216205034e-13,1.052448462e-13,1.071782158e-13,8.80489083e-14,3.904545039e-14,9.164588804e-14,4.676264512e-14,5.212482676e-14,6.74289294e-14,2.277108681e-14,4.629892861e-14,1.215204898e-13,5.042581418e-14,1.144637512e-13,8.323015348e-14,2.274219301e-14,1.201187502e-13,9.61097687e-13,1.324176597e-13,4.518783494e-13,4.726142473e-14,3.242196518e-14
1.1015625,1.927026251e-14,2.206632696e-13,4.929535342e-14,9.948118332e-14,1.860296578e-14,3.293734388e-13,9.251023885e-14,3.263156857e-13,7.444752664e-14,1.126724815e-13,1.199432775e-13,1.070157924e-13,1.000192692e-13,9.891319961e-14,3.290039722e-14,7.183485054e-14,4.355714677e-14,5.20591503e-14,7.197864915e-14,1.952521535e-14,5.119092227e-14,1.331468665e-13,4.818879515e-14,1.313321018e-13,7.322628145e-14,2.316815686e-14,1.158593966e-13,8.692738542e-13,1.502773506e-13,4.852171277e-13,5.346578061e-14,3.4800542e-14
1.109375,2.339026214e-14,2.467007829e-13,4.474295547e-14,1.046101451e-13,1.585465037e-14,2.907357164e-13,9.154955121e-14,3.214287226e-13,7.594182172e-14,1.084188283e-13,1.162860507e-13,1.039911224e-13,9.083072327e-14,1.069606167e-13,3.070295106e-14,5.264380247e-14,3.86750315e-14,4.940861577e-14,7.249466151e-14,1.741383588e-14,5.278246948e-14,1.353271355e-13,4.499162047e-14,1.416280236e-13,6.830132994e-14,2.222397403e-14,1.104364883e-13,7.442716202e-13,1.617268763e-13,4.949289911e-13,5.999402502e-14,3.718715195e-14
1.1171875,2.702790259e-14,2.625267469e-13,4.334587353e-14,1.073190996e-13,1.334369076e-14,2.467297104e-13,8.855638623e-14,3.000727013e-13,7.665523893e-14,9.945440666e-14,1.182556349e-13,9.747628707e-14,8.16073681e-14,1.119528842e-13,3.240129724e-14,3.667419987e-14,3.2835792e-14,4.502678829e-14,6.991449448e-14,1.603965076e-14,5.173916156e-14,1.292074376e-13,4.148742574e-14,1.443194363e-13,6.980514242e-14,1.963244206e-14,1.032030337e-13,6.068813712e-13,1.658651197e-13,4.821664492e-13,6.584254596e-14,3.930943635e-14
1.125,2.970028934e-14,2.660485973e-13,4.258943385e-14,1.063980674e-13,1.099032387e-14,2.044356897e-13,8.406268627e-14,2.618336618e-13,7.669538991e-14,8.577875642e-14,1.299323205e-13,8.646451055e-14,7.352358616e-14,1.106769981e-13,3.641148252e-14,2.501989605e-14,2.637450244e-14,3.92384773e-14,6.454357169e-14,1.437273423e-14,4.839836266e-14,1.171095762e-13,3.796593793e-14,1.419066672e-13,7.887167816e-14,1.617963397e-14,9.468006166e-14,4.834079086e-13,1.60328572e-13,4.447439756e-13,6.955920773e-14,4.092684254e-14
1.1328125,3.082654142e-14,2.591487647e-13,4.134126205e-14,1.023865677e-13,8.740746411e-15,1.682251438e-13,7.849600273e-14,2.160367088e-13,7.670167882e-14,6.998885402e-14,1.573878817e-13,7.224612371e-14,6.86196811e-14,1.034890904e-13,4.07909721e-14,1.824951696e-14,2.028413521e-14,3.239420031e-14,5.68126498e-14,1.209808017e-14,4.324196602e-14,1.029804498e-13,3.451491498e-14,1.329045289e-13,9.157031995e-14,1.262068648e-14,8.428500519e-14,3.848912017e-13,1.47392299e-13,3.920561238e-13,7.012866172e-14,4.241315026e-14
1.140625,3.079449852e-14,2.439055081e-13,3.914746787e-14,9.685165905e-14,7.292152569e-15,1.493421182e-13,7.286085512e-14,1.748310211e-13,7.719960632e-14,5.663171508e-14,2.034593144e-13,5.682740752e-14,6.855651522e-14,9.136440184e-14,4.353049956e-14,1.491244582e-14,1.602751139e-14,2.669318201e-14,4.842653979e-14,9.600468511e-15,3.81362621e-14,8.989543307e-14,3.144074305e-14,1.254178123e-13,1.084579957e-13,9.70445009e-15,7.244638576e-14,3.163795333e-13,1.300693308e-13,3.273737984e-13,6.765758972e-14,4.457468625e-14
1.1484375,2.921130512e-14,2.240092408e-13,3.736646898e-14,9.183976878e-14,6.302740721e-15,1.494674663e-13,6.730542117e-14,1.421887611e-13,7.776854149e-14,4.811468631e-14,2.662821328e-13,4.192011706e-14,7.286273156e-14,7.681478658e-14,4.461268745e-14,1.434958962e-14,1.386402763e-14,2.34208351e-14,4.136625161e-14,7.549503424e-15,3.473767342e-14,8.079065464e-14,2.907011089e-14,1.218357317e-13,1.27121117e-13,7.359586949e-15,5.931824724e-14,2.75426961e-13,1.116463689e-13,2.60856212e-13,6.302896999e-14,4.717648912e-14
1.15625,2.632161078e-14,2.04505286e-13,3.604028668e-14,9.119180354e-14,5.60547003e-15,1.720007924e-13,6.203114338e-14,1.228694207e-13,7.792013715e-14,4.533197385e-14,3.344771188e-13,2.911059909e-14,8.152985433e-14,6.107840999e-14,4.269326544e-14,1.605555937e-14,1.396426766e-14,2.300778882e-14,3.668611422e-14,5.521875189e-15,3.415165757e-14,7.725646935e-14,2.815610515e-14,1.288298599e-13,1.447276731e-13,5.701204441e-15,4.519967668e-14,2.486588954e-13,9.470161275e-14,1.989718447e-13,5.737731179e-14,5.024979263e-14
1.1640625,2.315215775e-14,1.880484266e-13,3.747507724e-14,9.463709389e-14,5.417491067e-15,2.144744362e-13,5.754509266e-14,1.175696802e-13,7.784256377e-14,4.802012391e-14,3.981882006e-13,1.921594254e-14,9.303083846e-14,4.595483353e-14,3.821482265e-14,1.782999244e-14,1.57470585e-14,2.553612317e-14,3.479171995e-14,4.285796265e-15,3.683400842e-14,8.018380335e-14,2.921867127e-14,1.463100824e-13,1.624401676e-13,5.126639778e-15,3.193197215e-14,2.32668382e-13,8.086111472e-14,1.480651876e-13,5.082913237e-14,5.39946185e-14
1.171875,2.062011712e-14,1.75131343e-13,4.320367771e-14,1.025143878e-13,5.895835964e-15,2.714060369e-13,5.372235557e-14,1.22964304e-13,7.69089497e-14,5.420550244e-14,4.442897107e-13,1.249600379e-14,1.048486787e-13,3.310834608e-14,3.290314466e-14,1.923881893e-14,1.831498786e-14,3.08342941e-14,3.588184649e-14,4.735993345e-15,4.231941176e-14,8.705023834e-14,3.198907086e-14,1.754404231e-13,1.764754781e-13,5.602378607e-15,2.067675696e-14,2.207358827e-13,7.089809685e-14,1.110001543e-13,4.463579702e-14,5.825530814e-14
1.1796875,1.877540699e-14,1.65582376e-13,5.864724384e-14,1.139998056e-13,7.133291785e-15,3.346669275e-13,4.97294011e-14,1.32096987e-13,7.385496141e-14,6.046531639e-14,4.591015977e-13,8.519700644e-15,1.147160683e-13,2.346165443e-14,2.824574204e-14,2.060901927e-14,2.033993884e-14,3.792410695e-14,3.971610458e-14,6.789919911e-15,4.985525749e-14,9.447189879e-14,3.647647023e-14,2.139125681e-13,1.878026772e-13,6.752182926e-15,1.242461765e-14,2.149160203e-13,6.449492487e-14,8.956681809e-14,3.947130957e-14,6.156122606e-14
1.1875,1.795146389e-14,1.580148892e-13,8.729521601e-14,1.270955854e-13,9.04450081e-15,3.926015164e-13,4.556863673e-14,1.399094283e-13,6.819477059e-14,6.426318968e-14,4.379105634e-13,6.24933843e-15,1.212131829e-13,1.692916499e-14,2.403697027e-14,2.15703036e-14,2.168395818e-14,4.676861161e-14,4.617862756e-14,1.104658401e-14,5.782436541e-14,9.890385966e-14,4.223618236e-14,2.529235686e-13,1.913227344e-13,8.146799401e-15,7.007331104e-15,2.1290474e-13,6.065544804e-14,8.309680972e-14,3.55269897e-14,6.320418034e-14
1.1953125,1.817635748e-14,1.49990974e-13,1.342061463e-13,1.386121424e-13,1.213592632e-14,4.395152429e-13,4.107407817e-14,1.412310587e-13,6.037446788e-14,6.400423902e-14,3.885247546e-13,5.082636989e-15,1.231222379e-13,1.322791838e-14,2.121190478e-14,2.143819792e-14,2.159196007e-14,5.717324347e-14,5.446439227e-14,1.832107912e-14,6.429929029e-14,9.825625661e-14,4.811382889e-14,2.880709548e-13,1.873443129e-13,9.58383307e-15,4.66108471e-15,2.21161873e-13,5.824098707e-14,8.962871465e-14,3.215356491e-14,6.212490491e-14
1.203125,1.88423704e-14,1.398443847e-13,1.955923973e-13,1.453552753e-13,1.527242158e-14,4.666950435e-13,3.615788626e-14,1.35330424e-13,5.11411498e-14,5.99533748e-14,3.234986152e-13,4.84530021e-15,1.204684276e-13,1.191080791e-14,1.976944968e-14,2.052541803e-14,2.003941844e-14,6.855730557e-14,6.405282077e-14,2.933956827e-14,6.81168634e-14,9.308695251e-14,5.331643109e-14,3.111459918e-13,1.7552286e-13,1.096201636e-14,4.559296658e-15,2.389616507e-13,5.623433808e-14,1.064182308e-13,2.905643457e-14,5.887219565e-14
1.2109375,1.950074894e-14,1.250172675e-13,2.70671841e-13,1.437942431e-13,1.751424937e-14,4.642057924e-13,3.082768802e-14,1.255205256e-13,4.103029712e-14,5.303329644e-14,2.579252778e-13,5.471908923e-15,1.129211491e-13,1.239498279e-14,1.970667379e-14,1.891895228e-14,1.723870378e-14,7.970274621e-14,7.347620396e-14,4.390662638e-14,6.777521233e-14,8.250864346e-14,5.598993865e-14,3.17429011e-13,1.567055506e-13,1.207448172e-14,6.081520342e-15,2.74385593e-13,5.33188584e-14,1.32405588e-13,2.532145537e-14,5.379906683e-14
1.21875,1.996575202e-14,1.064599541e-13,3.480297313e-13,1.347352293e-13,1.974242404e-14,4.365561937e-13,2.524514976e-14,1.168915359e-13,3.100558361e-14,4.536771491e-14,2.039801318e-13,6.915205559e-15,1.023940686e-13,1.49226574e-14,2.061050926e-14,1.704046685e-14,1.39817199e-14,8.989241386e-14,8.197936978e-14,6.228306696e-14,6.422804929e-14,6.802331033e-14,5.574159338e-14,3.067717109e-13,1.339979544e-13,1.221122568e-14,8.291813057e-15,3.122263835e-13,5.057859523e-14,1.625897417e-13,2.202863947e-14,4.649717597e-14
1.2265625,1.902632995e-14,8.641249486e-14,4.19806894e-13,1.201652325e-13,2.103265722e-14,3.903468547e-13,2.018720155e-14,1.155233936e-13,2.223810809e-14,3.979043409e-14,1.673233317e-13,9.934501604e-15,9.093020341e-14,1.872055324e-14,2.140968375e-14,1.522681375e-14,1.123198314e-14,9.989297213e-14,8.977827995e-14,8.482483732e-14,5.855921064e-14,5.201498779e-14,5.261689616e-14,2.788816271e-13,1.10995225e-13,1.146340267e-14,1.032187434e-14,3.488044846e-13,4.83111879e-14,1.978951741e-13,1.905671312e-14,3.795836851e-14
1.234375,1.663387482e-14,6.600639624e-14,4.773109878e-13,1.0221811e-13,2.094767113e-14,3.351576462e-13,1.567498906e-14,1.227403425e-13,1.492565184e-14,3.70646879e-14,1.488959116e-13,1.375807775e-14,7.903664653e-14,2.271798381e-14,2.1450197e-14,1.309927108e-14,8.948832268e-15,1.083231112e-13,9.586612925e-14,1.091340734e-13,5.19290451e-14,3.791679643e-14,4.773712192e-14,2.388059465e-13,9.299026425e-14,1.042232971e-14,1.184651075e-14,3.784968007e-13,4.493290478e-14,2.330236182e-13,1.618299171e-14,2.99841786e-14
1.2421875,1.375881849e-14,4.741604554e-14,5.20465551e-13,8.492821562e-14,2.137272284e-14,2.792753876e-13,1.217252226e-14,1.397264598e-13,9.520074785e-15,3.735558698e-14,1.420443897e-13,1.795053842e-14,6.700625151e-14,2.70526732e-14,2.102870441e-14,1.145347225e-14,7.473254974e-15,1.13272748e-13,9.902303715e-14,1.338772432e-13,4.564198493e-14,2.634929772e-14,4.189565364e-14,1.915399746e-13,8.522693868e-14,9.450552089e-15,1.274303796e-14,3.988438715e-13,4.05757193e-14,2.650384023e-13,1.430952086e-14,2.330966776e-14
1.25,1.085194638e-14,3.309642405e-14,5.446265543e-13,7.405720804e-14,2.428385788e-14,2.416705461e-13,9.934041075e-15,1.630540554e-13,6.001831721e-15,3.971131359e-14,1.384753566e-13,2.260620678e-14,5.684694052e-14,3.243220316e-14,2.011943479e-14,1.108712532e-14,6.833861532e-15,1.137466959e-13,9.885942123e-14,1.559020421e-13,4.093367452e-14,1.802568259e-14,3.594773736e-14,1.458393096e-13,8.91644429e-14,8.015384055e-15,1.248389847e-14,3.978749624e-13,3.771829039e-14,2.918652915e-13,1.493220258e-14,1.769096619e-14
1.2578125,8.218683277e-15,2.233283833e-14,5.549588496e-13,6.94270487e-14,2.881986176e-14,2.22711428e-13,9.182212757e-15,1.859290768e-13,4.031539535e-15,4.215026357e-14,1.324447326e-13,2.620719603e-14,4.96993125e-14,3.794225649e-14,1.79496036e-14,1.157495093e-14,6.491177173e-15,1.111679198e-13,9.618500359e-14,1.726809024e-13,3.76128547e-14,1.293070884e-14,3.112658165e-14,1.060570181e-13,1.054935368e-13,6.280922007e-15,1.078241016e-14,3.821444474e-13,3.507527809e-14,3.117143807e-13,1.634143239e-14,1.373749444e-14
1.265625,6.474646228e-15,1.508985326e-14,5.502091645e-13,7.354676759e-14,3.648700838e-14,2.268511237e-13,9.566415462e-15,2.056640622e-13,2.869717538e-15,4.306885128e-14,1.182227197e-13,2.742644543e-14,4.468667832e-14,4.209316016e-14,1.507427365e-14,1.353384392e-14,6.685610581e-15,1.058612733e-13,9.173919943e-14,1.825607112e-13,3.630483414e-14,1.019419861e-14,2.757465073e-14,7.771595318e-14,1.307447577e-13,5.247627855e-15,9.260146802e-15,3.704872547e-13,3.156977403e-14,3.194209005e-13,1.972808267e-14,1.143518918e-14
1.2734375,5.937509302e-15,1.181241252e-14,5.368045437e-13,8.501603736e-14,4.722283165e-14,2.444431374e-13,1.077929779e-14,2.166241255e-13,2.379797972e-15,4.239731707e-14,1.021128545e-13,2.711891456e-14,4.105104287e-14,4.45688396e-14,1.229740487e-14,1.61952091e-14,6.841677619e-15,9.59740667e-14,8.46201294e-14,1.82415447e-13,3.525438384e-14,8.322486187e-15,2.47743491e-14,6.130156085e-14,1.579312115e-13,5.392469566e-15,8.566310034e-15,3.640106936e-13,2.859994888e-14,3.147053866e-13,2.512477855e-14,1.099896381e-14
1.28125,6.55453184e-15,1.167021816e-14,5.073355587e-13,1.005420131e-13,5.782319818e-14,2.69126556e-13,1.237165155e-14,2.194648819e-13,2.177011225e-15,4.102656423e-14,8.616986051e-14,2.661405509e-14,3.853016682e-14,4.678635683e-14,1.015817057e-14,1.877314875e-14,6.838189677e-15,8.233851466e-14,7.564971853e-14,1.731981088e-13,3.447520759e-14,7.086825048e-15,2.30083641e-14,5.83673846e-14,1.825288265e-13,6.109892306e-15,9.083365278e-15,3.587948918e-13,2.732949985e-14,3.016162379e-13,3.056506095e-14,1.177329872e-14
1.2890625,7.904352329e-15,1.396696453e-14,4.602425529e-13,1.169460057e-13,6.660114823e-14,2.884547461e-13,1.377422349e-14,2.116566895e-13,2.019384775e-15,3.794475474e-14,7.306725582e-14,2.554717171e-14,3.774156098e-14,4.870373151e-14,8.651326754e-15,2.085058228e-14,7.007020594e-15,6.802295724e-14,6.604658577e-14,1.535983431e-13,3.255716514e-14,6.094585102e-15,2.148566199e-14,6.741995271e-14,2.019458045e-13,7.308055948e-15,1.109875158e-14,3.643988555e-13,2.816296483e-14,2.797286436e-13,3.566377402e-14,1.309214981e-14
1.296875,9.548824398e-15,1.910592328e-14,4.024747197e-13,1.336370972e-13,7.396307665e-14,2.918464503e-13,1.436698653e-14,1.96162643e-13,2.029705917e-15,3.400762575e-14,6.630305926e-14,2.377996438e-14,3.772007263e-14,4.838792972e-14,7.608176517e-15,2.249375086e-14,7.858181233e-15,5.385569471e-14,5.622416842e-14,1.299852396e-13,2.926309335e-14,5.058249412e-15,1.993032298e-14,8.367711661e-14,2.10015591e-13,9.277807267e-15,1.537908068e-14,3.789725273e-13,2.986060017e-14,2.48039968e-13,4.154738229e-14,1.459220564e-14
1.3046875,1.12641407e-14,2.625871888e-14,3.43352396e-13,1.492650063e-13,7.909600428e-14,2.80071628e-13,1.441047303e-14,1.809848235e-13,2.316381279e-15,3.227343788e-14,7.507516023e-14,2.274123132e-14,3.810415828e-14,4.557229838e-14,6.739726535e-15,2.314041868e-14,9.899618915e-15,4.060583094e-14,4.701678255e-14,1.067692869e-13,2.548663212e-14,3.979767199e-15,1.882835497e-14,1.055128908e-13,2.059976407e-13,1.170608585e-14,2.143159631e-14,3.934647035e-13,3.207151468e-14,2.118020248e-13,4.685629996e-14,1.651992499e-14
1.3125,1.218860585e-14,3.467011984e-14,2.842628477e-13,1.622123793e-13,8.026912757e-14,2.627156884e-13,1.374140714e-14,1.690767673e-13,2.988887819e-15,3.33010569e-14,9.962517626e-14,2.315354908e-14,3.870882015e-14,4.121383245e-14,6.226609375e-15,2.223672283e-14,1.340947144e-14,2.846641585e-14,3.801266914e-14,8.601948956e-14,2.16022831e-14,3.578539312e-15,1.850792326e-14,1.318501387e-13,1.940411164e-13,1.328726971e-14,2.749888216e-14,3.91929821e-13,3.43953089e-14,1.737771034e-13,4.994388532e-14,1.793113952e-14
1.3203125,1.211254601e-14,4.46539342e-14,2.422685294e-13,1.772200693e-13,8.173882282e-14,2.423590282e-13,1.280579571e-14,1.601121961e-13,4.206761136e-15,3.682260891e-14,1.448693966e-13,2.479581944e-14,3.934116901e-14,3.631869315e-14,6.750122066e-15,2.183479604e-14,1.852602341e-14,1.889259069e-14,2.935580725e-14,7.269213936e-14,1.779181259e-14,3.406644683e-15,1.869657148e-14,1.598819148e-13,1.787384659e-13,1.465766576e-14,3.385440362e-14,3.887382431e-13,3.754977754e-14,1.37828016e-13,5.339871902e-14,1.821050795e-14
1.328125,1.14149285e-14,5.45075729e-14,2.229362999e-13,1.942205988e-13,8.445873597e-14,2.281936913e-13,1.206110674e-14,1.533086829e-13,5.95734174e-15,4.152615354e-14,2.070723853e-13,2.682316721e-14,4.062527607e-14,3.055138985e-14,8.37503523e-15,2.34862033e-14,2.540156439e-14,1.20530481e-14,2.182018107e-14,7.342360469e-14,1.531422894e-14,3.424422133e-15,1.904737895e-14,1.837294077e-13,1.641306382e-13,1.609125282e-14,3.983793921e-14,3.824652709e-13,4.080801164e-14,1.052413791e-13,5.696393579e-14,1.760618732e-14
1.3359375,1.056507279e-14,6.424689687e-14,2.236593551e-13,2.127727048e-13,8.757438624e-14,2.323116884e-13,1.250668828e-14,1.472883721e-13,8.171630096e-15,4.602820696e-14,2.824806738e-13,2.851204148e-14,4.193043667e-14,2.381122758e-14,1.147082542e-14,2.738894068e-14,3.312011979e-14,7.310721705e-15,1.581284436e-14,8.985897275e-14,1.586137092e-14,3.639580917e-15,2.042658778e-14,2.018854534e-13,1.553757826e-13,1.67547362e-14,4.370847424e-14,3.774143308e-13,4.31444867e-14,7.812077165e-14,5.89949522e-14,1.664364554e-14
1.34375,1.007555138e-14,7.393698165e-14,2.378635529e-13,2.325067901e-13,9.135015847e-14,2.517224854e-13,1.444232995e-14,1.412835669e-13,1.04350111e-14,4.959202799e-14,3.610314573e-13,2.963896627e-14,4.289412934e-14,1.78803617e-14,1.63082287e-14,3.312132352e-14,3.96382588e-14,4.468311229e-15,1.13387419e-14,1.195209193e-13,1.962488253e-14,4.064163203e-15,2.227622992e-14,2.144266509e-13,1.594745655e-13,1.660054489e-14,4.523204129e-14,3.863978127e-13,4.562890601e-14,5.88514652e-14,6.090231993e-14,1.541674317e-14
1.3515625,1.070288429e-14,8.300252271e-14,2.571664598e-13,2.510347339e-13,9.541499222e-14,2.812077559e-13,1.800575982e-14,1.339324102e-13,1.283401558e-14,5.144821646e-14,4.317752513e-13,2.993583536e-14,4.40226835e-14,1.318845284e-14,2.25112052e-14,4.016258112e-14,4.459511692e-14,3.128677399e-15,8.114002457e-15,1.636682439e-13,2.71546321e-14,4.555701587e-15,2.434656074e-14,2.197300059e-13,1.807668142e-13,1.688166145e-14,4.64240583e-14,4.253749164e-13,5.022770611e-14,4.643855968e-14,6.312370022e-14,1.460307725e-14
1.359375,1.36469301e-14,9.244144341e-14,2.674231533e-13,2.663347526e-13,9.654019098e-14,3.167705246e-13,2.30089566e-14,1.232903143e-13,1.502776121e-14,4.92623107e-14,4.762241372e-13,2.845382301e-14,4.514958433e-14,9.615956218e-15,2.920536305e-14,4.719756971e-14,4.709148972e-14,2.945285486e-15,6.676759362e-15,2.193563153e-13,3.877133588e-14,5.723654027e-15,2.769256172e-14,2.181545844e-13,2.230211068e-13,1.704430937e-14,4.774443397e-14,5.07254942e-13,5.729615871e-14,4.195808337e-14,6.469281861e-14,1.483557798e-14
1.3671875,1.922505049e-14,1.02050759e-13,2.621574676e-13,2.765820934e-13,9.337916553e-14,3.453422739e-13,2.82096103e-14,1.10768262e-13,1.673590604e-14,4.4087517e-14,4.877852556e-13,2.526453614e-14,4.556445011e-14,7.316385552e-15,3.586356388e-14,5.321592201e-14,4.608822935e-14,3.708234145e-15,6.515385874e-15,2.775611239e-13,5.20881595e-14,7.979814311e-15,3.105253137e-14,2.143648831e-13,2.822436565e-13,1.649491443e-14,4.897706559e-14,6.286353712e-13,6.603563924e-14,4.298277014e-14,6.644894435e-14,1.631455505e-14
1.375,2.789059802e-14,1.095449976e-13,2.474900019e-13,2.785369371e-13,8.61259084e-14,3.555967863e-13,3.274764105e-14,1.017984335e-13,1.838108221e-14,3.915436746e-14,4.690049358e-13,2.125715844e-14,4.538287353e-14,6.071514629e-15,4.113946191e-14,5.723281764e-14,4.262156064e-14,5.631002657e-15,6.795995702e-15,3.314098693e-13,6.621004791e-14,1.154005899e-14,3.374210366e-14,2.173552248e-13,3.564639673e-13,1.558616126e-14,5.096797044e-14,7.917844706e-13,7.63576205e-14,5.269198811e-14,6.940189847e-14,1.908947114e-14
1.3828125,3.913441758e-14,1.152755327e-13,2.216550483e-13,2.752275904e-13,7.581670223e-14,3.438878938e-13,3.555802905e-14,9.93797904e-14,2.01347876e-14,3.672429615e-14,4.235072319e-13,1.714196316e-14,4.444229058e-14,5.634029417e-15,4.336459058e-14,5.771773529e-14,3.835531823e-14,8.044683577e-15,7.076468999e-15,3.773964994e-13,7.979882106e-14,1.59919761e-14,3.493160317e-14,2.309069418e-13,4.375269465e-13,1.494372756e-14,5.429290656e-14,9.811516408e-13,8.703438715e-14,7.090063699e-14,7.357604051e-14,2.309468986e-14
1.390625,5.224455306e-14,1.176825508e-13,1.917298755e-13,2.674407839e-13,6.377356233e-14,3.165030966e-13,3.565662077e-14,1.040770173e-13,2.217647327e-14,3.773743646e-14,3.557777058e-13,1.332447165e-14,4.335268234e-14,5.623301461e-15,4.208603059e-14,5.393136737e-14,3.412259726e-14,1.049562278e-14,7.408250574e-15,4.116249008e-13,9.151775018e-14,2.136168749e-14,3.488894927e-14,2.608668152e-13,5.183124386e-13,1.457618123e-14,5.944855764e-14,1.192898692e-12,9.672441922e-14,1.009994631e-13,7.85689213e-14,2.758536623e-14
1.3984375,6.482645863e-14,1.146256395e-13,1.680176672e-13,2.583222384e-13,5.33391824e-14,2.758594495e-13,3.315463177e-14,1.141684473e-13,2.455105115e-14,4.336073715e-14,2.837358283e-13,1.022795956e-14,4.245718707e-14,5.891570588e-15,3.927606954e-14,4.930250872e-14,3.121118339e-14,1.29408446e-14,7.338223392e-15,4.289086146e-13,9.965560541e-14,2.769896286e-14,3.244575015e-14,3.100607436e-13,5.854943481e-13,1.44392808e-14,6.511840267e-14,1.40660702e-12,1.024563384e-13,1.465249011e-13,8.489846067e-14,3.141461835e-14
1.40625,7.606889314e-14,1.0622515e-13,1.562756894e-13,2.487734251e-13,4.679822535e-14,2.308696145e-13,2.913249724e-14,1.252367652e-13,2.755680744e-14,5.151306661e-14,2.200091642e-13,8.043059403e-15,4.22673399e-14,6.373176663e-15,3.494970267e-14,4.334155697e-14,2.995268847e-14,1.478999021e-14,6.662524974e-15,4.282180787e-13,1.03271365e-13,3.28646015e-14,2.814157187e-14,3.713719909e-13,6.282089828e-13,1.453060641e-14,6.956739927e-14,1.591383193e-12,1.028906579e-13,2.055653928e-13,9.072411237e-14,3.457425987e-14
1.4140625,8.471558047e-14,9.414961563e-14,1.563448661e-13,2.392620255e-13,4.439789016e-14,1.922738718e-13,2.408935343e-14,1.33958144e-13,3.114484293e-14,5.97156949e-14,1.66911029e-13,6.745001198e-15,4.263661113e-14,7.332133988e-15,3.000900125e-14,3.565260302e-14,3.057342365e-14,1.523801184e-14,5.699013248e-15,4.111142597e-13,1.027408697e-13,3.581898554e-14,2.336069113e-14,4.366921163e-13,6.422723986e-13,1.495087376e-14,7.281103527e-14,1.729313814e-12,9.759029634e-14,2.737230524e-13,9.402170114e-14,3.673748906e-14
1.421875,8.927955673e-14,8.078726949e-14,1.690284076e-13,2.31485472e-13,4.59749807e-14,1.689847184e-13,1.905873916e-14,1.359321585e-13,3.471692563e-14,6.550544134e-14,1.310662471e-13,6.158078753e-15,4.310869366e-14,9.544817828e-15,2.682239875e-14,2.835344624e-14,3.198090348e-14,1.434923677e-14,5.022378603e-15,3.793713922e-13,9.854798959e-14,3.666905204e-14,1.952751064e-14,4.939763679e-13,6.26747707e-13,1.537100303e-14,7.410894814e-14,1.806760915e-12,8.734559275e-14,3.434194204e-13,9.409425746e-14,3.762770965e-14
1.4296875,8.922646233e-14,6.577311054e-14,1.899605356e-13,2.195035987e-13,4.90404121e-14,1.578465412e-13,1.488147363e-14,1.295073933e-13,3.761646753e-14,6.712253384e-14,1.101015559e-13,6.181386893e-15,4.333529534e-14,1.320681397e-14,2.62947431e-14,2.262972249e-14,3.440881184e-14,1.269559328e-14,4.780916427e-15,3.375934655e-13,9.113364572e-14,3.567147553e-14,1.705396493e-14,5.319321219e-13,5.809938528e-13,1.545216116e-14,7.260968932e-14,1.800836449e-12,7.344411642e-14,4.061335663e-13,8.95200438e-14,3.700148341e-14
1.4375,8.592560753e-14,5.419864e-14,2.105845117e-13,2.068901068e-13,5.211625815e-14,1.591560988e-13,1.23616292e-14,1.165167739e-13,4.002759265e-14,6.394537639e-14,1.042833766e-13,6.99513597e-15,4.28266582e-14,1.899309296e-14,2.959304608e-14,1.896122058e-14,3.692251715e-14,1.091139751e-14,5.087767412e-15,2.883034871e-13,8.150831865e-14,3.254924139e-14,1.620130357e-14,5.398385306e-13,5.132680136e-13,1.462895119e-14,6.790512265e-14,1.703599537e-12,5.913086503e-14,4.470752083e-13,8.113155153e-14,3.549331532e-14
1.4453125,8.039441763e-14,4.634462173e-14,2.234259273e-13,1.909437248e-13,5.341871306e-14,1.624492062e-13,1.14179728e-14,9.723874471e-14,4.189688657e-14,5.617901649e-14,1.087539113e-13,8.645005892e-15,4.119462487e-14,2.595326659e-14,3.516123092e-14,1.712483373e-14,3.771309631e-14,9.16055231e-15,6.310694671e-15,2.363268068e-13,7.038405612e-14,2.775627681e-14,1.65670116e-14,5.1492881e-13,4.318049859e-13,1.307785285e-14,6.127529077e-14,1.532855754e-12,4.646138969e-14,4.582623282e-13,7.01846467e-14,3.372650594e-14
1.453125,7.307288604e-14,4.331055528e-14,2.285756551e-13,1.722286799e-13,5.281990217e-14,1.597657058e-13,1.16491798e-14,7.694981213e-14,4.325317537e-14,4.760941892e-14,1.175880757e-13,1.143075186e-14,3.828044467e-14,3.382658823e-14,4.256811654e-14,1.733423617e-14,3.731139892e-14,7.64119779e-15,8.023623361e-15,1.873435831e-13,5.926448747e-14,2.256637322e-14,1.733834608e-14,4.629254332e-13,3.460029425e-13,1.12221176e-14,5.341032339e-14,1.306370486e-12,3.781753332e-14,4.393065471e-13,5.94102147e-14,3.182319582e-14
1.4609375,6.485492631e-14,4.429197196e-14,2.271281418e-13,1.526891617e-13,5.075459191e-14,1.508183873e-13,1.28197828e-14,5.738817497e-14,4.405568974e-14,4.033934578e-14,1.286395671e-13,1.508381411e-14,3.394322359e-14,4.130099126e-14,5.001731814e-14,1.940831748e-14,3.518623364e-14,7.029937778e-15,1.027252845e-14,1.452405943e-13,4.925104713e-14,1.819733441e-14,1.796526964e-14,3.917516069e-13,2.633157731e-13,9.586789845e-15,4.509371708e-14,1.05314269e-12,3.356755283e-14,3.940828254e-13,5.076411484e-14,2.995600505e-14
1.46875,5.711360579e-14,5.011577131e-14,2.227509033e-13,1.374518549e-13,4.930041699e-14,1.357081987e-13,1.42267982e-14,4.131766804e-14,4.430145106e-14,3.614060082e-14,1.345247907e-13,1.947709432e-14,2.856236401e-14,4.763279117e-14,5.666265047e-14,2.24469179e-14,3.187583363e-14,7.287223692e-15,1.280287771e-14,1.127282341e-13,4.064796833e-14,1.464212708e-14,1.831949243e-14,3.135980683e-13,1.917778528e-13,8.612361398e-15,3.723962179e-14,8.09196654e-13,3.400687766e-14,3.316344193e-13,4.655910542e-14,2.794599202e-14
1.4765625,4.989954607e-14,6.029241937e-14,2.264936755e-13,1.315310919e-13,5.044317536e-14,1.180411498e-13,1.614454203e-14,2.89965691e-14,4.399731855e-14,3.583748573e-14,1.372648578e-13,2.388672157e-14,2.297069302e-14,5.16308568e-14,6.186752531e-14,2.619099959e-14,2.703728375e-14,8.233937596e-15,1.545045631e-14,9.039325144e-14,3.359964896e-14,1.210554855e-14,1.779218242e-14,2.380935933e-13,1.367552615e-13,8.772303967e-15,3.101959608e-14,6.108643013e-13,3.744355948e-14,2.641790973e-13,4.843442583e-14,2.631391946e-14
1.484375,4.313643433e-14,7.371795764e-14,2.445413731e-13,1.345997271e-13,5.352016338e-14,1.035615234e-13,1.853317563e-14,2.161609043e-14,4.347865412e-14,3.90146125e-14,1.338233971e-13,2.726641769e-14,1.77362244e-14,5.213932323e-14,6.382945566e-14,2.924295829e-14,2.18268868e-14,9.031846679e-15,1.729681232e-14,8.042586896e-14,2.886107152e-14,1.077420045e-14,1.670105983e-14,1.780726664e-13,9.95803951e-14,9.951105334e-15,2.67265459e-14,4.810682948e-13,4.180123396e-14,2.086103441e-13,5.515752885e-14,2.442447937e-14
1.4921875,3.677878532e-14,9.01310407e-14,2.758187742e-13,1.487167586e-13,5.958868927e-14,9.916509297e-14,2.165756754e-14,1.691969424e-14,4.248483e-14,4.31079067e-14,1.246784662e-13,2.937204011e-14,1.296202789e-14,5.005952784e-14,6.337029098e-14,3.171001796e-14,1.717166633e-14,9.622328021e-15,1.824883144e-14,7.803400323e-14,2.551913672e-14,9.87067463e-15,1.577917742e-14,1.337147831e-13,7.801449361e-14,1.183636329e-14,2.390956603e-14,4.263064528e-13,4.566332304e-14,1.742636772e-13,6.549803434e-14,2.245861133e-14
1.5,3.064691768e-14,1.070903418e-13,3.146061595e-13,1.685073358e-13,6.503201953e-14,1.023294282e-13,2.601767972e-14,1.600636478e-14,4.097872613e-14,4.701040189e-14,1.114376084e-13,2.978300684e-14,9.000655344e-15,4.550419672e-14,6.01040339e-14,3.259517212e-14,1.304544496e-14,1.025667362e-14,1.884574365e-14,8.351538152e-14,2.372202914e-14,9.213761423e-15,1.528208043e-14,1.052042404e-13,7.243823086e-14,1.380335609e-14,2.238619344e-14,4.490592874e-13,4.721554897e-14,1.692880814e-13,7.620450646e-14,2.005945842e-14
1.5078125,2.510544096e-14,1.206444141e-13,3.514734973e-13,1.853755249e-13,6.716071868e-14,1.117192454e-13,3.124916539e-14,1.81606528e-14,3.862226056e-14,4.851667151e-14,9.692584801e-14,2.867541489e-14,6.164860266e-15,3.97147107e-14,5.430815882e-14,3.160080211e-14,9.885741995e-15,1.00821045e-14,1.842679079e-14,9.20858007e-14,2.259396881e-14,8.349649949e-15,1.518183964e-14,9.162910729e-14,7.752950992e-14,1.483991825e-14,2.101594354e-14,5.229951986e-13,4.590220586e-14,1.923054064e-13,8.297606868e-14,1.745774796e-14
1.515625,2.037650754e-14,1.294533207e-13,3.780712105e-13,1.957203129e-13,6.643300041e-14,1.214434256e-13,3.70366499e-14,2.376044166e-14,3.552137044e-14,4.764466989e-14,8.618776606e-14,2.733993833e-14,4.297394165e-15,3.486418289e-14,4.800667845e-14,2.993315764e-14,7.877163421e-15,9.421318508e-15,1.739335697e-14,1.015502176e-13,2.14858927e-14,7.593456865e-15,1.491206606e-14,8.863052364e-14,9.046601966e-14,1.517338302e-14,1.949118654e-14,6.319603861e-13,4.381228366e-14,2.403542762e-13,8.556591486e-14,1.51156052e-14
1.5234375,1.702084789e-14,1.306499503e-13,3.861342473e-13,1.935054941e-13,6.202101691e-14,1.268202768e-13,4.330844735e-14,3.223847572e-14,3.221898254e-14,4.423220833e-14,8.090863764e-14,2.657879192e-14,3.520295231e-15,3.187900336e-14,4.108967475e-14,2.718375384e-14,6.30996931e-15,8.842177557e-15,1.628279815e-14,1.10577183e-13,2.009169034e-14,6.646240941e-15,1.45295167e-14,9.038686009e-14,1.074771696e-13,1.496616312e-14,1.800773537e-14,7.512865563e-13,4.178510396e-14,3.015844572e-13,8.198956414e-14,1.375845219e-14
1.53125,1.476486083e-14,1.235687252e-13,3.806928447e-13,1.783391265e-13,5.413969718e-14,1.251488835e-13,4.886363303e-14,4.513159859e-14,2.920706434e-14,4.121517921e-14,8.408589299e-14,2.84703547e-14,3.834391946e-15,3.268104449e-14,3.490041911e-14,2.332874997e-14,4.877422693e-15,8.955445541e-15,1.59442768e-14,1.219047539e-13,1.886802652e-14,5.636943795e-15,1.378499835e-14,9.383860813e-14,1.247006451e-13,1.447851197e-14,1.653823453e-14,8.504052638e-13,4.214714998e-14,3.671528788e-13,7.367638487e-14,1.355117879e-14
1.5390625,1.367091789e-14,1.114602249e-13,3.650553467e-13,1.559107686e-13,4.59821321e-14,1.20224098e-13,5.221215787e-14,6.029474004e-14,2.652209149e-14,4.021719483e-14,9.667804882e-14,3.382608869e-14,5.483835172e-15,3.750978571e-14,3.097334842e-14,1.991252047e-14,3.938637128e-15,9.234534634e-15,1.625680317e-14,1.338417794e-13,1.779712167e-14,4.996162921e-15,1.24986586e-14,9.771305634e-14,1.395202259e-13,1.451391546e-14,1.527789102e-14,9.078038552e-13,4.672526692e-14,4.256350185e-13,6.408603673e-14,1.532831447e-14
1.546875,1.358752851e-14,9.934767205e-14,3.420927158e-13,1.35760438e-13,4.043647172e-14,1.164218915e-13,5.282519531e-14,7.549452617e-14,2.495711535e-14,4.242646446e-14,1.158662316e-13,4.284388458e-14,8.417131584e-15,4.613457814e-14,3.036790078e-14,1.749482219e-14,3.523259328e-15,9.676724904e-15,1.69281568e-14,1.443871408e-13,1.66310595e-14,4.652927665e-15,1.125543948e-14,9.998837936e-14,1.49712488e-13,1.585429423e-14,1.500593859e-14,9.184081345e-13,5.600400794e-14,4.692316221e-13,5.768133752e-14,1.92434866e-14
1.5546875,1.436568591e-14,8.909339481e-14,3.183073285e-13,1.241844957e-13,3.911079543e-14,1.153962042e-13,5.107187759e-14,8.95527572e-14,2.449466023e-14,4.761798938e-14,1.370744101e-13,5.349190069e-14,1.245320594e-14,5.600413023e-14,3.173463486e-14,1.599742162e-14,3.41568207e-15,1.068498178e-14,1.819104039e-14,1.566780396e-13,1.538387842e-14,4.359339544e-15,1.075244785e-14,9.945798411e-14,1.547174946e-13,1.917084714e-14,1.646915368e-14,8.854085382e-13,6.726114283e-14,4.858825857e-13,5.669391593e-14,2.57993453e-14
1.5625,1.572891699e-14,8.160133829e-14,2.969684677e-13,1.23679603e-13,4.088943965e-14,1.210027831e-13,4.674237442e-14,9.835320928e-14,2.51684973e-14,5.425794103e-14,1.560410078e-13,6.369260445e-14,1.744979025e-14,6.559554191e-14,3.444007113e-14,1.493971193e-14,3.145041321e-15,1.207717568e-14,2.017978866e-14,1.674918661e-13,1.46269813e-14,4.502991782e-15,1.162114206e-14,9.825654686e-14,1.531531406e-13,2.370988176e-14,1.904934745e-14,8.13566133e-13,7.766315231e-14,4.768895307e-13,6.045356104e-14,3.461190993e-14
1.5703125,1.690407334e-14,7.638846383e-14,2.745452916e-13,1.336876337e-13,4.475962508e-14,1.318612927e-13,4.058530173e-14,1.005458088e-13,2.667083422e-14,5.967986956e-14,1.688694195e-13,7.065422938e-14,2.303828868e-14,7.199811092e-14,3.707905494e-14,1.395021911e-14,3.307631639e-15,1.351059616e-14,2.236389328e-14,1.756625689e-13,1.419372814e-14,4.897578335e-15,1.392746848e-14,9.751905775e-14,1.447363645e-13,2.81250167e-14,2.260522807e-14,7.289272565e-13,8.391857514e-14,4.485787824e-13,6.702121764e-14,4.426087615e-14
1.578125,1.765781538e-14,7.378575497e-14,2.450177198e-13,1.500739564e-13,4.903375272e-14,1.451646825e-13,3.419226736e-14,9.696383014e-14,2.834778231e-14,6.192561475e-14,1.815392834e-13,7.256014465e-14,2.866988595e-14,7.443651632e-14,4.061693794e-14,1.370495314e-14,3.546344279e-15,1.506428216e-14,2.43255723e-14,1.784896657e-13,1.363037649e-14,5.403174875e-15,1.796024862e-14,9.845368027e-14,1.315798481e-13,3.202295462e-14,2.745197815e-14,6.708214556e-13,8.454364115e-14,4.123439115e-13,7.431220732e-14,5.393680529e-14
1.5859375,1.772744996e-14,6.947764747e-14,2.13008915e-13,1.647234605e-13,5.196617021e-14,1.561343528e-13,2.845024792e-14,9.19904629e-14,2.988716127e-14,6.131185546e-14,2.018014033e-13,6.930973222e-14,3.408571213e-14,7.261394887e-14,4.609196185e-14,1.420345222e-14,3.944049366e-15,1.672830174e-14,2.64958355e-14,1.778557099e-13,1.328385503e-14,6.339534923e-15,2.290991938e-14,1.007289851e-13,1.140206901e-13,3.424060311e-14,3.344659318e-14,6.664186837e-13,7.897793213e-14,3.786801788e-13,7.830786346e-14,6.171108475e-14
1.59375,1.735169237e-14,6.284195217e-14,1.740267426e-13,1.708690958e-13,5.269007011e-14,1.627813715e-13,2.493490586e-14,8.968040529e-14,3.029889299e-14,5.847673438e-14,2.424827892e-13,6.207609868e-14,3.921864874e-14,6.857625438e-14,5.499124145e-14,1.601955661e-14,4.519229091e-15,1.943984393e-14,2.896625441e-14,1.727969144e-13,1.342566122e-14,7.809425817e-15,2.791873731e-14,1.046955009e-13,9.552012316e-14,3.457813993e-14,4.090229156e-14,7.732163533e-13,6.966495135e-14,3.731101145e-13,7.727171992e-14,6.584758485e-14
1.6015625,1.682108548e-14,5.424261359e-14,1.344865483e-13,1.661233217e-13,5.069307501e-14,1.629010006e-13,2.382930156e-14,9.578043932e-14,2.9111907e-14,5.560203189e-14,3.118104074e-13,5.33267088e-14,4.330296848e-14,6.482486636e-14,6.939185726e-14,1.977029908e-14,5.275354542e-15,2.270774906e-14,3.086905213e-14,1.62207303e-13,1.299509513e-14,9.878803571e-15,3.200633748e-14,1.095874612e-13,8.011361388e-14,3.340600804e-14,5.051725035e-14,1.008919286e-12,5.915698289e-14,4.011171078e-13,7.101188915e-14,6.636264675e-14
1.609375,1.649098357e-14,4.575875762e-14,9.802319766e-14,1.514140069e-13,4.716413662e-14,1.559137319e-13,2.560580398e-14,1.15042869e-13,2.666555411e-14,5.696868179e-14,4.136821085e-13,4.67029372e-14,4.653708428e-14,6.422732471e-14,9.218092178e-14,2.777004226e-14,6.712278612e-15,2.728278742e-14,3.307799669e-14,1.486166354e-13,1.263912389e-14,1.307384719e-14,3.488952794e-14,1.157171942e-13,7.129751614e-14,3.153688795e-14,6.288263697e-14,1.394317978e-12,5.124126259e-14,4.800643679e-13,6.175689513e-14,6.355100768e-14
1.6171875,1.664375074e-14,3.963778681e-14,6.817029305e-14,1.313164982e-13,4.386638267e-14,1.435971922e-13,2.977670493e-14,1.477284564e-13,2.351752269e-14,6.425675968e-14,5.391793404e-13,4.406322725e-14,4.971530359e-14,6.717291022e-14,1.221048957e-13,4.074391315e-14,8.443731006e-15,3.316604116e-14,3.515252392e-14,1.324758546e-13,1.197087365e-14,1.747692085e-14,3.542270132e-14,1.200741563e-13,7.263698809e-14,2.999726977e-14,7.902872648e-14,1.91881228e-12,4.855144633e-14,6.002425112e-13,5.329230368e-14,5.743693819e-14
1.625,1.784818241e-14,3.679869224e-14,4.469610961e-14,1.105664611e-13,4.07110293e-14,1.274856136e-13,3.53421654e-14,1.904062702e-13,1.945296028e-14,7.797095141e-14,6.700048677e-13,4.626466009e-14,5.165061343e-14,7.516341327e-14,1.593476292e-13,5.959241228e-14,1.07267559e-14,3.920171494e-14,3.614074582e-14,1.149102275e-13,1.082557497e-14,2.281282232e-14,3.339180192e-14,1.229211439e-13,8.556313079e-14,3.006681897e-14,9.895260635e-14,2.531799088e-12,5.129922316e-14,7.511561183e-13,4.798176522e-14,4.932517153e-14
1.6328125,2.022264662e-14,3.837776103e-14,2.891609234e-14,9.644634181e-14,3.957053666e-14,1.109128617e-13,4.154354896e-14,2.377191735e-13,1.53460286e-14,9.776941364e-14,7.885361315e-13,5.316697606e-14,5.238788441e-14,8.61114425e-14,1.992303345e-13,8.407013538e-14,1.308933468e-14,4.452647538e-14,3.597233537e-14,9.647771244e-14,9.225828297e-15,2.92117216e-14,2.975662905e-14,1.264282921e-13,1.09228304e-13,3.209123502e-14,1.212766993e-13,3.178736786e-12,5.914695512e-14,9.154317757e-13,4.84479851e-14,4.078499294e-14
1.640625,2.396730974e-14,4.242606993e-14,1.851799648e-14,9.091177516e-14,4.004626169e-14,9.890358026e-14,4.69164375e-14,2.788957095e-13,1.198282415e-14,1.193929464e-13,8.671265957e-13,6.143143353e-14,5.205098349e-14,9.668953614e-14,2.369621922e-13,1.137332157e-13,1.585835045e-14,4.766802744e-14,3.41984389e-14,7.897153873e-14,7.579924081e-15,3.607349503e-14,2.496021817e-14,1.307103104e-13,1.384576697e-13,3.621515539e-14,1.437869895e-13,3.760261315e-12,6.845406982e-14,1.057238448e-12,5.473339116e-14,3.276429193e-14
1.6484375,2.930759545e-14,4.792569497e-14,1.357070068e-14,9.707575459e-14,4.276218781e-14,9.522662245e-14,4.930693331e-14,3.045073506e-13,9.291099049e-15,1.391950166e-13,8.959924403e-13,6.836229124e-14,5.006389747e-14,1.04996696e-13,2.676534996e-13,1.447749665e-13,1.879223206e-14,4.805976245e-14,3.077887401e-14,6.355682598e-14,6.167766443e-15,4.186266908e-14,1.972371258e-14,1.359086046e-13,1.697816509e-13,4.210225141e-14,1.648802752e-13,4.198021493e-12,7.636991472e-14,1.149417803e-12,6.628425669e-14,2.589692768e-14
1.65625,3.561079967e-14,5.511148384e-14,1.104305488e-14,1.119160749e-13,4.672868682e-14,1.010363731e-13,4.835397547e-14,3.082121075e-13,7.006749019e-15,1.526249061e-13,8.667889951e-13,7.150041196e-14,4.660982321e-14,1.076948321e-13,2.867928185e-13,1.742785069e-13,2.226960538e-14,4.549151413e-14,2.64157093e-14,5.186238186e-14,5.321868649e-15,4.618004409e-14,1.508851784e-14,1.429280429e-13,1.955504704e-13,4.838715329e-14,1.801668408e-13,4.405675103e-12,8.050728077e-14,1.171024805e-12,8.047148549e-14,2.032661187e-14
1.6640625,4.200194413e-14,6.32985188e-14,1.133516143e-14,1.32777684e-13,5.132886921e-14,1.180258766e-13,4.442572211e-14,2.90504416e-13,5.370970308e-15,1.569640816e-13,7.854601032e-13,6.991060674e-14,4.221395415e-14,1.05372302e-13,2.923596203e-13,1.992593294e-13,2.543236692e-14,4.053603199e-14,2.162393373e-14,4.42015928e-14,5.058475794e-15,4.935996316e-14,1.12292604e-14,1.522503831e-13,2.107477054e-13,5.474671962e-14,1.866558783e-13,4.335394545e-12,8.010288217e-14,1.114629252e-12,9.501316616e-14,1.657211868e-14
1.671875,4.819643416e-14,7.131645253e-14,1.361900917e-14,1.512619176e-13,5.500538825e-14,1.383385603e-13,3.799386621e-14,2.565912303e-13,4.365429639e-15,1.530866366e-13,6.730303694e-13,6.31156249e-14,3.729072356e-14,9.705165038e-14,2.826514295e-13,2.158047343e-13,2.818819551e-14,3.363610474e-14,1.666769782e-14,3.986268884e-14,5.476735105e-15,5.020934759e-14,8.308393654e-15,1.612245819e-13,2.113351255e-13,5.974884773e-14,1.826948944e-13,4.010993678e-12,7.439591707e-14,9.903552437e-13,1.058099366e-13,1.429737453e-14
1.6796875,5.336832578e-14,8.209655054e-14,1.875108552e-14,1.654921511e-13,5.752518861e-14,1.596301248e-13,3.015201142e-14,2.096898323e-13,3.607855129e-15,1.39335118e-13,5.42677981e-13,5.223177144e-14,3.204048583e-14,8.559295259e-14,2.622872363e-13,2.228644085e-13,3.170291383e-14,2.645878452e-14,1.244612225e-14,4.059977567e-14,6.422463262e-15,4.750227935e-14,6.353625873e-15,1.664145955e-13,1.998177574e-13,6.194074317e-14,1.691371118e-13,3.467540677e-12,6.554745892e-14,8.19359623e-13,1.116179188e-13,1.276792246e-14
1.6875,5.715818241e-14,9.325284482e-14,2.843733162e-14,1.682778278e-13,5.810236879e-14,1.711612957e-13,2.356256882e-14,1.599659792e-13,3.096913653e-15,1.192002422e-13,4.146727492e-13,4.006507919e-14,2.75684633e-14,7.267287835e-14,2.327041031e-13,2.192483436e-13,3.456972109e-14,2.066082174e-14,9.61775049e-15,4.460061899e-14,7.290766383e-15,4.272621004e-14,5.43157852e-15,1.67970553e-13,1.795842732e-13,6.136995264e-14,1.470350165e-13,2.807505433e-12,5.587719737e-14,6.492442965e-13,1.107630673e-13,1.202335859e-14
1.6953125,5.85807876e-14,1.029449395e-13,4.735833073e-14,1.581746007e-13,5.632051057e-14,1.748045963e-13,1.966931919e-14,1.15980902e-13,2.963648412e-15,9.646222169e-14,3.021798324e-13,2.843148117e-14,2.403033989e-14,6.024001509e-14,1.989238722e-13,2.074251068e-13,3.718518498e-14,1.729840913e-14,8.251549535e-15,5.1240491e-14,8.182800659e-15,3.712580474e-14,5.11435484e-15,1.665475245e-13,1.551144262e-13,5.803311694e-14,1.189763517e-13,2.124005767e-12,4.630586761e-14,5.081792372e-13,1.024893237e-13,1.182335846e-14
1.703125,5.810145626e-14,1.100196034e-13,7.664004435e-14,1.396267283e-13,5.259831105e-14,1.702740165e-13,1.953039204e-14,8.336522837e-14,3.189433955e-15,7.410650878e-14,2.173570184e-13,1.843668522e-14,2.086662309e-14,4.924360461e-14,1.640014476e-13,1.884962436e-13,3.955021999e-14,1.582969622e-14,8.074382273e-15,6.045241389e-14,8.794964962e-15,3.038115235e-14,5.187658909e-15,1.615390058e-13,1.372416902e-13,5.175328294e-14,8.989798318e-14,1.544004661e-12,3.772154728e-14,4.282754924e-13,8.783658851e-14,1.212519445e-14
1.7109375,5.537173491e-14,1.134037506e-13,1.187241397e-13,1.178244734e-13,4.843890154e-14,1.619582723e-13,2.301797605e-14,6.191755654e-14,3.825019033e-15,5.354637657e-14,1.590327758e-13,1.103197478e-14,1.862235808e-14,4.118502231e-14,1.327010853e-13,1.672078316e-13,4.277243584e-14,1.678504021e-14,8.968895518e-15,7.191668359e-14,8.656085344e-15,2.331119688e-14,5.006846603e-15,1.581700472e-13,1.307773208e-13,4.360984136e-14,6.494176748e-14,1.129180695e-12,3.149337815e-14,4.109317643e-13,7.066487855e-14,1.26666652e-14
1.71875,5.123367576e-14,1.101037391e-13,1.68246134e-13,9.652825904e-14,4.514072791e-14,1.547228838e-13,2.936375834e-14,5.14175783e-14,5.018977502e-15,3.740456089e-14,1.292500851e-13,6.682749201e-15,1.721181712e-14,3.575646151e-14,1.061777079e-13,1.461815205e-13,4.543206025e-14,1.910864816e-14,1.024437634e-14,8.29764407e-14,7.844179349e-15,1.715618347e-14,4.741910082e-15,1.606568412e-13,1.380119348e-13,3.517712996e-14,4.581125852e-14,8.980183089e-13,2.706716919e-14,4.467077216e-13,5.286549258e-14,1.33774094e-14
1.7265625,4.606524521e-14,1.006295448e-13,2.193043354e-13,8.050885825e-14,4.337202696e-14,1.562949248e-13,3.711507468e-14,4.778970063e-14,6.662991818e-15,2.624829556e-14,1.214277416e-13,4.814347839e-15,1.583579703e-14,3.216816198e-14,8.359539957e-14,1.255698567e-13,4.723396076e-14,2.225581386e-14,1.16631784e-14,9.110401962e-14,6.690066259e-15,1.209200421e-14,4.272302348e-15,1.734357283e-13,1.563003307e-13,2.744923488e-14,3.384084692e-14,8.276324053e-13,2.33268587e-14,5.056303667e-13,3.684588006e-14,1.404051269e-14
1.734375,4.057981035e-14,8.626592084e-14,2.622448249e-13,7.1831834e-14,4.251274089e-14,1.657543674e-13,4.480452398e-14,4.653337882e-14,9.05730917e-15,1.900125688e-14,1.285740954e-13,4.848016727e-15,1.446039167e-14,2.982325216e-14,6.427654036e-14,1.06708279e-13,4.862594161e-14,2.605629259e-14,1.314903594e-14,9.60613322e-14,5.511389898e-15,8.188260924e-15,3.635266906e-15,1.941763203e-13,1.796383152e-13,2.058560577e-14,2.755965029e-14,8.525371694e-13,1.980935747e-14,5.551384187e-13,2.332726944e-14,1.491506046e-14
1.7421875,3.574994289e-14,7.035589757e-14,2.880683304e-13,7.015192535e-14,4.258550614e-14,1.771049764e-13,5.164087083e-14,4.634974701e-14,1.241238068e-14,1.454038974e-14,1.475421682e-13,6.85357615e-15,1.312983959e-14,3.000687311e-14,4.942797887e-14,9.096274445e-14,4.967622017e-14,2.945528957e-14,1.407611679e-14,9.642772591e-14,4.29567325e-15,5.545777172e-15,2.86014585e-15,2.204621624e-13,2.039725793e-13,1.530944324e-14,2.658508377e-14,9.119599831e-13,1.730693222e-14,5.745615059e-13,1.422113688e-14,1.592073274e-14
1.75,3.234661152e-14,5.335590146e-14,2.886571853e-13,7.096858851e-14,4.297180317e-14,1.870693244e-13,5.860927152e-14,4.828038812e-14,1.677558531e-14,1.331625642e-14,1.749909819e-13,1.042028524e-14,1.181753575e-14,3.229273643e-14,3.668100984e-14,7.694356195e-14,4.92650684e-14,3.229733246e-14,1.429263923e-14,9.00915653e-14,3.434829172e-15,4.155461056e-15,2.184468466e-15,2.545283004e-13,2.192373547e-13,1.173620077e-14,2.741149447e-14,9.500753303e-13,1.547833229e-14,5.583931591e-13,8.322967141e-15,1.724391356e-14
1.7578125,3.014000965e-14,3.839165671e-14,2.627888295e-13,7.341232676e-14,4.29949375e-14,1.931069559e-13,6.578153044e-14,5.214466734e-14,2.269427955e-14,1.460711319e-14,2.074278911e-13,1.585314904e-14,1.058664116e-14,3.787387322e-14,2.723029062e-14,6.512863181e-14,4.892060487e-14,3.489714369e-14,1.392640624e-14,7.827466301e-14,3.446277128e-15,3.720675887e-15,1.587165033e-15,2.88175849e-13,2.199011555e-13,9.214988594e-15,2.881871865e-14,9.311764436e-13,1.520542482e-14,5.060274798e-13,5.382027755e-15,1.853988631e-14
1.765625,2.979677073e-14,2.742907782e-14,2.250009971e-13,7.587370844e-14,4.277375118e-14,1.914879199e-13,7.429278987e-14,5.896729667e-14,2.979977049e-14,1.778185345e-14,2.469030214e-13,2.241786196e-14,9.669715401e-15,4.663748381e-14,2.168031683e-14,5.772579334e-14,5.191692986e-14,3.925649947e-14,1.384476922e-14,6.623322707e-14,4.63304593e-15,3.771134779e-15,1.246522144e-15,3.134967942e-13,2.070908835e-13,8.004750705e-15,3.061453557e-14,8.579782107e-13,1.710538679e-14,4.4289946e-13,5.009773143e-15,2.013030414e-14
1.7734375,3.186755645e-14,1.945067089e-14,1.85727637e-13,7.692368168e-14,4.19151078e-14,1.855801605e-13,8.386599312e-14,7.234772282e-14,3.791731608e-14,2.361952543e-14,2.967955328e-13,2.946084381e-14,9.372081025e-15,5.681734679e-14,1.824197909e-14,5.414138631e-14,5.681308994e-14,4.319875803e-14,1.331154352e-14,5.479765767e-14,6.883459578e-15,4.300258587e-15,1.349407648e-15,3.301144364e-13,1.802371535e-13,7.37665181e-15,3.081624964e-14,7.291486199e-13,1.996983266e-14,3.854115816e-13,6.282959474e-15,2.198884933e-14
1.78125,3.707411082e-14,1.470642342e-14,1.536992136e-13,7.793081295e-14,4.112835491e-14,1.821965321e-13,9.430655567e-14,9.351911097e-14,4.713381967e-14,3.209097176e-14,3.560589251e-13,3.685089424e-14,9.733136274e-15,6.931395848e-14,1.701291298e-14,5.283468606e-14,6.375468792e-14,4.702671278e-14,1.254746047e-14,4.491410502e-14,1.023491104e-14,5.038392383e-15,1.871036361e-15,3.389308054e-13,1.446533221e-13,7.191892129e-15,2.956540424e-14,5.846459424e-13,2.447932248e-14,3.431647689e-13,8.702851669e-15,2.469592259e-14
1.7890625,4.489460107e-14,1.252558438e-14,1.419786032e-13,8.140731279e-14,4.104199874e-14,1.857390875e-13,1.047962626e-13,1.226527213e-13,5.632608679e-14,4.290120345e-14,4.249072934e-13,4.312012572e-14,1.040431923e-14,7.986650011e-14,1.726834962e-14,5.448138909e-14,7.399937455e-14,5.203498348e-14,1.261323487e-14,4.087143063e-14,1.485794785e-14,5.456937185e-15,2.984955175e-15,3.371904251e-13,1.066046612e-13,7.490142055e-15,2.803889064e-14,4.463231044e-13,2.899907252e-14,3.171282709e-13,1.214245577e-14,2.815682815e-14
1.796875,5.491378395e-14,1.220169192e-14,1.442328966e-13,8.593394135e-14,4.042746916e-14,1.945221605e-13,1.128021107e-13,1.55245602e-13,6.415747806e-14,5.438205192e-14,4.960081415e-13,4.772585817e-14,1.142257979e-14,8.78377674e-14,1.821133607e-14,5.556027028e-14,8.385256999e-14,5.603737321e-14,1.306657525e-14,4.202713628e-14,1.965076495e-14,5.334899761e-15,4.528307606e-15,3.257110997e-13,7.173491161e-14,7.67346122e-15,2.606406574e-14,3.322764158e-13,3.322594446e-14,2.975109368e-13,1.588357954e-14,3.21535182e-14
1.8046875,6.652964179e-14,1.278669096e-14,1.565718696e-13,8.983401685e-14,3.980339023e-14,2.047055588e-13,1.16463401e-13,1.870863094e-13,6.967134938e-14,6.469116795e-14,5.634626552e-13,4.96181616e-14,1.261218693e-14,9.220799416e-14,2.011106349e-14,5.65121959e-14,9.218453417e-14,5.749513748e-14,1.3042537e-14,4.669232154e-14,2.34480301e-14,5.18221895e-15,6.078037248e-15,3.063627372e-13,4.436746089e-14,8.110404116e-15,2.353867181e-14,2.677225937e-13,3.625106657e-14,2.778871088e-13,1.88574626e-14,3.693421139e-14
