"Time","Fp1","AF3","F7","F3","FC1","FC5","T7","C3","CP1","CP5","P7","P3","Pz","PO3","O1","Oz","O2","PO4","P4","P8","CP6","CP2","C4","T8","FC6","FC2","F4","F8","AF4","Fp2","Fz","Cz"
0.0078125,9.788945746e-15,1.416388735e-14,1.153492265e-14,1.544979556e-14,1.666560677e-14,1.543911687e-15,4.765121942e-14,1.221491348e-15,1.485143933e-15,2.317191875e-14,1.786133813e-14,3.663442399e-15,9.569661034e-16,1.288554342e-14,1.62501638e-14,9.896843097e-15,6.767497406e-14,2.258348263e-14,1.613823218e-14,2.009105028e-14,4.300108489e-14,1.30462864e-14,1.715824438e-14,1.141816252e-13,1.035637254e-14,2.841967691e-15,6.448987411e-15,1.704756916e-14,1.650319281e-14,6.148389537e-15,2.14471223e-14,2.338878498e-15
0.015625,1.127555627e-14,1.340915869e-14,1.313403266e-14,1.559921646e-14,1.859945565e-14,2.209539354e-15,5.138165659e-14,1.396953212e-15,2.471399851e-15,2.927263475e-14,2.178944867e-14,4.9323922e-15,1.806907337e-15,1.644414972e-14,2.091885514e-14,1.342859274e-14,8.412571498e-14,3.072808755e-14,1.846676848e-14,2.249914605e-14,3.91866828e-14,1.234566137e-14,1.635407077e-14,1.283213387e-13,1.224881061e-14,3.636797568e-15,9.891564989e-15,2.334192427e-14,2.033267925e-14,8.61658365e-15,2.102988924e-14,2.371092064e-15
0.0234375,1.293646065e-14,1.233596069e-14,1.522243679e-14,1.565723159e-14,1.964258094e-14,3.238654601e-15,5.171950487e-14,1.450897035e-15,4.060772421e-15,3.511720592e-14,2.522192934e-14,6.27864146e-15,3.422393705e-15,2.147687923e-14,2.600713756e-14,1.784425917e-14,1.065311363e-13,4.238794408e-14,2.109787843e-14,2.339130306e-14,3.285844175e-14,1.113968374e-14,1.484690313e-14,1.356697314e-13,1.557558467e-14,4.510029076e-15,1.473561495e-14,3.054971458e-14,2.492988995e-14,1.217513128e-14,1.956840929e-14,2.37933495e-15
0.03125,1.551343576e-14,1.103953083e-14,1.771952228e-14,1.571221515e-14,1.94525217e-14,4.727277014e-15,4.91238684e-14,1.47554433e-15,6.675024733e-15,4.005071732e-14,2.693976383e-14,8.050912935e-15,6.315775381e-15,2.869288187e-14,3.074513562e-14,2.29080877e-14,1.365686165e-13,5.835455855e-14,2.410026574e-14,2.325802555e-14,2.543716183e-14,1.010346224e-14,1.326712861e-14,1.366610711e-13,2.100908632e-14,5.531116377e-15,2.093417284e-14,3.873908708e-14,2.987073239e-14,1.657337103e-14,1.722413556e-14,2.652954643e-15
0.0390625,1.944657414e-14,1.061471425e-14,2.098315772e-14,1.673508486e-14,1.831922918e-14,7.068002713e-15,4.388605675e-14,1.476213947e-15,1.043240899e-14,4.430773103e-14,2.741941574e-14,1.068479561e-14,1.070144594e-14,3.729833786e-14,3.714646935e-14,2.840643504e-14,1.731359215e-13,7.888488098e-14,2.800996567e-14,2.240674549e-14,1.841254952e-14,9.785857145e-15,1.198700388e-14,1.324478062e-13,2.827894964e-14,6.557003638e-15,2.817467008e-14,4.669163902e-14,3.567314182e-14,2.18390995e-14,1.484254964e-14,3.327500787e-15
0.046875,2.532099689e-14,1.176052953e-14,2.50549317e-14,1.937340452e-14,1.695034777e-14,1.018966241e-14,3.7944004e-14,1.592737369e-15,1.53487108e-14,4.733249114e-14,2.735130775e-14,1.444640245e-14,1.652394568e-14,4.74578774e-14,4.781935283e-14,3.499693493e-14,2.142510086e-13,1.019583386e-13,3.307150982e-14,2.119516155e-14,1.284785829e-14,1.037032803e-14,1.126833841e-14,1.240685253e-13,3.641192495e-14,7.548786498e-15,3.562409777e-14,5.285710298e-14,4.209345634e-14,2.819075992e-14,1.27505779e-14,4.454140506e-15
0.0546875,3.405815462e-14,1.474306423e-14,3.026191228e-14,2.391855853e-14,1.582547631e-14,1.385864368e-14,3.326177153e-14,1.957714212e-15,2.149703535e-14,4.90183952e-14,2.64193701e-14,2.016083154e-14,2.409743676e-14,5.931150998e-14,6.587908615e-14,4.342365179e-14,2.547819121e-13,1.25780283e-13,3.937853074e-14,2.062038073e-14,8.791030124e-15,1.19992572e-14,1.108402676e-14,1.134833051e-13,4.473419779e-14,8.495064075e-15,4.286934415e-14,5.797690552e-14,4.858550817e-14,3.532446319e-14,1.097233039e-14,6.08775534e-15
0.0625,4.593744124e-14,1.948979147e-14,3.674823754e-14,3.029714068e-14,1.544992179e-14,1.764084592e-14,3.022931822e-14,2.565306801e-15,2.889201542e-14,4.919853016e-14,2.504089504e-14,2.74263748e-14,3.346089529e-14,7.233263072e-14,9.318838951e-14,5.436637209e-14,2.888867018e-13,1.486780031e-13,4.667786727e-14,2.154475182e-14,6.14187593e-15,1.465141466e-14,1.119940273e-14,1.023316237e-13,5.260044533e-14,9.676470743e-15,4.93739579e-14,6.287564487e-14,5.433628841e-14,4.25585786e-14,9.916274648e-15,7.944101622e-15
0.0703125,5.947976818e-14,2.517614415e-14,4.383144365e-14,3.746410837e-14,1.644655952e-14,2.103986053e-14,2.962217851e-14,3.62586055e-15,3.714047274e-14,4.702376091e-14,2.369136048e-14,3.50456376e-14,4.308094355e-14,8.401247163e-14,1.291789631e-13,6.706226968e-14,3.083580969e-13,1.645763246e-13,5.360835147e-14,2.472107294e-14,4.495286858e-15,1.786067852e-14,1.118337664e-14,8.962697392e-14,5.781348889e-14,1.0764387e-14,5.371566917e-14,6.506742137e-14,5.85480344e-14,4.902125757e-14,9.64816213e-15,9.823857844e-15
0.078125,7.450784908e-14,3.094302654e-14,5.039749707e-14,4.419489451e-14,1.896801861e-14,2.354065931e-14,3.153257226e-14,5.099244903e-15,4.519472113e-14,4.328919426e-14,2.18168443e-14,4.414676206e-14,5.109018645e-14,9.480546015e-14,1.758542453e-13,8.122962872e-14,3.059226706e-13,1.675811209e-13,5.861556121e-14,3.038184656e-14,3.536957746e-15,2.118094035e-14,1.078520829e-14,7.575104523e-14,5.834104331e-14,1.146707765e-14,5.439121346e-14,6.28980719e-14,6.018434949e-14,5.332660623e-14,9.836050268e-15,1.177745718e-14
0.0859375,9.249977796e-14,3.724411835e-14,5.758715839e-14,5.110725222e-14,2.343220058e-14,2.481772009e-14,3.487564925e-14,6.890225812e-15,5.218545107e-14,3.913591954e-14,2.079493158e-14,5.529755558e-14,5.730971503e-14,1.090465503e-13,2.333930385e-13,9.900940192e-14,2.858946192e-13,1.606025221e-13,6.188616332e-14,3.856513988e-14,3.206926167e-15,2.389963841e-14,1.041530282e-14,6.307033022e-14,5.600818086e-14,1.277587959e-14,5.356239842e-14,5.914832135e-14,6.039218667e-14,5.611085666e-14,1.109669634e-14,1.334589998e-14
0.09375,1.102975277e-13,4.312199065e-14,6.447589956e-14,5.73759922e-14,2.930874421e-14,2.472582622e-14,3.861439706e-14,8.900641719e-15,5.750874461e-14,3.414924358e-14,2.057653756e-14,6.571505322e-14,6.150007338e-14,1.233119163e-13,2.92200449e-13,1.179613406e-13,2.539048821e-13,1.463931719e-13,6.313343264e-14,4.892204505e-14,3.342961128e-15,2.545968351e-14,1.010716701e-14,5.214915796e-14,5.185405028e-14,1.481791158e-14,5.212336042e-14,5.474358699e-14,5.977506722e-14,5.750206605e-14,1.376764791e-14,1.408981779e-14
0.1015625,1.232899637e-13,4.672810684e-14,6.940690269e-14,6.075762632e-14,3.536414472e-14,2.336602281e-14,4.192425522e-14,1.098176314e-14,6.032863269e-14,2.849268955e-14,1.863645797e-14,7.332881498e-14,6.246715543e-14,1.305631836e-13,3.399384386e-13,1.330441944e-13,2.09794247e-13,1.239579338e-13,6.21091196e-14,6.010267549e-14,3.798510339e-15,2.593370247e-14,9.441303049e-15,4.245584458e-14,4.481328882e-14,1.661164465e-14,4.890728964e-14,4.776601322e-14,5.784640459e-14,5.637179467e-14,1.687625081e-14,1.416439493e-14
0.109375,1.322167194e-13,4.862387138e-14,7.292792836e-14,6.197445995e-14,4.099916184e-14,2.133041527e-14,4.390974376e-14,1.274914796e-14,5.931501829e-14,2.351809743e-14,1.647190585e-14,7.845408117e-14,5.99570177e-14,1.341300283e-13,3.770117038e-13,1.44197118e-13,1.628756192e-13,9.724878647e-14,5.960643159e-14,7.039445904e-14,4.507619226e-15,2.529890464e-14,8.461288431e-15,3.535990731e-14,3.639329584e-14,1.818584312e-14,4.521635011e-14,3.941983676e-14,5.578979804e-14,5.33895677e-14,2.017638655e-14,1.361478362e-14
0.1171875,1.354952138e-13,4.885080906e-14,7.553013914e-14,6.116281873e-14,4.477079206e-14,1.903707455e-14,4.382709614e-14,1.387270769e-14,5.54123094e-14,1.90166202e-14,1.510509405e-14,7.977398066e-14,5.566185368e-14,1.335495663e-13,3.961757822e-13,1.492472076e-13,1.204851882e-13,7.24730419e-14,5.621034579e-14,7.730535652e-14,5.253605346e-15,2.383295421e-14,7.308270205e-15,3.127175031e-14,2.899493085e-14,1.927168627e-14,4.25611622e-14,3.167867205e-14,5.430116943e-14,4.946435921e-14,2.335821271e-14,1.229278389e-14
0.125,1.315637444e-13,4.615026953e-14,7.423700854e-14,5.692891771e-14,4.609818803e-14,1.688046762e-14,4.257038767e-14,1.458168937e-14,4.991864083e-14,1.534046879e-14,1.374273768e-14,7.737474034e-14,5.061156284e-14,1.291018963e-13,3.975099256e-13,1.47108645e-13,8.413715518e-14,5.081067104e-14,5.139716158e-14,7.956380668e-14,5.739534263e-15,2.150196183e-14,6.234150778e-15,2.990439899e-14,2.367522078e-14,1.939693903e-14,4.007147424e-14,2.48191836e-14,5.257613238e-14,4.431027653e-14,2.495261856e-14,1.11078985e-14
0.1328125,1.194623278e-13,4.302865879e-14,7.057614621e-14,5.197998795e-14,4.558717855e-14,1.553081153e-14,3.918236453e-14,1.482368164e-14,4.276607707e-14,1.27618826e-14,1.369955605e-14,7.288240987e-14,4.46390151e-14,1.2111977e-13,3.84199906e-13,1.393998936e-13,5.86158654e-14,3.374482638e-14,4.66507713e-14,7.791226191e-14,6.263960877e-15,1.859229323e-14,5.351092207e-15,3.036987977e-14,2.087204519e-14,1.871339272e-14,3.873844426e-14,1.958954428e-14,5.214456615e-14,3.937730362e-14,2.572805227e-14,1.004294278e-14
0.140625,1.023191683e-13,3.925388646e-14,6.589962485e-14,4.604451369e-14,4.212620676e-14,1.532585742e-14,3.424747125e-14,1.441507785e-14,3.389004189e-14,1.108138313e-14,1.442478084e-14,6.629082594e-14,3.799806138e-14,1.135578148e-13,3.596394662e-13,1.26430754e-13,4.335838079e-14,2.358440218e-14,4.278459092e-14,7.175148136e-14,6.664074323e-15,1.530917349e-14,4.942337367e-15,3.163847739e-14,2.138370481e-14,1.764420057e-14,3.907208551e-14,1.640497797e-14,5.297072259e-14,3.549820145e-14,2.56451435e-14,8.855930554e-15
0.1484375,8.299593822e-14,3.299963537e-14,5.776994799e-14,3.755295136e-14,3.570119546e-14,1.528647114e-14,2.950793284e-14,1.333049714e-14,2.523806221e-14,1.079162474e-14,1.609141523e-14,5.740269123e-14,3.241206292e-14,1.068647811e-13,3.261256491e-13,1.083295065e-13,3.346609455e-14,1.714556652e-14,3.816136693e-14,6.071867332e-14,5.95185224e-15,1.250340066e-14,4.988614183e-15,3.291235038e-14,2.440900388e-14,1.552841827e-14,3.876422558e-14,1.539297917e-14,5.312047746e-14,3.180344752e-14,2.319033431e-14,7.848709706e-15
0.15625,6.331029893e-14,2.599445715e-14,4.725436665e-14,2.845999916e-14,2.816501329e-14,1.53471353e-14,2.489858566e-14,1.170857645e-14,1.826520474e-14,1.234136274e-14,1.947191932e-14,4.970022653e-14,2.804766389e-14,1.056696682e-13,2.966987566e-13,8.994558201e-14,3.103763717e-14,1.253315045e-14,3.207197379e-14,4.745036487e-14,4.666783942e-15,9.848931885e-15,5.719528411e-15,3.266654487e-14,2.942555172e-14,1.332596516e-14,3.881364176e-14,1.65111517e-14,5.384959286e-14,2.906580783e-14,1.953712741e-14,7.561596203e-15
0.1640625,4.547041202e-14,2.02687449e-14,3.705050479e-14,2.066758289e-14,2.100126392e-14,1.620551406e-14,2.004789216e-14,9.885700446e-15,1.258301039e-14,1.514413676e-14,2.328600083e-14,4.419151309e-14,2.314710598e-14,1.120851384e-13,2.804756437e-13,7.418918563e-14,3.174195329e-14,9.359744535e-15,2.562420419e-14,3.507033378e-14,3.586246811e-15,7.031879803e-15,6.862779476e-15,3.039377813e-14,3.472478235e-14,1.222768748e-14,3.941674116e-14,1.915578222e-14,5.58729462e-14,2.814111612e-14,1.66728678e-14,8.234602649e-15
0.171875,3.300270414e-14,1.590941377e-14,2.807900251e-14,1.43598899e-14,1.487805088e-14,1.81620267e-14,1.563334881e-14,8.119328825e-15,8.518339972e-15,1.978811611e-14,2.598670563e-14,4.010163548e-14,1.837704134e-14,1.235551229e-13,2.762060337e-13,6.191828531e-14,3.391202005e-14,7.386153839e-15,2.016729951e-14,2.499253409e-14,2.82402742e-15,4.787302872e-15,8.265650326e-15,2.662270363e-14,3.964986267e-14,1.22628971e-14,3.991297764e-14,2.284036598e-14,5.893593233e-14,2.867653258e-14,1.51123115e-14,9.543227653e-15
0.1796875,2.670780333e-14,1.254460194e-14,1.99172395e-14,9.46092198e-15,1.032994131e-14,2.046401698e-14,1.202241991e-14,6.595900685e-15,6.197695567e-15,2.595819532e-14,2.748748495e-14,3.805959257e-14,1.476551073e-14,1.385133965e-13,2.8452527e-13,5.340932844e-14,3.560645223e-14,6.083513052e-15,1.555066857e-14,1.793198021e-14,2.381326838e-15,3.067735544e-15,9.781956061e-15,2.152360999e-14,4.279185894e-14,1.413568955e-14,3.988529979e-14,2.589375685e-14,6.201846207e-14,2.957574812e-14,1.491637164e-14,1.15493463e-14
0.1875,2.543934785e-14,1.089826926e-14,1.359610605e-14,6.543105071e-15,7.680118103e-15,2.390651153e-14,9.47923111e-15,5.371350489e-15,4.98556436e-15,3.287926896e-14,2.753399236e-14,3.695923675e-14,1.203240147e-14,1.536220109e-13,3.012703492e-13,4.73590116e-14,3.642421071e-14,4.902043546e-15,1.185247219e-14,1.42373931e-14,2.66148945e-15,1.862322628e-15,1.100533489e-14,1.611738289e-14,4.339521289e-14,1.729241892e-14,3.9171267e-14,2.762761077e-14,6.520426882e-14,3.065490947e-14,1.640466086e-14,1.419610677e-14
0.1953125,2.955472628e-14,1.169027925e-14,1.05393382e-14,6.103506957e-15,7.046858777e-15,2.898351721e-14,7.83931358e-15,4.581017692e-15,5.17778331e-15,4.029953579e-14,2.735567707e-14,3.557850024e-14,9.928792024e-15,1.676412424e-13,3.260728148e-13,4.444466232e-14,3.73588487e-14,4.229306243e-15,9.813045931e-15,1.386524525e-14,3.991734113e-15,1.409396719e-15,1.162723496e-14,1.169711264e-14,4.123902221e-14,2.07674678e-14,3.786447327e-14,2.761030547e-14,6.828110916e-14,3.161098973e-14,1.963919827e-14,1.660954629e-14
0.203125,3.924957636e-14,1.50499701e-14,1.105663956e-14,8.167941479e-15,8.343449826e-15,3.587272702e-14,7.063679633e-15,4.411422646e-15,6.493052891e-15,4.821301036e-14,2.772732918e-14,3.527504044e-14,8.368377958e-15,1.811698135e-13,3.562940786e-13,4.511813743e-14,3.660600429e-14,4.674430154e-15,9.717151861e-15,1.618874832e-14,6.489122293e-15,1.566955742e-15,1.240706924e-14,8.742675951e-15,3.751506091e-14,2.514154351e-14,3.641519098e-14,2.594486527e-14,6.993654622e-14,3.175243146e-14,2.420715021e-14,1.940216129e-14
0.2109375,5.122277687e-14,2.035784751e-14,1.505448e-14,1.223806739e-14,1.082028448e-14,4.37932908e-14,7.153403623e-15,4.78587215e-15,8.09581991e-15,5.511329492e-14,2.729526365e-14,3.430379971e-14,8.000222286e-15,1.885275234e-13,3.807889737e-13,4.663379903e-14,3.381500589e-14,6.472566741e-15,1.148627281e-14,2.015970994e-14,1.001871768e-14,2.302327187e-15,1.289945899e-14,7.346015547e-15,3.249467521e-14,2.937540427e-14,3.455616425e-14,2.301691219e-14,6.919754464e-14,3.041270812e-14,2.877583459e-14,2.248684591e-14
0.21875,6.217595651e-14,2.681799731e-14,2.222738481e-14,1.77398897e-14,1.352745382e-14,5.250543131e-14,7.881186178e-15,5.463309299e-15,9.643339501e-15,6.011821941e-14,2.706012058e-14,3.223098915e-14,8.472329683e-15,1.876733766e-13,3.932254055e-13,4.774229123e-14,3.074650589e-14,9.317905568e-15,1.496468679e-14,2.381080176e-14,1.413442327e-14,3.438371945e-15,1.261591219e-14,6.893334743e-15,2.708837202e-14,3.149589557e-14,3.232347867e-14,1.950340812e-14,6.736087491e-14,2.879920498e-14,3.228021304e-14,2.434441968e-14
0.2265625,7.293621943e-14,3.426933725e-14,3.224090922e-14,2.431699169e-14,1.639128156e-14,6.150931666e-14,8.91041499e-15,6.538535748e-15,1.1551086e-14,6.406062984e-14,2.876348508e-14,2.995519374e-14,9.280935191e-15,1.799363958e-13,3.93290161e-13,4.824634642e-14,2.800620052e-14,1.269658511e-14,1.944292618e-14,2.696315229e-14,1.835002522e-14,4.836058607e-15,1.19986795e-14,6.90513681e-15,2.144381736e-14,3.173436875e-14,2.939946074e-14,1.547685437e-14,6.319129966e-14,2.619217922e-14,3.465717504e-14,2.514886611e-14
0.234375,8.193601734e-14,4.119357451e-14,4.390071505e-14,3.070122134e-14,1.878815968e-14,6.858814032e-14,9.628716233e-15,7.901195681e-15,1.329719008e-14,6.498713084e-14,3.038071931e-14,2.570751852e-14,1.017016409e-14,1.614514044e-13,3.728350298e-13,4.678608758e-14,2.724777181e-14,1.671594525e-14,2.43861734e-14,2.96871618e-14,2.195742808e-14,6.260218721e-15,1.126572724e-14,7.288623101e-15,1.646796125e-14,3.025176439e-14,2.547004708e-14,1.206702191e-14,5.532450487e-14,2.198591267e-14,3.475745421e-14,2.534958119e-14
0.2421875,8.716585673e-14,4.51264826e-14,5.370232375e-14,3.498992836e-14,2.03560038e-14,7.342796243e-14,9.716725235e-15,9.026211696e-15,1.404607216e-14,6.237681994e-14,3.117800419e-14,2.072317792e-14,1.084841923e-14,1.374706406e-13,3.375181351e-13,4.382510394e-14,2.924259629e-14,2.130814069e-14,2.913914494e-14,3.10725854e-14,2.454347697e-14,7.278737442e-15,1.014936242e-14,7.402083777e-15,1.260879294e-14,2.719116625e-14,2.12070775e-14,9.638787906e-15,4.616647865e-14,1.780154119e-14,3.265873815e-14,2.481955184e-14
0.25,8.773387443e-14,4.691518107e-14,6.059227872e-14,3.754417951e-14,2.108160017e-14,7.751642786e-14,9.79787592e-15,9.977278926e-15,1.393018114e-14,5.864161642e-14,3.290709997e-14,1.687477205e-14,1.15367431e-14,1.130002107e-13,2.945760069e-13,3.984242389e-14,3.273698457e-14,2.606390019e-14,3.385949855e-14,3.036500115e-14,2.563455909e-14,7.982057945e-15,8.983040898e-15,6.919361991e-15,9.877425825e-15,2.283329258e-14,1.706607194e-14,8.255313068e-15,3.759980296e-14,1.479124923e-14,2.944360526e-14,2.320611906e-14
0.2578125,8.399182315e-14,4.653090314e-14,6.354238188e-14,3.799947816e-14,2.115274771e-14,8.007860286e-14,1.081726866e-14,1.06727414e-14,1.336788351e-14,5.319780127e-14,3.338487656e-14,1.295271592e-14,1.164015823e-14,8.549314184e-14,2.457890658e-13,3.459960564e-14,3.966500307e-14,3.059777252e-14,3.842409051e-14,2.998574509e-14,2.570105719e-14,8.228928891e-15,8.124632844e-15,6.443683327e-15,8.455274388e-15,1.766245758e-14,1.298693843e-14,7.899235708e-15,2.91773475e-14,1.248889151e-14,2.519440481e-14,2.085043874e-14
0.265625,7.724906087e-14,4.251488556e-14,6.095586627e-14,3.501421353e-14,2.02699709e-14,7.968285293e-14,1.301084674e-14,1.055287264e-14,1.195450043e-14,4.529839941e-14,3.236534508e-14,9.602562573e-15,1.077412003e-14,5.841359828e-14,1.972269628e-13,2.850241178e-14,4.835938807e-14,3.507890915e-14,4.266399898e-14,2.957608643e-14,2.499329095e-14,8.094792525e-15,8.181442022e-15,6.227095641e-15,8.295779749e-15,1.26487018e-14,9.477840875e-15,7.67417894e-15,2.094613982e-14,1.0523363e-14,2.005065531e-14,1.78053299e-14
0.2734375,6.989982334e-14,3.576560527e-14,5.421880502e-14,2.964541939e-14,1.884955654e-14,7.811638735e-14,1.719178939e-14,9.962251494e-15,1.007548639e-14,3.701558654e-14,3.269186356e-14,7.711583696e-15,9.768591838e-15,3.736640459e-14,1.590543516e-13,2.301981273e-14,5.746439496e-14,3.894682422e-14,4.597187212e-14,2.787642432e-14,2.314340952e-14,7.922312995e-15,9.015671929e-15,6.153365384e-15,8.485509481e-15,8.266245058e-15,6.681677687e-15,7.433458019e-15,1.431617227e-14,9.177268014e-15,1.506235308e-14,1.43896016e-14
0.28125,6.122088189e-14,2.789802064e-14,4.409048278e-14,2.320697128e-14,1.721375514e-14,7.686448394e-14,2.387305013e-14,8.95452154e-15,8.328143193e-15,2.902495775e-14,3.381720951e-14,7.134958644e-15,8.98714915e-15,2.217872025e-14,1.332651712e-13,1.83871902e-14,6.565813582e-14,4.153727294e-14,4.789335995e-14,2.601076109e-14,2.07202089e-14,7.914814664e-15,1.073496387e-14,6.271958143e-15,9.459316e-15,4.79174301e-15,4.707232616e-15,7.523448082e-15,9.473592492e-15,8.903404279e-15,1.080103092e-14,1.119853293e-14
0.2890625,5.43295353e-14,2.002994319e-14,3.299896939e-14,1.670710376e-14,1.595142918e-14,7.589431434e-14,3.153454182e-14,7.576183849e-15,6.748571022e-15,2.169480923e-14,3.555735318e-14,8.398808529e-15,7.635524678e-15,1.533413702e-14,1.25894341e-13,1.66698918e-14,7.013535938e-14,4.172511566e-14,4.793118852e-14,2.555506697e-14,1.872312184e-14,7.88003891e-15,1.290915286e-14,6.814816604e-15,1.021126389e-14,2.948179393e-15,3.764904068e-15,6.820709848e-15,6.761697319e-15,9.703952724e-15,7.922407924e-15,8.516683179e-15
0.296875,5.283662239e-14,1.456166791e-14,2.45729696e-14,1.240365827e-14,1.530710344e-14,7.482939935e-14,3.994404051e-14,5.874481491e-15,5.143527427e-15,1.640276379e-14,3.950431219e-14,1.108409993e-14,7.029596361e-15,1.513619632e-14,1.333745455e-13,1.919676061e-14,7.150477454e-14,4.03526387e-14,4.769881175e-14,2.559883846e-14,1.680056201e-14,8.22868589e-15,1.447766777e-14,7.903031022e-15,9.627298296e-15,2.573530905e-15,3.084788018e-15,5.654364982e-15,5.66141924e-15,1.151202805e-14,7.227935241e-15,6.50131156e-15
0.3046875,5.339940674e-14,1.096860483e-14,1.880922962e-14,9.606464578e-15,1.495932192e-14,7.380648134e-14,4.813141669e-14,4.317562532e-15,4.033770862e-15,1.286649149e-14,4.218417941e-14,1.323432362e-14,7.521436075e-15,1.795292078e-14,1.41254e-13,2.425692111e-14,7.250453502e-14,3.921120624e-14,4.662430812e-14,2.638169134e-14,1.446811756e-14,8.47119397e-15,1.553606836e-14,9.37659194e-15,8.896007197e-15,3.212271124e-15,2.644858563e-15,5.924763177e-15,6.032562433e-15,1.466448945e-14,8.075305554e-15,4.82783185e-15
0.3125,5.382333621e-14,8.694932682e-15,1.571407821e-14,7.925699042e-15,1.460337567e-14,7.182611456e-14,5.397886833e-14,3.049341124e-15,3.312550169e-15,1.016890885e-14,4.393858529e-14,1.552089444e-14,8.191552545e-15,2.502101598e-14,1.490727897e-13,2.975978028e-14,6.810994036e-14,3.691747301e-14,4.304536173e-14,2.81207972e-14,1.273290559e-14,8.722089345e-15,1.608115001e-14,1.247952206e-14,8.304947303e-15,4.896810171e-15,2.750991971e-15,6.53042017e-15,7.053962457e-15,1.728366745e-14,9.603327008e-15,3.822989401e-15
0.3203125,5.753918872e-14,8.566894504e-15,1.504527063e-14,8.134708038e-15,1.536981678e-14,6.905369338e-14,5.572933963e-14,2.082535918e-15,2.875920678e-15,9.162960704e-15,4.832587762e-14,1.859179431e-14,9.680309712e-15,3.731317622e-14,1.605143384e-13,3.794817886e-14,6.027633283e-14,3.18778084e-14,3.792561767e-14,3.075426057e-14,1.084641672e-14,8.82685429e-15,1.504218824e-14,1.760742225e-14,6.668024061e-15,8.165305332e-15,2.815952569e-15,7.427773541e-15,8.647795008e-15,1.935729494e-14,1.271854614e-14,3.78432139e-15
0.328125,6.294118776e-14,9.773399044e-15,1.60348289e-14,9.429052709e-15,1.717636361e-14,6.514974003e-14,5.43660612e-14,1.711711426e-15,2.789921619e-15,8.897048235e-15,4.88637229e-14,1.993936473e-14,1.22007982e-14,5.223126873e-14,1.671209716e-13,4.755228001e-14,5.35136765e-14,2.544439214e-14,3.15056869e-14,3.402176278e-14,8.830961158e-15,8.281221873e-15,1.276649283e-14,2.319111456e-14,4.740430116e-15,1.269625425e-14,2.869634971e-15,9.318135467e-15,1.064726646e-14,2.104454692e-14,1.672345681e-14,4.213016925e-15
0.3359375,6.516521547e-14,1.132576787e-14,1.668734234e-14,1.097302598e-14,1.927106156e-14,6.015920207e-14,5.132609958e-14,1.610923446e-15,2.8230249e-15,8.495308942e-15,4.526535456e-14,1.909294338e-14,1.509701977e-14,6.524337858e-14,1.60782107e-13,5.463431035e-14,4.963501457e-14,1.984719183e-14,2.491935619e-14,3.770154508e-14,7.468747381e-15,7.594560539e-15,1.088295729e-14,2.978136244e-14,3.474817334e-15,1.729258369e-14,3.294833393e-15,1.080670002e-14,1.247057897e-14,2.131119321e-14,2.019424191e-14,5.019622224e-15
0.34375,6.571138981e-14,1.329980723e-14,1.715735464e-14,1.300372796e-14,2.218795345e-14,5.429036884e-14,4.563111136e-14,1.830652898e-15,3.527270855e-15,8.212953303e-15,4.141225606e-14,1.825700265e-14,1.793912815e-14,7.989143825e-14,1.502730498e-13,6.073723551e-14,5.224778663e-14,1.52148646e-14,1.881038901e-14,4.174986337e-14,6.342081575e-15,6.854071306e-15,9.394095123e-15,3.752727687e-14,2.655559829e-15,2.273608804e-14,4.726485304e-15,1.207865229e-14,1.43239967e-14,2.009579526e-14,2.342668146e-14,6.426853977e-15
0.3515625,6.654225652e-14,1.580485196e-14,1.834435952e-14,1.580289748e-14,2.587799258e-14,4.817707218e-14,3.946998121e-14,2.671312851e-15,4.85665913e-15,7.526651499e-15,3.574896361e-14,1.707769257e-14,2.118081123e-14,9.760879376e-14,1.391273963e-13,6.619109499e-14,6.110499353e-14,1.083771946e-14,1.340115188e-14,4.527294309e-14,5.319205859e-15,6.216566795e-15,8.546404418e-15,4.445296327e-14,2.256402809e-15,2.876247795e-14,7.19530433e-15,1.339364971e-14,1.657822692e-14,1.828504439e-14,2.628145632e-14,8.068299151e-15
0.359375,6.624979959e-14,1.854877649e-14,2.020753208e-14,1.919347083e-14,2.900238057e-14,4.202423487e-14,3.419964613e-14,4.034568969e-15,6.069673902e-15,6.657972704e-15,2.964352025e-14,1.587547895e-14,2.519176792e-14,1.151053481e-13,1.272517521e-13,6.944836969e-14,7.51015383e-14,7.236225713e-15,9.375471553e-15,4.726005152e-14,4.6043792e-15,5.822387272e-15,8.88794607e-15,4.9091003e-14,2.419164893e-15,3.372886909e-14,1.03302066e-14,1.566130067e-14,1.941786916e-14,1.627094052e-14,2.755709969e-14,9.75376395e-15
0.3671875,6.445096576e-14,2.20294207e-14,2.226951086e-14,2.360760096e-14,3.242070013e-14,3.656634034e-14,2.990266566e-14,5.943793282e-15,7.311003954e-15,6.032634735e-15,2.442079487e-14,1.581274402e-14,2.954821698e-14,1.344362189e-13,1.206697808e-13,7.330260255e-14,9.633859332e-14,5.338766748e-15,6.740963636e-15,4.749766976e-14,4.070783484e-15,5.695632391e-15,1.091398159e-14,5.072073968e-14,3.312843136e-15,3.844637029e-14,1.473694277e-14,1.995464704e-14,2.420651683e-14,1.532186596e-14,2.832448429e-14,1.207973701e-14
0.375,6.327946727e-14,2.687609381e-14,2.552357745e-14,2.956915041e-14,3.594130033e-14,3.164313963e-14,2.81042487e-14,8.462353355e-15,9.049718075e-15,5.019184044e-15,1.890310847e-14,1.639673885e-14,3.294319237e-14,1.556437498e-13,1.210852037e-13,7.802144089e-14,1.20613725e-13,4.293579855e-15,4.862139008e-15,4.677221099e-14,3.998658635e-15,5.541239822e-15,1.483845359e-14,4.958290722e-14,5.092611227e-15,4.193402408e-14,1.950277622e-14,2.691837753e-14,3.06340246e-14,1.55958882e-14,2.854257144e-14,1.419008569e-14
0.3828125,6.44159923e-14,3.242546082e-14,3.024214146e-14,3.631907363e-14,3.842972428e-14,2.828909834e-14,3.029163258e-14,1.085823148e-14,1.030568134e-14,3.889904642e-15,1.359503874e-14,1.728339882e-14,3.614854126e-14,1.774366977e-13,1.281195618e-13,8.327141906e-14,1.442486702e-13,4.219661882e-15,4.652108484e-15,4.522878626e-14,4.303350864e-15,5.229573232e-15,2.102701228e-14,4.644767914e-14,8.257167612e-15,4.293919128e-14,2.483832001e-14,3.875571162e-14,3.924721808e-14,1.766105156e-14,2.807107448e-14,1.49988984e-14
0.390625,6.476698254e-14,3.878610045e-14,3.655016019e-14,4.381849018e-14,3.967184304e-14,2.670916145e-14,3.57415622e-14,1.301928586e-14,1.08312444e-14,3.369424244e-15,9.966892829e-15,1.892601084e-14,4.007735131e-14,1.9887209e-13,1.423284815e-13,8.874707068e-14,1.645274696e-13,5.166235324e-15,5.831974432e-15,4.34336058e-14,4.771907355e-15,5.087019982e-15,2.941936175e-14,4.129366971e-14,1.271048903e-14,4.202823722e-14,3.027490822e-14,5.401932266e-14,4.916121518e-14,2.021748411e-14,2.70796903e-14,1.523598653e-14
0.3984375,6.237465523e-14,4.526693319e-14,4.281897826e-14,5.097174908e-14,3.943976397e-14,2.548164144e-14,4.365477157e-14,1.44093091e-14,1.127235409e-14,2.781884725e-15,7.919721859e-15,2.151306924e-14,4.195086903e-14,2.165070064e-13,1.596419509e-13,9.157615143e-14,1.732890442e-13,5.72187151e-15,6.809196514e-15,4.066789135e-14,5.236948039e-15,5.113598483e-15,3.939568663e-14,3.587039768e-14,1.868201178e-14,3.926978577e-14,3.487728568e-14,7.116296335e-14,5.838056061e-14,2.189013481e-14,2.521462408e-14,1.522431563e-14
0.40625,5.963058497e-14,5.012055873e-14,4.645508734e-14,5.587083409e-14,3.737048261e-14,2.360970586e-14,5.29799326e-14,1.45682603e-14,1.121096853e-14,2.373000969e-15,7.277496e-15,2.477067187e-14,4.137245016e-14,2.276459328e-13,1.760112019e-13,9.16001717e-14,1.726627603e-13,5.910707908e-15,7.621815601e-15,3.688161488e-14,5.832017703e-15,4.609952627e-15,4.964155234e-14,3.096296654e-14,2.587389625e-14,3.423847952e-14,3.855791887e-14,9.090409431e-14,6.580743889e-14,2.292667081e-14,2.279438396e-14,1.439036614e-14
0.4140625,5.720949899e-14,5.39360783e-14,4.922353077e-14,5.922356224e-14,3.459646602e-14,2.229178223e-14,6.407015671e-14,1.344032723e-14,1.04184311e-14,2.053870261e-15,7.41953915e-15,2.783938692e-14,3.993305629e-14,2.352637667e-13,1.916572201e-13,9.06143453e-14,1.666510765e-13,6.368193634e-15,8.887876491e-15,3.346415106e-14,6.799549448e-15,3.938093329e-15,5.970553268e-14,2.740376184e-14,3.356285077e-14,2.894002967e-14,4.158836137e-14,1.09646048e-13,7.090551238e-14,2.283891603e-14,2.113158203e-14,1.331997065e-14
0.421875,5.214356091e-14,5.645613053e-14,5.167975524e-14,6.075434931e-14,3.147583861e-14,2.116778583e-14,7.484870913e-14,1.145728217e-14,9.468598531e-15,1.673879724e-15,8.65934281e-15,3.088777064e-14,3.667440392e-14,2.317089614e-13,1.977165698e-13,8.54886513e-14,1.535398417e-13,6.891545419e-15,9.781470118e-15,3.091542361e-14,7.694304876e-15,3.389484083e-15,6.783938957e-14,2.573981278e-14,4.087831843e-14,2.374359865e-14,4.318956012e-14,1.232152498e-13,7.15798161e-14,2.047453838e-14,1.986564556e-14,1.280233169e-14
0.4296875,4.377107171e-14,5.514821752e-14,5.053434719e-14,5.80165766e-14,2.774162418e-14,1.908714716e-14,8.413893839e-14,9.099247339e-15,8.396642481e-15,1.639207214e-15,1.138936637e-14,3.238552146e-14,3.172437264e-14,2.147114521e-13,1.87213986e-13,7.447199047e-14,1.360327602e-13,7.459006834e-15,9.998307473e-15,2.856000324e-14,8.060841193e-15,2.879434381e-15,7.320078524e-14,2.589025852e-14,4.725402929e-14,1.936919675e-14,4.396603615e-14,1.318688068e-13,6.836319146e-14,1.712537717e-14,1.865822723e-14,1.313775685e-14
0.4375,3.554801618e-14,4.993042735e-14,4.608089532e-14,5.131958622e-14,2.435993153e-14,1.68824611e-14,9.229157076e-14,6.620717965e-15,6.953522689e-15,1.847225104e-15,1.494043731e-14,3.225298703e-14,2.694064302e-14,1.933607158e-13,1.68926544e-13,6.185789764e-14,1.211295854e-13,7.95779698e-15,9.629103223e-15,2.675632614e-14,8.159282207e-15,2.491749643e-15,7.539340663e-14,2.744816244e-14,5.140376059e-14,1.680462297e-14,4.411030606e-14,1.337262522e-13,6.2277107e-14,1.364162519e-14,1.790393522e-14,1.4301513e-14
0.4453125,2.870846242e-14,4.289196481e-14,4.176240135e-14,4.305662459e-14,2.266622813e-14,1.510269787e-14,9.847641286e-14,4.612421913e-15,5.47739002e-15,2.369325271e-15,1.936957972e-14,3.11980832e-14,2.203795214e-14,1.672662985e-13,1.449770904e-13,4.876425459e-14,1.118034125e-13,8.753810949e-15,8.760140195e-15,2.577173483e-14,8.212695901e-15,2.493761439e-15,7.326825236e-14,2.96145566e-14,5.272829737e-14,1.649986556e-14,4.299586688e-14,1.278013363e-13,5.388767347e-14,1.044096742e-14,1.833293458e-14,1.686596962e-14
0.453125,2.300038108e-14,3.482964602e-14,3.834709037e-14,3.409407909e-14,2.302447995e-14,1.421742622e-14,1.031268963e-13,3.560025225e-15,4.215606713e-15,3.52987261e-15,2.610865778e-14,2.901013719e-14,1.737433473e-14,1.397887331e-13,1.187322353e-13,3.64336825e-14,1.097266066e-13,1.004065259e-14,7.130584537e-15,2.598852211e-14,8.17305528e-15,2.795460163e-15,6.757698339e-14,3.112739154e-14,5.160201031e-14,1.88428395e-14,4.162892632e-14,1.170647898e-13,4.601791964e-14,8.79603639e-15,2.004756057e-14,2.047681832e-14
0.4609375,1.866381925e-14,2.64270597e-14,3.561899159e-14,2.51876914e-14,2.508031471e-14,1.487008599e-14,1.096458428e-13,3.715702577e-15,3.739804031e-15,5.06261575e-15,3.421517099e-14,2.559158343e-14,1.438770109e-14,1.137116851e-13,9.560230976e-14,2.613983565e-14,1.152024489e-13,1.130889335e-14,5.395471691e-15,2.641045855e-14,8.644205924e-15,3.140875641e-15,5.984388877e-14,3.184754727e-14,4.831345044e-14,2.263534938e-14,3.973841762e-14,1.023438205e-13,3.928607471e-14,8.254277556e-15,2.22551832e-14,2.38067744e-14
0.46875,1.606646892e-14,1.894414481e-14,3.581653237e-14,1.737014949e-14,2.835496103e-14,1.652767915e-14,1.184601128e-13,4.808966346e-15,4.318662783e-15,7.047173742e-15,4.136846502e-14,2.212042024e-14,1.272945695e-14,8.853339036e-14,8.005005471e-14,1.854141817e-14,1.230127077e-13,1.246850261e-14,4.048048528e-15,2.694957595e-14,1.00449441e-14,3.5373464e-15,5.048299022e-14,3.130983866e-14,4.266414077e-14,2.697037146e-14,3.699970106e-14,8.444302565e-14,3.466934875e-14,8.575409959e-15,2.437680634e-14,2.68222173e-14
0.4765625,1.552221996e-14,1.263196882e-14,3.902629042e-14,1.093661681e-14,3.214264429e-14,1.879829611e-14,1.275902387e-13,6.858882775e-15,6.101061752e-15,9.521150539e-15,4.682013715e-14,1.853814529e-14,1.183262815e-14,6.600343284e-14,7.303942112e-14,1.319665602e-14,1.30318436e-13,1.402578793e-14,3.085177064e-15,2.668356889e-14,1.28793745e-14,3.770935041e-15,4.139359975e-14,2.948193427e-14,3.608680301e-14,3.122251462e-14,3.390347439e-14,6.549017016e-14,3.170490648e-14,9.664322137e-15,2.605088295e-14,2.861259902e-14
0.484375,1.692398959e-14,8.695315151e-15,4.506177964e-14,6.936899464e-15,3.51459143e-14,2.214326023e-14,1.385379856e-13,1.001644323e-14,9.882960912e-15,1.209730375e-14,4.927900198e-14,1.547838519e-14,1.325526882e-14,5.13899058e-14,8.027840667e-14,1.181547822e-14,1.34491812e-13,1.524429372e-14,2.900374363e-15,2.454313534e-14,1.772601851e-14,3.73954415e-15,3.328787178e-14,2.654582404e-14,3.014714473e-14,3.33947677e-14,3.042082376e-14,4.927453448e-14,3.022832173e-14,1.086625354e-14,2.637818342e-14,2.859515667e-14
0.4921875,2.017571955e-14,6.974432068e-15,5.269237998e-14,5.077917642e-15,3.746942653e-14,2.55967139e-14,1.521457953e-13,1.381525717e-14,1.483099241e-14,1.458855751e-14,4.847361186e-14,1.383410043e-14,1.624538035e-14,4.176807297e-14,1.032605473e-13,1.402233444e-14,1.300314315e-13,1.522401156e-14,4.013824405e-15,2.354598326e-14,2.447372702e-14,3.540394981e-15,2.535424479e-14,2.459376865e-14,2.422005028e-14,3.335304908e-14,2.630058923e-14,3.531332955e-14,2.917205055e-14,1.133964672e-14,2.535824547e-14,2.767315462e-14
0.5,2.55849213e-14,7.153920115e-15,6.101713028e-14,5.310822909e-15,3.856079078e-14,2.884913382e-14,1.654718842e-13,1.798289245e-14,2.003365554e-14,1.717223201e-14,4.582695699e-14,1.336656648e-14,1.981759676e-14,3.752959308e-14,1.410293962e-13,1.889878694e-14,1.164163906e-13,1.441572122e-14,5.974207993e-15,2.353297576e-14,3.331566394e-14,3.178233498e-15,1.923255531e-14,2.378716475e-14,1.89817743e-14,3.227481029e-14,2.253489831e-14,2.411879009e-14,2.789246717e-14,1.150702352e-14,2.33298576e-14,2.60205399e-14
0.5078125,3.167176126e-14,9.068431316e-15,6.922122416e-14,7.300418118e-15,3.720066732e-14,3.168668098e-14,1.740534501e-13,2.267406568e-14,2.585001833e-14,1.966578264e-14,4.111722155e-14,1.443853137e-14,2.536717333e-14,3.892442821e-14,1.896778867e-13,2.587076797e-14,1.002964365e-13,1.356047297e-14,8.926554296e-15,2.311179952e-14,4.481538498e-14,2.624623311e-15,1.520338837e-14,2.510182594e-14,1.554973442e-14,2.919640305e-14,1.891161729e-14,1.634961597e-14,2.559993875e-14,1.111940733e-14,1.994633493e-14,2.3106683e-14
0.515625,3.928639877e-14,1.227672095e-14,7.487620082e-14,1.085222072e-14,3.488359873e-14,3.39221746e-14,1.793253587e-13,2.726902762e-14,3.063181943e-14,2.174190688e-14,3.476861842e-14,1.638582459e-14,3.119130687e-14,4.604498536e-14,2.5435197e-13,3.537206912e-14,8.109214625e-14,1.173748789e-14,1.315142793e-14,2.459525813e-14,5.764821414e-14,2.07664283e-15,1.209786944e-14,2.831372662e-14,1.287297172e-14,2.427074013e-14,1.490610495e-14,1.087785961e-14,2.217656381e-14,1.037703844e-14,1.625852966e-14,2.022337162e-14
0.5234375,4.763454281e-14,1.567316648e-14,7.676701797e-14,1.49905432e-14,3.184302016e-14,3.496042787e-14,1.812976509e-13,3.074401496e-14,3.279316914e-14,2.327599067e-14,2.984942756e-14,1.887157884e-14,3.601554608e-14,5.74548708e-14,3.245280911e-13,4.473075129e-14,6.386370018e-14,9.431275829e-15,1.686509102e-14,2.674912966e-14,6.835137887e-14,1.686451936e-15,9.961931156e-15,3.291227954e-14,1.073009614e-14,1.960344014e-14,1.225401405e-14,7.639468413e-15,1.882844264e-14,9.79649781e-15,1.312066324e-14,1.767881557e-14
0.53125,5.573226033e-14,1.951489319e-14,7.604542819e-14,1.968042178e-14,2.747000312e-14,3.512427872e-14,1.765920731e-13,3.339245803e-14,3.299392194e-14,2.403201837e-14,2.71032835e-14,2.226737892e-14,4.09183234e-14,7.06280745e-14,3.982815793e-13,5.367674115e-14,5.270252408e-14,7.323602517e-15,1.951730631e-14,2.876185752e-14,7.692635762e-14,1.456235466e-15,8.777095034e-15,3.821928572e-14,9.483658809e-15,1.523342024e-14,1.054738909e-14,6.376164236e-15,1.550352053e-14,9.750565418e-15,1.049493826e-14,1.518864294e-14
0.5390625,6.177968404e-14,2.294029066e-14,7.174544176e-14,2.416741002e-14,2.286508074e-14,3.400739141e-14,1.623250796e-13,3.439028009e-14,3.105579547e-14,2.412364914e-14,2.648013613e-14,2.65753422e-14,4.486731573e-14,8.332079242e-14,4.661502569e-13,6.130865917e-14,5.003079879e-14,5.667009119e-15,2.08555596e-14,3.022307336e-14,8.280476268e-14,1.366264411e-15,7.883139955e-15,4.270486395e-14,8.684436439e-15,1.112232944e-14,9.548760134e-15,7.149701081e-15,1.264150258e-14,1.011845997e-14,8.594206069e-15,1.280852494e-14
0.546875,6.637302153e-14,2.480346654e-14,6.416721561e-14,2.722519792e-14,1.883898302e-14,3.147704153e-14,1.439672141e-13,3.32580225e-14,2.717261847e-14,2.404199899e-14,2.852560583e-14,3.197831632e-14,4.577227941e-14,9.331254669e-14,5.195490723e-13,6.646740028e-14,5.365550865e-14,4.930287137e-15,2.080038258e-14,2.991399057e-14,8.3220098e-14,1.332493e-15,7.231844242e-15,4.499619057e-14,7.971059863e-15,7.959439555e-15,9.522885336e-15,9.258018574e-15,1.057575951e-14,1.092568476e-14,7.567558763e-15,1.059412404e-14
0.5546875,6.79101102e-14,2.524070514e-14,5.455452952e-14,2.859059249e-14,1.478738835e-14,2.806931176e-14,1.238007528e-13,3.077896755e-14,2.217541586e-14,2.391089936e-14,3.241883021e-14,3.930780833e-14,4.460213013e-14,9.958350349e-14,5.57177965e-13,6.971460557e-14,5.934071815e-14,6.25542929e-15,1.981355964e-14,2.900166958e-14,7.753778557e-14,1.307497306e-15,6.673698355e-15,4.504145228e-14,7.405235558e-15,5.767801051e-15,1.130252619e-14,1.302500595e-14,9.025628113e-15,1.258808529e-14,7.426924846e-15,8.378955278e-15
0.5625,6.52577653e-14,2.538554431e-14,4.559482664e-14,2.970466784e-14,1.115091094e-14,2.484128357e-14,1.008730867e-13,2.704382709e-14,1.698887365e-14,2.332220163e-14,3.783349571e-14,4.798934816e-14,4.26112743e-14,1.01103472e-13,5.76720846e-13,7.150221593e-14,6.669755335e-14,1.039531498e-14,1.835300396e-14,2.813172603e-14,6.787078311e-14,1.509993975e-15,6.076585755e-15,4.281136386e-14,6.949724758e-15,4.26942668e-15,1.440512953e-14,1.760855059e-14,8.280687672e-15,1.449670569e-14,8.034434218e-15,6.530965951e-15
0.5703125,6.007801054e-14,2.54428319e-14,3.840077219e-14,3.091178386e-14,8.698821407e-15,2.305881893e-14,7.653692194e-14,2.205811812e-14,1.234564501e-14,2.253804468e-14,4.309381013e-14,5.764616876e-14,3.91272733e-14,1.009826143e-13,5.823699722e-13,7.342679293e-14,7.304155606e-14,1.914866437e-14,1.762727305e-14,2.823495609e-14,5.562803916e-14,1.800553004e-15,5.251669209e-15,3.906313416e-14,6.599966241e-15,3.582382191e-15,1.955367051e-14,2.333511276e-14,8.454340371e-15,1.671152967e-14,9.638255103e-15,5.377349768e-15
0.578125,5.406464116e-14,2.60466021e-14,3.454957601e-14,3.268418017e-14,7.065860217e-15,2.356811302e-14,5.667139937e-14,1.672904211e-14,8.469371161e-15,2.169148909e-14,4.595655708e-14,6.641738016e-14,3.413187146e-14,9.715252643e-14,5.719294174e-13,7.476845902e-14,7.756359171e-14,3.311691134e-14,1.932778523e-14,2.986807146e-14,4.242009146e-14,2.192213835e-15,4.534780854e-15,3.379079136e-14,6.110817874e-15,3.46767446e-15,2.612971295e-14,2.958609285e-14,9.39223302e-15,1.878142582e-14,1.202510348e-14,4.551477657e-15
0.5859375,4.642631162e-14,2.763751446e-14,3.397889667e-14,3.532296169e-14,5.936432477e-15,2.697098729e-14,4.209508799e-14,1.205844572e-14,5.603008007e-15,2.116901767e-14,4.727235529e-14,7.297099281e-14,2.956488656e-14,9.091125077e-14,5.456191712e-13,7.506124408e-14,8.061503484e-14,5.164231612e-14,2.393512603e-14,3.232000676e-14,3.028754405e-14,3.004673899e-15,4.181156557e-15,2.757142742e-14,5.6013535e-15,3.76067827e-15,3.410168028e-14,3.506924415e-14,1.123068523e-14,2.093687386e-14,1.481422081e-14,4.174379779e-15
0.59375,3.869575412e-14,3.12922859e-14,3.648660754e-14,3.987697102e-14,5.942244534e-15,3.292222659e-14,3.209350582e-14,8.238838585e-15,4.109601211e-15,2.095947225e-14,4.798059128e-14,7.673796962e-14,2.69095677e-14,8.252029407e-14,5.110620327e-13,7.63198305e-14,8.341207876e-14,7.65078415e-14,3.301970783e-14,3.770704699e-14,2.168023996e-14,4.402491032e-15,4.421010777e-15,2.111734552e-14,5.203375779e-15,4.496321279e-15,4.426890758e-14,3.860427131e-14,1.490454966e-14,2.392997061e-14,1.924391759e-14,4.27904756e-15
0.6015625,3.392753573e-14,3.62778214e-14,4.096278343e-14,4.546254087e-14,6.579800473e-15,4.080345282e-14,2.793567758e-14,5.610575131e-15,3.218937195e-15,2.032694884e-14,4.619728213e-14,7.628033297e-14,2.619862105e-14,7.450412482e-14,4.657077764e-13,7.681929622e-14,8.816311187e-14,1.050204156e-13,4.583034049e-14,4.207990242e-14,1.670627808e-14,6.685366704e-15,5.425928269e-15,1.642292365e-14,5.257404353e-15,5.192102651e-15,5.485387754e-14,4.058411964e-14,1.972980411e-14,2.759134165e-14,2.425560002e-14,4.690985196e-15
0.609375,3.105191778e-14,4.028391493e-14,4.347546373e-14,4.942098136e-14,7.298764673e-15,4.762565407e-14,2.770846829e-14,3.788704827e-15,2.655712941e-15,1.97642983e-14,4.2779563e-14,7.220089135e-14,2.754122209e-14,6.786704603e-14,4.094050204e-13,7.480336666e-14,9.723905292e-14,1.323172183e-13,5.923549091e-14,4.546453846e-14,1.420610946e-14,9.618939632e-15,6.933330142e-15,1.268836221e-14,6.214830348e-15,6.390519569e-15,6.697896347e-14,4.138230545e-14,2.621861585e-14,3.198315519e-14,2.934941203e-14,5.832906015e-15
0.6171875,2.823692841e-14,4.270911538e-14,4.337988251e-14,5.096659487e-14,8.079968071e-15,5.222162728e-14,2.822966302e-14,2.815364392e-15,2.542627404e-15,1.951558357e-14,3.812049334e-14,6.382005686e-14,3.085669437e-14,6.223800448e-14,3.430999696e-13,7.142572058e-14,1.116549844e-13,1.593236348e-13,7.348950912e-14,4.800957675e-14,1.366346971e-14,1.298748115e-14,8.519733517e-15,1.005023963e-14,8.348940258e-15,7.695180066e-15,7.976462051e-14,4.116464567e-14,3.429382695e-14,3.778617936e-14,3.460223601e-14,7.241974626e-15
0.625,2.732240841e-14,4.334811241e-14,4.15091512e-14,5.032064305e-14,8.596272757e-15,5.372612813e-14,2.896497411e-14,2.2893437e-15,2.556835846e-15,1.930889011e-14,3.289578095e-14,5.386720282e-14,3.594953137e-14,6.159744254e-14,2.774379051e-13,6.748671392e-14,1.276276481e-13,1.822027523e-13,8.682253058e-14,4.772019519e-14,1.364236063e-14,1.699452361e-14,9.98557959e-15,9.060141568e-15,1.190180928e-14,8.974477395e-15,9.147077485e-14,4.206481548e-14,4.27680214e-14,4.517069932e-14,3.945430493e-14,9.051500525e-15
0.6328125,2.784616066e-14,4.115923186e-14,3.774258781e-14,4.659720758e-14,8.551863242e-15,5.140664698e-14,2.934552701e-14,2.205649042e-15,3.324133234e-15,1.921305775e-14,2.70674213e-14,4.34624063e-14,4.248337052e-14,6.57104673e-14,2.200765153e-13,6.367276768e-14,1.42846227e-13,1.958867543e-13,9.522386564e-14,4.789796251e-14,1.358428629e-14,2.10485686e-14,1.090516599e-14,1.022645056e-14,1.676959276e-14,1.046925608e-14,1.014585002e-13,4.421101864e-14,5.047623771e-14,5.2064836e-14,4.311110283e-14,1.151198151e-14
0.640625,2.665361006e-14,3.596881232e-14,3.216889948e-14,4.002803991e-14,8.024142548e-15,4.573111465e-14,2.701850919e-14,2.571547598e-15,5.118800998e-15,2.010382874e-14,2.18301218e-14,3.292660965e-14,4.852711046e-14,7.22332332e-14,1.730675878e-13,5.920740138e-14,1.556233942e-13,1.990668321e-13,9.710129887e-14,4.784563174e-14,1.262952919e-14,2.404334673e-14,1.095223979e-14,1.389174731e-14,2.234150541e-14,1.158835437e-14,1.073766135e-13,4.667613341e-14,5.662461994e-14,5.764596344e-14,4.448382634e-14,1.384277675e-14
0.6484375,2.462261265e-14,3.02737688e-14,2.861043415e-14,3.325670901e-14,7.020738876e-15,3.929490442e-14,2.274780991e-14,3.118385105e-15,7.785028204e-15,2.22674862e-14,1.807001481e-14,2.501230884e-14,5.393913495e-14,8.067239726e-14,1.392002448e-13,5.525921187e-14,1.628631467e-13,1.934713496e-13,9.430877059e-14,4.812454633e-14,1.078790125e-14,2.633218702e-14,1.012040336e-14,2.091089303e-14,2.813208335e-14,1.214143939e-14,1.091575859e-13,5.141200477e-14,6.098207669e-14,6.249278973e-14,4.438056918e-14,1.60559856e-14
0.65625,2.283765602e-14,2.466431682e-14,2.798056803e-14,2.758326594e-14,5.7834433e-15,3.241585817e-14,1.793352321e-14,4.07716438e-15,1.215714804e-14,2.641358862e-14,1.551081313e-14,2.043952466e-14,5.887286985e-14,8.52069231e-14,1.173217437e-13,5.089457469e-14,1.599860648e-13,1.783756968e-13,8.641367815e-14,5.1557976e-14,8.582925541e-15,2.816558807e-14,8.657237138e-15,3.203942277e-14,3.259048638e-14,1.211040131e-14,1.042683626e-13,5.610913798e-14,6.107068802e-14,6.433871677e-14,4.211667575e-14,1.88488664e-14
0.6640625,2.101989909e-14,2.011615273e-14,3.066555299e-14,2.388601536e-14,4.511754393e-15,2.616453255e-14,1.357049064e-14,5.586680771e-15,1.876155815e-14,3.282874063e-14,1.420804292e-14,1.786938108e-14,6.076351579e-14,8.50061813e-14,1.033396274e-13,4.578380339e-14,1.485740345e-13,1.573341376e-13,7.448476314e-14,5.629931794e-14,6.707604388e-15,2.85613657e-14,7.028159314e-15,4.824578696e-14,3.50246889e-14,1.143692716e-14,9.383183465e-14,5.968478339e-14,5.734614624e-14,6.226165244e-14,3.761984208e-14,2.115359151e-14
0.671875,1.952285235e-14,1.802994391e-14,3.65346251e-14,2.320568087e-14,3.440929871e-15,2.209799053e-14,9.67496461e-15,7.312695625e-15,2.689201413e-14,4.128833534e-14,1.452771849e-14,1.782121935e-14,6.089755021e-14,8.013147821e-14,9.344008957e-14,4.048202949e-14,1.301393075e-13,1.324950689e-13,6.019836957e-14,6.161389247e-14,5.19838084e-15,2.794764773e-14,5.573152766e-15,6.942595481e-14,3.53630453e-14,1.025518623e-14,8.000953825e-14,6.254112413e-14,5.102040313e-14,5.751044885e-14,3.203967192e-14,2.275249295e-14
0.6796875,1.953841147e-14,1.844836702e-14,4.400347287e-14,2.528556276e-14,2.548140698e-15,1.992922002e-14,7.040824777e-15,9.029216307e-15,3.621420727e-14,5.153438861e-14,1.630030593e-14,2.06727716e-14,6.023831859e-14,7.153954818e-14,8.510784689e-14,3.537102207e-14,1.087856731e-13,1.070085354e-13,4.648783199e-14,6.601237198e-14,4.80856866e-15,2.728837689e-14,4.535969868e-15,9.417694802e-14,3.422138856e-14,9.044133426e-15,6.534215417e-14,6.584294381e-14,4.362540376e-14,5.173322261e-14,2.697148395e-14,2.420071041e-14
0.6875,2.216777348e-14,2.128858147e-14,5.204531938e-14,2.979523966e-14,1.861085905e-15,1.920075174e-14,5.766136093e-15,1.055064142e-14,4.639761154e-14,6.310886644e-14,1.965998728e-14,2.59353787e-14,5.926845587e-14,6.173737571e-14,7.647863096e-14,2.996635738e-14,8.609911047e-14,8.324668785e-14,3.407833537e-14,6.716725576e-14,5.379228979e-15,2.729503157e-14,3.988170987e-15,1.220205335e-13,3.229904193e-14,7.712996341e-15,5.116875716e-14,7.106080044e-14,3.566021604e-14,4.542223682e-14,2.283729144e-14,2.546524505e-14
0.6953125,2.744840247e-14,2.659736938e-14,6.035878864e-14,3.59401525e-14,1.321447785e-15,2.083152912e-14,6.058734485e-15,1.177041469e-14,5.696806389e-14,7.536790597e-14,2.427491333e-14,3.364579322e-14,5.844146449e-14,5.550913025e-14,7.181966113e-14,2.6487839e-14,6.725169388e-14,6.388619583e-14,2.42914384e-14,6.480867781e-14,6.888868449e-15,2.782013808e-14,3.84188459e-15,1.515406031e-13,3.050189926e-14,6.813007828e-15,3.938626113e-14,7.947479324e-14,2.839183934e-14,3.883071306e-14,2.031614984e-14,2.648361732e-14
0.703125,3.520232649e-14,3.301100431e-14,6.699813031e-14,4.223452507e-14,9.077793803e-16,2.298115476e-14,7.718442293e-15,1.210762837e-14,6.611634078e-14,8.638775209e-14,3.010543322e-14,4.370629919e-14,5.982661298e-14,5.437410889e-14,7.179323523e-14,2.476192498e-14,5.389936214e-14,4.999620811e-14,1.752758532e-14,5.868478292e-14,9.537861463e-15,2.922394793e-14,4.012711156e-15,1.78401549e-13,2.99795249e-14,6.588933045e-15,3.169167302e-14,9.182217978e-14,2.344978617e-14,3.378791008e-14,1.994683401e-14,2.75837314e-14
0.7109375,4.53885721e-14,4.062011458e-14,7.220688171e-14,4.863550687e-14,7.363374853e-16,2.636836304e-14,1.12607731e-14,1.149077766e-14,7.145966199e-14,9.483014659e-14,3.737325195e-14,5.60517624e-14,6.312402353e-14,6.225777078e-14,8.355410679e-14,2.668654327e-14,4.669049467e-14,4.201519955e-14,1.370899231e-14,5.002085698e-14,1.324207822e-14,3.144648616e-14,4.483576715e-15,1.990417815e-13,3.140793654e-14,7.786348629e-15,2.856378066e-14,1.088342033e-13,2.146165503e-14,3.132081999e-14,2.204549256e-14,2.877455338e-14
0.71875,5.606019341e-14,4.849011315e-14,7.467465858e-14,5.405258688e-14,7.470090263e-16,3.029515988e-14,1.6401914e-14,1.048418323e-14,7.424420162e-14,9.966226116e-14,4.468182373e-14,7.019220714e-14,6.730139355e-14,7.934032706e-14,1.06467145e-13,3.34620443e-14,4.874295518e-14,3.99670488e-14,1.283064927e-14,4.141462004e-14,1.742333907e-14,3.402559848e-14,4.600250903e-15,2.128346417e-13,3.551051187e-14,1.062151246e-14,3.018871242e-14,1.287509283e-13,2.251924903e-14,3.177466181e-14,2.675830868e-14,2.981404659e-14
0.7265625,6.62895108e-14,5.543994014e-14,7.453668234e-14,5.763059515e-14,9.145340081e-16,3.407243457e-14,2.320350106e-14,9.131517359e-15,7.495470795e-14,1.003881186e-13,5.229970565e-14,8.409077289e-14,7.16597697e-14,9.923764968e-14,1.338157278e-13,4.191296476e-14,5.578242433e-14,4.146627374e-14,1.405452605e-14,3.350641203e-14,2.144390441e-14,3.687115696e-14,4.556168696e-15,2.176471822e-13,4.017651563e-14,1.394587237e-14,3.359809552e-14,1.468161696e-13,2.582579652e-14,3.390014996e-14,3.256252755e-14,3.088442875e-14
0.734375,7.689309023e-14,6.093436757e-14,7.262440025e-14,5.945001544e-14,1.418626086e-15,3.762336896e-14,3.09176861e-14,7.407383072e-15,7.167673471e-14,9.680981904e-14,6.240456424e-14,9.644079235e-14,7.541752288e-14,1.233502553e-13,1.668607264e-13,5.285968155e-14,6.595023618e-14,4.552026045e-14,1.621773982e-14,2.68429026e-14,2.453724953e-14,3.874141876e-14,4.876648327e-15,2.119954694e-13,4.51626357e-14,1.891572194e-14,3.84922036e-14,1.607060056e-13,3.061617444e-14,3.735654774e-14,3.892476986e-14,3.105581115e-14
0.7421875,8.698407556e-14,6.501081107e-14,6.807770144e-14,5.982134821e-14,2.162473709e-15,4.008833283e-14,3.955214111e-14,5.67957755e-15,6.490808795e-14,8.872422527e-14,7.376221415e-14,1.066076195e-13,7.887990667e-14,1.499261484e-13,2.011920771e-13,6.618393198e-14,8.11646455e-14,5.158180421e-14,2.027627535e-14,2.196398174e-14,2.656111321e-14,3.934331102e-14,4.730365743e-15,1.973778504e-13,5.048554322e-14,2.482835503e-14,4.477326458e-14,1.700305644e-13,3.684829474e-14,4.247045982e-14,4.5767661e-14,2.962596935e-14
0.75,9.37537598e-14,6.709140958e-14,6.111427626e-14,5.903146707e-14,3.124249372e-15,4.109836633e-14,4.785392112e-14,4.348392595e-15,5.758373312e-14,7.749571734e-14,8.333938967e-14,1.136649404e-13,8.186311954e-14,1.731548059e-13,2.269569241e-13,7.779787541e-14,9.62981954e-14,5.637993128e-14,2.574432223e-14,1.882531796e-14,2.711253036e-14,3.951722187e-14,4.086022104e-15,1.767192977e-13,5.377041999e-14,2.987976835e-14,4.984288713e-14,1.712172962e-13,4.394571673e-14,4.846553358e-14,5.188871242e-14,2.752774217e-14
0.7578125,9.737575145e-14,6.724006224e-14,5.388499149e-14,5.762390446e-14,4.267419721e-15,4.076871355e-14,5.336907094e-14,3.600636804e-15,5.104106602e-14,6.513779241e-14,9.275728438e-14,1.167080104e-13,8.189356422e-14,1.904476752e-13,2.429362592e-13,8.652622606e-14,1.099046487e-13,5.844800596e-14,3.115632233e-14,1.702416248e-14,2.545632378e-14,3.856230336e-14,3.646043878e-15,1.519274074e-13,5.410631084e-14,3.402599056e-14,5.240468012e-14,1.620155394e-13,5.073542321e-14,5.394881964e-14,5.60462756e-14,2.501748002e-14
0.765625,9.9220457e-14,6.327318551e-14,4.605552164e-14,5.399017492e-14,5.603978273e-15,3.892932045e-14,5.556712336e-14,3.487146894e-15,4.549745089e-14,5.13173165e-14,1.010505282e-13,1.142388277e-13,7.931981957e-14,2.020930036e-13,2.479751217e-13,9.217460466e-14,1.207204399e-13,5.904591076e-14,3.628615682e-14,1.522270253e-14,2.208962695e-14,3.607026339e-14,3.212594065e-15,1.260074864e-13,5.275522986e-14,3.692061548e-14,5.32095786e-14,1.465941555e-13,5.59079359e-14,5.887039789e-14,5.758376723e-14,2.17798847e-14
0.7734375,9.933816012e-14,5.649167049e-14,3.795348375e-14,4.923499594e-14,7.245373523e-15,3.555469816e-14,5.548520772e-14,3.869888658e-15,4.141514332e-14,3.807793949e-14,1.057905304e-13,1.076247423e-13,7.703868108e-14,2.084706614e-13,2.425507769e-13,9.382200894e-14,1.256321536e-13,5.803774851e-14,4.17903901e-14,1.364569395e-14,1.834431026e-14,3.333702963e-14,2.716976904e-15,1.013084948e-13,5.022373455e-14,3.806718548e-14,5.269084144e-14,1.282613365e-13,5.929829244e-14,6.325696484e-14,5.714580893e-14,1.844291311e-14
0.78125,9.652125035e-14,4.978546071e-14,3.060174869e-14,4.568235477e-14,9.205150605e-15,3.127628302e-14,5.221778904e-14,4.896919591e-15,3.932517013e-14,2.745533443e-14,1.080957793e-13,9.979533337e-14,7.417203141e-14,2.109977706e-13,2.298805249e-13,9.180471864e-14,1.259080008e-13,5.60842908e-14,4.621332371e-14,1.222239555e-14,1.459649097e-14,3.025646615e-14,2.331488761e-15,7.875932622e-14,4.623410019e-14,3.789972858e-14,5.121650301e-14,1.067869952e-13,6.186077338e-14,6.694762301e-14,5.575762372e-14,1.517210971e-14
0.7890625,9.006795937e-14,4.220448887e-14,2.478009358e-14,4.294126221e-14,1.152666554e-14,2.669423809e-14,4.518294563e-14,6.324702015e-15,3.871022933e-14,1.948314052e-14,1.081451137e-13,9.071950779e-14,6.909605482e-14,2.071981269e-13,2.104518176e-13,8.627782301e-14,1.209928429e-13,5.293353845e-14,4.803259195e-14,1.11018798e-14,1.089233011e-14,2.622651828e-14,1.891534488e-15,5.971576693e-14,4.09689179e-14,3.585901331e-14,4.823727699e-14,8.340206418e-14,6.273495353e-14,6.879228713e-14,5.285535706e-14,1.195683654e-14
0.796875,8.162364228e-14,3.324401346e-14,2.051382729e-14,3.963389362e-14,1.370708733e-14,2.238112391e-14,3.733297712e-14,7.828657733e-15,3.891305588e-14,1.37571068e-14,1.013266734e-13,7.951470912e-14,6.272686369e-14,1.964873653e-13,1.863817729e-13,7.81211832e-14,1.100625905e-13,5.01031161e-14,4.777785813e-14,1.077894046e-14,7.924156685e-15,2.179221598e-14,1.477028307e-15,4.511944304e-14,3.562696755e-14,3.199136861e-14,4.433949565e-14,6.256613386e-14,6.071020838e-14,6.855134329e-14,4.84605652e-14,8.966896739e-15
0.8046875,7.252860442e-14,2.49561737e-14,1.754948655e-14,3.624205112e-14,1.493383271e-14,1.874929265e-14,3.112901751e-14,9.331955294e-15,3.890532759e-14,9.821866173e-15,8.859736839e-14,6.764146418e-14,5.738113193e-14,1.808274337e-13,1.607461771e-13,6.868029002e-14,9.615590546e-14,4.918627823e-14,4.608627855e-14,1.177046656e-14,6.150458684e-15,1.805580044e-14,1.188128505e-15,3.408735784e-14,3.082987803e-14,2.742897727e-14,3.982052581e-14,4.611045697e-14,5.598230968e-14,6.610450437e-14,4.35545623e-14,6.621778836e-15
0.8125,6.218419442e-14,1.795488599e-14,1.598572412e-14,3.331088848e-14,1.548228781e-14,1.58370526e-14,2.643327214e-14,1.064583761e-14,3.840414861e-14,7.524034053e-15,7.384421418e-14,5.630128885e-14,5.211342788e-14,1.612206334e-13,1.3882213e-13,5.993372012e-14,8.267739824e-14,5.031438164e-14,4.220011334e-14,1.449961433e-14,5.413166642e-15,1.460408119e-14,1.056167214e-15,2.609016383e-14,2.606145198e-14,2.300015764e-14,3.525717573e-14,3.300186073e-14,5.044497949e-14,6.186928193e-14,3.880709958e-14,4.960376969e-15
0.8203125,5.017090598e-14,1.246823717e-14,1.525088024e-14,3.060904138e-14,1.527777578e-14,1.388833948e-14,2.302834157e-14,1.152994374e-14,3.693691051e-14,6.237740702e-15,5.88293748e-14,4.590386451e-14,4.568015968e-14,1.366659652e-13,1.228234025e-13,5.298167405e-14,7.123833193e-14,5.371165742e-14,3.655398598e-14,1.95663818e-14,5.672588624e-15,1.133934013e-14,1.06900653e-15,2.058612439e-14,2.174306952e-14,1.890463476e-14,3.10077989e-14,2.369811294e-14,4.548428215e-14,5.608568093e-14,3.448434228e-14,3.703758177e-15
0.828125,3.966103945e-14,8.504974278e-15,1.556950938e-14,2.779422376e-14,1.443986307e-14,1.373667074e-14,2.320125165e-14,1.196992891e-14,3.427453325e-14,5.665713084e-15,4.464524052e-14,3.665272762e-14,3.849682128e-14,1.111882555e-13,1.180644064e-13,4.960105202e-14,6.289678749e-14,5.957583384e-14,3.07282154e-14,2.613273997e-14,6.473817782e-15,8.412742854e-15,1.176983766e-15,1.700099852e-14,1.83334298e-14,1.530130905e-14,2.71512451e-14,1.841525954e-14,4.110603001e-14,4.9763739e-14,3.044890655e-14,2.662258744e-15
0.8359375,3.391886753e-14,5.679430236e-15,1.723089488e-14,2.460130083e-14,1.295895155e-14,1.480757974e-14,2.579699538e-14,1.170310695e-14,2.992464414e-14,5.316683575e-15,3.218226477e-14,2.885930183e-14,3.239305349e-14,8.76809463e-14,1.243243023e-13,4.952497192e-14,5.751404815e-14,6.748106217e-14,2.530209326e-14,3.369423696e-14,7.92929731e-15,6.477999222e-15,1.485388712e-15,1.546025176e-14,1.577828091e-14,1.188986213e-14,2.363264857e-14,1.673182989e-14,3.748115742e-14,4.381772152e-14,2.640112511e-14,1.885311893e-15
0.84375,3.069804438e-14,3.863792538e-15,1.816282334e-14,2.083939912e-14,1.098515779e-14,1.624805565e-14,2.718408036e-14,1.084183309e-14,2.507683923e-14,4.86195206e-15,2.334957891e-14,2.258756673e-14,2.72866341e-14,6.593100472e-14,1.360184615e-13,5.140545856e-14,5.500040296e-14,7.504884206e-14,2.002096395e-14,4.194306281e-14,9.361640296e-15,5.275023178e-15,1.994908936e-15,1.510852412e-14,1.38063055e-14,9.024922181e-15,2.108022998e-14,1.731529039e-14,3.612698479e-14,3.904630829e-14,2.218975104e-14,1.638371093e-15
0.8515625,2.932583651e-14,2.925586142e-15,1.874862672e-14,1.686338304e-14,9.105493221e-15,1.823998783e-14,2.785780159e-14,9.799772379e-15,1.998700339e-14,4.599074078e-15,1.825520228e-14,1.817471274e-14,2.227746137e-14,4.749315729e-14,1.55151113e-13,5.516381791e-14,5.536732558e-14,8.077720438e-14,1.529148994e-14,4.999930264e-14,1.05317303e-14,4.299824675e-15,2.624081843e-15,1.520026665e-14,1.248583127e-14,6.986864029e-15,1.975529567e-14,1.944227038e-14,3.724866883e-14,3.590485917e-14,1.801313481e-14,1.744094281e-15
0.859375,3.21585932e-14,2.72249432e-15,1.948568712e-14,1.328329817e-14,8.050440429e-15,2.020875365e-14,2.828973587e-14,8.773941131e-15,1.501628265e-14,4.861842884e-15,1.511294654e-14,1.526941336e-14,1.745773388e-14,3.390462915e-14,1.772888791e-13,5.997464866e-14,5.69489703e-14,8.475342408e-14,1.180316568e-14,5.684656477e-14,1.187060491e-14,3.654678362e-15,3.529883948e-15,1.551080216e-14,1.149791693e-14,5.77151505e-15,1.894783868e-14,2.220349057e-14,3.906479375e-14,3.466622903e-14,1.427672379e-14,2.131433932e-15
0.8671875,3.725077213e-14,3.24037299e-15,1.988590236e-14,1.043102645e-14,7.969418078e-15,2.147577926e-14,2.666733423e-14,7.622488789e-15,1.038797306e-14,5.583932331e-15,1.457144614e-14,1.352252727e-14,1.335692025e-14,2.568079421e-14,1.956304295e-13,6.352642284e-14,5.842452619e-14,8.637098228e-14,9.552779449e-15,6.085793564e-14,1.307929166e-14,3.356366519e-15,4.690895794e-15,1.657454995e-14,1.087772911e-14,5.614866042e-15,1.846756493e-14,2.474136212e-14,4.047921354e-14,3.527425756e-14,1.11349133e-14,2.553389036e-15
0.875,4.071870968e-14,4.688211024e-15,2.014063021e-14,8.902439534e-15,8.62562211e-15,2.234516532e-14,2.240090044e-14,6.713045777e-15,7.088876306e-15,6.759739368e-15,1.537107105e-14,1.380388632e-14,1.04098464e-14,2.289428904e-14,2.062245093e-13,6.452331625e-14,5.772863648e-14,8.244081594e-14,7.96369095e-15,6.093308215e-14,1.304527756e-14,3.183359478e-15,6.22637239e-15,1.796820627e-14,1.072156562e-14,6.414718827e-15,1.820246996e-14,2.643850837e-14,4.14620881e-14,3.702657065e-14,8.528933234e-15,3.01425745e-15
0.8828125,4.259651734e-14,6.783825709e-15,2.076476479e-14,8.931149088e-15,1.054573413e-14,2.283152327e-14,1.769994044e-14,6.108224218e-15,4.700402391e-15,8.207622218e-15,1.632329417e-14,1.531798897e-14,7.979431351e-15,2.329031536e-14,2.114476664e-13,6.399313485e-14,5.659110763e-14,7.54814621e-14,7.011755317e-15,5.944173886e-14,1.26550905e-14,3.039666019e-15,7.904712684e-15,1.909169953e-14,1.085454256e-14,8.365769509e-15,1.796224146e-14,2.750734506e-14,4.166770178e-14,3.952381597e-14,6.979643988e-15,3.432674104e-15
0.890625,4.286121663e-14,9.188680044e-15,2.121209655e-14,9.844352956e-15,1.324575473e-14,2.183411374e-14,1.343444148e-14,5.486553205e-15,3.2204476e-15,9.796446834e-15,1.791209716e-14,1.590869718e-14,5.690694291e-15,2.425759838e-14,2.08022939e-13,6.073970413e-14,5.366370605e-14,6.594764227e-14,6.327294549e-15,5.657074777e-14,1.202536855e-14,3.120870388e-15,9.443278489e-15,2.022053948e-14,1.079181293e-14,1.09559798e-14,1.682084972e-14,2.757745277e-14,3.897322469e-14,4.104809307e-14,6.016722717e-15,3.70044515e-15
0.8984375,4.057984304e-14,1.225943376e-14,2.197414896e-14,1.182919798e-14,1.602868523e-14,2.032409018e-14,1.006971579e-14,4.956189977e-15,2.556655087e-15,1.130644863e-14,2.11806843e-14,1.632565407e-14,3.891271613e-15,2.591065099e-14,1.978431322e-13,5.524395362e-14,4.959813829e-14,5.546370787e-14,6.080711146e-15,5.162503731e-14,1.107154489e-14,3.807567967e-15,1.050227646e-14,2.193082439e-14,1.042554272e-14,1.382975287e-14,1.506268691e-14,2.684707636e-14,3.439961862e-14,4.127418642e-14,5.742800197e-15,3.830800166e-15
0.90625,3.459495451e-14,1.570355431e-14,2.34779264e-14,1.446351997e-14,1.852999316e-14,1.918081271e-14,7.320346936e-15,4.471736129e-15,2.289739352e-15,1.236257079e-14,2.688039899e-14,1.708240965e-14,2.641228694e-15,2.690383711e-14,1.852228793e-13,4.894174246e-14,4.575864078e-14,4.5218061e-14,6.0176001e-15,4.563240282e-14,1.023250753e-14,5.080488216e-15,1.094308401e-14,2.338180014e-14,9.635822939e-15,1.607561293e-14,1.289619257e-14,2.56595798e-14,2.883589209e-14,4.016179849e-14,5.908476317e-15,4.036394463e-15
0.9140625,2.792485202e-14,1.860372827e-14,2.43645135e-14,1.658519703e-14,2.028017928e-14,1.847546961e-14,5.650622539e-15,3.855713682e-15,2.331864604e-15,1.277497855e-14,3.352491996e-14,1.788600292e-14,1.793465797e-15,2.686740314e-14,1.737195268e-13,4.312502546e-14,4.603594543e-14,3.813855549e-14,6.192500004e-15,4.049106556e-14,9.336173978e-15,6.882912379e-15,1.061891308e-14,2.460889646e-14,8.887173587e-15,1.7386422e-14,1.089259582e-14,2.540735584e-14,2.330798201e-14,3.789678432e-14,6.502734382e-15,4.390515177e-15
0.921875,2.151527554e-14,2.06114085e-14,2.398231086e-14,1.762752417e-14,2.078714955e-14,1.762649471e-14,4.806250318e-15,3.08537691e-15,2.625475113e-15,1.268676445e-14,4.093355341e-14,1.838210204e-14,1.18091988e-15,2.553774613e-14,1.626157015e-13,3.713633941e-14,5.179421856e-14,3.461462259e-14,6.201627613e-15,3.594287984e-14,8.501311319e-15,8.900912788e-15,9.652492035e-15,2.592700753e-14,7.817295021e-15,1.732295747e-14,8.684920041e-15,2.581238496e-14,1.736006921e-14,3.410764219e-14,7.082044759e-15,5.089122385e-15
0.9296875,1.535540856e-14,2.193417856e-14,2.291472049e-14,1.764655134e-14,1.975848646e-14,1.653209494e-14,4.613844468e-15,2.295268227e-15,2.934095438e-15,1.219218404e-14,4.760340852e-14,1.946974109e-14,9.399611836e-16,2.349286593e-14,1.53491874e-13,3.179869283e-14,6.467210596e-14,3.459950499e-14,6.560284222e-15,3.213265901e-14,8.242658954e-15,1.115367317e-14,8.400131864e-15,2.755110489e-14,6.874154011e-15,1.600307404e-14,6.658469822e-15,2.730960753e-14,1.200791706e-14,2.933061005e-14,7.779234235e-15,6.141555416e-15
0.9375,9.723753041e-15,2.311427844e-14,2.252430079e-14,1.72738396e-14,1.752389176e-14,1.564395664e-14,4.98007395e-15,1.673956362e-15,3.217193267e-15,1.161893342e-14,5.186612687e-14,2.151333337e-14,8.775213002e-16,2.074354241e-14,1.449935404e-13,2.702869952e-14,8.542129299e-14,3.867510497e-14,7.636298024e-15,3.054532991e-14,8.639127877e-15,1.314319482e-14,7.315579413e-15,2.871223707e-14,6.628108759e-15,1.379238031e-14,5.192985917e-15,2.961710722e-14,7.952053316e-15,2.440923641e-14,8.847766552e-15,7.344125991e-15
0.9453125,5.84327065e-15,2.379855946e-14,2.243629205e-14,1.637224199e-14,1.486729247e-14,1.517977522e-14,6.322749157e-15,1.19577789e-15,3.616172801e-15,1.125190921e-14,5.267679793e-14,2.464963986e-14,8.95734547e-16,1.779902995e-14,1.361172059e-13,2.327849583e-14,1.106408066e-13,4.54578342e-14,9.227980783e-15,3.084731406e-14,9.495987894e-15,1.42490917e-14,6.76485788e-15,2.871494392e-14,6.918736565e-15,1.109246051e-14,4.394135246e-15,3.309825461e-14,5.003345162e-15,1.98008265e-14,1.010972165e-14,8.468079354e-15
0.953125,3.414072689e-15,2.332793555e-14,2.222307526e-14,1.458066985e-14,1.191993286e-14,1.483256121e-14,9.149561071e-15,9.534591471e-16,4.103226334e-15,1.114878155e-14,5.107553345e-14,2.869368932e-14,9.966382548e-16,1.483910019e-14,1.257070933e-13,2.027525005e-14,1.388603684e-13,5.227852981e-14,1.076128522e-14,3.325902022e-14,1.061407405e-14,1.448461486e-14,7.433313525e-15,2.7349582e-14,8.187906452e-15,8.403520443e-15,4.068107033e-15,3.710010991e-14,2.918371566e-15,1.543543181e-14,1.11428771e-14,9.273627651e-15
0.9609375,1.996937713e-15,2.284239535e-14,2.285360896e-14,1.305401194e-14,9.038169043e-15,1.433079689e-14,1.373302725e-14,1.09121552e-15,4.624140406e-15,1.133654885e-14,4.707391466e-14,3.273757591e-14,1.385116437e-15,1.226038193e-14,1.154996332e-13,1.822090656e-14,1.657436158e-13,5.850042974e-14,1.31765486e-14,3.811085973e-14,1.238533265e-14,1.419545066e-14,9.275607438e-15,2.544126781e-14,1.036667775e-14,6.658882137e-15,4.457353512e-15,4.040728032e-14,1.752906533e-15,1.15129159e-14,1.232956681e-14,9.623458062e-15
0.96875,1.559184843e-15,2.269655762e-14,2.553208235e-14,1.222772471e-14,7.02247153e-15,1.43206285e-14,1.991585489e-14,1.541634601e-15,5.000969154e-15,1.141267645e-14,4.149640802e-14,3.559438797e-14,1.859527784e-15,1.026076029e-14,1.090817234e-13,1.795817515e-14,1.850766141e-13,6.289467794e-14,1.560384522e-14,4.543130987e-14,1.462127561e-14,1.32293826e-14,1.194923202e-14,2.295793095e-14,1.246607612e-14,6.10745977e-15,6.098696589e-15,4.292022032e-14,1.518949632e-15,8.599856333e-15,1.38060275e-14,9.334713813e-15
0.9765625,2.073619943e-15,2.198698537e-14,3.007564311e-14,1.160302111e-14,5.940866082e-15,1.525443884e-14,2.738771637e-14,2.176038645e-15,5.302322036e-15,1.12160271e-14,3.680967351e-14,3.774651454e-14,2.701810692e-15,9.365321e-15,1.105751943e-13,2.057285276e-14,1.936412464e-13,6.347145804e-14,1.661102164e-14,5.433224619e-14,1.700725859e-14,1.180058314e-14,1.527710829e-14,2.016387024e-14,1.422315735e-14,6.483632472e-15,8.942227082e-15,4.5743211e-14,1.836525378e-15,6.657086183e-15,1.491005358e-14,8.296897413e-15
0.984375,3.457485708e-15,2.08676114e-14,3.571261746e-14,1.122329699e-14,5.640127683e-15,1.702214758e-14,3.560093495e-14,3.030317982e-15,5.504407233e-15,1.090233003e-14,3.473276749e-14,3.862634646e-14,4.238928555e-15,9.875098917e-15,1.229360499e-13,2.626905389e-14,1.915669136e-13,6.10915111e-14,1.716164303e-14,6.283762404e-14,1.9228024e-14,1.077664875e-14,1.820733955e-14,1.714554126e-14,1.55518479e-14,7.398154763e-15,1.182922999e-14,4.887296761e-14,2.152287519e-15,5.194044897e-15,1.509508684e-14,7.080227307e-15
0.9921875,5.532678022e-15,2.001467221e-14,4.134203347e-14,1.143074507e-14,6.211790514e-15,1.951867939e-14,4.483716758e-14,4.147179582e-15,5.504952336e-15,1.075826243e-14,3.562386278e-14,3.673547736e-14,5.834360694e-15,1.241694633e-14,1.484097179e-13,3.510819251e-14,1.785909232e-13,5.67773974e-14,1.780825669e-14,6.987366562e-14,2.156255834e-14,1.021389365e-14,2.050408757e-14,1.490575864e-14,1.602341719e-14,8.831877187e-15,1.458627665e-14,5.208087341e-14,2.514868947e-15,4.087120995e-15,1.484868169e-14,5.824309104e-15
1,8.094635713e-15,1.839214406e-14,4.62703617e-14,1.145334117e-14,7.085824036e-15,2.198151313e-14,5.207708265e-14,5.17532869e-15,5.42850257e-15,1.145905367e-14,4.139934235e-14,3.282325618e-14,7.784614485e-15,1.776891031e-14,1.867085504e-13,4.615498769e-14,1.568847897e-13,4.990406694e-14,1.752023192e-14,7.375145755e-14,2.333797935e-14,1.020769919e-14,2.198914432e-14,1.38583086e-14,1.54182425e-14,1.02179259e-14,1.749938348e-14,5.514034574e-14,3.003895437e-15,3.349958298e-15,1.431171059e-14,4.74873634e-15
1.0078125,1.09283987e-14,1.562562754e-14,4.996469137e-14,1.072285521e-14,8.175929451e-15,2.406719466e-14,5.55590224e-14,5.961650537e-15,5.716620402e-15,1.375829761e-14,5.103862377e-14,2.866350902e-14,1.064508608e-14,2.394575149e-14,2.288136009e-13,5.741586534e-14,1.297540227e-13,4.137017214e-14,1.708179188e-14,7.31492942e-14,2.429020443e-14,1.049025612e-14,2.206410085e-14,1.375279337e-14,1.383888543e-14,1.065749621e-14,1.93457807e-14,5.806071711e-14,3.161853547e-15,3.069738971e-15,1.298368798e-14,4.040142886e-15
1.015625,1.412057111e-14,1.262515536e-14,5.147442075e-14,9.725436019e-15,9.488927302e-15,2.578244954e-14,5.73801845e-14,6.763531036e-15,6.680231506e-15,1.885433314e-14,6.549613737e-14,2.415492097e-14,1.326455522e-14,3.091541419e-14,2.696462125e-13,6.745107856e-14,1.029531593e-13,3.365496934e-14,1.793626594e-14,6.864274376e-14,2.463436051e-14,1.069457739e-14,2.086382593e-14,1.48886768e-14,1.196532755e-14,1.04055208e-14,1.906021434e-14,6.118300666e-14,2.814938786e-15,3.041302853e-15,1.069386816e-14,3.629736483e-15
1.0234375,1.707607851e-14,1.01049289e-14,4.996520367e-14,8.979812838e-15,1.0420234e-14,2.594050218e-14,5.704920827e-14,7.848616987e-15,8.487589549e-15,2.696982987e-14,8.238717184e-14,1.895933848e-14,1.483280871e-14,3.868311852e-14,3.031417048e-13,7.432723026e-14,7.85419433e-14,2.738442595e-14,2.079263002e-14,6.053220649e-14,2.45778743e-14,1.079265744e-14,1.880246367e-14,1.70328385e-14,1.013863994e-14,9.881759346e-15,1.789056853e-14,6.379910607e-14,2.454307077e-15,3.005512731e-15,8.362664178e-15,3.567925459e-15
1.03125,1.871610782e-14,7.986431626e-15,4.642767913e-14,8.309075197e-15,1.100995969e-14,2.46829923e-14,5.243213429e-14,9.168860708e-15,1.155971581e-14,3.845484104e-14,1.012522358e-13,1.419096033e-14,1.560745791e-14,4.476696766e-14,3.204939769e-13,7.665020393e-14,5.885317768e-14,2.208324544e-14,2.598641677e-14,5.011105183e-14,2.441511108e-14,1.071098073e-14,1.625023039e-14,1.954901526e-14,8.540695802e-15,8.957469501e-15,1.642853968e-14,6.436717434e-14,2.391565099e-15,3.108774764e-15,6.474458081e-15,3.747329648e-15
1.0390625,1.919647395e-14,6.58036549e-15,4.128980627e-14,8.034303893e-15,1.123678299e-14,2.341765402e-14,4.508321669e-14,1.056361093e-14,1.601336308e-14,5.178986581e-14,1.197977083e-13,1.087535332e-14,1.590568767e-14,4.847880212e-14,3.238233373e-13,7.445096837e-14,4.405769417e-14,1.75773963e-14,3.281186564e-14,3.999914241e-14,2.526301653e-14,1.019183588e-14,1.351555548e-14,2.23552825e-14,7.298083522e-15,7.910074157e-15,1.492467982e-14,6.258692485e-14,2.537765537e-15,3.249347159e-15,5.088298752e-15,4.582757022e-15
1.046875,1.876853089e-14,5.889437964e-15,3.492148033e-14,8.158293231e-15,1.092248752e-14,2.173297179e-14,3.815742255e-14,1.214776635e-14,2.173218134e-14,6.529539603e-14,1.335015713e-13,8.842734218e-15,1.50144496e-14,4.956419917e-14,3.132672427e-13,6.83325003e-14,3.404976815e-14,1.387627994e-14,4.022026194e-14,3.143327168e-14,2.771399553e-14,9.031053922e-15,1.072877939e-14,2.464011585e-14,6.563373098e-15,7.106227606e-15,1.3411122e-14,5.906338881e-14,2.887230947e-15,3.421119397e-15,4.156140274e-15,6.31641676e-15
1.0546875,1.73581423e-14,6.339710625e-15,2.846152897e-14,9.055152072e-15,1.047457584e-14,2.00734206e-14,3.20181939e-14,1.403903764e-14,2.881786702e-14,7.701301756e-14,1.402270705e-13,7.534410829e-15,1.277585696e-14,4.862962605e-14,2.913758649e-13,5.961326497e-14,2.799312143e-14,1.120275202e-14,4.725851994e-14,2.542962042e-14,3.204604358e-14,7.391237263e-15,8.28995585e-15,2.656548171e-14,6.311244166e-15,6.935086915e-15,1.211822631e-14,5.36513655e-14,3.413671867e-15,3.54932711e-15,3.738336848e-15,9.235359472e-15
1.0625,1.486458671e-14,7.728549694e-15,2.245504221e-14,1.087642232e-14,9.998487618e-15,1.9775918e-14,2.580209361e-14,1.611398141e-14,3.621727759e-14,8.498888807e-14,1.406749231e-13,7.330566819e-15,1.045530524e-14,4.825352892e-14,2.736236478e-13,5.227256372e-14,2.377442877e-14,9.379007807e-15,5.231318588e-14,2.342843422e-14,3.833988894e-14,5.859896477e-15,6.364471294e-15,2.674795486e-14,6.343415121e-15,8.282390275e-15,1.178645726e-14,4.661384756e-14,4.217984682e-15,3.801563721e-15,4.058201643e-15,1.453879695e-14
1.0703125,1.249657831e-14,9.250320359e-15,1.765790022e-14,1.24697254e-14,8.889573372e-15,2.053967281e-14,2.185124242e-14,1.798173316e-14,4.265030907e-14,8.727360718e-14,1.326047154e-13,7.409568823e-15,9.05063671e-15,4.938464032e-14,2.622890057e-13,4.715932958e-14,2.082171674e-14,8.175243686e-15,5.449341772e-14,2.417604971e-14,4.631990072e-14,4.542122686e-15,4.853901756e-15,2.479262089e-14,6.574738455e-15,1.055399847e-14,1.147074122e-14,3.923258993e-14,4.630802776e-15,4.004222075e-15,4.84380164e-15,2.193248326e-14
1.078125,1.135624587e-14,1.130834593e-14,1.458340644e-14,1.420486143e-14,7.972313353e-15,2.233372398e-14,2.043476848e-14,1.975339465e-14,4.797111586e-14,8.385089127e-14,1.178915064e-13,8.815863521e-15,8.467221968e-15,5.841497432e-14,2.690640658e-13,4.718472987e-14,1.860247986e-14,7.887220226e-15,5.430259962e-14,2.702940216e-14,5.598496617e-14,3.581758442e-15,3.645245791e-15,2.315984107e-14,6.699975291e-15,1.452730646e-14,1.164464229e-14,3.334403054e-14,5.294251308e-15,5.038581332e-15,6.574291738e-15,3.153545508e-14
1.0859375,1.141716922e-14,1.387456188e-14,1.34906803e-14,1.635476451e-14,7.86199496e-15,2.509068002e-14,1.909789532e-14,2.147270264e-14,5.188550359e-14,7.571356914e-14,9.850901023e-14,1.17748944e-14,9.348609507e-15,7.685507232e-14,2.950684219e-13,5.250746592e-14,1.607457694e-14,8.359723851e-15,5.08399911e-14,3.143465175e-14,6.59501085e-14,3.14344181e-15,2.720145024e-15,2.120242629e-14,6.799820651e-15,1.998218348e-14,1.32986132e-14,2.920390305e-14,6.776618609e-15,7.350761575e-15,9.5769691e-15,4.333900704e-14
1.09375,1.316899017e-14,1.658354772e-14,1.469349078e-14,1.879141624e-14,8.175256671e-15,2.888452507e-14,1.808778802e-14,2.278121973e-14,5.272441267e-14,6.460906103e-14,7.854585439e-14,1.766597528e-14,1.233920257e-14,1.106590361e-13,3.497623674e-13,6.516397732e-14,1.329249834e-14,9.525789639e-15,4.518142297e-14,3.496990231e-14,7.296514639e-14,3.509251165e-15,2.058146665e-15,1.870149804e-14,6.695645654e-15,2.622730722e-14,1.728199628e-14,2.8943438e-14,9.31088589e-15,1.171925041e-14,1.332475135e-14,5.581632114e-14
1.1015625,1.685992533e-14,1.938731909e-14,1.809626604e-14,2.116476953e-14,8.699537137e-15,3.309810474e-14,1.778562738e-14,2.337799733e-14,5.011793594e-14,5.260615718e-14,5.965102544e-14,2.74643265e-14,1.647496965e-14,1.621716251e-13,4.277957191e-13,8.312534991e-14,1.095089719e-14,1.149252713e-14,3.862158558e-14,3.618981209e-14,7.689842034e-14,4.298330158e-15,1.628945304e-15,1.793225775e-14,6.484507374e-15,3.298634521e-14,2.468407367e-14,3.271674109e-14,1.370227957e-14,1.898919825e-14,1.833679656e-14,6.686609772e-14
1.109375,2.187986266e-14,2.384804521e-14,2.376361179e-14,2.507519265e-14,1.022439104e-14,3.703700657e-14,1.687368056e-14,2.369745798e-14,4.507709713e-14,4.205633421e-14,4.340965364e-14,4.216408624e-14,2.087949383e-14,2.305251052e-13,5.266902962e-13,1.06234502e-13,9.624929417e-15,1.486265348e-14,3.230686915e-14,3.656840922e-14,7.891632016e-14,5.328025685e-15,1.260430805e-15,1.962194658e-14,6.345093442e-15,4.00773967e-14,3.610303387e-14,4.093097514e-14,2.117010136e-14,2.939644488e-14,2.513718701e-14,7.500277974e-14
1.1171875,2.824295265e-14,2.997335934e-14,3.124770173e-14,3.118536382e-14,1.263038065e-14,4.015788553e-14,1.56723528e-14,2.374258814e-14,3.87184928e-14,3.472832733e-14,3.253580311e-14,6.283957836e-14,2.551727765e-14,3.141912592e-13,6.460498422e-13,1.34155697e-13,8.843779765e-15,1.983445904e-14,2.610438562e-14,3.608212991e-14,7.676628071e-14,6.529769329e-15,9.869008616e-16,2.385792311e-14,6.627433843e-15,4.713890901e-14,5.220759453e-14,5.422508503e-14,3.180128814e-14,4.301450536e-14,3.30912739e-14,7.954165221e-14
1.125,3.580160248e-14,3.651302336e-14,3.891495971e-14,3.819068886e-14,1.513258571e-14,4.181794289e-14,1.579482521e-14,2.30288364e-14,3.216729287e-14,3.118474086e-14,2.641388748e-14,8.622786583e-14,2.940195979e-14,4.035712504e-13,7.650931856e-13,1.616717504e-13,8.418212816e-15,2.55059103e-14,2.124372497e-14,3.372629622e-14,7.138575807e-14,7.585921793e-15,8.823649533e-16,3.077854874e-14,7.429692733e-15,5.232631476e-14,7.022455225e-14,7.02420407e-14,4.419421809e-14,5.830076003e-14,4.050240914e-14,7.931780413e-14
1.1328125,4.400250593e-14,4.38588982e-14,4.679797089e-14,4.616563255e-14,1.776347196e-14,4.086535283e-14,1.723773023e-14,2.143236863e-14,2.521851989e-14,3.049381187e-14,2.408034074e-14,1.11222055e-13,3.185841575e-14,4.910849016e-13,8.710262984e-13,1.856797319e-13,8.843116961e-15,3.144906872e-14,1.829311545e-14,3.015921596e-14,6.44316176e-14,8.29070864e-15,8.99530509e-16,3.884996814e-14,8.843982704e-15,5.610313796e-14,8.897661032e-14,8.632063572e-14,5.829107243e-14,7.431221867e-14,4.779436869e-14,7.503672167e-14
1.140625,5.280090111e-14,5.270237122e-14,5.526109446e-14,5.576711887e-14,2.039675936e-14,3.916487473e-14,2.043306215e-14,1.93846981e-14,1.942146453e-14,3.200443879e-14,2.467717686e-14,1.360363281e-13,3.257580408e-14,5.665000465e-13,9.580665601e-13,2.068705037e-13,1.018101043e-14,3.808867627e-14,1.729968935e-14,2.736175625e-14,5.708993976e-14,8.320537197e-15,1.086774072e-15,4.697473889e-14,1.079715145e-14,5.77404653e-14,1.065899714e-13,1.024079176e-13,7.28614655e-14,8.939451479e-14,5.403751363e-14,6.660010226e-14
1.1484375,6.140414515e-14,6.246134188e-14,6.126263294e-14,6.622766976e-14,2.280463798e-14,3.587573934e-14,2.546138251e-14,1.712552625e-14,1.602752658e-14,3.401771743e-14,2.718721283e-14,1.566221948e-13,3.129161551e-14,6.188856652e-13,1.011335596e-12,2.205188679e-13,1.171113595e-14,4.434352768e-14,1.806257343e-14,2.487230625e-14,4.940717759e-14,7.740451184e-15,1.336526261e-15,5.330340798e-14,1.295996366e-14,5.676800733e-14,1.19136001e-13,1.152836452e-13,8.521119904e-14,1.007902113e-13,5.815970886e-14,5.514836742e-14
1.15625,6.866795351e-14,7.013081687e-14,6.473051912e-14,7.42498041e-14,2.456090012e-14,3.034758871e-14,3.147807522e-14,1.427376338e-14,1.451495038e-14,3.545651072e-14,3.133941814e-14,1.68209484e-13,2.903365264e-14,6.415234568e-13,1.019445737e-12,2.225295641e-13,1.319075349e-14,4.771820722e-14,2.021135399e-14,2.235464549e-14,4.160506736e-14,7.311372983e-15,1.721173338e-15,5.696891854e-14,1.456035663e-14,5.35786226e-14,1.236821217e-13,1.210613269e-13,9.237878112e-14,1.06796615e-13,5.916170991e-14,4.39258506e-14
1.1640625,7.540682892e-14,7.607465982e-14,6.963301082e-14,7.99761879e-14,2.537872025e-14,2.511245288e-14,3.79415676e-14,1.128946533e-14,1.390353049e-14,3.511084759e-14,3.571585745e-14,1.71670295e-13,2.705329469e-14,6.334789588e-13,9.813805649e-13,2.144054794e-13,1.599528631e-14,4.835822794e-14,2.38289283e-14,2.030343412e-14,3.503665344e-14,7.047724418e-15,2.252078402e-15,5.771261106e-14,1.570479492e-14,4.818650562e-14,1.21058333e-13,1.193744976e-13,9.45212634e-14,1.072132821e-13,5.754294014e-14,3.387378595e-14
1.171875,8.193548422e-14,8.232580557e-14,7.652871691e-14,8.563616287e-14,2.63295153e-14,2.167530306e-14,4.432398032e-14,8.739476107e-15,1.418675561e-14,3.260062118e-14,4.07012374e-14,1.676843197e-13,2.510716295e-14,5.952087148e-13,9.046574962e-13,1.993128889e-13,2.093784794e-14,4.763584334e-14,2.898293457e-14,1.912658719e-14,3.002183e-14,7.120954019e-15,2.566774261e-15,5.410565499e-14,1.56218501e-14,4.130453976e-14,1.123213115e-13,1.107247168e-13,9.22008678e-14,1.022398569e-13,5.457224079e-14,2.589280684e-14
1.1796875,8.695168003e-14,8.650043256e-14,8.408672971e-14,8.860664683e-14,2.713854406e-14,1.953128737e-14,4.977532595e-14,6.845280646e-15,1.48480483e-14,2.835689602e-14,4.638771836e-14,1.561554036e-13,2.310400784e-14,5.351591666e-13,7.990283124e-13,1.776043289e-13,2.854899479e-14,4.56266862e-14,3.557224796e-14,1.800805239e-14,2.554022746e-14,8.042261155e-15,3.114985934e-15,4.711890637e-14,1.453930276e-14,3.421357084e-14,9.834025789e-14,9.621709686e-14,8.503357443e-14,9.341755048e-14,4.97978409e-14,2.101586047e-14
1.1875,9.00193604e-14,8.567366438e-14,9.076312433e-14,8.614844961e-14,2.66347575e-14,1.852073205e-14,5.350393762e-14,5.388932934e-15,1.47231434e-14,2.387904003e-14,5.294708555e-14,1.387057965e-13,2.089105587e-14,4.640828633e-13,6.794150705e-13,1.511738568e-13,3.903291671e-14,4.164262961e-14,4.100668662e-14,1.630040941e-14,2.225510984e-14,9.629607327e-15,3.963231721e-15,3.918809267e-14,1.329725007e-14,2.778721109e-14,8.085708034e-14,7.880562491e-14,7.296426311e-14,8.150031334e-14,4.289950552e-14,1.894106795e-14
1.1953125,9.233925964e-14,8.238521783e-14,9.700207936e-14,8.108169805e-14,2.613044744e-14,1.878280056e-14,5.529966418e-14,4.633482649e-15,1.37784597e-14,1.992871182e-14,6.173810471e-14,1.208218408e-13,1.917605658e-14,3.901123009e-13,5.577368285e-13,1.241697679e-13,5.231994636e-14,3.670464964e-14,4.484257136e-14,1.459736095e-14,2.070195181e-14,1.196416584e-14,4.699623563e-15,3.072939844e-14,1.178613493e-14,2.343444025e-14,6.341304251e-14,5.966375428e-14,5.923553004e-14,6.864503401e-14,3.612907775e-14,1.94285467e-14
1.203125,9.426553141e-14,7.775513159e-14,1.030618521e-13,7.454107686e-14,2.61537102e-14,2.050805667e-14,5.403576697e-14,4.536198929e-15,1.249100284e-14,1.754502233e-14,7.311274196e-14,1.062188931e-13,1.775624605e-14,3.22295785e-13,4.485693629e-13,1.008025283e-13,6.96465638e-14,3.227744896e-14,4.72005714e-14,1.292554034e-14,2.116722604e-14,1.48086139e-14,5.633719588e-15,2.223943277e-14,1.066298552e-14,2.163335576e-14,4.895970084e-14,4.189360109e-14,4.672058508e-14,5.771833947e-14,3.059415606e-14,2.124194244e-14
1.2109375,9.465577778e-14,7.067438961e-14,1.05176299e-13,6.573054393e-14,2.547916784e-14,2.272230257e-14,4.956940778e-14,4.73714593e-15,1.106231144e-14,1.684027661e-14,8.407802302e-14,9.432614855e-14,1.565231481e-14,2.661579603e-13,3.593097879e-13,8.184560423e-14,8.977081131e-14,2.863768714e-14,4.685250271e-14,1.090540893e-14,2.34146984e-14,1.708057378e-14,6.848122657e-15,1.48762632e-14,1.042718982e-14,2.194159997e-14,3.734440163e-14,2.730104119e-14,3.567271242e-14,4.910497634e-14,2.548113349e-14,2.287264174e-14
1.21875,9.535624654e-14,6.12858836e-14,1.023362826e-13,5.504772877e-14,2.39413756e-14,2.451878971e-14,4.431815524e-14,5.071960206e-15,9.768049019e-15,1.801660456e-14,9.413270525e-14,8.550484219e-14,1.31231018e-14,2.255721933e-13,2.918080086e-13,6.815225723e-14,1.128833707e-13,2.587885699e-14,4.34094071e-14,8.727991945e-15,2.698319342e-14,1.835975419e-14,7.877407779e-15,9.634100495e-15,1.115703318e-14,2.399275264e-14,2.92750746e-14,1.666758527e-14,2.652464298e-14,4.317399708e-14,2.075486098e-14,2.369869762e-14
1.2265625,9.658602235e-14,5.146641612e-14,9.406197178e-14,4.431888891e-14,2.234740073e-14,2.574416699e-14,3.888672325e-14,5.340363359e-15,9.089055574e-15,2.053014758e-14,1.03746295e-13,8.325558736e-14,1.063358596e-14,2.043215513e-13,2.482072375e-13,6.145016506e-14,1.379482632e-13,2.402855651e-14,3.794532698e-14,6.674019014e-15,3.077827422e-14,1.858982987e-14,8.847826772e-15,6.082253974e-15,1.321718792e-14,2.797062978e-14,2.648855962e-14,1.123480763e-14,2.130769931e-14,4.130823059e-14,1.795336822e-14,2.29696068e-14
1.234375,9.534157388e-14,4.238832061e-14,8.056317161e-14,3.482160406e-14,2.039885759e-14,2.541994413e-14,3.194332627e-14,5.02615119e-15,9.66679535e-15,2.289559408e-14,1.090984601e-13,8.63039372e-14,8.446990796e-15,1.993731068e-13,2.211943511e-13,6.139150744e-14,1.66057249e-13,2.259761066e-14,3.111448554e-14,5.053921608e-15,3.339467972e-14,1.769873277e-14,9.822574959e-15,4.023100866e-15,1.637918188e-14,3.227040614e-14,2.912058257e-14,1.082578443e-14,2.106651161e-14,4.441961552e-14,1.687179528e-14,2.064024135e-14
1.2421875,9.273760028e-14,3.430333652e-14,6.404179486e-14,2.69094095e-14,1.809769968e-14,2.308097458e-14,2.525174655e-14,4.47483715e-15,1.090471837e-14,2.417750815e-14,1.091399154e-13,9.128161045e-14,6.815736337e-15,2.085087807e-13,2.076695094e-13,6.770611216e-14,1.97611696e-13,2.133065989e-14,2.426022757e-14,4.19272316e-15,3.387179747e-14,1.587610425e-14,1.087463572e-14,3.352613579e-15,2.035016157e-14,3.58642387e-14,3.673203348e-14,1.564264577e-14,2.526362133e-14,5.254550678e-14,1.671160554e-14,1.717228278e-14
1.25,9.058633047e-14,2.736181787e-14,4.79770698e-14,2.076712257e-14,1.569665379e-14,2.015279753e-14,2.17445288e-14,3.945966945e-15,1.279175712e-14,2.44203635e-14,1.039127013e-13,9.530609892e-14,6.26353099e-15,2.259391653e-13,2.011810431e-13,7.874749604e-14,2.325022457e-13,2.149381272e-14,1.863933297e-14,3.861770135e-15,3.231347536e-14,1.386104564e-14,1.197026323e-14,3.917114319e-15,2.478916773e-14,3.840677977e-14,4.752172815e-14,2.566082216e-14,3.229996805e-14,6.339497921e-14,1.715005335e-14,1.325111388e-14
1.2578125,8.652247664e-14,2.239085031e-14,3.366910738e-14,1.696611605e-14,1.327759422e-14,1.71939283e-14,2.045272358e-14,3.357573777e-15,1.547817195e-14,2.334472873e-14,9.35383095e-14,9.884812852e-14,6.709999659e-15,2.493119684e-13,1.971432411e-13,9.267598036e-14,2.68437357e-13,2.278737666e-14,1.523270616e-14,4.253587108e-15,2.915325365e-14,1.231788054e-14,1.350372159e-14,5.350254804e-15,2.977475844e-14,4.019711785e-14,6.093541587e-14,4.102288787e-14,4.249779709e-14,7.701852578e-14,1.855036367e-14,9.684235486e-15
1.265625,7.836984508e-14,1.937707669e-14,2.253871755e-14,1.534221891e-14,1.112343246e-14,1.392266759e-14,2.053310872e-14,2.87613565e-15,1.842828567e-14,2.087710112e-14,8.092168452e-14,1.017110598e-13,7.916657104e-15,2.745077169e-13,1.945468768e-13,1.070885288e-13,3.02466102e-13,2.367860412e-14,1.408098941e-14,5.578824869e-15,2.451265477e-14,1.167557064e-14,1.551502756e-14,7.522857906e-15,3.521449624e-14,4.149502776e-14,7.577998281e-14,6.143794777e-14,5.50747703e-14,9.274263325e-14,2.085766114e-14,7.208403335e-15
1.2734375,6.902324386e-14,1.732838596e-14,1.521660702e-14,1.469022885e-14,9.59019547e-15,1.101951549e-14,2.184581467e-14,2.995942077e-15,2.116325196e-14,1.73348266e-14,6.867465459e-14,1.015304059e-13,9.309876414e-15,2.96505383e-13,1.947767414e-13,1.209002474e-13,3.322784514e-13,2.539586291e-14,1.447996287e-14,7.419328852e-15,1.928082759e-14,1.17965845e-14,1.776479484e-14,9.807565551e-15,4.035981075e-14,4.204210162e-14,9.06679153e-14,8.519797392e-14,6.845032715e-14,1.082799501e-13,2.339458665e-14,5.60578067e-15
1.28125,5.953584002e-14,1.529517201e-14,1.120107457e-14,1.393072303e-14,8.409475589e-15,9.307215799e-15,2.458228595e-14,3.582982961e-15,2.321349849e-14,1.383576726e-14,5.770902939e-14,9.586628647e-14,1.033036707e-14,3.071847621e-13,1.960965614e-13,1.311284605e-13,3.531879618e-13,2.784477698e-14,1.538510547e-14,1.001779298e-14,1.448676832e-14,1.243506643e-14,1.991484128e-14,1.139267599e-14,4.431979151e-14,4.169324762e-14,1.011965241e-13,1.096612119e-13,7.899978416e-14,1.187693475e-13,2.491926226e-14,4.824318858e-15
1.2890625,4.921316195e-14,1.356191141e-14,9.463699697e-15,1.325967976e-14,7.633072398e-15,9.12690048e-15,2.685065909e-14,4.488463349e-15,2.509023482e-14,1.087961293e-14,4.929608322e-14,8.745304869e-14,1.055985043e-14,3.073843093e-13,1.983663646e-13,1.362751834e-13,3.60158252e-13,2.951769164e-14,1.622173378e-14,1.368996554e-14,1.073911409e-14,1.328367482e-14,2.153118296e-14,1.285475955e-14,4.691490678e-14,4.068296041e-14,1.056433983e-13,1.328230366e-13,8.595079713e-14,1.236830299e-13,2.57328782e-14,4.417288603e-15
1.296875,3.869547047e-14,1.22840482e-14,1.066877961e-14,1.256811286e-14,7.311534748e-15,1.07010981e-14,2.814096762e-14,5.553635383e-15,2.675042008e-14,8.593734464e-15,4.363100856e-14,7.776768689e-14,1.00171833e-14,2.947787379e-13,1.997289985e-13,1.353563047e-13,3.510506185e-13,3.004518982e-14,1.625843047e-14,1.797879505e-14,8.123269342e-15,1.379238851e-14,2.208155129e-14,1.331677898e-14,4.742962048e-14,3.948137691e-14,1.050108106e-13,1.504696261e-13,9.021733536e-14,1.235247248e-13,2.647047335e-14,3.984664095e-15
1.3046875,2.983518362e-14,1.084046841e-14,1.417667576e-14,1.102235613e-14,7.461045438e-15,1.394548506e-14,3.042962382e-14,6.547889351e-15,2.785835571e-14,6.89261473e-15,4.090944297e-14,6.791923306e-14,8.653741659e-15,2.711432228e-13,1.997243364e-13,1.297246406e-13,3.274604193e-13,3.011649224e-14,1.531662332e-14,2.295546135e-14,6.798520918e-15,1.382022886e-14,2.15185663e-14,1.222866764e-14,4.587103354e-14,3.818671781e-14,9.885330485e-14,1.606736104e-13,9.050957655e-14,1.169993349e-13,2.648312419e-14,3.496293309e-15
1.3125,2.374695348e-14,9.70496564e-15,2.058202124e-14,9.083670478e-15,7.664443208e-15,1.875492167e-14,3.253716184e-14,7.006308559e-15,2.850228601e-14,5.860119513e-15,4.061110893e-14,5.778959013e-14,6.902164083e-15,2.371822668e-13,1.97369421e-13,1.202621947e-13,2.904007273e-13,2.894896738e-14,1.415270916e-14,2.882769608e-14,6.899361907e-15,1.391772182e-14,1.994075863e-14,1.067723507e-14,4.225784433e-14,3.632226734e-14,8.607026346e-14,1.625094561e-13,8.445773929e-14,1.030335519e-13,2.511771283e-14,2.960513877e-15
1.3203125,2.036972555e-14,9.457755777e-15,2.95492151e-14,7.428057426e-15,7.926463047e-15,2.535907038e-14,3.398264474e-14,6.872777013e-15,2.929759362e-14,5.548207032e-15,4.187804793e-14,4.969545784e-14,5.213399465e-15,1.985048595e-13,1.927508236e-13,1.091096812e-13,2.45459982e-13,2.730629591e-14,1.396071022e-14,3.50084132e-14,8.598102866e-15,1.427281403e-14,1.771946991e-14,9.191229206e-15,3.723011558e-14,3.430043002e-14,7.000082634e-14,1.560808841e-13,7.531305304e-14,8.566151984e-14,2.34453875e-14,2.389750518e-15
1.328125,1.922200034e-14,9.935016319e-15,4.069922703e-14,6.159835333e-15,8.352692913e-15,3.335666328e-14,3.670672186e-14,6.375130384e-15,3.065424385e-14,5.663718638e-15,4.394270445e-14,4.529623434e-14,3.718398213e-15,1.598318172e-13,1.856678842e-13,9.756692107e-14,1.967742582e-13,2.571301098e-14,1.539559894e-14,4.085716698e-14,1.168421723e-14,1.47741952e-14,1.534594486e-14,7.678082684e-15,3.164337602e-14,3.293535474e-14,5.420027706e-14,1.429704425e-13,6.636536997e-14,6.803718733e-14,2.238528732e-14,1.868499606e-15
1.3359375,2.098943571e-14,1.13151708e-14,5.251899736e-14,5.228602492e-15,8.935097709e-15,4.164944703e-14,4.047461309e-14,5.599100929e-15,3.176520917e-14,5.779535025e-15,4.653509222e-14,4.331464272e-14,2.444260028e-15,1.24894765e-13,1.78618565e-13,8.758969619e-14,1.519949057e-13,2.5445935e-14,1.897177059e-14,4.540731206e-14,1.614100654e-14,1.536900248e-14,1.311691991e-14,6.632074535e-15,2.601916598e-14,3.193710874e-14,3.966752411e-14,1.247038616e-13,5.70969754e-14,5.175642547e-14,2.166220892e-14,1.513313061e-15
1.34375,2.654835873e-14,1.302589453e-14,6.433851697e-14,4.654000121e-15,9.374211034e-15,4.986703989e-14,4.543169316e-14,4.877869241e-15,3.217021314e-14,5.799899127e-15,4.99654509e-14,4.277450297e-14,1.719050213e-15,9.604232288e-14,1.759439789e-13,8.108882148e-14,1.152812674e-13,2.674672963e-14,2.538287535e-14,4.85321585e-14,2.281620834e-14,1.686737179e-14,1.149649839e-14,6.387746429e-15,2.111751389e-14,3.091252483e-14,2.697235905e-14,1.038416808e-13,4.705596919e-14,3.755647731e-14,2.055571455e-14,1.402856852e-15
1.3515625,3.575706359e-14,1.450077084e-14,7.449592038e-14,4.361337555e-15,9.697987758e-15,5.688531301e-14,5.215603596e-14,4.412906434e-15,3.270040511e-14,5.741548271e-15,5.214348435e-14,4.423560178e-14,1.406813673e-15,7.407041165e-14,1.781976989e-13,7.847086108e-14,8.857719161e-14,2.954411942e-14,3.342717481e-14,5.062617923e-14,3.008556396e-14,1.809858484e-14,1.025873479e-14,7.16023919e-15,1.702112422e-14,2.989462365e-14,1.748395047e-14,8.298751369e-14,3.827183677e-14,2.68685919e-14,1.957907983e-14,1.469094793e-15
1.359375,4.770945026e-14,1.571277203e-14,8.161886484e-14,4.449126461e-15,9.924160548e-15,6.183265286e-14,6.108297915e-14,4.367234478e-15,3.334649331e-14,5.58937431e-15,5.20741763e-14,4.741297774e-14,1.266184465e-15,6.02202947e-14,1.865410113e-13,7.901617696e-14,7.283066823e-14,3.352406057e-14,4.214429953e-14,5.035204864e-14,3.795689615e-14,1.847071029e-14,9.206085532e-15,8.604291371e-15,1.397190478e-14,2.927800565e-14,1.16155144e-14,6.427025514e-14,3.177737042e-14,2.021809445e-14,1.920149456e-14,1.749467449e-15
1.3671875,6.334514821e-14,1.658717742e-14,8.73319151e-14,4.955586894e-15,1.035594863e-14,6.471439018e-14,7.153225367e-14,4.633370835e-15,3.270925682e-14,5.320820783e-15,4.967879847e-14,5.080745738e-14,1.265600569e-15,5.343069545e-14,2.026937862e-13,8.439312194e-14,6.684491558e-14,3.814228794e-14,5.147521764e-14,4.921093793e-14,4.596536059e-14,1.81083148e-14,8.378061026e-15,1.051260843e-14,1.182180008e-14,2.854749799e-14,8.855940668e-15,4.795767067e-14,2.651092761e-14,1.763510401e-14,1.904917836e-14,2.295586061e-15
1.375,7.991625705e-14,1.697991681e-14,9.292257091e-14,5.9717774e-15,1.085869571e-14,6.455049471e-14,8.399549784e-14,5.137028872e-15,3.062316517e-14,5.25292611e-15,4.626859977e-14,5.368771037e-14,1.497512794e-15,5.165670459e-14,2.243830256e-13,9.362437096e-14,6.746780025e-14,4.216624717e-14,5.932217138e-14,4.812643228e-14,5.315428844e-14,1.746287241e-14,7.801830169e-15,1.2651617e-14,1.058133482e-14,2.748706796e-14,8.572530402e-15,3.483679326e-14,2.191082163e-14,1.813411045e-14,1.851337881e-14,3.075734944e-15
1.3828125,9.508740569e-14,1.692471785e-14,9.670502309e-14,7.538175227e-15,1.139330773e-14,6.109523806e-14,9.824998926e-14,5.342361438e-15,2.750315518e-14,4.880934966e-15,3.972991187e-14,5.557204679e-14,1.884232389e-15,5.308520153e-14,2.481897621e-13,1.063385879e-13,7.325487615e-14,4.496121301e-14,6.37762922e-14,4.820761435e-14,5.76131108e-14,1.579231178e-14,6.844242411e-15,1.511508347e-14,9.839579909e-15,2.605958276e-14,1.060419417e-14,2.491740458e-14,1.793133069e-14,2.126537702e-14,1.754285863e-14,4.173022051e-15
1.390625,1.077888388e-13,1.716194644e-14,1.018029006e-13,1.000224855e-14,1.201309665e-14,5.661399195e-14,1.110929344e-13,5.426192685e-15,2.402676951e-14,4.719186208e-15,3.233124577e-14,5.737066336e-14,2.077609641e-15,5.735887052e-14,2.685869831e-13,1.202605193e-13,8.063960236e-14,4.67174148e-14,6.524884373e-14,5.002561373e-14,5.993422591e-14,1.333083568e-14,6.057476171e-15,1.730392397e-14,9.550172944e-15,2.430548018e-14,1.451899469e-14,1.819238668e-14,1.511824968e-14,2.578970165e-14,1.653914077e-14,5.415672516e-15
1.3984375,1.152703597e-13,1.808480423e-14,1.078353368e-13,1.334365132e-14,1.283546327e-14,5.043498177e-14,1.223261434e-13,5.433959788e-15,1.990412723e-14,4.899258765e-15,2.516877006e-14,5.829932515e-14,2.270082523e-15,6.351761673e-14,2.83812683e-13,1.345438081e-13,8.907726884e-14,4.663024883e-14,6.433805187e-14,5.334628369e-14,6.018183161e-14,1.098767459e-14,5.737709945e-15,1.905826332e-14,9.687953724e-15,2.22081708e-14,2.000228739e-14,1.437690479e-14,1.304113691e-14,3.124518761e-14,1.556201693e-14,6.592571027e-15
1.40625,1.149723837e-13,1.960721069e-14,1.124895002e-13,1.72433091e-14,1.380636804e-14,4.248023057e-14,1.307014343e-13,4.993543165e-15,1.557618733e-14,4.947361149e-15,1.934454022e-14,5.772170524e-14,2.55010378e-15,7.039944599e-14,2.90382692e-13,1.456243193e-13,9.53635564e-14,4.485475685e-14,5.970815504e-14,5.897844649e-14,5.747909796e-14,9.123174792e-15,6.041885113e-15,2.139358752e-14,1.004472821e-14,1.976873078e-14,2.582820645e-14,1.267345367e-14,1.146133956e-14,3.625217058e-14,1.442525134e-14,7.651895331e-15
1.4140625,1.082554119e-13,2.20776957e-14,1.170387678e-13,2.17401285e-14,1.497799532e-14,3.431863729e-14,1.358223136e-13,4.18980239e-15,1.14197704e-14,5.041672862e-15,1.612174093e-14,5.62036141e-14,2.631496353e-15,7.77509565e-14,2.870618742e-13,1.533909046e-13,1.004926515e-13,4.29176793e-14,5.191440786e-14,6.661502354e-14,5.29916502e-14,7.847549333e-15,7.05105018e-15,2.441067986e-14,1.053458927e-14,1.73401693e-14,3.154004364e-14,1.276591387e-14,1.050253248e-14,4.028774076e-14,1.352506818e-14,8.393134886e-15
1.421875,9.667093443e-14,2.535007166e-14,1.20198787e-13,2.641434284e-14,1.643973997e-14,2.684790036e-14,1.365743843e-13,3.511865466e-15,8.154106326e-15,5.201665179e-15,1.48486645e-14,5.407419976e-14,2.32785397e-15,8.496401599e-14,2.715632279e-13,1.550259868e-13,1.031512096e-13,4.049746772e-14,4.285184936e-14,7.475337199e-14,4.76353048e-14,7.147302076e-15,8.651831107e-15,2.719703431e-14,1.097990823e-14,1.492252219e-14,3.607443041e-14,1.415050473e-14,1.004082156e-14,4.130658405e-14,1.307700167e-14,8.993697124e-15
1.4296875,8.134259279e-14,2.874124051e-14,1.21834069e-13,3.074008536e-14,1.795411144e-14,2.025518714e-14,1.344561204e-13,2.951634463e-15,5.769339272e-15,5.24325507e-15,1.554435284e-14,5.068840871e-14,2.061588227e-15,9.112019192e-14,2.451688215e-13,1.497421566e-13,1.030150581e-13,3.792221278e-14,3.385039395e-14,8.344862044e-14,4.269396893e-14,7.48161079e-15,1.063502672e-14,3.058850671e-14,1.124864069e-14,1.242958499e-14,3.88959361e-14,1.599748689e-14,9.925394192e-15,4.012405534e-14,1.292303758e-14,9.167113749e-15
1.4375,6.414191326e-14,3.134042308e-14,1.216212746e-13,3.400791098e-14,1.924063669e-14,1.472858782e-14,1.32342066e-13,2.499212351e-15,4.15921533e-15,5.29902403e-15,1.824443147e-14,4.566410346e-14,1.87195731e-15,9.505259358e-14,2.099246359e-13,1.37359207e-13,9.879312046e-14,3.587153751e-14,2.518754112e-14,9.185992747e-14,3.933257319e-14,8.379548852e-15,1.250588719e-14,3.424024281e-14,1.143828486e-14,9.83418379e-15,3.856268291e-14,1.773399775e-14,9.780065016e-15,3.617558641e-14,1.252261282e-14,8.808076873e-15
1.4453125,4.875524165e-14,3.296713098e-14,1.193079274e-13,3.60247289e-14,2.067435863e-14,1.056497172e-14,1.286414213e-13,2.232112819e-15,3.315589922e-15,5.496443119e-15,2.135355036e-14,3.965926399e-14,1.610771289e-15,9.674533004e-14,1.720345982e-13,1.211177479e-13,9.165570649e-14,3.413156377e-14,1.776776532e-14,9.897148387e-14,3.664004595e-14,9.867697574e-15,1.403128971e-14,3.677016887e-14,1.207288842e-14,7.560353459e-15,3.558481285e-14,1.945959358e-14,9.671101491e-15,3.083179517e-14,1.236152668e-14,8.178568028e-15
1.453125,3.613950002e-14,3.322646281e-14,1.137791761e-13,3.652796973e-14,2.179147117e-14,7.483506733e-15,1.234413071e-13,2.142292953e-15,3.070988469e-15,5.742614841e-15,2.409389756e-14,3.348679125e-14,1.475434168e-15,9.58833226e-14,1.337958604e-13,1.029548561e-13,8.168398646e-14,3.146877727e-14,1.201822253e-14,1.031136376e-13,3.375096772e-14,1.13700789e-14,1.478646554e-14,3.848310395e-14,1.331299517e-14,5.690553732e-15,3.126303359e-14,2.117630381e-14,9.802922529e-15,2.581177115e-14,1.229358256e-14,7.304830374e-15
1.4609375,2.673612256e-14,3.195618092e-14,1.065739806e-13,3.560038842e-14,2.197154576e-14,5.63282423e-15,1.175968847e-13,2.249693399e-15,3.176276286e-15,5.851734112e-15,2.730598143e-14,2.726100562e-14,1.416692843e-15,9.273773039e-14,9.973560926e-14,8.416549245e-14,6.980472508e-14,2.922319804e-14,7.940569334e-15,1.051875854e-13,3.197924484e-14,1.234143291e-14,1.436820253e-14,4.045385257e-14,1.569632026e-14,4.166290733e-15,2.616616155e-14,2.355600995e-14,1.035201233e-14,2.173277057e-14,1.150170825e-14,6.244205308e-15
1.46875,2.088680469e-14,2.91027319e-14,9.68791708e-14,3.311582145e-14,2.12868364e-14,4.483367824e-15,1.101062395e-13,2.731098948e-15,3.699276655e-15,5.465793673e-15,3.056274675e-14,2.123458115e-14,1.52155418e-15,8.625261883e-14,7.376553623e-14,6.713970709e-14,5.830999289e-14,2.725169559e-14,5.320146519e-15,1.025948882e-13,3.015956948e-14,1.248989952e-14,1.28334026e-14,4.219485221e-14,1.934798204e-14,3.206799552e-15,2.147894024e-14,2.694057348e-14,1.143724509e-14,1.941879674e-14,1.030802918e-14,5.216838519e-15
1.4765625,1.855860138e-14,2.4823152e-14,8.48828051e-14,2.914713576e-14,1.948709408e-14,3.790494092e-15,1.007025153e-13,3.452366989e-15,4.54305175e-15,4.92588189e-15,3.406439219e-14,1.559012488e-14,1.726539614e-15,7.697970818e-14,5.585819692e-14,5.237441525e-14,4.781384094e-14,2.467740497e-14,3.856069998e-15,9.393293208e-14,2.670203424e-14,1.209837691e-14,1.091740289e-14,4.316459791e-14,2.372156817e-14,2.50643874e-15,1.791551419e-14,3.130169009e-14,1.290895319e-14,1.913775688e-14,8.692252727e-15,4.192530339e-15
1.484375,1.972739268e-14,2.045524483e-14,7.226932632e-14,2.496474724e-14,1.72255057e-14,3.997757033e-15,8.981079667e-14,4.337473966e-15,5.701197571e-15,4.4847578e-15,3.776960709e-14,1.086985281e-14,1.84020466e-15,6.575845117e-14,4.719041058e-14,4.045175101e-14,4.022434699e-14,2.378101452e-14,3.446928796e-15,8.172250162e-14,2.254123319e-14,1.088165526e-14,8.796207728e-15,4.458266197e-14,2.893136995e-14,2.252988029e-15,1.598440927e-14,3.742445932e-14,1.479238056e-14,2.031561862e-14,7.256220582e-15,3.200156111e-15
1.4921875,2.337865002e-14,1.683672907e-14,6.198330375e-14,2.152740476e-14,1.48937575e-14,4.863096841e-15,7.493378446e-14,5.384063191e-15,7.239655222e-15,4.079961095e-15,4.142679968e-14,7.602145714e-15,1.934131512e-15,5.355700982e-14,4.721918681e-14,3.238111476e-14,3.718266142e-14,2.538992277e-14,4.132694723e-15,6.77772477e-14,1.872085622e-14,9.140785586e-15,6.720350784e-15,4.695793955e-14,3.388290719e-14,2.559481856e-15,1.615794673e-14,4.525069305e-14,1.660619682e-14,2.215569472e-14,6.176275505e-15,2.45509437e-15
1.5,2.850629046e-14,1.375433774e-14,5.512957253e-14,1.875492735e-14,1.2241547e-14,6.756931306e-15,5.993586851e-14,6.789071212e-15,8.714205008e-15,3.907859524e-15,4.434020554e-14,5.486201981e-15,2.099073036e-15,4.171125719e-14,5.176766097e-14,2.662164591e-14,3.876349678e-14,2.888412988e-14,6.175539032e-15,5.211054163e-14,1.500868008e-14,7.609442938e-15,5.053314242e-15,4.968535864e-14,3.757924045e-14,2.874615717e-15,1.72095721e-14,5.370731154e-14,1.76165499e-14,2.35139531e-14,4.829464766e-15,1.901716326e-15
1.5078125,3.46459299e-14,1.15438281e-14,5.227438496e-14,1.675679737e-14,9.687763411e-15,1.019336479e-14,4.729145249e-14,8.278182928e-15,1.003101564e-14,4.243061738e-15,4.627680676e-14,4.359246725e-15,2.417481564e-15,3.133605418e-14,5.851926095e-14,2.253353818e-14,4.480279233e-14,3.458888781e-14,9.308344111e-15,3.68598528e-14,1.141415771e-14,6.668783672e-15,4.054464449e-15,5.179956049e-14,3.945414029e-14,3.101333447e-15,1.829238243e-14,6.234251876e-14,1.776558704e-14,2.357243272e-14,3.526608343e-15,1.557914883e-15
1.515625,3.977929583e-14,1.04571395e-14,5.354703533e-14,1.560934807e-14,7.850892369e-15,1.478212808e-14,3.605743683e-14,9.52376899e-15,1.113762337e-14,5.160377038e-15,4.762002605e-14,4.039000668e-15,2.989466659e-15,2.221789492e-14,6.621498219e-14,2.06222815e-14,5.487528067e-14,4.239263472e-14,1.370561377e-14,2.471432769e-14,8.741808362e-15,6.557528875e-15,3.722752024e-15,5.211768406e-14,3.911990827e-14,3.480928052e-15,1.929100073e-14,6.971718043e-14,1.722349907e-14,2.203253108e-14,2.860217696e-15,1.44637359e-15
1.5234375,4.325640122e-14,1.02136128e-14,5.843919333e-14,1.509940279e-14,6.829838376e-15,2.056540732e-14,2.791097876e-14,1.038782727e-14,1.162550783e-14,6.168110385e-15,4.731730717e-14,4.042975633e-15,4.119979754e-15,1.491658937e-14,7.116026201e-14,2.002239445e-14,6.63530666e-14,4.969062884e-14,1.86413127e-14,1.58018467e-14,7.110877337e-15,7.310799371e-15,3.777098935e-15,5.245721706e-14,3.655569876e-14,3.883155921e-15,1.901480412e-14,7.464979957e-14,1.560159091e-14,1.898891483e-14,2.531111399e-15,1.654679283e-15
1.53125,4.47338283e-14,1.073280492e-14,6.60950623e-14,1.522310135e-14,6.567367523e-15,2.808818258e-14,2.342907602e-14,1.092912336e-14,1.143841082e-14,7.442063317e-15,4.518410563e-14,4.049457003e-15,5.726836618e-15,9.409888497e-15,7.228255746e-14,2.028488876e-14,7.739153024e-14,5.542577277e-14,2.379610302e-14,9.785001119e-15,6.270557232e-15,8.785785076e-15,4.115940061e-15,5.402938227e-14,3.226527038e-14,4.139569533e-15,1.725463988e-14,7.664278902e-14,1.321536105e-14,1.510565156e-14,2.328750876e-15,2.272079655e-15
1.5390625,4.400640221e-14,1.166729936e-14,7.444604339e-14,1.535522583e-14,6.692257345e-15,3.690879705e-14,2.114474107e-14,1.104333909e-14,1.08384323e-14,8.905770218e-15,4.134588212e-14,3.892297172e-15,7.911845896e-15,5.645895837e-15,6.854191597e-14,2.098908545e-14,8.64638779e-14,5.928538514e-14,2.824677987e-14,6.247777048e-15,5.832914984e-15,1.072728743e-14,4.592477899e-15,5.498639073e-14,2.701300386e-14,4.191923463e-15,1.458111499e-14,7.51370617e-14,1.108725894e-14,1.099265838e-14,2.27712605e-15,3.394938619e-15
1.546875,4.08964971e-14,1.209629683e-14,8.033050022e-14,1.463129118e-14,6.974535902e-15,4.616601368e-14,1.936423888e-14,1.065459892e-14,9.796118367e-15,9.916816041e-15,3.758946968e-14,3.756450288e-15,1.011421437e-14,3.241159915e-15,6.096744644e-14,2.137035345e-14,9.032591772e-14,5.9794124e-14,3.077715339e-14,4.323084837e-15,5.487843137e-15,1.226932752e-14,4.871384624e-15,5.616378278e-14,2.161257357e-14,4.238721169e-15,1.180563655e-14,6.986681539e-14,9.890752604e-15,7.471013689e-15,2.432572729e-15,4.961834592e-15
1.5546875,3.639056567e-14,1.197261576e-14,8.370288198e-14,1.317095933e-14,7.349350343e-15,5.630522324e-14,1.832657539e-14,9.88187959e-15,8.279495613e-15,1.022866025e-14,3.436199365e-14,3.680445727e-15,1.19820547e-14,2.034121262e-15,5.158651494e-14,2.117540855e-14,8.905521892e-14,5.673745085e-14,3.144594431e-14,3.018998761e-15,5.256662189e-15,1.314072093e-14,4.970426502e-15,5.797464921e-14,1.702200613e-14,4.405336218e-15,9.066323315e-15,6.206218023e-14,9.598255481e-15,4.56239299e-15,2.745014793e-15,6.876382421e-15
1.5625,3.132091359e-14,1.157375715e-14,8.398197823e-14,1.151884148e-14,7.939581223e-15,6.683757782e-14,1.675404647e-14,9.055323902e-15,6.812477114e-15,1.07178828e-14,3.142105212e-14,3.693637657e-15,1.336511203e-14,1.600249688e-15,4.146999966e-14,1.99830658e-14,8.229260734e-14,5.118902246e-14,3.100462638e-14,2.26648122e-15,5.41479297e-15,1.370007822e-14,5.089519954e-15,5.965239489e-14,1.394610243e-14,4.596671843e-15,6.850230558e-15,5.271402913e-14,1.017016282e-14,2.47034219e-15,3.164243289e-15,8.983860172e-15
1.5703125,2.656679947e-14,1.091631089e-14,8.2229231e-14,9.826627359e-15,8.238642668e-15,7.705880504e-14,1.413215761e-14,8.325118561e-15,5.575943509e-15,1.11821629e-14,2.835552552e-14,3.804435371e-15,1.409255501e-14,1.645659588e-15,3.079589101e-14,1.797668481e-14,7.257291875e-14,4.540455349e-14,2.95484657e-14,1.864193504e-15,5.922805017e-15,1.38950397e-14,5.268630331e-15,5.980692502e-14,1.259543933e-14,4.65792662e-15,5.548517674e-15,4.189463297e-14,1.153153791e-14,1.327537017e-15,3.346665654e-15,1.086732603e-14
1.578125,2.219879226e-14,9.479214795e-15,7.845091923e-14,8.052978622e-15,8.076815806e-15,8.592460339e-14,1.155599676e-14,7.545512535e-15,4.423734649e-15,1.142701495e-14,2.651529478e-14,4.219157613e-15,1.385449976e-14,1.76353144e-15,2.267205652e-14,1.588093318e-14,6.111172192e-14,3.905563555e-14,2.701117864e-14,1.621982125e-15,7.275089658e-15,1.33815294e-14,5.280434502e-15,5.890332103e-14,1.312619747e-14,4.739165408e-15,5.077101182e-15,3.192704847e-14,1.268339091e-14,9.830090738e-16,3.507991397e-15,1.210707176e-14
1.5859375,1.877652221e-14,7.624817083e-15,7.310386192e-14,6.523622226e-15,7.70251528e-15,9.242375274e-14,8.946363317e-15,6.954864489e-15,3.525958176e-15,1.189673534e-14,2.575048035e-14,4.998395991e-15,1.266551794e-14,1.750930328e-15,1.630098474e-14,1.363914208e-14,4.963565328e-14,3.33147927e-14,2.443191132e-14,1.71956966e-15,9.819967766e-15,1.250373839e-14,5.130612865e-15,5.633560888e-14,1.493813126e-14,4.87534647e-15,5.281132784e-15,2.365898059e-14,1.314232066e-14,1.294953792e-15,3.844836913e-15,1.239245908e-14
1.59375,1.687953287e-14,6.037938977e-15,6.744081034e-14,5.629895253e-15,7.347056329e-15,9.632307183e-14,6.684334144e-15,6.740954936e-15,3.077861306e-15,1.303957733e-14,2.573450055e-14,6.492413183e-15,1.114341868e-14,1.688114204e-15,1.228115891e-14,1.169688288e-14,4.004349832e-14,2.979441996e-14,2.2876481e-14,2.287780982e-15,1.384968001e-14,1.19256592e-14,5.038726714e-15,5.237744536e-14,1.771367968e-14,4.958141281e-15,6.10890328e-15,1.768922106e-14,1.35230727e-14,2.256596874e-15,4.291203623e-15,1.187451153e-14
1.6015625,1.62712535e-14,4.540887602e-15,6.307574674e-14,5.371495995e-15,6.583474392e-15,9.672868768e-14,5.638539994e-15,6.735521867e-15,3.091773075e-15,1.498097664e-14,2.725847946e-14,8.685986248e-15,9.948906107e-15,1.686706917e-15,1.029491777e-14,1.041587867e-14,3.3262067e-14,2.959570257e-14,2.257633896e-14,3.597579396e-15,1.943315026e-14,1.172474391e-14,5.005751616e-15,4.709360976e-14,2.077836126e-14,4.828311983e-15,7.112065622e-15,1.40329302e-14,1.370300708e-14,3.747215164e-15,4.660964671e-15,1.062377299e-14
1.609375,1.686165273e-14,3.311737315e-15,5.929492599e-14,5.628867444e-15,5.709021967e-15,9.234106295e-14,5.499225331e-15,6.647899792e-15,3.342318661e-15,1.704227196e-14,3.107321998e-14,1.121753831e-14,9.419073144e-15,1.690155126e-15,9.70519743e-15,9.882029293e-15,2.937517383e-14,3.261057856e-14,2.313985289e-14,5.614736305e-15,2.57492711e-14,1.185028615e-14,4.746518116e-15,4.286843866e-14,2.330816789e-14,4.57221179e-15,8.010453506e-15,1.259367415e-14,1.355180967e-14,5.830655486e-15,5.310232869e-15,8.77962023e-15
1.6171875,1.785412468e-14,2.470844041e-15,5.483100809e-14,5.897602897e-15,4.818810033e-15,8.464125718e-14,5.965512036e-15,6.729567731e-15,4.081505937e-15,1.922198931e-14,3.500691706e-14,1.459197168e-14,9.699885352e-15,2.262721044e-15,1.032461856e-14,9.645432166e-15,2.763903163e-14,3.748658632e-14,2.361522643e-14,8.021466976e-15,3.189701119e-14,1.207187731e-14,4.239458992e-15,3.746208926e-14,2.493735169e-14,4.188951007e-15,8.820258998e-15,1.273030789e-14,1.415781402e-14,8.189595915e-15,6.096589813e-15,6.464919311e-15
1.625,1.893517625e-14,2.141748739e-15,5.00950679e-14,6.215039549e-15,4.09250314e-15,7.409104331e-14,6.710259161e-15,6.841942403e-15,5.162392687e-15,2.136736298e-14,3.92785577e-14,1.849394215e-14,1.062129619e-14,3.726188514e-15,1.154677235e-14,9.420790366e-15,2.709759128e-14,4.398126418e-14,2.414483415e-14,1.115174319e-14,3.713592431e-14,1.240424038e-14,3.664502078e-15,3.311596878e-14,2.578108522e-14,3.725896958e-15,9.216257282e-15,1.378480476e-14,1.56454374e-14,1.00192994e-14,6.797297316e-15,4.42780416e-15
1.6328125,1.944777345e-14,2.312939715e-15,4.549677245e-14,6.296674348e-15,3.475831978e-15,6.130737177e-14,7.658146254e-15,6.51135929e-15,6.091674046e-15,2.220246731e-14,4.285836371e-14,2.202503773e-14,1.198292749e-14,6.22209995e-15,1.340098937e-14,9.111084489e-15,2.626002697e-14,4.919445675e-14,2.378618108e-14,1.398857446e-14,4.027827859e-14,1.267833287e-14,3.114633776e-15,3.05529454e-14,2.568700136e-14,3.260853035e-15,9.152677837e-15,1.539543245e-14,1.76805431e-14,1.118402675e-14,7.382548645e-15,2.835428642e-15
1.640625,1.902271037e-14,2.982460323e-15,4.040189781e-14,6.185451878e-15,3.086621134e-15,4.800156505e-14,8.886731986e-15,5.896991855e-15,6.913825036e-15,2.178439011e-14,4.467319612e-14,2.480276442e-14,1.327202183e-14,1.006560799e-14,1.564661215e-14,8.408353546e-15,2.505660593e-14,5.150487203e-14,2.190159057e-14,1.61006909e-14,4.130691514e-14,1.263940618e-14,2.492630844e-15,2.835910944e-14,2.506914456e-14,2.750783597e-15,8.743678937e-15,1.678376227e-14,2.00008639e-14,1.149643323e-14,7.747400969e-15,1.605399889e-15
1.6484375,1.786234878e-14,4.241913276e-15,3.532112633e-14,5.899872646e-15,2.976428842e-15,3.619928212e-14,9.861123389e-15,5.173719393e-15,7.726394994e-15,2.043223453e-14,4.328737768e-14,2.62760308e-14,1.383243846e-14,1.519598475e-14,1.781034397e-14,7.81003191e-15,2.365343937e-14,5.142030733e-14,1.886125334e-14,1.710894853e-14,3.992183483e-14,1.189751673e-14,1.768210275e-15,2.630080527e-14,2.3708052e-14,2.288452444e-15,7.952354856e-15,1.701462321e-14,2.168388482e-14,1.11262808e-14,7.949830184e-15,8.896936952e-16
1.65625,1.592515464e-14,6.086712181e-15,3.060786109e-14,5.698899161e-15,3.347598311e-15,2.652697548e-14,1.09366777e-14,4.394637427e-15,8.153019202e-15,1.833325057e-14,4.065132119e-14,2.661888934e-14,1.341580503e-14,2.166783613e-14,2.102288764e-14,7.691558318e-15,2.235176949e-14,4.886293282e-14,1.557583085e-14,1.691873147e-14,3.590675609e-14,1.07511928e-14,1.201923047e-15,2.518831616e-14,2.196542257e-14,2.044601988e-15,7.061338806e-15,1.651940115e-14,2.236129326e-14,1.013606425e-14,8.030741965e-15,6.834739807e-16
1.6640625,1.322398143e-14,8.537116759e-15,2.6661686e-14,5.965267549e-15,4.36234205e-15,1.926417527e-14,1.228360654e-14,3.553811397e-15,8.120150283e-15,1.571005735e-14,3.889113759e-14,2.542776348e-14,1.274946932e-14,2.9276258e-14,2.580231785e-14,7.963866849e-15,2.132164205e-14,4.348264232e-14,1.25422477e-14,1.536035127e-14,3.100138104e-14,9.468246753e-15,8.530614672e-16,2.549917142e-14,2.05001246e-14,2.042257851e-15,6.239551881e-15,1.623347697e-14,2.191527936e-14,8.884012513e-15,8.100913622e-15,9.635665074e-16
1.671875,1.052269851e-14,1.188355585e-14,2.365211661e-14,7.06963397e-15,6.350786481e-15,1.43171209e-14,1.46726138e-14,2.738520346e-15,7.586114288e-15,1.327686755e-14,3.807929901e-14,2.312414237e-14,1.240450028e-14,3.777538836e-14,3.150430829e-14,9.415882842e-15,2.214368914e-14,3.714277855e-14,1.036305884e-14,1.283617289e-14,2.565950815e-14,8.75477697e-15,7.06375223e-16,2.681972722e-14,1.901511664e-14,2.474523241e-15,5.766647744e-15,1.571389698e-14,1.998199637e-14,8.131036676e-15,8.58389653e-15,1.839629167e-15
1.6796875,8.322750053e-15,1.579721683e-14,2.141398643e-14,8.861075762e-15,9.216265788e-15,1.150338025e-14,1.722696602e-14,2.076485173e-15,6.653750656e-15,1.123539281e-14,3.924642834e-14,2.024503037e-14,1.289006721e-14,4.567218394e-14,3.728496433e-14,1.150334189e-14,2.442699143e-14,3.105827734e-14,9.49918504e-15,9.618710718e-15,2.011936633e-14,9.003686056e-15,7.211204465e-16,2.881071484e-14,1.741776888e-14,3.202889534e-15,5.714217986e-15,1.511762751e-14,1.674403994e-14,8.109527696e-15,9.414789834e-15,3.16445949e-15
1.6875,6.874670618e-15,2.030036502e-14,2.020665571e-14,1.155161873e-14,1.291872187e-14,1.049687145e-14,1.914759952e-14,1.790545796e-15,5.702193263e-15,9.570948741e-15,4.31288296e-14,1.710756569e-14,1.496360875e-14,5.247366906e-14,4.388011096e-14,1.440346802e-14,2.858787871e-14,2.6495595e-14,9.941040293e-15,6.897164453e-15,1.500180862e-14,1.022536176e-14,8.856549327e-16,3.166613022e-14,1.578091608e-14,4.171872381e-15,5.779994438e-15,1.485756844e-14,1.295960081e-14,8.691470286e-15,1.074463672e-14,5.041526655e-15
1.6953125,5.893182917e-15,2.433225803e-14,1.89826311e-14,1.443674182e-14,1.675418636e-14,1.057484775e-14,2.084723951e-14,1.683787676e-15,4.703755025e-15,8.513992786e-15,4.906802177e-14,1.360778999e-14,1.862702191e-14,5.674829446e-14,4.953836899e-14,1.703584057e-14,3.238731258e-14,2.290974786e-14,1.090657381e-14,4.8439495e-15,1.105017417e-14,1.265197801e-14,1.282999138e-15,3.460383365e-14,1.42537008e-14,5.372399107e-15,5.935694291e-15,1.502691081e-14,9.111186535e-15,9.421008478e-15,1.234095562e-14,7.260559299e-15
1.703125,5.564282453e-15,2.706871517e-14,1.75181551e-14,1.656445836e-14,1.98271946e-14,1.171495285e-14,2.277247086e-14,1.564913169e-15,3.579558732e-15,8.319515735e-15,5.610361902e-14,1.09866969e-14,2.325165905e-14,5.880522028e-14,5.481253706e-14,1.908306062e-14,3.552217601e-14,2.034013171e-14,1.192013254e-14,3.197264825e-15,8.352148506e-15,1.628946335e-14,1.917879183e-15,3.674506758e-14,1.340047679e-14,6.865677561e-15,5.918628315e-15,1.524408015e-14,5.88957857e-15,1.00989753e-14,1.388146505e-14,9.631753138e-15
1.7109375,5.509636048e-15,2.846171058e-14,1.551247037e-14,1.766564485e-14,2.179563677e-14,1.409050211e-14,2.386076871e-14,1.625095768e-15,2.563546441e-15,8.68732601e-15,6.367454824e-14,9.351369618e-15,2.816958949e-14,5.82985239e-14,5.963441996e-14,2.052730553e-14,3.85349332e-14,1.793088678e-14,1.227035461e-14,2.211313235e-15,6.6525821e-15,2.053454217e-14,2.679391146e-15,3.838674166e-14,1.289854253e-14,8.722215543e-15,6.166392499e-15,1.56669113e-14,3.414950151e-15,1.042017193e-14,1.541467702e-14,1.209325461e-14
1.71875,6.221520927e-15,2.846248598e-14,1.362202669e-14,1.792086826e-14,2.273091545e-14,1.743480321e-14,2.353190275e-14,1.722281623e-15,1.774203118e-15,9.485653238e-15,6.968457264e-14,8.403609607e-15,3.217554456e-14,5.47639533e-14,6.346815509e-14,2.150221957e-14,4.19023098e-14,1.575477036e-14,1.195101854e-14,1.875117533e-15,6.355533491e-15,2.465810477e-14,3.666390438e-15,3.891282753e-14,1.276421274e-14,1.063812417e-14,6.906363645e-15,1.544899198e-14,2.074897313e-15,1.055294658e-14,1.660488897e-14,1.398300653e-14
1.7265625,8.557809626e-15,2.631037067e-14,1.286880936e-14,1.687860324e-14,2.181952397e-14,2.147484803e-14,2.388962223e-14,1.637769913e-15,1.318648771e-15,1.080842175e-14,7.248936763e-14,8.663437218e-15,3.439178452e-14,4.827076875e-14,6.665055733e-14,2.280396271e-14,4.729450457e-14,1.414276367e-14,1.127146772e-14,2.051888033e-15,7.68187311e-15,2.831451314e-14,4.910417507e-15,3.706962624e-14,1.322782981e-14,1.230605964e-14,8.362989533e-15,1.423812249e-14,2.310090979e-15,1.114506183e-14,1.673499408e-14,1.492281937e-14
1.734375,1.405037045e-14,2.329722313e-14,1.407389993e-14,1.514269235e-14,2.036094578e-14,2.684980452e-14,2.667963169e-14,1.527153324e-15,1.200310662e-15,1.309870073e-14,7.373097681e-14,1.091126634e-14,3.45920141e-14,4.208351288e-14,7.266972182e-14,2.688350712e-14,5.753301805e-14,1.370060196e-14,1.059175658e-14,2.602883147e-15,1.04165939e-14,3.101563763e-14,6.446072759e-15,3.384176212e-14,1.445730535e-14,1.434719376e-14,1.186873036e-14,1.261681574e-14,4.579004056e-15,1.360895936e-14,1.699431362e-14,1.520005046e-14
1.7421875,2.463253127e-14,2.151059089e-14,1.928307712e-14,1.461300356e-14,2.001854765e-14,3.41929165e-14,3.253589272e-14,1.563967805e-15,1.41439914e-15,1.566232362e-14,7.292961223e-14,1.519528523e-14,3.322369916e-14,3.939113173e-14,8.339315589e-14,3.599850972e-14,7.52126753e-14,1.527822898e-14,1.149455134e-14,3.573390363e-15,1.447042679e-14,3.244553861e-14,7.95878977e-15,3.108962704e-14,1.576711657e-14,1.666608588e-14,1.817189762e-14,1.167346249e-14,9.263610802e-15,1.930209015e-14,1.849327639e-14,1.470162491e-14
1.75,4.142139775e-14,2.146541451e-14,2.852437276e-14,1.574257083e-14,2.141531341e-14,4.181684265e-14,4.147753522e-14,1.747941144e-15,1.985875008e-15,1.819116526e-14,6.99272138e-14,2.164186132e-14,3.106369402e-14,4.136764584e-14,1.002530676e-13,5.102973649e-14,9.909262605e-14,1.916689755e-14,1.356529516e-14,4.993111135e-15,1.911668345e-14,3.285673385e-14,9.332953028e-15,2.827340877e-14,1.680175017e-14,1.892783344e-14,2.736966556e-14,1.156804212e-14,1.661319191e-14,2.834954032e-14,2.073115835e-14,1.343304618e-14
1.7578125,6.510005127e-14,2.372466132e-14,4.150443658e-14,1.888146613e-14,2.50216719e-14,4.9350346e-14,5.196000358e-14,2.049616348e-15,2.746129782e-15,2.041092858e-14,6.60068532e-14,3.048371469e-14,2.865846168e-14,4.97065516e-14,1.244704325e-13,7.201291563e-14,1.2724369e-13,2.589833837e-14,1.682490463e-14,6.782824471e-15,2.326141028e-14,3.233236076e-14,1.053233995e-14,2.517898866e-14,1.755138047e-14,2.128340952e-14,3.899865612e-14,1.204675133e-14,2.656612417e-14,4.06699934e-14,2.402604628e-14,1.177781729e-14
1.765625,9.50227761e-14,2.872363237e-14,5.793922669e-14,2.424851225e-14,3.110933473e-14,5.804110112e-14,6.269271892e-14,2.429273453e-15,3.641560778e-15,2.214738123e-14,6.256796253e-14,4.171576744e-14,2.66928478e-14,6.455560408e-14,1.543963233e-13,9.831354308e-14,1.575191428e-13,3.484186413e-14,2.102818447e-14,8.771503081e-15,2.651584077e-14,3.064967837e-14,1.16010627e-14,2.268780384e-14,1.811328247e-14,2.391131939e-14,5.255727309e-14,1.448173014e-14,3.8618646e-14,5.537073344e-14,2.890652459e-14,9.902686748e-15
1.7734375,1.278129971e-13,3.501481962e-14,7.489343868e-14,3.035833144e-14,3.78839388e-14,6.721597327e-14,7.289051187e-14,2.806964645e-15,4.638176847e-15,2.27265304e-14,5.825816728e-14,5.387890106e-14,2.530549233e-14,8.345205443e-14,1.84149324e-13,1.2534495e-13,1.83915095e-13,4.49187701e-14,2.443982351e-14,1.065107447e-14,2.761594727e-14,2.737663711e-14,1.20264357e-14,2.085894946e-14,1.793560826e-14,2.604332257e-14,6.614736584e-14,1.777710518e-14,5.109748369e-14,7.025984386e-14,3.417117154e-14,7.832851773e-15
1.78125,1.589809334e-13,4.09597508e-14,8.953899597e-14,3.567620943e-14,4.366448624e-14,7.539121608e-14,8.111832497e-14,2.994872271e-15,5.4769979e-15,2.166576451e-14,5.516316707e-14,6.575369281e-14,2.451574e-14,1.043425808e-13,2.131854738e-13,1.500715585e-13,2.029875848e-13,5.577497863e-14,2.587916263e-14,1.250641391e-14,2.648674736e-14,2.341082252e-14,1.189317335e-14,1.899049681e-14,1.703017873e-14,2.748433288e-14,7.708477403e-14,2.103528868e-14,6.176460685e-14,8.25899188e-14,3.784075606e-14,6.139848252e-15
1.7890625,1.853042062e-13,4.512064821e-14,1.008327524e-13,3.900663494e-14,4.766524959e-14,8.205258635e-14,8.266718682e-14,3.153566963e-15,6.095331386e-15,2.010677986e-14,5.417514925e-14,7.623925103e-14,2.442229754e-14,1.234643297e-13,2.354925609e-13,1.688709295e-13,2.12552061e-13,6.713565021e-14,2.568247602e-14,1.45275849e-14,2.342524648e-14,1.950804637e-14,1.197089898e-14,1.661643396e-14,1.578558318e-14,2.85172431e-14,8.377662184e-14,2.422583121e-14,6.955548732e-14,9.11777454e-14,3.955407242e-14,4.902549486e-15
1.796875,2.028944324e-13,4.610726837e-14,1.079066353e-13,3.932749515e-14,4.809751745e-14,8.787803284e-14,7.802416426e-14,3.532641334e-15,6.727727905e-15,1.846523927e-14,5.321333177e-14,8.32883782e-14,2.449463885e-14,1.354157407e-13,2.425846037e-13,1.780253678e-13,2.120536938e-13,7.884165272e-14,2.438788837e-14,1.70287532e-14,2.008786646e-14,1.553164568e-14,1.201496599e-14,1.449428898e-14,1.423300065e-14,2.859061154e-14,8.605414875e-14,2.609461323e-14,7.303585403e-14,9.476310756e-14,3.921304491e-14,4.00637848e-15
1.8046875,2.066849655e-13,4.369387854e-14,1.087408646e-13,3.640735977e-14,4.501968067e-14,9.189678421e-14,6.983397712e-14,4.151833546e-15,7.328138741e-15,1.676415709e-14,5.179662385e-14,8.53467468e-14,2.365087356e-14,1.384260147e-13,2.349782909e-13,1.76579392e-13,2.040044237e-13,9.12268385e-14,2.197236055e-14,2.039773706e-14,1.755308983e-14,1.130051199e-14,1.192764478e-14,1.298500299e-14,1.249035599e-14,2.746245145e-14,8.37405949e-14,2.620540254e-14,7.173940069e-14,9.255007935e-14,3.637230211e-14,3.430677768e-15
