"Time","Fp1","AF3","F7","F3","FC1","FC5","T7","C3","CP1","CP5","P7","P3","Pz","PO3","O1","Oz","O2","PO4","P4","P8","CP6","CP2","C4","T8","FC6","FC2","F4","F8","AF4","Fp2","Fz","Cz"
0.0078125,5.385815132e-13,1.096709777e-12,1.55608904e-12,9.169164764e-13,2.0477763e-13,5.31661735e-13,5.659960142e-13,1.5751897e-13,7.645329366e-13,1.151684061e-13,4.981710719e-13,4.715920127e-13,7.174739851e-13,1.308363221e-12,1.102346748e-12,5.241421945e-13,6.654610028e-13,1.872929816e-12,5.838807273e-13,6.548089332e-13,3.841875724e-13,2.428958577e-13,1.626062165e-13,3.643200733e-13,4.819721003e-13,2.894603882e-13,6.167655974e-13,1.034155567e-12,5.437037811e-13,6.92053237e-13,5.538204616e-13,3.291367146e-13
0.015625,5.565962308e-13,1.10633697e-12,1.574870779e-12,9.254916301e-13,2.08647567e-13,5.39924375e-13,5.881735973e-13,1.613554775e-13,7.854600181e-13,1.178501438e-13,5.064732338e-13,4.834974576e-13,7.442344349e-13,1.34549399e-12,1.119527573e-12,5.358470592e-13,6.778979318e-13,1.900072622e-12,5.999978422e-13,6.718081604e-13,3.859357504e-13,2.525247951e-13,1.658792219e-13,3.737947094e-13,4.962974539e-13,2.948075268e-13,6.309943917e-13,1.061417351e-12,5.515991997e-13,7.092123169e-13,5.586888457e-13,3.384935142e-13
0.0234375,5.750207087e-13,1.115619795e-12,1.593284256e-12,9.337780654e-13,2.125748869e-13,5.481672653e-13,6.110180575e-13,1.652112587e-13,8.063868755e-13,1.205503512e-13,5.146016713e-13,4.952897596e-13,7.71738739e-13,1.382948774e-12,1.136200157e-12,5.47451343e-13,6.905852566e-13,1.926678913e-12,6.16474974e-13,6.890017435e-13,3.875665936e-13,2.624741833e-13,1.692007177e-13,3.833316782e-13,5.107105245e-13,3.000644249e-13,6.452583348e-13,1.088640504e-12,5.594888333e-13,7.26651347e-13,5.634107259e-13,3.480165235e-13
0.03125,5.938702109e-13,1.124402988e-12,1.610980206e-12,9.416550175e-13,2.165518501e-13,5.563933519e-13,6.345571412e-13,1.690870488e-13,8.274647113e-13,1.233339474e-13,5.227018226e-13,5.06843786e-13,7.998906422e-13,1.420087093e-12,1.152260402e-12,5.588858469e-13,7.033074046e-13,1.952720803e-12,6.332333226e-13,7.064545539e-13,3.890186508e-13,2.727163456e-13,1.725013473e-13,3.928450837e-13,5.249649693e-13,3.052436126e-13,6.594214909e-13,1.11552482e-12,5.67275147e-13,7.441194859e-13,5.679445601e-13,3.576286508e-13
0.0390625,6.130767675e-13,1.132648562e-12,1.627759401e-12,9.491111329e-13,2.206097213e-13,5.645467234e-13,6.585059658e-13,1.729621285e-13,8.485815099e-13,1.262175494e-13,5.307469168e-13,5.183214694e-13,8.286832364e-13,1.45673832e-12,1.167777312e-12,5.703426773e-13,7.159763124e-13,1.978182944e-12,6.502125938e-13,7.242817875e-13,3.903441169e-13,2.831897421e-13,1.758318355e-13,4.022805758e-13,5.391358699e-13,3.104890505e-13,6.736129131e-13,1.142325344e-12,5.748362356e-13,7.613947419e-13,5.722934094e-13,3.672311274e-13
0.046875,6.326114749e-13,1.140524403e-12,1.643773271e-12,9.563004543e-13,2.247123899e-13,5.72644872e-13,6.82544362e-13,1.767613405e-13,8.695407713e-13,1.291497214e-13,5.386446782e-13,5.297393591e-13,8.580748549e-13,1.493377514e-12,1.183000567e-12,5.818978734e-13,7.288072827e-13,2.00329846e-12,6.675298607e-13,7.422256606e-13,3.915651778e-13,2.938255604e-13,1.792190358e-13,4.117105465e-13,5.534044466e-13,3.157462445e-13,6.879027584e-13,1.169302804e-12,5.822142854e-13,7.78472704e-13,5.76490452e-13,3.767587751e-13
0.0546875,6.524956753e-13,1.148069479e-12,1.659240314e-12,9.632386971e-13,2.287933985e-13,5.806832289e-13,7.070326725e-13,1.804174344e-13,8.903571742e-13,1.321540649e-13,5.464485706e-13,5.41027533e-13,8.880057506e-13,1.530123042e-12,1.197829585e-12,5.935035059e-13,7.420690072e-13,2.028513449e-12,6.853054665e-13,7.598671783e-13,3.926184347e-13,3.047042149e-13,1.826618084e-13,4.211870904e-13,5.678200009e-13,3.209152581e-13,7.022497133e-13,1.19642492e-12,5.895184731e-13,7.954825613e-13,5.805184843e-13,3.862537396e-13
0.0625,6.726748646e-13,1.155240268e-12,1.674061975e-12,9.698791946e-13,2.328748936e-13,5.884561267e-13,7.322641423e-13,1.839461376e-13,9.110729579e-13,1.35247511e-13,5.543660125e-13,5.522994657e-13,9.185808026e-13,1.56671195e-12,1.212308188e-12,6.05179138e-13,7.554855454e-13,2.053652515e-12,7.035221542e-13,7.772626511e-13,3.935304187e-13,3.159480271e-13,1.861946549e-13,4.305494255e-13,5.82333298e-13,3.260301345e-13,7.166396304e-13,1.223616664e-12,5.967827055e-13,8.125350327e-13,5.843822055e-13,3.957315202e-13
0.0703125,6.932870248e-13,1.162072607e-12,1.688154619e-12,9.76257431e-13,2.369519492e-13,5.958854761e-13,7.578209595e-13,1.874031713e-13,9.316916736e-13,1.383593039e-13,5.624396553e-13,5.635861066e-13,9.499414467e-13,1.603126256e-12,1.226703022e-12,6.169656597e-13,7.687346445e-13,2.07812741e-12,7.222391219e-13,7.947507909e-13,3.944586698e-13,3.275054248e-13,1.897987266e-13,4.395340583e-13,5.968042254e-13,3.31023996e-13,7.310479387e-13,1.250733286e-12,6.039345848e-13,8.295902903e-13,5.880900003e-13,4.051335979e-13
0.078125,7.145990505e-13,1.168495044e-12,1.701673976e-12,9.822678937e-13,2.409608565e-13,6.031837241e-13,7.835692655e-13,1.908102113e-13,9.523330147e-13,1.414600012e-13,5.703456301e-13,5.74708969e-13,9.820226376e-13,1.639391507e-12,1.240430425e-12,6.287417442e-13,7.821419388e-13,2.101993051e-12,7.415243982e-13,8.123327153e-13,3.95465354e-13,3.392841952e-13,1.934234217e-13,4.481500062e-13,6.111466027e-13,3.357532527e-13,7.454399551e-13,1.277675537e-12,6.109054871e-13,8.466113341e-13,5.915880928e-13,4.144550113e-13
0.0859375,7.364212164e-13,1.174322001e-12,1.714435282e-12,9.877204302e-13,2.449693157e-13,6.103995343e-13,8.09776426e-13,1.941715343e-13,9.730476204e-13,1.445783516e-13,5.780344551e-13,5.856206753e-13,1.014679649e-12,1.675356553e-12,1.253092378e-12,6.403904154e-13,7.958312245e-13,2.125259947e-12,7.611540831e-13,8.298433574e-13,3.963855794e-13,3.512904166e-13,1.970951203e-13,4.567248159e-13,6.254731342e-13,3.403165167e-13,7.598289558e-13,1.304600099e-12,6.177609418e-13,8.636187889e-13,5.948698935e-13,4.237659635e-13
0.09375,7.584980529e-13,1.179523586e-12,1.726174056e-12,9.926691973e-13,2.490925585e-13,6.174421512e-13,8.363237613e-13,1.974875172e-13,9.936880563e-13,1.477527138e-13,5.859281058e-13,5.965000361e-13,1.047905351e-12,1.711237678e-12,1.265706895e-12,6.521510415e-13,8.095660466e-13,2.147462878e-12,7.80915878e-13,8.472890075e-13,3.970407606e-13,3.635411166e-13,2.008395478e-13,4.654587579e-13,6.398776995e-13,3.449082946e-13,7.742808899e-13,1.331626305e-12,6.246218672e-13,8.805881458e-13,5.980097715e-13,4.33136801e-13
0.1015625,7.811277232e-13,1.184146497e-12,1.737238791e-12,9.972101528e-13,2.532685141e-13,6.243934987e-13,8.631319944e-13,2.007088571e-13,1.014179647e-12,1.510240289e-13,5.940474065e-13,6.073423728e-13,1.081734465e-12,1.74725176e-12,1.278403716e-12,6.642236747e-13,8.236608598e-13,2.168881177e-12,8.00940366e-13,8.645881934e-13,3.974578064e-13,3.760899892e-13,2.046251754e-13,4.742410795e-13,6.542415817e-13,3.494616847e-13,7.887675613e-13,1.358565389e-12,6.314567908e-13,8.975583842e-13,6.009637226e-13,4.425821689e-13
0.109375,8.043874243e-13,1.188188229e-12,1.747967461e-12,1.001294905e-12,2.574092272e-13,6.313083078e-13,8.904218243e-13,2.037676799e-13,1.034547879e-12,1.543557241e-13,6.021278623e-13,6.178092411e-13,1.116153055e-12,1.782640798e-12,1.289884973e-12,6.762918239e-13,8.382037991e-13,2.190025142e-12,8.213726481e-13,8.815494643e-13,3.977149214e-13,3.890564448e-13,2.08445669e-13,4.829584994e-13,6.68326761e-13,3.538199344e-13,8.030507506e-13,1.385064456e-12,6.381117357e-13,9.14472027e-13,6.035985821e-13,4.520749406e-13
0.1171875,8.277965448e-13,1.191802701e-12,1.758220933e-12,1.005062686e-12,2.615731587e-13,6.38243282e-13,9.181990114e-13,2.066777063e-13,1.054764213e-12,1.57705559e-13,6.103238236e-13,6.278136142e-13,1.151208541e-12,1.816708575e-12,1.300325955e-12,6.881534889e-13,8.526299606e-13,2.210456223e-12,8.422314578e-13,8.982895535e-13,3.978036887e-13,4.024769516e-13,2.123344125e-13,4.91589522e-13,6.820166991e-13,3.580361366e-13,8.170417909e-13,1.41093012e-12,6.445756262e-13,9.310426509e-13,6.059838104e-13,4.616000264e-13
0.125,8.512817698e-13,1.195109384e-12,1.767802381e-12,1.008629342e-12,2.65766017e-13,6.453103622e-13,9.464021624e-13,2.095284615e-13,1.074879528e-12,1.611421906e-13,6.186444545e-13,6.377386194e-13,1.186915161e-12,1.85009024e-12,1.310668188e-12,7.000597743e-13,8.671397954e-13,2.229777289e-12,8.635259145e-13,9.151231914e-13,3.97835716e-13,4.16246757e-13,2.163298902e-13,5.000668653e-13,6.955439407e-13,3.62186985e-13,8.310167946e-13,1.436383974e-12,6.509979179e-13,9.472909307e-13,6.082679347e-13,4.711154738e-13
0.1328125,8.751308293e-13,1.197813399e-12,1.776376269e-12,1.011631619e-12,2.698577417e-13,6.522780775e-13,9.749328935e-13,2.123755744e-13,1.094914276e-12,1.646865651e-13,6.268165443e-13,6.47721425e-13,1.223033949e-12,1.883459567e-12,1.320377977e-12,7.120002464e-13,8.821992892e-13,2.247998938e-12,8.850201906e-13,9.32016411e-13,3.979590153e-13,4.301920643e-13,2.204435808e-13,5.084221086e-13,7.092153678e-13,3.661892744e-13,8.45065805e-13,1.461717784e-12,6.573688159e-13,9.634894777e-13,6.103340664e-13,4.805275766e-13
0.140625,8.992180946e-13,1.199649137e-12,1.783575505e-12,1.013825838e-12,2.738326645e-13,6.588536255e-13,1.003472087e-12,2.151839436e-13,1.114596454e-12,1.682858849e-13,6.350723101e-13,6.574579929e-13,1.259260763e-12,1.916420946e-12,1.329132164e-12,7.237233168e-13,8.972373179e-13,2.264865606e-12,9.063930406e-13,9.486274172e-13,3.979790608e-13,4.441922312e-13,2.246394046e-13,5.167997588e-13,7.229249982e-13,3.700014754e-13,8.589180837e-13,1.48677844e-12,6.63455755e-13,9.794386213e-13,6.120090505e-13,4.89751249e-13
0.1484375,9.232820801e-13,1.200823239e-12,1.789516153e-12,1.015544815e-12,2.778279092e-13,6.6509746e-13,1.032024114e-12,2.179092858e-13,1.133788076e-12,1.719700167e-13,6.436426381e-13,6.667938199e-13,1.295589384e-12,1.948380814e-12,1.337438294e-12,7.353040962e-13,9.119856528e-13,2.280540777e-12,9.277931863e-13,9.648796602e-13,3.976715251e-13,4.583296938e-13,2.289042913e-13,5.251223385e-13,7.363993132e-13,3.736946984e-13,8.725044852e-13,1.511335819e-12,6.691808945e-13,9.948501887e-13,6.133749525e-13,4.987409745e-13
0.15625,9.473031367e-13,1.201569904e-12,1.794490662e-12,1.017002928e-12,2.818850833e-13,6.709692689e-13,1.060759219e-12,2.206057981e-13,1.152821425e-12,1.757334712e-13,6.521646559e-13,6.757855352e-13,1.332245613e-12,1.979262079e-12,1.344988849e-12,7.468801263e-13,9.271126366e-13,2.295626434e-12,9.495575571e-13,9.810105094e-13,3.972812343e-13,4.727790039e-13,2.332523337e-13,5.332103222e-13,7.495926038e-13,3.772888909e-13,8.859624794e-13,1.535500648e-12,6.747525226e-13,1.010022563e-12,6.14575697e-13,5.076077059e-13
0.1640625,9.713502529e-13,1.20191881e-12,1.798776827e-12,1.018093741e-12,2.859278785e-13,6.764881457e-13,1.089334999e-12,2.23339868e-13,1.171892955e-12,1.794924062e-13,6.605218274e-13,6.8444882e-13,1.369328972e-12,2.009597004e-12,1.351611532e-12,7.584389884e-13,9.427755996e-13,2.310120081e-12,9.716918532e-13,9.970309681e-13,3.970988256e-13,4.875474085e-13,2.376513328e-13,5.411715224e-13,7.624819927e-13,3.807404139e-13,8.99244394e-13,1.559331539e-12,6.802710348e-13,1.025312891e-12,6.156610062e-13,5.165997161e-13
0.171875,9.955591545e-13,1.201945215e-12,1.80274697e-12,1.018881583e-12,2.89938893e-13,6.82099208e-13,1.117557786e-12,2.260314691e-13,1.190735529e-12,1.83276428e-13,6.689536961e-13,6.927889619e-13,1.406679638e-12,2.039913495e-12,1.357886237e-12,7.699920059e-13,9.586444969e-13,2.323788967e-12,9.9413234e-13,1.012718323e-12,3.970597152e-13,5.025490756e-13,2.421103771e-13,5.491472063e-13,7.750233031e-13,3.840007564e-13,9.122455455e-13,1.582717288e-12,6.855644879e-13,1.040601599e-12,6.166654137e-13,5.257127754e-13
0.1796875,1.019999622e-12,1.201634575e-12,1.806150617e-12,1.0194219e-12,2.939683129e-13,6.877656003e-13,1.145779043e-12,2.285625428e-13,1.209156559e-12,1.871591881e-13,6.773819384e-13,7.007042149e-13,1.444089885e-12,2.069535661e-12,1.3636504e-12,7.814258536e-13,9.746511683e-13,2.336662685e-12,1.016952704e-12,1.028149943e-12,3.970752819e-13,5.177766181e-13,2.466918575e-13,5.570114996e-13,7.872980457e-13,3.870523291e-13,9.249648026e-13,1.605652124e-12,6.90546389e-13,1.05551173e-12,6.175694868e-13,5.347011223e-13
0.1875,1.04460489e-12,1.200864356e-12,1.808284564e-12,1.019592132e-12,2.980599693e-13,6.928931827e-13,1.174094129e-12,2.309535442e-13,1.227243464e-12,1.91163402e-13,6.858191397e-13,7.080167596e-13,1.481592544e-12,2.0974028e-12,1.3685892e-12,7.926666232e-13,9.907707839e-13,2.348782286e-12,1.040202848e-12,1.043573525e-12,3.971080931e-13,5.33232309e-13,2.51350194e-13,5.646830942e-13,7.992861911e-13,3.899600561e-13,9.374321398e-13,1.628098814e-12,6.95311222e-13,1.069793663e-12,6.183358347e-13,5.435558071e-13
0.1953125,1.069375633e-12,1.199713243e-12,1.809297507e-12,1.019430362e-12,3.02223276e-13,6.975485065e-13,1.202454411e-12,2.33255252e-13,1.245035575e-12,1.953374826e-13,6.945760305e-13,7.147794147e-13,1.519460596e-12,2.123776928e-12,1.37300842e-12,8.039246488e-13,1.00710645e-12,2.360293746e-12,1.063885015e-12,1.058871447e-12,3.970479553e-13,5.488958015e-13,2.560410352e-13,5.722520738e-13,8.108892308e-13,3.927610343e-13,9.49729051e-13,1.650029428e-12,6.99839948e-13,1.083591324e-12,6.189842314e-13,5.523910506e-13
0.203125,1.094212501e-12,1.198227344e-12,1.809731223e-12,1.018955866e-12,3.063927904e-13,7.021946136e-13,1.231067815e-12,2.35435575e-13,1.262477027e-12,1.99616468e-13,7.035583882e-13,7.211921004e-13,1.557787179e-12,2.149246771e-12,1.376761747e-12,8.152511449e-13,1.023800623e-12,2.371054479e-12,1.087809658e-12,1.073780078e-12,3.969305137e-13,5.647481138e-13,2.608656514e-13,5.797426521e-13,8.222242143e-13,3.954250754e-13,9.619059326e-13,1.671650825e-12,7.040679534e-13,1.097103562e-12,6.194705994e-13,5.611160571e-13
0.2109375,1.118900518e-12,1.196255735e-12,1.809407034e-12,1.018012343e-12,3.104941688e-13,7.067838425e-13,1.259753398e-12,2.374768276e-13,1.279552434e-12,2.038167941e-13,7.125147611e-13,7.2735597e-13,1.596209177e-12,2.173596752e-12,1.379900193e-12,8.265845152e-13,1.040705825e-12,2.380670561e-12,1.111661533e-12,1.088279887e-12,3.968563618e-13,5.807333011e-13,2.658408851e-13,5.871537605e-13,8.334144911e-13,3.980467825e-13,9.73958547e-13,1.693058506e-12,7.08123778e-13,1.110147761e-12,6.197750241e-13,5.696631122e-13
0.21875,1.143533942e-12,1.193882023e-12,1.808113178e-12,1.016700793e-12,3.14552043e-13,7.111837528e-13,1.288040508e-12,2.394028076e-13,1.296249482e-12,2.079626925e-13,7.216886608e-13,7.332802794e-13,1.634398972e-12,2.196763977e-12,1.383193921e-12,8.381383339e-13,1.057899461e-12,2.38956662e-12,1.135508444e-12,1.10236475e-12,3.967611045e-13,5.968601738e-13,2.708294907e-13,5.94540837e-13,8.443486207e-13,4.007032115e-13,9.859715729e-13,1.714052355e-12,7.120939603e-13,1.122629099e-12,6.200510563e-13,5.780697975e-13
0.2265625,1.168306744e-12,1.191263429e-12,1.806058223e-12,1.015196225e-12,3.186036433e-13,7.154717819e-13,1.31600345e-12,2.412246075e-13,1.312558058e-12,2.122283065e-13,7.312542398e-13,7.388529576e-13,1.672518582e-12,2.21880572e-12,1.386227031e-12,8.498082375e-13,1.075548075e-12,2.398199467e-12,1.159553648e-12,1.115992389e-12,3.966231844e-13,6.132317586e-13,2.757910299e-13,6.018751234e-13,8.548763301e-13,4.031932164e-13,9.979047914e-13,1.734449734e-12,7.158131285e-13,1.134726711e-12,6.203168241e-13,5.863238274e-13
0.234375,1.193177982e-12,1.188220054e-12,1.80326467e-12,1.013342528e-12,3.22621723e-13,7.196219431e-13,1.34393693e-12,2.429603835e-13,1.32854563e-12,2.166370712e-13,7.409296166e-13,7.439228782e-13,1.710679968e-12,2.239273671e-12,1.387960674e-12,8.611217973e-13,1.093284489e-12,2.405944075e-12,1.183565982e-12,1.129292044e-12,3.965003483e-13,6.298196095e-13,2.807800004e-13,6.090340997e-13,8.649134669e-13,4.053671417e-13,1.009489052e-12,1.754107979e-12,7.191540698e-13,1.146340841e-12,6.203773901e-13,5.944720601e-13
0.2421875,1.218107546e-12,1.184694537e-12,1.799715611e-12,1.011107956e-12,3.266054438e-13,7.23634493e-13,1.371839263e-12,2.446098828e-13,1.344278407e-12,2.21145861e-13,7.506339088e-13,7.484740386e-13,1.748583134e-12,2.258066229e-12,1.388976953e-12,8.722007412e-13,1.11095725e-12,2.412481566e-12,1.207476754e-12,1.142294024e-12,3.963662779e-13,6.464853245e-13,2.85792104e-13,6.159226561e-13,8.743863007e-13,4.073591277e-13,1.020707568e-12,1.77295544e-12,7.222472354e-13,1.157359999e-12,6.20248235e-13,6.025512694e-13
0.25,1.242914899e-12,1.18089106e-12,1.795449012e-12,1.00867086e-12,3.305896689e-13,7.275383498e-13,1.399681055e-12,2.461373406e-13,1.35966579e-12,2.25752942e-13,7.605177228e-13,7.524454176e-13,1.786086014e-12,2.275457278e-12,1.389909294e-12,8.833628459e-13,1.128936175e-12,2.418126523e-12,1.231728313e-12,1.154853917e-12,3.962397311e-13,6.632124016e-13,2.908141002e-13,6.225202727e-13,8.832694217e-13,4.092357065e-13,1.031771616e-12,1.791160962e-12,7.252850074e-13,1.168006339e-12,6.200819324e-13,6.104731166e-13
0.2578125,1.267223902e-12,1.176755114e-12,1.790169518e-12,1.00592304e-12,3.345723023e-13,7.311779865e-13,1.427359185e-12,2.475623962e-13,1.374529065e-12,2.304227474e-13,7.704531085e-13,7.557020026e-13,1.823237419e-12,2.291267377e-12,1.389914822e-12,8.943016081e-13,1.147223316e-12,2.42263577e-12,1.256336591e-12,1.166998039e-12,3.961806609e-13,6.800206498e-13,2.95892788e-13,6.288329035e-13,8.916677222e-13,4.109487299e-13,1.042582536e-12,1.80888458e-12,7.282817138e-13,1.178233389e-12,6.198255961e-13,6.18245645e-13
0.265625,1.291105571e-12,1.172210818e-12,1.783795065e-12,1.002770453e-12,3.385226261e-13,7.344534681e-13,1.45463306e-12,2.489374342e-13,1.388830172e-12,2.35152746e-13,7.804066906e-13,7.584353692e-13,1.859844963e-12,2.305606221e-12,1.388908539e-12,9.048913944e-13,1.165591754e-12,2.425970933e-12,1.280789725e-12,1.17869944e-12,3.962057352e-13,6.968592127e-13,3.010973952e-13,6.348645122e-13,8.998299658e-13,4.125686683e-13,1.05298097e-12,1.826174745e-12,7.311221569e-13,1.187833655e-12,6.194496394e-13,6.258993443e-13
0.2734375,1.314930164e-12,1.167430508e-12,1.776643043e-12,9.993894744e-13,3.424175108e-13,7.37441798e-13,1.481555652e-12,2.502401386e-13,1.402653865e-12,2.399799829e-13,7.906738595e-13,7.610198028e-13,1.895870527e-12,2.319188102e-12,1.387897524e-12,9.155172232e-13,1.184120803e-12,2.428621404e-12,1.305003885e-12,1.189752198e-12,3.963910177e-13,7.137267381e-13,3.064334936e-13,6.407740871e-13,9.078722144e-13,4.141203525e-13,1.063153615e-12,1.84309761e-12,7.337886435e-13,1.197048872e-12,6.190620614e-13,6.333281604e-13
0.28125,1.338591709e-12,1.162375694e-12,1.768601918e-12,9.957537302e-13,3.462684755e-13,7.402008827e-13,1.508226875e-12,2.514330696e-13,1.416025554e-12,2.448484243e-13,8.012050727e-13,7.633819406e-13,1.931579019e-12,2.33184193e-12,1.386589403e-12,9.261353875e-13,1.202903047e-12,2.430398698e-12,1.329261838e-12,1.200326848e-12,3.96677113e-13,7.306272502e-13,3.118044784e-13,6.467879512e-13,9.155255815e-13,4.155135512e-13,1.07321867e-12,1.859479952e-12,7.363635533e-13,1.206032922e-12,6.186228126e-13,6.405740602e-13
0.2890625,1.361710453e-12,1.156997986e-12,1.759587815e-12,9.918141613e-13,3.500911885e-13,7.427723879e-13,1.534374181e-12,2.525442546e-13,1.428977422e-12,2.497090955e-13,8.116520008e-13,7.651558419e-13,1.966947695e-12,2.342473838e-12,1.38408715e-12,9.364239082e-13,1.221860954e-12,2.431094701e-12,1.353573767e-12,1.210716434e-12,3.968057698e-13,7.475177404e-13,3.17150756e-13,6.527421795e-13,9.225043721e-13,4.167718435e-13,1.083042032e-12,1.875031646e-12,7.388511571e-13,1.214483246e-12,6.180846484e-13,6.477724411e-13
0.296875,1.384181021e-12,1.151611569e-12,1.750198373e-12,9.878421088e-13,3.538441797e-13,7.45179795e-13,1.560025373e-12,2.53611099e-13,1.441633683e-12,2.546319541e-13,8.220653063e-13,7.663659466e-13,2.001797342e-12,2.350994651e-12,1.380899342e-12,9.465064095e-13,1.240852987e-12,2.431196628e-12,1.377801998e-12,1.220700268e-12,3.967857722e-13,7.644334419e-13,3.225403365e-13,6.583229695e-13,9.28905758e-13,4.17933076e-13,1.092633987e-12,1.889891514e-12,7.412540906e-13,1.222334141e-12,6.175916723e-13,6.548295475e-13
0.3046875,1.406153894e-12,1.146240699e-12,1.740514781e-12,9.838559125e-13,3.575062175e-13,7.473704361e-13,1.585664328e-12,2.546527005e-13,1.454044767e-12,2.596250629e-13,8.326511179e-13,7.673102097e-13,2.036098611e-12,2.358570388e-12,1.377735066e-12,9.565914955e-13,1.259937026e-12,2.43075616e-12,1.401901546e-12,1.230128803e-12,3.96860301e-13,7.813435138e-13,3.280135332e-13,6.637147287e-13,9.349657463e-13,4.188804202e-13,1.102093727e-12,1.904424629e-12,7.436844946e-13,1.229893767e-12,6.171616951e-13,6.616330841e-13
0.3125,1.427785539e-12,1.140533514e-12,1.729876883e-12,9.795617554e-13,3.611253874e-13,7.493477783e-13,1.611172364e-12,2.557019241e-13,1.466149647e-12,2.645964783e-13,8.432793907e-13,7.679895126e-13,2.069640199e-12,2.36566597e-12,1.374243793e-12,9.666141882e-13,1.279404262e-12,2.429473659e-12,1.425804683e-12,1.23920692e-12,3.970627229e-13,7.980142854e-13,3.334930775e-13,6.691675021e-13,9.407237778e-13,4.195527437e-13,1.111337196e-12,1.918761046e-12,7.461749178e-13,1.23728688e-12,6.166392518e-13,6.682186123e-13
0.3203125,1.448923236e-12,1.134522923e-12,1.718363085e-12,9.749926933e-13,3.647031496e-13,7.511902003e-13,1.635952772e-12,2.567860897e-13,1.477901322e-12,2.695825875e-13,8.537446115e-13,7.682351401e-13,2.102241576e-12,2.371387219e-12,1.370148105e-12,9.764860734e-13,1.299097934e-12,2.427453927e-12,1.449446254e-12,1.247746264e-12,3.972988511e-13,8.143873018e-13,3.388885803e-13,6.744768548e-13,9.460316823e-13,4.200624379e-13,1.120300046e-12,1.932779619e-12,7.486142624e-13,1.244331366e-12,6.160326696e-13,6.746277936e-13
0.328125,1.469269944e-12,1.128384543e-12,1.706471831e-12,9.702829672e-13,3.682088786e-13,7.528687296e-13,1.660079964e-12,2.578846369e-13,1.489243455e-12,2.7471606e-13,8.640450909e-13,7.680876864e-13,2.134145097e-12,2.375133691e-12,1.365747606e-12,9.862208885e-13,1.318613612e-12,2.42462106e-12,1.472909325e-12,1.255494743e-12,3.974804854e-13,8.307289352e-13,3.441862165e-13,6.795956574e-13,9.507933445e-13,4.205235644e-13,1.129109525e-12,1.946248222e-12,7.509365068e-13,1.250829799e-12,6.154418814e-13,6.809640525e-13
0.3359375,1.488989639e-12,1.121963637e-12,1.69394051e-12,9.652999498e-13,3.716686358e-13,7.542414278e-13,1.683906129e-12,2.589379965e-13,1.500127009e-12,2.799821285e-13,8.743529069e-13,7.676161772e-13,2.165526445e-12,2.377335034e-12,1.361186083e-12,9.958732051e-13,1.338116213e-12,2.420672524e-12,1.496321022e-12,1.262856379e-12,3.974928042e-13,8.471603195e-13,3.49445697e-13,6.84815027e-13,9.551330937e-13,4.209471202e-13,1.13784205e-12,1.959149678e-12,7.531416713e-13,1.256809034e-12,6.148426322e-13,6.873132646e-13
0.34375,1.508343204e-12,1.115262428e-12,1.680484129e-12,9.600644018e-13,3.751079874e-13,7.552785628e-13,1.707138219e-12,2.599175211e-13,1.510577536e-12,2.852917684e-13,8.848827662e-13,7.666974632e-13,2.196203025e-12,2.378156263e-12,1.356171198e-12,1.005302353e-12,1.357667536e-12,2.415672249e-12,1.519601879e-12,1.270160116e-12,3.973972249e-13,8.634913929e-13,3.546845962e-13,6.901640427e-13,9.590621835e-13,4.212602684e-13,1.146292105e-12,1.971554985e-12,7.552382108e-13,1.262369031e-12,6.142099398e-13,6.935651873e-13
0.3515625,1.526999263e-12,1.108553983e-12,1.666379915e-12,9.548162835e-13,3.785591554e-13,7.56174453e-13,1.729510171e-12,2.608710079e-13,1.520561291e-12,2.906913416e-13,8.956928628e-13,7.652393497e-13,2.226041085e-12,2.377202974e-12,1.350273918e-12,1.014243826e-12,1.377030985e-12,2.409949466e-12,1.542607879e-12,1.277215955e-12,3.9738874e-13,8.795884695e-13,3.598208458e-13,6.955288922e-13,9.622996557e-13,4.213883136e-13,1.154189292e-12,1.983185768e-12,7.573235826e-13,1.267421215e-12,6.136090261e-13,6.996140877e-13
0.359375,1.544750821e-12,1.101880698e-12,1.651695215e-12,9.495803422e-13,3.820620226e-13,7.570931568e-13,1.751427471e-12,2.61863161e-13,1.529980342e-12,2.962411882e-13,9.067334987e-13,7.634188603e-13,2.255194558e-12,2.374742158e-12,1.343792368e-12,1.022970548e-12,1.396528055e-12,2.40389646e-12,1.565497041e-12,1.283945063e-12,3.974915367e-13,8.955242086e-13,3.648453204e-13,7.009141775e-13,9.649008429e-13,4.213669064e-13,1.161711512e-12,1.994146565e-12,7.5955296e-13,1.271976436e-12,6.131067579e-13,7.054608801e-13
0.3671875,1.562004282e-12,1.095079151e-12,1.636261603e-12,9.441842114e-13,3.855430986e-13,7.578897379e-13,1.773179719e-12,2.629103308e-13,1.53888305e-12,3.018599981e-13,9.180191902e-13,7.615439132e-13,2.283894905e-12,2.371525888e-12,1.337817647e-12,1.032002319e-12,1.41610474e-12,2.397463436e-12,1.588428258e-12,1.290304113e-12,3.975869137e-13,9.113774637e-13,3.698728464e-13,7.061576393e-13,9.673358431e-13,4.213103065e-13,1.169409511e-12,2.005159003e-12,7.619558164e-13,1.276311774e-12,6.127199063e-13,7.110773063e-13
0.375,1.578684001e-12,1.088091896e-12,1.620186264e-12,9.385549008e-13,3.889327222e-13,7.583453936e-13,1.794434539e-12,2.640052505e-13,1.547396994e-12,3.074924461e-13,9.296029878e-13,7.59661711e-13,2.311982495e-12,2.367504106e-12,1.33249459e-12,1.041085006e-12,1.435070804e-12,2.389947452e-12,1.611152994e-12,1.296082436e-12,3.976105657e-13,9.27106288e-13,3.749414517e-13,7.111366182e-13,9.696538797e-13,4.212648478e-13,1.177398759e-12,2.016055342e-12,7.644195271e-13,1.280447095e-12,6.124195903e-13,7.164569551e-13
0.3828125,1.594142713e-12,1.081016102e-12,1.603691897e-12,9.327981722e-13,3.922952208e-13,7.585911012e-13,1.814758428e-12,2.651512966e-13,1.555537319e-12,3.131958059e-13,9.414572282e-13,7.574815876e-13,2.338952997e-12,2.362066868e-12,1.326815363e-12,1.049777514e-12,1.453988255e-12,2.381191996e-12,1.633483369e-12,1.301429493e-12,3.976873006e-13,9.426199627e-13,3.799789613e-13,7.16061094e-13,9.715306193e-13,4.2116423e-13,1.185202158e-12,2.026081229e-12,7.668588963e-13,1.28408347e-12,6.121691458e-13,7.216216066e-13
0.390625,1.608556312e-12,1.073903418e-12,1.586907455e-12,9.269887004e-13,3.955874111e-13,7.589232129e-13,1.834040072e-12,2.66352153e-13,1.563249243e-12,3.189460271e-13,9.532204161e-13,7.547659492e-13,2.364635487e-12,2.35503464e-12,1.320609485e-12,1.058356249e-12,1.473741409e-12,2.371835163e-12,1.655484537e-12,1.306518058e-12,3.97999294e-13,9.578641124e-13,3.849139092e-13,7.210343665e-13,9.72932335e-13,4.208931653e-13,1.192532761e-12,2.035584415e-12,7.692361915e-13,1.287142562e-12,6.119050376e-13,7.26551993e-13
0.3984375,1.622616896e-12,1.066572664e-12,1.569758633e-12,9.209755852e-13,3.986487998e-13,7.592258271e-13,1.852519171e-12,2.676000895e-13,1.570461347e-12,3.246386758e-13,9.643718893e-13,7.51469159e-13,2.389100681e-12,2.346455521e-12,1.314309488e-12,1.066894139e-12,1.493392122e-12,2.36203138e-12,1.67696347e-12,1.310959151e-12,3.984139937e-13,9.727943928e-13,3.896889977e-13,7.259292055e-13,9.738768595e-13,4.203735967e-13,1.199513477e-12,2.044901211e-12,7.71456218e-13,1.289730426e-12,6.115271445e-13,7.312411979e-13
0.40625,1.636122007e-12,1.058979997e-12,1.551978673e-12,9.147036525e-13,4.015444009e-13,7.591033869e-13,1.870479551e-12,2.688976719e-13,1.577121287e-12,3.302817409e-13,9.750476309e-13,7.475796328e-13,2.412177201e-12,2.336239905e-12,1.307497858e-12,1.074846283e-12,1.512013938e-12,2.351507318e-12,1.697769172e-12,1.314764038e-12,3.987306987e-13,9.873674933e-13,3.943075639e-13,7.307130906e-13,9.741633077e-13,4.196338568e-13,1.206188355e-12,2.053197731e-12,7.735291516e-13,1.291818795e-12,6.110707216e-13,7.356671611e-13
0.4140625,1.648529522e-12,1.051468244e-12,1.533593387e-12,9.084280513e-13,4.044677323e-13,7.586378005e-13,1.887797986e-12,2.702833552e-13,1.583265555e-12,3.359245292e-13,9.858645844e-13,7.432104321e-13,2.433896029e-12,2.324495442e-12,1.299913643e-12,1.082170519e-12,1.530290395e-12,2.340208113e-12,1.718294911e-12,1.318669882e-12,3.9912318e-13,1.001594323e-12,3.988467902e-13,7.353685416e-13,9.737939824e-13,4.187717622e-13,1.212511542e-12,2.060191844e-12,7.757053495e-13,1.293380575e-12,6.106732637e-13,7.398483702e-13
0.421875,1.659900266e-12,1.044095418e-12,1.514910171e-12,9.022137491e-13,4.074127731e-13,7.582459642e-13,1.904299744e-12,2.71780997e-13,1.588926124e-12,3.415153131e-13,9.968754153e-13,7.38545627e-13,2.454618122e-12,2.311384518e-12,1.29209119e-12,1.089296776e-12,1.548673927e-12,2.328024577e-12,1.738814423e-12,1.322680054e-12,3.996694814e-13,1.015504096e-12,4.033329635e-13,7.399038496e-13,9.73023825e-13,4.178369956e-13,1.218602487e-12,2.066597662e-12,7.780943066e-13,1.294531775e-12,6.10271415e-13,7.439410232e-13
0.4296875,1.670244331e-12,1.036531967e-12,1.49593293e-12,8.958781105e-13,4.103021834e-13,7.577843665e-13,1.920271714e-12,2.733407007e-13,1.594090294e-12,3.470112502e-13,1.007775728e-12,7.336142689e-13,2.474400441e-12,2.296815623e-12,1.284134096e-12,1.09623707e-12,1.566740339e-12,2.315070868e-12,1.759063644e-12,1.326102634e-12,4.00140368e-13,1.029099606e-12,4.077304936e-13,7.445012427e-13,9.720172194e-13,4.168179841e-13,1.224560477e-12,2.072675592e-12,7.804868656e-13,1.295402517e-12,6.097450441e-13,7.47985051e-13
0.4375,1.679477273e-12,1.028887715e-12,1.476597631e-12,8.895380913e-13,4.131613196e-13,7.568179184e-13,1.935824551e-12,2.749172828e-13,1.598819431e-12,3.52457388e-13,1.018596982e-12,7.285074485e-13,2.49313708e-12,2.280996756e-12,1.275902285e-12,1.102901153e-12,1.584361165e-12,2.301875201e-12,1.778830959e-12,1.328984887e-12,4.005795316e-13,1.042407099e-12,4.120334936e-13,7.49171898e-13,9.708073261e-13,4.157209693e-13,1.230316272e-12,2.07840096e-12,7.82790506e-13,1.296041985e-12,6.092087229e-13,7.518538467e-13
0.4453125,1.688137083e-12,1.021492893e-12,1.457213142e-12,8.833726885e-13,4.159567129e-13,7.555805482e-13,1.950670941e-12,2.765537847e-13,1.60321987e-12,3.578918221e-13,1.02944822e-12,7.234441149e-13,2.51091621e-12,2.264472259e-12,1.267716071e-12,1.10944805e-12,1.601647461e-12,2.288550249e-12,1.798119042e-12,1.331630064e-12,4.011336815e-13,1.055466514e-12,4.162485494e-13,7.53712398e-13,9.693369266e-13,4.145595947e-13,1.235824176e-12,2.083988778e-12,7.850799384e-13,1.29645029e-12,6.087305103e-13,7.555633912e-13
0.453125,1.696555451e-12,1.014225454e-12,1.437965408e-12,8.772305255e-13,4.185960674e-13,7.546005181e-13,1.964953501e-12,2.783033221e-13,1.607420754e-12,3.63294251e-13,1.040347676e-12,7.184002998e-13,2.527684763e-12,2.247207094e-12,1.259652018e-12,1.11585835e-12,1.618567e-12,2.274849467e-12,1.816804453e-12,1.333786756e-12,4.016403561e-13,1.068244095e-12,4.203507663e-13,7.581845865e-13,9.675024317e-13,4.133175064e-13,1.241146071e-12,2.089376118e-12,7.872954203e-13,1.29661276e-12,6.082276697e-13,7.591245644e-13
0.4609375,1.704080958e-12,1.007015145e-12,1.418557201e-12,8.711060155e-13,4.211468395e-13,7.538117439e-13,1.978821698e-12,2.801465503e-13,1.611519955e-12,3.686070442e-13,1.051277734e-12,7.132433873e-13,2.543193974e-12,2.228789977e-12,1.2516318e-12,1.122076067e-12,1.635293571e-12,2.260813944e-12,1.834704321e-12,1.33555458e-12,4.020342351e-13,1.080583183e-12,4.242948959e-13,7.627568559e-13,9.652990338e-13,4.120060568e-13,1.246384481e-12,2.094364709e-12,7.894896241e-13,1.296456463e-12,6.078234533e-13,7.623311179e-13
0.46875,1.710186293e-12,1.000078318e-12,1.398637158e-12,8.652111001e-13,4.237262362e-13,7.528482724e-13,1.991726117e-12,2.820384895e-13,1.615243173e-12,3.737848655e-13,1.062023327e-12,7.080272229e-13,2.557286161e-12,2.209338163e-12,1.243991214e-12,1.128286517e-12,1.652070481e-12,2.246460662e-12,1.851826826e-12,1.337300501e-12,4.024305968e-13,1.092283228e-12,4.280625092e-13,7.673306013e-13,9.627806642e-13,4.106568841e-13,1.251625672e-12,2.098962316e-12,7.919184119e-13,1.295880232e-12,6.076820383e-13,7.65066259e-13
0.4765625,1.715156547e-12,9.933055778e-13,1.378150504e-12,8.59433215e-13,4.262531012e-13,7.516785953e-13,2.003507475e-12,2.839877817e-13,1.618100823e-12,3.788337915e-13,1.072485102e-12,7.027367234e-13,2.569932056e-12,2.189079161e-12,1.236694038e-12,1.134414773e-12,1.668627363e-12,2.231675053e-12,1.868382176e-12,1.338620345e-12,4.028199829e-13,1.103334752e-12,4.316822859e-13,7.718331898e-13,9.599411641e-13,4.092251645e-13,1.256814855e-12,2.10311726e-12,7.945658514e-13,1.294910591e-12,6.076780653e-13,7.673946268e-13
0.484375,1.719354772e-12,9.864810581e-13,1.357280856e-12,8.535791267e-13,4.286064807e-13,7.505115152e-13,2.014657473e-12,2.860529011e-13,1.620073621e-12,3.837637154e-13,1.082813144e-12,6.972553852e-13,2.58125596e-12,2.167817233e-12,1.229245269e-12,1.140131046e-12,1.684487775e-12,2.216606667e-12,1.884583115e-12,1.339092259e-12,4.031892627e-13,1.113950276e-12,4.351208585e-13,7.762822588e-13,9.567640213e-13,4.076383698e-13,1.26179717e-12,2.106796981e-12,7.972606629e-13,1.293708807e-12,6.077151199e-13,7.693476623e-13
0.4921875,1.722832878e-12,9.79790996e-13,1.336240203e-12,8.478120471e-13,4.308237091e-13,7.494569062e-13,2.025058157e-12,2.882311136e-13,1.621404616e-12,3.885691975e-13,1.09290711e-12,6.916457175e-13,2.591489349e-12,2.145591407e-12,1.221716113e-12,1.145549383e-12,1.699839326e-12,2.201456165e-12,1.900487386e-12,1.339001435e-12,4.034995409e-13,1.124226832e-12,4.382735371e-13,7.804690066e-13,9.532704092e-13,4.059005625e-13,1.266613579e-12,2.110115427e-12,8.000978428e-13,1.292440508e-12,6.078931582e-13,7.709446165e-13
0.5,1.725549955e-12,9.73395422e-13,1.315122743e-12,8.422725785e-13,4.329369868e-13,7.484458132e-13,2.034379244e-12,2.904264726e-13,1.621980216e-12,3.932755222e-13,1.102576035e-12,6.860259236e-13,2.600811601e-12,2.12290351e-12,1.214471309e-12,1.150976696e-12,1.71508063e-12,2.186224216e-12,1.916088057e-12,1.338507387e-12,4.036885023e-13,1.134045451e-12,4.411763234e-13,7.842659488e-13,9.495225636e-13,4.040323469e-13,1.271463288e-12,2.113133535e-12,8.031237082e-13,1.291174212e-12,6.082007641e-13,7.72217483e-13
0.5078125,1.727499064e-12,9.671689667e-13,1.293988353e-12,8.368512478e-13,4.34908026e-13,7.473967067e-13,2.042939834e-12,2.926362701e-13,1.62174422e-12,3.979180311e-13,1.111951326e-12,6.804206125e-13,2.609288101e-12,2.099990144e-12,1.207464069e-12,1.156257046e-12,1.72989572e-12,2.17089675e-12,1.931389649e-12,1.337548894e-12,4.039563252e-13,1.143368364e-12,4.439609067e-13,7.87960177e-13,9.45613747e-13,4.020197768e-13,1.276321603e-12,2.115835786e-12,8.061664602e-13,1.289827754e-12,6.085560044e-13,7.731764909e-13
0.515625,1.728744372e-12,9.610702219e-13,1.27298925e-12,8.315144305e-13,4.367587553e-13,7.463465644e-13,2.050901924e-12,2.950213061e-13,1.621069976e-12,4.025151444e-13,1.121141489e-12,6.748574259e-13,2.616822776e-12,2.076561054e-12,1.200544399e-12,1.16119797e-12,1.744071381e-12,2.155494559e-12,1.946379841e-12,1.336262994e-12,4.044378094e-13,1.152325426e-12,4.465791691e-13,7.917780036e-13,9.415388467e-13,3.998809895e-13,1.281013301e-12,2.118084842e-12,8.092434237e-13,1.288360756e-12,6.090228558e-13,7.738727357e-13
0.5234375,1.729344134e-12,9.551510642e-13,1.252281328e-12,8.263264259e-13,4.385026483e-13,7.452889335e-13,2.058069033e-12,2.976741216e-13,1.620185308e-12,4.070529174e-13,1.130006567e-12,6.693513721e-13,2.623278472e-12,2.05223829e-12,1.193643023e-12,1.165949309e-12,1.757939785e-12,2.139899446e-12,1.961011049e-12,1.334649427e-12,4.049318581e-13,1.161002032e-12,4.489084841e-13,7.955708575e-13,9.371243312e-13,3.976645681e-13,1.28558569e-12,2.119723816e-12,8.124865139e-13,1.286889666e-12,6.096729927e-13,7.743341295e-13
0.53125,1.729262877e-12,9.493479911e-13,1.231833079e-12,8.21239404e-13,4.400902006e-13,7.440940865e-13,2.064435223e-12,3.005437813e-13,1.618981635e-12,4.114782972e-13,1.138402535e-12,6.639067196e-13,2.628537891e-12,2.027022435e-12,1.18676854e-12,1.170460862e-12,1.77114219e-12,2.12377371e-12,1.975034546e-12,1.332741252e-12,4.054271186e-13,1.169305403e-12,4.509980261e-13,7.991911312e-13,9.322480096e-13,3.953919822e-13,1.290151553e-12,2.120874373e-12,8.158502047e-13,1.285301569e-12,6.10460456e-13,7.745112939e-13
0.5390625,1.728387819e-12,9.436205111e-13,1.211458491e-12,8.161910903e-13,4.415454888e-13,7.427463517e-13,2.069910821e-12,3.036426339e-13,1.617432227e-12,4.157905925e-13,1.14637896e-12,6.585334751e-13,2.632293121e-12,2.001389941e-12,1.180219989e-12,1.17451555e-12,1.78316906e-12,2.10701301e-12,1.988110677e-12,1.330871829e-12,4.061001631e-13,1.177058699e-12,4.529352994e-13,8.027055008e-13,9.270631474e-13,3.930650361e-13,1.294573206e-12,2.121678238e-12,8.193112602e-13,1.283279606e-12,6.113099867e-13,7.743795095e-13
0.546875,1.726618672e-12,9.380752727e-13,1.191101746e-12,8.112573564e-13,4.42953712e-13,7.41402338e-13,2.074597512e-12,3.070417055e-13,1.615567768e-12,4.199741444e-13,1.15410642e-12,6.531453611e-13,2.634421045e-12,1.975782255e-12,1.174225187e-12,1.178334441e-12,1.794764899e-12,2.090158242e-12,2.000331489e-12,1.329081035e-12,4.068645803e-13,1.184223393e-12,4.54691344e-13,8.062046297e-13,9.217842022e-13,3.906818647e-13,1.298698116e-12,2.122073808e-12,8.229196102e-13,1.280921116e-12,6.121873715e-13,7.73943871e-13
0.5546875,1.724101168e-12,9.327869501e-13,1.17086761e-12,8.065210189e-13,4.443303897e-13,7.401927495e-13,2.079080443e-12,3.106665834e-13,1.613252161e-12,4.238525578e-13,1.161467074e-12,6.47669201e-13,2.635443509e-12,1.95001727e-12,1.168593916e-12,1.182204115e-12,1.806538332e-12,2.073677037e-12,2.012096896e-12,1.327080079e-12,4.075860647e-13,1.190899221e-12,4.562150674e-13,8.096608729e-13,9.163300122e-13,3.882465988e-13,1.302610719e-12,2.122086265e-12,8.266112022e-13,1.278504478e-12,6.130938926e-13,7.73215207e-13
0.5625,1.721108414e-12,9.276642313e-13,1.150782028e-12,8.019101014e-13,4.456269979e-13,7.391491251e-13,2.083403827e-12,3.143710319e-13,1.610358719e-12,4.273897662e-13,1.168169289e-12,6.421969968e-13,2.635762583e-12,1.92354591e-12,1.163165921e-12,1.185912966e-12,1.817846432e-12,2.057440272e-12,2.023537963e-12,1.324734175e-12,4.082560413e-13,1.197110622e-12,4.574880964e-13,8.12951496e-13,9.105171603e-13,3.857970941e-13,1.306394953e-12,2.12168531e-12,8.30335757e-13,1.275847139e-12,6.140205879e-13,7.72196134e-13
0.5703125,1.717570191e-12,9.226548881e-13,1.130877314e-12,7.973535559e-13,4.468216391e-13,7.381930996e-13,2.087143863e-12,3.181685174e-13,1.606983638e-12,4.308506149e-13,1.174345546e-12,6.368154652e-13,2.635072406e-12,1.896257213e-12,1.158026278e-12,1.18922834e-12,1.828308109e-12,2.041448814e-12,2.034590309e-12,1.322048626e-12,4.088349458e-13,1.20281956e-12,4.585203176e-13,8.160165285e-13,9.044153516e-13,3.833804773e-13,1.309968588e-12,2.120620702e-12,8.341412855e-13,1.27270558e-12,6.14982073e-13,7.707840576e-13
0.578125,1.713318434e-12,9.178903166e-13,1.111298575e-12,7.929650591e-13,4.479552312e-13,7.371346424e-13,2.090394602e-12,3.221766248e-13,1.603267288e-12,4.343131278e-13,1.180214904e-12,6.314991825e-13,2.633086432e-12,1.868602194e-12,1.15321188e-12,1.192285966e-12,1.838315851e-12,2.025928835e-12,2.045196179e-12,1.31920411e-12,4.093490003e-13,1.208033752e-12,4.593699989e-13,8.189316645e-13,8.981019206e-13,3.809898022e-13,1.313293706e-12,2.118846698e-12,8.380477143e-13,1.269225734e-12,6.160738826e-13,7.688832166e-13
0.5859375,1.708525051e-12,9.134161001e-13,1.092088002e-12,7.888498709e-13,4.490361876e-13,7.358705751e-13,2.093155274e-12,3.264080485e-13,1.599149666e-12,4.376061268e-13,1.185768882e-12,6.262043285e-13,2.629989211e-12,1.840859189e-12,1.148662406e-12,1.195228509e-12,1.848061758e-12,2.010784556e-12,2.055279785e-12,1.316350349e-12,4.098725062e-13,1.212781059e-12,4.600844245e-13,8.217050617e-13,8.914689437e-13,3.785736059e-13,1.316509621e-12,2.116549663e-12,8.420989795e-13,1.265593767e-12,6.173296738e-13,7.666100185e-13
0.59375,1.703233549e-12,9.091195019e-13,1.073254299e-12,7.849548172e-13,4.500073166e-13,7.34558066e-13,2.095117599e-12,3.307852978e-13,1.594616043e-12,4.407319564e-13,1.191281677e-12,6.208919677e-13,2.626049818e-12,1.812797074e-12,1.144379195e-12,1.19804772e-12,1.857468434e-12,1.995925138e-12,2.064889742e-12,1.313243578e-12,4.104128918e-13,1.21711991e-12,4.606532271e-13,8.242381084e-13,8.845684926e-13,3.761153551e-13,1.319756074e-12,2.113820317e-12,8.463906123e-13,1.261874704e-12,6.186555843e-13,7.641378813e-13
0.6015625,1.697143233e-12,9.050105853e-13,1.054835748e-12,7.812309073e-13,4.508974518e-13,7.333999629e-13,2.096514297e-12,3.352860129e-13,1.589889954e-12,4.43704798e-13,1.19681197e-12,6.156088283e-13,2.621260665e-12,1.784240606e-12,1.140490975e-12,1.200725756e-12,1.866378793e-12,1.981264915e-12,2.073950747e-12,1.309846195e-12,4.110116268e-13,1.220999586e-12,4.610428336e-13,8.265615722e-13,8.775900513e-13,3.736471433e-13,1.32296712e-12,2.11068442e-12,8.509057377e-13,1.258068003e-12,6.200145972e-13,7.61451559e-13
0.609375,1.690209147e-12,9.010970287e-13,1.036586854e-12,7.776278004e-13,4.517682307e-13,7.323321917e-13,2.097417304e-12,3.399501208e-13,1.584938369e-12,4.463801818e-13,1.201707951e-12,6.105388506e-13,2.615308093e-12,1.755414255e-12,1.137008898e-12,1.203189423e-12,1.874533414e-12,1.966425955e-12,2.082064105e-12,1.306481777e-12,4.116734139e-13,1.224157121e-12,4.612031568e-13,8.287835945e-13,8.705067901e-13,3.711722277e-13,1.325975963e-12,2.10716241e-12,8.55481828e-13,1.254030712e-12,6.214277252e-13,7.583738649e-13
0.6171875,1.682772175e-12,8.972277167e-13,1.018316468e-12,7.740502711e-13,4.525368366e-13,7.311719045e-13,2.097348316e-12,3.448040368e-13,1.579384168e-12,4.487869332e-13,1.205788147e-12,6.057770339e-13,2.608053489e-12,1.726587182e-12,1.133630316e-12,1.205356123e-12,1.88193625e-12,1.951636781e-12,2.089248875e-12,1.302960521e-12,4.123399882e-13,1.226540465e-12,4.611118775e-13,8.309088015e-13,8.632333732e-13,3.686758531e-13,1.328816697e-12,2.10329584e-12,8.599989901e-13,1.249753641e-12,6.228921726e-13,7.547330699e-13
0.625,1.67519048e-12,8.934817737e-13,1.000408429e-12,7.70584262e-13,4.531537352e-13,7.299706814e-13,2.096584921e-12,3.498593697e-13,1.573112006e-12,4.510690815e-13,1.209470794e-12,6.012019751e-13,2.599829426e-12,1.697842854e-12,1.130330169e-12,1.207314018e-12,1.888861361e-12,1.937793679e-12,2.096077997e-12,1.298987238e-12,4.130974185e-13,1.228418141e-12,4.608231378e-13,8.329266983e-13,8.558282007e-13,3.661997333e-13,1.331678518e-12,2.099140788e-12,8.645795315e-13,1.245504126e-12,6.245097809e-13,7.504988884e-13
0.6328125,1.667596604e-12,8.901269888e-13,9.831358703e-13,7.674074286e-13,4.537274332e-13,7.288719673e-13,2.095700607e-12,3.551441919e-13,1.566107846e-12,4.531960313e-13,1.212549591e-12,5.966701079e-13,2.590862713e-12,1.669158688e-12,1.127598007e-12,1.209175735e-12,1.895385428e-12,1.925004369e-12,2.102683869e-12,1.294954447e-12,4.140689157e-13,1.229788392e-12,4.603410726e-13,8.347946325e-13,8.483226718e-13,3.637376755e-13,1.334524873e-12,2.094596095e-12,8.694306025e-13,1.241363091e-12,6.263694922e-13,7.457516612e-13
0.640625,1.659815005e-12,8.870699659e-13,9.661344436e-13,7.64433192e-13,4.543046508e-13,7.278392089e-13,2.094222548e-12,3.606766918e-13,1.558165993e-12,4.550743262e-13,1.214648099e-12,5.921783591e-13,2.58107469e-12,1.64047397e-12,1.125498254e-12,1.210857742e-12,1.901319313e-12,1.912691914e-12,2.108688112e-12,1.29107406e-12,4.152049083e-13,1.230411971e-12,4.595506012e-13,8.364036934e-13,8.406839247e-13,3.611717167e-13,1.337120276e-12,2.08956942e-12,8.744644912e-13,1.237145918e-12,6.283004146e-13,7.405792231e-13
0.6484375,1.651726555e-12,8.840398143e-13,9.49149043e-13,7.614718686e-13,4.548519812e-13,7.26935944e-13,2.091769612e-12,3.664444069e-13,1.549541014e-12,4.566778499e-13,1.216048286e-12,5.878356233e-13,2.570573156e-12,1.611820379e-12,1.123648824e-12,1.212314659e-12,1.906579098e-12,1.900754925e-12,2.113991486e-12,1.286998736e-12,4.163606087e-13,1.230386321e-12,4.583940651e-13,8.378548216e-13,8.328726662e-13,3.585175898e-13,1.3394887e-12,2.084166081e-12,8.794823661e-13,1.232836638e-12,6.301389226e-13,7.350907789e-13
0.65625,1.643521604e-12,8.810972846e-13,9.324368025e-13,7.585800714e-13,4.553974736e-13,7.263906717e-13,2.08901692e-12,3.724540509e-13,1.540794065e-12,4.580601328e-13,1.217057287e-12,5.837156394e-13,2.559507623e-12,1.583298431e-12,1.122179804e-12,1.213682787e-12,1.91134367e-12,1.889369093e-12,2.118812309e-12,1.282748007e-12,4.174619748e-13,1.22998279e-12,4.569426093e-13,8.39372938e-13,8.248460419e-13,3.559715442e-13,1.341900797e-12,2.078366414e-12,8.845706195e-13,1.228542866e-12,6.319766739e-13,7.293694534e-13
0.6640625,1.635266951e-12,8.784553806e-13,9.163118993e-13,7.559514321e-13,4.559704883e-13,7.260349962e-13,2.086451723e-12,3.78719116e-13,1.531820902e-12,4.59277409e-13,1.217726837e-12,5.797407312e-13,2.547739587e-12,1.554837847e-12,1.121259673e-12,1.214843618e-12,1.915573881e-12,1.878490913e-12,2.123215182e-12,1.278594101e-12,4.186462412e-13,1.229249073e-12,4.552828383e-13,8.408897284e-13,8.166471023e-13,3.535665751e-13,1.34432557e-12,2.071972307e-12,8.89790476e-13,1.224142002e-12,6.338701884e-13,7.233900262e-13
0.671875,1.626899254e-12,8.761670754e-13,9.008333085e-13,7.536561038e-13,4.56559385e-13,7.254914613e-13,2.083840011e-12,3.8517501e-13,1.522308785e-12,4.602419798e-13,1.218109707e-12,5.75831004e-13,2.535152543e-12,1.526368024e-12,1.12046266e-12,1.21547887e-12,1.918979056e-12,1.868004928e-12,2.126972083e-12,1.274412852e-12,4.200588341e-13,1.228128995e-12,4.535013963e-13,8.422964717e-13,8.083056908e-13,3.511770909e-13,1.346399015e-12,2.064824312e-12,8.949741408e-13,1.219422122e-12,6.357329107e-13,7.171222491e-13
0.6796875,1.618602982e-12,8.741923783e-13,8.858288579e-13,7.516135019e-13,4.571405825e-13,7.250054213e-13,2.081034512e-12,3.917599257e-13,1.512481992e-12,4.609661382e-13,1.218088957e-12,5.720922495e-13,2.521835921e-12,1.498216461e-12,1.119756793e-12,1.215869983e-12,1.921958506e-12,1.858029569e-12,2.1299663e-12,1.270112231e-12,4.215311317e-13,1.226589924e-12,4.516487205e-13,8.438179657e-13,7.997206406e-13,3.488574421e-13,1.348074644e-12,2.056775113e-12,9.001651391e-13,1.214466401e-12,6.375789315e-13,7.105597897e-13
0.6875,1.610473363e-12,8.724841155e-13,8.712496021e-13,7.497445857e-13,4.576714302e-13,7.250506936e-13,2.078207698e-12,3.985231992e-13,1.502468109e-12,4.616622126e-13,1.217511786e-12,5.686609284e-13,2.507953991e-12,1.470828963e-12,1.119718822e-12,1.216626572e-12,1.925198361e-12,1.848983236e-12,2.132480356e-12,1.265922756e-12,4.229100291e-13,1.224594976e-12,4.496321274e-13,8.455690949e-13,7.909006794e-13,3.467169093e-13,1.349745598e-12,2.047916219e-12,9.05545253e-13,1.209495495e-12,6.394702781e-13,7.036459911e-13
0.6953125,1.602370421e-12,8.709556841e-13,8.573612464e-13,7.480330457e-13,4.581252918e-13,7.254416599e-13,2.075459447e-12,4.054762243e-13,1.492032727e-12,4.622339761e-13,1.216395111e-12,5.655354068e-13,2.493618739e-12,1.444142139e-12,1.12033993e-12,1.217540931e-12,1.928146835e-12,1.840747789e-12,2.134549724e-12,1.261886757e-12,4.243250079e-13,1.222112715e-12,4.473592345e-13,8.472509211e-13,7.820086537e-13,3.446299654e-13,1.351591869e-12,2.038611461e-12,9.110548639e-13,1.204443821e-12,6.413370748e-13,6.963798049e-13
0.703125,1.594322274e-12,8.69489536e-13,8.442335351e-13,7.464147605e-13,4.585015472e-13,7.258631919e-13,2.072589345e-12,4.125480249e-13,1.481172292e-12,4.624131521e-13,1.214700492e-12,5.627004529e-13,2.478719802e-12,1.41768671e-12,1.121049551e-12,1.217986083e-12,1.929974814e-12,1.832546675e-12,2.135730306e-12,1.257822105e-12,4.25815728e-13,1.219104705e-12,4.449189225e-13,8.486617284e-13,7.730953845e-13,3.424734822e-13,1.353428733e-12,2.028922373e-12,9.167207313e-13,1.199186001e-12,6.431149476e-13,6.888353883e-13
0.7109375,1.586384968e-12,8.680715141e-13,8.31664186e-13,7.448490794e-13,4.588215958e-13,7.265596887e-13,2.069422178e-12,4.197943883e-13,1.470055226e-12,4.623739394e-13,1.212385079e-12,5.601537834e-13,2.463107284e-12,1.391274169e-12,1.121721823e-12,1.218129706e-12,1.931383639e-12,1.824561258e-12,2.136104105e-12,1.253770002e-12,4.273504068e-13,1.215561486e-12,4.424015914e-13,8.499725791e-13,7.641112389e-13,3.403775864e-13,1.355184099e-12,2.018612711e-12,9.227631401e-13,1.193889431e-12,6.448809686e-13,6.810010438e-13
0.71875,1.578592471e-12,8.668293696e-13,8.197534211e-13,7.434390861e-13,4.591147685e-13,7.277589518e-13,2.066241932e-12,4.273202345e-13,1.458668783e-12,4.62347493e-13,1.209483799e-12,5.577954936e-13,2.446943299e-12,1.365202054e-12,1.122697559e-12,1.218509782e-12,1.933240916e-12,1.817652061e-12,2.13626391e-12,1.249872246e-12,4.290700964e-13,1.211528095e-12,4.397504636e-13,8.51303667e-13,7.550191602e-13,3.384865453e-13,1.356878941e-12,2.007637674e-12,9.290642148e-13,1.188645092e-12,6.467249521e-13,6.728363046e-13
0.7265625,1.571261079e-12,8.65802449e-13,8.086610192e-13,7.4220348e-13,4.593153923e-13,7.292776555e-13,2.063328667e-12,4.350573934e-13,1.446937978e-12,4.621827065e-13,1.205958204e-12,5.555803536e-13,2.430542547e-12,1.339786169e-12,1.124212393e-12,1.21907294e-12,1.934987559e-12,1.811508068e-12,2.136235188e-12,1.246019832e-12,4.310114941e-13,1.207100221e-12,4.36936368e-13,8.525054102e-13,7.45835382e-13,3.367643831e-13,1.358399161e-12,1.996195409e-12,9.352788553e-13,1.183343517e-12,6.486309722e-13,6.644252993e-13
0.734375,1.564476999e-12,8.649058663e-13,7.981394701e-13,7.410264145e-13,4.59356582e-13,7.309454819e-13,2.060402022e-12,4.429086842e-13,1.434910747e-12,4.61793294e-13,1.201886051e-12,5.536214405e-13,2.414095736e-12,1.315010495e-12,1.126199872e-12,1.219483816e-12,1.935999406e-12,1.805660728e-12,2.1356916e-12,1.242083753e-12,4.330337809e-13,1.202444042e-12,4.340149621e-13,8.535179979e-13,7.366968013e-13,3.351458229e-13,1.359767382e-12,1.984609663e-12,9.413801945e-13,1.178072808e-12,6.505270536e-13,6.558869393e-13
0.7421875,1.557783313e-12,8.641728481e-13,7.879821772e-13,7.399511521e-13,4.593629726e-13,7.32723335e-13,2.057110683e-12,4.508803819e-13,1.422709269e-12,4.612926799e-13,1.197469703e-12,5.519063246e-13,2.397549782e-12,1.290626742e-12,1.128420871e-12,1.21961365e-12,1.936549755e-12,1.800696732e-12,2.134595887e-12,1.238164027e-12,4.350672057e-13,1.197577598e-12,4.309917729e-13,8.545185344e-13,7.276219099e-13,3.336469786e-13,1.361115779e-12,1.972922466e-12,9.475181884e-13,1.172853429e-12,6.523801665e-13,6.472012822e-13
0.75,1.5510112e-12,8.636821626e-13,7.782989834e-13,7.390901347e-13,4.594645292e-13,7.345681132e-13,2.053459861e-12,4.589682136e-13,1.410240564e-12,4.60689847e-13,1.192635752e-12,5.502413995e-13,2.380547201e-12,1.266387243e-12,1.130703312e-12,1.219424672e-12,1.936808582e-12,1.796754319e-12,2.13299468e-12,1.23431507e-12,4.371250537e-13,1.192292487e-12,4.278525513e-13,8.555712532e-13,7.18360497e-13,3.322983704e-13,1.362298839e-12,1.960628225e-12,9.53711321e-13,1.167397638e-12,6.542593102e-13,6.382359342e-13
0.7578125,1.544513809e-12,8.633650225e-13,7.691929764e-13,7.383810177e-13,4.596182764e-13,7.365129345e-13,2.049593738e-12,4.671566769e-13,1.397276604e-12,4.598970944e-13,1.187233775e-12,5.486128051e-13,2.362867606e-12,1.242244832e-12,1.133045769e-12,1.218961873e-12,1.936567292e-12,1.793362657e-12,2.130989011e-12,1.230445634e-12,4.39283017e-13,1.186616894e-12,4.24624218e-13,8.565975224e-13,7.088269456e-13,3.31099508e-13,1.363181722e-12,1.947473325e-12,9.599640557e-13,1.161724969e-12,6.562886138e-13,6.289680584e-13
0.765625,1.538488431e-12,8.631237682e-13,7.60643063e-13,7.377302796e-13,4.597517053e-13,7.386268807e-13,2.045674903e-12,4.754513547e-13,1.383990174e-12,4.588247415e-13,1.181501932e-12,5.471975767e-13,2.344776414e-12,1.21836684e-12,1.135493948e-12,1.218361672e-12,1.935807392e-12,1.790603412e-12,2.12862657e-12,1.226568777e-12,4.415846175e-13,1.180809296e-12,4.212918462e-13,8.576583625e-13,6.992161526e-13,3.300384624e-13,1.363964147e-12,1.933770593e-12,9.662997807e-13,1.156128529e-12,6.584515517e-13,6.195307547e-13
0.7734375,1.532797281e-12,8.629319342e-13,7.525541757e-13,7.37133335e-13,4.598116696e-13,7.409242296e-13,2.041673943e-12,4.838460027e-13,1.370569781e-12,4.574848136e-13,1.175734695e-12,5.460599869e-13,2.326506137e-12,1.194944339e-12,1.138049933e-12,1.217667133e-12,1.93474618e-12,1.788515344e-12,2.125558366e-12,1.222760442e-12,4.439684108e-13,1.174770804e-12,4.17820177e-13,8.587607399e-13,6.896158989e-13,3.291037699e-13,1.364741951e-12,1.919603311e-12,9.726591893e-13,1.150485237e-12,6.605441286e-13,6.09955697e-13
0.78125,1.52726524e-12,8.628160867e-13,7.449131735e-13,7.366190258e-13,4.597858956e-13,7.433950437e-13,2.037290879e-12,4.923727077e-13,1.356577021e-12,4.560111768e-13,1.169763395e-12,5.452000078e-13,2.308006114e-12,1.172149902e-12,1.140737683e-12,1.216862023e-12,1.933630031e-12,1.786897918e-12,2.121555295e-12,1.219004149e-12,4.464871004e-13,1.168210343e-12,4.14244072e-13,8.597494613e-13,6.80033206e-13,3.282866041e-13,1.365373502e-12,1.904919556e-12,9.789932219e-13,1.144553369e-12,6.624499397e-13,6.001500807e-13
0.7890625,1.521944076e-12,8.628398033e-13,7.379309029e-13,7.362241193e-13,4.597559869e-13,7.460126296e-13,2.032524117e-12,5.010633599e-13,1.341822557e-12,4.544161787e-13,1.163268615e-12,5.446604883e-13,2.289323381e-12,1.150072316e-12,1.14364832e-12,1.215973259e-12,1.932366563e-12,1.785899179e-12,2.116878439e-12,1.215320429e-12,4.4922032e-13,1.161157594e-12,4.10606343e-13,8.607484613e-13,6.705180703e-13,3.275923123e-13,1.365853438e-12,1.889931801e-12,9.853156147e-13,1.138468848e-12,6.642719245e-13,5.901719711e-13
0.796875,1.51706181e-12,8.63009749e-13,7.317541455e-13,7.359475641e-13,4.597556722e-13,7.488259628e-13,2.027774055e-12,5.098836871e-13,1.326886194e-12,4.526305302e-13,1.156323546e-12,5.443688612e-13,2.270515435e-12,1.12843703e-12,1.146837325e-12,1.215011578e-12,1.930557631e-12,1.785466591e-12,2.111690278e-12,1.211800648e-12,4.520919233e-13,1.153786641e-12,4.069394249e-13,8.620108629e-13,6.610106705e-13,3.270417821e-13,1.366235152e-12,1.874592026e-12,9.91624228e-13,1.132344472e-12,6.661074085e-13,5.801902304e-13
0.8046875,1.512683018e-12,8.632944572e-13,7.263173557e-13,7.35788e-13,4.597856473e-13,7.519240942e-13,2.023213464e-12,5.188015978e-13,1.312022982e-12,4.506878596e-13,1.149114425e-12,5.442317806e-13,2.251507948e-12,1.106872354e-12,1.1502559e-12,1.213982663e-12,1.928385539e-12,1.78542403e-12,2.105925931e-12,1.208436752e-12,4.55158689e-13,1.146183167e-12,4.033390378e-13,8.633403088e-13,6.514788863e-13,3.266619801e-13,1.366489543e-12,1.85872272e-12,9.979377845e-13,1.126043071e-12,6.679457493e-13,5.702307195e-13
0.8125,1.50884958e-12,8.636604032e-13,7.215758759e-13,7.357302571e-13,4.598851021e-13,7.552141266e-13,2.018711014e-12,5.277342858e-13,1.297008844e-12,4.485796391e-13,1.141517829e-12,5.44363221e-13,2.232418118e-12,1.085511382e-12,1.153835616e-12,1.212897983e-12,1.926393236e-12,1.786006326e-12,2.099616456e-12,1.20515833e-12,4.584879604e-13,1.138382164e-12,3.998539131e-13,8.644988727e-13,6.420372043e-13,3.26476953e-13,1.36667338e-12,1.842577472e-12,1.004305294e-12,1.119507806e-12,6.69762345e-13,5.60197932e-13
0.8203125,1.505695209e-12,8.639473954e-13,7.174652853e-13,7.356030136e-13,4.599122697e-13,7.585950624e-13,2.014145619e-12,5.365604941e-13,1.281950075e-12,4.463203665e-13,1.133512108e-12,5.44849077e-13,2.213477161e-12,1.064688223e-12,1.157436736e-12,1.211686753e-12,1.924243836e-12,1.78713299e-12,2.092834885e-12,1.201940771e-12,4.618368498e-13,1.13034888e-12,3.963932326e-13,8.6583846e-13,6.326874899e-13,3.264602422e-13,1.36679479e-12,1.826331985e-12,1.010684667e-12,1.11287139e-12,6.714926666e-13,5.500197797e-13
0.828125,1.502982239e-12,8.640475122e-13,7.138876086e-13,7.353093128e-13,4.597032716e-13,7.621745285e-13,2.009425748e-12,5.453479502e-13,1.266996114e-12,4.440292861e-13,1.12538192e-12,5.455516724e-13,2.194696685e-12,1.044402145e-12,1.160779313e-12,1.210250444e-12,1.921391126e-12,1.788440367e-12,2.085630456e-12,1.198721378e-12,4.651073255e-13,1.122082128e-12,3.929127933e-13,8.678410199e-13,6.233221569e-13,3.265232244e-13,1.366704362e-12,1.809761634e-12,1.016991474e-12,1.10627618e-12,6.730622962e-13,5.396833366e-13
0.8359375,1.500562566e-12,8.641546857e-13,7.10918743e-13,7.350786208e-13,4.594484307e-13,7.660692016e-13,2.00452338e-12,5.542397694e-13,1.252000519e-12,4.416207919e-13,1.11712211e-12,5.464063604e-13,2.175982356e-12,1.024656494e-12,1.163801736e-12,1.208670922e-12,1.918323912e-12,1.790093993e-12,2.078004378e-12,1.19550689e-12,4.684912464e-13,1.1136014e-12,3.894820932e-13,8.704490443e-13,6.139336645e-13,3.266561697e-13,1.366408003e-12,1.792765374e-12,1.023239631e-12,1.09970519e-12,6.745420775e-13,5.292049399e-13
0.84375,1.498968659e-12,8.644392368e-13,7.086622254e-13,7.350719326e-13,4.593273975e-13,7.704163254e-13,1.999476155e-12,5.632122244e-13,1.236879712e-12,4.389679875e-13,1.108430949e-12,5.475032625e-13,2.15732703e-12,1.005616868e-12,1.166894973e-12,1.207183173e-12,1.915449591e-12,1.792312906e-12,2.069985122e-12,1.192521191e-12,4.719897912e-13,1.104792308e-12,3.860948641e-13,8.732259035e-13,6.045673052e-13,3.269798245e-13,1.366057171e-12,1.775521403e-12,1.029464082e-12,1.093058575e-12,6.760549215e-13,5.18609247e-13
0.8515625,1.498260044e-12,8.647839637e-13,7.070604021e-13,7.351137525e-13,4.591901178e-13,7.753053606e-13,1.994312198e-12,5.722192615e-13,1.221560144e-12,4.362326768e-13,1.099343737e-12,5.488037816e-13,2.138795865e-12,9.871521455e-13,1.170331808e-12,1.205741492e-12,1.912079302e-12,1.794912152e-12,2.061722875e-12,1.189774828e-12,4.755209604e-13,1.09566746e-12,3.826689644e-13,8.759277753e-13,5.952472432e-13,3.275418762e-13,1.365621951e-12,1.758143415e-12,1.035638401e-12,1.086380664e-12,6.775751115e-13,5.079856243e-13
0.859375,1.497736804e-12,8.65023171e-13,7.059778105e-13,7.350270305e-13,4.589724237e-13,7.804348593e-13,1.989105176e-12,5.812493908e-13,1.205974976e-12,4.33500867e-13,1.090218711e-12,5.501806231e-13,2.120356459e-12,9.689381348e-13,1.173794465e-12,1.203960018e-12,1.907772768e-12,1.797711982e-12,2.053104035e-12,1.186939715e-12,4.791376157e-13,1.086474665e-12,3.791963985e-13,8.786599012e-13,5.859316989e-13,3.282719002e-13,1.364970471e-12,1.740424906e-12,1.041754822e-12,1.079741897e-12,6.790247871e-13,4.974661955e-13
0.8671875,1.49740858e-12,8.651037686e-13,7.05325118e-13,7.348266213e-13,4.58800957e-13,7.856556537e-13,1.983831685e-12,5.902727711e-13,1.190331834e-12,4.306940425e-13,1.081311659e-12,5.516438376e-13,2.10178524e-12,9.509303391e-13,1.176949648e-12,1.201858967e-12,1.90325594e-12,1.80078137e-12,2.04387498e-12,1.184058753e-12,4.828643018e-13,1.077288499e-12,3.757172094e-13,8.815344403e-13,5.765147413e-13,3.291766473e-13,1.364104384e-12,1.722136726e-12,1.047829474e-12,1.073055384e-12,6.804213827e-13,4.870722953e-13
0.875,1.497628807e-12,8.650750336e-13,7.052318913e-13,7.346001579e-13,4.586522075e-13,7.913842855e-13,1.978275403e-12,5.993477754e-13,1.174798808e-12,4.278886563e-13,1.072592328e-12,5.532559177e-13,2.08301688e-12,9.332591957e-13,1.179927145e-12,1.199856164e-12,1.899126559e-12,1.804261696e-12,2.03421513e-12,1.181443715e-12,4.867553464e-13,1.067994562e-12,3.722586399e-13,8.846282241e-13,5.670258824e-13,3.30296854e-13,1.36309872e-12,1.703421179e-12,1.053845734e-12,1.066250936e-12,6.817705291e-13,4.767591866e-13
0.8828125,1.49801324e-12,8.650186371e-13,7.058340299e-13,7.343772423e-13,4.583970537e-13,7.975775146e-13,1.972366536e-12,6.084230129e-13,1.159303462e-12,4.251163461e-13,1.063740949e-12,5.55002174e-13,2.064237145e-12,9.159288689e-13,1.182667362e-12,1.197704642e-12,1.894748723e-12,1.807799665e-12,2.024051666e-12,1.178925938e-12,4.90807819e-13,1.058527411e-12,3.68822723e-13,8.881597723e-13,5.575813596e-13,3.315683166e-13,1.361931491e-12,1.684261694e-12,1.059767048e-12,1.059289845e-12,6.829944329e-13,4.665534146e-13
0.890625,1.498486151e-12,8.649166853e-13,7.06878453e-13,7.340893871e-13,4.580392783e-13,8.036457932e-13,1.966202023e-12,6.172598677e-13,1.143844348e-12,4.223100997e-13,1.054475527e-12,5.568620177e-13,2.045428917e-12,8.98871014e-13,1.184740743e-12,1.194848461e-12,1.889391755e-12,1.81092519e-12,2.012864778e-12,1.17628239e-12,4.947984282e-13,1.048800647e-12,3.65345742e-13,8.920702084e-13,5.48135235e-13,3.32958039e-13,1.360472007e-12,1.664383756e-12,1.065536036e-12,1.052098025e-12,6.840796965e-13,4.564340816e-13
0.8984375,1.499595984e-12,8.647429609e-13,7.081575615e-13,7.337288542e-13,4.577146494e-13,8.09707246e-13,1.959773813e-12,6.259230452e-13,1.128463753e-12,4.195948989e-13,1.044914711e-12,5.588561308e-13,2.026567095e-12,8.82127676e-13,1.18631722e-12,1.191693717e-12,1.883645371e-12,1.814273601e-12,2.001105845e-12,1.173693036e-12,4.987089762e-13,1.038806238e-12,3.617976798e-13,8.959856434e-13,5.386667762e-13,3.344996661e-13,1.358684407e-12,1.644220663e-12,1.071099993e-12,1.044814578e-12,6.851077089e-13,4.462882849e-13
0.90625,1.501270217e-12,8.645256693e-13,7.098348914e-13,7.333677049e-13,4.575217568e-13,8.162293077e-13,1.953194497e-12,6.346716685e-13,1.113095067e-12,4.170894117e-13,1.03536308e-12,5.60984762e-13,2.007988249e-12,8.658040046e-13,1.187965874e-12,1.18885537e-12,1.878388391e-12,1.818594925e-12,1.989707328e-12,1.171209461e-12,5.028385738e-13,1.028695161e-12,3.582945163e-13,9.000321005e-13,5.293187506e-13,3.361426531e-13,1.356730991e-12,1.624311088e-12,1.076502588e-12,1.037648755e-12,6.860836364e-13,4.361211419e-13
0.9140625,1.503098836e-12,8.641702506e-13,7.118662406e-13,7.329249797e-13,4.573802313e-13,8.230238232e-13,1.946780057e-12,6.433632361e-13,1.097618005e-12,4.147467789e-13,1.025964815e-12,5.632062184e-13,1.989842035e-12,8.498886438e-13,1.189468748e-12,1.185988061e-12,1.873223667e-12,1.823219888e-12,1.978296787e-12,1.168763925e-12,5.07230446e-13,1.018524235e-12,3.549371759e-13,9.045771889e-13,5.200846411e-13,3.378705595e-13,1.354720686e-12,1.604103541e-12,1.081858278e-12,1.030468674e-12,6.869264002e-13,4.260690641e-13
0.921875,1.505104421e-12,8.63560755e-13,7.140180462e-13,7.32271356e-13,4.571600623e-13,8.298415317e-13,1.940576787e-12,6.517685496e-13,1.081916129e-12,4.125531253e-13,1.016779002e-12,5.65525313e-13,1.971935839e-12,8.343654892e-13,1.190339843e-12,1.182657905e-12,1.867324362e-12,1.827357021e-12,1.966055853e-12,1.166406039e-12,5.116370446e-13,1.008305448e-12,3.516954419e-13,9.09400457e-13,5.108357918e-13,3.398172929e-13,1.352537511e-12,1.583118932e-12,1.087170832e-12,1.023116331e-12,6.875971498e-13,4.162280118e-13
0.9296875,1.50727608e-12,8.627319457e-13,7.163635677e-13,7.314647261e-13,4.568790459e-13,8.36805523e-13,1.934278923e-12,6.600034867e-13,1.066081092e-12,4.104806772e-13,1.007869304e-12,5.67988118e-13,1.954206454e-12,8.192898204e-13,1.190720138e-12,1.179021399e-12,1.860764123e-12,1.831056788e-12,1.953048271e-12,1.164034173e-12,5.160227218e-13,9.981189494e-13,3.485307483e-13,9.143777777e-13,5.016195134e-13,3.420374602e-13,1.350037874e-12,1.561732369e-12,1.092260489e-12,1.015685941e-12,6.880822896e-13,4.066126999e-13
0.9375,1.509557424e-12,8.617121882e-13,7.190326199e-13,7.305826674e-13,4.566009659e-13,8.439541849e-13,1.927697647e-12,6.681255193e-13,1.050297906e-12,4.084689209e-13,9.991511033e-13,5.705365006e-13,1.936520592e-12,8.044983768e-13,1.190726638e-12,1.175206765e-12,1.854018688e-12,1.834317277e-12,1.939462313e-12,1.1616403e-12,5.205711265e-13,9.878760978e-13,3.454138053e-13,9.199116384e-13,4.925153321e-13,3.444328679e-13,1.347244741e-12,1.540011596e-12,1.097035606e-12,1.008120857e-12,6.883919386e-13,3.971446124e-13
0.9453125,1.512202947e-12,8.605262503e-13,7.220575363e-13,7.296240709e-13,4.563207254e-13,8.512912821e-13,1.921028902e-12,6.760005239e-13,1.034434513e-12,4.065281888e-13,9.904804521e-13,5.731481031e-13,1.918678128e-12,7.898452153e-13,1.190337202e-12,1.171262705e-12,1.847125781e-12,1.837165197e-12,1.925231186e-12,1.159317842e-12,5.252819312e-13,9.774222063e-13,3.42303769e-13,9.259487174e-13,4.834978248e-13,3.469715741e-13,1.34433991e-12,1.517874009e-12,1.101750678e-12,1.000324635e-12,6.886452342e-13,3.877002736e-13
0.953125,1.51536557e-12,8.592676534e-13,7.255262848e-13,7.286449058e-13,4.560261324e-13,8.588932349e-13,1.914512993e-12,6.836502182e-13,1.018387772e-12,4.046760021e-13,9.820105824e-13,5.760482063e-13,1.900867987e-12,7.756842438e-13,1.189878026e-12,1.167321068e-12,1.839837007e-12,1.839830086e-12,1.910515563e-12,1.156734533e-12,5.299754042e-13,9.668035985e-13,3.392734225e-13,9.321135204e-13,4.746184926e-13,3.497149397e-13,1.341513883e-12,1.49576207e-12,1.106641271e-12,9.925694747e-13,6.889527121e-13,3.783087335e-13
0.9609375,1.518904274e-12,8.578983318e-13,7.293706297e-13,7.276611173e-13,4.556802382e-13,8.667786686e-13,1.907882489e-12,6.911643538e-13,1.002411507e-12,4.030194552e-13,9.739836922e-13,5.793113983e-13,1.883258733e-12,7.622256837e-13,1.189329209e-12,1.163247624e-12,1.832122087e-12,1.84223855e-12,1.895546583e-12,1.15369478e-12,5.34675048e-13,9.561001526e-13,3.364390064e-13,9.386314212e-13,4.65954434e-13,3.526725629e-13,1.338751809e-12,1.473719401e-12,1.111489753e-12,9.849955177e-13,6.892586953e-13,3.691211745e-13
0.96875,1.522826528e-12,8.559873955e-13,7.332708014e-13,7.262724326e-13,4.550928607e-13,8.749339938e-13,1.900831522e-12,6.985403983e-13,9.865689931e-13,4.017319723e-13,9.662254699e-13,5.826349274e-13,1.865788034e-12,7.489867436e-13,1.188141441e-12,1.158846671e-12,1.824250118e-12,1.844172123e-12,1.880290712e-12,1.150350556e-12,5.388569004e-13,9.452420341e-13,3.336095882e-13,9.458700147e-13,4.573580717e-13,3.557774081e-13,1.335854875e-12,1.451335303e-12,1.116011762e-12,9.773982641e-13,6.8929164e-13,3.601545355e-13
0.9765625,1.526944606e-12,8.53714259e-13,7.374151749e-13,7.245449926e-13,4.542436914e-13,8.83234039e-13,1.893161428e-12,7.055641332e-13,9.708075761e-13,4.006053266e-13,9.584164771e-13,5.859411569e-13,1.848729008e-12,7.359804883e-13,1.186296958e-12,1.154144365e-12,1.815851622e-12,1.845416988e-12,1.864888002e-12,1.14670976e-12,5.43115488e-13,9.345500811e-13,3.308731e-13,9.535696353e-13,4.489150235e-13,3.589274687e-13,1.332767515e-12,1.428792541e-12,1.120504709e-12,9.698832164e-13,6.891748642e-13,3.512642084e-13
0.984375,1.531388168e-12,8.51197118e-13,7.418145878e-13,7.225922472e-13,4.533479862e-13,8.913596057e-13,1.885323335e-12,7.123474733e-13,9.55288138e-13,3.995524729e-13,9.507594263e-13,5.89542666e-13,1.832341476e-12,7.236116962e-13,1.184126833e-12,1.149318029e-12,1.806772374e-12,1.846200388e-12,1.849465571e-12,1.142972306e-12,5.47592493e-13,9.240426697e-13,3.283079733e-13,9.616032499e-13,4.406773552e-13,3.62141918e-13,1.329612165e-12,1.406493395e-12,1.125241604e-12,9.628295443e-13,6.889669584e-13,3.424887165e-13
0.9921875,1.536143218e-12,8.485649337e-13,7.464293458e-13,7.206115461e-13,4.525149868e-13,8.994715805e-13,1.877347833e-12,7.189071686e-13,9.400663534e-13,3.988483834e-13,9.434399115e-13,5.933414779e-13,1.816277162e-12,7.116209196e-13,1.181486082e-12,1.144386699e-12,1.797489806e-12,1.846840132e-12,1.834055885e-12,1.139555023e-12,5.52452844e-13,9.135986701e-13,3.259734123e-13,9.699827331e-13,4.326726482e-13,3.654618273e-13,1.326386277e-12,1.384357169e-12,1.130028032e-12,9.559954177e-13,6.886920338e-13,3.33956502e-13
1,1.540800982e-12,8.457273886e-13,7.51086691e-13,7.184658915e-13,4.516038849e-13,9.079918629e-13,1.868957843e-12,7.252312583e-13,9.248359477e-13,3.985304762e-13,9.36286459e-13,5.970067264e-13,1.800219289e-12,6.994906327e-13,1.178194009e-12,1.139208119e-12,1.788257068e-12,1.84731561e-12,1.81849647e-12,1.136321466e-12,5.575790748e-13,9.031936682e-13,3.237387487e-13,9.786717142e-13,4.248304959e-13,3.688487211e-13,1.322926465e-12,1.362116949e-12,1.134596178e-12,9.490146903e-13,6.882904008e-13,3.257103857e-13
1.0078125,1.545471413e-12,8.42690443e-13,7.559090561e-13,7.161457687e-13,4.505728413e-13,9.168761987e-13,1.86019198e-12,7.314310854e-13,9.095765161e-13,3.983439607e-13,9.293804007e-13,6.007134317e-13,1.784266862e-12,6.874753335e-13,1.174478646e-12,1.133810098e-12,1.77883594e-12,1.847524748e-12,1.802673459e-12,1.133054698e-12,5.628610168e-13,8.929170817e-13,3.215060177e-13,9.877314514e-13,4.17065066e-13,3.722955619e-13,1.319267068e-12,1.339700316e-12,1.13904802e-12,9.420423933e-13,6.878223749e-13,3.177140984e-13
1.015625,1.550534182e-12,8.396387231e-13,7.61197638e-13,7.138993419e-13,4.49509721e-13,9.259167544e-13,1.851206026e-12,7.37540059e-13,8.944839138e-13,3.981764659e-13,9.228600117e-13,6.047209264e-13,1.768418218e-12,6.760097929e-13,1.17070375e-12,1.128404104e-12,1.769040099e-12,1.847741221e-12,1.786718097e-12,1.129877983e-12,5.683830494e-13,8.827387503e-13,3.193452837e-13,9.971859275e-13,4.094322966e-13,3.758738744e-13,1.315638555e-12,1.317326457e-12,1.143546393e-12,9.35237285e-13,6.874698099e-13,3.098963553e-13
1.0234375,1.55566175e-12,8.365746083e-13,7.66765306e-13,7.117184075e-13,4.484978142e-13,9.351537901e-13,1.841917992e-12,7.434099187e-13,8.795166359e-13,3.980549621e-13,9.16432566e-13,6.088004636e-13,1.752446505e-12,6.648403938e-13,1.166893541e-12,1.122925043e-12,1.75889213e-12,1.848017791e-12,1.770676301e-12,1.126779427e-12,5.740288698e-13,8.724924068e-13,3.173171206e-13,1.006936307e-12,4.020328348e-13,3.795931116e-13,1.312055561e-12,1.295145256e-12,1.147999594e-12,9.284118153e-13,6.872162221e-13,3.022727443e-13
1.03125,1.560445082e-12,8.333106337e-13,7.722810366e-13,7.093969586e-13,4.475720442e-13,9.445550161e-13,1.832044634e-12,7.489823626e-13,8.645918306e-13,3.981777446e-13,9.100485223e-13,6.127974542e-13,1.736293584e-12,6.536931134e-13,1.162246336e-12,1.117042323e-12,1.74847732e-12,1.84780047e-12,1.754367415e-12,1.123804509e-12,5.79615555e-13,8.621796826e-13,3.15416878e-13,1.016998988e-12,3.948124628e-13,3.833871501e-13,1.308307685e-12,1.272825457e-12,1.152258649e-12,9.214574714e-13,6.868080512e-13,2.949523123e-13
1.0390625,1.565032643e-12,8.297440626e-13,7.778288391e-13,7.068261321e-13,4.465994542e-13,9.538902471e-13,1.821479165e-12,7.543347097e-13,8.496995482e-13,3.98725989e-13,9.039986017e-13,6.169794193e-13,1.720178595e-12,6.429558196e-13,1.156213367e-12,1.110655505e-12,1.737573558e-12,1.846495558e-12,1.737645889e-12,1.120994202e-12,5.85142813e-13,8.519925042e-13,3.136527628e-13,1.027462278e-12,3.876985436e-13,3.872249925e-13,1.304342086e-12,1.250102262e-12,1.156326589e-12,9.145488146e-13,6.861110349e-13,2.879056932e-13
1.046875,1.56967305e-12,8.259174548e-13,7.835166871e-13,7.040120716e-13,4.454401094e-13,9.630611217e-13,1.810756095e-12,7.594272006e-13,8.348899429e-13,3.994804384e-13,8.981538185e-13,6.214544575e-13,1.704195482e-12,6.329596195e-13,1.149791599e-12,1.103948636e-12,1.725860057e-12,1.843986751e-12,1.72047293e-12,1.118017035e-12,5.905051817e-13,8.419202865e-13,3.120051124e-13,1.038364991e-12,3.807567759e-13,3.911255474e-13,1.300294529e-12,1.227251208e-12,1.160293719e-12,9.078454177e-13,6.852476043e-13,2.809831529e-13
1.0546875,1.57424989e-12,8.21907218e-13,7.892853983e-13,7.010856525e-13,4.441668224e-13,9.722008662e-13,1.800353652e-12,7.641245722e-13,8.203990223e-13,4.00267812e-13,8.922735709e-13,6.259769617e-13,1.688156636e-12,6.233596741e-13,1.14372409e-12,1.097114283e-12,1.713743837e-12,1.840845648e-12,1.702988908e-12,1.114717622e-12,5.955605077e-13,8.317689291e-13,3.104071618e-13,1.049693253e-12,3.74016201e-13,3.951266996e-13,1.296226031e-12,1.204582452e-12,1.164218762e-12,9.012519005e-13,6.843418337e-13,2.74187453e-13
1.0625,1.578185197e-12,8.176687997e-13,7.95037984e-13,6.980678139e-13,4.428204861e-13,9.813485414e-13,1.789680039e-12,7.683665396e-13,8.063547658e-13,4.012723289e-13,8.86525501e-13,6.304243898e-13,1.672096545e-12,6.137815746e-13,1.137099789e-12,1.090163067e-12,1.701708592e-12,1.837600988e-12,1.685422402e-12,1.111095845e-12,6.003883992e-13,8.215675877e-13,3.088213439e-13,1.06138776e-12,3.674144423e-13,3.99244918e-13,1.292073107e-12,1.182177733e-12,1.168085116e-12,8.946265913e-13,6.833681898e-13,2.676296601e-13
1.0703125,1.581404467e-12,8.13185328e-13,8.006490907e-13,6.948830236e-13,4.413970046e-13,9.903969456e-13,1.778152543e-12,7.722009977e-13,7.925799744e-13,4.024861834e-13,8.811237324e-13,6.349119838e-13,1.656273016e-12,6.043432004e-13,1.129629333e-12,1.082987555e-12,1.689431497e-12,1.8338895e-12,1.667777359e-12,1.10701939e-12,6.05123017e-13,8.114870365e-13,3.072754387e-13,1.073517477e-12,3.609716265e-13,4.034511678e-13,1.287793568e-12,1.160033018e-12,1.171833107e-12,8.880607197e-13,6.823470113e-13,2.613059384e-13
1.078125,1.584930255e-12,8.086985149e-13,8.062545015e-13,6.91753915e-13,4.40081824e-13,9.994774016e-13,1.766400706e-12,7.758044035e-13,7.789499639e-13,4.037652588e-13,8.760857331e-13,6.394907019e-13,1.640572883e-12,5.951846498e-13,1.122430689e-12,1.075709215e-12,1.676680951e-12,1.829371647e-12,1.650099635e-12,1.102802234e-12,6.098375265e-13,8.015349228e-13,3.058473184e-13,1.086024312e-12,3.547465936e-13,4.077351917e-13,1.283450435e-12,1.138012948e-12,1.175420798e-12,8.816500543e-13,6.814320692e-13,2.551313789e-13
1.0859375,1.589017383e-12,8.042485977e-13,8.119903322e-13,6.887654828e-13,4.38872317e-13,1.008733073e-12,1.754995324e-12,7.792992975e-13,7.654721811e-13,4.05254827e-13,8.712861858e-13,6.440853201e-13,1.62471587e-12,5.862101569e-13,1.115621221e-12,1.068485307e-12,1.663484955e-12,1.824233535e-12,1.632555817e-12,1.098663463e-12,6.14531515e-13,7.916219959e-13,3.045815773e-13,1.098418424e-12,3.487182762e-13,4.121007581e-13,1.279090351e-12,1.116026318e-12,1.178821628e-12,8.752813644e-13,6.806246856e-13,2.490643032e-13
1.09375,1.592445108e-12,7.994319129e-13,8.175434021e-13,6.854976471e-13,4.374407102e-13,1.017884526e-12,1.743514334e-12,7.825291641e-13,7.521159407e-13,4.071015956e-13,8.66665772e-13,6.486448166e-13,1.608730955e-12,5.773988446e-13,1.108099129e-12,1.061038908e-12,1.649673231e-12,1.818294493e-12,1.614900854e-12,1.094133636e-12,6.191562773e-13,7.817001789e-13,3.034133179e-13,1.110669461e-12,3.428591783e-13,4.165043454e-13,1.274612859e-12,1.094163212e-12,1.182009644e-12,8.689050097e-13,6.797109582e-13,2.431205287e-13
1.1015625,1.59482365e-12,7.941180041e-13,8.22825292e-13,6.818301675e-13,4.357729605e-13,1.026747811e-12,1.73168726e-12,7.853472096e-13,7.388689803e-13,4.092927357e-13,8.624750717e-13,6.531978703e-13,1.592756997e-12,5.688131471e-13,1.099578634e-12,1.053167396e-12,1.635572597e-12,1.811492551e-12,1.596928673e-12,1.089257422e-12,6.237777983e-13,7.718116973e-13,3.022847378e-13,1.12354268e-12,3.371814025e-13,4.209293319e-13,1.269949792e-12,1.072471326e-12,1.184988452e-12,8.626163737e-13,6.786178615e-13,2.373511574e-13
1.109375,1.596980269e-12,7.885167477e-13,8.280360909e-13,6.780270099e-13,4.341325656e-13,1.035469792e-12,1.719860983e-12,7.878615931e-13,7.257046572e-13,4.118619403e-13,8.587955003e-13,6.578034052e-13,1.576845041e-12,5.604890118e-13,1.090643639e-12,1.0450531e-12,1.621280291e-12,1.804248907e-12,1.579020446e-12,1.084519572e-12,6.284545574e-13,7.620522229e-13,3.012573561e-13,1.137222615e-12,3.317324108e-13,4.253652693e-13,1.265160116e-12,1.050942432e-12,1.187741515e-12,8.564726954e-13,6.774388267e-13,2.317753995e-13
1.1171875,1.599092721e-12,7.825395199e-13,8.328841647e-13,6.739888834e-13,4.324652618e-13,1.043998739e-12,1.708182448e-12,7.901158592e-13,7.126202979e-13,4.148477712e-13,8.552633893e-13,6.624449617e-13,1.560940169e-12,5.525092252e-13,1.081394444e-12,1.036604556e-12,1.605929308e-12,1.796378616e-12,1.561310863e-12,1.079734453e-12,6.330982803e-13,7.524180354e-13,3.003767851e-13,1.151100515e-12,3.265893915e-13,4.296968037e-13,1.260187746e-12,1.029612798e-12,1.190189228e-12,8.50529286e-13,6.76146876e-13,2.263473941e-13
1.125,1.600731103e-12,7.760391911e-13,8.371725653e-13,6.695179071e-13,4.305918427e-13,1.052226267e-12,1.696426242e-12,7.919625307e-13,6.998091304e-13,4.182238516e-13,8.5179113e-13,6.670276015e-13,1.544956926e-12,5.448641091e-13,1.07148463e-12,1.027674659e-12,1.589699925e-12,1.787502349e-12,1.543476129e-12,1.074780576e-12,6.376160003e-13,7.428990704e-13,2.995752325e-13,1.164946833e-12,3.217371166e-13,4.338984914e-13,1.254974615e-12,1.008550235e-12,1.1923238e-12,8.448044376e-13,6.746710674e-13,2.210690046e-13
1.1328125,1.601804604e-12,7.691277468e-13,8.412423845e-13,6.646912383e-13,4.285259442e-13,1.060183328e-12,1.684521763e-12,7.933017915e-13,6.874002316e-13,4.218473042e-13,8.48573333e-13,6.715418568e-13,1.52900233e-12,5.374410002e-13,1.061022142e-12,1.018548837e-12,1.573600958e-12,1.777712585e-12,1.525464711e-12,1.069788497e-12,6.418339246e-13,7.335982018e-13,2.988023508e-13,1.178771816e-12,3.170912568e-13,4.381445085e-13,1.249725084e-12,9.878993979e-13,1.19423916e-12,8.392064863e-13,6.730451852e-13,2.16005605e-13
1.140625,1.602429266e-12,7.618902167e-13,8.452486447e-13,6.596057918e-13,4.26282241e-13,1.067807751e-12,1.672720733e-12,7.941604049e-13,6.752508866e-13,4.255009848e-13,8.453507287e-13,6.760756988e-13,1.51312362e-12,5.302823683e-13,1.050426931e-12,1.009297274e-12,1.557217538e-12,1.766993744e-12,1.507355747e-12,1.064386113e-12,6.456003091e-13,7.244797664e-13,2.981040092e-13,1.192375896e-12,3.126930455e-13,4.425001982e-13,1.244541502e-12,9.677448411e-13,1.195964542e-12,8.33731465e-13,6.712973002e-13,2.111322292e-13
1.1484375,1.602742984e-12,7.544960211e-13,8.493174833e-13,6.544606768e-13,4.239140694e-13,1.075260754e-12,1.661143594e-12,7.946778484e-13,6.63303878e-13,4.291561178e-13,8.417211678e-13,6.80666906e-13,1.497123885e-12,5.234390329e-13,1.039889712e-12,9.998329774e-13,1.540218776e-12,1.755756282e-12,1.489201309e-12,1.058589245e-12,6.490856805e-13,7.154031843e-13,2.975261458e-13,1.205915325e-12,3.085851162e-13,4.468878827e-13,1.239267156e-12,9.479986073e-13,1.197523596e-12,8.28451817e-13,6.694698802e-13,2.063993453e-13
1.15625,1.602703174e-12,7.472008786e-13,8.536508052e-13,6.494630103e-13,4.216087857e-13,1.082697839e-12,1.649100443e-12,7.949616624e-13,6.516830514e-13,4.329357559e-13,8.37842608e-13,6.853274653e-13,1.48100868e-12,5.16766168e-13,1.029632661e-12,9.905143606e-13,1.523517823e-12,1.744674211e-12,1.471171337e-12,1.052925509e-12,6.519801593e-13,7.065065965e-13,2.971939904e-13,1.220317755e-12,3.046720753e-13,4.513430691e-13,1.233940631e-12,9.285814396e-13,1.19902202e-12,8.233486356e-13,6.67587272e-13,2.019209509e-13
1.1640625,1.602418873e-12,7.398154356e-13,8.576430134e-13,6.444741479e-13,4.193596963e-13,1.089756031e-12,1.637115047e-12,7.948884181e-13,6.402991298e-13,4.36810514e-13,8.341333235e-13,6.900321333e-13,1.46487427e-12,5.102665911e-13,1.019532222e-12,9.813828892e-13,1.507041046e-12,1.73323672e-12,1.453026567e-12,1.047204957e-12,6.542245036e-13,6.977518954e-13,2.968041106e-13,1.234975883e-12,3.00790058e-13,4.558225427e-13,1.228685774e-12,9.093468638e-13,1.200568262e-12,8.183358612e-13,6.657100956e-13,1.977110265e-13
1.171875,1.601869299e-12,7.321193488e-13,8.610808751e-13,6.393368357e-13,4.17015566e-13,1.096381448e-12,1.625383452e-12,7.944077723e-13,6.29060503e-13,4.409397997e-13,8.308428106e-13,6.946562817e-13,1.448665966e-12,5.039043622e-13,1.008648937e-12,9.717886787e-13,1.490051843e-12,1.721143494e-12,1.434538845e-12,1.041211739e-12,6.56048055e-13,6.891417118e-13,2.963036299e-13,1.249713233e-12,2.970289037e-13,4.602037621e-13,1.22330635e-12,8.900531717e-13,1.201920718e-12,8.133513824e-13,6.637424771e-13,1.936787367e-13
1.1796875,1.601181315e-12,7.242299072e-13,8.646623251e-13,6.340826194e-13,4.14565751e-13,1.103181306e-12,1.614047845e-12,7.936277739e-13,6.180789736e-13,4.455400479e-13,8.280654546e-13,6.991473682e-13,1.432688614e-12,4.97619495e-13,9.966406231e-13,9.616558335e-13,1.472626577e-12,1.709049875e-12,1.416249212e-12,1.035293229e-12,6.580383808e-13,6.808432182e-13,2.957332385e-13,1.264610424e-12,2.93433223e-13,4.644887413e-13,1.217723842e-12,8.707232829e-13,1.202845258e-12,8.083178315e-13,6.616437619e-13,1.898065637e-13
1.1875,1.600231878e-12,7.161105597e-13,8.684049837e-13,6.28588002e-13,4.120325849e-13,1.110003112e-12,1.603165378e-12,7.92417631e-13,6.075844003e-13,4.504225672e-13,8.258970964e-13,7.03653436e-13,1.417260753e-12,4.916837626e-13,9.842750543e-13,9.513450474e-13,1.454474095e-12,1.696587467e-12,1.398614539e-12,1.029233964e-12,6.602679886e-13,6.729804377e-13,2.95192354e-13,1.279643624e-12,2.899733289e-13,4.688136706e-13,1.212138136e-12,8.516002363e-13,1.203398844e-12,8.033487552e-13,6.594249419e-13,1.861823414e-13
1.1953125,1.598730322e-12,7.076241904e-13,8.716293099e-13,6.228256886e-13,4.09402781e-13,1.116051444e-12,1.592592229e-12,7.906489791e-13,5.974850149e-13,4.554447352e-13,8.241568018e-13,7.082347785e-13,1.402064513e-12,4.863340337e-13,9.716695741e-13,9.408262048e-13,1.435519389e-12,1.683287524e-12,1.381521275e-12,1.022670731e-12,6.624718503e-13,6.653780351e-13,2.947191594e-13,1.294720567e-12,2.866722807e-13,4.732461951e-13,1.206519109e-12,8.327566048e-13,1.203797246e-12,7.985796508e-13,6.571927372e-13,1.827273363e-13
1.203125,1.596580691e-12,6.990688376e-13,8.745388024e-13,6.171241091e-13,4.067951309e-13,1.121351737e-12,1.582167278e-12,7.885995635e-13,5.875127831e-13,4.608856945e-13,8.223662291e-13,7.12813276e-13,1.386855241e-12,4.813489937e-13,9.584151714e-13,9.300769459e-13,1.416608014e-12,1.669889962e-12,1.364951564e-12,1.016040295e-12,6.646571563e-13,6.579543906e-13,2.943251876e-13,1.309967428e-12,2.835543476e-13,4.778172838e-13,1.200745664e-12,8.142077752e-13,1.204143058e-12,7.939744367e-13,6.551619163e-13,1.79333148e-13
1.2109375,1.593852767e-12,6.907967498e-13,8.776071966e-13,6.117092241e-13,4.043683086e-13,1.126550697e-12,1.571927698e-12,7.865035829e-13,5.777085806e-13,4.667526043e-13,8.204661934e-13,7.174764933e-13,1.371772259e-12,4.765899966e-13,9.452068889e-13,9.193222929e-13,1.39772812e-12,1.656383392e-12,1.348803125e-12,1.009634701e-12,6.669430442e-13,6.507614915e-13,2.940693463e-13,1.325497896e-12,2.806797365e-13,4.826040583e-13,1.195117985e-12,7.961412064e-13,1.204529978e-12,7.895661271e-13,6.535122447e-13,1.760661822e-13
1.21875,1.590904486e-12,6.827815212e-13,8.807749118e-13,6.065469382e-13,4.02115023e-13,1.132031908e-12,1.561931743e-12,7.842994048e-13,5.68255058e-13,4.726892874e-13,8.189501041e-13,7.22350199e-13,1.35673735e-12,4.721518783e-13,9.329330583e-13,9.087965594e-13,1.378620118e-12,1.642321459e-12,1.332805632e-12,1.003264269e-12,6.692730807e-13,6.437244857e-13,2.939070699e-13,1.3411875e-12,2.781348041e-13,4.875759378e-13,1.189944196e-12,7.787218435e-13,1.205120327e-12,7.853875717e-13,6.522293098e-13,1.729660102e-13
1.2265625,1.588090937e-12,6.748483696e-13,8.840407138e-13,6.015186074e-13,3.999108808e-13,1.137773241e-12,1.552265165e-12,7.819779583e-13,5.590623935e-13,4.786649158e-13,8.18016503e-13,7.272284278e-13,1.341714342e-12,4.678479567e-13,9.2118303e-13,8.986632565e-13,1.360113835e-12,1.628463631e-12,1.317087801e-12,9.970022985e-13,6.715084807e-13,6.368684334e-13,2.936716596e-13,1.356826537e-12,2.758556572e-13,4.925324418e-13,1.18496626e-12,7.619094073e-13,1.205773598e-12,7.812377705e-13,6.510527215e-13,1.699992815e-13
1.234375,1.585091904e-12,6.668157339e-13,8.873231615e-13,5.964255371e-13,3.976954643e-13,1.143421103e-12,1.542974886e-12,7.795252702e-13,5.499881567e-13,4.848246191e-13,8.173389591e-13,7.318012003e-13,1.326832082e-12,4.635194867e-13,9.090726748e-13,8.886692882e-13,1.342267714e-12,1.614979444e-12,1.301750358e-12,9.909408125e-13,6.735560797e-13,6.303217755e-13,2.933913945e-13,1.372236653e-12,2.737497248e-13,4.973599109e-13,1.179819962e-12,7.45555999e-13,1.206180892e-12,7.770471924e-13,6.497524059e-13,1.672088607e-13
1.2421875,1.581490256e-12,6.585814015e-13,8.904123148e-13,5.911830913e-13,3.955250477e-13,1.148686246e-12,1.533604002e-12,7.76793754e-13,5.411273466e-13,4.910157192e-13,8.166696414e-13,7.361297413e-13,1.311806173e-12,4.59450978e-13,8.965352047e-13,8.783539805e-13,1.323967671e-12,1.600763356e-12,1.286474821e-12,9.849084529e-13,6.753258522e-13,6.240137765e-13,2.932776727e-13,1.387351809e-12,2.718903665e-13,5.021606847e-13,1.174585731e-12,7.295652324e-13,1.206485054e-12,7.730365307e-13,6.484122604e-13,1.646364002e-13
1.25,1.577644216e-12,6.502387939e-13,8.935673325e-13,5.859164337e-13,3.934257124e-13,1.153586801e-12,1.523736406e-12,7.737385081e-13,5.326076739e-13,4.970936932e-13,8.161858933e-13,7.405205301e-13,1.296332705e-12,4.558658161e-13,8.842790413e-13,8.678373957e-13,1.304853518e-12,1.585376983e-12,1.2711173e-12,9.787756168e-13,6.766753694e-13,6.178382944e-13,2.933116295e-13,1.402371974e-12,2.703088084e-13,5.069913196e-13,1.169405388e-12,7.139739028e-13,1.206883336e-12,7.692682156e-13,6.471132683e-13,1.622619357e-13
1.2578125,1.573892245e-12,6.418388036e-13,8.970039811e-13,5.806534921e-13,3.913015203e-13,1.158035293e-12,1.513989353e-12,7.703600329e-13,5.24482077e-13,5.032080022e-13,8.162842352e-13,7.450989579e-13,1.280651113e-12,4.526646858e-13,8.72532578e-13,8.573953668e-13,1.285344087e-12,1.569055502e-12,1.255787915e-12,9.723927018e-13,6.775467492e-13,6.118456396e-13,2.933151044e-13,1.41760817e-12,2.689054084e-13,5.117460423e-13,1.164145162e-12,6.98929711e-13,1.2070674e-12,7.656613549e-13,6.456967583e-13,1.600721459e-13
1.265625,1.569774844e-12,6.332544232e-13,9.004065704e-13,5.752684505e-13,3.890785689e-13,1.161833348e-12,1.505045792e-12,7.665828289e-13,5.16832165e-13,5.094221492e-13,8.169823025e-13,7.497762761e-13,1.265052697e-12,4.497115303e-13,8.604248539e-13,8.467169491e-13,1.26565185e-12,1.551898425e-12,1.240551363e-12,9.657017202e-13,6.780373974e-13,6.061236719e-13,2.933529267e-13,1.433091352e-12,2.676860515e-13,5.164059381e-13,1.158788846e-12,6.845287759e-13,1.206959779e-12,7.623399964e-13,6.441537131e-13,1.580584698e-13
1.2734375,1.564866498e-12,6.244299736e-13,9.03593844e-13,5.69713952e-13,3.867883794e-13,1.165082169e-12,1.496439946e-12,7.62459749e-13,5.096409894e-13,5.155125925e-13,8.177686673e-13,7.543985336e-13,1.2495349e-12,4.46897581e-13,8.476002633e-13,8.355553587e-13,1.245579529e-12,1.534065694e-12,1.225444853e-12,9.589676301e-13,6.782027963e-13,6.007250295e-13,2.935849884e-13,1.448563396e-12,2.667329748e-13,5.21080767e-13,1.153519006e-12,6.706991906e-13,1.206948263e-12,7.593810666e-13,6.426244569e-13,1.562122767e-13
1.28125,1.55923689e-12,6.154236133e-13,9.066538428e-13,5.640049423e-13,3.844457825e-13,1.168052717e-12,1.487662822e-12,7.581289672e-13,5.027372646e-13,5.213864521e-13,8.183634054e-13,7.587881984e-13,1.233936332e-12,4.4420035e-13,8.349925024e-13,8.242228438e-13,1.224961389e-12,1.515581285e-12,1.210342917e-12,9.523168714e-13,6.779740564e-13,5.955488244e-13,2.939672494e-13,1.463864104e-12,2.660246779e-13,5.257948166e-13,1.148296055e-12,6.574185713e-13,1.206943653e-12,7.565189064e-13,6.409692024e-13,1.545094268e-13
1.2890625,1.552839302e-12,6.062523292e-13,9.095484953e-13,5.581210675e-13,3.82015445e-13,1.17090765e-12,1.479037851e-12,7.536584551e-13,4.960596819e-13,5.272662135e-13,8.189665827e-13,7.628994757e-13,1.218091202e-12,4.417423874e-13,8.22958659e-13,8.129533138e-13,1.204377501e-12,1.496588259e-12,1.195129984e-12,9.455899138e-13,6.77333277e-13,5.903894614e-13,2.944128301e-13,1.479132792e-12,2.65519838e-13,5.304828466e-13,1.142964665e-12,6.44851261e-13,1.206550719e-12,7.535103464e-13,6.389853042e-13,1.529055938e-13
1.296875,1.545665557e-12,5.969802258e-13,9.123201329e-13,5.521165569e-13,3.795144334e-13,1.173719975e-12,1.47071448e-12,7.491611064e-13,4.897394385e-13,5.333330613e-13,8.196284519e-13,7.668904307e-13,1.202139809e-12,4.395837882e-13,8.109081375e-13,8.01679751e-13,1.18442275e-12,1.477848506e-12,1.180110785e-12,9.388050013e-13,6.764670151e-13,5.853287095e-13,2.949351428e-13,1.494528133e-12,2.652226987e-13,5.35091712e-13,1.137572793e-12,6.330100886e-13,1.205890922e-12,7.504410744e-13,6.367930952e-13,1.514258416e-13
1.3046875,1.538155883e-12,5.877736584e-13,9.151798022e-13,5.461512338e-13,3.770158604e-13,1.176446411e-12,1.46250796e-12,7.446823436e-13,4.838684311e-13,5.395746218e-13,8.202132653e-13,7.709071343e-13,1.18639049e-12,4.377269357e-13,7.988939825e-13,7.904618913e-13,1.164719154e-12,1.459751182e-12,1.165636285e-12,9.320217127e-13,6.756023986e-13,5.80647354e-13,2.955638303e-13,1.509936707e-12,2.651171021e-13,5.39617319e-13,1.132182881e-12,6.21737969e-13,1.205179312e-12,7.474744483e-13,6.346156884e-13,1.501187351e-13
1.3125,1.530552995e-12,5.78683203e-13,9.181419463e-13,5.402859349e-13,3.745619458e-13,1.178898695e-12,1.454673013e-12,7.40011704e-13,4.783968813e-13,5.459070477e-13,8.20824907e-13,7.750314235e-13,1.170777156e-12,4.362927181e-13,7.873938142e-13,7.794295562e-13,1.144883508e-12,1.441591708e-12,1.151582339e-12,9.251128828e-13,6.745870979e-13,5.762875667e-13,2.963095051e-13,1.525262455e-12,2.652007154e-13,5.441389968e-13,1.126769023e-12,6.110968822e-13,1.204338179e-12,7.446822293e-13,6.325380734e-13,1.489370031e-13
1.3203125,1.522680276e-12,5.695837859e-13,9.211100293e-13,5.344129625e-13,3.721206103e-13,1.180981381e-12,1.447437984e-12,7.349396608e-13,4.73247215e-13,5.522060975e-13,8.21701705e-13,7.793431106e-13,1.155097236e-12,4.353678321e-13,7.762860622e-13,7.684563185e-13,1.124924603e-12,1.422594601e-12,1.137583446e-12,9.180815849e-13,6.730023007e-13,5.720135877e-13,2.971315319e-13,1.540603774e-12,2.654890076e-13,5.486860248e-13,1.12133928e-12,6.011815534e-13,1.20340405e-12,7.421403869e-13,6.305221566e-13,1.478388714e-13
1.328125,1.514557351e-12,5.603372432e-13,9.242383644e-13,5.284009429e-13,3.695947082e-13,1.182813928e-12,1.440597138e-12,7.294205104e-13,4.683690529e-13,5.584513159e-13,8.22929332e-13,7.837788251e-13,1.1395472e-12,4.348824434e-13,7.651363616e-13,7.573352862e-13,1.104569843e-12,1.402801006e-12,1.12351951e-12,9.109074083e-13,6.708220818e-13,5.679818027e-13,2.980016299e-13,1.555686417e-12,2.659581255e-13,5.531507659e-13,1.115847202e-12,5.919016445e-13,1.202427545e-12,7.398531016e-13,6.284279332e-13,1.468561767e-13
1.3359375,1.506301914e-12,5.508242019e-13,9.27646274e-13,5.221595198e-13,3.669126357e-13,1.18433e-12,1.434179256e-12,7.234645129e-13,4.637171518e-13,5.647972571e-13,8.244459542e-13,7.882103831e-13,1.12447091e-12,4.348018071e-13,7.536038472e-13,7.460252366e-13,1.083876138e-12,1.382682767e-12,1.109626477e-12,9.033159471e-13,6.684003577e-13,5.645419476e-13,2.990117771e-13,1.569969917e-12,2.666211023e-13,5.575299607e-13,1.110255575e-12,5.832931158e-13,1.201291992e-12,7.377350001e-13,6.26175716e-13,1.460021802e-13
1.34375,1.497882254e-12,5.410332156e-13,9.310632145e-13,5.157311219e-13,3.641502432e-13,1.185231832e-12,1.428332245e-12,7.172576066e-13,4.59303576e-13,5.71243213e-13,8.262304487e-13,7.92670272e-13,1.109997782e-12,4.351695564e-13,7.416765865e-13,7.344948939e-13,1.063265182e-12,1.362483385e-12,1.096122476e-12,8.954178392e-13,6.659291216e-13,5.617117142e-13,3.001872812e-13,1.583589656e-12,2.675431584e-13,5.619529707e-13,1.104657891e-12,5.753655331e-13,1.200026816e-12,7.358039283e-13,6.238691923e-13,1.452830493e-13
1.3515625,1.489351797e-12,5.312003844e-13,9.343524795e-13,5.09337836e-13,3.614471786e-13,1.185690647e-12,1.422796953e-12,7.111247735e-13,4.552075941e-13,5.775099977e-13,8.283526599e-13,7.971636141e-13,1.096077639e-12,4.359042462e-13,7.298511785e-13,7.227680216e-13,1.04252937e-12,1.342239524e-12,1.082975447e-12,8.878123854e-13,6.633907537e-13,5.592995844e-13,3.014140835e-13,1.597043902e-12,2.68712187e-13,5.664235313e-13,1.099073067e-12,5.67885397e-13,1.198710053e-12,7.340868297e-13,6.215923027e-13,1.447113231e-13
1.359375,1.480675892e-12,5.215524663e-13,9.378173718e-13,5.030965951e-13,3.588240839e-13,1.186181231e-12,1.417417479e-12,7.051602779e-13,4.514313879e-13,5.834547393e-13,8.307715285e-13,8.015502172e-13,1.082358435e-12,4.368350827e-13,7.186021348e-13,7.111990137e-13,1.021620852e-12,1.322119986e-12,1.070177952e-12,8.807536891e-13,6.606828381e-13,5.571437404e-13,3.026957794e-13,1.610379206e-12,2.700720581e-13,5.709056637e-13,1.093500364e-12,5.608945923e-13,1.197304676e-12,7.324681488e-13,6.192970579e-13,1.442483156e-13
1.3671875,1.471862139e-12,5.121191817e-13,9.416026503e-13,4.96970886e-13,3.562849788e-13,1.18665174e-12,1.412244981e-12,6.993013202e-13,4.478760357e-13,5.892957921e-13,8.333023724e-13,8.05822393e-13,1.068290222e-12,4.379619998e-13,7.080202684e-13,7.001832952e-13,1.001477576e-12,1.302454847e-12,1.057762835e-12,8.741468346e-13,6.577177475e-13,5.549860219e-13,3.040749793e-13,1.623618701e-12,2.71625751e-13,5.754549941e-13,1.088089081e-12,5.547006554e-13,1.195912887e-12,7.309133433e-13,6.169993056e-13,1.438532072e-13
1.375,1.463463679e-12,5.029740953e-13,9.456858826e-13,4.910665934e-13,3.539539123e-13,1.186979667e-12,1.406952343e-12,6.936251305e-13,4.445309974e-13,5.95242634e-13,8.358000276e-13,8.100984541e-13,1.053871289e-12,4.39393656e-13,6.98172741e-13,6.897309953e-13,9.826764652e-13,1.283620821e-12,1.045663182e-12,8.680054183e-13,6.546819698e-13,5.526721112e-13,3.054655425e-13,1.636790633e-12,2.733713113e-13,5.800408831e-13,1.082820778e-12,5.492968403e-13,1.194607761e-12,7.295068096e-13,6.148108644e-13,1.435242341e-13
1.3828125,1.455767641e-12,4.941357115e-13,9.503028442e-13,4.854202612e-13,3.518533387e-13,1.187411183e-12,1.401354196e-12,6.881082299e-13,4.415168227e-13,6.011830655e-13,8.382940457e-13,8.143910759e-13,1.039704763e-12,4.411149173e-13,6.891211772e-13,6.796407857e-13,9.645719976e-13,1.265710498e-12,1.033962376e-12,8.621706068e-13,6.517717257e-13,5.504579294e-13,3.068930274e-13,1.649452809e-12,2.752918904e-13,5.845915041e-13,1.077548016e-12,5.445572134e-13,1.193235326e-12,7.282332669e-13,6.127189992e-13,1.432656838e-13
1.390625,1.448071935e-12,4.853254574e-13,9.554343641e-13,4.797525334e-13,3.497915446e-13,1.187744562e-12,1.395902529e-12,6.824633158e-13,4.389153785e-13,6.069813606e-13,8.410271917e-13,8.186733753e-13,1.02603885e-12,4.431250046e-13,6.805147189e-13,6.696781463e-13,9.463304104e-13,1.248218274e-12,1.022713808e-12,8.563385245e-13,6.487253046e-13,5.486141379e-13,3.084413901e-13,1.66153229e-12,2.774208836e-13,5.89161092e-13,1.072398117e-12,5.4049678e-13,1.191809111e-12,7.270922787e-13,6.105915997e-13,1.43109777e-13
1.3984375,1.439880938e-12,4.763421192e-13,9.606494166e-13,4.739021964e-13,3.476418623e-13,1.187525558e-12,1.390791646e-12,6.765538642e-13,4.367060677e-13,6.127557827e-13,8.440744396e-13,8.229452274e-13,1.012659062e-12,4.455383247e-13,6.717416275e-13,6.595695382e-13,9.278054744e-13,1.230549182e-12,1.011587994e-12,8.505517182e-13,6.452205396e-13,5.471017291e-13,3.099891995e-13,1.6735799e-12,2.797532901e-13,5.93777312e-13,1.067407487e-12,5.369923839e-13,1.190449477e-12,7.261983372e-13,6.083836096e-13,1.431161067e-13
1.40625,1.431626826e-12,4.672736379e-13,9.659632872e-13,4.679717648e-13,3.45422608e-13,1.186990369e-12,1.385774523e-12,6.705320508e-13,4.348460797e-13,6.185684421e-13,8.471009009e-13,8.271802447e-13,9.995937885e-13,4.483239944e-13,6.626660742e-13,6.49262351e-13,9.091367502e-13,1.212481428e-12,1.000383335e-12,8.44940688e-13,6.413317687e-13,5.458724411e-13,3.11492493e-13,1.685572114e-12,2.822113619e-13,5.983712975e-13,1.062254558e-12,5.33953734e-13,1.188954631e-12,7.255787843e-13,6.061015699e-13,1.433045259e-13
1.4140625,1.423698769e-12,4.58164625e-13,9.71767863e-13,4.61973591e-13,3.431023276e-13,1.186436347e-12,1.380999866e-12,6.644770954e-13,4.333031434e-13,6.242778108e-13,8.500608943e-13,8.314132417e-13,9.869713635e-13,4.513884689e-13,6.537647436e-13,6.389340303e-13,8.902844955e-13,1.193910455e-12,9.892353357e-13,8.393915526e-13,6.37233763e-13,5.449393888e-13,3.131039441e-13,1.697163437e-12,2.847990411e-13,6.029261247e-13,1.056883672e-12,5.316466156e-13,1.187159045e-12,7.251961255e-13,6.037122652e-13,1.436423739e-13
1.421875,1.416065327e-12,4.490386231e-13,9.781318911e-13,4.559209076e-13,3.406732375e-13,1.185657053e-12,1.376690334e-12,6.583444456e-13,4.320510018e-13,6.298699557e-13,8.533586782e-13,8.356861465e-13,9.74722851e-13,4.548194682e-13,6.453492693e-13,6.286450145e-13,8.714413534e-13,1.175114279e-12,9.781241965e-13,8.339357437e-13,6.330541646e-13,5.442504103e-13,3.148080218e-13,1.708631812e-12,2.876065335e-13,6.074831858e-13,1.051591367e-12,5.303057697e-13,1.185308768e-12,7.250505931e-13,6.012966125e-13,1.441151862e-13
1.4296875,1.408776127e-12,4.400520703e-13,9.850463051e-13,4.499813739e-13,3.382815473e-13,1.184721838e-12,1.372628111e-12,6.522084415e-13,4.310991056e-13,6.354904133e-13,8.569201315e-13,8.39874344e-13,9.628885827e-13,4.585888323e-13,6.37275503e-13,6.184014957e-13,8.530684028e-13,1.156931708e-12,9.670974358e-13,8.288628053e-13,6.290017294e-13,5.437998803e-13,3.165209682e-13,1.72016818e-12,2.906392543e-13,6.121023552e-13,1.046458413e-12,5.297354672e-13,1.183571537e-12,7.250355049e-13,5.99028859e-13,1.447674486e-13
1.4375,1.401886153e-12,4.312115108e-13,9.926359117e-13,4.441793581e-13,3.35991915e-13,1.18396767e-12,1.368811425e-12,6.462225551e-13,4.30462838e-13,6.411726343e-13,8.603080586e-13,8.438951539e-13,9.514420454e-13,4.625059622e-13,6.294008966e-13,6.083004734e-13,8.351520514e-13,1.139694736e-12,9.564501458e-13,8.242569314e-13,6.250730047e-13,5.435720427e-13,3.183590159e-13,1.731351414e-12,2.938170322e-13,6.1682062e-13,1.041370677e-12,5.296055326e-13,1.181709736e-12,7.250236782e-13,5.968750948e-13,1.455962482e-13
1.4453125,1.395199783e-12,4.223081094e-13,1.000745348e-12,4.382852144e-13,3.337346666e-13,1.183312371e-12,1.365291211e-12,6.404506033e-13,4.300828207e-13,6.468533449e-13,8.637156175e-13,8.479144559e-13,9.400894208e-13,4.66513133e-13,6.217559019e-13,5.983479611e-13,8.17325302e-13,1.122867753e-12,9.460589624e-13,8.198163672e-13,6.20705922e-13,5.434770527e-13,3.202753325e-13,1.742359533e-12,2.970147233e-13,6.21521981e-13,1.036231767e-12,5.29948559e-13,1.179549567e-12,7.251650682e-13,5.946113271e-13,1.464699188e-13
1.453125,1.389197022e-12,4.133400366e-13,1.009325762e-12,4.323062679e-13,3.315125595e-13,1.182617138e-12,1.361747662e-12,6.347798155e-13,4.299133014e-13,6.520933203e-13,8.672627869e-13,8.518779096e-13,9.288402834e-13,4.709029438e-13,6.144185692e-13,5.886884602e-13,7.999566968e-13,1.106107968e-12,9.35641331e-13,8.152361173e-13,6.158950966e-13,5.436872202e-13,3.223131706e-13,1.752299167e-12,3.004340628e-13,6.260702324e-13,1.030903352e-12,5.310662738e-13,1.177215623e-12,7.255902015e-13,5.920724833e-13,1.473710368e-13
1.4609375,1.384115218e-12,4.044176838e-13,1.018325596e-12,4.26307066e-13,3.293975215e-13,1.181862215e-12,1.357933613e-12,6.291264211e-13,4.299497359e-13,6.567965134e-13,8.709485882e-13,8.557930094e-13,9.180354717e-13,4.756666581e-13,6.074415399e-13,5.793794856e-13,7.830783658e-13,1.089476184e-12,9.254002479e-13,8.10484095e-13,6.108331652e-13,5.442088076e-13,3.244547546e-13,1.761459014e-12,3.040934711e-13,6.304300171e-13,1.02537623e-12,5.33116048e-13,1.174913683e-12,7.262620274e-13,5.892983899e-13,1.483216191e-13
1.46875,1.379417917e-12,3.955516223e-13,1.027597468e-12,4.202687486e-13,3.273014026e-13,1.180801029e-12,1.354290145e-12,6.234469222e-13,4.302471634e-13,6.613116054e-13,8.749470414e-13,8.59892661e-13,9.078214591e-13,4.809180318e-13,6.008235273e-13,5.70232776e-13,7.662745021e-13,1.072830193e-12,9.154639949e-13,8.056099453e-13,6.055404892e-13,5.448589789e-13,3.267260003e-13,1.770413677e-12,3.080028074e-13,6.347215425e-13,1.019805726e-12,5.360914312e-13,1.172557409e-12,7.271503543e-13,5.863885956e-13,1.493429443e-13
1.4765625,1.374769825e-12,3.867437845e-13,1.037254637e-12,4.141661532e-13,3.251599374e-13,1.179295108e-12,1.351018419e-12,6.177456638e-13,4.308148848e-13,6.656731005e-13,8.795126522e-13,8.643091865e-13,8.982731712e-13,4.869349733e-13,5.946552467e-13,5.612232334e-13,7.495752196e-13,1.056046235e-12,9.055217239e-13,8.006639526e-13,5.999355079e-13,5.457113317e-13,3.290784357e-13,1.779042252e-12,3.121315791e-13,6.390517708e-13,1.014300762e-12,5.399541759e-13,1.170064791e-12,7.284932833e-13,5.834578018e-13,1.50467333e-13
1.484375,1.370646395e-12,3.780867431e-13,1.047800566e-12,4.081385122e-13,3.230849532e-13,1.177684872e-12,1.347689012e-12,6.120029348e-13,4.316626879e-13,6.69609196e-13,8.84452739e-13,8.687477606e-13,8.895692241e-13,4.935356909e-13,5.889535608e-13,5.525376607e-13,7.331293288e-13,1.039301096e-12,8.955581602e-13,7.959303314e-13,5.942150058e-13,5.470028091e-13,3.314732082e-13,1.787015818e-12,3.163756729e-13,6.434402244e-13,1.008976165e-12,5.445258647e-13,1.167676808e-12,7.303830657e-13,5.805907259e-13,1.517526858e-13
1.4921875,1.367188168e-12,3.695312353e-13,1.059104857e-12,4.022041064e-13,3.211168836e-13,1.176132416e-12,1.344061012e-12,6.062321407e-13,4.328062112e-13,6.732967918e-13,8.895404211e-13,8.730256555e-13,8.816752997e-13,5.004148651e-13,5.833671396e-13,5.440483287e-13,7.167598297e-13,1.022553413e-12,8.857962552e-13,7.91755696e-13,5.885083779e-13,5.486113758e-13,3.33877219e-13,1.794654761e-12,3.207264545e-13,6.478214082e-13,1.003889313e-12,5.49628715e-13,1.165518657e-12,7.325516153e-13,5.776595896e-13,1.531766562e-13
1.5,1.363718424e-12,3.608831012e-13,1.070463352e-12,3.961395627e-13,3.191519806e-13,1.174339853e-12,1.340252854e-12,6.005948738e-13,4.342322473e-13,6.770387825e-13,8.947937722e-13,8.772670521e-13,8.742010305e-13,5.076125356e-13,5.776527181e-13,5.354845453e-13,7.005575251e-13,1.00558094e-12,8.760742805e-13,7.88167892e-13,5.827084101e-13,5.502452026e-13,3.362512341e-13,1.802134729e-12,3.252948614e-13,6.521488529e-13,9.988530412e-13,5.5534701e-13,1.163272858e-12,7.347625225e-13,5.744040498e-13,1.547098792e-13
1.5078125,1.360058046e-12,3.521672363e-13,1.081885974e-12,3.899261765e-13,3.17191085e-13,1.172264458e-12,1.336329186e-12,5.952658207e-13,4.358628187e-13,6.808134832e-13,9.001609901e-13,8.814924448e-13,8.666011059e-13,5.151749211e-13,5.72012478e-13,5.269460421e-13,6.848207864e-13,9.88706997e-13,8.662725824e-13,7.849822054e-13,5.769624393e-13,5.517757107e-13,3.386307093e-13,1.809330509e-12,3.300943808e-13,6.564959372e-13,9.937737384e-13,5.617952413e-13,1.160801697e-12,7.37068809e-13,5.708755769e-13,1.56368099e-13
1.515625,1.356842057e-12,3.436267163e-13,1.093935841e-12,3.838305812e-13,3.153092011e-13,1.17026155e-12,1.332259887e-12,5.902683883e-13,4.375419034e-13,6.84630384e-13,9.055580652e-13,8.857527983e-13,8.586753607e-13,5.231300302e-13,5.665917314e-13,5.186084294e-13,6.6948202e-13,9.724530354e-13,8.567064778e-13,7.820747967e-13,5.714628337e-13,5.531429236e-13,3.410845718e-13,1.816575744e-12,3.350510251e-13,6.608921465e-13,9.888399429e-13,5.68912818e-13,1.158439938e-12,7.396666884e-13,5.673872798e-13,1.580480707e-13
1.5234375,1.354294622e-12,3.353713831e-13,1.106667771e-12,3.779716328e-13,3.13490408e-13,1.168484738e-12,1.3279108e-12,5.855312378e-13,4.392419787e-13,6.885034535e-13,9.110612028e-13,8.902341641e-13,8.50891353e-13,5.316721835e-13,5.615457706e-13,5.10451939e-13,6.543543591e-13,9.567560163e-13,8.475890913e-13,7.794748091e-13,5.660190387e-13,5.544102786e-13,3.436365986e-13,1.824082755e-12,3.40170084e-13,6.652309728e-13,9.840820665e-13,5.766981803e-13,1.156333212e-12,7.426194555e-13,5.639768085e-13,1.596443166e-13
1.53125,1.352130571e-12,3.273200941e-13,1.119722694e-12,3.72235238e-13,3.117431085e-13,1.166752018e-12,1.323206854e-12,5.809459487e-13,4.411451333e-13,6.922855294e-13,9.168201386e-13,8.948355929e-13,8.437625376e-13,5.407869255e-13,5.571538969e-13,5.02531509e-13,6.394345006e-13,9.413963971e-13,8.388343262e-13,7.772741295e-13,5.605848549e-13,5.557710199e-13,3.462679606e-13,1.83151021e-12,3.454529205e-13,6.694897822e-13,9.792971819e-13,5.851742528e-13,1.154245843e-12,7.457341383e-13,5.604455322e-13,1.612789909e-13
1.5390625,1.350350666e-12,3.193513631e-13,1.132877166e-12,3.664851802e-13,3.101374488e-13,1.164894675e-12,1.318383413e-12,5.764421483e-13,4.433485738e-13,6.959418894e-13,9.228751057e-13,8.993064419e-13,8.37280821e-13,5.501482568e-13,5.531408454e-13,4.949046747e-13,6.248203038e-13,9.263792744e-13,8.302800877e-13,7.754580774e-13,5.553616636e-13,5.572303772e-13,3.489495351e-13,1.838609431e-12,3.508346083e-13,6.737593695e-13,9.744120669e-13,5.941367854e-13,1.152015871e-12,7.488260611e-13,5.567000501e-13,1.630734619e-13
1.546875,1.349160941e-12,3.114251913e-13,1.146156718e-12,3.607151606e-13,3.08659109e-13,1.163070614e-12,1.313529297e-12,5.721065735e-13,4.458253723e-13,6.994443128e-13,9.290322893e-13,9.036243518e-13,8.313844599e-13,5.59528767e-13,5.491216983e-13,4.874963536e-13,6.108011347e-13,9.116372679e-13,8.216527083e-13,7.740272363e-13,5.502062553e-13,5.58622365e-13,3.517164451e-13,1.845304658e-12,3.563472528e-13,6.780442108e-13,9.695048006e-13,6.035434972e-13,1.149616727e-12,7.519565086e-13,5.527133878e-13,1.64953991e-13
1.5546875,1.348700848e-12,3.036377433e-13,1.159792314e-12,3.550892556e-13,3.072268747e-13,1.161611659e-12,1.308350237e-12,5.680015313e-13,4.485606284e-13,7.026139505e-13,9.351130402e-13,9.077711915e-13,8.261987236e-13,5.689446032e-13,5.455335597e-13,4.803393901e-13,5.975389406e-13,8.972029243e-13,8.127799799e-13,7.730221834e-13,5.449363578e-13,5.59951992e-13,3.54616626e-13,1.851686135e-12,3.620918539e-13,6.822874126e-13,9.646319685e-13,6.138610805e-13,1.147091229e-12,7.552348122e-13,5.485674344e-13,1.668794052e-13
1.5625,1.349087028e-12,2.959989316e-13,1.173912119e-12,3.496338198e-13,3.057865715e-13,1.160322419e-12,1.302832441e-12,5.639619101e-13,4.514000409e-13,7.054230329e-13,9.411939724e-13,9.116941744e-13,8.215924882e-13,5.785968172e-13,5.427051968e-13,4.734882219e-13,5.846018279e-13,8.831399095e-13,8.037693989e-13,7.722108871e-13,5.39691424e-13,5.613383525e-13,3.575358982e-13,1.857919772e-12,3.680436593e-13,6.86492472e-13,9.597871418e-13,6.253077367e-13,1.14460407e-12,7.587236447e-13,5.444523769e-13,1.689128158e-13
1.5703125,1.350285144e-12,2.883374164e-13,1.188326988e-12,3.440833572e-13,3.043371145e-13,1.158600642e-12,1.297268348e-12,5.598929145e-13,4.542033963e-13,7.07993605e-13,9.471530248e-13,9.154702003e-13,8.172866478e-13,5.886840583e-13,5.401144059e-13,4.668344111e-13,5.717153368e-13,8.692892658e-13,7.946659382e-13,7.713805236e-13,5.344103516e-13,5.627061545e-13,3.602995549e-13,1.86356446e-12,3.741120995e-13,6.907063811e-13,9.549833192e-13,6.374178473e-13,1.142209171e-12,7.625228678e-13,5.403662094e-13,1.710353678e-13
1.578125,1.352153067e-12,2.806585344e-13,1.202866188e-12,3.383631141e-13,3.029241829e-13,1.156538512e-12,1.291572354e-12,5.560023901e-13,4.57123314e-13,7.104269774e-13,9.525946465e-13,9.190715535e-13,8.133682588e-13,5.991062916e-13,5.373848123e-13,4.60318337e-13,5.592921145e-13,8.558897172e-13,7.855565153e-13,7.707449858e-13,5.289289475e-13,5.639023464e-13,3.629062406e-13,1.868327997e-12,3.80289553e-13,6.949403498e-13,9.503548939e-13,6.499956648e-13,1.139843535e-12,7.665733013e-13,5.362280502e-13,1.731506166e-13
1.5859375,1.354608388e-12,2.731349162e-13,1.217499643e-12,3.32697889e-13,3.015448539e-13,1.154712034e-12,1.285430882e-12,5.524512065e-13,4.602430366e-13,7.128581382e-13,9.576549587e-13,9.224939763e-13,8.101415135e-13,6.097952975e-13,5.345909672e-13,4.539208804e-13,5.473586701e-13,8.432109517e-13,7.768030443e-13,7.703941631e-13,5.235225229e-13,5.650025662e-13,3.654310595e-13,1.87298652e-12,3.865968339e-13,6.990742688e-13,9.459425787e-13,6.633467742e-13,1.137605289e-12,7.707378168e-13,5.320726916e-13,1.751799312e-13
1.59375,1.357630868e-12,2.657112401e-13,1.232112198e-12,3.27083332e-13,3.00138011e-13,1.153033964e-12,1.278901275e-12,5.491150947e-13,4.63463687e-13,7.153499427e-13,9.628391609e-13,9.260902175e-13,8.076778322e-13,6.21197456e-13,5.317726353e-13,4.475944516e-13,5.353976219e-13,8.30530558e-13,7.684489448e-13,7.700804234e-13,5.184618441e-13,5.661538472e-13,3.678716911e-13,1.877785462e-12,3.930234168e-13,7.029353431e-13,9.41505688e-13,6.773723148e-13,1.135524981e-12,7.752232457e-13,5.277951924e-13,1.770580451e-13
1.6015625,1.361368037e-12,2.582516408e-13,1.246657971e-12,3.213024305e-13,2.9873065e-13,1.151117085e-12,1.272236901e-12,5.458667144e-13,4.669136421e-13,7.179252697e-13,9.680598911e-13,9.30072323e-13,8.059353124e-13,6.33676014e-13,5.291727943e-13,4.415131215e-13,5.235338713e-13,8.173640325e-13,7.60174753e-13,7.69869924e-13,5.135683208e-13,5.67343923e-13,3.702324249e-13,1.881978235e-12,3.995720189e-13,7.065434599e-13,9.369345336e-13,6.918444011e-13,1.133417081e-12,7.80278179e-13,5.232936547e-13,1.788148783e-13
1.609375,1.365986511e-12,2.508222665e-13,1.26131855e-12,3.153576497e-13,2.974189371e-13,1.149062823e-12,1.265359256e-12,5.427649785e-13,4.7070711e-13,7.207048724e-13,9.730559397e-13,9.341563688e-13,8.050381495e-13,6.469252954e-13,5.271505727e-13,4.358708183e-13,5.122017e-13,8.043757224e-13,7.520098282e-13,7.701250349e-13,5.08623146e-13,5.685875103e-13,3.725494778e-13,1.885701117e-12,4.062335669e-13,7.100863498e-13,9.324383939e-13,7.069743375e-13,1.131266366e-12,7.856853523e-13,5.18716464e-13,1.806295391e-13
1.6171875,1.371389663e-12,2.435128388e-13,1.276318524e-12,3.094109635e-13,2.962472173e-13,1.147073855e-12,1.258143365e-12,5.398839188e-13,4.746359342e-13,7.235972818e-13,9.782314682e-13,9.381787272e-13,8.04973171e-13,6.606663865e-13,5.256469253e-13,4.30514193e-13,5.013001896e-13,7.917504755e-13,7.439932432e-13,7.709304767e-13,5.036111277e-13,5.699412666e-13,3.748237884e-13,1.88950181e-12,4.129416628e-13,7.136755542e-13,9.280238938e-13,7.22604422e-13,1.129153125e-12,7.911944589e-13,5.140742869e-13,1.826302911e-13
1.625,1.37745981e-12,2.363594314e-13,1.291801324e-12,3.035630068e-13,2.952286173e-13,1.145196991e-12,1.251016472e-12,5.372226006e-13,4.786148994e-13,7.263109003e-13,9.840556724e-13,9.423357452e-13,8.053688606e-13,6.750267182e-13,5.244650079e-13,4.252919084e-13,4.907816803e-13,7.789499677e-13,7.357324071e-13,7.72106086e-13,4.986193673e-13,5.712512669e-13,3.770757678e-13,1.893075443e-12,4.196558459e-13,7.172655165e-13,9.234329046e-13,7.381466659e-13,1.1269745e-12,7.969034932e-13,5.09246349e-13,1.847680283e-13
1.6328125,1.384043713e-12,2.294310468e-13,1.307553014e-12,2.978709216e-13,2.943287504e-13,1.143426478e-12,1.244157609e-12,5.347915158e-13,4.827343052e-13,7.2880063e-13,9.90340612e-13,9.466539536e-13,8.060224599e-13,6.898639613e-13,5.235397493e-13,4.202943505e-13,4.807542935e-13,7.661475411e-13,7.27145626e-13,7.73662888e-13,4.938297412e-13,5.722912031e-13,3.793223781e-13,1.896557966e-12,4.264064471e-13,7.207036025e-13,9.186927566e-13,7.53647817e-13,1.124746092e-12,8.028240974e-13,5.043673978e-13,1.869532634e-13
1.640625,1.3907522e-12,2.227465724e-13,1.323003244e-12,2.92361923e-13,2.934339095e-13,1.141509511e-12,1.236589249e-12,5.325938652e-13,4.86867868e-13,7.31093579e-13,9.965523975e-13,9.509054829e-13,8.071532662e-13,7.048281199e-13,5.226005353e-13,4.155108739e-13,4.709926298e-13,7.538860682e-13,7.186312963e-13,7.759462434e-13,4.893668356e-13,5.730186207e-13,3.814129185e-13,1.900657504e-12,4.331646828e-13,7.238537897e-13,9.140301116e-13,7.695053585e-13,1.122611244e-12,8.08770496e-13,4.995463926e-13,1.891212066e-13
1.6484375,1.397711488e-12,2.162845668e-13,1.338209021e-12,2.8704343e-13,2.925008717e-13,1.139336523e-12,1.227697918e-12,5.306404724e-13,4.909088212e-13,7.331444906e-13,1.00226956e-12,9.549552072e-13,8.088740196e-13,7.198986464e-13,5.213105128e-13,4.107747157e-13,4.613897899e-13,7.421059198e-13,7.103798672e-13,7.791313179e-13,4.852294222e-13,5.734740568e-13,3.831282529e-13,1.905175103e-12,4.39794463e-13,7.266822057e-13,9.093062198e-13,7.855887551e-13,1.120449477e-12,8.147379898e-13,4.946803049e-13,1.912046917e-13
1.65625,1.405693134e-12,2.100596922e-13,1.353997995e-12,2.819444354e-13,2.916087203e-13,1.137357421e-12,1.218466907e-12,5.29072886e-13,4.950075636e-13,7.351244453e-13,1.007234231e-12,9.587122606e-13,8.109648652e-13,7.349305815e-13,5.1960553e-13,4.060002564e-13,4.520773773e-13,7.304567728e-13,7.023857028e-13,7.829803617e-13,4.814852977e-13,5.73654475e-13,3.845091166e-13,1.909669752e-12,4.462285619e-13,7.29173292e-13,9.042192257e-13,8.016199181e-13,1.118059317e-12,8.208236327e-13,4.897526022e-13,1.931802951e-13
1.6640625,1.414720866e-12,2.040556885e-13,1.370499504e-12,2.770543119e-13,2.907627735e-13,1.135798901e-12,1.209586555e-12,5.279534887e-13,4.992195111e-13,7.370341038e-13,1.011147967e-12,9.619987566e-13,8.132439286e-13,7.496094353e-13,5.17448851e-13,4.012201597e-13,4.430127354e-13,7.188963306e-13,6.946639165e-13,7.873618936e-13,4.780814995e-13,5.735719097e-13,3.858257708e-13,1.914227986e-12,4.525763789e-13,7.313961001e-13,8.989832508e-13,8.177952709e-13,1.11545977e-12,8.269815049e-13,4.84771866e-13,1.950526521e-13
1.671875,1.423999287e-12,1.982242606e-13,1.387071912e-12,2.722877589e-13,2.8985855e-13,1.134260544e-12,1.200387967e-12,5.270071217e-13,5.034383032e-13,7.384981366e-13,1.013810583e-12,9.648101192e-13,8.15824784e-13,7.642769675e-13,5.148009831e-13,3.965293968e-13,4.342113657e-13,7.076979781e-13,6.871350661e-13,7.922346083e-13,4.746305322e-13,5.733584634e-13,3.872043065e-13,1.918627942e-12,4.589553062e-13,7.335878345e-13,8.940879334e-13,8.344560304e-13,1.112764615e-12,8.331446616e-13,4.796692546e-13,1.968525124e-13
1.6796875,1.433422194e-12,1.925456004e-13,1.403739128e-12,2.675852812e-13,2.889162834e-13,1.132550028e-12,1.190696195e-12,5.260063949e-13,5.077339041e-13,7.395796978e-13,1.015683987e-12,9.674510543e-13,8.18954409e-13,7.794316993e-13,5.11911927e-13,3.920007285e-13,4.257321745e-13,6.9681268e-13,6.797742725e-13,7.973181498e-13,4.709646529e-13,5.731713718e-13,3.885710843e-13,1.922521762e-12,4.653000019e-13,7.358403382e-13,8.894587922e-13,8.513251606e-13,1.110079997e-12,8.393059969e-13,4.744577055e-13,1.986886457e-13
1.6875,1.443628625e-12,1.870271485e-13,1.420892422e-12,2.629710764e-13,2.881277141e-13,1.130975889e-12,1.181226874e-12,5.250789076e-13,5.122542937e-13,7.407528466e-13,1.017591523e-12,9.702727896e-13,8.225974685e-13,7.948891199e-13,5.092224746e-13,3.87682244e-13,4.174585614e-13,6.858154786e-13,6.726388185e-13,8.025535576e-13,4.674118278e-13,5.728993429e-13,3.89914346e-13,1.925996472e-12,4.715131713e-13,7.380248776e-13,8.846828104e-13,8.677811029e-13,1.107429445e-12,8.4548924e-13,4.692028606e-13,2.005905939e-13
1.6953125,1.454915973e-12,1.817155616e-13,1.438307139e-12,2.585008357e-13,2.875817669e-13,1.129811642e-12,1.171806031e-12,5.242774678e-13,5.168369346e-13,7.420438338e-13,1.019849627e-12,9.734834429e-13,8.264472185e-13,8.106577884e-13,5.071435209e-13,3.837033639e-13,4.094632793e-13,6.748878828e-13,6.657076817e-13,8.080476388e-13,4.641556769e-13,5.723013471e-13,3.912578886e-13,1.929202311e-12,4.777449695e-13,7.401294666e-13,8.798605278e-13,8.840700744e-13,1.104784102e-12,8.518235672e-13,4.640046047e-13,2.024034626e-13
1.703125,1.467057891e-12,1.766395702e-13,1.455737098e-12,2.542063651e-13,2.871454203e-13,1.129041383e-12,1.161571378e-12,5.234578587e-13,5.212099052e-13,7.432644095e-13,1.022393377e-12,9.770576957e-13,8.304862811e-13,8.271707321e-13,5.057353359e-13,3.801246153e-13,4.018680563e-13,6.645312323e-13,6.590102796e-13,8.135934243e-13,4.610873141e-13,5.71422514e-13,3.924832926e-13,1.932385774e-12,4.842110937e-13,7.421512185e-13,8.753243665e-13,9.009152373e-13,1.102298336e-12,8.584033574e-13,4.58935265e-13,2.040278671e-13
1.7109375,1.4796422e-12,1.717416072e-13,1.473190533e-12,2.500646886e-13,2.86695095e-13,1.12836224e-12,1.150621462e-12,5.226814249e-13,5.254801979e-13,7.44514005e-13,1.025058025e-12,9.806324998e-13,8.349781984e-13,8.441089962e-13,5.044552731e-13,3.767774228e-13,3.944608726e-13,6.544605781e-13,6.525228609e-13,8.192545784e-13,4.582415366e-13,5.703620898e-13,3.934937492e-13,1.93571587e-12,4.908239238e-13,7.439134851e-13,8.709528635e-13,9.180874266e-13,1.100076709e-12,8.65049522e-13,4.538230759e-13,2.055347359e-13
1.71875,1.492443226e-12,1.670059564e-13,1.49044094e-12,2.460504348e-13,2.862901174e-13,1.127441465e-12,1.139481287e-12,5.220952158e-13,5.298848201e-13,7.458635536e-13,1.027424589e-12,9.838634869e-13,8.399590276e-13,8.608585056e-13,5.029245362e-13,3.735606391e-13,3.871836923e-13,6.443840087e-13,6.460763911e-13,8.254848025e-13,4.556543269e-13,5.689557249e-13,3.943396945e-13,1.938862783e-12,4.973852375e-13,7.45357426e-13,8.665283375e-13,9.351280118e-13,1.097867734e-12,8.715687246e-13,4.485407993e-13,2.069926229e-13
1.7265625,1.505727921e-12,1.625041787e-13,1.507420476e-12,2.422178843e-13,2.860324737e-13,1.126289473e-12,1.127792926e-12,5.216464689e-13,5.343434189e-13,7.472350122e-13,1.02927663e-12,9.868844381e-13,8.453776308e-13,8.776115743e-13,5.014067541e-13,3.705577776e-13,3.802586688e-13,6.347824679e-13,6.397767512e-13,8.323739196e-13,4.53232377e-13,5.671330024e-13,3.949988623e-13,1.94168203e-12,5.038894103e-13,7.465238703e-13,8.62120358e-13,9.523786082e-13,1.095536147e-12,8.781064568e-13,4.43282324e-13,2.083884405e-13
1.734375,1.519698429e-12,1.581817903e-13,1.524307445e-12,2.385583848e-13,2.858689558e-13,1.124980934e-12,1.115150001e-12,5.21274572e-13,5.387801624e-13,7.485518964e-13,1.030769419e-12,9.898720562e-13,8.51361579e-13,8.945711687e-13,4.998588412e-13,3.676687459e-13,3.735778345e-13,6.257898497e-13,6.338424406e-13,8.398694453e-13,4.510412214e-13,5.650622502e-13,3.953891326e-13,1.944290727e-12,5.103099065e-13,7.473248251e-13,8.577211767e-13,9.698981678e-13,1.09321731e-12,8.848079723e-13,4.380413649e-13,2.096801366e-13
1.7421875,1.534003171e-12,1.538681233e-13,1.541024751e-12,2.348941042e-13,2.856535638e-13,1.123429816e-12,1.101941338e-12,5.209501243e-13,5.43345706e-13,7.497059569e-13,1.03181789e-12,9.925168916e-13,8.579715163e-13,9.114584615e-13,4.979506446e-13,3.64687409e-13,3.668681217e-13,6.168338941e-13,6.281185706e-13,8.479822505e-13,4.491257433e-13,5.628251606e-13,3.956128947e-13,1.946394934e-12,5.16533749e-13,7.477726871e-13,8.531835816e-13,9.872125795e-13,1.090745528e-12,8.913789175e-13,4.324831665e-13,2.108712788e-13
1.75,1.54843524e-12,1.495580188e-13,1.557626767e-12,2.311703397e-13,2.853531886e-13,1.121866531e-12,1.088382136e-12,5.205914259e-13,5.479859108e-13,7.507214135e-13,1.032223722e-12,9.945761979e-13,8.651677217e-13,9.284144615e-13,4.959017085e-13,3.617160451e-13,3.603047029e-13,6.077142221e-13,6.22541232e-13,8.564119361e-13,4.473729066e-13,5.604078606e-13,3.958128042e-13,1.947996124e-12,5.226307388e-13,7.480535738e-13,8.485226618e-13,1.004407886e-12,1.087879989e-12,8.975074196e-13,4.26588306e-13,2.120145346e-13
1.7578125,1.563140557e-12,1.453635667e-13,1.574189538e-12,2.275290087e-13,2.850240391e-13,1.120609281e-12,1.074316225e-12,5.202823845e-13,5.524408604e-13,7.517592574e-13,1.032018282e-12,9.963663123e-13,8.729378174e-13,9.460420458e-13,4.93790805e-13,3.58914664e-13,3.542316596e-13,5.987697531e-13,6.17288518e-13,8.64993955e-13,4.458656268e-13,5.578238997e-13,3.959690349e-13,1.949576625e-12,5.287398489e-13,7.482860228e-13,8.438497771e-13,1.02180795e-12,1.084942537e-12,9.034531263e-13,4.206374033e-13,2.130878886e-13
1.765625,1.577955417e-12,1.412700207e-13,1.590115126e-12,2.239606034e-13,2.846720314e-13,1.119364802e-12,1.060017563e-12,5.20176123e-13,5.566632197e-13,7.528236883e-13,1.031249175e-12,9.982474599e-13,8.811540119e-13,9.646423553e-13,4.914100331e-13,3.561986845e-13,3.485243105e-13,5.901562604e-13,6.121457052e-13,8.738685752e-13,4.447072549e-13,5.550370164e-13,3.960755113e-13,1.951117976e-12,5.348693254e-13,7.485108359e-13,8.392478397e-13,1.03935567e-12,1.082335565e-12,9.096275829e-13,4.146899893e-13,2.140210736e-13
1.7734375,1.59279038e-12,1.372877171e-13,1.605145658e-12,2.20412386e-13,2.843405967e-13,1.117824866e-12,1.04576452e-12,5.201501627e-13,5.606818129e-13,7.538462201e-13,1.030169643e-12,1.000277858e-12,8.896225461e-13,9.838834794e-13,4.891778304e-13,3.535811175e-13,3.427669982e-13,5.81798241e-13,6.069123816e-13,8.829416595e-13,4.437380961e-13,5.51976533e-13,3.961814532e-13,1.952649039e-12,5.410211753e-13,7.486476949e-13,8.347511841e-13,1.056911411e-12,1.079871034e-12,9.158881209e-13,4.086885014e-13,2.148440122e-13
1.78125,1.608097698e-12,1.335790526e-13,1.61995644e-12,2.170597043e-13,2.841596662e-13,1.116267706e-12,1.031413096e-12,5.200062571e-13,5.643641275e-13,7.547613276e-13,1.02915456e-12,1.00245995e-12,8.983074803e-13,1.003174699e-12,4.8725278e-13,3.511895011e-13,3.368749004e-13,5.738041729e-13,6.019846201e-13,8.921575996e-13,4.429456207e-13,5.48584594e-13,3.962157339e-13,1.954535011e-12,5.471637699e-13,7.485075642e-13,8.302468942e-13,1.074283284e-12,1.07715447e-12,9.218730505e-13,4.027252498e-13,2.155933443e-13
1.7890625,1.624019163e-12,1.301452731e-13,1.634503684e-12,2.139584581e-13,2.841693694e-13,1.114792265e-12,1.016877397e-12,5.197738796e-13,5.677187762e-13,7.553922485e-13,1.028130024e-12,1.004791024e-12,9.073322229e-13,1.022694484e-12,4.851216505e-13,3.489497642e-13,3.311045547e-13,5.66227811e-13,5.975386812e-13,9.01679449e-13,4.424939549e-13,5.447865932e-13,3.960653088e-13,1.956238402e-12,5.531971465e-13,7.48108337e-13,8.256458784e-13,1.091532926e-12,1.074151694e-12,9.276571417e-13,3.968936301e-13,2.162078571e-13
1.796875,1.640207031e-12,1.268084892e-13,1.647933302e-12,2.10933039e-13,2.842978003e-13,1.113132059e-12,1.002058247e-12,5.195887208e-13,5.710183674e-13,7.558086975e-13,1.027007795e-12,1.007215013e-12,9.168845743e-13,1.043009061e-12,4.829877388e-13,3.468167233e-13,3.256182629e-13,5.5876401e-13,5.93216936e-13,9.115908035e-13,4.423088535e-13,5.405505666e-13,3.956895594e-13,1.957107406e-12,5.591140069e-13,7.475447642e-13,8.210488235e-13,1.10913455e-12,1.071055152e-12,9.334399121e-13,3.911876001e-13,2.166444242e-13
1.8046875,1.656625674e-12,1.235770344e-13,1.6603063e-12,2.079908667e-13,2.844738036e-13,1.111398611e-12,9.868974805e-13,5.195662142e-13,5.7437001e-13,7.564242985e-13,1.025954091e-12,1.009668572e-12,9.270511518e-13,1.063392022e-12,4.810593656e-13,3.448590765e-13,3.203850893e-13,5.513793655e-13,5.889926564e-13,9.221308304e-13,4.422634317e-13,5.359563847e-13,3.950547308e-13,1.957793993e-12,5.648452748e-13,7.466417195e-13,8.16446535e-13,1.126823804e-12,1.067892277e-12,9.390399961e-13,3.855830533e-13,2.169155809e-13
