"Time","Fp1","AF3","F7","F3","FC1","FC5","T7","C3","CP1","CP5","P7","P3","Pz","PO3","O1","Oz","O2","PO4","P4","P8","CP6","CP2","C4","T8","FC6","FC2","F4","F8","AF4","Fp2","Fz","Cz"
0.0078125,7.513396484e-14,3.335867539e-14,2.219013927e-13,8.025575585e-14,3.345819296e-14,3.483231136e-13,1.498838097e-13,4.903883764e-14,2.257609741e-14,2.461388737e-14,4.79255493e-13,1.792761863e-13,1.724662551e-12,1.017176181e-13,8.573666786e-14,6.225701606e-14,3.085940571e-13,2.116782226e-13,2.284194754e-13,7.846696564e-13,8.963174212e-14,3.799345687e-14,1.022657382e-14,1.580925395e-13,2.802359071e-13,3.184289623e-14,7.163691011e-14,5.020395747e-14,1.14076357e-13,1.010636365e-13,4.314588833e-14,1.775159226e-14
0.015625,7.763010636e-14,3.626666723e-14,2.300865307e-13,8.514411606e-14,3.596424021e-14,3.598536563e-13,1.518497469e-13,5.234068937e-14,2.341325303e-14,2.631661413e-14,5.010773574e-13,1.862812438e-13,1.813588183e-12,1.041851246e-13,9.289121814e-14,6.842258361e-14,3.218536368e-13,2.204953222e-13,2.381777227e-13,8.128776627e-13,9.424502759e-14,4.043021078e-14,1.125476965e-14,1.637338207e-13,2.912890148e-13,3.432660979e-14,8.022284045e-14,5.367653383e-14,1.238824791e-13,1.057802544e-13,4.450225551e-14,1.798125712e-14
0.0234375,8.016375738e-14,3.939963019e-14,2.380433418e-13,8.997167431e-14,3.852923447e-14,3.706497233e-13,1.538328691e-13,5.565716261e-14,2.43061566e-14,2.81750895e-14,5.228904596e-13,1.929830926e-13,1.904076966e-12,1.067397152e-13,1.004562904e-13,7.517330641e-14,3.345918502e-13,2.293440989e-13,2.478438739e-13,8.402562231e-13,9.901949145e-14,4.304663336e-14,1.245549762e-14,1.69304481e-13,3.021554104e-13,3.706611709e-14,8.978416695e-14,5.75968781e-14,1.342438701e-13,1.102372905e-13,4.590842639e-14,1.83758108e-14
0.03125,8.276843999e-14,4.27701798e-14,2.457021766e-13,9.483943033e-14,4.120565471e-14,3.806463083e-13,1.556621124e-13,5.90493666e-14,2.526370333e-14,3.021458073e-14,5.444454693e-13,1.992230824e-13,1.99557401e-12,1.093491319e-13,1.084676964e-13,8.271725521e-14,3.475304676e-13,2.384134487e-13,2.575639513e-13,8.668939932e-13,1.039291513e-13,4.589686271e-14,1.381425532e-14,1.748265149e-13,3.127748821e-13,4.009883729e-14,1.003678809e-13,6.177956098e-14,1.452766308e-13,1.146288897e-13,4.745759148e-14,1.896363247e-14
0.0390625,8.535957558e-14,4.64058543e-14,2.533629665e-13,9.998417973e-14,4.408631812e-14,3.904202269e-13,1.573267468e-13,6.257351091e-14,2.630427164e-14,3.24314993e-14,5.66003369e-13,2.052297367e-13,2.086594588e-12,1.119276853e-13,1.1698259e-13,9.11800297e-14,3.611343998e-13,2.47650563e-13,2.674360002e-13,8.9351645e-13,1.090694385e-13,4.896220531e-14,1.53343609e-14,1.800997554e-13,3.231092031e-13,4.335862583e-14,1.121045644e-13,6.618890209e-14,1.569568332e-13,1.193032693e-13,4.91271682e-14,1.978423928e-14
0.046875,8.787175661e-14,5.028119137e-14,2.609505901e-13,1.052464819e-13,4.708999432e-14,3.997665959e-13,1.587438316e-13,6.608524695e-14,2.739801822e-14,3.485286813e-14,5.876521855e-13,2.109472495e-13,2.177899242e-12,1.145072537e-13,1.258978128e-13,1.005771939e-13,3.747663062e-13,2.569009909e-13,2.772816108e-13,9.191279158e-13,1.143364792e-13,5.221829648e-14,1.705021838e-14,1.851436518e-13,3.330923176e-13,4.689813723e-14,1.24982911e-13,7.082021757e-14,1.692235519e-13,1.238092032e-13,5.085736973e-14,2.087455181e-14
0.0546875,9.040866507e-14,5.440210207e-14,2.679940997e-13,1.105041657e-13,5.01611009e-14,4.083303529e-13,1.60024026e-13,6.956336611e-14,2.857632787e-14,3.759615033e-14,6.090613451e-13,2.161698481e-13,2.26939284e-12,1.171876209e-13,1.352351427e-13,1.109870097e-13,3.885387054e-13,2.663332449e-13,2.871153633e-13,9.430761966e-13,1.196379422e-13,5.574287315e-14,1.897152552e-14,1.901370531e-13,3.424383967e-13,5.081392865e-14,1.388388382e-13,7.549169973e-14,1.821639905e-13,1.280541123e-13,5.271982443e-14,2.228207971e-14
0.0625,9.297988692e-14,5.877110933e-14,2.748662092e-13,1.15858759e-13,5.334703525e-14,4.163974916e-13,1.612979032e-13,7.304852167e-14,2.988504496e-14,4.068490051e-14,6.301521245e-13,2.209580775e-13,2.360397345e-12,1.200221831e-13,1.449686951e-13,1.22466616e-13,4.026810466e-13,2.760268428e-13,2.969240455e-13,9.662421031e-13,1.250789869e-13,5.960282827e-14,2.113140282e-14,1.949446067e-13,3.512364033e-13,5.51764566e-14,1.538609091e-13,8.01890566e-14,1.957728578e-13,1.322059585e-13,5.474477441e-14,2.406737177e-14
0.0703125,9.547991417e-14,6.337234333e-14,2.818154111e-13,1.211613363e-13,5.658578477e-14,4.237723541e-13,1.625513883e-13,7.642393758e-14,3.132015425e-14,4.408290151e-14,6.507902236e-13,2.25242942e-13,2.452403873e-12,1.229788186e-13,1.550034028e-13,1.351927983e-13,4.165123922e-13,2.857868977e-13,3.065707423e-13,9.88337053e-13,1.305899761e-13,6.38218266e-14,2.357492089e-14,1.991400256e-13,3.599456493e-13,6.013535067e-14,1.704200467e-13,8.500005369e-14,2.101289672e-13,1.361333097e-13,5.692914044e-14,2.62314775e-14
0.078125,9.80290435e-14,6.829990594e-14,2.883416848e-13,1.264087123e-13,5.98320717e-14,4.302647647e-13,1.639099893e-13,7.964402818e-14,3.29114109e-14,4.787004192e-14,6.709669977e-13,2.289477372e-13,2.544330196e-12,1.260342006e-13,1.65477564e-13,1.494366952e-13,4.304751155e-13,2.956237997e-13,3.162335395e-13,1.008895214e-12,1.361249928e-13,6.844764866e-14,2.631437028e-14,2.03008901e-13,3.683403665e-13,6.573836388e-14,1.885312137e-13,9.02024508e-14,2.254310559e-13,1.399651355e-13,5.937575383e-14,2.878995818e-14
0.0859375,1.007492943e-13,7.36224566e-14,2.945203941e-13,1.318067572e-13,6.315184471e-14,4.362116292e-13,1.653992916e-13,8.275987551e-14,3.470704077e-14,5.209099801e-14,6.909048378e-13,2.321940627e-13,2.6341584e-12,1.29240591e-13,1.76453956e-13,1.652470133e-13,4.456151734e-13,3.057066396e-13,3.260281781e-13,1.028334295e-12,1.417850343e-13,7.350932722e-14,2.938968822e-14,2.070661671e-13,3.760289847e-13,7.195931997e-14,2.082977351e-13,9.57410141e-14,2.416698224e-13,1.436646029e-13,6.21491964e-14,3.185099116e-14
0.09375,1.035625987e-13,7.929714068e-14,3.004873242e-13,1.371860283e-13,6.652816356e-14,4.414644104e-13,1.67121763e-13,8.578769679e-14,3.671082931e-14,5.672636602e-14,7.105484743e-13,2.350577274e-13,2.722593396e-12,1.327040821e-13,1.879474267e-13,1.826253882e-13,4.612367513e-13,3.15847111e-13,3.356936797e-13,1.046240982e-12,1.475308147e-13,7.903151239e-14,3.284289948e-14,2.107809086e-13,3.830833538e-13,7.888162785e-14,2.299618631e-13,1.012989052e-13,2.587492796e-13,1.472581527e-13,6.524713233e-14,3.549140306e-14
0.1015625,1.065197965e-13,8.531470125e-14,3.061874415e-13,1.424693448e-13,6.993325456e-14,4.458575001e-13,1.693984803e-13,8.870336052e-14,3.888958994e-14,6.185181833e-14,7.301291762e-13,2.375787357e-13,2.809143323e-12,1.365338722e-13,2.000772556e-13,2.01758111e-13,4.767312393e-13,3.257124877e-13,3.450470254e-13,1.0624891e-12,1.533533227e-13,8.507673794e-14,3.666873178e-14,2.137185669e-13,3.893343639e-13,8.659142852e-14,2.532665058e-13,1.070485068e-13,2.765977098e-13,1.51075983e-13,6.872200344e-14,3.972935736e-14
0.109375,1.096639091e-13,9.168033404e-14,3.121292126e-13,1.478933888e-13,7.346559836e-14,4.49594664e-13,1.719581226e-13,9.14256841e-14,4.12399561e-14,6.753806253e-14,7.501824834e-13,2.397257436e-13,2.894205619e-12,1.407948257e-13,2.128205718e-13,2.227681991e-13,4.93015061e-13,3.354333536e-13,3.541199192e-13,1.077775138e-12,1.592171388e-13,9.170353834e-14,4.088879221e-14,2.162429521e-13,3.947106392e-13,9.518358103e-14,2.779533484e-13,1.129697822e-13,2.951988861e-13,1.54894315e-13,7.263901456e-14,4.461571886e-14
0.1171875,1.12915683e-13,9.841151335e-14,3.184345177e-13,1.53442279e-13,7.71924815e-14,4.526412598e-13,1.744445443e-13,9.392120952e-14,4.380040882e-14,7.382903224e-14,7.708379036e-13,2.41481048e-13,2.979172458e-12,1.455682983e-13,2.262401575e-13,2.45630869e-13,5.104302263e-13,3.45281026e-13,3.630357431e-13,1.092167837e-12,1.649733319e-13,9.898604618e-14,4.554496909e-14,2.184078029e-13,3.994654102e-13,1.04712464e-13,3.042271788e-13,1.189542592e-13,3.146032367e-13,1.585832737e-13,7.701526782e-14,5.019220636e-14
0.125,1.164015875e-13,1.055603333e-13,3.248180833e-13,1.590084759e-13,8.107549379e-14,4.550835802e-13,1.772520495e-13,9.618796174e-14,4.656760575e-14,8.070977393e-14,7.920110742e-13,2.429046912e-13,3.062896664e-12,1.508826265e-13,2.403205394e-13,2.704662544e-13,5.286839533e-13,3.551689817e-13,3.71832084e-13,1.105670077e-12,1.706768533e-13,1.070265295e-13,5.066002237e-14,2.200949256e-13,4.034485748e-13,1.151818197e-13,3.322642485e-13,1.251228374e-13,3.347730773e-13,1.622255243e-13,8.183961458e-14,5.651093063e-14
0.1328125,1.202336553e-13,1.131578726e-13,3.312462046e-13,1.645930276e-13,8.508707045e-14,4.569557735e-13,1.804476374e-13,9.818204341e-14,4.953476362e-14,8.809249168e-14,8.13742967e-13,2.438860015e-13,3.146589744e-12,1.566691855e-13,2.548754978e-13,2.975433333e-13,5.481736512e-13,3.650877693e-13,3.803510337e-13,1.118210668e-12,1.763602899e-13,1.158759574e-13,5.627122688e-14,2.212845324e-13,4.064043112e-13,1.267851307e-13,3.621699984e-13,1.312661098e-13,3.558559168e-13,1.655735797e-13,8.717998378e-14,6.370202129e-14
0.140625,1.243388642e-13,1.212314822e-13,3.375634031e-13,1.701904577e-13,8.925436086e-14,4.579769533e-13,1.837107919e-13,9.992739789e-14,5.274933199e-14,9.613698296e-14,8.362736577e-13,2.443524107e-13,3.230206966e-12,1.629951461e-13,2.701314028e-13,3.268314687e-13,5.690548509e-13,3.751320405e-13,3.886139708e-13,1.129274289e-12,1.819100491e-13,1.255395678e-13,6.237707017e-14,2.218190866e-13,4.082270796e-13,1.396100012e-13,3.939218728e-13,1.377170843e-13,3.779290358e-13,1.688093226e-13,9.315567202e-14,7.185225427e-14
0.1484375,1.28728054e-13,1.297007598e-13,3.439714801e-13,1.758436321e-13,9.363553178e-14,4.582888829e-13,1.872549732e-13,1.014059844e-13,5.626422854e-14,1.049568917e-13,8.596493098e-13,2.443952715e-13,3.307957307e-12,1.699424146e-13,2.861791842e-13,3.582054221e-13,5.910189113e-13,3.850026012e-13,3.967269935e-13,1.139034376e-12,1.873438503e-13,1.360616666e-13,6.896838146e-14,2.21893315e-13,4.089800394e-13,1.535386766e-13,4.271781777e-13,1.447283702e-13,4.005026364e-13,1.719939946e-13,9.974157457e-14,8.100826071e-14
0.15625,1.334463294e-13,1.384908718e-13,3.508320336e-13,1.815548333e-13,9.828284766e-14,4.581119533e-13,1.912563955e-13,1.025142088e-13,6.010588605e-14,1.143784705e-13,8.839750992e-13,2.441197395e-13,3.3793932e-12,1.774681e-13,3.028621858e-13,3.921666752e-13,6.145572946e-13,3.944665924e-13,4.044154342e-13,1.148144554e-12,1.92613222e-13,1.47510881e-13,7.615241156e-14,2.218112491e-13,4.091730842e-13,1.687908519e-13,4.618648502e-13,1.514116518e-13,4.235508628e-13,1.749097365e-13,1.069606376e-13,9.124332615e-14
0.1640625,1.386102686e-13,1.477791525e-13,3.580160903e-13,1.8744512e-13,1.032039139e-13,4.57385816e-13,1.956694289e-13,1.032856777e-13,6.422161138e-14,1.246269566e-13,9.101689863e-13,2.437863177e-13,3.44912859e-12,1.856967028e-13,3.205509947e-13,4.292338444e-13,6.405460139e-13,4.037341712e-13,4.115046562e-13,1.156828707e-12,1.975803051e-13,1.598858724e-13,8.399891273e-14,2.215416507e-13,4.089083301e-13,1.856216954e-13,4.983794435e-13,1.576997595e-13,4.476282269e-13,1.779792757e-13,1.150476893e-13,1.025085501e-13
0.171875,1.443505591e-13,1.576350225e-13,3.655620079e-13,1.937088117e-13,1.084438052e-13,4.562997803e-13,2.005333572e-13,1.038026325e-13,6.858471443e-14,1.359901967e-13,9.387828828e-13,2.434937755e-13,3.517205676e-12,1.947656956e-13,3.393926281e-13,4.691689156e-13,6.690943175e-13,4.130110439e-13,4.182658912e-13,1.165101504e-12,2.021996428e-13,1.731526969e-13,9.241782197e-14,2.210484971e-13,4.077635166e-13,2.039398077e-13,5.369439588e-13,1.642474444e-13,4.725540278e-13,1.813491096e-13,1.240913699e-13,1.147734678e-13
0.1796875,1.505329707e-13,1.679109236e-13,3.734794742e-13,2.001730226e-13,1.140983769e-13,4.549158228e-13,2.056974315e-13,1.040352687e-13,7.330489903e-14,1.482155035e-13,9.696922099e-13,2.430847114e-13,3.581839476e-12,2.046483567e-13,3.592005651e-13,5.118941043e-13,6.997441809e-13,4.223816382e-13,4.248343321e-13,1.173148456e-12,2.06468743e-13,1.874197218e-13,1.013803371e-13,2.202312032e-13,4.058072781e-13,2.237230889e-13,5.773272285e-13,1.710854158e-13,4.979434837e-13,1.848939323e-13,1.340007628e-13,1.282197032e-13
0.1875,1.571553433e-13,1.786193345e-13,3.818319821e-13,2.067363548e-13,1.200931717e-13,4.530778574e-13,2.110225178e-13,1.039244362e-13,7.841979573e-14,1.612552862e-13,1.003195193e-12,2.426727594e-13,3.642090014e-12,2.154538507e-13,3.801273873e-13,5.578079744e-13,7.324602166e-13,4.318590145e-13,4.310899229e-13,1.181251387e-12,2.104998322e-13,2.028297225e-13,1.109954682e-13,2.190418819e-13,4.031043265e-13,2.450072874e-13,6.192431018e-13,1.783061593e-13,5.238804283e-13,1.88807564e-13,1.447517464e-13,1.429327567e-13
0.1953125,1.644427494e-13,1.897602222e-13,3.912919424e-13,2.136673329e-13,1.262850528e-13,4.509964573e-13,2.16512725e-13,1.034935675e-13,8.390756204e-14,1.753597779e-13,1.039388805e-12,2.42403507e-13,3.69772625e-12,2.273161479e-13,4.020869126e-13,6.068697794e-13,7.679791375e-13,4.413278006e-13,4.370201078e-13,1.189425677e-12,2.143139155e-13,2.193096526e-13,1.21333328e-13,2.176137573e-13,3.99509892e-13,2.678472178e-13,6.625735128e-13,1.857602906e-13,5.502224475e-13,1.929059886e-13,1.563596119e-13,1.58886184e-13
0.203125,1.723328015e-13,2.01236223e-13,4.019930706e-13,2.211046036e-13,1.328443615e-13,4.488685108e-13,2.225823415e-13,1.028614312e-13,8.984556161e-14,1.907164384e-13,1.078662881e-12,2.423059045e-13,3.751021406e-12,2.402897714e-13,4.251386623e-13,6.588973652e-13,8.067698451e-13,4.506396704e-13,4.426604728e-13,1.197553092e-12,2.177550911e-13,2.368387999e-13,1.324058737e-13,2.159072854e-13,3.952360534e-13,2.924773087e-13,7.070118885e-13,1.932385544e-13,5.76742811e-13,1.971301882e-13,1.689162303e-13,1.762403338e-13
0.2109375,1.807187517e-13,2.130636982e-13,4.13585922e-13,2.291079042e-13,1.400335017e-13,4.466582777e-13,2.297998362e-13,1.020855922e-13,9.626478594e-14,2.074404414e-13,1.121809853e-12,2.425716942e-13,3.805040926e-12,2.545080893e-13,4.497073654e-13,7.142258867e-13,8.487843377e-13,4.597749945e-13,4.479465891e-13,1.205532872e-12,2.20838222e-13,2.555861418e-13,1.442605387e-13,2.139701342e-13,3.901664555e-13,3.189914545e-13,7.523673759e-13,2.010926268e-13,6.034539963e-13,2.017511109e-13,1.825140967e-13,1.951453325e-13
0.21875,1.896976938e-13,2.25237099e-13,4.262883795e-13,2.377136781e-13,1.478307702e-13,4.446138451e-13,2.37366718e-13,1.011886983e-13,1.03199792e-13,2.251314034e-13,1.168389088e-12,2.431993956e-13,3.86024118e-12,2.69968322e-13,4.756150477e-13,7.731061081e-13,8.944688519e-13,4.69094518e-13,4.528205936e-13,1.213393137e-12,2.236132993e-13,2.754699951e-13,1.569113195e-13,2.118424909e-13,3.841195716e-13,3.473620768e-13,7.989492192e-13,2.093605876e-13,6.304241461e-13,2.068158768e-13,1.971398152e-13,2.155391528e-13
0.2265625,1.993639446e-13,2.376921556e-13,4.403440887e-13,2.468376468e-13,1.561762286e-13,4.430876029e-13,2.444323603e-13,1.002616497e-13,1.107511608e-13,2.435399505e-13,1.218485016e-12,2.440730523e-13,3.913831076e-12,2.866011354e-13,5.027777524e-13,8.35148803e-13,9.437604724e-13,4.788665811e-13,4.572571794e-13,1.221574113e-12,2.260476956e-13,2.963488921e-13,1.702476354e-13,2.093125588e-13,3.776734332e-13,3.776235383e-13,8.467248125e-13,2.180065821e-13,6.576628711e-13,2.122175223e-13,2.127842248e-13,2.373376265e-13
0.234375,2.098116871e-13,2.503386582e-13,4.5581124e-13,2.566007856e-13,1.652064813e-13,4.420100841e-13,2.518421914e-13,9.924794132e-14,1.188930189e-13,2.631562791e-13,1.273141298e-12,2.4532e-13,3.96594877e-12,3.044792859e-13,5.313974199e-13,8.99977161e-13,9.960853593e-13,4.887411389e-13,4.612291096e-13,1.230078603e-12,2.281393795e-13,3.184266402e-13,1.841839629e-13,2.066349497e-13,3.710082306e-13,4.098850076e-13,8.956603175e-13,2.269300251e-13,6.849837121e-13,2.174743423e-13,2.293890839e-13,2.606692013e-13
0.2421875,2.209357882e-13,2.632086524e-13,4.728118728e-13,2.672621434e-13,1.75170552e-13,4.413173838e-13,2.599233015e-13,9.803918644e-14,1.275812057e-13,2.841121869e-13,1.332367008e-12,2.470508306e-13,4.021076413e-12,3.236161766e-13,5.613279884e-13,9.681129122e-13,1.052861824e-12,4.986058577e-13,4.648409506e-13,1.238821684e-12,2.298221376e-13,3.418060547e-13,1.987700442e-13,2.041242034e-13,3.636605784e-13,4.446009843e-13,9.463545479e-13,2.35522408e-13,7.125810428e-13,2.227883977e-13,2.471379962e-13,2.858450734e-13
0.25,2.32615186e-13,2.765703595e-13,4.9167159e-13,2.790179582e-13,1.862385538e-13,4.41451093e-13,2.683282803e-13,9.672015176e-14,1.368473005e-13,3.063415165e-13,1.396848867e-12,2.494174372e-13,4.080106076e-12,3.441662704e-13,5.930648213e-13,1.040168348e-12,1.115271363e-12,5.086372885e-13,4.681696684e-13,1.248802461e-12,2.311706338e-13,3.663457208e-13,2.140348723e-13,2.014268447e-13,3.557701567e-13,4.820771791e-13,9.985126206e-13,2.439875252e-13,7.408828085e-13,2.290957061e-13,2.66548264e-13,3.129018376e-13
0.2578125,2.451267186e-13,2.903617396e-13,5.126616074e-13,2.918902699e-13,1.983163102e-13,4.424839544e-13,2.775048474e-13,9.532725743e-14,1.467042557e-13,3.300604247e-13,1.467257931e-12,2.525938866e-13,4.143600636e-12,3.664612958e-13,6.271095737e-13,1.115697063e-12,1.181754555e-12,5.185114076e-13,4.709510513e-13,1.260265476e-12,2.322987718e-13,3.919496208e-13,2.299697092e-13,1.984582861e-13,3.477434457e-13,5.220403882e-13,1.051301345e-12,2.531405774e-13,7.69573569e-13,2.359828104e-13,2.876479624e-13,3.415440875e-13
0.265625,2.585312218e-13,3.043559183e-13,5.352176081e-13,3.056719606e-13,2.113578472e-13,4.438667795e-13,2.874644721e-13,9.381717988e-14,1.572095708e-13,3.55092733e-13,1.542666456e-12,2.565618153e-13,4.213931465e-12,3.905323893e-13,6.62977353e-13,1.19435896e-12,1.252168786e-12,5.282006495e-13,4.729714124e-13,1.272473194e-12,2.330596715e-13,4.185493812e-13,2.466574592e-13,1.955236113e-13,3.395872059e-13,5.644385848e-13,1.104967366e-12,2.630711477e-13,7.985232409e-13,2.428963718e-13,3.102073947e-13,3.717019869e-13
0.2734375,2.7257801e-13,3.18782038e-13,5.592813924e-13,3.20438308e-13,2.255572967e-13,4.458178116e-13,2.979001635e-13,9.22395538e-14,1.683747215e-13,3.812831259e-13,1.623510562e-12,2.614344732e-13,4.288621504e-12,4.163485975e-13,7.00666975e-13,1.276407329e-12,1.328000912e-12,5.380724515e-13,4.743264808e-13,1.285691296e-12,2.333887735e-13,4.461732461e-13,2.641440036e-13,1.926141273e-13,3.312940673e-13,6.094215138e-13,1.159732612e-12,2.734367459e-13,8.280096955e-13,2.503467436e-13,3.344105339e-13,4.034745183e-13
0.28125,2.874002103e-13,3.336404719e-13,5.857188418e-13,3.363599963e-13,2.409067724e-13,4.490627391e-13,3.086711441e-13,9.062301103e-14,1.801572471e-13,4.086581923e-13,1.710490935e-12,2.673605548e-13,4.367728105e-12,4.440362136e-13,7.40383188e-13,1.361265761e-12,1.408420456e-12,5.479455188e-13,4.75049676e-13,1.300097066e-12,2.332372527e-13,4.747309722e-13,2.82232701e-13,1.898234764e-13,3.230169342e-13,6.568534889e-13,1.21563105e-12,2.84177153e-13,8.576359278e-13,2.583059985e-13,3.602034607e-13,4.368446459e-13
0.2890625,3.030980254e-13,3.486763847e-13,6.140729848e-13,3.532680562e-13,2.573827212e-13,4.535297932e-13,3.194949526e-13,8.898114842e-14,1.926554527e-13,4.371325422e-13,1.803126783e-12,2.743621177e-13,4.455036825e-12,4.736215292e-13,7.819190218e-13,1.448412602e-12,1.492509009e-12,5.576264292e-13,4.752187489e-13,1.315490109e-12,2.324645684e-13,5.03984167e-13,3.00641798e-13,1.872790582e-13,3.149778516e-13,7.068049882e-13,1.272952605e-12,2.956450768e-13,8.87439312e-13,2.668685835e-13,3.874404279e-13,4.719540804e-13
0.296875,3.194552183e-13,3.640394087e-13,6.437724005e-13,3.713180326e-13,2.753161537e-13,4.589684136e-13,3.309031405e-13,8.736951063e-14,2.059562432e-13,4.669625202e-13,1.902226195e-12,2.826343191e-13,4.549167409e-12,5.052870216e-13,8.258705628e-13,1.538567152e-12,1.581116447e-12,5.671124227e-13,4.749527644e-13,1.332254832e-12,2.312287668e-13,5.341120433e-13,3.194076354e-13,1.847981249e-13,3.072280801e-13,7.59535336e-13,1.330971309e-12,3.07778874e-13,9.179065149e-13,2.765781706e-13,4.164484621e-13,5.090009521e-13
0.3046875,3.364866694e-13,3.797968215e-13,6.754408473e-13,3.907925537e-13,2.949026528e-13,4.655199738e-13,3.43079191e-13,8.581665082e-14,2.200165926e-13,4.980990832e-13,2.007965056e-12,2.922660898e-13,4.649762468e-12,5.392658012e-13,8.72617893e-13,1.632031987e-12,1.675013579e-12,5.763702239e-13,4.741213171e-13,1.35053007e-12,2.296585935e-13,5.652341709e-13,3.387470673e-13,1.824999235e-13,2.996058302e-13,8.151214034e-13,1.389078463e-12,3.202996992e-13,9.486346017e-13,2.872589771e-13,4.474027603e-13,5.478860717e-13
0.3125,3.542976975e-13,3.959489757e-13,7.089881492e-13,4.115766971e-13,3.161347707e-13,4.733278915e-13,3.55417743e-13,8.431141874e-14,2.347896255e-13,5.301338155e-13,2.11984351e-12,3.032614523e-13,4.758506401e-12,5.754980884e-13,9.216819655e-13,1.728069712e-12,1.774447406e-12,5.858157998e-13,4.727901832e-13,1.37048758e-12,2.276651829e-13,5.969672639e-13,3.584764288e-13,1.806311353e-13,2.92264548e-13,8.734237079e-13,1.447773329e-12,3.33552212e-13,9.793751777e-13,2.986760505e-13,4.802930563e-13,5.884210745e-13
0.3203125,3.728396528e-13,4.124417579e-13,7.44299421e-13,4.336123197e-13,3.390541437e-13,4.824653527e-13,3.682972344e-13,8.283005204e-14,2.502459632e-13,5.630710759e-13,2.238705687e-12,3.158038894e-13,4.875457225e-12,6.14101184e-13,9.731579036e-13,1.825827432e-12,1.877789695e-12,5.955390833e-13,4.710517947e-13,1.391873003e-12,2.252314472e-13,6.291151223e-13,3.782250899e-13,1.789806199e-13,2.85440463e-13,9.340322206e-13,1.506766989e-12,3.47216916e-13,1.009955741e-12,3.106593061e-13,5.149588259e-13,6.305260683e-13
0.328125,3.921182686e-13,4.287855872e-13,7.814434359e-13,4.567869875e-13,3.635961302e-13,4.927211878e-13,3.815379231e-13,8.144691659e-14,2.663858341e-13,5.965036726e-13,2.363469949e-12,3.297471238e-13,5.000944864e-12,6.553868568e-13,1.027092969e-12,1.924869817e-12,1.983525856e-12,6.051048114e-13,4.685208346e-13,1.413818007e-12,2.223064176e-13,6.614867716e-13,3.979800568e-13,1.775000445e-13,2.788905272e-13,9.968393448e-13,1.565394652e-12,3.608573885e-13,1.039725614e-12,3.231496948e-13,5.510265114e-13,6.741330109e-13
0.3359375,4.12192004e-13,4.451297352e-13,8.196543381e-13,4.812417869e-13,3.898252679e-13,5.039400682e-13,3.943495787e-13,8.027809717e-14,2.831929831e-13,6.299620581e-13,2.492879642e-12,3.449404045e-13,5.131781312e-12,6.994876543e-13,1.083260525e-12,2.02560873e-12,2.093729942e-12,6.147261529e-13,4.652263744e-13,1.437135483e-12,2.190369685e-13,6.937789064e-13,4.177747344e-13,1.765729029e-13,2.724221466e-13,1.061949683e-12,1.623636119e-12,3.75315867e-13,1.068994691e-12,3.365867096e-13,5.887955256e-13,7.190787697e-13
0.34375,4.330063066e-13,4.620116364e-13,8.595294147e-13,5.074967234e-13,4.178461753e-13,5.164894847e-13,4.07143652e-13,7.931493132e-14,3.006763976e-13,6.635833692e-13,2.628069895e-12,3.61593483e-13,5.270180802e-12,7.463343628e-13,1.141786747e-12,2.127900709e-12,2.208716546e-12,6.245174176e-13,4.617076085e-13,1.462441218e-12,2.1569289e-13,7.261421596e-13,4.374065051e-13,1.761948625e-13,2.662465123e-13,1.128858524e-12,1.681132107e-12,3.905766815e-13,1.097978186e-12,3.507551639e-13,6.284935126e-13,7.651395353e-13
0.3515625,4.543097286e-13,4.790087355e-13,9.019235391e-13,5.35231464e-13,4.475299293e-13,5.305056194e-13,4.199186807e-13,7.856422631e-14,3.189381527e-13,6.971395058e-13,2.768220697e-12,3.795129615e-13,5.423237212e-12,7.955173341e-13,1.202147728e-12,2.230273386e-12,2.325637638e-12,6.340220523e-13,4.579762176e-13,1.488431727e-12,2.121857782e-13,7.586222626e-13,4.566976765e-13,1.75839392e-13,2.606523766e-13,1.197328648e-12,1.737567773e-12,4.057714771e-13,1.125984946e-12,3.652933362e-13,6.694780733e-13,8.123523909e-13
0.359375,4.760438885e-13,4.958697014e-13,9.454737356e-13,5.640447095e-13,4.790795319e-13,5.457514212e-13,4.327760931e-13,7.806692162e-14,3.378793616e-13,7.306078282e-13,2.912220383e-12,3.985146717e-13,5.583516417e-12,8.469954198e-13,1.264094092e-12,2.332100561e-12,2.444486845e-12,6.432744799e-13,4.53767918e-13,1.514945265e-12,2.084600344e-13,7.909296413e-13,4.754986694e-13,1.753194221e-13,2.556999208e-13,1.267629052e-12,1.792798195e-12,4.211475357e-13,1.153102353e-12,3.805426596e-13,7.117183832e-13,8.608789771e-13
0.3671875,4.984905184e-13,5.128252206e-13,9.896732211e-13,5.942864296e-13,5.127080526e-13,5.621026208e-13,4.463520968e-13,7.780931402e-14,3.572492362e-13,7.64076154e-13,3.060689855e-12,4.188137577e-13,5.746809324e-12,9.013347603e-13,1.328255153e-12,2.433365516e-12,2.565133673e-12,6.523730367e-13,4.489621121e-13,1.542232963e-12,2.045627887e-13,8.228085463e-13,4.935367527e-13,1.750103193e-13,2.510283157e-13,1.339213303e-12,1.846198689e-12,4.371193179e-13,1.179199262e-12,3.964482966e-13,7.553836041e-13,9.103652497e-13
0.375,5.215311021e-13,5.296445797e-13,1.035353904e-12,6.257898514e-13,5.481730732e-13,5.794631775e-13,4.595676567e-13,7.784906395e-14,3.770195061e-13,7.967840195e-13,3.212455583e-12,4.402236236e-13,5.923954715e-12,9.582986062e-13,1.394218368e-12,2.533498013e-12,2.686217517e-12,6.613328318e-13,4.435325207e-13,1.57001501e-12,2.004676517e-13,8.538729554e-13,5.106322044e-13,1.750502031e-13,2.466020271e-13,1.411748095e-12,1.898078174e-12,4.538212848e-13,1.20392794e-12,4.130015375e-13,8.000579792e-13,9.604020633e-13
0.3828125,5.447754899e-13,5.464302414e-13,1.082126265e-12,6.584804803e-13,5.857528106e-13,5.979263673e-13,4.720364679e-13,7.818826245e-14,3.972081226e-13,8.288066894e-13,3.367183423e-12,4.626632781e-13,6.113829683e-12,1.017407636e-12,1.461739267e-12,2.632748529e-12,2.809935279e-12,6.70552955e-13,4.377024767e-13,1.599194716e-12,1.964170186e-13,8.841018904e-13,5.26996559e-13,1.752750588e-13,2.430899482e-13,1.486094044e-12,1.949928509e-12,4.709541429e-13,1.228359739e-12,4.301014649e-13,8.462242344e-13,1.011279139e-12
0.390625,5.682464079e-13,5.63379986e-13,1.129368077e-12,6.926617295e-13,6.257918516e-13,6.174515474e-13,4.849676304e-13,7.87127512e-14,4.177043568e-13,8.607608313e-13,3.525733017e-12,4.863839196e-13,6.309785316e-12,1.079115171e-12,1.531616832e-12,2.731058616e-12,2.93617568e-12,6.798284242e-13,4.31510239e-13,1.629496322e-12,1.924980244e-13,9.136109335e-13,5.427815948e-13,1.758100221e-13,2.405936802e-13,1.562253886e-12,2.002183371e-12,4.877329913e-13,1.252796258e-12,4.470656527e-13,8.943780501e-13,1.06307933e-12
0.3984375,5.919742501e-13,5.802159176e-13,1.176920777e-12,7.278173006e-13,6.677254076e-13,6.377273828e-13,4.978733443e-13,7.941830787e-14,4.383508214e-13,8.920585264e-13,3.686272285e-12,5.111968375e-13,6.513388774e-12,1.143492e-12,1.603443375e-12,2.827010418e-12,3.060931572e-12,6.886275809e-13,4.248597892e-13,1.659715829e-12,1.885645426e-13,9.418337283e-13,5.574991359e-13,1.765794803e-13,2.386481149e-13,1.639012419e-12,2.05400935e-12,5.047403305e-13,1.276470177e-12,4.645836906e-13,9.438157129e-13,1.115166033e-12
0.40625,6.158950262e-13,5.970926908e-13,1.224894752e-12,7.638431934e-13,7.113579692e-13,6.589504404e-13,5.10151953e-13,8.032249558e-14,4.590046286e-13,9.224158011e-13,3.847957667e-12,5.371099865e-13,6.723471827e-12,1.210286771e-12,1.676623541e-12,2.92001943e-12,3.184390473e-12,6.97132754e-13,4.180144118e-13,1.690488686e-12,1.84771257e-13,9.685457473e-13,5.707784225e-13,1.772436825e-13,2.373405137e-13,1.71597647e-12,2.105155776e-12,5.22998497e-13,1.299541892e-12,4.834168215e-13,9.942807306e-13,1.167322841e-12
0.4140625,6.400510876e-13,6.13982627e-13,1.27344605e-12,8.010335345e-13,7.570412173e-13,6.810816812e-13,5.223654707e-13,8.142894378e-14,4.797067995e-13,9.521025739e-13,4.011530294e-12,5.642259514e-13,6.942597653e-12,1.279620593e-12,1.751324042e-12,3.009779789e-12,3.307374893e-12,7.054394042e-13,4.10950925e-13,1.721629224e-12,1.810587556e-13,9.939138047e-13,5.828508615e-13,1.781985077e-13,2.368503745e-13,1.793403639e-12,2.15610478e-12,5.423580621e-13,1.321805393e-12,5.02486436e-13,1.045845474e-12,1.219722923e-12
0.421875,6.642294681e-13,6.304426269e-13,1.321624026e-12,8.387065626e-13,8.044416465e-13,7.035119886e-13,5.343286608e-13,8.28082933e-14,5.004171615e-13,9.806962232e-13,4.175331395e-12,5.919740588e-13,7.171180404e-12,1.350661622e-12,1.82663149e-12,3.095267898e-12,3.427685752e-12,7.134466544e-13,4.034683353e-13,1.752142555e-12,1.772642066e-13,1.017488182e-12,5.936233163e-13,1.798637597e-13,2.371117489e-13,1.870772068e-12,2.20701127e-12,5.622705545e-13,1.342932959e-12,5.216102926e-13,1.098050213e-12,1.271982906e-12
0.4296875,6.882490414e-13,6.467003123e-13,1.368768781e-12,8.767022722e-13,8.531370637e-13,7.264176099e-13,5.458889949e-13,8.441391924e-14,5.207722396e-13,1.007768034e-12,4.33753469e-12,6.201834815e-13,7.397838628e-12,1.422416667e-12,1.901561045e-12,3.175853502e-12,3.544964742e-12,7.213131216e-13,3.958904281e-13,1.782525574e-12,1.736999095e-13,1.039093153e-12,6.027574947e-13,1.817305664e-13,2.381493779e-13,1.947234483e-12,2.25773942e-12,5.812489471e-13,1.363285935e-12,5.411971662e-13,1.150813648e-12,1.323631077e-12
0.4375,7.12139994e-13,6.628886648e-13,1.415243183e-12,9.154711207e-13,9.032494862e-13,7.499220274e-13,5.571069098e-13,8.617193687e-14,5.406222478e-13,1.033238291e-12,4.498019664e-12,6.492657335e-13,7.62294964e-12,1.495285188e-12,1.976427316e-12,3.250711022e-12,3.658712288e-12,7.289787683e-13,3.88409992e-13,1.812612721e-12,1.704627688e-13,1.058840469e-12,6.103227678e-13,1.835670517e-13,2.398899859e-13,2.022627179e-12,2.308109807e-12,5.991764182e-13,1.382497637e-12,5.604319892e-13,1.204283221e-12,1.374537317e-12
0.4453125,7.357737383e-13,6.787722517e-13,1.460769172e-12,9.548445776e-13,9.549228911e-13,7.732075399e-13,5.676963902e-13,8.814646391e-14,5.6015562e-13,1.05734478e-12,4.657664066e-12,6.793510533e-13,7.855152504e-12,1.569784371e-12,2.051961827e-12,3.319450551e-12,3.767288423e-12,7.363797126e-13,3.810096423e-13,1.841971682e-12,1.674099808e-13,1.076419263e-12,6.162696802e-13,1.857507141e-13,2.423346494e-13,2.097129864e-12,2.35793076e-12,6.191172348e-13,1.400694352e-12,5.796190867e-13,1.25842174e-12,1.424587721e-12
0.453125,7.590501697e-13,6.943336602e-13,1.505290118e-12,9.946949664e-13,1.008057183e-12,7.959511834e-13,5.779607387e-13,9.037621199e-14,5.794031116e-13,1.080206266e-12,4.81649688e-12,7.103042648e-13,8.089843982e-12,1.645501279e-12,2.128161024e-12,3.38260489e-12,3.87111908e-12,7.434509859e-13,3.738052726e-13,1.871150744e-12,1.646673581e-13,1.091955237e-12,6.204076805e-13,1.88202422e-13,2.453988097e-13,2.170541036e-12,2.40704941e-12,6.409854643e-13,1.418178288e-12,5.994498846e-13,1.313025491e-12,1.473773183e-12
0.4609375,7.818443848e-13,7.093107273e-13,1.548812304e-12,1.034618496e-12,1.06231656e-12,8.183270331e-13,5.880194085e-13,9.286300315e-14,5.981076318e-13,1.10103819e-12,4.971281688e-12,7.415194971e-13,8.321312913e-12,1.721342854e-12,2.203390557e-12,3.439487299e-12,3.970574434e-12,7.501197759e-13,3.666478019e-13,1.899989479e-12,1.622870939e-13,1.105591272e-12,6.228075911e-13,1.906737706e-13,2.487141775e-13,2.24247327e-12,2.454876745e-12,6.611927248e-13,1.433696171e-12,6.189909412e-13,1.367555559e-12,1.521985815e-12
0.46875,8.041172054e-13,7.239447088e-13,1.590305196e-12,1.074312083e-12,1.117629952e-12,8.402399273e-13,5.974290388e-13,9.558546785e-14,6.159324277e-13,1.119455746e-12,5.120019049e-12,7.726319281e-13,8.547785822e-12,1.796718508e-12,2.276724964e-12,3.489576033e-12,4.065874103e-12,7.572877783e-13,3.596495533e-13,1.928674429e-12,1.603389613e-13,1.116749787e-12,6.234250372e-13,1.933165331e-13,2.52541464e-13,2.312959992e-12,2.501102158e-12,6.801806695e-13,1.447728891e-12,6.381926348e-13,1.422352727e-12,1.568849937e-12
0.4765625,8.261750851e-13,7.389116271e-13,1.629573428e-12,1.114454979e-12,1.174242592e-12,8.614824817e-13,6.062056993e-13,9.847075062e-14,6.327341279e-13,1.135872762e-12,5.26402591e-12,8.04007955e-13,8.764665287e-12,1.872101252e-12,2.349267115e-12,3.533671176e-12,4.157052083e-12,7.657105205e-13,3.532641922e-13,1.957626617e-12,1.589841055e-13,1.125266864e-12,6.222017161e-13,1.96227965e-13,2.573356251e-13,2.382192621e-12,2.546184737e-12,6.99819467e-13,1.46219307e-12,6.57840523e-13,1.478409449e-12,1.614201139e-12
0.484375,8.47700684e-13,7.536545543e-13,1.66692685e-12,1.154788237e-12,1.231816555e-12,8.816157636e-13,6.144813752e-13,1.015095411e-13,6.484474813e-13,1.150215489e-12,5.402260667e-12,8.352778572e-13,8.972700049e-12,1.946876785e-12,2.420517117e-12,3.57121175e-12,4.241564702e-12,7.745642574e-13,3.473798849e-13,1.985694887e-12,1.581515422e-13,1.131410907e-12,6.19336055e-13,1.992543758e-13,2.626871904e-13,2.44973847e-12,2.589729597e-12,7.189692046e-13,1.476203567e-12,6.771358832e-13,1.535163239e-12,1.657867463e-12
0.4921875,8.67932425e-13,7.675386066e-13,1.70195251e-12,1.194195772e-12,1.289687038e-12,9.00532523e-13,6.222397483e-13,1.046840421e-13,6.628984622e-13,1.162410694e-12,5.532703012e-12,8.658470971e-13,9.177867239e-12,2.019605302e-12,2.488873396e-12,3.600999055e-12,4.31770729e-12,7.831658778e-13,3.418445346e-13,2.012193954e-12,1.578451412e-13,1.135072964e-12,6.148971646e-13,2.024679918e-13,2.682157341e-13,2.514949996e-12,2.631332317e-12,7.375994336e-13,1.488404699e-12,6.95182975e-13,1.59143499e-12,1.699406478e-12
0.5,8.869697907e-13,7.809743703e-13,1.734233779e-12,1.232520396e-12,1.347623867e-12,9.184777473e-13,6.293430142e-13,1.079500482e-13,6.761062688e-13,1.172468948e-12,5.655216602e-12,8.95975705e-13,9.378456461e-12,2.090377448e-12,2.55445503e-12,3.622902287e-12,4.385701584e-12,7.91941703e-13,3.367962298e-13,2.037137973e-12,1.581738381e-13,1.136086045e-12,6.088746024e-13,2.061402684e-13,2.740635827e-13,2.577822762e-12,2.67183897e-12,7.564158943e-13,1.499372128e-12,7.123717134e-13,1.647319436e-12,1.738657196e-12
0.5078125,9.051060468e-13,7.941081544e-13,1.762667201e-12,1.269734356e-12,1.405630407e-12,9.349668701e-13,6.356349636e-13,1.11337225e-13,6.88072468e-13,1.180177518e-12,5.769071939e-12,9.255247175e-13,9.563170586e-12,2.159313678e-12,2.617262587e-12,3.637169714e-12,4.445771776e-12,8.013699979e-13,3.321210191e-13,2.060033146e-12,1.590871525e-13,1.134391898e-12,6.014248827e-13,2.099548418e-13,2.803342952e-13,2.638413804e-12,2.710978921e-12,7.740208277e-13,1.509613381e-12,7.290886301e-13,1.703291894e-12,1.775739231e-12
0.515625,9.222385006e-13,8.068726329e-13,1.786739714e-12,1.305747751e-12,1.463758774e-12,9.495473187e-13,6.414728194e-13,1.148182599e-13,6.985616596e-13,1.185999356e-12,5.87442717e-12,9.542618215e-13,9.727231838e-12,2.225875329e-12,2.677015271e-12,3.64426532e-12,4.4987773e-12,8.115254856e-13,3.278777557e-13,2.081205219e-12,1.605924392e-13,1.130026908e-12,5.926844435e-13,2.135242779e-13,2.869867038e-13,2.696444946e-12,2.747779541e-12,7.904451145e-13,1.519239515e-12,7.451979068e-13,1.759447351e-12,1.810689863e-12
0.5234375,9.383820749e-13,8.193925611e-13,1.807530407e-12,1.340607786e-12,1.521822328e-12,9.623952007e-13,6.468027575e-13,1.183698021e-13,7.077351875e-13,1.19025546e-12,5.971873748e-12,9.824013679e-13,9.877478741e-12,2.290041088e-12,2.733880383e-12,3.643983636e-12,4.543486915e-12,8.222802083e-13,3.242689628e-13,2.100792531e-12,1.627427267e-13,1.123213429e-12,5.827043512e-13,2.174953629e-13,2.938168834e-13,2.751983046e-12,2.782611564e-12,8.073271712e-13,1.528296968e-12,7.606662068e-13,1.81573645e-12,1.843425788e-12
0.53125,9.534067795e-13,8.316275288e-13,1.824849406e-12,1.3738414e-12,1.579394519e-12,9.733309744e-13,6.509664892e-13,1.220780125e-13,7.159116042e-13,1.192346697e-12,6.059437974e-12,1.009430714e-12,1.001402681e-11,2.351047725e-12,2.78703534e-12,3.636042922e-12,4.578678221e-12,8.340791447e-13,3.212746791e-13,2.118412469e-12,1.65565834e-13,1.114110422e-12,5.714460646e-13,2.222832812e-13,3.007548548e-13,2.805001882e-12,2.815692289e-12,8.237104107e-13,1.53692586e-12,7.754471844e-13,1.872001079e-12,1.873743291e-12
0.5390625,9.670447901e-13,8.435941441e-13,1.83799446e-12,1.405184789e-12,1.636331277e-12,9.821783793e-13,6.542107219e-13,1.259320779e-13,7.229240008e-13,1.191978335e-12,6.135195284e-12,1.03478974e-12,1.013024664e-11,2.40785586e-12,2.835536303e-12,3.621060529e-12,4.606637133e-12,8.474284465e-13,3.189996152e-13,2.134610779e-12,1.691041828e-13,1.102780017e-12,5.588636975e-13,2.271873069e-13,3.077783366e-13,2.854850615e-12,2.846891943e-12,8.374770452e-13,1.545144139e-12,7.889350096e-13,1.927963612e-12,1.901572784e-12
0.546875,9.791670434e-13,8.550270223e-13,1.846926747e-12,1.434394092e-12,1.692399284e-12,9.889335187e-13,6.569431954e-13,1.298569109e-13,7.286208733e-13,1.189302658e-12,6.198354968e-12,1.058579564e-12,1.022394069e-11,2.460501362e-12,2.879122556e-12,3.598540456e-12,4.626778085e-12,8.615268152e-13,3.173950058e-13,2.14867453e-12,1.73268733e-13,1.089296793e-12,5.451929593e-13,2.319611043e-13,3.146453002e-13,2.901232687e-12,2.876050328e-12,8.491771956e-13,1.551882076e-12,8.008173759e-13,1.983183437e-12,1.926982178e-12
0.5546875,9.896366664e-13,8.65642817e-13,1.850662182e-12,1.460968298e-12,1.747092669e-12,9.931047361e-13,6.588964395e-13,1.337474871e-13,7.329916056e-13,1.18432901e-12,6.248268312e-12,1.080724571e-12,1.029222532e-11,2.508791938e-12,2.918459887e-12,3.568127877e-12,4.636285909e-12,8.762214524e-13,3.16349358e-13,2.158621667e-12,1.78047633e-13,1.073513822e-12,5.306641921e-13,2.371111713e-13,3.216493857e-13,2.944203974e-12,2.903492461e-12,8.608130142e-13,1.557136136e-12,8.115979918e-13,2.037847775e-12,1.949817786e-12
0.5625,9.983983545e-13,8.758135259e-13,1.849616917e-12,1.485313558e-12,1.800679622e-12,9.943217402e-13,6.60019889e-13,1.378273739e-13,7.359758305e-13,1.177425896e-12,6.287126816e-12,1.100865743e-12,1.033493711e-11,2.551601055e-12,2.953125935e-12,3.531525275e-12,4.639237764e-12,8.925639353e-13,3.162353965e-13,2.166270363e-12,1.835666456e-13,1.055871942e-12,5.151787685e-13,2.425408789e-13,3.289346443e-13,2.98403522e-12,2.926567284e-12,8.710565341e-13,1.561961888e-12,8.209752639e-13,2.092253759e-12,1.969950589e-12
0.5703125,1.005706546e-12,8.858410758e-13,1.845483523e-12,1.507973613e-12,1.853249271e-12,9.936928211e-13,6.607115519e-13,1.421449932e-13,7.376132236e-13,1.168467471e-12,6.314369945e-12,1.118520074e-12,1.036199247e-11,2.587974326e-12,2.982076625e-12,3.489838233e-12,4.638158663e-12,9.106774972e-13,3.172866144e-13,2.173688581e-12,1.900647971e-13,1.036463914e-12,4.986322127e-13,2.483104059e-13,3.361035412e-13,3.020912681e-12,2.945557856e-12,8.798394305e-13,1.566556279e-12,8.287493361e-13,2.146556814e-12,1.987530449e-12
0.578125,1.011679469e-12,8.953645733e-13,1.837514481e-12,1.528581353e-12,1.904227962e-12,9.915977923e-13,6.606612508e-13,1.465569559e-13,7.382091469e-13,1.157464262e-12,6.328995525e-12,1.133904096e-12,1.036920904e-11,2.617934441e-12,3.00507204e-12,3.442076931e-12,4.629847157e-12,9.296950345e-13,3.192803931e-13,2.179789473e-12,1.976389239e-13,1.015674678e-12,4.814269406e-13,2.546216745e-13,3.427074894e-13,3.054314582e-12,2.960131725e-12,8.874270804e-13,1.569910769e-12,8.347048435e-13,2.200110723e-12,2.002861718e-12
0.5859375,1.01644303e-12,9.040839714e-13,1.824711341e-12,1.546768599e-12,1.953563787e-12,9.873180343e-13,6.596729886e-13,1.510780546e-13,7.379435279e-13,1.14452495e-12,6.331827228e-12,1.147727463e-12,1.035067591e-11,2.6423395e-12,3.022969532e-12,3.388273166e-12,4.612695957e-12,9.495269834e-13,3.221399129e-13,2.184169639e-12,2.06184327e-13,9.937187985e-13,4.6381548e-13,2.616613171e-13,3.488135868e-13,3.084231181e-12,2.9701696e-12,8.932573227e-13,1.571881857e-12,8.388352429e-13,2.252627123e-12,2.016216061e-12
0.59375,1.020190828e-12,9.120498309e-13,1.808215601e-12,1.562412182e-12,2.001440289e-12,9.806029623e-13,6.579923679e-13,1.558662944e-13,7.36578679e-13,1.12946959e-12,6.321900741e-12,1.159519104e-12,1.030781195e-11,2.661365716e-12,3.034944584e-12,3.329356134e-12,4.588872389e-12,9.70745243e-13,3.258618437e-13,2.187796714e-12,2.157443336e-13,9.704893479e-13,4.457272407e-13,2.69275894e-13,3.543245341e-13,3.111068878e-12,2.976214194e-12,8.967740555e-13,1.572674138e-12,8.418384409e-13,2.30432881e-12,2.027314717e-12
0.6015625,1.022654849e-12,9.193115291e-13,1.788430087e-12,1.575444324e-12,2.047551221e-12,9.718578378e-13,6.555179025e-13,1.607486188e-13,7.336764212e-13,1.1124505e-12,6.298811501e-12,1.168480262e-12,1.024371157e-11,2.674420215e-12,3.041158552e-12,3.266553994e-12,4.559995434e-12,9.936369519e-13,3.302813764e-13,2.189690572e-12,2.262278034e-13,9.46206318e-13,4.274356161e-13,2.774374789e-13,3.595463599e-13,3.134750978e-12,2.978088423e-12,8.99038913e-13,1.572557865e-12,8.431049797e-13,2.35516803e-12,2.035820368e-12
0.609375,1.023528918e-12,9.258133887e-13,1.76491726e-12,1.585951856e-12,2.091513925e-12,9.611198003e-13,6.525741827e-13,1.655257035e-13,7.291864793e-13,1.093885469e-12,6.264264182e-12,1.174737014e-12,1.016105925e-11,2.681500516e-12,3.042731406e-12,3.200375257e-12,4.525083463e-12,1.017739146e-12,3.354158494e-13,2.189235627e-12,2.374476588e-13,9.210262356e-13,4.09118787e-13,2.864644749e-13,3.643621418e-13,3.155047373e-12,2.975303184e-12,9.005624099e-13,1.57138627e-12,8.420488689e-13,2.404859492e-12,2.041871988e-12
0.6171875,1.022756959e-12,9.313791969e-13,1.737877904e-12,1.593656863e-12,2.133054088e-12,9.481274371e-13,6.497588053e-13,1.704046047e-13,7.233120238e-13,1.073743666e-12,6.217001589e-12,1.178353547e-12,1.005552141e-11,2.682510689e-12,3.038114383e-12,3.130137213e-12,4.483396821e-12,1.042579559e-12,3.414361201e-13,2.186964023e-12,2.495491152e-13,8.952479671e-13,3.907659263e-13,2.960600608e-13,3.678668214e-13,3.171874314e-12,2.966488148e-12,8.992018273e-13,1.568213852e-12,8.394794579e-13,2.453107929e-12,2.045483306e-12
0.625,1.020560759e-12,9.361286642e-13,1.707496578e-12,1.598607873e-12,2.172312821e-12,9.338952498e-13,6.463085129e-13,1.751979894e-13,7.159238356e-13,1.051985363e-12,6.156671261e-12,1.179613527e-12,9.930106709e-12,2.67712413e-12,3.028282781e-12,3.057262102e-12,4.438189375e-12,1.068699788e-12,3.483663684e-13,2.183452362e-12,2.625765346e-13,8.6890562e-13,3.726566532e-13,3.065141846e-13,3.705764294e-13,3.18541261e-12,2.953454984e-12,8.959855905e-13,1.563811449e-12,8.352473829e-13,2.50042689e-12,2.046599338e-12
0.6328125,1.017408067e-12,9.40284718e-13,1.673802705e-12,1.60095437e-12,2.209298728e-12,9.180233719e-13,6.412490071e-13,1.797756767e-13,7.071722329e-13,1.028976055e-12,6.085219174e-12,1.178799002e-12,9.784545797e-12,2.666781848e-12,3.015126224e-12,2.982377345e-12,4.388709523e-12,1.096644648e-12,3.559277733e-13,2.178313363e-12,2.764510683e-13,8.418182401e-13,3.548331194e-13,3.181539446e-13,3.73025666e-13,3.195936346e-12,2.938186128e-12,8.931054029e-13,1.55903911e-12,8.294090364e-13,2.54710082e-12,2.04538982e-12
0.640625,1.012931756e-12,9.431941359e-13,1.636489142e-12,1.600040547e-12,2.243480849e-12,9.005851099e-13,6.352841431e-13,1.843464827e-13,6.972373303e-13,1.004780225e-12,6.001331913e-12,1.174729239e-12,9.617924682e-12,2.649748406e-12,2.994936624e-12,2.904618445e-12,4.332945274e-12,1.126649663e-12,3.640408613e-13,2.171252958e-12,2.914220895e-13,8.139297447e-13,3.370764154e-13,3.30350281e-13,3.746557527e-13,3.204072252e-12,2.920964727e-12,8.892357861e-13,1.552887819e-12,8.232969334e-13,2.591982005e-12,2.042027892e-12
0.6484375,1.007093468e-12,9.450097893e-13,1.595906598e-12,1.596167644e-12,2.274776184e-12,8.821621538e-13,6.293816726e-13,1.89007111e-13,6.861249003e-13,9.795271525e-13,5.90430378e-12,1.167068526e-12,9.431872337e-12,2.624988231e-12,2.967334822e-12,2.82619549e-12,4.276191865e-12,1.159497699e-12,3.73013814e-13,2.161983784e-12,3.073790134e-13,7.858272733e-13,3.195896056e-13,3.427137017e-13,3.753213632e-13,3.21002781e-12,2.901067176e-12,8.829260377e-13,1.54592603e-12,8.162281642e-13,2.635446685e-12,2.036668219e-12
0.65625,1.000073465e-12,9.46476406e-13,1.553532962e-12,1.590239042e-12,2.303271565e-12,8.627004545e-13,6.232828936e-13,1.936143155e-13,6.742551805e-13,9.536126742e-13,5.798014582e-12,1.157433401e-12,9.23521447e-12,2.595081132e-12,2.936459338e-12,2.748476403e-12,4.218866217e-12,1.194137581e-12,3.827032581e-13,2.149829572e-12,3.238076284e-13,7.577469072e-13,3.027447133e-13,3.562980583e-13,3.75411832e-13,3.213393229e-12,2.878248849e-12,8.748393637e-13,1.539151763e-12,8.064616103e-13,2.67871321e-12,2.029391542e-12
0.6640625,9.91822708e-13,9.473100268e-13,1.509316126e-12,1.58194265e-12,2.328700027e-12,8.419509174e-13,6.164644075e-13,1.981118888e-13,6.620611574e-13,9.271953846e-13,5.684392669e-12,1.146530823e-12,9.027863173e-12,2.561212834e-12,2.902343723e-12,2.670607745e-12,4.157510211e-12,1.228743647e-12,3.927931387e-13,2.136038907e-12,3.407970802e-13,7.295879001e-13,2.865680931e-13,3.71097544e-13,3.750870032e-13,3.214308119e-12,2.853157258e-12,8.657132201e-13,1.532107993e-12,7.95583748e-13,2.721282429e-12,2.020086208e-12
0.671875,9.831237875e-13,9.473681791e-13,1.462861076e-12,1.571255045e-12,2.351564866e-12,8.201895522e-13,6.08985864e-13,2.025594474e-13,6.493281789e-13,9.001775497e-13,5.562246617e-12,1.133726478e-12,8.801366943e-12,2.52270705e-12,2.864222421e-12,2.593698312e-12,4.096320292e-12,1.263775792e-12,4.035116274e-13,2.123037522e-12,3.586162336e-13,7.016146382e-13,2.709057126e-13,3.865408334e-13,3.74072516e-13,3.213263068e-12,2.825963211e-12,8.556308071e-13,1.5247485e-12,7.849541756e-13,2.763048563e-12,2.008976986e-12
0.6796875,9.746222993e-13,9.469289809e-13,1.415164397e-12,1.558805189e-12,2.372076911e-12,7.977131913e-13,6.010045874e-13,2.069237314e-13,6.358370369e-13,8.726159625e-13,5.431355157e-12,1.11858921e-12,8.56043406e-12,2.47948487e-12,2.822517102e-12,2.517859866e-12,4.035291461e-12,1.299784527e-12,4.149016176e-13,2.110072291e-12,3.773363818e-13,6.739292554e-13,2.557649224e-13,4.033451347e-13,3.71857363e-13,3.209836442e-12,2.795610933e-12,8.440883533e-13,1.516991663e-12,7.729115421e-13,2.804399028e-12,1.996296836e-12
0.6875,9.656051441e-13,9.455945877e-13,1.366476225e-12,1.544308471e-12,2.389040595e-12,7.748298174e-13,5.924814288e-13,2.109340024e-13,6.217885556e-13,8.449561215e-13,5.293805221e-12,1.101299415e-12,8.312989468e-12,2.430797595e-12,2.776249616e-12,2.442350755e-12,3.970530375e-12,1.336589661e-12,4.267449689e-13,2.095805267e-12,3.969975134e-13,6.466606319e-13,2.413549918e-13,4.215508326e-13,3.686995043e-13,3.203455004e-12,2.762555241e-12,8.310542252e-13,1.508461275e-12,7.591108903e-13,2.844183354e-12,1.981740116e-12
0.6953125,9.55801057e-13,9.433558967e-13,1.316541206e-12,1.52726199e-12,2.402336588e-12,7.512710348e-13,5.83843979e-13,2.14767039e-13,6.075648015e-13,8.173457564e-13,5.150635238e-12,1.082495669e-12,8.05235891e-12,2.377975298e-12,2.727034291e-12,2.369122312e-12,3.905023492e-12,1.374626999e-12,4.390005873e-13,2.080536895e-12,4.171327768e-13,6.203780917e-13,2.277134458e-13,4.403703818e-13,3.652474486e-13,3.194852114e-12,2.728520196e-12,8.177265049e-13,1.499995817e-12,7.440546418e-13,2.882579343e-12,1.965270393e-12
0.703125,9.457003096e-13,9.406012932e-13,1.265625179e-12,1.507986358e-12,2.413125388e-12,7.276078286e-13,5.754038488e-13,2.187049116e-13,5.933601733e-13,7.898033697e-13,5.002259011e-12,1.062502974e-12,7.783633053e-12,2.321726396e-12,2.675845132e-12,2.299129471e-12,3.841273217e-12,1.413120306e-12,4.514388843e-13,2.06461298e-12,4.376687234e-13,5.953933764e-13,2.148210978e-13,4.60688551e-13,3.613409501e-13,3.185186312e-12,2.692928726e-12,8.037913891e-13,1.491816433e-12,7.272901804e-13,2.920812628e-12,1.947482484e-12
0.7109375,9.355982501e-13,9.371195965e-13,1.213619145e-12,1.486756227e-12,2.420982869e-12,7.04044904e-13,5.666645119e-13,2.22646069e-13,5.793444239e-13,7.62152297e-13,4.847972216e-12,1.041273515e-12,7.508891528e-12,2.262567598e-12,2.62156628e-12,2.230882585e-12,3.776816725e-12,1.450661578e-12,4.639116237e-13,2.047890548e-12,4.589277619e-13,5.71851079e-13,2.02835852e-13,4.826704526e-13,3.566315152e-13,3.17386737e-12,2.653773504e-12,7.895847527e-13,1.483165434e-12,7.105730048e-13,2.957468263e-12,1.928974814e-12
0.71875,9.250977485e-13,9.324095687e-13,1.160853284e-12,1.463497425e-12,2.425577508e-12,6.801966808e-13,5.568743997e-13,2.26482061e-13,5.655569084e-13,7.340668088e-13,4.689253965e-12,1.018572911e-12,7.223499488e-12,2.200198029e-12,2.564744333e-12,2.164516188e-12,3.713017462e-12,1.487296855e-12,4.766367769e-13,2.031479068e-12,4.807855684e-13,5.499726423e-13,1.917780215e-13,5.062741337e-13,3.512540184e-13,3.160097342e-12,2.609925372e-12,7.745556436e-13,1.473191777e-12,6.945456253e-13,2.990981627e-12,1.909865691e-12
0.7265625,9.145650323e-13,9.268474732e-13,1.108229976e-12,1.438974765e-12,2.427803959e-12,6.563898017e-13,5.464433207e-13,2.303721816e-13,5.518832234e-13,7.054032784e-13,4.527398468e-12,9.940665733e-13,6.936019066e-12,2.134475765e-12,2.506432148e-12,2.102054721e-12,3.653704823e-12,1.524131153e-12,4.897453703e-13,2.016751736e-12,5.032985895e-13,5.29532118e-13,1.814088156e-13,5.317435008e-13,3.452537747e-13,3.143828147e-12,2.561842023e-12,7.585412666e-13,1.46219789e-12,6.77243528e-13,3.022696828e-12,1.889453357e-12
0.734375,9.044849889e-13,9.206924478e-13,1.056401364e-12,1.413777708e-12,2.426928003e-12,6.335039484e-13,5.361497471e-13,2.342429194e-13,5.383863503e-13,6.764868222e-13,4.361230603e-12,9.6806957e-13,6.653464784e-12,2.065949694e-12,2.445293312e-12,2.042915884e-12,3.59743765e-12,1.561255574e-12,5.029057903e-13,2.00325738e-12,5.265181176e-13,5.103848307e-13,1.716465325e-13,5.585091622e-13,3.382448831e-13,3.124271615e-12,2.510272142e-12,7.423448666e-13,1.450267109e-12,6.583561333e-13,3.052350191e-12,1.867282153e-12
0.7421875,8.939918912e-13,9.130281875e-13,1.005041439e-12,1.386764471e-12,2.421499988e-12,6.115026679e-13,5.254546104e-13,2.37896021e-13,5.252611881e-13,6.476358596e-13,4.190702101e-12,9.411738211e-13,6.369690235e-12,1.99504889e-12,2.380453641e-12,1.984463451e-12,3.538694109e-12,1.597142336e-12,5.154129981e-13,1.988787857e-12,5.499140516e-13,4.925822628e-13,1.625809576e-13,5.863572808e-13,3.301730194e-13,3.100899247e-12,2.454873001e-12,7.253258442e-13,1.43630667e-12,6.388232619e-13,3.077406578e-12,1.843796634e-12
0.75,8.827511923e-13,9.037157384e-13,9.537432659e-13,1.35754498e-12,2.412268761e-12,5.901753468e-13,5.141397229e-13,2.413541077e-13,5.125539692e-13,6.190761841e-13,4.018879474e-12,9.137170863e-13,6.083798033e-12,1.922706695e-12,2.313859955e-12,1.927596024e-12,3.477726286e-12,1.631242801e-12,5.271119983e-13,1.972739608e-12,5.735287791e-13,4.759143056e-13,1.542528886e-13,6.154736218e-13,3.216032171e-13,3.074388337e-12,2.3957414e-12,7.080442066e-13,1.420631571e-12,6.19784064e-13,3.09792818e-12,1.819275161e-12
0.7578125,8.71732541e-13,8.939648767e-13,9.034574976e-13,1.327592409e-12,2.400644454e-12,5.697804933e-13,5.032683631e-13,2.446405122e-13,5.002518335e-13,5.91136383e-13,3.84860332e-12,8.861373503e-13,5.800739455e-12,1.850283093e-12,2.247700255e-12,1.875131726e-12,3.419926315e-12,1.66466496e-12,5.385053057e-13,1.95705364e-12,5.976808862e-13,4.605052431e-13,1.467279987e-13,6.461251616e-13,3.128868501e-13,3.045652236e-12,2.334018685e-12,6.922068226e-13,1.404810893e-12,6.021228237e-13,3.116127939e-12,1.793838439e-12
0.765625,8.609094566e-13,8.837592908e-13,8.54626213e-13,1.297158987e-12,2.386361022e-12,5.502481067e-13,4.925724692e-13,2.476579033e-13,4.883323829e-13,5.638144435e-13,3.67950831e-12,8.585238423e-13,5.523656901e-12,1.777511524e-12,2.181191101e-12,1.826007584e-12,3.364385402e-12,1.697334985e-12,5.494583619e-13,1.941783288e-12,6.219368437e-13,4.465303736e-13,1.400002961e-13,6.78612711e-13,3.040158249e-13,3.014839476e-12,2.269914819e-12,6.766672024e-13,1.388545995e-12,5.842547105e-13,3.131998053e-12,1.767413339e-12
0.7734375,8.495949498e-13,8.722773924e-13,8.062957467e-13,1.265391266e-12,2.368526855e-12,5.315939317e-13,4.811588278e-13,2.504498732e-13,4.767536533e-13,5.367146757e-13,3.509846111e-12,8.307283414e-13,5.253228077e-12,1.70450058e-12,2.113302073e-12,1.778568026e-12,3.308058587e-12,1.728359372e-12,5.596029911e-13,1.925198424e-12,6.460916129e-13,4.33560676e-13,1.339452791e-13,7.115031717e-13,2.951126663e-13,2.980967276e-12,2.204006841e-12,6.606874573e-13,1.370883115e-12,5.652825551e-13,3.143591605e-12,1.739332014e-12
0.78125,8.381379689e-13,8.600086918e-13,7.586968076e-13,1.232794062e-12,2.347359946e-12,5.14112567e-13,4.698384758e-13,2.530306704e-13,4.654319461e-13,5.101412724e-13,3.341914707e-12,8.029722467e-13,4.98699888e-12,1.632017997e-12,2.045304465e-12,1.734427642e-12,3.253984338e-12,1.757790861e-12,5.691408719e-13,1.908983322e-12,6.703408262e-13,4.217149063e-13,1.285752482e-13,7.442445058e-13,2.859657847e-13,2.943635212e-12,2.136966698e-12,6.444508013e-13,1.352265404e-12,5.470642663e-13,3.151013487e-12,1.709635035e-12
0.7890625,8.26787554e-13,8.471933927e-13,7.130539814e-13,1.199884279e-12,2.323001269e-12,4.974945471e-13,4.590202299e-13,2.553125742e-13,4.543574711e-13,4.842420066e-13,3.176581693e-12,7.753555855e-13,4.724208473e-12,1.560570626e-12,1.97792715e-12,1.693477334e-12,3.20144025e-12,1.784802868e-12,5.778934571e-13,1.894500798e-12,6.942927409e-13,4.110271545e-13,1.238079065e-13,7.78451237e-13,2.760914681e-13,2.903039279e-12,2.069204913e-12,6.287713364e-13,1.332862473e-12,5.299343718e-13,3.154762831e-12,1.678913218e-12
0.796875,8.14791594e-13,8.329653189e-13,6.694926745e-13,1.165917756e-12,2.29506388e-12,4.817671973e-13,4.4744394e-13,2.572225427e-13,4.437102817e-13,4.588477295e-13,3.01312409e-12,7.475830515e-13,4.471391981e-12,1.488873228e-12,1.909849586e-12,1.653029766e-12,3.145502959e-12,1.808304946e-12,5.852922682e-13,1.87894348e-12,7.176102975e-13,4.013630549e-13,1.195556074e-13,8.144672687e-13,2.657863261e-13,2.85904869e-12,2.001080803e-12,6.130797893e-13,1.311703956e-12,5.128793065e-13,3.153363691e-12,1.647174715e-12
0.8046875,8.018780844e-13,8.176934768e-13,6.27096874e-13,1.130995199e-12,2.264520608e-12,4.671837579e-13,4.354759502e-13,2.589763476e-13,4.336219978e-13,4.340779525e-13,2.852406759e-12,7.197536211e-13,4.225925108e-12,1.417215463e-12,1.841762704e-12,1.613771031e-12,3.088391297e-12,1.828861436e-12,5.914009288e-13,1.861330329e-12,7.401440409e-13,3.928655835e-13,1.159132893e-13,8.506888961e-13,2.557759753e-13,2.81281359e-12,1.933779719e-12,5.974001658e-13,1.289482371e-12,4.959520719e-13,3.147525727e-12,1.614722404e-12
0.8125,7.890851649e-13,8.023747298e-13,5.85656249e-13,1.096376519e-12,2.232683163e-12,4.535157055e-13,4.246186985e-13,2.606655816e-13,4.239521685e-13,4.105388503e-13,2.69686688e-12,6.926358848e-13,3.981945946e-12,1.347230376e-12,1.775198295e-12,1.578102544e-12,3.034113232e-12,1.847022489e-12,5.966501901e-13,1.844591002e-12,7.618629316e-13,3.854341407e-13,1.128058514e-13,8.869450532e-13,2.459198917e-13,2.765651821e-12,1.867381736e-12,5.820037676e-13,1.267791592e-12,4.786772315e-13,3.139803816e-12,1.582148054e-12
0.8203125,7.769117792e-13,7.866363948e-13,5.459973935e-13,1.062222941e-12,2.19894105e-12,4.408386023e-13,4.146198654e-13,2.621617457e-13,4.147007327e-13,3.884131993e-13,2.547134759e-12,6.666377883e-13,3.749285672e-12,1.27951305e-12,1.709560077e-12,1.544841881e-12,2.980670466e-12,1.862331672e-12,6.012509738e-13,1.829880292e-12,7.829810469e-13,3.788837272e-13,1.101863887e-13,9.238457715e-13,2.359850161e-13,2.716939055e-12,1.801862628e-12,5.672666493e-13,1.245973199e-12,4.611123533e-13,3.129123997e-12,1.549494989e-12
0.828125,7.646581686e-13,7.699271904e-13,5.083236725e-13,1.027942598e-12,2.162867339e-12,4.292148006e-13,4.045930696e-13,2.635615561e-13,4.059132898e-13,3.673573452e-13,2.402345651e-12,6.412977271e-13,3.533681551e-12,1.213704573e-12,1.644460472e-12,1.512419468e-12,2.927178112e-12,1.874505584e-12,6.051829007e-13,1.81654114e-12,8.03435263e-13,3.733959109e-13,1.082566058e-13,9.613154131e-13,2.263454692e-13,2.666484308e-12,1.737538278e-12,5.527617113e-13,1.222478184e-12,4.444251302e-13,3.113821674e-12,1.516641007e-12
0.8359375,7.527242496e-13,7.526256567e-13,4.722559249e-13,9.941139975e-13,2.125516067e-12,4.184805823e-13,3.940116033e-13,2.649112214e-13,3.97419016e-13,3.470584928e-13,2.262939109e-12,6.1654555e-13,3.325634167e-12,1.150140658e-12,1.581321861e-12,1.482174221e-12,2.875891954e-12,1.884027887e-12,6.084444132e-13,1.804654093e-12,8.229748477e-13,3.68846045e-13,1.069191838e-13,9.987851772e-13,2.169349327e-13,2.614617467e-12,1.673643039e-12,5.379071117e-13,1.197876408e-12,4.286177521e-13,3.095251471e-12,1.483491444e-12
0.84375,7.418874112e-13,7.352242549e-13,4.383287108e-13,9.615567917e-13,2.087125283e-12,4.089612634e-13,3.824969055e-13,2.660288025e-13,3.893498916e-13,3.274242813e-13,2.130047031e-12,5.930695277e-13,3.123203781e-12,1.089643679e-12,1.520486459e-12,1.454160353e-12,2.82592137e-12,1.891430796e-12,6.10825347e-13,1.79362196e-12,8.412960275e-13,3.650477965e-13,1.059164144e-13,1.035475584e-12,2.073191374e-13,2.5606882e-12,1.610717575e-12,5.240999614e-13,1.17335755e-12,4.133487399e-13,3.073962387e-12,1.450132325e-12
0.8515625,7.312843373e-13,7.178888928e-13,4.066796774e-13,9.299520776e-13,2.04695818e-12,4.005992835e-13,3.710415198e-13,2.667589604e-13,3.818616221e-13,3.087992082e-13,2.003523473e-12,5.70915338e-13,2.933345798e-12,1.031739387e-12,1.46065962e-12,1.42674979e-12,2.775247295e-12,1.896394278e-12,6.118923534e-13,1.782499193e-12,8.579038255e-13,3.621427366e-13,1.053109958e-13,1.071061284e-12,1.978851927e-13,2.50502419e-12,1.55068035e-12,5.11727194e-13,1.148752764e-12,3.985725287e-13,3.049306583e-12,1.416542925e-12
0.859375,7.206821949e-13,7.005590685e-13,3.765298948e-13,8.98787759e-13,2.00468243e-12,3.928545915e-13,3.608761235e-13,2.668491013e-13,3.745992996e-13,2.916230926e-13,1.883340049e-12,5.496542038e-13,2.757475842e-12,9.75796432e-13,1.40221706e-12,1.40052223e-12,2.723971846e-12,1.89835984e-12,6.117368732e-13,1.771296005e-12,8.72770336e-13,3.599176292e-13,1.051369625e-13,1.105792695e-12,1.891084056e-13,2.44814014e-12,1.493373541e-12,4.992525959e-13,1.12399216e-12,3.838083587e-13,3.021494999e-12,1.382060349e-12
0.8671875,7.108201654e-13,6.829851864e-13,3.478897708e-13,8.678986948e-13,1.9602541e-12,3.858492099e-13,3.513772581e-13,2.662704646e-13,3.674708195e-13,2.756647509e-13,1.769900647e-12,5.294795116e-13,2.59258467e-12,9.225090672e-13,1.346151547e-12,1.375851486e-12,2.671315827e-12,1.896988747e-12,6.104439604e-13,1.760074573e-12,8.86067247e-13,3.580035763e-13,1.052965072e-13,1.13985673e-12,1.806190656e-13,2.38934546e-12,1.437734072e-12,4.871626893e-13,1.099246804e-12,3.693278598e-13,2.990211931e-12,1.346549279e-12
0.875,7.012510538e-13,6.649323299e-13,3.206986065e-13,8.372109806e-13,1.913723095e-12,3.797224465e-13,3.416785058e-13,2.653840367e-13,3.607316965e-13,2.60471619e-13,1.662259884e-12,5.107288126e-13,2.434211077e-12,8.722432771e-13,1.291432409e-12,1.351128994e-12,2.616942932e-12,1.892146376e-12,6.077050792e-13,1.749108404e-12,8.976207774e-13,3.563042539e-13,1.058175631e-13,1.17262039e-12,1.722826663e-13,2.328663394e-12,1.383786977e-12,4.762885555e-13,1.073877264e-12,3.55937197e-13,2.954636666e-12,1.310453319e-12
0.8828125,6.915756393e-13,6.464129874e-13,2.945690725e-13,8.069705437e-13,1.865317979e-12,3.742396353e-13,3.318828287e-13,2.642382778e-13,3.542943245e-13,2.461309841e-13,1.560131443e-12,4.934319949e-13,2.281182518e-12,8.248818467e-13,1.237633581e-12,1.326012597e-12,2.561823224e-12,1.884506956e-12,6.039513101e-13,1.738224039e-12,9.075425532e-13,3.547991235e-13,1.067345105e-13,1.203614268e-12,1.645395221e-13,2.266110257e-12,1.33186383e-12,4.65422281e-13,1.047700262e-12,3.436381314e-13,2.914441207e-12,1.273578419e-12
0.890625,6.816142561e-13,6.276463198e-13,2.702508233e-13,7.773553324e-13,1.815291368e-12,3.695071272e-13,3.220552546e-13,2.626644353e-13,3.480818356e-13,2.328124042e-13,1.464507687e-12,4.775378898e-13,2.140040772e-12,7.806573878e-13,1.185133486e-12,1.300609729e-12,2.504633754e-12,1.874240526e-12,5.995507594e-13,1.725550241e-12,9.157805003e-13,3.536421236e-13,1.080459948e-13,1.233423283e-12,1.574129927e-13,2.201028404e-12,1.282343768e-12,4.544690928e-13,1.021095985e-12,3.320069471e-13,2.869389306e-12,1.235959803e-12
0.8984375,6.705668867e-13,6.086358693e-13,2.481997522e-13,7.480689297e-13,1.763379603e-12,3.655755036e-13,3.123862055e-13,2.60714787e-13,3.421625091e-13,2.203404982e-13,1.374489882e-12,4.62679358e-13,2.014068641e-12,7.390726219e-13,1.132906337e-12,1.274046432e-12,2.444590351e-12,1.860338013e-12,5.939060932e-13,1.710448548e-12,9.218952351e-13,3.529425995e-13,1.097170235e-13,1.261441001e-12,1.505662102e-13,2.133579038e-12,1.235079454e-12,4.444672601e-13,9.936563691e-13,3.207579108e-13,2.819217533e-12,1.197909026e-12
0.90625,6.586617587e-13,5.889877141e-13,2.276744452e-13,7.187370143e-13,1.708966265e-12,3.621154064e-13,3.031555615e-13,2.584622144e-13,3.364508964e-13,2.086358701e-13,1.289243218e-12,4.484274524e-13,1.896705482e-12,6.993190229e-13,1.080901225e-12,1.246101817e-12,2.381910426e-12,1.842157103e-12,5.86695564e-13,1.694144763e-12,9.260225471e-13,3.525223831e-13,1.116396075e-13,1.286991141e-12,1.43878793e-13,2.063904951e-12,1.189846487e-12,4.353686229e-13,9.650587979e-13,3.095903443e-13,2.763625894e-12,1.159174036e-12
0.9140625,6.463528437e-13,5.685410152e-13,2.083165972e-13,6.893665505e-13,1.652666345e-12,3.589120823e-13,2.942420521e-13,2.560820708e-13,3.309401874e-13,1.978328798e-13,1.210136808e-12,4.350620634e-13,1.782975338e-12,6.615670818e-13,1.030065513e-12,1.216454305e-12,2.314314871e-12,1.819015667e-12,5.778098259e-13,1.675935246e-12,9.281225981e-13,3.52112314e-13,1.137763494e-13,1.311421114e-12,1.373921654e-13,1.992102509e-12,1.147580686e-12,4.268597481e-13,9.35749541e-13,2.980360583e-13,2.702905302e-12,1.120033978e-12
0.921875,6.332173304e-13,5.477397187e-13,1.903779244e-13,6.605683646e-13,1.595954363e-12,3.560594416e-13,2.859126112e-13,2.537046962e-13,3.255265475e-13,1.877683543e-13,1.136769134e-12,4.22917045e-13,1.676037477e-12,6.262908418e-13,9.800107833e-13,1.184900006e-12,2.242769391e-12,1.791287678e-12,5.674198257e-13,1.655082538e-12,9.279259714e-13,3.513711402e-13,1.160659876e-13,1.334270198e-12,1.311138682e-13,1.919063922e-12,1.108660285e-12,4.182937491e-13,9.059502107e-13,2.862386209e-13,2.638209707e-12,1.081145898e-12
0.9296875,6.196476002e-13,5.269951241e-13,1.740045422e-13,6.32849773e-13,1.539403924e-12,3.537845936e-13,2.784640009e-13,2.510828318e-13,3.199829789e-13,1.781690361e-13,1.067276547e-12,4.114300976e-13,1.579620641e-12,5.9351064e-13,9.308914359e-13,1.152665286e-12,2.17150387e-12,1.761717659e-12,5.566173728e-13,1.633574314e-12,9.262056644e-13,3.502220078e-13,1.183723792e-13,1.353852048e-12,1.251489055e-13,1.845665376e-12,1.072451866e-12,4.088974318e-13,8.756604215e-13,2.751972485e-13,2.570542319e-12,1.042680921e-12
0.9375,6.060847039e-13,5.063669834e-13,1.589677494e-13,6.05990977e-13,1.483362993e-12,3.519657315e-13,2.712535292e-13,2.480564591e-13,3.144455083e-13,1.693234827e-13,1.002585173e-12,4.002451727e-13,1.491928939e-12,5.631779992e-13,8.838287569e-13,1.120406327e-12,2.100766877e-12,1.73117282e-12,5.455839454e-13,1.611763927e-12,9.231443252e-13,3.488718171e-13,1.207709348e-13,1.370299145e-12,1.198181114e-13,1.773022286e-12,1.03933845e-12,3.994690519e-13,8.452192826e-13,2.651578963e-13,2.500748421e-12,1.005132394e-12
0.9453125,5.919311408e-13,4.858778918e-13,1.450126818e-13,5.797506511e-13,1.428023871e-12,3.501573132e-13,2.639686773e-13,2.447106811e-13,3.089603168e-13,1.61610732e-13,9.444220402e-13,3.899825102e-13,1.410224932e-12,5.356782695e-13,8.392039961e-13,1.087610864e-12,2.029070993e-12,1.697587461e-12,5.33225026e-13,1.587317122e-12,9.174635577e-13,3.473002983e-13,1.234857429e-13,1.383259198e-12,1.152339595e-13,1.701771095e-12,1.010176834e-12,3.90845115e-13,8.148370977e-13,2.554576131e-13,2.42911495e-12,9.688307285e-13
0.953125,5.76996779e-13,4.65421201e-13,1.322402655e-13,5.540828356e-13,1.372548741e-12,3.48295986e-13,2.571828023e-13,2.410469927e-13,3.03234006e-13,1.549038155e-13,8.925582686e-13,3.809320452e-13,1.335162517e-12,5.11346539e-13,7.973500849e-13,1.053912223e-12,1.954700176e-12,1.659919422e-12,5.192292272e-13,1.560206049e-12,9.08993845e-13,3.455457103e-13,1.266094127e-13,1.393840989e-12,1.110782236e-13,1.631126302e-12,9.850467525e-13,3.822173035e-13,7.841911173e-13,2.459685042e-13,2.354876378e-12,9.33247172e-13
0.9609375,5.617712814e-13,4.449357475e-13,1.204806223e-13,5.289571022e-13,1.316870756e-12,3.466003921e-13,2.509959312e-13,2.371259004e-13,2.972275766e-13,1.490724585e-13,8.466300648e-13,3.726616707e-13,1.267498425e-12,4.897169558e-13,7.586999596e-13,1.019572205e-12,1.877576482e-12,1.618783617e-12,5.041430137e-13,1.532835663e-12,8.987637655e-13,3.43571226e-13,1.300032526e-13,1.403742972e-12,1.070746339e-13,1.561057314e-12,9.634255652e-13,3.729949122e-13,7.532505809e-13,2.371817454e-13,2.278387665e-12,8.980913745e-13
0.96875,5.467615577e-13,4.248074826e-13,1.094753855e-13,5.046269447e-13,1.261998271e-12,3.451631771e-13,2.450865012e-13,2.330471325e-13,2.909118903e-13,1.440349777e-13,8.064316905e-13,3.648773311e-13,1.207561249e-12,4.701640084e-13,7.230242746e-13,9.855036923e-13,1.802307199e-12,1.575941339e-12,4.885826684e-13,1.505444007e-12,8.867775934e-13,3.408763762e-13,1.334030447e-13,1.409566615e-12,1.033168907e-13,1.492377877e-12,9.448141367e-13,3.636310734e-13,7.227140265e-13,2.294562382e-13,2.20125547e-12,8.634891771e-13
0.9765625,5.317895557e-13,4.053270017e-13,9.945193165e-14,4.811346877e-13,1.207813329e-12,3.4414044e-13,2.394488167e-13,2.287314267e-13,2.841259343e-13,1.395695446e-13,7.710562111e-13,3.575589796e-13,1.155898747e-12,4.526273033e-13,6.895409488e-13,9.51105041e-13,1.728514325e-12,1.532775607e-12,4.728817239e-13,1.476094002e-12,8.724675137e-13,3.374521141e-13,1.368273834e-13,1.409189511e-12,1.000672751e-13,1.424828711e-12,9.295783575e-13,3.545554771e-13,6.929172102e-13,2.221330553e-13,2.123502936e-12,8.294750824e-13
0.984375,5.160891113e-13,3.864703283e-13,9.046963622e-14,4.583038998e-13,1.153873231e-12,3.435550196e-13,2.341338309e-13,2.241804489e-13,2.771418711e-13,1.358117914e-13,7.401757809e-13,3.507943507e-13,1.110484522e-12,4.370667274e-13,6.573284707e-13,9.146359355e-13,1.651437298e-12,1.488678285e-12,4.570628345e-13,1.445192639e-12,8.562446928e-13,3.337805023e-13,1.404972741e-13,1.404809438e-12,9.720054924e-14,1.357922909e-12,9.17688831e-13,3.453326783e-13,6.635718971e-13,2.141794684e-13,2.044199444e-12,7.961882405e-13
0.9921875,5.000621404e-13,3.682523643e-13,8.239999619e-14,4.36277591e-13,1.100768882e-12,3.43036014e-13,2.291428385e-13,2.196618504e-13,2.703137904e-13,1.32881557e-13,7.137056009e-13,3.445464816e-13,1.06938616e-12,4.231354728e-13,6.262527692e-13,8.770316106e-13,1.573796926e-12,1.443956187e-12,4.414032274e-13,1.414553274e-12,8.388546383e-13,3.29869822e-13,1.443406971e-13,1.396163382e-12,9.43168001e-14,1.292114426e-12,9.079717467e-13,3.350165297e-13,6.34596689e-13,2.063991218e-13,1.96379099e-12,7.639455201e-13
1,4.845479961e-13,3.504511471e-13,7.500872217e-14,4.148520563e-13,1.048931008e-12,3.4233549e-13,2.243806439e-13,2.154112979e-13,2.636002816e-13,1.30413476e-13,6.908176547e-13,3.385911918e-13,1.031964792e-12,4.107218316e-13,5.971536587e-13,8.401299679e-13,1.498300809e-12,1.399539147e-12,4.257737381e-13,1.383083184e-12,8.20095874e-13,3.256734751e-13,1.482122135e-13,1.3839255e-12,9.157577742e-14,1.228504181e-12,9.005135629e-13,3.242350858e-13,6.060927681e-13,2.001404985e-13,1.883373361e-12,7.331032575e-13
1.0078125,4.689728818e-13,3.329111745e-13,6.790615273e-14,3.937845331e-13,9.984920658e-13,3.416388431e-13,2.197392493e-13,2.114013244e-13,2.569287972e-13,1.283708135e-13,6.715182834e-13,3.329953406e-13,9.960990169e-13,4.001069034e-13,5.707247681e-13,8.037743936e-13,1.423167382e-12,1.354254351e-12,4.095330276e-13,1.349664059e-12,7.995640542e-13,3.212172074e-13,1.520723857e-13,1.370059073e-12,8.92552496e-14,1.167511325e-12,8.96165252e-13,3.146355017e-13,5.783226014e-13,1.947453427e-13,1.803283112e-12,7.037088288e-13
1.015625,4.528022977e-13,3.159443749e-13,6.146944562e-14,3.736196128e-13,9.498448879e-13,3.411709065e-13,2.154929806e-13,2.074713643e-13,2.502424956e-13,1.270375192e-13,6.561662378e-13,3.279377186e-13,9.63023717e-13,3.912633049e-13,5.465849799e-13,7.675748029e-13,1.349662246e-12,1.307888895e-12,3.92975569e-13,1.315293136e-12,7.776517504e-13,3.161908814e-13,1.557976329e-13,1.352243471e-12,8.708236296e-14,1.108296785e-12,8.945856621e-13,3.059097831e-13,5.515853069e-13,1.892794167e-13,1.723391412e-12,6.75468554e-13
1.0234375,4.362571761e-13,2.996484863e-13,5.605054264e-14,3.544580956e-13,9.02822443e-13,3.408917071e-13,2.118358704e-13,2.035473865e-13,2.432859872e-13,1.262837662e-13,6.435876462e-13,3.233105058e-13,9.357849497e-13,3.838076032e-13,5.237034711e-13,7.311514612e-13,1.277349746e-12,1.261587811e-12,3.766741732e-13,1.279507181e-12,7.547944687e-13,3.104384301e-13,1.594653159e-13,1.330093902e-12,8.497205816e-14,1.050580588e-12,8.958706192e-13,2.971057654e-13,5.256318649e-13,1.840531102e-13,1.643878478e-12,6.481370271e-13
1.03125,4.194225544e-13,2.839762119e-13,5.107579688e-14,3.358396672e-13,8.569422885e-13,3.406791051e-13,2.085163054e-13,1.997827058e-13,2.359017847e-13,1.258676022e-13,6.330671694e-13,3.190435458e-13,9.112431627e-13,3.776673799e-13,5.019394861e-13,6.941741841e-13,1.203854532e-12,1.215182497e-12,3.606242624e-13,1.241876592e-12,7.311450997e-13,3.040346343e-13,1.632154105e-13,1.305909413e-12,8.311582099e-14,9.946988524e-13,9.002636471e-13,2.885742929e-13,5.003342251e-13,1.791854684e-13,1.565253231e-12,6.214994657e-13
1.0390625,4.028234991e-13,2.690272314e-13,4.652411184e-14,3.181072158e-13,8.125311443e-13,3.405960907e-13,2.053403189e-13,1.964171389e-13,2.283188709e-13,1.256765096e-13,6.251848748e-13,3.150965346e-13,8.869392677e-13,3.727634934e-13,4.817591311e-13,6.575399072e-13,1.131140331e-12,1.169087557e-12,3.451792402e-13,1.203584575e-12,7.069249345e-13,2.97119139e-13,1.668587245e-13,1.278438555e-12,8.13895451e-14,9.40472537e-13,9.066880506e-13,2.801203959e-13,4.759762234e-13,1.74496312e-13,1.487932632e-12,5.957048638e-13
1.046875,3.869689298e-13,2.546371476e-13,4.273916844e-14,3.016020983e-13,7.701892508e-13,3.405814962e-13,2.021673985e-13,1.933663655e-13,2.208894371e-13,1.256527193e-13,6.195602502e-13,3.114273546e-13,8.661112529e-13,3.689422944e-13,4.630476566e-13,6.219367974e-13,1.060618954e-12,1.124045315e-12,3.305609014e-13,1.16448344e-12,6.821316355e-13,2.899549966e-13,1.70317121e-13,1.24782774e-12,7.972174415e-14,8.884928186e-13,9.148823941e-13,2.712029117e-13,4.523374448e-13,1.702883545e-13,1.412358428e-12,5.713375891e-13
1.0546875,3.712524642e-13,2.408083675e-13,3.936903103e-14,2.858903056e-13,7.300164828e-13,3.401560775e-13,1.99038835e-13,1.903223986e-13,2.137424536e-13,1.259644909e-13,6.157820399e-13,3.083241186e-13,8.49304082e-13,3.66573263e-13,4.460568281e-13,5.873610396e-13,9.922962057e-13,1.079279798e-12,3.162174482e-13,1.124552444e-12,6.567323105e-13,2.823307275e-13,1.735534689e-13,1.216401143e-12,7.822877396e-14,8.395986518e-13,9.254190856e-13,2.625535928e-13,4.292101543e-13,1.665867597e-13,1.339157042e-12,5.484765601e-13
1.0625,3.551231792e-13,2.277451268e-13,3.627052179e-14,2.707716791e-13,6.91939646e-13,3.39130061e-13,1.963318171e-13,1.872755388e-13,2.068600737e-13,1.266516675e-13,6.143652875e-13,3.059314917e-13,8.337274043e-13,3.657305157e-13,4.312424726e-13,5.540497996e-13,9.273785346e-13,1.034522283e-12,3.018008831e-13,1.0846723e-12,6.308505159e-13,2.738139724e-13,1.761964282e-13,1.183311131e-12,7.682410294e-14,7.93347417e-13,9.37808636e-13,2.547128863e-13,4.069314474e-13,1.629032488e-13,1.26853509e-12,5.269214059e-13
1.0703125,3.389896175e-13,2.152354082e-13,3.358847498e-14,2.563847328e-13,6.558846986e-13,3.37867976e-13,1.939623171e-13,1.844667722e-13,2.001948184e-13,1.274160511e-13,6.146106571e-13,3.038755302e-13,8.185901533e-13,3.657639894e-13,4.180894318e-13,5.218946117e-13,8.648154617e-13,9.899128202e-13,2.874041356e-13,1.044410831e-12,6.045778879e-13,2.646808806e-13,1.782565397e-13,1.148198813e-12,7.535690144e-14,7.494702643e-13,9.516124093e-13,2.471866287e-13,3.855667946e-13,1.591698731e-13,1.200230269e-12,5.06856213e-13
1.078125,3.232993038e-13,2.032416454e-13,3.124332967e-14,2.42762554e-13,6.217858646e-13,3.364614579e-13,1.916805734e-13,1.820202748e-13,1.936749738e-13,1.281622336e-13,6.155849932e-13,3.01957544e-13,8.048640926e-13,3.664646159e-13,4.062893666e-13,4.906853317e-13,8.034233607e-13,9.451332388e-13,2.732317853e-13,1.004074339e-12,5.783560506e-13,2.553567411e-13,1.802122228e-13,1.112590746e-12,7.388493791e-14,7.083249894e-13,9.663864302e-13,2.397346823e-13,3.649847365e-13,1.555759558e-13,1.134424751e-12,4.88334792e-13
1.0859375,3.07981902e-13,1.920083695e-13,2.927561862e-14,2.299833102e-13,5.897664826e-13,3.348706862e-13,1.897883723e-13,1.79846401e-13,1.873259992e-13,1.291050112e-13,6.182224906e-13,3.003213744e-13,7.934762269e-13,3.680211828e-13,3.961241744e-13,4.605689062e-13,7.444174795e-13,9.011138688e-13,2.596091081e-13,9.649499683e-13,5.52598735e-13,2.458828417e-13,1.821226398e-13,1.075850934e-12,7.259596239e-14,6.699951859e-13,9.810532176e-13,2.322979053e-13,3.453016993e-13,1.519748693e-13,1.071541299e-12,4.713771254e-13
1.09375,2.928603394e-13,1.814223705e-13,2.759248079e-14,2.179926545e-13,5.599052459e-13,3.33311015e-13,1.881708923e-13,1.777597947e-13,1.812309963e-13,1.303749843e-13,6.231412816e-13,2.989376889e-13,7.836459486e-13,3.701722094e-13,3.874412797e-13,4.315215815e-13,6.882643997e-13,8.588627434e-13,2.466609899e-13,9.268751564e-13,5.271656465e-13,2.363324269e-13,1.837091123e-13,1.036807479e-12,7.152219099e-14,6.345519267e-13,9.958487164e-13,2.247127122e-13,3.266642697e-13,1.485543033e-13,1.011426893e-12,4.561541695e-13
1.1015625,2.780115627e-13,1.71385452e-13,2.599513933e-14,2.065719274e-13,5.319151719e-13,3.315698445e-13,1.863310022e-13,1.757153453e-13,1.754460148e-13,1.318474118e-13,6.29375162e-13,2.976948128e-13,7.737199613e-13,3.724361681e-13,3.799081991e-13,4.035128013e-13,6.347203563e-13,8.178827746e-13,2.342611479e-13,8.895411643e-13,5.020923877e-13,2.266975136e-13,1.848854122e-13,9.96212117e-13,7.050409388e-14,6.017525691e-13,1.011663242e-12,2.173393854e-13,3.091698915e-13,1.457502251e-13,9.538700652e-13,4.423360547e-13
1.109375,2.636538565e-13,1.619588181e-13,2.462234911e-14,1.956561255e-13,5.054239025e-13,3.293260515e-13,1.845175388e-13,1.738507867e-13,1.700483397e-13,1.333198951e-13,6.362146791e-13,2.965979453e-13,7.636114636e-13,3.7462665e-13,3.732547848e-13,3.767013871e-13,5.841782269e-13,7.780617798e-13,2.224196577e-13,8.533494958e-13,4.77680795e-13,2.168757407e-13,1.856632395e-13,9.552241207e-13,6.947854937e-14,5.710587274e-13,1.028048326e-12,2.100878261e-13,2.927661171e-13,1.432092114e-13,8.989067356e-13,4.294979108e-13
1.1171875,2.498945561e-13,1.530996349e-13,2.361896762e-14,1.853206499e-13,4.805858737e-13,3.268513974e-13,1.82937197e-13,1.722820734e-13,1.650301155e-13,1.347970663e-13,6.435458988e-13,2.956066314e-13,7.542668096e-13,3.768849536e-13,3.672915796e-13,3.513499668e-13,5.368962617e-13,7.400996572e-13,2.112947335e-13,8.1855237e-13,4.541179757e-13,2.07050127e-13,1.859304549e-13,9.142274397e-13,6.848922387e-14,5.424351826e-13,1.044229413e-12,2.021767881e-13,2.773526291e-13,1.405036839e-13,8.464713728e-13,4.178572249e-13
1.125,2.366932819e-13,1.447889944e-13,2.295083056e-14,1.757130457e-13,4.57830383e-13,3.243195968e-13,1.813064515e-13,1.709200477e-13,1.602969799e-13,1.363547625e-13,6.512315605e-13,2.946103434e-13,7.468155936e-13,3.791598747e-13,3.620425711e-13,3.275720507e-13,4.921724352e-13,7.039213953e-13,2.008741766e-13,7.848721304e-13,4.315558498e-13,1.973811e-13,1.855694724e-13,8.730219094e-13,6.756355891e-14,5.159880748e-13,1.059266954e-12,1.939999756e-13,2.629582266e-13,1.379942419e-13,7.967211474e-13,4.077436961e-13
1.1328125,2.240433229e-13,1.369520167e-13,2.251033793e-14,1.668906284e-13,4.370369159e-13,3.217615474e-13,1.79863595e-13,1.695688253e-13,1.557936903e-13,1.379364223e-13,6.592724712e-13,2.934508965e-13,7.416463322e-13,3.810098278e-13,3.574787377e-13,3.050505902e-13,4.490709816e-13,6.688520098e-13,1.909736019e-13,7.517534693e-13,4.098551769e-13,1.876977223e-13,1.846899913e-13,8.31440028e-13,6.677413895e-14,4.9165085e-13,1.072217735e-12,1.865720799e-13,2.49454023e-13,1.357974466e-13,7.498150382e-13,3.991573291e-13
1.140625,2.11972752e-13,1.295888639e-13,2.222719071e-14,1.587839286e-13,4.180950779e-13,3.195196113e-13,1.788877832e-13,1.683095439e-13,1.515058253e-13,1.395335225e-13,6.676384989e-13,2.920912155e-13,7.382391813e-13,3.823231321e-13,3.537077723e-13,2.837720069e-13,4.083717648e-13,6.349604374e-13,1.817091895e-13,7.201749401e-13,3.891029022e-13,1.778582608e-13,1.834214647e-13,7.902487736e-13,6.605706778e-14,4.69467485e-13,1.083942763e-12,1.799985269e-13,2.367300577e-13,1.335111514e-13,7.056932113e-13,3.921094253e-13
1.1484375,2.003572246e-13,1.228097147e-13,2.222980998e-14,1.515059995e-13,4.013928786e-13,3.1763588e-13,1.779773367e-13,1.673426936e-13,1.475467233e-13,1.411352144e-13,6.763776787e-13,2.908491059e-13,7.365129266e-13,3.83548811e-13,3.508968743e-13,2.641256421e-13,3.712218673e-13,6.030915333e-13,1.734818035e-13,6.913966991e-13,3.700098838e-13,1.680181403e-13,1.817388012e-13,7.505696461e-13,6.529758515e-14,4.493243736e-13,1.095434923e-12,1.741575799e-13,2.249149676e-13,1.313767512e-13,6.645800011e-13,3.866738805e-13
1.15625,1.892064648e-13,1.164204774e-13,2.250091948e-14,1.450470723e-13,3.867038565e-13,3.157415784e-13,1.768495587e-13,1.665241003e-13,1.44039291e-13,1.425936636e-13,6.857308629e-13,2.899926876e-13,7.349536312e-13,3.850703134e-13,3.488748253e-13,2.46035539e-13,3.372312983e-13,5.733775649e-13,1.662502804e-13,6.643528256e-13,3.525607839e-13,1.584291141e-13,1.797561727e-13,7.119558665e-13,6.476236078e-14,4.308614931e-13,1.10596096e-12,1.684559145e-13,2.138755995e-13,1.299579679e-13,6.262380826e-13,3.826519567e-13
1.1640625,1.787747612e-13,1.103053111e-13,2.28492568e-14,1.390635259e-13,3.734831793e-13,3.13573995e-13,1.756567828e-13,1.656632553e-13,1.408378782e-13,1.438207699e-13,6.95192521e-13,2.893111151e-13,7.309188822e-13,3.867713808e-13,3.474758451e-13,2.292844062e-13,3.061195755e-13,5.449095592e-13,1.595267828e-13,6.385190735e-13,3.360163796e-13,1.49124893e-13,1.775340308e-13,6.736212999e-13,6.459440363e-14,4.140383621e-13,1.115480986e-12,1.621151193e-13,2.033444644e-13,1.287867407e-13,5.900733691e-13,3.798477754e-13
1.171875,1.689865282e-13,1.04735325e-13,2.336540323e-14,1.33587711e-13,3.619914145e-13,3.111468098e-13,1.745944951e-13,1.647694601e-13,1.377456942e-13,1.4479023e-13,7.037366251e-13,2.885093278e-13,7.259339066e-13,3.882822238e-13,3.466253675e-13,2.139529663e-13,2.777142504e-13,5.173184856e-13,1.531149466e-13,6.149964191e-13,3.203471582e-13,1.39976165e-13,1.748317365e-13,6.367080915e-13,6.439901472e-14,3.992032708e-13,1.124821752e-12,1.558552496e-13,1.934818276e-13,1.27317339e-13,5.566524083e-13,3.784586355e-13
1.1796875,1.596484475e-13,9.97475786e-14,2.407660002e-14,1.28884376e-13,3.524383178e-13,3.087591964e-13,1.736308062e-13,1.638608723e-13,1.348349031e-13,1.454694999e-13,7.113243657e-13,2.876333296e-13,7.236232692e-13,3.896789569e-13,3.463891341e-13,2.001508913e-13,2.514134595e-13,4.909938466e-13,1.471351761e-13,5.935384622e-13,3.058017898e-13,1.309827117e-13,1.716611678e-13,6.020975939e-13,6.409002295e-14,3.863890418e-13,1.133493907e-12,1.505610623e-13,1.845139958e-13,1.264689597e-13,5.265242468e-13,3.785867034e-13
1.1875,1.509866324e-13,9.512275609e-14,2.477191263e-14,1.247802881e-13,3.446309982e-13,3.064932088e-13,1.7242795e-13,1.630098719e-13,1.323119807e-13,1.459166625e-13,7.185661957e-13,2.868228433e-13,7.235613701e-13,3.912783356e-13,3.470138326e-13,1.879217514e-13,2.274622515e-13,4.658609005e-13,1.4157413e-13,5.736909755e-13,2.922970618e-13,1.222034242e-13,1.683750981e-13,5.691535982e-13,6.400360543e-14,3.753728421e-13,1.140771764e-12,1.461849953e-13,1.76315763e-13,1.268518227e-13,4.991222573e-13,3.801072133e-13
1.1953125,1.431031786e-13,9.081539938e-14,2.555520594e-14,1.211309193e-13,3.385664441e-13,3.041783042e-13,1.71160995e-13,1.621794809e-13,1.3022342e-13,1.461767959e-13,7.255806457e-13,2.859872537e-13,7.236756611e-13,3.928205078e-13,3.48255139e-13,1.771223288e-13,2.062479256e-13,4.417302045e-13,1.363558558e-13,5.560140198e-13,2.799089508e-13,1.13603133e-13,1.651027022e-13,5.377419425e-13,6.419338483e-14,3.66236836e-13,1.146784607e-12,1.426916551e-13,1.687661959e-13,1.273310942e-13,4.742795451e-13,3.831071879e-13
1.203125,1.357349435e-13,8.685109854e-14,2.658417506e-14,1.180145701e-13,3.339895505e-13,3.019072195e-13,1.705517424e-13,1.611965278e-13,1.284137735e-13,1.462689059e-13,7.323323383e-13,2.849736293e-13,7.238353424e-13,3.938447628e-13,3.497238973e-13,1.675160321e-13,1.874719185e-13,4.18811779e-13,1.314578822e-13,5.401144431e-13,2.685871502e-13,1.052215971e-13,1.61733779e-13,5.079609527e-13,6.461280631e-14,3.588397608e-13,1.151615508e-12,1.39498235e-13,1.619343729e-13,1.273729194e-13,4.520183763e-13,3.875391103e-13
1.2109375,1.288546166e-13,8.318085914e-14,2.765665712e-14,1.153240384e-13,3.306333849e-13,2.994745081e-13,1.704818911e-13,1.601207034e-13,1.268000728e-13,1.462690755e-13,7.388773522e-13,2.838241821e-13,7.236090155e-13,3.943189026e-13,3.515489164e-13,1.589751083e-13,1.709178148e-13,3.970105403e-13,1.268095463e-13,5.253324753e-13,2.580841753e-13,9.714257775e-14,1.581689838e-13,4.796090631e-13,6.51875986e-14,3.526503953e-13,1.155248445e-12,1.362024656e-13,1.557427022e-13,1.278567051e-13,4.317980648e-13,3.930532354e-13
1.21875,1.226959718e-13,7.97616505e-14,2.873617429e-14,1.130133034e-13,3.286651278e-13,2.964672162e-13,1.703130645e-13,1.590080774e-13,1.25487491e-13,1.460904151e-13,7.44994724e-13,2.826853099e-13,7.226784455e-13,3.944694964e-13,3.537021461e-13,1.513784416e-13,1.564293564e-13,3.764032778e-13,1.224609692e-13,5.120255094e-13,2.485305678e-13,8.929765944e-14,1.543314064e-13,4.525987657e-13,6.563400613e-14,3.473866211e-13,1.157781293e-12,1.334389677e-13,1.500287799e-13,1.290691854e-13,4.134907686e-13,3.995155068e-13
1.2265625,1.173271028e-13,7.662567206e-14,3.004375073e-14,1.111752378e-13,3.279755118e-13,2.933187055e-13,1.700931178e-13,1.577570087e-13,1.245545542e-13,1.455278291e-13,7.503194871e-13,2.815301177e-13,7.233320204e-13,3.944435576e-13,3.559753343e-13,1.447353778e-13,1.438369943e-13,3.576153388e-13,1.186118769e-13,5.003519467e-13,2.400537066e-13,8.16861419e-14,1.5020272e-13,4.26538875e-13,6.594009682e-14,3.429317815e-13,1.159511689e-12,1.310501837e-13,1.449292431e-13,1.308840691e-13,3.971908212e-13,4.071033899e-13
1.234375,1.126853269e-13,7.378260089e-14,3.155865441e-14,1.098051992e-13,3.284065099e-13,2.904395013e-13,1.6994929e-13,1.564180893e-13,1.239185124e-13,1.445683916e-13,7.544085257e-13,2.79980577e-13,7.264179547e-13,3.938753539e-13,3.584180377e-13,1.391450824e-13,1.330969454e-13,3.405229899e-13,1.153270665e-13,4.901102677e-13,2.325966031e-13,7.451318637e-14,1.458742475e-13,4.018599585e-13,6.637552056e-14,3.393942273e-13,1.160754125e-12,1.285578444e-13,1.406335742e-13,1.333644233e-13,3.827555738e-13,4.161135401e-13
1.2421875,1.08767224e-13,7.114856608e-14,3.316244839e-14,1.089110796e-13,3.301210502e-13,2.873710058e-13,1.6970367e-13,1.549478899e-13,1.233716856e-13,1.432666779e-13,7.569874558e-13,2.776805822e-13,7.295014124e-13,3.921622963e-13,3.60921163e-13,1.346048687e-13,1.242293009e-13,3.246701866e-13,1.12578618e-13,4.814517515e-13,2.262678133e-13,6.788837146e-14,1.414288655e-13,3.794188967e-13,6.699161388e-14,3.369565885e-13,1.160758745e-12,1.263631613e-13,1.370559784e-13,1.360471429e-13,3.701684548e-13,4.265213073e-13
1.25,1.055509517e-13,6.870100501e-14,3.485464568e-14,1.084700728e-13,3.328871626e-13,2.839744693e-13,1.696294765e-13,1.531733007e-13,1.227856077e-13,1.416284858e-13,7.585401925e-13,2.747505582e-13,7.324499783e-13,3.892606775e-13,3.632493216e-13,1.311172359e-13,1.173528203e-13,3.104551675e-13,1.10417642e-13,4.743218827e-13,2.209326962e-13,6.177110649e-14,1.368090115e-13,3.582683431e-13,6.765431285e-14,3.352223252e-13,1.158644795e-12,1.246771698e-13,1.340403962e-13,1.388678488e-13,3.591549999e-13,4.378464918e-13
1.2578125,1.030682006e-13,6.643972247e-14,3.665138425e-14,1.084828241e-13,3.363844868e-13,2.806622524e-13,1.701710314e-13,1.511958755e-13,1.222994123e-13,1.397284014e-13,7.595537964e-13,2.714303546e-13,7.365904978e-13,3.853684662e-13,3.652592289e-13,1.284977576e-13,1.121259496e-13,2.980746902e-13,1.088826923e-13,4.683581304e-13,2.163567478e-13,5.615052762e-14,1.319611935e-13,3.377023015e-13,6.82937682e-14,3.339472714e-13,1.155228739e-12,1.234931416e-13,1.314760684e-13,1.425914351e-13,3.493931419e-13,4.499827052e-13
1.265625,1.014132358e-13,6.427498195e-14,3.869254439e-14,1.090485025e-13,3.407331428e-13,2.774903659e-13,1.710647905e-13,1.491754277e-13,1.22147513e-13,1.376139421e-13,7.596186235e-13,2.678209117e-13,7.410508098e-13,3.805177813e-13,3.66822696e-13,1.264746367e-13,1.079464622e-13,2.871522959e-13,1.079194852e-13,4.635262382e-13,2.127842679e-13,5.102520788e-14,1.270169412e-13,3.189014425e-13,6.900466154e-14,3.333837614e-13,1.151414505e-12,1.226556187e-13,1.293515216e-13,1.475193364e-13,3.409648151e-13,4.632444483e-13
1.2734375,1.004427385e-13,6.217461113e-14,4.103306573e-14,1.100783616e-13,3.458907642e-13,2.743167279e-13,1.718911371e-13,1.471132853e-13,1.224171115e-13,1.353269633e-13,7.583345441e-13,2.640421489e-13,7.456912748e-13,3.748391941e-13,3.6807645e-13,1.251917587e-13,1.049325831e-13,2.774906455e-13,1.074175481e-13,4.598464782e-13,2.103255776e-13,4.640114674e-14,1.221547203e-13,3.023764576e-13,6.987740215e-14,3.334044631e-13,1.146806486e-12,1.221881333e-13,1.278342243e-13,1.535058669e-13,3.337296971e-13,4.775992348e-13
1.28125,1.000045571e-13,6.01126355e-14,4.338739492e-14,1.114306913e-13,3.515694001e-13,2.712163076e-13,1.728993817e-13,1.449746757e-13,1.230228186e-13,1.329847661e-13,7.557488222e-13,2.600212455e-13,7.504525464e-13,3.683492899e-13,3.691223273e-13,1.247560112e-13,1.032939862e-13,2.68849908e-13,1.073056322e-13,4.571128593e-13,2.086581643e-13,4.232524297e-14,1.174653686e-13,2.876146548e-13,7.086366139e-14,3.338192874e-13,1.141139618e-12,1.226332211e-13,1.270018156e-13,1.602792741e-13,3.273336358e-13,4.928277208e-13
1.2890625,1.001686975e-13,5.798682259e-14,4.566785275e-14,1.130503997e-13,3.576141148e-13,2.684123002e-13,1.741442697e-13,1.426700683e-13,1.238068412e-13,1.305368908e-13,7.517095543e-13,2.55626034e-13,7.539880574e-13,3.609160708e-13,3.69669648e-13,1.248228444e-13,1.026465011e-13,2.610936043e-13,1.075914388e-13,4.551703079e-13,2.075675561e-13,3.881176822e-14,1.130360839e-13,2.743246726e-13,7.204592088e-14,3.345574312e-13,1.134513438e-12,1.23393436e-13,1.26682646e-13,1.676094006e-13,3.214676439e-13,5.088169623e-13
1.296875,1.009429437e-13,5.580729245e-14,4.810038372e-14,1.14842913e-13,3.640848866e-13,2.659522871e-13,1.751272053e-13,1.402223207e-13,1.246760182e-13,1.278102507e-13,7.462533514e-13,2.509523386e-13,7.569814122e-13,3.526955405e-13,3.696922776e-13,1.252408033e-13,1.027126484e-13,2.542054378e-13,1.082144753e-13,4.536580141e-13,2.069415564e-13,3.579771528e-14,1.08937567e-13,2.621301688e-13,7.355328333e-14,3.353335299e-13,1.126960277e-12,1.239918316e-13,1.266183367e-13,1.758806236e-13,3.158620078e-13,5.25443623e-13
1.3046875,1.024409172e-13,5.366764439e-14,5.065353859e-14,1.168712452e-13,3.711763854e-13,2.633669959e-13,1.759426352e-13,1.377505634e-13,1.25611701e-13,1.247869667e-13,7.398035602e-13,2.460594582e-13,7.601005364e-13,3.440339365e-13,3.695114571e-13,1.261974884e-13,1.034532975e-13,2.478551409e-13,1.089912155e-13,4.521091165e-13,2.066872225e-13,3.318868667e-14,1.05069867e-13,2.50899695e-13,7.523680789e-14,3.361520467e-13,1.118857869e-12,1.25372614e-13,1.26709768e-13,1.85419985e-13,3.107277866e-13,5.424665541e-13
1.3125,1.047725612e-13,5.155738688e-14,5.319627304e-14,1.19057228e-13,3.786739976e-13,2.604156354e-13,1.767560871e-13,1.351704221e-13,1.266731778e-13,1.214780939e-13,7.323035662e-13,2.410856763e-13,7.627056641e-13,3.351858078e-13,3.690782624e-13,1.276318819e-13,1.048243994e-13,2.420556735e-13,1.098276035e-13,4.507408022e-13,2.06794177e-13,3.099072176e-14,1.012801151e-13,2.409367916e-13,7.700239851e-14,3.369614093e-13,1.110310103e-12,1.270715312e-13,1.271587023e-13,1.962124407e-13,3.061493711e-13,5.594868672e-13
1.3203125,1.077273219e-13,4.940786458e-14,5.58044611e-14,1.211366809e-13,3.86162745e-13,2.576693779e-13,1.7704944e-13,1.324227068e-13,1.279568639e-13,1.178817834e-13,7.234336677e-13,2.362696984e-13,7.657797042e-13,3.262560532e-13,3.682162557e-13,1.29247825e-13,1.068102517e-13,2.372467442e-13,1.108459465e-13,4.500112675e-13,2.072542125e-13,2.927675001e-14,9.769439748e-14,2.322783727e-13,7.899645508e-14,3.375054592e-13,1.101158003e-12,1.284248776e-13,1.28083293e-13,2.082128533e-13,3.016903716e-13,5.765177413e-13
1.328125,1.112950943e-13,4.729882135e-14,5.853529412e-14,1.234049867e-13,3.938797678e-13,2.553209899e-13,1.769724431e-13,1.295835203e-13,1.293786801e-13,1.141664787e-13,7.134735881e-13,2.315819221e-13,7.701627962e-13,3.172604038e-13,3.671608809e-13,1.310512371e-13,1.093687803e-13,2.335844826e-13,1.12171993e-13,4.496140669e-13,2.080896152e-13,2.796683893e-14,9.455094745e-14,2.246804085e-13,8.123207788e-14,3.381828695e-13,1.091887685e-12,1.305034566e-13,1.293585511e-13,2.209662584e-13,2.976195509e-13,5.939571657e-13
1.3359375,1.155119608e-13,4.544897384e-14,6.137170647e-14,1.261748455e-13,4.020230198e-13,2.530310768e-13,1.772184616e-13,1.266264003e-13,1.308717647e-13,1.105500756e-13,7.028503258e-13,2.270663578e-13,7.764008031e-13,3.082612376e-13,3.660121603e-13,1.33281192e-13,1.126876364e-13,2.309676853e-13,1.137506414e-13,4.491028433e-13,2.09207091e-13,2.693878787e-14,9.182614104e-14,2.177591691e-13,8.366380801e-14,3.392260726e-13,1.082756988e-12,1.333592156e-13,1.310749443e-13,2.343875111e-13,2.944702395e-13,6.116566344e-13
1.34375,1.201542002e-13,4.38508588e-14,6.428930175e-14,1.291331726e-13,4.102224383e-13,2.511094414e-13,1.775382284e-13,1.237162419e-13,1.326779981e-13,1.070857474e-13,6.914641865e-13,2.22874481e-13,7.852624655e-13,2.993300034e-13,3.644059511e-13,1.358239257e-13,1.16764798e-13,2.290128067e-13,1.155293117e-13,4.488533034e-13,2.104618579e-13,2.626420121e-14,8.945812128e-14,2.113999609e-13,8.632417808e-14,3.402743673e-13,1.073441027e-12,1.364032833e-13,1.332769197e-13,2.488906216e-13,2.918545513e-13,6.29395028e-13
1.3515625,1.252871171e-13,4.231763309e-14,6.725109334e-14,1.32063943e-13,4.184180549e-13,2.498166018e-13,1.773420265e-13,1.211665759e-13,1.348952568e-13,1.036891821e-13,6.792595755e-13,2.188260586e-13,7.946861011e-13,2.905011111e-13,3.623321951e-13,1.384052831e-13,1.208647755e-13,2.273978938e-13,1.175383779e-13,4.490751179e-13,2.118803913e-13,2.605278707e-14,8.75108129e-14,2.061341968e-13,8.906496456e-14,3.41525413e-13,1.064376021e-12,1.395301617e-13,1.356681569e-13,2.643253255e-13,2.894779248e-13,6.473153691e-13
1.359375,1.309040001e-13,4.091494254e-14,7.027414584e-14,1.349827913e-13,4.266513474e-13,2.487205201e-13,1.767108871e-13,1.188540227e-13,1.372863785e-13,1.003155305e-13,6.665895304e-13,2.148752835e-13,8.030115791e-13,2.817686552e-13,3.60231929e-13,1.411499626e-13,1.248870204e-13,2.263636917e-13,1.197731154e-13,4.489572926e-13,2.133626013e-13,2.626320046e-14,8.59460272e-14,2.022267822e-13,9.180908539e-14,3.430908879e-13,1.056578325e-12,1.421285098e-13,1.383012444e-13,2.805887902e-13,2.875161158e-13,6.649540162e-13
1.3671875,1.367100827e-13,3.974580973e-14,7.345710292e-14,1.380304851e-13,4.347362859e-13,2.477330951e-13,1.761401323e-13,1.165046534e-13,1.397602813e-13,9.70040998e-14,6.535621997e-13,2.113018507e-13,8.122195279e-13,2.730948557e-13,3.581549479e-13,1.442721131e-13,1.29671452e-13,2.260188158e-13,1.223033884e-13,4.481145374e-13,2.148157422e-13,2.679935628e-14,8.473948555e-14,1.993773291e-13,9.472262916e-14,3.444792548e-13,1.050388158e-12,1.445496762e-13,1.414291974e-13,2.977422935e-13,2.858492463e-13,6.817870921e-13
1.375,1.426382016e-13,3.870508751e-14,7.684879239e-14,1.415099067e-13,4.429737679e-13,2.4697939e-13,1.75975125e-13,1.141629164e-13,1.423468026e-13,9.373410559e-14,6.402240306e-13,2.081224262e-13,8.241466473e-13,2.646271637e-13,3.560642437e-13,1.478173532e-13,1.352648773e-13,2.259553293e-13,1.251646568e-13,4.470329756e-13,2.164212547e-13,2.763910064e-14,8.398359902e-14,1.973708201e-13,9.776391133e-14,3.458087901e-13,1.04524733e-12,1.475698058e-13,1.447540927e-13,3.158397043e-13,2.845655423e-13,6.981944638e-13
1.3828125,1.486065747e-13,3.780117493e-14,8.020665038e-14,1.451586275e-13,4.515778302e-13,2.462744765e-13,1.759429411e-13,1.118977666e-13,1.44974932e-13,9.046547951e-14,6.26942341e-13,2.051897487e-13,8.383737225e-13,2.566473931e-13,3.542511011e-13,1.517979947e-13,1.412350252e-13,2.257397659e-13,1.28138781e-13,4.455294489e-13,2.180660966e-13,2.876961198e-14,8.367874796e-14,1.959902609e-13,1.008482805e-13,3.474891729e-13,1.04030527e-12,1.508099958e-13,1.47957314e-13,3.351516884e-13,2.84023521e-13,7.143180099e-13
1.390625,1.547152827e-13,3.711444568e-14,8.329298757e-14,1.48421722e-13,4.599086325e-13,2.457271032e-13,1.755634899e-13,1.096637e-13,1.476740433e-13,8.724091387e-14,6.134453556e-13,2.026043266e-13,8.528261124e-13,2.492524727e-13,3.524986037e-13,1.559387e-13,1.476170005e-13,2.252633026e-13,1.311841294e-13,4.431145871e-13,2.194019292e-13,3.013278913e-14,8.378204054e-14,1.952412134e-13,1.040470743e-13,3.493396326e-13,1.035332011e-12,1.543373485e-13,1.512525649e-13,3.550120594e-13,2.839991583e-13,7.295294489e-13
1.3984375,1.612469124e-13,3.656253715e-14,8.628550558e-14,1.513401716e-13,4.673840253e-13,2.456331083e-13,1.749909561e-13,1.074713837e-13,1.50555347e-13,8.40864885e-14,5.991111577e-13,2.00532194e-13,8.66744833e-13,2.423538865e-13,3.503482333e-13,1.599195922e-13,1.541681858e-13,2.249002398e-13,1.345915637e-13,4.400187659e-13,2.204040295e-13,3.178631617e-14,8.431017666e-14,1.953370465e-13,1.072015818e-13,3.510873441e-13,1.030636749e-12,1.581695694e-13,1.548401377e-13,3.752273047e-13,2.840144192e-13,7.434518075e-13
1.40625,1.680213157e-13,3.607448147e-14,8.918410553e-14,1.54081521e-13,4.74125135e-13,2.460585774e-13,1.745117898e-13,1.053973037e-13,1.536120911e-13,8.096566854e-14,5.842969946e-13,1.989454263e-13,8.811201531e-13,2.358810957e-13,3.482307688e-13,1.639017091e-13,1.606227659e-13,2.249037391e-13,1.38381599e-13,4.362902929e-13,2.211319467e-13,3.384244181e-14,8.529564286e-14,1.960287483e-13,1.102232177e-13,3.527091698e-13,1.026203119e-12,1.618045207e-13,1.58476601e-13,3.970145573e-13,2.840839977e-13,7.562503519e-13
1.4140625,1.750006796e-13,3.574227134e-14,9.179676404e-14,1.566179026e-13,4.804731693e-13,2.469445973e-13,1.736820299e-13,1.034586665e-13,1.567272854e-13,7.777478767e-14,5.694976716e-13,1.978066342e-13,8.953242428e-13,2.300125646e-13,3.4666934e-13,1.681273947e-13,1.674444878e-13,2.247756046e-13,1.42225279e-13,4.316076581e-13,2.215319595e-13,3.618501852e-14,8.676076125e-14,1.97130638e-13,1.132958399e-13,3.543518582e-13,1.021831694e-12,1.657168199e-13,1.618962229e-13,4.196986151e-13,2.846128764e-13,7.679986513e-13
1.421875,1.82157213e-13,3.572977961e-14,9.435587779e-14,1.589967523e-13,4.863543506e-13,2.479381017e-13,1.720410446e-13,1.015510829e-13,1.59807696e-13,7.445244276e-14,5.546380771e-13,1.973142391e-13,9.112171774e-13,2.251450457e-13,3.453956386e-13,1.726237714e-13,1.750696663e-13,2.240020076e-13,1.459213663e-13,4.259960438e-13,2.215002568e-13,3.862310685e-14,8.859552994e-14,1.986595147e-13,1.163647259e-13,3.560018823e-13,1.017455201e-12,1.70169154e-13,1.653568876e-13,4.422418897e-13,2.85784794e-13,7.782417752e-13
1.4296875,1.889374274e-13,3.604418989e-14,9.685828244e-14,1.612254437e-13,4.913790365e-13,2.487454618e-13,1.699749476e-13,9.968952203e-14,1.629556526e-13,7.112663413e-14,5.399290481e-13,1.97690658e-13,9.325555558e-13,2.215363407e-13,3.442918459e-13,1.773443416e-13,1.83170645e-13,2.227794277e-13,1.496302902e-13,4.196283013e-13,2.209595215e-13,4.117013035e-14,9.073946665e-14,2.003056812e-13,1.193447779e-13,3.573042953e-13,1.013088702e-12,1.748423644e-13,1.691402273e-13,4.659861941e-13,2.873020395e-13,7.865905752e-13
1.4375,1.955121558e-13,3.657787554e-14,9.904982393e-14,1.633552023e-13,4.956225782e-13,2.496354743e-13,1.679837975e-13,9.799943487e-14,1.662578411e-13,6.785390055e-14,5.256080606e-13,1.989321514e-13,9.573227424e-13,2.192217857e-13,3.437045799e-13,1.822170947e-13,1.912970557e-13,2.21485907e-13,1.536959652e-13,4.126901746e-13,2.200600796e-13,4.389218625e-14,9.34483302e-14,2.020329962e-13,1.224556799e-13,3.583296794e-13,1.009043169e-12,1.798372559e-13,1.729933165e-13,4.908858609e-13,2.891523178e-13,7.933429616e-13
1.4453125,2.023878029e-13,3.741999573e-14,1.012050568e-13,1.655195832e-13,4.994403682e-13,2.508257898e-13,1.660956483e-13,9.638940037e-14,1.695175017e-13,6.455815447e-14,5.115527711e-13,2.008998761e-13,9.847062293e-13,2.181543844e-13,3.437703108e-13,1.875051445e-13,1.998764462e-13,2.201175723e-13,1.581250306e-13,4.052942282e-13,2.188620085e-13,4.67536678e-14,9.682078799e-14,2.038924866e-13,1.257922012e-13,3.595121694e-13,1.005386463e-12,1.851629933e-13,1.768363008e-13,5.154070265e-13,2.918543113e-13,7.98708501e-13
1.453125,2.091591452e-13,3.868329553e-14,1.034670839e-13,1.677213592e-13,5.028204077e-13,2.521601035e-13,1.642268118e-13,9.481082753e-14,1.726401238e-13,6.136264478e-14,4.97870309e-13,2.034784777e-13,1.018492718e-12,2.183396385e-13,3.445398591e-13,1.935495192e-13,2.095585536e-13,2.185738771e-13,1.626029074e-13,3.973057816e-13,2.172064848e-13,4.974935377e-14,1.006079795e-13,2.05645018e-13,1.291303862e-13,3.607818381e-13,1.001562013e-12,1.912592628e-13,1.808536032e-13,5.39959394e-13,2.955296601e-13,8.024466437e-13
1.4609375,2.155823713e-13,4.028574063e-14,1.056503192e-13,1.699631477e-13,5.057024222e-13,2.535677838e-13,1.619737403e-13,9.34627582e-14,1.757127844e-13,5.83954336e-14,4.847452273e-13,2.067207694e-13,1.057765536e-12,2.199270216e-13,3.461446754e-13,2.000631795e-13,2.199383103e-13,2.168203418e-13,1.670810562e-13,3.888360603e-13,2.152216438e-13,5.292188246e-14,1.047798316e-13,2.074607464e-13,1.323989485e-13,3.619906814e-13,9.975108453e-13,1.985787862e-13,1.848186234e-13,5.654988946e-13,2.999770175e-13,8.044426374e-13
1.46875,2.217188987e-13,4.218514061e-14,1.077664387e-13,1.722636643e-13,5.079546282e-13,2.550207418e-13,1.588088211e-13,9.237520675e-14,1.785770835e-13,5.5606636e-14,4.721129333e-13,2.107020851e-13,1.100693411e-12,2.229759724e-13,3.485601819e-13,2.066905386e-13,2.303127871e-13,2.147180289e-13,1.716616165e-13,3.802015994e-13,2.131228354e-13,5.61763465e-14,1.093781681e-13,2.093709833e-13,1.358881495e-13,3.630937443e-13,9.939433659e-13,2.065994717e-13,1.885642273e-13,5.917493532e-13,3.051440913e-13,8.04376076e-13
1.4765625,2.273270349e-13,4.438418824e-14,1.096626757e-13,1.745069318e-13,5.092560989e-13,2.563681344e-13,1.550091097e-13,9.136981872e-14,1.811398142e-13,5.306161907e-14,4.601105108e-13,2.153264234e-13,1.149192273e-12,2.274229257e-13,3.517725223e-13,2.135347872e-13,2.406741636e-13,2.123061776e-13,1.762924756e-13,3.713445822e-13,2.108180268e-13,5.941006691e-14,1.141791353e-13,2.110748104e-13,1.395846398e-13,3.6367031e-13,9.91178138e-13,2.153796254e-13,1.922686247e-13,6.180569143e-13,3.107950525e-13,8.018405e-13
1.484375,2.327255411e-13,4.688676517e-14,1.112744471e-13,1.766514654e-13,5.097593019e-13,2.575785247e-13,1.512969926e-13,9.032267055e-14,1.836358139e-13,5.083043195e-14,4.492444552e-13,2.207071824e-13,1.204037694e-12,2.334432175e-13,3.558769661e-13,2.207139206e-13,2.513518012e-13,2.097999876e-13,1.810095394e-13,3.620226931e-13,2.081507011e-13,6.275885793e-14,1.191697207e-13,2.1277164e-13,1.431531322e-13,3.635962829e-13,9.888575304e-13,2.251822782e-13,1.959587391e-13,6.447163716e-13,3.169006271e-13,7.972466805e-13
1.4921875,2.38372222e-13,4.975703874e-14,1.128059305e-13,1.787958423e-13,5.098726784e-13,2.587260522e-13,1.479810642e-13,8.921837732e-14,1.86127764e-13,4.878545342e-14,4.397056055e-13,2.270955059e-13,1.264639164e-12,2.412686522e-13,3.608934976e-13,2.283601963e-13,2.628116069e-13,2.071881916e-13,1.858471776e-13,3.521185707e-13,2.050253014e-13,6.631407557e-14,1.245416514e-13,2.144516057e-13,1.467450488e-13,3.633101232e-13,9.864029377e-13,2.353528339e-13,1.994784267e-13,6.719904834e-13,3.238352515e-13,7.912265814e-13
1.5,2.439525449e-13,5.293026513e-14,1.141130463e-13,1.808970779e-13,5.096526035e-13,2.598557516e-13,1.448812729e-13,8.813766867e-14,1.885114641e-13,4.685021434e-14,4.311566298e-13,2.342727121e-13,1.328883783e-12,2.508021255e-13,3.667772495e-13,2.365717866e-13,2.751102374e-13,2.043828879e-13,1.907272597e-13,3.417355091e-13,2.014698862e-13,7.001735396e-14,1.302933703e-13,2.157308141e-13,1.505572639e-13,3.631224233e-13,9.832785591e-13,2.462986194e-13,2.02552569e-13,6.98887689e-13,3.316203919e-13,7.839018126e-13
1.5078125,2.492162407e-13,5.63083945e-14,1.151604459e-13,1.828339978e-13,5.090425475e-13,2.61106114e-13,1.41688186e-13,8.71151558e-14,1.907747413e-13,4.507852225e-14,4.236907819e-13,2.420033721e-13,1.396838252e-12,2.620095182e-13,3.735809443e-13,2.449743877e-13,2.873642985e-13,2.013052222e-13,1.957482827e-13,3.313151039e-13,1.976472518e-13,7.395207039e-14,1.364509073e-13,2.167584035e-13,1.544379821e-13,3.631421847e-13,9.793817699e-13,2.593179286e-13,2.05106775e-13,7.265846585e-13,3.40086126e-13,7.751804325e-13
1.515625,2.542007893e-13,5.996658006e-14,1.161324314e-13,1.846553455e-13,5.079096895e-13,2.62433775e-13,1.385515566e-13,8.613961234e-14,1.928119511e-13,4.34823102e-14,4.176488248e-13,2.504536805e-13,1.473157446e-12,2.751715934e-13,3.814946429e-13,2.531561614e-13,2.989415546e-13,1.978543222e-13,2.009709578e-13,3.211687001e-13,1.936014348e-13,7.810055601e-14,1.429964043e-13,2.17681645e-13,1.58444172e-13,3.632087989e-13,9.749976368e-13,2.739200032e-13,2.074188326e-13,7.569167265e-13,3.492265648e-13,7.646865347e-13
1.5234375,2.589034903e-13,6.402530026e-14,1.168344116e-13,1.864403536e-13,5.061785493e-13,2.633366792e-13,1.35711138e-13,8.523959715e-14,1.945914626e-13,4.20136764e-14,4.125857393e-13,2.595715992e-13,1.557124324e-12,2.902985357e-13,3.905249788e-13,2.614262486e-13,3.105934319e-13,1.942618845e-13,2.062187596e-13,3.110076875e-13,1.892741028e-13,8.229432762e-14,1.496189229e-13,2.183348208e-13,1.625122474e-13,3.630200065e-13,9.701605614e-13,2.886434627e-13,2.095628755e-13,7.873050209e-13,3.591126096e-13,7.522122707e-13
1.53125,2.63688854e-13,6.858292949e-14,1.173112979e-13,1.882593061e-13,5.041962156e-13,2.636527242e-13,1.328661246e-13,8.431058123e-14,1.962379732e-13,4.060041086e-14,4.082360347e-13,2.691195067e-13,1.646312976e-12,3.071116851e-13,4.004423022e-13,2.704341179e-13,3.234695726e-13,1.909494379e-13,2.115345561e-13,3.004749295e-13,1.846542214e-13,8.664995819e-14,1.561805821e-13,2.188327624e-13,1.664613492e-13,3.627258904e-13,9.646208926e-13,3.041709924e-13,2.11539644e-13,8.165143868e-13,3.700853805e-13,7.3837706e-13
1.5390625,2.687708183e-13,7.355704101e-14,1.178845899e-13,1.90299112e-13,5.022760525e-13,2.639145736e-13,1.300048828e-13,8.322215981e-14,1.976478344e-13,3.914517213e-14,4.051409814e-13,2.790283917e-13,1.744705173e-12,3.25580888e-13,4.112315345e-13,2.801302775e-13,3.37349409e-13,1.879691374e-13,2.171732975e-13,2.897402392e-13,1.79791489e-13,9.129777765e-14,1.6290502e-13,2.192450027e-13,1.704963799e-13,3.625622959e-13,9.583425955e-13,3.221342925e-13,2.133041684e-13,8.464318456e-13,3.822747804e-13,7.237069102e-13
1.546875,2.737941689e-13,7.872673914e-14,1.184604218e-13,1.926092296e-13,5.003873035e-13,2.642533378e-13,1.275904852e-13,8.205255307e-14,1.987365093e-13,3.763595746e-14,4.03619203e-13,2.892818994e-13,1.851953033e-12,3.458155572e-13,4.230598475e-13,2.899051653e-13,3.508314612e-13,1.851231467e-13,2.231202515e-13,2.792376384e-13,1.747229542e-13,9.615471258e-14,1.699341896e-13,2.191650938e-13,1.74671436e-13,3.624656013e-13,9.514998641e-13,3.420807665e-13,2.145050763e-13,8.757575376e-13,3.953639287e-13,7.080953199e-13
1.5546875,2.787025246e-13,8.411704195e-14,1.188974002e-13,1.95028024e-13,4.984256247e-13,2.642269977e-13,1.255223419e-13,8.089725574e-14,1.996873697e-13,3.618490028e-14,4.037943084e-13,3.000560921e-13,1.964633719e-12,3.679398266e-13,4.36098307e-13,2.995878589e-13,3.633365116e-13,1.82486854e-13,2.29205073e-13,2.691768883e-13,1.693525814e-13,1.012682851e-13,1.77225919e-13,2.180545588e-13,1.78934356e-13,3.624670267e-13,9.440491577e-13,3.637280204e-13,2.152733673e-13,9.045159169e-13,4.09240832e-13,6.915441736e-13
1.5625,2.835761233e-13,8.978796483e-14,1.191854856e-13,1.975133565e-13,4.963086802e-13,2.637968079e-13,1.234904953e-13,7.978794627e-14,2.005158996e-13,3.484313974e-14,4.055853124e-13,3.113999112e-13,2.084399295e-12,3.918722831e-13,4.504331218e-13,3.093954828e-13,3.757093981e-13,1.802667558e-13,2.354792373e-13,2.593923929e-13,1.637237703e-13,1.066856224e-13,1.847621343e-13,2.159028807e-13,1.833973798e-13,3.626087267e-13,9.356823648e-13,3.878173366e-13,2.159161063e-13,9.349404172e-13,4.23841383e-13,6.742431705e-13
1.5703125,2.882965297e-13,9.566749641e-14,1.193864164e-13,2.002153394e-13,4.942177234e-13,2.631828932e-13,1.216200474e-13,7.876803174e-14,2.011157997e-13,3.357143645e-14,4.085648308e-13,3.230419223e-13,2.21175134e-12,4.171954669e-13,4.658048429e-13,3.194633528e-13,3.885839993e-13,1.784097712e-13,2.421178571e-13,2.496514892e-13,1.580762063e-13,1.12346761e-13,1.925378054e-13,2.134321931e-13,1.879689301e-13,3.62798709e-13,9.26524326e-13,4.13249025e-13,2.161883591e-13,9.651819602e-13,4.391001183e-13,6.563166951e-13
1.578125,2.931725155e-13,1.017848099e-13,1.197604774e-13,2.032979457e-13,4.925082885e-13,2.623202335e-13,1.200208689e-13,7.781561587e-14,2.014418785e-13,3.23774117e-14,4.129133664e-13,3.350544493e-13,2.347934427e-12,4.439870519e-13,4.82061506e-13,3.296917987e-13,4.013074703e-13,1.768843448e-13,2.491779458e-13,2.400821893e-13,1.523531511e-13,1.182779915e-13,2.004115301e-13,2.111215147e-13,1.927629937e-13,3.628597961e-13,9.17339419e-13,4.403252046e-13,2.161326812e-13,9.948212974e-13,4.551066423e-13,6.378283737e-13
1.5859375,2.983326422e-13,1.08060584e-13,1.202341238e-13,2.067288136e-13,4.91171755e-13,2.611566643e-13,1.187174732e-13,7.689437993e-14,2.013753182e-13,3.126168064e-14,4.187729155e-13,3.47543702e-13,2.495746368e-12,4.7245465e-13,4.992701192e-13,3.397760632e-13,4.135147391e-13,1.757664754e-13,2.566920029e-13,2.308094574e-13,1.464041721e-13,1.244712942e-13,2.082295321e-13,2.085060724e-13,1.980239669e-13,3.625189567e-13,9.085965137e-13,4.713114963e-13,2.159330618e-13,1.026017364e-12,4.715961997e-13,6.186578005e-13
1.59375,3.034350362e-13,1.144500646e-13,1.205147549e-13,2.103157884e-13,4.899689659e-13,2.596964399e-13,1.177179741e-13,7.603303948e-14,2.010661399e-13,3.021182127e-14,4.255839436e-13,3.604391687e-13,2.653924985e-12,5.022131605e-13,5.172091814e-13,3.499029335e-13,4.260865894e-13,1.750516558e-13,2.646752844e-13,2.216860787e-13,1.403428123e-13,1.309070173e-13,2.160496218e-13,2.052487826e-13,2.036361708e-13,3.618264e-13,9.003368201e-13,5.051024328e-13,2.156654021e-13,1.0577483e-12,4.884457166e-13,5.987363789e-13
1.6015625,3.086024101e-13,1.210538508e-13,1.207116496e-13,2.139709618e-13,4.886976068e-13,2.578584696e-13,1.169252193e-13,7.527271628e-14,2.007816734e-13,2.930426526e-14,4.333857437e-13,3.739575735e-13,2.822835123e-12,5.333625689e-13,5.358822688e-13,3.602662543e-13,4.385527884e-13,1.748329955e-13,2.729250131e-13,2.130061971e-13,1.341907569e-13,1.376188914e-13,2.239627332e-13,2.017173882e-13,2.096352357e-13,3.609256592e-13,8.927254475e-13,5.40469133e-13,2.157097683e-13,1.090042062e-12,5.057260433e-13,5.782343349e-13
1.609375,3.139653284e-13,1.275979896e-13,1.208887419e-13,2.177644325e-13,4.873607649e-13,2.557830529e-13,1.16422433e-13,7.465281668e-14,2.003533405e-13,2.858262268e-14,4.422515866e-13,3.877994802e-13,3.002434066e-12,5.659052615e-13,5.552297525e-13,3.701293825e-13,4.494951483e-13,1.749737873e-13,2.813559873e-13,2.052009889e-13,1.279425865e-13,1.446145929e-13,2.319833338e-13,1.979427543e-13,2.160392568e-13,3.595534687e-13,8.857088301e-13,5.7879373e-13,2.157030186e-13,1.123657862e-12,5.228359001e-13,5.574047707e-13
1.6171875,3.194666732e-13,1.339890465e-13,1.209580112e-13,2.219220337e-13,4.865545257e-13,2.536496402e-13,1.162460259e-13,7.420225997e-14,1.997523761e-13,2.798452673e-14,4.517892264e-13,4.015098066e-13,3.189669521e-12,5.990890502e-13,5.747384466e-13,3.794433381e-13,4.601027934e-13,1.752081479e-13,2.902033785e-13,1.979792694e-13,1.217809951e-13,1.519682935e-13,2.401538085e-13,1.93645463e-13,2.226934967e-13,3.577513341e-13,8.792134855e-13,6.202610749e-13,2.151491236e-13,1.157100595e-12,5.397456607e-13,5.366491096e-13
1.625,3.254432501e-13,1.406302879e-13,1.209757671e-13,2.266027639e-13,4.868110377e-13,2.513222478e-13,1.162361527e-13,7.393841053e-14,1.992525057e-13,2.751144852e-14,4.624217413e-13,4.155456998e-13,3.386448555e-12,6.332195217e-13,5.948325527e-13,3.891373281e-13,4.716982354e-13,1.760220139e-13,2.99467847e-13,1.911109393e-13,1.157475968e-13,1.59659401e-13,2.483452164e-13,1.890213503e-13,2.298166354e-13,3.558656537e-13,8.735127452e-13,6.653884012e-13,2.147769617e-13,1.191345692e-12,5.573207734e-13,5.162103167e-13
1.6328125,3.318816238e-13,1.47376607e-13,1.209139404e-13,2.316099959e-13,4.878553506e-13,2.488151878e-13,1.16518433e-13,7.388333251e-14,1.987520397e-13,2.723389272e-14,4.740605938e-13,4.297605514e-13,3.593394445e-12,6.686135336e-13,6.15938559e-13,3.990940433e-13,4.831732276e-13,1.779781438e-13,3.090262595e-13,1.849168047e-13,1.097904348e-13,1.675356331e-13,2.563535048e-13,1.842004995e-13,2.373988445e-13,3.537218141e-13,8.684268298e-13,7.146922064e-13,2.147080753e-13,1.22689234e-12,5.753374877e-13,4.958705035e-13
1.640625,3.384304287e-13,1.538937e-13,1.209335323e-13,2.368017866e-13,4.893583576e-13,2.464415737e-13,1.171199674e-13,7.403951688e-14,1.981832309e-13,2.710523833e-14,4.856163537e-13,4.433997317e-13,3.808301871e-12,7.042257556e-13,6.370553952e-13,4.087118913e-13,4.938869639e-13,1.807642336e-13,3.189813862e-13,1.796384937e-13,1.04067889e-13,1.755958781e-13,2.642458092e-13,1.791557786e-13,2.451013786e-13,3.510795456e-13,8.638128896e-13,7.661234026e-13,2.142546206e-13,1.261496501e-12,5.929915328e-13,4.755750051e-13
1.6484375,3.452094026e-13,1.603144399e-13,1.212303922e-13,2.421215817e-13,4.912061889e-13,2.442304021e-13,1.177547e-13,7.445459827e-14,1.977929496e-13,2.70777231e-14,4.97253514e-13,4.567772902e-13,4.032351994e-12,7.399225414e-13,6.577370051e-13,4.176762011e-13,5.034746254e-13,1.838792859e-13,3.292057087e-13,1.753066238e-13,9.878854892e-14,1.838302285e-13,2.720996617e-13,1.74289487e-13,2.530250228e-13,3.479320483e-13,8.60378464e-13,8.185730718e-13,2.136693779e-13,1.295954676e-12,6.100834028e-13,4.555123523e-13
1.65625,3.525452809e-13,1.665638231e-13,1.213506735e-13,2.472678962e-13,4.932773982e-13,2.41958045e-13,1.185076469e-13,7.524105433e-14,1.975404659e-13,2.730986141e-14,5.09468607e-13,4.701134107e-13,4.262465534e-12,7.76386929e-13,6.783966004e-13,4.25655083e-13,5.114645046e-13,1.873085689e-13,3.39629311e-13,1.716285267e-13,9.393333948e-14,1.922114538e-13,2.79858027e-13,1.698507744e-13,2.61375327e-13,3.441837299e-13,8.581073743e-13,8.729015288e-13,2.132008816e-13,1.33189837e-12,6.265076463e-13,4.356132494e-13
1.6640625,3.605939995e-13,1.726463225e-13,1.209550149e-13,2.523281424e-13,4.96169045e-13,2.395961332e-13,1.19540185e-13,7.639600085e-14,1.972551283e-13,2.78358581e-14,5.220274876e-13,4.829928433e-13,4.496970571e-12,8.135357331e-13,6.991799049e-13,4.333508973e-13,5.193375114e-13,1.913962725e-13,3.505534734e-13,1.682524553e-13,8.929212108e-14,2.008398678e-13,2.875214682e-13,1.656615477e-13,2.702480215e-13,3.401285404e-13,8.559797701e-13,9.308441428e-13,2.126360934e-13,1.369097738e-12,6.427687673e-13,4.161612925e-13
1.671875,3.690152761e-13,1.788684971e-13,1.203767914e-13,2.576737066e-13,5.007063455e-13,2.372580431e-13,1.209481645e-13,7.782329511e-14,1.96902439e-13,2.843530466e-14,5.352005486e-13,4.954492119e-13,4.73909409e-12,8.511138449e-13,7.204121592e-13,4.415536627e-13,5.278388481e-13,1.963022942e-13,3.619113709e-13,1.652668201e-13,8.47683088e-14,2.096470481e-13,2.950379255e-13,1.616120765e-13,2.795768317e-13,3.36338386e-13,8.539453632e-13,9.932760666e-13,2.121912248e-13,1.407011342e-12,6.596714863e-13,3.978846365e-13
1.6796875,3.775388038e-13,1.850784743e-13,1.198339443e-13,2.631352049e-13,5.065695745e-13,2.349231382e-13,1.230698026e-13,7.956528091e-14,1.963882322e-13,2.914704516e-14,5.487890609e-13,5.07544651e-13,4.986029269e-12,8.888650499e-13,7.418477179e-13,4.496753061e-13,5.357683194e-13,2.018870603e-13,3.736748703e-13,1.627486784e-13,8.046419054e-14,2.184871896e-13,3.02410087e-13,1.576004258e-13,2.889696637e-13,3.326752427e-13,8.527144218e-13,1.057961115e-12,2.120119976e-13,1.444688408e-12,6.767075154e-13,3.806038436e-13
1.6875,3.86630946e-13,1.90968503e-13,1.192917643e-13,2.685314849e-13,5.129538482e-13,2.3242955e-13,1.256307152e-13,8.173151035e-14,1.957808199e-13,3.015584624e-14,5.620938343e-13,5.193804197e-13,5.239778414e-12,9.267324502e-13,7.627426625e-13,4.571387618e-13,5.426167179e-13,2.080941176e-13,3.862222143e-13,1.608715647e-13,7.649543186e-14,2.273583831e-13,3.097840426e-13,1.536260757e-13,2.984294921e-13,3.284086517e-13,8.523929624e-13,1.12461553e-12,2.119341824e-13,1.483713139e-12,6.926992021e-13,3.635153385e-13
1.6953125,3.962505606e-13,1.964001867e-13,1.186355931e-13,2.738598081e-13,5.196870243e-13,2.298604354e-13,1.282811574e-13,8.438503826e-14,1.953197462e-13,3.137111761e-14,5.75339927e-13,5.311821938e-13,5.500978403e-12,9.646281999e-13,7.829648375e-13,4.635507337e-13,5.480761369e-13,2.147359438e-13,3.993477906e-13,1.599285544e-13,7.294883382e-14,2.363079129e-13,3.170654992e-13,1.499619848e-13,3.082186695e-13,3.232295407e-13,8.528533895e-13,1.193870819e-12,2.117287856e-13,1.524761882e-12,7.071129498e-13,3.467716703e-13
1.703125,4.059651937e-13,2.013393891e-13,1.177311622e-13,2.788872728e-13,5.270651961e-13,2.275684539e-13,1.317330639e-13,8.765323073e-14,1.949592334e-13,3.276823043e-14,5.885082029e-13,5.426064906e-13,5.756626932e-12,1.001767681e-12,8.023951927e-13,4.686430735e-13,5.524801613e-13,2.218544881e-13,4.128452251e-13,1.594769119e-13,6.979072298e-14,2.454241068e-13,3.240190789e-13,1.467095374e-13,3.183683752e-13,3.175989379e-13,8.54143543e-13,1.263196053e-12,2.113996281e-13,1.564048999e-12,7.202772702e-13,3.309575444e-13
1.7109375,4.160144251e-13,2.061078493e-13,1.168272018e-13,2.837650675e-13,5.355113061e-13,2.254874226e-13,1.361940883e-13,9.162738473e-14,1.943946133e-13,3.447282762e-14,6.014863281e-13,5.533531508e-13,6.012711907e-12,1.0378212e-12,8.212192449e-13,4.732711495e-13,5.571394242e-13,2.300213451e-13,4.271264805e-13,1.592762745e-13,6.685690181e-14,2.545345429e-13,3.306490566e-13,1.436660445e-13,3.290679417e-13,3.120138983e-13,8.562764544e-13,1.335411009e-12,2.115820086e-13,1.603046814e-12,7.329630585e-13,3.160213601e-13
1.71875,4.262622711e-13,2.106948643e-13,1.161253778e-13,2.888522312e-13,5.451940685e-13,2.232802821e-13,1.411811677e-13,9.63029636e-14,1.935297585e-13,3.649300226e-14,6.146448726e-13,5.632846802e-13,6.28336265e-12,1.072465537e-12,8.393462738e-13,4.777241789e-13,5.616963218e-13,2.390573688e-13,4.421381317e-13,1.599298274e-13,6.418873075e-14,2.63391941e-13,3.371163516e-13,1.407805796e-13,3.399922372e-13,3.06366416e-13,8.592183425e-13,1.413249748e-12,2.123524575e-13,1.645817621e-12,7.450236586e-13,3.018939905e-13
1.7265625,4.36393685e-13,2.146956897e-13,1.153671836e-13,2.939998802e-13,5.559750772e-13,2.211520606e-13,1.470283391e-13,1.017801957e-13,1.925708964e-13,3.887999211e-14,6.273472398e-13,5.721611148e-13,6.551996284e-12,1.104823539e-12,8.555623363e-13,4.811605728e-13,5.652772392e-13,2.483203544e-13,4.576930898e-13,1.614759106e-13,6.200760363e-14,2.721804863e-13,3.435879538e-13,1.382532093e-13,3.504547328e-13,3.003689401e-13,8.627161251e-13,1.490229455e-12,2.129057071e-13,1.688612338e-12,7.556687954e-13,2.887097003e-13
1.734375,4.465817909e-13,2.182369043e-13,1.145212602e-13,2.990710072e-13,5.678618257e-13,2.194459482e-13,1.537316688e-13,1.081923677e-13,1.915977664e-13,4.164927232e-14,6.394123756e-13,5.804042729e-13,6.810005368e-12,1.13548258e-12,8.702068896e-13,4.835196729e-13,5.678794558e-13,2.579351254e-13,4.738513904e-13,1.635526181e-13,6.032901105e-14,2.80810499e-13,3.500545011e-13,1.362236875e-13,3.609106005e-13,2.939692913e-13,8.668344583e-13,1.566052118e-12,2.133749284e-13,1.728955374e-12,7.649578332e-13,2.763304382e-13
1.7421875,4.565278841e-13,2.213596584e-13,1.138711195e-13,3.040212246e-13,5.808927647e-13,2.180852679e-13,1.608131275e-13,1.156219887e-13,1.905199767e-13,4.474536398e-14,6.517306734e-13,5.881885635e-13,7.07398462e-12,1.16503228e-12,8.843391907e-13,4.849964727e-13,5.692609962e-13,2.681036169e-13,4.903392749e-13,1.662247918e-13,5.90444062e-14,2.888636756e-13,3.56324928e-13,1.347272425e-13,3.718134277e-13,2.872094962e-13,8.724279177e-13,1.646175303e-12,2.143343619e-13,1.770042738e-12,7.72999209e-13,2.646828246e-13
1.75,4.660711816e-13,2.238603145e-13,1.135202492e-13,3.08670042e-13,5.950433543e-13,2.170034709e-13,1.687360582e-13,1.241833607e-13,1.89442013e-13,4.834968385e-14,6.637077225e-13,5.94913931e-13,7.342270687e-12,1.19234694e-12,8.969247129e-13,4.855113418e-13,5.701135953e-13,2.788998632e-13,5.073209075e-13,1.695554309e-13,5.820619629e-14,2.964379734e-13,3.623385434e-13,1.336817986e-13,3.824673587e-13,2.802601328e-13,8.79617414e-13,1.727840988e-12,2.154077543e-13,1.811830526e-12,7.796303258e-13,2.539043046e-13
1.7578125,4.754609004e-13,2.260510562e-13,1.134099043e-13,3.131722949e-13,6.104875614e-13,2.163082887e-13,1.775596559e-13,1.339360098e-13,1.88476063e-13,5.253599202e-14,6.748127492e-13,6.007440392e-13,7.602914195e-12,1.21715303e-12,9.075675135e-13,4.852971151e-13,5.709849092e-13,2.903137498e-13,5.250272468e-13,1.734776681e-13,5.794085894e-14,3.035707769e-13,3.681163025e-13,1.3290267e-13,3.926530952e-13,2.732752131e-13,8.874749707e-13,1.809429036e-12,2.164494027e-13,1.852008807e-12,7.852670272e-13,2.439548078e-13
1.765625,4.844093133e-13,2.279445621e-13,1.134772961e-13,3.176585077e-13,6.273812434e-13,2.161431899e-13,1.867645706e-13,1.449675273e-13,1.87502414e-13,5.712540997e-14,6.858164048e-13,6.059710426e-13,7.859558935e-12,1.239790181e-12,9.169201987e-13,4.843925396e-13,5.712826331e-13,3.020430333e-13,5.429550968e-13,1.777513809e-13,5.82707147e-14,3.099915945e-13,3.737190403e-13,1.325680743e-13,4.029350342e-13,2.661247886e-13,8.958119976e-13,1.892367165e-12,2.178262347e-13,1.890524581e-12,7.89895162e-13,2.347264721e-13
1.7734375,4.92884941e-13,2.292131933e-13,1.138098245e-13,3.218916046e-13,6.458079342e-13,2.165737176e-13,1.969045534e-13,1.573959036e-13,1.864130313e-13,6.221878425e-14,6.964241789e-13,6.101758455e-13,8.117721632e-12,1.259847531e-12,9.246102289e-13,4.82971259e-13,5.71798463e-13,3.144349482e-13,5.612512405e-13,1.823535763e-13,5.912488326e-14,3.157941938e-13,3.792934434e-13,1.329866222e-13,4.132994029e-13,2.587191294e-13,9.04714632e-13,1.973634481e-12,2.193927339e-13,1.929273342e-12,7.931183291e-13,2.26318044e-13
1.78125,5.010058648e-13,2.301123193e-13,1.144721692e-13,3.258718519e-13,6.658059971e-13,2.174313069e-13,2.084358048e-13,1.711228041e-13,1.852148729e-13,6.794377764e-14,7.06243689e-13,6.134783684e-13,8.372163474e-12,1.277597696e-12,9.308891587e-13,4.812059244e-13,5.727024432e-13,3.276672549e-13,5.802252331e-13,1.876996639e-13,6.042793246e-14,3.21077666e-13,3.847013247e-13,1.338655853e-13,4.231462393e-13,2.512430068e-13,9.13639842e-13,2.053153142e-12,2.210898909e-13,1.968522558e-12,7.952611452e-13,2.189089768e-13
1.7890625,5.081908105e-13,2.307664653e-13,1.154338306e-13,3.296889635e-13,6.872130133e-13,2.188470254e-13,2.209333845e-13,1.861171643e-13,1.839751923e-13,7.415640882e-14,7.156301701e-13,6.15964574e-13,8.614224798e-12,1.293216026e-12,9.360154692e-13,4.78643184e-13,5.72781417e-13,3.409916782e-13,5.993782846e-13,1.935916213e-13,6.225029044e-14,3.257454692e-13,3.898434478e-13,1.348337488e-13,4.324629379e-13,2.438838997e-13,9.225918325e-13,2.133007479e-12,2.232092632e-13,2.004364794e-12,7.964294527e-13,2.124659103e-13
1.796875,5.141662922e-13,2.310181412e-13,1.169907424e-13,3.332533592e-13,7.101595523e-13,2.21273104e-13,2.341702211e-13,2.025794671e-13,1.827570933e-13,8.087883971e-14,7.242326901e-13,6.170196217e-13,8.847806786e-12,1.305987061e-12,9.392536736e-13,4.756146639e-13,5.732952929e-13,3.54592775e-13,6.188022477e-13,1.996632482e-13,6.473496534e-14,3.297709094e-13,3.951588924e-13,1.361151127e-13,4.42169316e-13,2.366987668e-13,9.318031727e-13,2.211424549e-12,2.256750353e-13,2.036245857e-12,7.965890966e-13,2.068548339e-13
1.8046875,5.190775085e-13,2.310293744e-13,1.191389846e-13,3.366531733e-13,7.349033936e-13,2.244450405e-13,2.48132484e-13,2.205249926e-13,1.815837208e-13,8.816509475e-14,7.321333912e-13,6.167185569e-13,9.077806839e-12,1.315869643e-12,9.40845229e-13,4.727064126e-13,5.751155871e-13,3.688648948e-13,6.386275382e-13,2.063615946e-13,6.7809901e-14,3.33049756e-13,4.00697865e-13,1.380251525e-13,4.525234184e-13,2.296369137e-13,9.405195392e-13,2.286466213e-12,2.282440473e-13,2.06782532e-12,7.961470358e-13,2.021362488e-13
