"Time","Fp1","AF3","F7","F3","FC1","FC5","T7","C3","CP1","CP5","P7","P3","Pz","PO3","O1","Oz","O2","PO4","P4","P8","CP6","CP2","C4","T8","FC6","FC2","F4","F8","AF4","Fp2","Fz","Cz"
0.0078125,2.482218895e-13,1.545368119e-13,3.319622633e-13,1.481009219e-13,5.342392686e-14,9.539796933e-14,2.490739062e-14,2.493478968e-14,7.912850206e-14,5.532745857e-14,2.916422786e-14,7.94760207e-14,1.84193428e-13,1.444632629e-13,1.193334641e-13,1.252179086e-13,1.664499848e-14,7.395984249e-14,1.167530525e-13,8.292231463e-14,7.843631221e-14,4.66872462e-14,1.649057392e-14,3.977815811e-14,8.616094565e-15,2.314266332e-14,3.205939274e-14,8.122791883e-14,7.398234287e-14,3.165313224e-13,9.297428394e-14,5.261395745e-14
0.015625,2.564023037e-13,1.650595865e-13,3.431834261e-13,1.579441839e-13,5.577951791e-14,1.017239592e-13,2.571549851e-14,2.669736044e-14,8.243181404e-14,5.915271768e-14,3.082249531e-14,8.146517513e-14,1.915213539e-13,1.499129361e-13,1.278821794e-13,1.331654471e-13,1.768998585e-14,7.749527705e-14,1.212082318e-13,8.551671847e-14,8.061390456e-14,4.917326842e-14,1.713782621e-14,4.292566458e-14,9.688289503e-15,2.407683245e-14,3.40108294e-14,8.680109309e-14,7.791976621e-14,3.27029396e-13,9.750188451e-14,5.589821191e-14
0.0234375,2.632858427e-13,1.75465145e-13,3.524183138e-13,1.677787474e-13,5.811965753e-14,1.078757326e-13,2.649589593e-14,2.854443199e-14,8.540979606e-14,6.303776455e-14,3.26472773e-14,8.301414456e-14,1.976760949e-13,1.546353138e-13,1.366317101e-13,1.409227778e-13,1.880939519e-14,8.069758839e-14,1.248972785e-13,8.774123253e-14,8.23521131e-14,5.143550353e-14,1.772157282e-14,4.596057164e-14,1.092877182e-14,2.507986112e-14,3.588947868e-14,9.208925585e-14,8.155696999e-14,3.356902669e-13,1.018906037e-13,5.915981169e-14
0.03125,2.684653141e-13,1.855673155e-13,3.590876276e-13,1.775078559e-13,6.036831227e-14,1.133400724e-13,2.72490556e-14,3.039047058e-14,8.797841798e-14,6.695151634e-14,3.438099651e-14,8.397534836e-14,2.024056336e-13,1.582510905e-13,1.450337549e-13,1.482783208e-13,2.002890817e-14,8.339848036e-14,1.276408631e-13,8.955319968e-14,8.363156301e-14,5.340032696e-14,1.820358117e-14,4.899415058e-14,1.223757091e-14,2.619339171e-14,3.771993133e-14,9.698116707e-14,8.493471377e-14,3.42050848e-13,1.061025696e-13,6.237976101e-14
0.0390625,2.718909919e-13,1.950479371e-13,3.62967171e-13,1.869029929e-13,6.248667868e-14,1.180190288e-13,2.796433875e-14,3.227953009e-14,9.00355341e-14,7.096738001e-14,3.591917565e-14,8.429037863e-14,2.054190346e-13,1.606085588e-13,1.53214488e-13,1.55121448e-13,2.129203442e-14,8.558995479e-14,1.294245077e-13,9.092441589e-14,8.443491658e-14,5.498940018e-14,1.856243565e-14,5.20032859e-14,1.366013724e-14,2.739846354e-14,3.943748921e-14,1.012432049e-13,8.786273799e-14,3.465655019e-13,1.099582058e-13,6.548258883e-14
0.046875,2.742128699e-13,2.039027737e-13,3.649151791e-13,1.959263392e-13,6.445713315e-14,1.223178915e-13,2.868719567e-14,3.419154064e-14,9.16388658e-14,7.503599897e-14,3.757950029e-14,8.429091554e-14,2.068226279e-13,1.621644609e-13,1.613919255e-13,1.613433622e-13,2.259859516e-14,8.745453087e-14,1.304373878e-13,9.186785878e-14,8.478162047e-14,5.618615852e-14,1.881548e-14,5.494245528e-14,1.525200106e-14,2.870883971e-14,4.100114512e-14,1.051979145e-13,9.024366983e-14,3.496201553e-13,1.135082623e-13,6.835960968e-14
0.0546875,2.755583225e-13,2.121554082e-13,3.651356125e-13,2.045522055e-13,6.628448839e-14,1.261254742e-13,2.93910609e-14,3.609793667e-14,9.288054634e-14,7.910933421e-14,3.947425743e-14,8.405641652e-14,2.068003637e-13,1.62951138e-13,1.693804053e-13,1.668045576e-13,2.396234074e-14,8.892334071e-14,1.307269432e-13,9.235965692e-14,8.468401201e-14,5.702108158e-14,1.897551656e-14,5.786761074e-14,1.693267335e-14,3.015046905e-14,4.250553466e-14,1.091624516e-13,9.221668613e-14,3.504772016e-13,1.16897812e-13,7.098824395e-14
0.0625,2.757331716e-13,2.196807805e-13,3.632413898e-13,2.126680479e-13,6.796060691e-14,1.291247358e-13,3.010430914e-14,3.79690859e-14,9.381133448e-14,8.316047751e-14,4.134898537e-14,8.355411444e-14,2.054581755e-13,1.627141956e-13,1.768603025e-13,1.712808675e-13,2.537050706e-14,8.991633119e-14,1.304016166e-13,9.236944673e-14,8.423546477e-14,5.748554025e-14,1.900955726e-14,6.083878196e-14,1.873198047e-14,3.173609397e-14,4.399715063e-14,1.129018194e-13,9.380136045e-14,3.492754779e-13,1.202372244e-13,7.337942416e-14
0.0703125,2.751815451e-13,2.263518983e-13,3.600142076e-13,2.200268854e-13,6.93398697e-14,1.314688466e-13,3.088793885e-14,3.980810548e-14,9.464966626e-14,8.732592204e-14,4.317197134e-14,8.306764514e-14,2.031485603e-13,1.616211242e-13,1.836768144e-13,1.746896651e-13,2.683461429e-14,9.06160249e-14,1.297107437e-13,9.184510158e-14,8.349339155e-14,5.763773957e-14,1.895970548e-14,6.399815388e-14,2.072555325e-14,3.350066726e-14,4.540413499e-14,1.167595726e-13,9.484887862e-14,3.467422018e-13,1.234528847e-13,7.561699102e-14
0.078125,2.741820077e-13,2.321206088e-13,3.561121717e-13,2.264697129e-13,7.036935089e-14,1.333271995e-13,3.17378543e-14,4.166074424e-14,9.548938208e-14,9.172396372e-14,4.496651912e-14,8.265923313e-14,2.001816382e-13,1.599080281e-13,1.899146915e-13,1.77183035e-13,2.837191189e-14,9.109940922e-14,1.287379764e-13,9.086340786e-14,8.233443676e-14,5.761490371e-14,1.89194994e-14,6.740341687e-14,2.296394291e-14,3.539017027e-14,4.664344646e-14,1.211308032e-13,9.537498038e-14,3.429643907e-13,1.26317741e-13,7.792484632e-14
0.0859375,2.726515926e-13,2.370709256e-13,3.513955009e-13,2.319846324e-13,7.106843084e-14,1.345867725e-13,3.265336788e-14,4.342374652e-14,9.629959921e-14,9.606972235e-14,4.668237628e-14,8.220687097e-14,1.967206856e-13,1.575124845e-13,1.951501042e-13,1.784555549e-13,3.002191116e-14,9.1217812e-14,1.27516203e-13,8.9594412e-14,8.085129375e-14,5.752603465e-14,1.890334266e-14,7.09783235e-14,2.543805888e-14,3.740777544e-14,4.777278361e-14,1.254442904e-13,9.562522358e-14,3.379358371e-13,1.289333791e-13,8.056932709e-14
0.09375,2.707735928e-13,2.411432127e-13,3.460485965e-13,2.363736072e-13,7.139975375e-14,1.351478093e-13,3.363569764e-14,4.511546262e-14,9.728833348e-14,1.003886352e-13,4.842565089e-14,8.178199754e-14,1.928802234e-13,1.543317475e-13,1.991927186e-13,1.782612485e-13,3.175122928e-14,9.08018248e-14,1.260353974e-13,8.799606033e-14,7.926118895e-14,5.744308242e-14,1.896883743e-14,7.458898675e-14,2.799201147e-14,3.962001507e-14,4.889810301e-14,1.296687736e-13,9.572412226e-14,3.316919338e-13,1.313972431e-13,8.378039675e-14
0.1015625,2.685672709e-13,2.443133839e-13,3.398344439e-13,2.39511808e-13,7.158727692e-14,1.349855473e-13,3.48306739e-14,4.688274493e-14,9.851162628e-14,1.048927318e-13,5.023825413e-14,8.139393492e-14,1.885322864e-13,1.506079147e-13,2.028189511e-13,1.772582383e-13,3.357294258e-14,8.99987699e-14,1.243352278e-13,8.614301938e-14,7.765196957e-14,5.735637679e-14,1.920697844e-14,7.808903861e-14,3.047463115e-14,4.206140407e-14,4.997389914e-14,1.341716662e-13,9.570389449e-14,3.246234892e-13,1.336621594e-13,8.764963225e-14
0.109375,2.658874045e-13,2.467879819e-13,3.323192819e-13,2.415531139e-13,7.188158317e-14,1.339760861e-13,3.635694412e-14,4.868093318e-14,9.978182238e-14,1.09421728e-13,5.216802611e-14,8.100539621e-14,1.835034735e-13,1.464624702e-13,2.060457376e-13,1.756638203e-13,3.559931384e-14,8.899164156e-14,1.225350224e-13,8.433892371e-14,7.613131669e-14,5.715928006e-14,1.95540353e-14,8.153884513e-14,3.297841431e-14,4.483427265e-14,5.101957092e-14,1.384041647e-13,9.561123173e-14,3.168386655e-13,1.359516614e-13,9.207668269e-14
0.1171875,2.627460232e-13,2.484070445e-13,3.236901751e-13,2.424456281e-13,7.227842191e-14,1.320537719e-13,3.820070346e-14,5.046954847e-14,1.010729003e-13,1.141665993e-13,5.42842473e-14,8.065717561e-14,1.777126008e-13,1.416495583e-13,2.081036604e-13,1.732163124e-13,3.782358713e-14,8.77524426e-14,1.206425571e-13,8.255447589e-14,7.471578635e-14,5.674792777e-14,1.992413133e-14,8.521253039e-14,3.544177159e-14,4.79494413e-14,5.206455961e-14,1.42047757e-13,9.529664768e-14,3.081994924e-13,1.382801853e-13,9.700805415e-14
0.125,2.590924788e-13,2.489065935e-13,3.140751324e-13,2.419529359e-13,7.279033411e-14,1.294297216e-13,4.044816567e-14,5.22452371e-14,1.022845555e-13,1.192109229e-13,5.655148157e-14,8.031772135e-14,1.710078733e-13,1.362961337e-13,2.091398055e-13,1.70319936e-13,4.03081825e-14,8.654047784e-14,1.18776218e-13,8.069713145e-14,7.335266155e-14,5.602938294e-14,2.034797479e-14,8.918235237e-14,3.761829613e-14,5.132048074e-14,5.299231027e-14,1.454070215e-13,9.463746581e-14,2.993982994e-13,1.404612539e-13,1.022955604e-13
0.1328125,2.551239591e-13,2.484452051e-13,3.039572311e-13,2.401212981e-13,7.337321102e-14,1.26310636e-13,4.308019332e-14,5.395009641e-14,1.033221327e-13,1.241102657e-13,5.909209084e-14,8.004364563e-14,1.635130317e-13,1.307707098e-13,2.095384167e-13,1.670798304e-13,4.312915087e-14,8.556030087e-14,1.171982565e-13,7.897795702e-14,7.205987229e-14,5.498615598e-14,2.085472955e-14,9.324125128e-14,3.969882303e-14,5.480819234e-14,5.381097352e-14,1.485200652e-13,9.38337613e-14,2.908550179e-13,1.425817588e-13,1.075930463e-13
0.140625,2.511869508e-13,2.472619184e-13,2.939464762e-13,2.371978242e-13,7.395453482e-14,1.226807279e-13,4.605340989e-14,5.555837171e-14,1.044291258e-13,1.288790431e-13,6.192994976e-14,8.00331986e-14,1.558104313e-13,1.251774714e-13,2.088806276e-13,1.632076372e-13,4.624674529e-14,8.477939931e-14,1.162104671e-13,7.743759999e-14,7.093289094e-14,5.381062652e-14,2.143115888e-14,9.736307896e-14,4.188869144e-14,5.824938924e-14,5.469927514e-14,1.515777073e-13,9.318950244e-14,2.828110558e-13,1.448222942e-13,1.129746934e-13
0.1484375,2.472837257e-13,2.454439396e-13,2.840135148e-13,2.332062156e-13,7.451742247e-14,1.18494774e-13,4.943500096e-14,5.704925545e-14,1.057659203e-13,1.3377694e-13,6.485336177e-14,8.036281615e-14,1.483043612e-13,1.195471869e-13,2.068307424e-13,1.587776082e-13,4.967802006e-14,8.428131441e-14,1.159790501e-13,7.592274825e-14,7.004359376e-14,5.269750435e-14,2.212692253e-14,1.017673223e-13,4.410105508e-14,6.158503218e-14,5.58035349e-14,1.550357157e-13,9.285471837e-14,2.758535351e-13,1.473105221e-13,1.186541982e-13
0.15625,2.433510468e-13,2.429172206e-13,2.741875834e-13,2.279690447e-13,7.500071409e-14,1.139007e-13,5.3244384e-14,5.84183372e-14,1.073010891e-13,1.386413458e-13,6.793704057e-14,8.097546135e-14,1.411048279e-13,1.139348691e-13,2.036811127e-13,1.538814093e-13,5.336115419e-14,8.404502989e-14,1.164238737e-13,7.433506212e-14,6.929103397e-14,5.169960451e-14,2.307133557e-14,1.06585127e-13,4.638532668e-14,6.471113693e-14,5.700891643e-14,1.588301137e-13,9.280063759e-14,2.700929008e-13,1.499048619e-13,1.244884532e-13
0.1640625,2.393780374e-13,2.398044797e-13,2.644973912e-13,2.217078714e-13,7.547421215e-14,1.091253462e-13,5.757534649e-14,5.965856848e-14,1.090358825e-13,1.432092226e-13,7.135087638e-14,8.176241613e-14,1.344566684e-13,1.084384122e-13,1.997991929e-13,1.487060646e-13,5.728126939e-14,8.411748822e-14,1.175875547e-13,7.265674186e-14,6.860199835e-14,5.08955185e-14,2.431707732e-14,1.116479432e-13,4.869611562e-14,6.759985724e-14,5.804189815e-14,1.628071938e-13,9.291411508e-14,2.654108274e-13,1.524327896e-13,1.306646602e-13
0.171875,2.355521957e-13,2.364958932e-13,2.552400846e-13,2.148572018e-13,7.601139218e-14,1.0421563e-13,6.245991176e-14,6.072622612e-14,1.109225101e-13,1.474666536e-13,7.498455492e-14,8.266372445e-14,1.284431211e-13,1.032056712e-13,1.951927728e-13,1.43573547e-13,6.156405036e-14,8.464399041e-14,1.195551044e-13,7.112162515e-14,6.804121978e-14,5.032670169e-14,2.585244252e-14,1.166521606e-13,5.079188599e-14,7.034906577e-14,5.884201392e-14,1.668635555e-13,9.32947146e-14,2.617939856e-13,1.549884118e-13,1.37597134e-13
0.1796875,2.321640475e-13,2.331168766e-13,2.4713994e-13,2.073052345e-13,7.661729836e-14,9.92982067e-14,6.794201993e-14,6.159838833e-14,1.129384169e-13,1.513567972e-13,7.900521251e-14,8.365467628e-14,1.22879897e-13,9.834761847e-14,1.898792779e-13,1.38698608e-13,6.635661401e-14,8.571677975e-14,1.223048584e-13,6.992314622e-14,6.762639913e-14,4.996445479e-14,2.773472323e-14,1.215779921e-13,5.266800963e-14,7.293376807e-14,5.946452045e-14,1.70505081e-13,9.417318891e-14,2.599309852e-13,1.574784443e-13,1.453041043e-13
0.1875,2.289574152e-13,2.29490778e-13,2.398976337e-13,1.988832747e-13,7.740424686e-14,9.452762227e-14,7.409964753e-14,6.231427144e-14,1.150170965e-13,1.546832994e-13,8.389055057e-14,8.459414856e-14,1.176319863e-13,9.382735144e-14,1.841878451e-13,1.341569068e-13,7.170370371e-14,8.74647916e-14,1.257866866e-13,6.900251648e-14,6.727162183e-14,4.976870857e-14,2.997495273e-14,1.265020679e-13,5.438002905e-14,7.537085464e-14,5.987158861e-14,1.734550289e-13,9.545086132e-14,2.602824372e-13,1.597348779e-13,1.536587584e-13
0.1953125,2.255958931e-13,2.254310615e-13,2.327442849e-13,1.898364681e-13,7.840313193e-14,8.974929615e-14,8.070705322e-14,6.298531283e-14,1.170647343e-13,1.574917893e-13,8.953853211e-14,8.540228829e-14,1.125642796e-13,8.952312458e-14,1.782385795e-13,1.300085403e-13,7.731642664e-14,8.990115853e-14,1.298700582e-13,6.837245727e-14,6.690129668e-14,4.965431305e-14,3.246662938e-14,1.312976229e-13,5.591240883e-14,7.762987667e-14,6.004216489e-14,1.756148064e-13,9.707731446e-14,2.624949509e-13,1.617404812e-13,1.624552351e-13
0.203125,2.221714124e-13,2.210958122e-13,2.258427192e-13,1.803889107e-13,7.965029315e-14,8.504345356e-14,8.764648037e-14,6.369145778e-14,1.19141239e-13,1.597791266e-13,9.563086311e-14,8.608241548e-14,1.077075173e-13,8.553558512e-14,1.721610264e-13,1.264958687e-13,8.307869286e-14,9.303533633e-14,1.345991674e-13,6.802397232e-14,6.656154301e-14,4.966280358e-14,3.514348486e-14,1.360573123e-13,5.74674887e-14,7.947837484e-14,5.996677196e-14,1.771963832e-13,9.916607448e-14,2.668704784e-13,1.634789285e-13,1.713507045e-13
0.2109375,2.187864459e-13,2.168704805e-13,2.19514436e-13,1.708325061e-13,8.12418279e-14,8.06067117e-14,9.500910285e-14,6.433048079e-14,1.211751993e-13,1.613040942e-13,1.02314298e-13,8.659590056e-14,1.032319336e-13,8.203043724e-14,1.662488398e-13,1.236771649e-13,8.914528108e-14,9.68941705e-14,1.400935969e-13,6.793153444e-14,6.629591758e-14,4.988938055e-14,3.804657639e-14,1.40989729e-13,5.906908484e-14,8.089959285e-14,5.967248651e-14,1.785290694e-13,1.016898674e-13,2.732125412e-13,1.651619121e-13,1.800549719e-13
0.21875,2.154143106e-13,2.127352892e-13,2.136229549e-13,1.61599772e-13,8.306483404e-14,7.630758834e-14,1.026547099e-13,6.477130925e-14,1.23073467e-13,1.620278538e-13,1.096268032e-13,8.696221757e-14,9.919490677e-14,7.890726791e-14,1.603543699e-13,1.21338289e-13,9.535134147e-14,1.013490278e-13,1.462054203e-13,6.808251311e-14,6.599965261e-14,5.032118532e-14,4.11843443e-14,1.457622668e-13,6.055205349e-14,8.192109808e-14,5.921278233e-14,1.793347694e-13,1.047793492e-13,2.808361029e-13,1.669072292e-13,1.883806105e-13
0.2265625,2.11909315e-13,2.084896175e-13,2.079226336e-13,1.528198819e-13,8.503037425e-14,7.22360656e-14,1.104453704e-13,6.502283604e-14,1.248724778e-13,1.619512527e-13,1.175730008e-13,8.709116727e-14,9.554157372e-14,7.603625258e-14,1.54408465e-13,1.193944187e-13,1.015592831e-13,1.061862213e-13,1.527581376e-13,6.828564729e-14,6.561453444e-14,5.093875546e-14,4.447840147e-14,1.499935293e-13,6.19766354e-14,8.23977452e-14,5.852661063e-14,1.797141377e-13,1.084379299e-13,2.900937574e-13,1.684651134e-13,1.962980047e-13
0.234375,2.082339689e-13,2.042048392e-13,2.024009151e-13,1.444268473e-13,8.714153423e-14,6.845132822e-14,1.183406035e-13,6.508774327e-14,1.264421694e-13,1.610346782e-13,1.261713724e-13,8.688111979e-14,9.215581958e-14,7.346613496e-14,1.485948556e-13,1.177631338e-13,1.077886296e-13,1.113707674e-13,1.597259355e-13,6.858211641e-14,6.521797093e-14,5.171637867e-14,4.788955922e-14,1.539715599e-13,6.347155923e-14,8.244845025e-14,5.77241043e-14,1.799452177e-13,1.125470766e-13,3.014970632e-13,1.698150432e-13,2.037950776e-13
0.2421875,2.044016142e-13,1.998390057e-13,1.974107731e-13,1.364654701e-13,8.923858382e-14,6.47749413e-14,1.261826003e-13,6.501713169e-14,1.277546524e-13,1.594532527e-13,1.350193935e-13,8.637589307e-14,8.90951953e-14,7.114087057e-14,1.428298447e-13,1.162777102e-13,1.138599168e-13,1.169795599e-13,1.668774638e-13,6.906135541e-14,6.46618734e-14,5.271539599e-14,5.14000014e-14,1.579602008e-13,6.520504692e-14,8.213267796e-14,5.691681755e-14,1.798729296e-13,1.171948149e-13,3.147162686e-13,1.709234501e-13,2.10773516e-13
0.25,2.000524877e-13,1.951517116e-13,1.928199802e-13,1.288804764e-13,9.119521902e-14,6.129432354e-14,1.339658463e-13,6.48931933e-14,1.287560693e-13,1.570926648e-13,1.439228968e-13,8.541397261e-14,8.62290508e-14,6.886457679e-14,1.371392177e-13,1.149594483e-13,1.196924559e-13,1.229008052e-13,1.738742222e-13,6.948787679e-14,6.377146949e-14,5.392817707e-14,5.494686614e-14,1.616011798e-13,6.720767908e-14,8.136077609e-14,5.596211438e-14,1.795018126e-13,1.222524286e-13,3.286903124e-13,1.715331167e-13,2.170189102e-13
0.2578125,1.950953123e-13,1.902140851e-13,1.88058345e-13,1.216050449e-13,9.299315251e-14,5.803002407e-14,1.417007265e-13,6.472988697e-14,1.29186718e-13,1.537355067e-13,1.530128174e-13,8.392085762e-14,8.32654468e-14,6.668834163e-14,1.317761185e-13,1.137888147e-13,1.252241862e-13,1.290655293e-13,1.806136577e-13,6.988915211e-14,6.264949337e-14,5.518508716e-14,5.849471777e-14,1.646857543e-13,6.947071912e-14,8.030746639e-14,5.496405783e-14,1.78929221e-13,1.274380251e-13,3.430222759e-13,1.718160498e-13,2.220827573e-13
0.265625,1.899023026e-13,1.851255e-13,1.833593142e-13,1.147529181e-13,9.453175624e-14,5.493123515e-14,1.49094508e-13,6.457231956e-14,1.291212008e-13,1.49602705e-13,1.623180733e-13,8.208367423e-14,8.037365192e-14,6.470840169e-14,1.267852641e-13,1.125279269e-13,1.30174965e-13,1.353564014e-13,1.868010022e-13,7.035655406e-14,6.120479727e-14,5.649716257e-14,6.202798968e-14,1.675026143e-13,7.19931019e-14,7.894938203e-14,5.405030181e-14,1.781558742e-13,1.325029794e-13,3.578797658e-13,1.718722809e-13,2.256698501e-13
0.2734375,1.845153299e-13,1.7967407e-13,1.790188066e-13,1.08479085e-13,9.56195295e-14,5.207679746e-14,1.560870981e-13,6.441537882e-14,1.2876157e-13,1.446398452e-13,1.7157681e-13,7.989398418e-14,7.770749234e-14,6.281810649e-14,1.220573024e-13,1.111855018e-13,1.345361238e-13,1.416205254e-13,1.92221792e-13,7.06304527e-14,5.933643104e-14,5.796225739e-14,6.553122966e-14,1.700967381e-13,7.463436153e-14,7.703720878e-14,5.314630791e-14,1.772732653e-13,1.374294039e-13,3.732182534e-13,1.713532086e-13,2.276514044e-13
0.28125,1.788826291e-13,1.739407342e-13,1.750693826e-13,1.029897237e-13,9.614207534e-14,4.934497655e-14,1.628367936e-13,6.438134213e-14,1.283140411e-13,1.389347081e-13,1.801335482e-13,7.737204138e-14,7.543408702e-14,6.09644655e-14,1.176106467e-13,1.09839058e-13,1.384386238e-13,1.479395597e-13,1.971730503e-13,7.052610497e-14,5.718020314e-14,5.973717616e-14,6.900693036e-14,1.721541079e-13,7.771840215e-14,7.45420222e-14,5.226346863e-14,1.768180476e-13,1.424764805e-13,3.886495671e-13,1.70228696e-13,2.279729368e-13
0.2890625,1.729738481e-13,1.680747761e-13,1.715737859e-13,9.82140264e-14,9.620496648e-14,4.667437592e-14,1.692734077e-13,6.462440804e-14,1.280302645e-13,1.329799478e-13,1.876495472e-13,7.463692812e-14,7.375502128e-14,5.906966106e-14,1.134645891e-13,1.084441925e-13,1.418453234e-13,1.541912271e-13,2.017245597e-13,7.012387819e-14,5.477017816e-14,6.19602976e-14,7.238898101e-14,1.73396351e-13,8.14936284e-14,7.161571592e-14,5.133743852e-14,1.770714761e-13,1.474168696e-13,4.033257136e-13,1.686465868e-13,2.270728784e-13
0.296875,1.666850277e-13,1.618512586e-13,1.681562083e-13,9.395984092e-14,9.593002304e-14,4.408085262e-14,1.75387627e-13,6.501891413e-14,1.278523907e-13,1.266381727e-13,1.94102394e-13,7.16774731e-14,7.243175522e-14,5.712606948e-14,1.095879079e-13,1.072203388e-13,1.449195446e-13,1.601483689e-13,2.056994888e-13,6.962172168e-14,5.218926687e-14,6.451889061e-14,7.560963561e-14,1.738145536e-13,8.560927069e-14,6.840052506e-14,5.033531983e-14,1.779556984e-13,1.51925474e-13,4.175209485e-13,1.665120865e-13,2.253620928e-13
0.3046875,1.6021441e-13,1.552734943e-13,1.650234757e-13,9.03776232e-14,9.54024348e-14,4.144941112e-14,1.814391283e-13,6.546012121e-14,1.277684423e-13,1.199670553e-13,1.993534787e-13,6.851949614e-14,7.14287945e-14,5.522994896e-14,1.059038629e-13,1.063483177e-13,1.478821842e-13,1.65901458e-13,2.091564781e-13,6.895308208e-14,4.953660145e-14,6.743392616e-14,7.872403986e-14,1.738015632e-13,9.008074386e-14,6.50113197e-14,4.931427127e-14,1.794507261e-13,1.562145389e-13,4.311377612e-13,1.637963758e-13,2.229608581e-13
0.3125,1.535408715e-13,1.484681099e-13,1.624374964e-13,8.741272909e-14,9.4801146e-14,3.890545841e-14,1.877487125e-13,6.584028438e-14,1.278394893e-13,1.13400372e-13,2.034233266e-13,6.520023495e-14,7.083513169e-14,5.330545334e-14,1.021753106e-13,1.059329585e-13,1.509604401e-13,1.717693327e-13,2.123811122e-13,6.79529912e-14,4.685681315e-14,7.078690735e-14,8.172081319e-14,1.735362285e-13,9.513649378e-14,6.174775417e-14,4.821657732e-14,1.815312415e-13,1.601084723e-13,4.433570322e-13,1.606041275e-13,2.200366144e-13
0.3203125,1.465792687e-13,1.414385886e-13,1.603492664e-13,8.4884127e-14,9.426020313e-14,3.656563573e-14,1.942303308e-13,6.611190185e-14,1.280335967e-13,1.0681874e-13,2.064678646e-13,6.176657146e-14,7.059178247e-14,5.137356932e-14,9.839225009e-14,1.05995571e-13,1.543623507e-13,1.777049437e-13,2.154545814e-13,6.689995865e-14,4.42455877e-14,7.453442276e-14,8.452167945e-14,1.729210579e-13,1.007483896e-13,5.887464237e-14,4.703582957e-14,1.848736318e-13,1.630664333e-13,4.557034244e-13,1.570910438e-13,2.166497866e-13
0.328125,1.396240021e-13,1.344052829e-13,1.589003661e-13,8.288951217e-14,9.387695747e-14,3.428521234e-14,2.003986113e-13,6.65189748e-14,1.284755624e-13,1.002500104e-13,2.090684461e-13,5.827152983e-14,7.078364177e-14,4.946388006e-14,9.493596061e-14,1.060383768e-13,1.576825888e-13,1.830629218e-13,2.176820812e-13,6.598875959e-14,4.168393534e-14,7.877040146e-14,8.722672806e-14,1.725640684e-13,1.06852612e-13,5.64469591e-14,4.593030605e-14,1.89439313e-13,1.651644012e-13,4.683894001e-13,1.536313724e-13,2.128874677e-13
0.3359375,1.324529976e-13,1.274725941e-13,1.576758349e-13,8.144008621e-14,9.361768752e-14,3.224430771e-14,2.061062831e-13,6.718844891e-14,1.29108001e-13,9.390904231e-14,2.108624435e-13,5.463232701e-14,7.127875127e-14,4.740731364e-14,9.17313531e-14,1.057815622e-13,1.604605026e-13,1.874355803e-13,2.186953179e-13,6.497588525e-14,3.915364239e-14,8.354793935e-14,8.99433319e-14,1.725847344e-13,1.134555503e-13,5.443060247e-14,4.496999246e-14,1.94530649e-13,1.667617288e-13,4.792803118e-13,1.505185717e-13,2.088664104e-13
0.34375,1.249617862e-13,1.205656633e-13,1.568521208e-13,8.044569724e-14,9.348887026e-14,3.029147854e-14,2.110701885e-13,6.803788455e-14,1.297781339e-13,8.78173288e-14,2.119612097e-13,5.080234163e-14,7.195882276e-14,4.520823549e-14,8.8669355e-14,1.052637138e-13,1.625279007e-13,1.908378723e-13,2.188404671e-13,6.396352809e-14,3.669759099e-14,8.886507105e-14,9.249113298e-14,1.730828973e-13,1.202108519e-13,5.277738716e-14,4.403963818e-14,2.010677329e-13,1.67888217e-13,4.886067613e-13,1.477597487e-13,2.04546137e-13
0.3515625,1.174720606e-13,1.137937331e-13,1.574793613e-13,7.979554593e-14,9.355261216e-14,2.859184272e-14,2.153381616e-13,6.902474257e-14,1.304676231e-13,8.199748301e-14,2.127237793e-13,4.69225522e-14,7.301727727e-14,4.298573905e-14,8.588446486e-14,1.043041522e-13,1.639454051e-13,1.934024742e-13,2.183996052e-13,6.295666191e-14,3.431727671e-14,9.458649868e-14,9.472183878e-14,1.744254408e-13,1.26908003e-13,5.15110251e-14,4.303400247e-14,2.087324963e-13,1.681495833e-13,4.980641953e-13,1.453272961e-13,1.998637817e-13
0.359375,1.101157108e-13,1.071911091e-13,1.600001914e-13,7.929819222e-14,9.370518234e-14,2.73872933e-14,2.188646412e-13,7.002469243e-14,1.310052797e-13,7.63963671e-14,2.131065912e-13,4.315114822e-14,7.439993309e-14,4.078103126e-14,8.338313695e-14,1.027969079e-13,1.647911124e-13,1.951035092e-13,2.172472103e-13,6.177151754e-14,3.212292186e-14,1.004743896e-13,9.667030714e-14,1.762777388e-13,1.338966308e-13,5.058337954e-14,4.199711315e-14,2.176064038e-13,1.6729593e-13,5.084734967e-13,1.431619651e-13,1.946857227e-13
0.3671875,1.029116079e-13,1.007128199e-13,1.645594341e-13,7.887874097e-14,9.376607685e-14,2.661960465e-14,2.21760861e-13,7.081276016e-14,1.312290474e-13,7.115800314e-14,2.124402022e-13,3.954028069e-14,7.601184534e-14,3.862389103e-14,8.075670449e-14,1.008548379e-13,1.651109665e-13,1.959426184e-13,2.15778427e-13,6.038747173e-14,3.017260043e-14,1.065195875e-13,9.838179035e-14,1.778494628e-13,1.410391567e-13,4.977149571e-14,4.091350166e-14,2.278871575e-13,1.655015389e-13,5.210992259e-13,1.410037878e-13,1.889430747e-13
0.375,9.604735865e-14,9.448075952e-14,1.709534478e-13,7.855663792e-14,9.394118799e-14,2.633481724e-14,2.244554465e-13,7.121742759e-14,1.310754575e-13,6.627745929e-14,2.113717937e-13,3.610976244e-14,7.787520598e-14,3.658709721e-14,7.815909017e-14,9.870408637e-14,1.651775209e-13,1.963751951e-13,2.141730327e-13,5.898098146e-14,2.841667403e-14,1.126879887e-13,9.992675498e-14,1.797605214e-13,1.478510196e-13,4.929745897e-14,3.969199015e-14,2.388560967e-13,1.627164077e-13,5.362567783e-13,1.388566664e-13,1.829435756e-13
0.3828125,8.949142229e-14,8.857020714e-14,1.79037287e-13,7.823654234e-14,9.432993418e-14,2.660433521e-14,2.27153801e-13,7.115634077e-14,1.303174661e-13,6.158378873e-14,2.09882339e-13,3.295792577e-14,7.970657476e-14,3.476410715e-14,7.566030432e-14,9.675775621e-14,1.656956542e-13,1.964920488e-13,2.122357873e-13,5.756671274e-14,2.695754706e-14,1.186792598e-13,1.014467896e-13,1.820994934e-13,1.544952758e-13,4.922267917e-14,3.830274054e-14,2.506001858e-13,1.587131478e-13,5.540366877e-13,1.368868881e-13,1.767610423e-13
0.390625,8.318094387e-14,8.300556471e-14,1.882528663e-13,7.782360088e-14,9.501134915e-14,2.762042679e-14,2.295848655e-13,7.062782612e-14,1.288943405e-13,5.713729857e-14,2.080668336e-13,3.01903649e-14,8.103809508e-14,3.322216427e-14,7.338095019e-14,9.499378881e-14,1.66500088e-13,1.955293654e-13,2.095155378e-13,5.618020741e-14,2.582807008e-14,1.243573414e-13,1.031159746e-13,1.843672148e-13,1.608201421e-13,4.957713101e-14,3.679165318e-14,2.630211657e-13,1.535086667e-13,5.734940299e-13,1.353446321e-13,1.706452137e-13
0.3984375,7.714802383e-14,7.797143675e-14,1.981733866e-13,7.737413079e-14,9.599558057e-14,2.950640303e-14,2.319422212e-13,6.972701724e-14,1.270784816e-13,5.304919887e-14,2.063044871e-13,2.776732972e-14,8.187464305e-14,3.197764756e-14,7.158042482e-14,9.342057921e-14,1.6752504e-13,1.936698528e-13,2.058800995e-13,5.498555756e-14,2.497636002e-14,1.298759049e-13,1.050798563e-13,1.863657909e-13,1.66562694e-13,5.03732879e-14,3.520954974e-14,2.755324645e-13,1.47688521e-13,5.944285668e-13,1.342850127e-13,1.648145137e-13
0.40625,7.149790968e-14,7.375601852e-14,2.091556179e-13,7.709467014e-14,9.731093882e-14,3.203972427e-14,2.345491272e-13,6.863675628e-14,1.251086236e-13,4.931212558e-14,2.047430758e-13,2.558138726e-14,8.256434828e-14,3.09364379e-14,7.005137142e-14,9.228547651e-14,1.694851616e-13,1.914695841e-13,2.017135212e-13,5.43402084e-14,2.437706644e-14,1.354919748e-13,1.073762683e-13,1.878541727e-13,1.721613553e-13,5.167120679e-14,3.356742542e-14,2.893987424e-13,1.416482503e-13,6.193372604e-13,1.338448859e-13,1.593297598e-13
0.4140625,6.622672764e-14,7.028284084e-14,2.211960573e-13,7.695747007e-14,9.91410662e-14,3.524835677e-14,2.372105528e-13,6.755155628e-14,1.229617e-13,4.590313922e-14,2.041592191e-13,2.359721443e-14,8.305418528e-14,2.996165144e-14,6.876219104e-14,9.128330357e-14,1.720116924e-13,1.885329258e-13,1.971092062e-13,5.433090905e-14,2.395019128e-14,1.411862481e-13,1.099349444e-13,1.8914181e-13,1.7741891e-13,5.348567487e-14,3.189140745e-14,3.050121964e-13,1.35393262e-13,6.485710143e-13,1.343720818e-13,1.542146705e-13
0.421875,6.127190575e-14,6.747150557e-14,2.344217007e-13,7.666709289e-14,1.016814803e-13,3.922430157e-14,2.396230108e-13,6.650106318e-14,1.207191994e-13,4.273028181e-14,2.051036226e-13,2.194590179e-14,8.326162497e-14,2.919383908e-14,6.81334287e-14,9.004491105e-14,1.747032075e-13,1.849209454e-13,1.919640333e-13,5.508197883e-14,2.379469529e-14,1.469638793e-13,1.128470949e-13,1.910528351e-13,1.821228574e-13,5.573198123e-14,3.036336881e-14,3.221946926e-13,1.291020965e-13,6.81825446e-13,1.358349367e-13,1.496041975e-13
0.4296875,5.685815606e-14,6.545855691e-14,2.494681414e-13,7.620925973e-14,1.047241163e-13,4.412449592e-14,2.417676498e-13,6.551224213e-14,1.18655119e-13,3.972053418e-14,2.070402321e-13,2.070224222e-14,8.365341601e-14,2.87756322e-14,6.819161148e-14,8.851622273e-14,1.778257065e-13,1.812592685e-13,1.869617657e-13,5.659264798e-14,2.399432561e-14,1.531644485e-13,1.162585918e-13,1.929383909e-13,1.869728081e-13,5.80853126e-14,2.902173578e-14,3.424878756e-13,1.230500519e-13,7.217371755e-13,1.378404328e-13,1.453816407e-13
0.4375,5.305862251e-14,6.410855194e-14,2.668998877e-13,7.565070497e-14,1.083320295e-13,4.988212049e-14,2.437020731e-13,6.458344942e-14,1.168430663e-13,3.693487732e-14,2.101568457e-13,1.972120241e-14,8.450182978e-14,2.857003581e-14,6.885826317e-14,8.656210916e-14,1.808509411e-13,1.774327594e-13,1.824819797e-13,5.867038196e-14,2.439150956e-14,1.597990653e-13,1.201518363e-13,1.945736314e-13,1.913241938e-13,6.064632006e-14,2.769969474e-14,3.653249691e-13,1.170870344e-13,7.685746846e-13,1.40481573e-13,1.417466556e-13
0.4453125,4.945330304e-14,6.309469518e-14,2.860415669e-13,7.481815007e-14,1.12771044e-13,5.621673071e-14,2.455693603e-13,6.365265382e-14,1.149242442e-13,3.434558303e-14,2.144422858e-13,1.883761104e-14,8.535552945e-14,2.837980974e-14,7.002474618e-14,8.424782486e-14,1.838804038e-13,1.733493577e-13,1.781071632e-13,6.138988198e-14,2.494976412e-14,1.663394569e-13,1.245182615e-13,1.966772667e-13,1.949115868e-13,6.352705026e-14,2.636934987e-14,3.896192047e-13,1.112098348e-13,8.20569917e-13,1.440319448e-13,1.387228543e-13
0.453125,4.603532792e-14,6.265570582e-14,3.055850414e-13,7.398884455e-14,1.178575243e-13,6.309376166e-14,2.479421328e-13,6.280439027e-14,1.127103456e-13,3.191709552e-14,2.201763287e-13,1.803926783e-14,8.605013163e-14,2.819917488e-14,7.197567816e-14,8.211990481e-14,1.879018268e-13,1.694928125e-13,1.738985246e-13,6.499753176e-14,2.57974368e-14,1.726976872e-13,1.294633373e-13,1.987826147e-13,1.984194195e-13,6.648539739e-14,2.520930648e-14,4.161957552e-13,1.058978515e-13,8.786436916e-13,1.481547582e-13,1.36050092e-13
0.4609375,4.305435074e-14,6.293966835e-14,3.253875013e-13,7.334794307e-14,1.232017142e-13,7.056610893e-14,2.511833754e-13,6.205704598e-14,1.102250215e-13,2.961617001e-14,2.27008584e-13,1.733959696e-14,8.671928382e-14,2.807111915e-14,7.461012707e-14,8.052434954e-14,1.929149012e-13,1.657531472e-13,1.70058775e-13,6.951940635e-14,2.687323478e-14,1.789648047e-13,1.350120075e-13,1.999532819e-13,2.013208003e-13,6.939686731e-14,2.421347403e-14,4.439056177e-13,1.012122305e-13,9.43681932e-13,1.525255295e-13,1.336748039e-13
0.46875,4.025638811e-14,6.365054806e-14,3.453181342e-13,7.248017251e-14,1.288343555e-13,7.817046309e-14,2.547169475e-13,6.135803839e-14,1.073320498e-13,2.739433311e-14,2.340838736e-13,1.681947825e-14,8.705614937e-14,2.797944652e-14,7.751481392e-14,7.91380251e-14,1.986297545e-13,1.615941318e-13,1.659731341e-13,7.5286753e-14,2.818522872e-14,1.847979612e-13,1.411431273e-13,1.998543266e-13,2.034803446e-13,7.251992094e-14,2.327097061e-14,4.718588425e-13,9.655082158e-14,1.01481594e-12,1.57258196e-13,1.316735093e-13
0.4765625,3.757184196e-14,6.498035838e-14,3.639938952e-13,7.149220112e-14,1.347613087e-13,8.568365847e-14,2.584536854e-13,6.07558295e-14,1.038807987e-13,2.531132087e-14,2.420191002e-13,1.658257885e-14,8.677954901e-14,2.796075515e-14,8.112371844e-14,7.788549126e-14,2.053857538e-13,1.570671853e-13,1.611564054e-13,8.253401384e-14,2.980950111e-14,1.898892585e-13,1.479016095e-13,1.982994032e-13,2.0499274e-13,7.57715266e-14,2.24488032e-14,4.998583851e-13,9.197377499e-14,1.090883187e-12,1.623537624e-13,1.297885996e-13
0.484375,3.516675028e-14,6.721491676e-14,3.805304511e-13,7.069650891e-14,1.40563522e-13,9.354498631e-14,2.627780798e-13,6.020311903e-14,1.000076395e-13,2.337889186e-14,2.511804929e-13,1.665719321e-14,8.605812004e-14,2.812008578e-14,8.547839869e-14,7.694722618e-14,2.135577446e-13,1.524161686e-13,1.556510863e-13,9.151635409e-14,3.168699313e-14,1.944070298e-13,1.553679443e-13,1.955948374e-13,2.049464841e-13,7.880619487e-14,2.193551399e-14,5.274384324e-13,8.792104234e-14,1.171944481e-12,1.677251434e-13,1.278050572e-13
0.4921875,3.30833581e-14,7.01847934e-14,3.952151537e-13,7.008155658e-14,1.459677267e-13,1.015648049e-13,2.675873301e-13,5.969479685e-14,9.603201648e-14,2.157394135e-14,2.608841264e-13,1.707752193e-14,8.526791339e-14,2.844972133e-14,8.988298674e-14,7.625129834e-14,2.230722064e-13,1.479254806e-13,1.497429618e-13,1.023433643e-13,3.38693325e-14,1.986819722e-13,1.635687529e-13,1.922165678e-13,2.037963565e-13,8.164145146e-14,2.185621696e-14,5.55324642e-13,8.446801658e-14,1.259238805e-12,1.73464882e-13,1.259532767e-13
0.5,3.123987509e-14,7.387971436e-14,4.08687721e-13,6.989434004e-14,1.510806065e-13,1.094136115e-13,2.730921276e-13,5.947187723e-14,9.211499879e-14,1.998437297e-14,2.707112294e-13,1.783324675e-14,8.455625474e-14,2.885532439e-14,9.467963553e-14,7.598422936e-14,2.336367074e-13,1.438272768e-13,1.436178692e-13,1.1458522e-13,3.638734374e-14,2.026479407e-13,1.725682121e-13,1.881679026e-13,2.021570714e-13,8.42230221e-14,2.216091822e-14,5.823178592e-13,8.188638341e-14,1.351341284e-12,1.794621283e-13,1.245265625e-13
0.5078125,2.98899959e-14,7.85577262e-14,4.211778384e-13,7.026347917e-14,1.559483029e-13,1.174727805e-13,2.797923831e-13,5.964821008e-14,8.843854862e-14,1.857514004e-14,2.809614755e-13,1.889730865e-14,8.398221862e-14,2.937735456e-14,9.992475761e-14,7.637574651e-14,2.45416606e-13,1.400962032e-13,1.372932032e-13,1.284568904e-13,3.915743872e-14,2.064019478e-13,1.825930703e-13,1.835028371e-13,1.994883033e-13,8.651082262e-14,2.283870001e-14,6.075270647e-13,8.065287879e-14,1.446936025e-12,1.854937423e-13,1.23674648e-13
0.515625,2.920012189e-14,8.403262229e-14,4.331857062e-13,7.12200285e-14,1.603853207e-13,1.253023166e-13,2.870735682e-13,6.017879501e-14,8.546261972e-14,1.728454966e-14,2.914233429e-13,2.032807683e-14,8.398961605e-14,3.013237748e-14,1.047073891e-13,7.735163859e-14,2.585249499e-13,1.369822668e-13,1.31331519e-13,1.441346123e-13,4.218855228e-14,2.104941167e-13,1.935622037e-13,1.789257708e-13,1.960348858e-13,8.849195012e-14,2.398737703e-14,6.325125992e-13,8.083651682e-14,1.546367115e-12,1.911311287e-13,1.236947808e-13
0.5234375,2.90887758e-14,9.018453166e-14,4.439014577e-13,7.275913995e-14,1.644580717e-13,1.324208798e-13,2.949900517e-13,6.122493896e-14,8.332230592e-14,1.619159482e-14,3.019725796e-13,2.217347607e-14,8.477532851e-14,3.104236786e-14,1.092568383e-13,7.877540677e-14,2.725780856e-13,1.344725754e-13,1.261463621e-13,1.612167775e-13,4.549510128e-14,2.150437645e-13,2.054238882e-13,1.744412614e-13,1.925904869e-13,9.022077664e-14,2.558938665e-14,6.571200306e-13,8.235712747e-14,1.64722784e-12,1.965447949e-13,1.24852888e-13
0.53125,2.94997548e-14,9.682894081e-14,4.522254282e-13,7.456998416e-14,1.683475098e-13,1.390221959e-13,3.036944684e-13,6.289674966e-14,8.189824552e-14,1.529486097e-14,3.125077481e-13,2.446805143e-14,8.612261335e-14,3.212104534e-14,1.140516043e-13,8.041293096e-14,2.871357258e-13,1.320149254e-13,1.214216011e-13,1.797654435e-13,4.913435432e-14,2.198100423e-13,2.182850954e-13,1.696371531e-13,1.887368045e-13,9.175611584e-14,2.761245815e-14,6.799948552e-13,8.515938725e-14,1.746529315e-12,2.018679277e-13,1.271649312e-13
0.5390625,3.046866678e-14,1.038145105e-13,4.578215472e-13,7.667016331e-14,1.720299351e-13,1.448999039e-13,3.128478688e-13,6.505713937e-14,8.122610953e-14,1.452558195e-14,3.225294644e-13,2.721999615e-14,8.807485103e-14,3.340762926e-14,1.186324166e-13,8.237079923e-14,3.02288821e-13,1.295946589e-13,1.170102898e-13,1.997482631e-13,5.296184631e-14,2.247068118e-13,2.320467604e-13,1.648924038e-13,1.844259382e-13,9.314150302e-14,3.009411558e-14,7.012949238e-13,8.921671128e-14,1.842526081e-12,2.070697192e-13,1.305697824e-13
0.546875,3.210551632e-14,1.1136431e-13,4.607101569e-13,7.931997514e-14,1.752373778e-13,1.498143963e-13,3.2234166e-13,6.75365858e-14,8.131252718e-14,1.38942103e-14,3.319759787e-13,3.049329334e-14,9.076038596e-14,3.489776831e-14,1.22436519e-13,8.472543441e-14,3.182602194e-13,1.274023956e-13,1.12908411e-13,2.210299646e-13,5.693234071e-14,2.298590194e-13,2.468056658e-13,1.605855077e-13,1.800711608e-13,9.447387635e-14,3.302446489e-14,7.204181219e-13,9.452583421e-14,1.934304755e-12,2.123232551e-13,1.351521454e-13
0.5546875,3.458030252e-14,1.196468806e-13,4.608101554e-13,8.269894418e-14,1.776819345e-13,1.53718189e-13,3.319944607e-13,7.032030486e-14,8.229011684e-14,1.344529291e-14,3.40838282e-13,3.443233455e-14,9.422765543e-14,3.677891784e-14,1.251911053e-13,8.718394348e-14,3.346467042e-13,1.254074671e-13,1.091990693e-13,2.434348849e-13,6.127950752e-14,2.355097823e-13,2.62746494e-13,1.565450395e-13,1.753535216e-13,9.568135621e-14,3.656681236e-14,7.358082769e-13,1.014712652e-13,2.022014649e-12,2.178580366e-13,1.410179882e-13
0.5625,3.805564534e-14,1.289020366e-13,4.585256466e-13,8.721109193e-14,1.793594963e-13,1.569800454e-13,3.419840017e-13,7.360916059e-14,8.443640656e-14,1.318987757e-14,3.484901615e-13,3.906616887e-14,9.870364666e-14,3.914060263e-14,1.275585887e-13,9.00993825e-14,3.514244577e-13,1.238673973e-13,1.061233772e-13,2.666519358e-13,6.586250636e-14,2.417136488e-13,2.796610377e-13,1.526880828e-13,1.705535837e-13,9.675653159e-14,4.093306685e-14,7.475994449e-13,1.107670744e-13,2.104291057e-12,2.240397696e-13,1.483033006e-13
0.5703125,4.283031765e-14,1.392618819e-13,4.548358876e-13,9.279155628e-14,1.802538928e-13,1.599169858e-13,3.521346209e-13,7.745792021e-14,8.787602635e-14,1.314588124e-14,3.548294539e-13,4.435130453e-14,1.043853723e-13,4.196248739e-14,1.295503198e-13,9.363011658e-14,3.688937781e-13,1.227633762e-13,1.037160418e-13,2.907960047e-13,7.05792059e-14,2.486300392e-13,2.974516529e-13,1.494789076e-13,1.657232362e-13,9.779017779e-14,4.612818521e-14,7.570911126e-13,1.22633292e-13,2.180263099e-12,2.307185524e-13,1.572973672e-13
0.578125,4.876523178e-14,1.502228754e-13,4.490805289e-13,9.904150446e-14,1.802715352e-13,1.618942321e-13,3.615692843e-13,8.175525579e-14,9.269596616e-14,1.334759319e-14,3.600639825e-13,5.033033197e-14,1.111526101e-13,4.535036034e-14,1.303039257e-13,9.70265361e-14,3.860558892e-13,1.215739961e-13,1.020032912e-13,3.154769384e-13,7.568569803e-14,2.565189492e-13,3.163382463e-13,1.466263479e-13,1.605197163e-13,9.856076401e-14,5.227270678e-14,7.643449711e-13,1.369206916e-13,2.249765031e-12,2.374377469e-13,1.680705848e-13
0.5859375,5.58605957e-14,1.616658253e-13,4.414927386e-13,1.062175626e-13,1.795090435e-13,1.626747917e-13,3.703542974e-13,8.655849612e-14,9.910621654e-14,1.382534906e-14,3.636430541e-13,5.713526381e-14,1.190811588e-13,4.945366114e-14,1.302429698e-13,1.003407862e-13,4.022736375e-13,1.20480468e-13,1.012853721e-13,3.402125787e-13,8.115999997e-14,2.655187439e-13,3.364839556e-13,1.437777831e-13,1.555013216e-13,9.906484087e-14,5.952093608e-14,7.691943465e-13,1.53953669e-13,2.310873796e-12,2.44461464e-13,1.806549758e-13
0.59375,6.441771575e-14,1.738758561e-13,4.328318053e-13,1.143212905e-13,1.780934225e-13,1.623560796e-13,3.783779081e-13,9.203641626e-14,1.071977732e-13,1.457325551e-14,3.656672228e-13,6.486965055e-14,1.284734799e-13,5.42884714e-14,1.293013738e-13,1.037236947e-13,4.177771279e-13,1.197677461e-13,1.019934772e-13,3.650735531e-13,8.698543017e-14,2.759388711e-13,3.578689192e-13,1.417210852e-13,1.505614967e-13,9.950261734e-14,6.801051745e-14,7.725511754e-13,1.740544321e-13,2.362327227e-12,2.521199237e-13,1.952233826e-13
0.6015625,7.427489752e-14,1.868658888e-13,4.226025911e-13,1.232919937e-13,1.762498957e-13,1.610123997e-13,3.853358112e-13,9.84094142e-14,1.169633686e-13,1.560009092e-14,3.671555095e-13,7.358425536e-14,1.392947706e-13,5.978522892e-14,1.274581077e-13,1.071046954e-13,4.320614064e-13,1.187936755e-13,1.040779406e-13,3.893349285e-13,9.317636212e-14,2.878870628e-13,3.805755866e-13,1.402817375e-13,1.453786919e-13,9.99472484e-14,7.77213387e-14,7.738930254e-13,1.970909941e-13,2.401806821e-12,2.606535938e-13,2.117768262e-13
0.609375,8.599279786e-14,2.008954416e-13,4.129004596e-13,1.335722283e-13,1.740965235e-13,1.593134995e-13,3.921400392e-13,1.056951557e-13,1.287119709e-13,1.702901944e-14,3.675312625e-13,8.337654779e-14,1.516595683e-13,6.610417861e-14,1.254571937e-13,1.110737707e-13,4.454654591e-13,1.174975612e-13,1.072953331e-13,4.127482769e-13,9.954511382e-14,3.013998587e-13,4.048005355e-13,1.391078147e-13,1.401440092e-13,1.005955104e-13,8.851379653e-14,7.721595043e-13,2.232458726e-13,2.427091708e-12,2.705591858e-13,2.305426271e-13
0.6171875,9.970061166e-14,2.160494596e-13,4.042751925e-13,1.450103682e-13,1.716904472e-13,1.570412948e-13,3.984918105e-13,1.138829006e-13,1.426848081e-13,1.888174621e-14,3.655564056e-13,9.421727005e-14,1.657786633e-13,7.327335368e-14,1.225810368e-13,1.153258953e-13,4.580074292e-13,1.161498531e-13,1.118341076e-13,4.355095481e-13,1.061554168e-13,3.167810546e-13,4.301727905e-13,1.384660934e-13,1.345829509e-13,1.014731306e-13,1.007672004e-13,7.687712849e-13,2.526498127e-13,2.438223406e-12,2.820395501e-13,2.51960585e-13
0.625,1.149281108e-13,2.322600118e-13,3.956211162e-13,1.576463881e-13,1.69426364e-13,1.539082568e-13,4.032463363e-13,1.233182753e-13,1.58929078e-13,2.110887318e-14,3.619691069e-13,1.060826251e-13,1.816825822e-13,8.121796641e-14,1.189658723e-13,1.19675621e-13,4.683579363e-13,1.14454987e-13,1.181144585e-13,4.565603137e-13,1.130589222e-13,3.342404581e-13,4.563884083e-13,1.381427456e-13,1.287316776e-13,1.025077916e-13,1.147272805e-13,7.651972068e-13,2.855197095e-13,2.434925176e-12,2.951206606e-13,2.761665405e-13
0.6328125,1.321832511e-13,2.496537054e-13,3.885609501e-13,1.715611527e-13,1.67321497e-13,1.50588574e-13,4.065591618e-13,1.340388528e-13,1.776218475e-13,2.378956066e-14,3.573668328e-13,1.190651988e-13,1.995563899e-13,9.007977634e-14,1.150514295e-13,1.24321098e-13,4.769202629e-13,1.127569582e-13,1.266146796e-13,4.759660892e-13,1.202983911e-13,3.538879454e-13,4.835731477e-13,1.380678347e-13,1.229943214e-13,1.0365251e-13,1.303522159e-13,7.614480183e-13,3.223284534e-13,2.419560439e-12,3.098787626e-13,3.029867552e-13
0.640625,1.510140868e-13,2.679912411e-13,3.837177907e-13,1.861310731e-13,1.653492252e-13,1.46952244e-13,4.083408729e-13,1.460556034e-13,1.986076845e-13,2.684822779e-14,3.509514651e-13,1.330356318e-13,2.191734028e-13,9.969184794e-14,1.101763042e-13,1.287984188e-13,4.840365535e-13,1.112262114e-13,1.371034624e-13,4.942492146e-13,1.279913924e-13,3.755671611e-13,5.112171796e-13,1.384014956e-13,1.1723724e-13,1.049045085e-13,1.476681184e-13,7.578127728e-13,3.623884617e-13,2.394946215e-12,3.264072674e-13,3.322638328e-13
0.6484375,1.710739509e-13,2.875797422e-13,3.812489453e-13,2.017718965e-13,1.640109473e-13,1.428984797e-13,4.08551352e-13,1.597026196e-13,2.217242989e-13,3.02988491e-14,3.42940495e-13,1.480728433e-13,2.402608707e-13,1.100035855e-13,1.049962881e-13,1.337365477e-13,4.889023417e-13,1.095154874e-13,1.492015432e-13,5.103000746e-13,1.362258529e-13,3.991934402e-13,5.392926494e-13,1.395772723e-13,1.111072095e-13,1.065668548e-13,1.665082944e-13,7.5460707e-13,4.05510915e-13,2.361652136e-12,3.454176792e-13,3.639438266e-13
0.65625,1.929774013e-13,3.089071334e-13,3.813384448e-13,2.188809384e-13,1.632202463e-13,1.390994285e-13,4.077958111e-13,1.747678073e-13,2.469596399e-13,3.428038908e-14,3.339163218e-13,1.642938773e-13,2.629155057e-13,1.211748808e-13,1.000064653e-13,1.395124366e-13,4.92018093e-13,1.079042896e-13,1.631167214e-13,5.240006124e-13,1.45242003e-13,4.24780651e-13,5.682436198e-13,1.417917597e-13,1.048596664e-13,1.086331406e-13,1.869976025e-13,7.518809098e-13,4.52030566e-13,2.320545847e-12,3.674864552e-13,3.974681384e-13
0.6640625,2.163062965e-13,3.315826918e-13,3.836685529e-13,2.367057557e-13,1.62615417e-13,1.355386885e-13,4.059439749e-13,1.91167704e-13,2.740168785e-13,3.868848167e-14,3.235231903e-13,1.813308422e-13,2.868945925e-13,1.329057827e-13,9.484401176e-14,1.456701161e-13,4.938509754e-13,1.067183115e-13,1.786765286e-13,5.361200297e-13,1.547204158e-13,4.519231608e-13,5.973600411e-13,1.449686563e-13,9.884724521e-14,1.10860023e-13,2.090584606e-13,7.508675768e-13,5.008795592e-13,2.274066751e-12,3.921817278e-13,4.321618679e-13
0.671875,2.408863806e-13,3.559719024e-13,3.884899588e-13,2.554064778e-13,1.624647014e-13,1.31721032e-13,4.026411617e-13,2.092913873e-13,3.027510834e-13,4.371286662e-14,3.127968999e-13,1.992093678e-13,3.12074369e-13,1.451252479e-13,8.970305055e-14,1.523442489e-13,4.941426705e-13,1.060977691e-13,1.958397631e-13,5.466149714e-13,1.645597955e-13,4.806178544e-13,6.264694698e-13,1.487925567e-13,9.292432176e-14,1.133403912e-13,2.324067343e-13,7.534899182e-13,5.522402046e-13,2.22816453e-12,4.198149368e-13,4.679149968e-13
0.6796875,2.666170771e-13,3.823518088e-13,3.951224801e-13,2.751584127e-13,1.628879582e-13,1.280240589e-13,3.979389941e-13,2.289320174e-13,3.328037104e-13,4.925665798e-14,3.032445073e-13,2.180241046e-13,3.382452018e-13,1.579969115e-13,8.52371832e-14,1.593854266e-13,4.927527373e-13,1.058700789e-13,2.14415676e-13,5.552785239e-13,1.752056425e-13,5.108626191e-13,6.559110448e-13,1.529714077e-13,8.687723599e-14,1.159637824e-13,2.570086644e-13,7.594596921e-13,6.060583907e-13,2.183670953e-12,4.505208301e-13,5.043779365e-13
0.6875,2.928388063e-13,4.097729641e-13,4.034380684e-13,2.950750059e-13,1.635134798e-13,1.250295241e-13,3.920211511e-13,2.496027371e-13,3.637808195e-13,5.488498027e-14,2.935842967e-13,2.374577907e-13,3.647940343e-13,1.712549324e-13,8.128312931e-14,1.666136332e-13,4.897580495e-13,1.056892659e-13,2.337054731e-13,5.616870143e-13,1.86202267e-13,5.419325088e-13,6.849225679e-13,1.581302451e-13,8.067353626e-14,1.185215719e-13,2.822458e-13,7.674031107e-13,6.605019878e-13,2.137193313e-12,4.828923334e-13,5.409885984e-13
0.6953125,3.195595263e-13,4.381658264e-13,4.137006913e-13,3.15013626e-13,1.642807934e-13,1.222167948e-13,3.851722219e-13,2.713510091e-13,3.958539922e-13,6.105759945e-14,2.829043805e-13,2.575895773e-13,3.917111242e-13,1.848596212e-13,7.70032526e-14,1.738826303e-13,4.855600599e-13,1.058797678e-13,2.537608048e-13,5.655277839e-13,1.973568441e-13,5.735154896e-13,7.132334933e-13,1.639141663e-13,7.457312282e-14,1.211526797e-13,3.076881229e-13,7.777879779e-13,7.160203777e-13,2.092569509e-12,5.169430853e-13,5.774539247e-13
0.703125,3.465748314e-13,4.677447007e-13,4.250415733e-13,3.350580299e-13,1.653868361e-13,1.193860613e-13,3.774819732e-13,2.942019332e-13,4.286843123e-13,6.779993104e-14,2.725021579e-13,2.783157749e-13,4.190164253e-13,1.989234289e-13,7.290900392e-14,1.809858282e-13,4.800526554e-13,1.066618194e-13,2.74521543e-13,5.671999254e-13,2.088379082e-13,6.054049175e-13,7.40742483e-13,1.701972474e-13,6.853469013e-14,1.239327223e-13,3.333221219e-13,7.907450921e-13,7.722284878e-13,2.054007337e-12,5.532736875e-13,6.132509272e-13
0.7109375,3.735024881e-13,4.982859073e-13,4.372396975e-13,3.550540345e-13,1.667049362e-13,1.172722296e-13,3.688487664e-13,3.176101693e-13,4.617273986e-13,7.457163711e-14,2.62536706e-13,2.992867046e-13,4.463637314e-13,2.132925807e-13,6.951583188e-14,1.881765746e-13,4.731299384e-13,1.078864245e-13,2.957697897e-13,5.669451015e-13,2.202731936e-13,6.369155966e-13,7.664074764e-13,1.778970633e-13,6.252234109e-14,1.267652974e-13,3.587854801e-13,8.054195348e-13,8.269537478e-13,2.022093478e-12,5.914919604e-13,6.477005376e-13
0.71875,4.002771768e-13,5.298962676e-13,4.50731987e-13,3.751991585e-13,1.680876494e-13,1.161579841e-13,3.592283423e-13,3.412747213e-13,4.947706098e-13,8.155435494e-14,2.52966973e-13,3.203500719e-13,4.736829691e-13,2.279920022e-13,6.670245589e-14,1.953754086e-13,4.652637121e-13,1.097517265e-13,3.175712385e-13,5.644125483e-13,2.318093116e-13,6.676412051e-13,7.89915652e-13,1.863033553e-13,5.695129674e-14,1.295163893e-13,3.839303892e-13,8.222390051e-13,8.812225295e-13,1.99648796e-12,6.314461652e-13,6.80234017e-13
0.7265625,4.261484642e-13,5.620456152e-13,4.65218505e-13,3.94742383e-13,1.695390036e-13,1.156121735e-13,3.489593509e-13,3.648917664e-13,5.269997516e-13,8.856521995e-14,2.441437415e-13,3.409917076e-13,5.003398997e-13,2.42623175e-13,6.432064798e-14,2.021494164e-13,4.567882364e-13,1.121886798e-13,3.389386534e-13,5.598515946e-13,2.433423454e-13,6.970899381e-13,8.112715283e-13,1.951779355e-13,5.182243086e-14,1.321605362e-13,4.081542503e-13,8.409510292e-13,9.343408082e-13,1.975844797e-12,6.718642018e-13,7.104732159e-13
0.734375,4.506981131e-13,5.9441047e-13,4.79689924e-13,4.134101923e-13,1.711587949e-13,1.152233891e-13,3.386992965e-13,3.876141956e-13,5.575536355e-13,9.568323313e-14,2.352058228e-13,3.611339662e-13,5.25401388e-13,2.569299658e-13,6.210985262e-14,2.086282066e-13,4.48127233e-13,1.149964764e-13,3.59106606e-13,5.537317599e-13,2.543693442e-13,7.244091672e-13,8.296569654e-13,2.049992383e-13,4.707457302e-14,1.348467992e-13,4.306657546e-13,8.594117433e-13,9.832851446e-13,1.959330074e-12,7.122871968e-13,7.380045935e-13
0.7421875,4.739768138e-13,6.272558997e-13,4.928158555e-13,4.31820492e-13,1.727546556e-13,1.153276841e-13,3.284901915e-13,4.087321183e-13,5.858090465e-13,1.033515033e-13,2.258261837e-13,3.808845221e-13,5.486284435e-13,2.713954023e-13,6.03895843e-14,2.147661809e-13,4.394471982e-13,1.184894304e-13,3.783588664e-13,5.451976783e-13,2.649341473e-13,7.4903067e-13,8.446535292e-13,2.152386579e-13,4.261403327e-14,1.373397766e-13,4.514335128e-13,8.768103683e-13,1.028696056e-12,1.947157879e-12,7.537002762e-13,7.616579487e-13
0.75,4.949173111e-13,6.595208908e-13,5.037381376e-13,4.487805088e-13,1.738582093e-13,1.160900936e-13,3.179466373e-13,4.275452195e-13,6.106950392e-13,1.105599129e-13,2.16596855e-13,3.993385328e-13,5.693827551e-13,2.856374549e-13,5.897783642e-14,2.199468876e-13,4.304730151e-13,1.225791244e-13,3.9601501e-13,5.338503829e-13,2.747853081e-13,7.702788173e-13,8.560720725e-13,2.257995429e-13,3.832665484e-14,1.394025947e-13,4.69867776e-13,8.937311205e-13,1.069988489e-12,1.940999181e-12,7.944336626e-13,7.802625194e-13
0.7578125,5.128958682e-13,6.900556604e-13,5.127465388e-13,4.637928108e-13,1.745683068e-13,1.173283395e-13,3.070791783e-13,4.434631746e-13,6.314590597e-13,1.166573459e-13,2.078404325e-13,4.160365559e-13,5.869351878e-13,2.994951078e-13,5.781720799e-14,2.243578947e-13,4.212094085e-13,1.269773703e-13,4.11272645e-13,5.207972195e-13,2.835639743e-13,7.873351508e-13,8.630620415e-13,2.367914876e-13,3.463246126e-14,1.413396384e-13,4.859079421e-13,9.085273442e-13,1.105039178e-12,1.938354717e-12,8.33131887e-13,7.933952772e-13
0.765625,5.287840782e-13,7.195402676e-13,5.202729602e-13,4.78234172e-13,1.748200686e-13,1.194008432e-13,2.96023451e-13,4.558823546e-13,6.481429764e-13,1.222151053e-13,1.992450585e-13,4.314138912e-13,6.016054604e-13,3.136764216e-13,5.723447901e-14,2.281492038e-13,4.118285043e-13,1.319517031e-13,4.244529142e-13,5.063344899e-13,2.911907054e-13,8.001890636e-13,8.652924389e-13,2.478870847e-13,3.150100476e-14,1.430170569e-13,5.002777146e-13,9.189866852e-13,1.134759097e-12,1.935683139e-12,8.708211867e-13,8.007147163e-13
0.7734375,5.428234865e-13,7.480952375e-13,5.266004932e-13,4.917991196e-13,1.742582601e-13,1.223616287e-13,2.851105933e-13,4.642098079e-13,6.607912943e-13,1.270973953e-13,1.902144656e-13,4.453998406e-13,6.134541639e-13,3.280019723e-13,5.699143125e-14,2.309062556e-13,4.025867934e-13,1.373511842e-13,4.352599602e-13,4.900453235e-13,2.974362851e-13,8.090161102e-13,8.632648917e-13,2.58476331e-13,2.853353821e-14,1.441732297e-13,5.120865665e-13,9.25194229e-13,1.158753424e-12,1.933671173e-12,9.064555416e-13,8.023186385e-13
0.78125,5.538081526e-13,7.735240611e-13,5.310507983e-13,5.03094151e-13,1.731257441e-13,1.258927047e-13,2.749902544e-13,4.688252004e-13,6.692212722e-13,1.311014903e-13,1.80997985e-13,4.575264886e-13,6.219612742e-13,3.419266323e-13,5.70287479e-14,2.328979302e-13,3.939077742e-13,1.427166725e-13,4.429378433e-13,4.727546042e-13,3.021408591e-13,8.134111049e-13,8.570289655e-13,2.683449181e-13,2.590395674e-14,1.451800191e-13,5.20882552e-13,9.265647766e-13,1.175810766e-12,1.929044947e-12,9.378937308e-13,7.989814858e-13
0.7890625,5.611906505e-13,7.946824756e-13,5.324268718e-13,5.119732461e-13,1.716277075e-13,1.297376963e-13,2.65882337e-13,4.70399297e-13,6.73656812e-13,1.345875503e-13,1.720749598e-13,4.67615537e-13,6.271840356e-13,3.552123201e-13,5.719558405e-14,2.345494926e-13,3.862541369e-13,1.481172028e-13,4.478234857e-13,4.554883731e-13,3.051591581e-13,8.133168725e-13,8.463977737e-13,2.776979452e-13,2.375550416e-14,1.461192675e-13,5.273127957e-13,9.231329145e-13,1.187268384e-12,1.919298174e-12,9.650470744e-13,7.912857162e-13
0.796875,5.66197853e-13,8.125568989e-13,5.319466441e-13,5.190476778e-13,1.698208375e-13,1.33888941e-13,2.574739162e-13,4.690269891e-13,6.747108114e-13,1.37300385e-13,1.636512309e-13,4.758399551e-13,6.29702894e-13,3.681325655e-13,5.768201449e-14,2.361534265e-13,3.796597614e-13,1.538284357e-13,4.506378987e-13,4.376677749e-13,3.064460334e-13,8.092639658e-13,8.317553661e-13,2.860088342e-13,2.182729859e-14,1.467629856e-13,5.311404886e-13,9.17113621e-13,1.194043109e-12,1.907303324e-12,9.88292837e-13,7.793985473e-13
0.8046875,5.692717274e-13,8.267960811e-13,5.308564244e-13,5.240292923e-13,1.678651205e-13,1.386161793e-13,2.49726729e-13,4.64571395e-13,6.726406557e-13,1.385557371e-13,1.55811603e-13,4.821997675e-13,6.300246737e-13,3.810092347e-13,5.875936803e-14,2.377269169e-13,3.736924992e-13,1.598504099e-13,4.512224091e-13,4.190326899e-13,3.058502744e-13,8.016918902e-13,8.1343269e-13,2.92849065e-13,1.999923085e-14,1.471292319e-13,5.321612325e-13,9.079354375e-13,1.195012027e-12,1.891652181e-12,1.006592116e-12,7.63845778e-13
0.8125,5.696327863e-13,8.362412832e-13,5.286608784e-13,5.259863488e-13,1.658587037e-13,1.43812838e-13,2.42837003e-13,4.572459379e-13,6.675920164e-13,1.384687069e-13,1.482833504e-13,4.864273585e-13,6.282443252e-13,3.93442891e-13,6.029819261e-14,2.392551316e-13,3.683713902e-13,1.657439902e-13,4.492988995e-13,4.00693082e-13,3.02996497e-13,7.907703663e-13,7.913318751e-13,2.979515882e-13,1.836420968e-14,1.473152087e-13,5.301855682e-13,8.951373632e-13,1.189108202e-12,1.868424153e-12,1.018569846e-12,7.456535956e-13
0.8203125,5.674453925e-13,8.410614294e-13,5.254628555e-13,5.251702446e-13,1.63732596e-13,1.49433435e-13,2.365458913e-13,4.471199305e-13,6.597578723e-13,1.377037518e-13,1.408835142e-13,4.885759992e-13,6.244209435e-13,4.051465353e-13,6.204325911e-14,2.408695515e-13,3.63733539e-13,1.713130004e-13,4.454986419e-13,3.826548887e-13,2.982518653e-13,7.764602e-13,7.655384046e-13,3.010462505e-13,1.694767395e-14,1.473186477e-13,5.254070296e-13,8.805728446e-13,1.176825441e-12,1.838143125e-12,1.024306484e-12,7.247902833e-13
0.828125,5.630324226e-13,8.415621383e-13,5.213959042e-13,5.222620926e-13,1.6123361e-13,1.554759845e-13,2.30654829e-13,4.337360433e-13,6.487426082e-13,1.364179442e-13,1.3352135e-13,4.886998816e-13,6.187472908e-13,4.158635473e-13,6.344400339e-14,2.421402088e-13,3.59331386e-13,1.767227011e-13,4.398493115e-13,3.645752334e-13,2.921658935e-13,7.588975527e-13,7.365953405e-13,3.030830839e-13,1.578279594e-14,1.469508809e-13,5.183939598e-13,8.625663688e-13,1.157982461e-12,1.801924285e-12,1.024282314e-12,7.007264552e-13
0.8359375,5.560319407e-13,8.378058429e-13,5.159861933e-13,5.170695486e-13,1.584583171e-13,1.616480065e-13,2.255021756e-13,4.172236295e-13,6.341897726e-13,1.342833554e-13,1.26600749e-13,4.865633876e-13,6.111164622e-13,4.255182343e-13,6.492059178e-14,2.432991363e-13,3.554210942e-13,1.817389679e-13,4.316638227e-13,3.473750626e-13,2.847997819e-13,7.386136078e-13,7.052942107e-13,3.046027348e-13,1.499651126e-14,1.462658808e-13,5.091606246e-13,8.39868655e-13,1.13271883e-12,1.758608723e-12,1.018632944e-12,6.742594003e-13
0.84375,5.46060769e-13,8.297720979e-13,5.08469072e-13,5.095434792e-13,1.556946612e-13,1.675910879e-13,2.211353607e-13,3.978777488e-13,6.162292564e-13,1.310847333e-13,1.203971439e-13,4.819554521e-13,6.013646539e-13,4.342554962e-13,6.66903627e-14,2.449280268e-13,3.524880667e-13,1.861532244e-13,4.212400829e-13,3.314760836e-13,2.762219196e-13,7.159143304e-13,6.719011128e-13,3.053577928e-13,1.450012986e-14,1.45521611e-13,4.984685217e-13,8.147731436e-13,1.103373701e-12,1.708105088e-12,1.007914845e-12,6.460421386e-13
0.8515625,5.332448961e-13,8.173962395e-13,4.986134256e-13,5.002653254e-13,1.529565359e-13,1.72953529e-13,2.170462055e-13,3.758518737e-13,5.948368846e-13,1.271703104e-13,1.144541555e-13,4.74665491e-13,5.893824566e-13,4.413405925e-13,6.815394961e-14,2.465438302e-13,3.498207705e-13,1.899637378e-13,4.090528551e-13,3.164762426e-13,2.665474166e-13,6.908630107e-13,6.363634364e-13,3.05772285e-13,1.411537486e-14,1.446281163e-13,4.866504905e-13,7.869574899e-13,1.069865716e-12,1.651498626e-12,9.921201387e-13,6.160047392e-13
0.859375,5.180912423e-13,8.012951621e-13,4.871139135e-13,4.893083898e-13,1.500882487e-13,1.779465078e-13,2.129905127e-13,3.519398032e-13,5.703794126e-13,1.229899078e-13,1.089353845e-13,4.647957481e-13,5.75272006e-13,4.462849821e-13,6.969572108e-14,2.477579489e-13,3.46839143e-13,1.929525195e-13,3.952758896e-13,3.023811732e-13,2.562565602e-13,6.640229336e-13,5.996841999e-13,3.051545252e-13,1.393606373e-14,1.434719484e-13,4.729782938e-13,7.551749943e-13,1.030988876e-12,1.590566797e-12,9.711968344e-13,5.848412894e-13
0.8671875,5.003822758e-13,7.815177557e-13,4.73698047e-13,4.759770496e-13,1.46987368e-13,1.827048952e-13,2.092307427e-13,3.271150367e-13,5.437136163e-13,1.183891278e-13,1.039578031e-13,4.526364668e-13,5.594557236e-13,4.493341849e-13,7.157254169e-14,2.489540121e-13,3.441334716e-13,1.952077926e-13,3.80110164e-13,2.896753334e-13,2.452359282e-13,6.359360487e-13,5.62723562e-13,3.024026343e-13,1.397429232e-14,1.421338335e-13,4.578295274e-13,7.210008773e-13,9.879928908e-13,1.525419194e-12,9.454488997e-13,5.535076921e-13
0.875,4.801858835e-13,7.578591839e-13,4.580558333e-13,4.602439884e-13,1.437153928e-13,1.868526319e-13,2.057321357e-13,3.020823569e-13,5.154006251e-13,1.132054342e-13,9.957917507e-14,4.384302074e-13,5.421236932e-13,4.50340553e-13,7.354699205e-14,2.504135477e-13,3.417008581e-13,1.969127593e-13,3.636991328e-13,2.783023873e-13,2.329924132e-13,6.067787033e-13,5.254143941e-13,2.984035845e-13,1.42208895e-14,1.405785213e-13,4.419354095e-13,6.858669655e-13,9.419050582e-13,1.454852914e-12,9.150163822e-13,5.223808953e-13
0.8828125,4.587863422e-13,7.316439547e-13,4.413199055e-13,4.428815127e-13,1.402460345e-13,1.90257966e-13,2.022220992e-13,2.771919588e-13,4.861672513e-13,1.077687576e-13,9.610436615e-14,4.229461777e-13,5.23615619e-13,4.493216051e-13,7.555979428e-14,2.519072551e-13,3.389074852e-13,1.977977021e-13,3.466154841e-13,2.67513922e-13,2.204244585e-13,5.771391832e-13,4.885350292e-13,2.939354478e-13,1.474093502e-14,1.387067576e-13,4.253469636e-13,6.499742243e-13,8.935327888e-13,1.382377113e-12,8.813302693e-13,4.917123937e-13
0.890625,4.367378018e-13,7.037074354e-13,4.240275979e-13,4.24134026e-13,1.365370341e-13,1.928522949e-13,1.987682194e-13,2.527025124e-13,4.566633982e-13,1.021751402e-13,9.286938066e-14,4.067359869e-13,5.043543805e-13,4.467310725e-13,7.754641482e-14,2.53546605e-13,3.359817332e-13,1.978649396e-13,3.291879364e-13,2.573223343e-13,2.078918958e-13,5.474208724e-13,4.528066795e-13,2.883569294e-13,1.548776216e-14,1.365265535e-13,4.08196068e-13,6.136580343e-13,8.43972892e-13,1.309700338e-12,8.454388496e-13,4.617141096e-13
0.8984375,4.138877641e-13,6.740516977e-13,4.062114435e-13,4.041433893e-13,1.325568725e-13,1.948457449e-13,1.952436688e-13,2.287992629e-13,4.270567265e-13,9.618608246e-14,8.977188301e-14,3.898395883e-13,4.844773775e-13,4.427914433e-13,7.96619091e-14,2.55363344e-13,3.330394608e-13,1.973528744e-13,3.115464649e-13,2.483634581e-13,1.949388629e-13,5.177001597e-13,4.181347715e-13,2.812306154e-13,1.653851997e-14,1.340569813e-13,3.908505715e-13,5.777389283e-13,7.941158873e-13,1.235377987e-12,8.07164306e-13,4.324257824e-13
0.90625,3.904784744e-13,6.432791904e-13,3.883213757e-13,3.835617758e-13,1.282373664e-13,1.965345718e-13,1.914196124e-13,2.057571716e-13,3.978723895e-13,9.015852369e-14,8.736189011e-14,3.726289695e-13,4.64621032e-13,4.371802994e-13,8.170475152e-14,2.566599712e-13,3.295892136e-13,1.961425317e-13,2.943061982e-13,2.409611167e-13,1.822138116e-13,4.88619253e-13,3.849047186e-13,2.732209765e-13,1.801313829e-14,1.313942889e-13,3.733610065e-13,5.428463803e-13,7.442438709e-13,1.16251644e-12,7.67113213e-13,4.043236182e-13
0.9140625,3.66807032e-13,6.117897401e-13,3.704105307e-13,3.628293004e-13,1.237453754e-13,1.975008762e-13,1.873462679e-13,1.84261164e-13,3.696405418e-13,8.462183681e-14,8.549184288e-14,3.553142533e-13,4.45349168e-13,4.295546884e-13,8.334536336e-14,2.573501387e-13,3.256693596e-13,1.941147311e-13,2.777382454e-13,2.352618872e-13,1.701722334e-13,4.606895821e-13,3.53481786e-13,2.651479299e-13,1.997379183e-14,1.286867098e-13,3.557144716e-13,5.088433943e-13,6.940528366e-13,1.092664519e-12,7.259178646e-13,3.779755707e-13
0.921875,3.434825559e-13,5.803313133e-13,3.527852437e-13,3.420940426e-13,1.191614595e-13,1.976036906e-13,1.828265827e-13,1.644197728e-13,3.426027558e-13,7.932363218e-14,8.416038966e-14,3.382431652e-13,4.268453716e-13,4.207107065e-13,8.502378335e-14,2.575873612e-13,3.213192686e-13,1.913996689e-13,2.619169531e-13,2.311181749e-13,1.585872584e-13,4.341516714e-13,3.240827917e-13,2.567982324e-13,2.212641875e-14,1.257464734e-13,3.382772159e-13,4.766617791e-13,6.449898463e-13,1.025260629e-12,6.843438651e-13,3.532901993e-13
0.9296875,3.207438297e-13,5.496228764e-13,3.353786737e-13,3.215215622e-13,1.14417385e-13,1.97378887e-13,1.777938592e-13,1.459586203e-13,3.170150983e-13,7.407911404e-14,8.318518612e-14,3.218575973e-13,4.094875082e-13,4.113228101e-13,8.70858405e-14,2.57036258e-13,3.163264255e-13,1.88257205e-13,2.470463911e-13,2.284338444e-13,1.474110643e-13,4.092887309e-13,2.968930987e-13,2.480589222e-13,2.441987756e-14,1.224781413e-13,3.211328547e-13,4.478689574e-13,5.9804792e-13,9.617121605e-13,6.432089068e-13,3.302272506e-13
0.9375,2.982050189e-13,5.196182011e-13,3.172852546e-13,3.015644191e-13,1.096492192e-13,1.970264441e-13,1.727211423e-13,1.291215994e-13,2.928212021e-13,6.914760961e-14,8.239932252e-14,3.059339795e-13,3.931902644e-13,4.009034654e-13,8.940568831e-14,2.560023859e-13,3.111121488e-13,1.848907069e-13,2.332404315e-13,2.270785084e-13,1.369766623e-13,3.860051727e-13,2.716880467e-13,2.395272038e-13,2.744131099e-14,1.192616434e-13,3.042769634e-13,4.218426816e-13,5.526168543e-13,9.031714684e-13,6.02840282e-13,3.089193232e-13
0.9453125,2.763488109e-13,4.908383934e-13,2.990648203e-13,2.825858783e-13,1.048769277e-13,1.96565245e-13,1.678585171e-13,1.141559123e-13,2.701869649e-13,6.452092509e-14,8.187926455e-14,2.906321954e-13,3.778933549e-13,3.897401221e-13,9.2059717e-14,2.551313417e-13,3.060894134e-13,1.815067177e-13,2.207077232e-13,2.263845421e-13,1.275321158e-13,3.643440218e-13,2.485770125e-13,2.312363504e-13,3.09662707e-14,1.161753111e-13,2.880153606e-13,3.981784188e-13,5.094113819e-13,8.509433681e-13,5.637226881e-13,2.89261095e-13
0.953125,2.55586427e-13,4.637104603e-13,2.8160417e-13,2.644220042e-13,9.99496519e-14,1.961379816e-13,1.630527686e-13,1.009412401e-13,2.49340166e-13,6.022616087e-14,8.095880253e-14,2.762033198e-13,3.637367119e-13,3.78207241e-13,9.481990792e-14,2.541095515e-13,3.011700376e-13,1.782696364e-13,2.093418e-13,2.262108491e-13,1.187361462e-13,3.443156034e-13,2.275420072e-13,2.229312374e-13,3.466798434e-14,1.129773007e-13,2.725145567e-13,3.775770467e-13,4.691408138e-13,8.032338655e-13,5.259223021e-13,2.7108108e-13
0.9609375,2.356334935e-13,4.382683541e-13,2.643066248e-13,2.473774453e-13,9.492287607e-14,1.955543101e-13,1.581725996e-13,8.921464932e-14,2.299897855e-13,5.646096009e-14,7.942172796e-14,2.624637208e-13,3.502712344e-13,3.65777637e-13,9.7246291e-14,2.522903033e-13,2.962181881e-13,1.750030845e-13,1.99103901e-13,2.267810105e-13,1.10688089e-13,3.25629071e-13,2.081277339e-13,2.150465642e-13,3.893335785e-14,1.0974956e-13,2.578921614e-13,3.593005195e-13,4.321569777e-13,7.574051912e-13,4.899877923e-13,2.54094408e-13
0.96875,2.167929906e-13,4.14731859e-13,2.472246008e-13,2.317587066e-13,8.998369308e-14,1.945069238e-13,1.532185287e-13,7.900369722e-14,2.121044732e-13,5.324670416e-14,7.793348404e-14,2.494761556e-13,3.373622979e-13,3.527226126e-13,9.959571027e-14,2.500369656e-13,2.912101129e-13,1.717277243e-13,1.903727073e-13,2.277019962e-13,1.037895696e-13,3.083376443e-13,1.904480901e-13,2.081417296e-13,4.372675878e-14,1.067611732e-13,2.442332645e-13,3.433290032e-13,3.986254543e-13,7.153800583e-13,4.565435319e-13,2.381447804e-13
0.9765625,1.990660166e-13,3.927599278e-13,2.308567768e-13,2.17182403e-13,8.531712588e-14,1.932449503e-13,1.483061798e-13,7.041443111e-14,1.956214881e-13,5.056016984e-14,7.666919824e-14,2.370389265e-13,3.2492277e-13,3.393555099e-13,1.02243575e-13,2.478591305e-13,2.864457001e-13,1.686681072e-13,1.830149862e-13,2.290045223e-13,9.781086575e-14,2.922144719e-13,1.745688871e-13,2.017880635e-13,4.903734633e-14,1.041559513e-13,2.313538867e-13,3.301998665e-13,3.677309579e-13,6.775779854e-13,4.248818187e-13,2.231790604e-13
0.984375,1.821130891e-13,3.721718062e-13,2.14807857e-13,2.037891761e-13,8.099329697e-14,1.922265395e-13,1.435438647e-13,6.326444725e-14,1.801254421e-13,4.840680124e-14,7.537999348e-14,2.249096721e-13,3.123056916e-13,3.254148879e-13,1.053074337e-13,2.456052651e-13,2.821507613e-13,1.656924074e-13,1.766878257e-13,2.311644193e-13,9.256441651e-14,2.767282941e-13,1.601367816e-13,1.954206912e-13,5.487972702e-14,1.01913069e-13,2.189754192e-13,3.18749784e-13,3.39404318e-13,6.425745998e-13,3.948691423e-13,2.088722222e-13
0.9921875,1.662690201e-13,3.534552421e-13,1.993936733e-13,1.920296082e-13,7.691459585e-14,1.913252052e-13,1.389947622e-13,5.742589089e-14,1.656071524e-13,4.676827657e-14,7.402273584e-14,2.132275833e-13,2.995608382e-13,3.111848878e-13,1.089701676e-13,2.43307309e-13,2.782402697e-13,1.628735758e-13,1.715316585e-13,2.342052448e-13,8.818489372e-14,2.619361533e-13,1.47065967e-13,1.89490941e-13,6.105669983e-14,1.000605354e-13,2.073439241e-13,3.081497669e-13,3.142674566e-13,6.109204231e-13,3.670348367e-13,1.951065369e-13
1,1.516671066e-13,3.367763652e-13,1.853175078e-13,1.820062929e-13,7.308607351e-14,1.905114401e-13,1.34873516e-13,5.28264402e-14,1.522193448e-13,4.570790866e-14,7.285575887e-14,2.02104646e-13,2.87136282e-13,2.97217928e-13,1.132492463e-13,2.412648008e-13,2.750579254e-13,1.607144936e-13,1.677871293e-13,2.377810074e-13,8.469762005e-14,2.480299372e-13,1.351731262e-13,1.843696861e-13,6.774472822e-14,9.868093562e-14,1.970138899e-13,2.98571213e-13,2.927679033e-13,5.822722326e-13,3.412930645e-13,1.821158578e-13
1.0078125,1.382038021e-13,3.216907896e-13,1.72486719e-13,1.733805094e-13,6.955582486e-14,1.900999611e-13,1.313461333e-13,4.939591198e-14,1.398939098e-13,4.540173102e-14,7.18396617e-14,1.916432509e-13,2.749397435e-13,2.839805335e-13,1.177919394e-13,2.397819779e-13,2.731509214e-13,1.594345248e-13,1.651691916e-13,2.410385484e-13,8.176360824e-14,2.349118607e-13,1.242284233e-13,1.800357006e-13,7.485782695e-14,9.764288912e-14,1.878895993e-13,2.905701897e-13,2.748702961e-13,5.558013727e-13,3.172908153e-13,1.698999217e-13
1.015625,1.258714714e-13,3.078204541e-13,1.606846303e-13,1.656255566e-13,6.636603616e-14,1.896319853e-13,1.282572843e-13,4.70984152e-14,1.285339491e-13,4.589615837e-14,7.059718845e-14,1.818489977e-13,2.628271092e-13,2.714097169e-13,1.221747725e-13,2.389106629e-13,2.723403962e-13,1.585934181e-13,1.630447719e-13,2.435605855e-13,7.912814513e-14,2.224384399e-13,1.14338532e-13,1.763904937e-13,8.234811321e-14,9.689223865e-14,1.797601034e-13,2.839703981e-13,2.604742712e-13,5.30678141e-13,2.950614411e-13,1.583627457e-13
1.0234375,1.14726665e-13,2.955832265e-13,1.49865912e-13,1.590688599e-13,6.359075152e-14,1.887815887e-13,1.25544427e-13,4.570997074e-14,1.180818536e-13,4.716744497e-14,6.918295598e-14,1.72725109e-13,2.507674636e-13,2.593056768e-13,1.263742304e-13,2.383222092e-13,2.720211061e-13,1.578735415e-13,1.615041625e-13,2.457265563e-13,7.703849765e-14,2.105049836e-13,1.053767355e-13,1.730538553e-13,9.038636853e-14,9.653407805e-14,1.728352931e-13,2.774132158e-13,2.502425409e-13,5.058468766e-13,2.752135328e-13,1.473830081e-13
1.03125,1.050710653e-13,2.85227402e-13,1.406321129e-13,1.538891933e-13,6.099710158e-14,1.880623456e-13,1.23018381e-13,4.488748328e-14,1.085329618e-13,4.939042214e-14,6.75415844e-14,1.642644392e-13,2.387932724e-13,2.480709712e-13,1.303017072e-13,2.376160646e-13,2.716581661e-13,1.57416798e-13,1.606571604e-13,2.472327535e-13,7.544310025e-14,1.990091986e-13,9.711978446e-14,1.702766589e-13,9.871684933e-14,9.63254754e-14,1.668686395e-13,2.710691384e-13,2.439458555e-13,4.818795702e-13,2.57537422e-13,1.36602021e-13
1.0390625,9.674004877e-14,2.760895621e-13,1.332146233e-13,1.493062443e-13,5.840024993e-14,1.874677313e-13,1.202196578e-13,4.438029379e-14,9.980387192e-14,5.267203723e-14,6.550422918e-14,1.562656342e-13,2.269923049e-13,2.375818954e-13,1.336704618e-13,2.364720822e-13,2.708725947e-13,1.569065707e-13,1.599503903e-13,2.47720191e-13,7.389625848e-14,1.878290296e-13,8.965441806e-14,1.686209641e-13,1.074720953e-13,9.601124687e-14,1.612934146e-13,2.657376425e-13,2.406266137e-13,4.589336352e-13,2.412227229e-13,1.260497028e-13
1.046875,8.943262831e-14,2.681095058e-13,1.271512805e-13,1.45347872e-13,5.598841288e-14,1.867930228e-13,1.173334844e-13,4.41021841e-14,9.171223376e-14,5.70340764e-14,6.333791667e-14,1.486733958e-13,2.153247095e-13,2.276723143e-13,1.368446058e-13,2.351489556e-13,2.699223419e-13,1.562542646e-13,1.595527348e-13,2.475866615e-13,7.241446265e-14,1.769456153e-13,8.295631171e-14,1.679060623e-13,1.167915314e-13,9.576946133e-14,1.564015392e-13,2.607375313e-13,2.406319376e-13,4.36425728e-13,2.26577028e-13,1.159648113e-13
1.0546875,8.321674875e-14,2.617188012e-13,1.2284157e-13,1.426031379e-13,5.379648534e-14,1.862544703e-13,1.145568586e-13,4.410120677e-14,8.427242252e-14,6.267856182e-14,6.098799088e-14,1.416895599e-13,2.038783514e-13,2.18871484e-13,1.401769097e-13,2.339281989e-13,2.689976528e-13,1.559366018e-13,1.597607559e-13,2.471256968e-13,7.126384345e-14,1.664672158e-13,7.69512346e-14,1.676530739e-13,1.265162281e-13,9.564848236e-14,1.52703948e-13,2.554604267e-13,2.447383444e-13,4.143641889e-13,2.138672173e-13,1.062177186e-13
1.0625,7.789560105e-14,2.564032021e-13,1.199665155e-13,1.40727182e-13,5.184615943e-14,1.857976082e-13,1.118392124e-13,4.444029298e-14,7.753696538e-14,6.972781744e-14,5.85055685e-14,1.353313149e-13,1.926216664e-13,2.110630808e-13,1.436023556e-13,2.325998388e-13,2.680463519e-13,1.558526163e-13,1.602779687e-13,2.467976969e-13,7.052089389e-14,1.563476385e-13,7.166875572e-14,1.67804205e-13,1.370383604e-13,9.570127692e-14,1.500340327e-13,2.503047469e-13,2.527496658e-13,3.921886182e-13,2.025675411e-13,9.688559031e-14
1.0703125,7.335908576e-14,2.516625671e-13,1.176164749e-13,1.393497316e-13,5.041237967e-14,1.85185903e-13,1.097047403e-13,4.513220941e-14,7.135993081e-14,7.821251558e-14,5.642124683e-14,1.294381376e-13,1.812617289e-13,2.039876175e-13,1.475322382e-13,2.313943931e-13,2.676519699e-13,1.558400371e-13,1.610321472e-13,2.470560874e-13,7.017585237e-14,1.464051871e-13,6.705696803e-14,1.690743254e-13,1.482925533e-13,9.637000369e-14,1.485126009e-13,2.457673966e-13,2.641849528e-13,3.698670631e-13,1.927118234e-13,8.821943161e-14
1.078125,6.975837996e-14,2.474967518e-13,1.161287931e-13,1.386087465e-13,4.958268557e-14,1.842809092e-13,1.081606637e-13,4.623985156e-14,6.579395204e-14,8.842428031e-14,5.49266395e-14,1.240175364e-13,1.700104519e-13,1.976950214e-13,1.521014871e-13,2.304298855e-13,2.676632782e-13,1.557237674e-13,1.61586477e-13,2.475548867e-13,7.003772056e-14,1.367975218e-13,6.318681212e-14,1.715388315e-13,1.598434225e-13,9.760488673e-14,1.480814274e-13,2.410621247e-13,2.787454977e-13,3.483190715e-13,1.845096255e-13,8.039971184e-14
1.0859375,6.701607587e-14,2.435826432e-13,1.154934335e-13,1.382652016e-13,4.924983478e-14,1.829334499e-13,1.067551535e-13,4.771261392e-14,6.093111588e-14,1.004049694e-13,5.382199473e-14,1.189153052e-13,1.591042913e-13,1.918356567e-13,1.567898434e-13,2.292802597e-13,2.671681924e-13,1.549923388e-13,1.615543622e-13,2.47686673e-13,7.005741056e-14,1.277743013e-13,6.011617269e-14,1.745340563e-13,1.718435279e-13,9.889326101e-14,1.479162647e-13,2.358112023e-13,2.959524088e-13,3.283276857e-13,1.775831921e-13,7.36263319e-14
1.09375,6.500304623e-14,2.396970348e-13,1.154611066e-13,1.37969374e-13,4.937796298e-14,1.811331702e-13,1.054424043e-13,4.925234098e-14,5.667583862e-14,1.138297239e-13,5.263742578e-14,1.140609036e-13,1.48363122e-13,1.864134257e-13,1.616947334e-13,2.277469725e-13,2.658564489e-13,1.535568622e-13,1.61140507e-13,2.470637482e-13,7.033644761e-14,1.192041896e-13,5.762233862e-14,1.78782714e-13,1.841209602e-13,1.001334215e-13,1.47843864e-13,2.310926658e-13,3.157191019e-13,3.097633795e-13,1.718198738e-13,6.785532972e-14
1.1015625,6.378094704e-14,2.356973969e-13,1.165090224e-13,1.376283737e-13,4.987424163e-14,1.790551139e-13,1.040233173e-13,5.059218311e-14,5.309221741e-14,1.288207378e-13,5.127168363e-14,1.097492983e-13,1.37954476e-13,1.815806067e-13,1.668952269e-13,2.255218286e-13,2.634872663e-13,1.515465283e-13,1.600707921e-13,2.45745656e-13,7.049218349e-14,1.110076438e-13,5.550866516e-14,1.845926614e-13,1.964101553e-13,1.012117779e-13,1.480857054e-13,2.269369204e-13,3.379171521e-13,2.91451206e-13,1.67372857e-13,6.296114538e-14
1.109375,6.333601728e-14,2.313201213e-13,1.186333585e-13,1.370235243e-13,5.058746776e-14,1.766648599e-13,1.021157281e-13,5.15254874e-14,5.018636331e-14,1.454026052e-13,4.986250307e-14,1.060221593e-13,1.280824793e-13,1.770224699e-13,1.719138062e-13,2.221751729e-13,2.5954777e-13,1.488439264e-13,1.581810668e-13,2.437943761e-13,7.041881452e-14,1.032993348e-13,5.370929738e-14,1.911685702e-13,2.089941642e-13,1.017010249e-13,1.483452146e-13,2.227526198e-13,3.620799028e-13,2.738696928e-13,1.640414893e-13,5.882103623e-14
1.1171875,6.350409849e-14,2.267128516e-13,1.215178582e-13,1.361019313e-13,5.146434786e-14,1.738070905e-13,9.948965485e-14,5.200602044e-14,4.780068242e-14,1.633235699e-13,4.839195505e-14,1.028653807e-13,1.186186109e-13,1.727185009e-13,1.771685181e-13,2.177623349e-13,2.535185954e-13,1.453514157e-13,1.5592473e-13,2.406143268e-13,7.049988868e-14,9.608131838e-14,5.225148558e-14,1.989966914e-13,2.217079371e-13,1.014525393e-13,1.482882342e-13,2.189520387e-13,3.881929961e-13,2.585270609e-13,1.617637336e-13,5.527284847e-14
1.125,6.434880257e-14,2.219683296e-13,1.253261988e-13,1.349456041e-13,5.249636893e-14,1.706688262e-13,9.653694172e-14,5.216060679e-14,4.579982056e-14,1.825836356e-13,4.721175299e-14,1.002354465e-13,1.093724906e-13,1.688079769e-13,1.832246736e-13,2.127479661e-13,2.458602696e-13,1.414312323e-13,1.534131312e-13,2.363493811e-13,7.054834169e-14,8.920805993e-14,5.123639756e-14,2.081202928e-13,2.343474808e-13,1.006976177e-13,1.479100299e-13,2.161299526e-13,4.158012215e-13,2.453068223e-13,1.60639888e-13,5.218843229e-14
1.1328125,6.586787693e-14,2.16716569e-13,1.29703521e-13,1.333250298e-13,5.369082485e-14,1.672207924e-13,9.3664626e-14,5.206408512e-14,4.416134552e-14,2.027979423e-13,4.623275545e-14,9.796892795e-14,1.003464435e-13,1.65182496e-13,1.897489866e-13,2.073847097e-13,2.373370602e-13,1.372147306e-13,1.504099398e-13,2.320295465e-13,7.045665211e-14,8.261855046e-14,5.063116824e-14,2.177514473e-13,2.47278273e-13,9.968209514e-14,1.474104133e-13,2.138774888e-13,4.444045656e-13,2.339585428e-13,1.605854153e-13,4.949316806e-14
1.140625,6.790967367e-14,2.109215826e-13,1.341182028e-13,1.312805058e-13,5.50846651e-14,1.632529622e-13,9.061699465e-14,5.179673054e-14,4.302237997e-14,2.236573449e-13,4.54336066e-14,9.610741421e-14,9.188705723e-14,1.618191007e-13,1.967266916e-13,2.014703444e-13,2.275460959e-13,1.322513448e-13,1.469231303e-13,2.276926978e-13,7.049642238e-14,7.655636818e-14,5.043308688e-14,2.279502834e-13,2.600186078e-13,9.846818018e-14,1.468234248e-13,2.119563059e-13,4.740747006e-13,2.246846009e-13,1.616200674e-13,4.739054827e-14
1.1484375,7.052005782e-14,2.049885151e-13,1.392200908e-13,1.291466022e-13,5.67773675e-14,1.590844061e-13,8.735194752e-14,5.140393418e-14,4.239238483e-14,2.452165271e-13,4.50846203e-14,9.464051951e-14,8.398120629e-14,1.587178145e-13,2.045193735e-13,1.951647493e-13,2.164567666e-13,1.266589136e-13,1.431254338e-13,2.231607434e-13,7.064077117e-14,7.1103093e-14,5.074396306e-14,2.389012063e-13,2.720323626e-13,9.700827274e-14,1.461517853e-13,2.107178159e-13,5.044302951e-13,2.17108554e-13,1.637518515e-13,4.605889498e-14
1.15625,7.367987643e-14,1.989946653e-13,1.44946282e-13,1.269329252e-13,5.891982726e-14,1.547766239e-13,8.406063006e-14,5.098503669e-14,4.224073869e-14,2.670883924e-13,4.468503072e-14,9.353627763e-14,7.636570745e-14,1.557354226e-13,2.134612766e-13,1.890671605e-13,2.046362642e-13,1.206766776e-13,1.389347974e-13,2.190061455e-13,7.102894883e-14,6.605730548e-14,5.144605662e-14,2.513916081e-13,2.836641936e-13,9.538325693e-14,1.455458772e-13,2.099435153e-13,5.352252156e-13,2.111405112e-13,1.671010098e-13,4.539752213e-14
1.1640625,7.744416831e-14,1.929671314e-13,1.506713669e-13,1.245355878e-13,6.151727081e-14,1.501473621e-13,8.085717832e-14,5.062534258e-14,4.262092385e-14,2.887704499e-13,4.437527497e-14,9.260958831e-14,6.919840669e-14,1.527161956e-13,2.23750751e-13,1.8338233e-13,1.921898495e-13,1.141997188e-13,1.34278999e-13,2.153468503e-13,7.175032573e-14,6.142421517e-14,5.234356878e-14,2.657165428e-13,2.944759986e-13,9.369044971e-14,1.448487793e-13,2.100352015e-13,5.661290759e-13,2.079759416e-13,1.719288289e-13,4.528735779e-14
1.171875,8.183133555e-14,1.872079661e-13,1.571811954e-13,1.220039505e-13,6.453448184e-14,1.45635661e-13,7.781240155e-14,5.036821606e-14,4.354515424e-14,3.099158602e-13,4.450192696e-14,9.175852468e-14,6.272561033e-14,1.498406443e-13,2.353912749e-13,1.782459255e-13,1.793168934e-13,1.07507972e-13,1.29449143e-13,2.120746779e-13,7.258740702e-14,5.730149317e-14,5.344608764e-14,2.81052055e-13,3.041482056e-13,9.186765164e-14,1.438301255e-13,2.108734849e-13,5.964431747e-13,2.079332027e-13,1.782469793e-13,4.566961977e-14
1.1796875,8.671110425e-14,1.817784734e-13,1.644492304e-13,1.195848759e-13,6.800604268e-14,1.414812581e-13,7.504808442e-14,5.039343245e-14,4.502720657e-14,3.2980189e-13,4.473248012e-14,9.115230893e-14,5.712269854e-14,1.4744124e-13,2.488168364e-13,1.74234321e-13,1.664443727e-13,1.009258808e-13,1.245928413e-13,2.095694969e-13,7.357009097e-14,5.366905141e-14,5.481332603e-14,2.978827145e-13,3.129186984e-13,8.99577285e-14,1.426247637e-13,2.114523546e-13,6.255781865e-13,2.097923469e-13,1.860309894e-13,4.656956067e-14
1.1875,9.230529601e-14,1.763846909e-13,1.716676712e-13,1.171112633e-13,7.180278079e-14,1.373929099e-13,7.267321741e-14,5.071902616e-14,4.703135107e-14,3.475024345e-13,4.518923567e-14,9.029131263e-14,5.224264937e-14,1.450465326e-13,2.639582964e-13,1.715070671e-13,1.53671242e-13,9.43416777e-14,1.19447542e-13,2.078030767e-13,7.46416376e-14,5.03889725e-14,5.633919224e-14,3.162816623e-13,3.200610355e-13,8.804254702e-14,1.411423907e-13,2.118611796e-13,6.520059831e-13,2.132694692e-13,1.947407614e-13,4.792924182e-14
1.1953125,9.860098388e-14,1.708115039e-13,1.793554321e-13,1.141354537e-13,7.566157384e-14,1.334108557e-13,7.045988144e-14,5.130044962e-14,4.958453109e-14,3.629244523e-13,4.602182851e-14,8.891751199e-14,4.78583253e-14,1.421508065e-13,2.798183312e-13,1.694896537e-13,1.408589967e-13,8.764945086e-14,1.141302127e-13,2.065210202e-13,7.569281034e-14,4.740759142e-14,5.795457987e-14,3.355330865e-13,3.255889774e-13,8.609052735e-14,1.392841023e-13,2.118602899e-13,6.748811494e-13,2.180239677e-13,2.035179491e-13,4.958593236e-14
1.203125,1.050127607e-13,1.655835902e-13,1.875004582e-13,1.111636219e-13,7.941829157e-14,1.297542866e-13,6.854468505e-14,5.209767591e-14,5.260604731e-14,3.760274138e-13,4.695889052e-14,8.772805017e-14,4.415386797e-14,1.394013263e-13,2.957302683e-13,1.680069828e-13,1.285778368e-13,8.141330089e-14,1.093520107e-13,2.063038718e-13,7.694346345e-14,4.489399913e-14,5.983003091e-14,3.563032847e-13,3.304946746e-13,8.423261625e-14,1.377024095e-13,2.115165883e-13,6.954909724e-13,2.236205079e-13,2.124448204e-13,5.144383127e-14
1.2109375,1.113583083e-13,1.612732752e-13,1.953020358e-13,1.086348973e-13,8.32093037e-14,1.263172265e-13,6.71525517e-14,5.311601357e-14,5.585973508e-14,3.863035064e-13,4.765084833e-14,8.679529796e-14,4.112215097e-14,1.371442878e-13,3.116922747e-13,1.673924647e-13,1.173556769e-13,7.594275217e-14,1.052019754e-13,2.074644457e-13,7.854384529e-14,4.286126515e-14,6.195444065e-14,3.783346278e-13,3.344984594e-13,8.259302713e-14,1.36630589e-13,2.117102904e-13,7.142015367e-13,2.306391701e-13,2.218016619e-13,5.346225818e-14
1.21875,1.177513645e-13,1.574636824e-13,2.033086944e-13,1.061093049e-13,8.720471345e-14,1.231075118e-13,6.59572216e-14,5.462559653e-14,5.931463183e-14,3.938236655e-13,4.821733044e-14,8.571462659e-14,3.857178345e-14,1.349290951e-13,3.277324512e-13,1.675171038e-13,1.06790255e-13,7.075248458e-14,1.011937673e-13,2.093740001e-13,8.033736549e-14,4.112232715e-14,6.405118319e-14,4.011668648e-13,3.370211754e-13,8.108708376e-14,1.355369211e-13,2.119525857e-13,7.299092149e-13,2.384380206e-13,2.311852931e-13,5.564262997e-14
1.2265625,1.23853979e-13,1.537820426e-13,2.118886314e-13,1.035317646e-13,9.120586809e-14,1.204095348e-13,6.489702283e-14,5.662462113e-14,6.281738054e-14,3.984456407e-13,4.895168753e-14,8.460444624e-14,3.63884092e-14,1.328193934e-13,3.428482945e-13,1.679716191e-13,9.684012819e-14,6.588606273e-14,9.747084727e-14,2.121089046e-13,8.221132411e-14,3.957895329e-14,6.597498553e-14,4.254381733e-13,3.381805857e-13,7.971958072e-14,1.345263609e-13,2.114092963e-13,7.427736645e-13,2.459273084e-13,2.40279347e-13,5.783478146e-14
1.234375,1.29669828e-13,1.504640732e-13,2.202914783e-13,1.011904488e-13,9.512115187e-14,1.181697259e-13,6.416469244e-14,5.896363908e-14,6.617683168e-14,3.999068933e-13,4.980708123e-14,8.358647048e-14,3.450405919e-14,1.310969843e-13,3.565612516e-13,1.689173333e-13,8.780849469e-14,6.156847003e-14,9.420197828e-14,2.161991458e-13,8.44215272e-14,3.830236567e-14,6.773522334e-14,4.499851517e-13,3.377388806e-13,7.856485684e-14,1.338305354e-13,2.103785605e-13,7.535999914e-13,2.53233832e-13,2.494033464e-13,5.989172111e-14
1.2421875,1.356889539e-13,1.475970455e-13,2.284721508e-13,9.901642998e-14,9.90210014e-14,1.161391183e-13,6.366026337e-14,6.15866396e-14,6.954585576e-14,3.983056048e-13,5.060525876e-14,8.245868725e-14,3.317535584e-14,1.295799083e-13,3.695117288e-13,1.703071932e-13,7.944953634e-14,5.750743163e-14,9.097081184e-14,2.213830724e-13,8.690364447e-14,3.746222211e-14,6.946170758e-14,4.74069091e-13,3.353863535e-13,7.750819578e-14,1.330662131e-13,2.093269976e-13,7.611728262e-13,2.607726057e-13,2.585695537e-13,6.194857603e-14
1.25,1.417177925e-13,1.45016337e-13,2.365080209e-13,9.6697123e-14,1.026753209e-13,1.14556462e-13,6.31506173e-14,6.43867683e-14,7.299667765e-14,3.93302833e-13,5.120722464e-14,8.107186212e-14,3.252814958e-14,1.279429786e-13,3.808503836e-13,1.714231514e-13,7.155464903e-14,5.369643853e-14,8.775850933e-14,2.274524528e-13,8.921157163e-14,3.708919152e-14,7.115022376e-14,4.987329414e-13,3.310715781e-13,7.640088843e-14,1.320295698e-13,2.085120115e-13,7.637815959e-13,2.688448765e-13,2.668542479e-13,6.400525266e-14
1.2578125,1.472967186e-13,1.426866767e-13,2.441597825e-13,9.416456402e-14,1.058454054e-13,1.137184371e-13,6.266218485e-14,6.749076155e-14,7.641703445e-14,3.844809121e-13,5.189183884e-14,7.952160114e-14,3.230543545e-14,1.262418967e-13,3.897515347e-13,1.721410029e-13,6.45306604e-14,5.045320965e-14,8.500755217e-14,2.34632342e-13,9.156376527e-14,3.706539243e-14,7.26418028e-14,5.23124914e-13,3.249293124e-13,7.53293869e-14,1.307960638e-13,2.083693581e-13,7.618330279e-13,2.77032671e-13,2.738016157e-13,6.582564663e-14
1.265625,1.526778617e-13,1.407670049e-13,2.514028773e-13,9.169644677e-14,1.084129662e-13,1.133692135e-13,6.230463125e-14,7.081989817e-14,7.97141808e-14,3.7223197e-13,5.245543908e-14,7.792085426e-14,3.239835479e-14,1.248394606e-13,3.968097004e-13,1.726130227e-13,5.862513118e-14,4.78446342e-14,8.276130176e-14,2.432062288e-13,9.421301862e-14,3.733128513e-14,7.405943826e-14,5.457767047e-13,3.176666346e-13,7.441618043e-14,1.293087296e-13,2.089603603e-13,7.557495942e-13,2.848882345e-13,2.795078097e-13,6.736463001e-14
1.2734375,1.581822999e-13,1.391352679e-13,2.581528025e-13,8.925751829e-14,1.103582424e-13,1.134707743e-13,6.188990843e-14,7.422475686e-14,8.288981415e-14,3.576166616e-13,5.260213281e-14,7.622464992e-14,3.28464398e-14,1.236446394e-13,4.017237672e-13,1.72742759e-13,5.345886561e-14,4.570488588e-14,8.080029442e-14,2.5329522e-13,9.680205529e-14,3.782879194e-14,7.537706265e-14,5.66736296e-13,3.094566367e-13,7.358051674e-14,1.275413933e-13,2.098548124e-13,7.449159539e-13,2.926244244e-13,2.834767599e-13,6.871945703e-14
1.28125,1.635370756e-13,1.375060535e-13,2.645400611e-13,8.665776647e-14,1.116387021e-13,1.144680828e-13,6.126021752e-14,7.772673164e-14,8.590987521e-14,3.407359432e-13,5.275775001e-14,7.448814421e-14,3.359946155e-14,1.223360453e-13,4.038517241e-13,1.724156937e-13,4.898067126e-14,4.400672049e-14,7.921844143e-14,2.645946491e-13,9.9191221e-14,3.839966817e-14,7.620845356e-14,5.860358325e-13,2.99883341e-13,7.270602398e-14,1.256489105e-13,2.10471401e-13,7.29722062e-13,2.999159508e-13,2.854393387e-13,6.970598195e-14
1.2890625,1.685303205e-13,1.358368497e-13,2.703740677e-13,8.398687818e-14,1.119770393e-13,1.161427624e-13,6.043815096e-14,8.084459331e-14,8.845031631e-14,3.217221619e-13,5.278335464e-14,7.277244385e-14,3.456451826e-14,1.209307434e-13,4.034222737e-13,1.711731477e-13,4.537246177e-14,4.276867974e-14,7.811059221e-14,2.769026495e-13,1.014240147e-13,3.89575809e-14,7.656013877e-14,6.028651269e-13,2.894123412e-13,7.172000779e-14,1.236091892e-13,2.107110643e-13,7.109591452e-13,3.065809601e-13,2.85699649e-13,7.001000415e-14
1.296875,1.730684415e-13,1.340204852e-13,2.748644683e-13,8.123302077e-14,1.115574048e-13,1.17834906e-13,5.941934865e-14,8.33801309e-14,9.042132063e-14,3.016555589e-13,5.256515009e-14,7.093693962e-14,3.564733128e-14,1.193496321e-13,4.005118602e-13,1.690000758e-13,4.237567007e-14,4.176709473e-14,7.719490232e-14,2.89999035e-13,1.034647361e-13,3.955776872e-14,7.675131336e-14,6.162285989e-13,2.784257041e-13,7.061773353e-14,1.213041107e-13,2.109364439e-13,6.888316653e-13,3.130311879e-13,2.843932454e-13,6.981054588e-14
1.3046875,1.769933721e-13,1.321128535e-13,2.781936168e-13,7.846822489e-14,1.10872745e-13,1.197462461e-13,5.833791301e-14,8.568159136e-14,9.208179962e-14,2.807196929e-13,5.243390032e-14,6.912911115e-14,3.682091045e-14,1.177117246e-13,3.953636407e-13,1.663004984e-13,3.994543963e-14,4.090745107e-14,7.641103368e-14,3.038828144e-13,1.053179024e-13,4.02376739e-14,7.67860247e-14,6.263037693e-13,2.665257019e-13,6.955013027e-14,1.189689506e-13,2.111054293e-13,6.639563449e-13,3.191860616e-13,2.817439225e-13,6.945215084e-14
1.3125,1.804782142e-13,1.301903333e-13,2.818883096e-13,7.581055699e-14,1.097181767e-13,1.224943456e-13,5.727478093e-14,8.766282479e-14,9.331303307e-14,2.592672083e-13,5.222828451e-14,6.756221277e-14,3.817587504e-14,1.164009085e-13,3.88388864e-13,1.627997003e-13,3.809221389e-14,4.041962559e-14,7.587926592e-14,3.191518641e-13,1.067453145e-13,4.09596644e-14,7.644178578e-14,6.334570848e-13,2.537095002e-13,6.85566444e-14,1.165774929e-13,2.115034984e-13,6.370391109e-13,3.252673138e-13,2.778524919e-13,6.878741988e-14
1.3203125,1.834686983e-13,1.278109993e-13,2.860162345e-13,7.298335845e-14,1.077419889e-13,1.260180394e-13,5.596223747e-14,8.907561698e-14,9.395039089e-14,2.379303817e-13,5.149446048e-14,6.602961187e-14,3.968274885e-14,1.151512064e-13,3.790162572e-13,1.581149525e-13,3.644247159e-14,4.029266253e-14,7.53865764e-14,3.353211661e-13,1.075957496e-13,4.165690281e-14,7.570672341e-14,6.371146813e-13,2.405152266e-13,6.748306655e-14,1.138253501e-13,2.11945026e-13,6.080707385e-13,3.311765531e-13,2.723331264e-13,6.763520067e-14
1.328125,1.860299498e-13,1.249884993e-13,2.893640015e-13,6.997824261e-14,1.050408348e-13,1.299231536e-13,5.445752572e-14,8.979132376e-14,9.417427697e-14,2.16946326e-13,5.039331711e-14,6.457571065e-14,4.11402524e-14,1.138009062e-13,3.675182584e-13,1.525153246e-13,3.508327129e-14,4.035336821e-14,7.497078158e-14,3.519023573e-13,1.080256569e-13,4.236438548e-14,7.475722284e-14,6.375707024e-13,2.273095035e-13,6.630315125e-14,1.109968944e-13,2.118273731e-13,5.771871042e-13,3.359411069e-13,2.653279141e-13,6.61079937e-14
1.3359375,1.884508502e-13,1.22234139e-13,2.922401971e-13,6.720595026e-14,1.018198713e-13,1.341396805e-13,5.305880256e-14,8.991531643e-14,9.397831763e-14,1.969016186e-13,4.95378447e-14,6.343118292e-14,4.249417318e-14,1.127941784e-13,3.554533948e-13,1.464527802e-13,3.427496413e-14,4.075333721e-14,7.48122238e-14,3.69587001e-13,1.080382994e-13,4.310249395e-14,7.35602397e-14,6.352010731e-13,2.140766669e-13,6.509812287e-14,1.083156854e-13,2.118303406e-13,5.453879902e-13,3.403239832e-13,2.575743355e-13,6.423880257e-14
1.34375,1.901880676e-13,1.194854216e-13,2.944743739e-13,6.476740722e-14,9.830330137e-14,1.386891958e-13,5.17242902e-14,8.969552081e-14,9.317055426e-14,1.777305053e-13,4.875202827e-14,6.23597044e-14,4.371585966e-14,1.120571e-13,3.432459505e-13,1.401318709e-13,3.385280826e-14,4.138946695e-14,7.456359993e-14,3.880643724e-13,1.076787404e-13,4.366282542e-14,7.200780615e-14,6.287892637e-13,2.007835837e-13,6.393013828e-14,1.05653989e-13,2.117177102e-13,5.13984327e-13,3.457488031e-13,2.496081085e-13,6.20067738e-14
1.3515625,1.910700309e-13,1.166528179e-13,2.954149564e-13,6.259000917e-14,9.459717918e-14,1.434662435e-13,5.055136735e-14,8.894528785e-14,9.171499974e-14,1.594261552e-13,4.783365425e-14,6.126547661e-14,4.465750263e-14,1.114303872e-13,3.307316344e-13,1.336358639e-13,3.382213565e-14,4.206505897e-14,7.414935189e-14,4.069036094e-13,1.070192876e-13,4.398076851e-14,7.020707549e-14,6.181144186e-13,1.875799449e-13,6.284323118e-14,1.031751943e-13,2.107389173e-13,4.835792318e-13,3.519652965e-13,2.416982933e-13,5.949472875e-14
1.359375,1.915561407e-13,1.13863308e-13,2.955594037e-13,6.082867387e-14,9.078176405e-14,1.483490339e-13,4.956267491e-14,8.762368564e-14,8.975691309e-14,1.424443537e-13,4.717469984e-14,6.040807168e-14,4.544460562e-14,1.113678238e-13,3.181694497e-13,1.272296344e-13,3.413758322e-14,4.321992858e-14,7.399743774e-14,4.257824274e-13,1.058403858e-13,4.422867378e-14,6.821569473e-14,6.048505112e-13,1.748796383e-13,6.175369299e-14,1.008291526e-13,2.095095934e-13,4.539288211e-13,3.58345395e-13,2.336295399e-13,5.6799384e-14
1.3671875,1.914936584e-13,1.109838911e-13,2.947439326e-13,5.96739883e-14,8.70612966e-14,1.53194591e-13,4.853077263e-14,8.60192368e-14,8.744143132e-14,1.267823533e-13,4.674400816e-14,5.964452448e-14,4.632393207e-14,1.118158394e-13,3.06101618e-13,1.214395404e-13,3.44870579e-14,4.485942589e-14,7.387826491e-14,4.434177664e-13,1.041221399e-13,4.433877507e-14,6.597575324e-14,5.890603916e-13,1.626497107e-13,6.055975206e-14,9.832356437e-14,2.078108793e-13,4.250107785e-13,3.643933866e-13,2.252613232e-13,5.394632225e-14
1.375,1.905939989e-13,1.079949076e-13,2.929116924e-13,5.900125224e-14,8.340910589e-14,1.578927397e-13,4.751820879e-14,8.398461746e-14,8.471334275e-14,1.125373087e-13,4.62349e-14,5.872507693e-14,4.717847118e-14,1.120658255e-13,2.945595739e-13,1.161303056e-13,3.486806459e-14,4.642656117e-14,7.334608405e-14,4.599645278e-13,1.021163905e-13,4.41776947e-14,6.357918709e-14,5.699506013e-13,1.504227294e-13,5.927286977e-14,9.572767455e-14,2.049256422e-13,3.972548372e-13,3.700348955e-13,2.169441901e-13,5.092735593e-14
1.3828125,1.888407395e-13,1.05020338e-13,2.903143148e-13,5.859920271e-14,7.99047294e-14,1.624513341e-13,4.664071332e-14,8.146907004e-14,8.162918334e-14,9.96373869e-14,4.574836707e-14,5.782511198e-14,4.782284912e-14,1.121501711e-13,2.830444702e-13,1.109219674e-13,3.536126442e-14,4.801736585e-14,7.266243609e-14,4.7590291e-13,9.984569498e-14,4.386164266e-14,6.120681e-14,5.48934638e-13,1.387364958e-13,5.794478699e-14,9.31922388e-14,2.010726037e-13,3.709483685e-13,3.753256563e-13,2.08872024e-13,4.788525324e-14
1.390625,1.865037361e-13,1.021179296e-13,2.869901196e-13,5.868396932e-14,7.687698125e-14,1.670707448e-13,4.587370201e-14,7.881675492e-14,7.841489263e-14,8.793217324e-14,4.554849798e-14,5.714231238e-14,4.834151631e-14,1.1264704e-13,2.722708218e-13,1.063070636e-13,3.584800496e-14,4.991261638e-14,7.206688967e-14,4.901132461e-13,9.725032554e-14,4.344637392e-14,5.885420633e-14,5.270629854e-13,1.280411061e-13,5.662390882e-14,9.066019084e-14,1.967066442e-13,3.46067104e-13,3.795243261e-13,2.010830634e-13,4.493540855e-14
1.3984375,1.835004698e-13,9.922717125e-14,2.831263206e-13,5.94057069e-14,7.424606915e-14,1.717478989e-13,4.511748287e-14,7.601350853e-14,7.507456816e-14,7.761921827e-14,4.550418128e-14,5.671204318e-14,4.88216953e-14,1.134053027e-13,2.623537438e-13,1.022540258e-13,3.626198824e-14,5.200201255e-14,7.153007174e-14,5.021401909e-13,9.441322911e-14,4.287727901e-14,5.641163512e-14,5.041351337e-13,1.179696888e-13,5.525395849e-14,8.798267695e-14,1.920360096e-13,3.224445254e-13,3.829151722e-13,1.933902711e-13,4.198638587e-14
1.40625,1.79434338e-13,9.62170448e-14,2.781499872e-13,6.044782775e-14,7.199815773e-14,1.75967375e-13,4.439986983e-14,7.30959268e-14,7.166109441e-14,6.87065443e-14,4.57494998e-14,5.641553754e-14,4.917991901e-14,1.140012317e-13,2.523730526e-13,9.834526405e-14,3.660657249e-14,5.410183987e-14,7.090507546e-14,5.119992977e-13,9.136590431e-14,4.221056618e-14,5.39356164e-14,4.809127439e-13,1.085416771e-13,5.386799883e-14,8.526208351e-14,1.865118156e-13,3.002599713e-13,3.859596561e-13,1.858079608e-13,3.91535135e-14
1.4140625,1.747635776e-13,9.329900545e-14,2.723837853e-13,6.185054373e-14,7.042228916e-14,1.795856118e-13,4.398071733e-14,7.040515066e-14,6.837994113e-14,6.100365883e-14,4.678167031e-14,5.619024719e-14,4.939478508e-14,1.146789587e-13,2.431234412e-13,9.506280716e-14,3.705652953e-14,5.619743297e-14,7.00432896e-14,5.194893147e-13,8.807354108e-14,4.150258609e-14,5.149200078e-14,4.581729842e-13,9.980801708e-14,5.269513694e-14,8.274372149e-14,1.80034045e-13,2.796428137e-13,3.872787966e-13,1.787329188e-13,3.666206371e-14
1.421875,1.696100437e-13,9.060055482e-14,2.663102281e-13,6.385578387e-14,6.944119647e-14,1.829169439e-13,4.364292014e-14,6.789210907e-14,6.524583189e-14,5.429510129e-14,4.84158668e-14,5.622050579e-14,4.954261726e-14,1.156263753e-13,2.346744955e-13,9.250663059e-14,3.75242791e-14,5.836052489e-14,6.913832858e-14,5.243378159e-13,8.45921036e-14,4.076094966e-14,4.906867002e-14,4.357310756e-13,9.184559726e-14,5.167359011e-14,8.018271966e-14,1.733971862e-13,2.60114305e-13,3.868781049e-13,1.718397361e-13,3.443407737e-14
1.4296875,1.635998188e-13,8.793272473e-14,2.591897571e-13,6.626631871e-14,6.899194736e-14,1.858030477e-13,4.301731089e-14,6.550319204e-14,6.224278744e-14,4.840749112e-14,5.033516776e-14,5.644445158e-14,4.956905684e-14,1.16406368e-13,2.258778797e-13,9.023214474e-14,3.752017967e-14,6.042661915e-14,6.812325377e-14,5.257259585e-13,8.110071369e-14,3.999652043e-14,4.682282591e-14,4.136339237e-13,8.465562207e-14,5.061954913e-14,7.734135274e-14,1.663041855e-13,2.414277668e-13,3.858997985e-13,1.64775337e-13,3.244544796e-14
1.4375,1.57111099e-13,8.545856205e-14,2.512752778e-13,6.915413792e-14,6.933982979e-14,1.880164403e-13,4.24073059e-14,6.334879477e-14,5.935650916e-14,4.33376017e-14,5.271066525e-14,5.672360837e-14,4.942160778e-14,1.170437536e-13,2.177273576e-13,8.851659754e-14,3.72186995e-14,6.242051149e-14,6.683661677e-14,5.239450746e-13,7.769222667e-14,3.91624415e-14,4.484239736e-14,3.927271171e-13,7.804981571e-14,4.969258706e-14,7.454095253e-14,1.583367184e-13,2.238035868e-13,3.833743178e-13,1.578868289e-13,3.080910859e-14
1.4453125,1.501287981e-13,8.326191135e-14,2.427778251e-13,7.267713999e-14,7.055987875e-14,1.896883175e-13,4.190611821e-14,6.134481946e-14,5.649940624e-14,3.909634665e-14,5.552997526e-14,5.724957951e-14,4.916360244e-14,1.179599703e-13,2.108002636e-13,8.759899423e-14,3.687102117e-14,6.458768935e-14,6.557418599e-14,5.19621614e-13,7.421646797e-14,3.823947571e-14,4.291395404e-14,3.728973935e-13,7.209339108e-14,4.893191198e-14,7.17935122e-14,1.503559663e-13,2.06911518e-13,3.786911053e-13,1.510955413e-13,2.944122153e-14
1.453125,1.425984634e-13,8.115558814e-14,2.341000474e-13,7.65626105e-14,7.249849906e-14,1.909443765e-13,4.133427842e-14,5.952655698e-14,5.372360676e-14,3.54603934e-14,5.868843594e-14,5.813885393e-14,4.878587474e-14,1.190200216e-13,2.039426812e-13,8.723936008e-14,3.629824687e-14,6.679197554e-14,6.440408923e-14,5.126218325e-13,7.068343237e-14,3.730397917e-14,4.096974442e-14,3.536943522e-13,6.666472133e-14,4.82281055e-14,6.890320141e-14,1.425515698e-13,1.903704422e-13,3.726987959e-13,1.442031995e-13,2.82848032e-14
1.4609375,1.350073552e-13,7.927467257e-14,2.25883037e-13,8.077840385e-14,7.518744366e-14,1.918313374e-13,4.093522561e-14,5.788905277e-14,5.106826681e-14,3.228548436e-14,6.239260039e-14,5.927529869e-14,4.826929281e-14,1.201681486e-13,1.974533935e-13,8.762811808e-14,3.573681827e-14,6.892918491e-14,6.319026423e-14,5.03395279e-13,6.733026998e-14,3.6400027e-14,3.91821912e-14,3.359860219e-13,6.183334761e-14,4.772931606e-14,6.610090205e-14,1.34103262e-13,1.747644723e-13,3.65565074e-13,1.375485289e-13,2.740821507e-14
1.46875,1.27377567e-13,7.779834453e-14,2.173218259e-13,8.538775777e-14,7.866280158e-14,1.923374382e-13,4.071473884e-14,5.636315366e-14,4.847507631e-14,2.970312634e-14,6.670871382e-14,6.06156747e-14,4.765898531e-14,1.215814475e-13,1.91858589e-13,8.872268814e-14,3.525282315e-14,7.1062271e-14,6.203241546e-14,4.916789827e-13,6.412854144e-14,3.551931909e-14,3.756714028e-14,3.197152184e-13,5.75760316e-14,4.74337802e-14,6.344443301e-14,1.255789139e-13,1.603705717e-13,3.567942799e-13,1.312129068e-13,2.678724125e-14
1.4765625,1.197994281e-13,7.670702214e-14,2.087916908e-13,9.028689294e-14,8.271782051e-14,1.926093717e-13,4.0405187e-14,5.512145237e-14,4.60278561e-14,2.758627926e-14,7.143986397e-14,6.232058535e-14,4.697667178e-14,1.23231368e-13,1.865474323e-13,9.016248389e-14,3.4672426e-14,7.305459781e-14,6.10457736e-14,4.773384628e-13,6.098395771e-14,3.471403678e-14,3.608207868e-14,3.045061794e-13,5.355061193e-14,4.716793681e-14,6.086256314e-14,1.181466403e-13,1.466291364e-13,3.464539104e-13,1.249944699e-13,2.639882852e-14
1.484375,1.124316679e-13,7.58389031e-14,2.008177055e-13,9.531672443e-14,8.725114284e-14,1.925468143e-13,3.993021999e-14,5.418240254e-14,4.388588765e-14,2.57244941e-14,7.637198322e-14,6.43697928e-14,4.623127901e-14,1.249396893e-13,1.81152099e-13,9.189586409e-14,3.392473067e-14,7.472984637e-14,6.017940795e-14,4.616523978e-13,5.805295313e-14,3.407628541e-14,3.483034505e-14,2.908986168e-13,4.996717521e-14,4.697602691e-14,5.839401413e-14,1.113495848e-13,1.335399941e-13,3.355566284e-13,1.188823351e-13,2.62879452e-14
1.4921875,1.054593009e-13,7.517525995e-14,1.931867636e-13,1.002298177e-13,9.219931143e-14,1.919124859e-13,3.951788601e-14,5.338645484e-14,4.209500072e-14,2.421554628e-14,8.171057971e-14,6.66426488e-14,4.541381415e-14,1.266544499e-13,1.76057709e-13,9.390345508e-14,3.314534536e-14,7.608750777e-14,5.933247515e-14,4.451215703e-13,5.542354098e-14,3.362382125e-14,3.383826533e-14,2.785691494e-13,4.692401512e-14,4.697748441e-14,5.602701339e-14,1.04954335e-13,1.213610727e-13,3.242284676e-13,1.130759681e-13,2.650815064e-14
1.5,9.912942704e-14,7.493537095e-14,1.866393499e-13,1.051973481e-13,9.755509065e-14,1.913942413e-13,3.942076661e-14,5.285347594e-14,4.057339014e-14,2.304077686e-14,8.80211317e-14,6.92844805e-14,4.457323169e-14,1.287404253e-13,1.722166054e-13,9.650953898e-14,3.274249738e-14,7.735465709e-14,5.857276371e-14,4.27618708e-13,5.303278526e-14,3.331521199e-14,3.301357377e-14,2.674686609e-13,4.4346637e-14,4.727128271e-14,5.382480534e-14,9.945128304e-14,1.095361234e-13,3.120989795e-13,1.077399953e-13,2.711388839e-14
1.5078125,9.299851768e-14,7.498181009e-14,1.804198548e-13,1.103250284e-13,1.034093031e-13,1.910428515e-13,3.931413594e-14,5.272114345e-14,3.930643706e-14,2.203510577e-14,9.492266638e-14,7.220893688e-14,4.38235021e-14,1.310229154e-13,1.691661626e-13,9.961970272e-14,3.249884981e-14,7.84661806e-14,5.789609092e-14,4.091288385e-13,5.081948276e-14,3.312626712e-14,3.233908953e-14,2.577647184e-13,4.220727321e-14,4.780492774e-14,5.169948613e-14,9.450217202e-14,9.798023746e-14,2.996003262e-13,1.025593678e-13,2.811569238e-14
1.515625,8.694726036e-14,7.506667143e-14,1.74007703e-13,1.151482001e-13,1.095010505e-13,1.89839729e-13,3.91136635e-14,5.281012145e-14,3.837506626e-14,2.119815897e-14,1.018414126e-13,7.508958559e-14,4.31446667e-14,1.32912531e-13,1.659625482e-13,1.027184474e-13,3.232131096e-14,7.901885746e-14,5.713099885e-14,3.898000809e-13,4.875880688e-14,3.302536511e-14,3.183476988e-14,2.489350616e-13,4.022957598e-14,4.846514121e-14,4.959494878e-14,9.004588289e-14,8.738674987e-14,2.864064288e-13,9.736167357e-14,2.949366894e-14
1.5234375,8.127507098e-14,7.522371208e-14,1.684132491e-13,1.196031919e-13,1.156167492e-13,1.881155068e-13,3.908903825e-14,5.300973621e-14,3.764683342e-14,2.058636623e-14,1.092371141e-13,7.778987988e-14,4.244550933e-14,1.345314731e-13,1.633977072e-13,1.060388186e-13,3.247644443e-14,7.916352121e-14,5.634554325e-14,3.700554691e-13,4.697115854e-14,3.294271143e-14,3.146379011e-14,2.412705387e-13,3.849839437e-14,4.931974719e-14,4.758697995e-14,8.626256278e-14,7.748758753e-14,2.723648324e-13,9.234254227e-14,3.115092042e-14
1.53125,7.586612819e-14,7.552147026e-14,1.633421204e-13,1.239516922e-13,1.218230799e-13,1.864421309e-13,3.902103699e-14,5.32871704e-14,3.695921038e-14,2.019355311e-14,1.168844523e-13,8.032619096e-14,4.168615278e-14,1.360012567e-13,1.615807464e-13,1.096923275e-13,3.273446276e-14,7.916569009e-14,5.562732275e-14,3.501058101e-13,4.55162171e-14,3.286399313e-14,3.117939405e-14,2.344064516e-13,3.721235615e-14,5.031966552e-14,4.564046979e-14,8.305082383e-14,6.811122336e-14,2.58336285e-13,8.754784769e-14,3.293508856e-14
1.5390625,7.075491362e-14,7.593067464e-14,1.583752046e-13,1.27898122e-13,1.279173577e-13,1.843125137e-13,3.886319596e-14,5.340672053e-14,3.64150004e-14,1.99707257e-14,1.241209571e-13,8.273279297e-14,4.086778886e-14,1.370855632e-13,1.600613029e-13,1.133564833e-13,3.319254687e-14,7.867248837e-14,5.486633669e-14,3.303558855e-13,4.435504816e-14,3.286134562e-14,3.100122682e-14,2.274271624e-13,3.626397991e-14,5.136739066e-14,4.379766494e-14,8.053589281e-14,5.968578357e-14,2.451714888e-13,8.311941459e-14,3.480036611e-14
1.546875,6.59978038e-14,7.615209906e-14,1.535425658e-13,1.308200132e-13,1.335019221e-13,1.815001372e-13,3.88034444e-14,5.325923893e-14,3.602539808e-14,1.982931773e-14,1.312280239e-13,8.476994628e-14,4.002548289e-14,1.375749495e-13,1.591060087e-13,1.168058129e-13,3.397536828e-14,7.753243564e-14,5.405339008e-14,3.111293618e-13,4.35673334e-14,3.293330469e-14,3.095709697e-14,2.211943667e-13,3.556135529e-14,5.2493321e-14,4.207448203e-14,7.863268252e-14,5.21936259e-14,2.331955717e-13,7.899471942e-14,3.668494872e-14
1.5546875,6.172157656e-14,7.608179342e-14,1.491238758e-13,1.326202143e-13,1.384074524e-13,1.780420594e-13,3.877409913e-14,5.291573592e-14,3.567984131e-14,1.975444491e-14,1.379876151e-13,8.627381659e-14,3.910421244e-14,1.374347035e-13,1.583551746e-13,1.199883633e-13,3.490277543e-14,7.60444618e-14,5.32000732e-14,2.927320294e-13,4.29854469e-14,3.299639818e-14,3.090807922e-14,2.158986122e-13,3.509038936e-14,5.364618875e-14,4.044138567e-14,7.739592482e-14,4.586494924e-14,2.220748136e-13,7.509810559e-14,3.847721904e-14
1.5625,5.808934881e-14,7.59050826e-14,1.455759142e-13,1.336643282e-13,1.427499747e-13,1.741701011e-13,3.861679075e-14,5.247637607e-14,3.54485894e-14,1.980457238e-14,1.441362322e-13,8.740115876e-14,3.808464219e-14,1.367930748e-13,1.579311329e-13,1.231011488e-13,3.595472626e-14,7.429012878e-14,5.23323571e-14,2.757660817e-13,4.246635524e-14,3.303898374e-14,3.076742793e-14,2.109635303e-13,3.492638221e-14,5.483945009e-14,3.885374224e-14,7.693722516e-14,4.060804583e-14,2.117223251e-13,7.158266568e-14,4.024984114e-14
1.5703125,5.478906828e-14,7.538639717e-14,1.423396709e-13,1.337368995e-13,1.464334328e-13,1.700593535e-13,3.820999237e-14,5.20826355e-14,3.537601681e-14,1.977073729e-14,1.501970756e-13,8.805613113e-14,3.702810505e-14,1.354984547e-13,1.582286224e-13,1.26116982e-13,3.706397561e-14,7.210052591e-14,5.144468721e-14,2.600758841e-13,4.221010801e-14,3.30506942e-14,3.069741137e-14,2.071684388e-13,3.517721187e-14,5.612548753e-14,3.729609495e-14,7.705616537e-14,3.613734814e-14,2.017619773e-13,6.817944235e-14,4.211137231e-14
1.578125,5.178109969e-14,7.444530382e-14,1.393071122e-13,1.326211244e-13,1.491589917e-13,1.653567994e-13,3.771796329e-14,5.169824515e-14,3.53921146e-14,1.955211201e-14,1.557947483e-13,8.822538254e-14,3.592538711e-14,1.335143076e-13,1.588248113e-13,1.291431183e-13,3.84148159e-14,6.958481718e-14,5.03511034e-14,2.452098515e-13,4.213547501e-14,3.295466883e-14,3.071521475e-14,2.042229108e-13,3.576713112e-14,5.743979576e-14,3.589778067e-14,7.781745317e-14,3.262941242e-14,1.922608068e-13,6.484056782e-14,4.398119271e-14
1.5859375,4.927699139e-14,7.351478147e-14,1.369734822e-13,1.31039879e-13,1.51061997e-13,1.603191508e-13,3.72940432e-14,5.126412747e-14,3.548820527e-14,1.953913964e-14,1.602303517e-13,8.825449357e-14,3.4867179e-14,1.312141771e-13,1.60064512e-13,1.327229272e-13,4.017175582e-14,6.712928509e-14,4.910667765e-14,2.311269219e-13,4.214563663e-14,3.275560101e-14,3.06792507e-14,2.010948856e-13,3.661363064e-14,5.872353715e-14,3.465290786e-14,7.916234552e-14,3.00452077e-14,1.837194569e-13,6.188313292e-14,4.571975882e-14
1.59375,4.719313412e-14,7.257252963e-14,1.350669903e-13,1.291599911e-13,1.521750715e-13,1.551397636e-13,3.675747052e-14,5.080016504e-14,3.564263046e-14,1.97931355e-14,1.632073265e-13,8.814915487e-14,3.391178938e-14,1.286154534e-13,1.617446347e-13,1.364460854e-13,4.209404058e-14,6.466647196e-14,4.793570593e-14,2.178578323e-13,4.24157298e-14,3.252595709e-14,3.056837145e-14,1.979116773e-13,3.788927213e-14,5.983369634e-14,3.344310446e-14,8.093470217e-14,2.835384214e-14,1.758329487e-13,5.918385315e-14,4.720777113e-14
1.6015625,4.55073856e-14,7.134717005e-14,1.334612229e-13,1.264820257e-13,1.52144788e-13,1.494508408e-13,3.605082094e-14,5.02639833e-14,3.578190985e-14,2.005626695e-14,1.644981479e-13,8.765751429e-14,3.30036775e-14,1.254515849e-13,1.63046887e-13,1.397981894e-13,4.410711067e-14,6.199947101e-14,4.676580644e-14,2.054478453e-13,4.289890155e-14,3.225014172e-14,3.036289584e-14,1.940668405e-13,3.947497931e-14,6.062040295e-14,3.221621575e-14,8.331438884e-14,2.722184187e-14,1.690775097e-13,5.650502382e-14,4.837597684e-14
1.609375,4.409733196e-14,7.002354833e-14,1.323449431e-13,1.233920784e-13,1.511353144e-13,1.438474603e-13,3.519486621e-14,4.978565242e-14,3.584331412e-14,2.034878282e-14,1.649133662e-13,8.67933283e-14,3.213667487e-14,1.218534162e-13,1.648384956e-13,1.43576255e-13,4.628528993e-14,5.925919311e-14,4.548478111e-14,1.937680515e-13,4.33901825e-14,3.189479024e-14,3.007453244e-14,1.893237981e-13,4.119684888e-14,6.114826867e-14,3.102873353e-14,8.626090675e-14,2.64378223e-14,1.631140153e-13,5.384541317e-14,4.926655834e-14
1.6171875,4.28456478e-14,6.867671498e-14,1.316261043e-13,1.201102598e-13,1.494759225e-13,1.38422562e-13,3.415800224e-14,4.943221903e-14,3.589165396e-14,2.059842463e-14,1.648806606e-13,8.572635937e-14,3.125797778e-14,1.18072027e-13,1.670951952e-13,1.475650522e-13,4.84372998e-14,5.639516175e-14,4.418723092e-14,1.829261594e-13,4.382520116e-14,3.151554284e-14,2.974363356e-14,1.850965078e-13,4.353681987e-14,6.153349476e-14,2.992409928e-14,8.966543075e-14,2.627236936e-14,1.575322505e-13,5.13405447e-14,4.997504459e-14
1.625,4.180708189e-14,6.710778357e-14,1.307860889e-13,1.161430979e-13,1.47127467e-13,1.323926666e-13,3.31113384e-14,4.913313554e-14,3.603587244e-14,2.082254048e-14,1.634220328e-13,8.440087427e-14,3.041332531e-14,1.140416728e-13,1.690499944e-13,1.511214353e-13,5.051066132e-14,5.341654679e-14,4.289334193e-14,1.729628882e-13,4.428840373e-14,3.115297844e-14,2.934135694e-14,1.813575115e-13,4.649868595e-14,6.1771629e-14,2.880137375e-14,9.361266145e-14,2.649876858e-14,1.532349801e-13,4.904938141e-14,5.062286387e-14
1.6328125,4.085779893e-14,6.528983621e-14,1.293771416e-13,1.115811777e-13,1.441685049e-13,1.262538904e-13,3.213989306e-14,4.905300371e-14,3.611389204e-14,2.115963197e-14,1.604595759e-13,8.247702342e-14,2.960596054e-14,1.097174388e-13,1.716882593e-13,1.553245707e-13,5.277592203e-14,5.046706532e-14,4.149653099e-14,1.63428104e-13,4.475572116e-14,3.075305575e-14,2.891804709e-14,1.773221569e-13,4.956789245e-14,6.180935453e-14,2.758103635e-14,9.785254586e-14,2.692640303e-14,1.492083599e-13,4.675375524e-14,5.127474277e-14
1.640625,4.000890024e-14,6.323305636e-14,1.277406931e-13,1.067103654e-13,1.407297073e-13,1.204039497e-13,3.116385836e-14,4.920596937e-14,3.596501036e-14,2.133562098e-14,1.56762206e-13,7.987740633e-14,2.866085834e-14,1.052046438e-13,1.749144892e-13,1.60097656e-13,5.50575092e-14,4.75253039e-14,3.994405868e-14,1.545873361e-13,4.514295694e-14,3.021316585e-14,2.848418319e-14,1.736013923e-13,5.288541077e-14,6.17347609e-14,2.633911587e-14,1.021172973e-13,2.768367893e-14,1.45352456e-13,4.444277449e-14,5.186994863e-14
1.6484375,3.927421807e-14,6.106147778e-14,1.258335722e-13,1.016210269e-13,1.369113846e-13,1.145687731e-13,3.017182813e-14,4.948849828e-14,3.563461732e-14,2.127465248e-14,1.52232453e-13,7.691153034e-14,2.759944588e-14,1.006697486e-13,1.776991174e-13,1.644394063e-13,5.716350106e-14,4.473887766e-14,3.829219469e-14,1.467374858e-13,4.546759376e-14,2.949373764e-14,2.790332162e-14,1.702960393e-13,5.673403648e-14,6.165164586e-14,2.53629197e-14,1.064761538e-13,2.878105933e-14,1.426335975e-13,4.245985863e-14,5.229136341e-14
1.65625,3.848389315e-14,5.905753636e-14,1.232433306e-13,9.659723041e-14,1.328177372e-13,1.092061193e-13,2.918320161e-14,5.007645683e-14,3.508688246e-14,2.115650394e-14,1.465213656e-13,7.371236471e-14,2.652451534e-14,9.640225984e-14,1.80616553e-13,1.692162864e-13,5.944761425e-14,4.230449449e-14,3.673870171e-14,1.393550211e-13,4.561182032e-14,2.865900801e-14,2.716197727e-14,1.668543323e-13,6.124711761e-14,6.141638255e-14,2.470460682e-14,1.108793327e-13,3.012795645e-14,1.399656884e-13,4.080944278e-14,5.242519116e-14
1.6640625,3.777720998e-14,5.728941551e-14,1.203806568e-13,9.17754913e-14,1.285397904e-13,1.043589974e-13,2.828632761e-14,5.097494454e-14,3.427223857e-14,2.086688333e-14,1.400107219e-13,7.029483318e-14,2.539417548e-14,9.241115245e-14,1.839431939e-13,1.747782851e-13,6.180739115e-14,4.014457131e-14,3.525750255e-14,1.325456787e-13,4.553586411e-14,2.771426051e-14,2.642783934e-14,1.635003164e-13,6.641354421e-14,6.101463118e-14,2.411303752e-14,1.154034519e-13,3.145222145e-14,1.371239463e-13,3.931353058e-14,5.232114926e-14
1.671875,3.73423774e-14,5.569413555e-14,1.175217011e-13,8.714283095e-14,1.243223774e-13,9.96153603e-14,2.749844774e-14,5.197849902e-14,3.316799415e-14,2.046637417e-14,1.33281933e-13,6.686527676e-14,2.417181864e-14,8.858532323e-14,1.871314597e-13,1.802614902e-13,6.390384777e-14,3.824006605e-14,3.374041209e-14,1.267726384e-13,4.527603803e-14,2.660720142e-14,2.580708503e-14,1.60757575e-13,7.207535657e-14,6.064575622e-14,2.365142612e-14,1.201940527e-13,3.23760942e-14,1.346180521e-13,3.803953364e-14,5.206515529e-14
1.6796875,3.721829604e-14,5.434524827e-14,1.147876029e-13,8.280234257e-14,1.201141855e-13,9.514164696e-14,2.677808097e-14,5.307859156e-14,3.183712985e-14,2.010505201e-14,1.263441275e-13,6.357418689e-14,2.298442783e-14,8.515359508e-14,1.901286349e-13,1.857090492e-13,6.584561676e-14,3.678886084e-14,3.245398139e-14,1.219203514e-13,4.47148713e-14,2.538006604e-14,2.519131878e-14,1.585045759e-13,7.834472298e-14,6.020392631e-14,2.339934445e-14,1.247832456e-13,3.27366782e-14,1.327821539e-13,3.7085642e-14,5.154578421e-14
1.6875,3.73830563e-14,5.339946837e-14,1.123294563e-13,7.896507944e-14,1.158512053e-13,9.100844061e-14,2.616797954e-14,5.433456211e-14,3.046376408e-14,1.965511544e-14,1.191699984e-13,6.039838247e-14,2.195256386e-14,8.225848676e-14,1.928480649e-13,1.912643546e-13,6.766136409e-14,3.57999872e-14,3.152158152e-14,1.178336917e-13,4.403837788e-14,2.413430449e-14,2.448110359e-14,1.564869387e-13,8.501533336e-14,5.959357562e-14,2.328636277e-14,1.288393536e-13,3.271671673e-14,1.322690384e-13,3.653289527e-14,5.079352995e-14
1.6953125,3.768777544e-14,5.278080185e-14,1.09833846e-13,7.569164256e-14,1.119054196e-13,8.711895794e-14,2.56814583e-14,5.57541972e-14,2.903743867e-14,1.901679952e-14,1.121574416e-13,5.731187322e-14,2.106551103e-14,7.986899055e-14,1.951923177e-13,1.966436643e-13,6.931098428e-14,3.521457481e-14,3.094213833e-14,1.145999551e-13,4.337394658e-14,2.294876295e-14,2.376353883e-14,1.552722846e-13,9.196956771e-14,5.901762088e-14,2.336139428e-14,1.327091809e-13,3.244790947e-14,1.329298683e-13,3.627430497e-14,4.998294684e-14
1.703125,3.813019484e-14,5.229700221e-14,1.072885897e-13,7.277059224e-14,1.082272008e-13,8.34792868e-14,2.532879807e-14,5.735219278e-14,2.750317304e-14,1.826213254e-14,1.05293275e-13,5.428952379e-14,2.033254007e-14,7.783343324e-14,1.97110614e-13,2.016936629e-13,7.079285192e-14,3.499933852e-14,3.066330302e-14,1.122332134e-13,4.250462336e-14,2.179333558e-14,2.303428211e-14,1.548765781e-13,9.968118076e-14,5.843861272e-14,2.355988722e-14,1.36103807e-13,3.193105985e-14,1.344137139e-13,3.616553789e-14,4.905404286e-14
1.7109375,3.854716361e-14,5.205190872e-14,1.044885684e-13,7.023040997e-14,1.047182412e-13,8.004071079e-14,2.510436523e-14,5.914137489e-14,2.597632059e-14,1.74919718e-14,9.827889848e-14,5.128109057e-14,1.975783506e-14,7.597784262e-14,1.983374991e-13,2.063110245e-13,7.204039552e-14,3.505573264e-14,3.056373648e-14,1.103422328e-13,4.16156861e-14,2.066387479e-14,2.226184685e-14,1.548875921e-13,1.08160006e-13,5.776875542e-14,2.387721388e-14,1.383454292e-13,3.125279625e-14,1.365356296e-13,3.634774775e-14,4.800258438e-14
1.71875,3.858460671e-14,5.217764065e-14,1.00851394e-13,6.836505687e-14,1.018460774e-13,7.679347455e-14,2.509903814e-14,6.117599367e-14,2.448277581e-14,1.665945264e-14,9.14315094e-14,4.831051851e-14,1.948833831e-14,7.458211914e-14,1.989972638e-13,2.106267485e-13,7.320568528e-14,3.562557453e-14,3.101055028e-14,1.087948357e-13,4.086188023e-14,1.969481519e-14,2.165429525e-14,1.56231956e-13,1.173415042e-13,5.728343898e-14,2.442535836e-14,1.398814617e-13,3.05004961e-14,1.396780843e-13,3.696331776e-14,4.705470065e-14
1.7265625,3.836410483e-14,5.264673837e-14,9.658375062e-14,6.727180318e-14,9.975820116e-14,7.367787839e-14,2.538679349e-14,6.342658699e-14,2.294000349e-14,1.576235666e-14,8.521758974e-14,4.554434563e-14,1.958015114e-14,7.384158314e-14,1.990166254e-13,2.145498628e-13,7.430721227e-14,3.678957173e-14,3.206684337e-14,1.080144192e-13,3.998143756e-14,1.886410503e-14,2.127377912e-14,1.592090631e-13,1.274582903e-13,5.718355408e-14,2.523160736e-14,1.410658986e-13,2.957480958e-14,1.442162072e-13,3.808284248e-14,4.628470876e-14
1.734375,3.802964798e-14,5.345583346e-14,9.220984236e-14,6.687320182e-14,9.825495755e-14,7.063375436e-14,2.574132961e-14,6.566883679e-14,2.140741852e-14,1.488863858e-14,7.947210312e-14,4.312325648e-14,1.99561849e-14,7.361413864e-14,1.981038767e-13,2.177819887e-13,7.500520177e-14,3.838160935e-14,3.355020152e-14,1.080083338e-13,3.899620145e-14,1.814961956e-14,2.093063829e-14,1.629040708e-13,1.385594989e-13,5.736591207e-14,2.640466506e-14,1.413940264e-13,2.84428246e-14,1.494339246e-13,3.970927341e-14,4.558991952e-14
1.7421875,3.744113739e-14,5.464218781e-14,8.785211798e-14,6.716791641e-14,9.726196712e-14,6.774816543e-14,2.617928596e-14,6.774195084e-14,1.995250846e-14,1.398413663e-14,7.398677198e-14,4.096749539e-14,2.085589589e-14,7.395885637e-14,1.965918442e-13,2.206036969e-13,7.543568707e-14,4.059642649e-14,3.579095547e-14,1.085455542e-13,3.801356682e-14,1.768473552e-14,2.060977213e-14,1.67729643e-13,1.503299559e-13,5.774464708e-14,2.784529457e-14,1.409516254e-13,2.733551575e-14,1.554692448e-13,4.177787736e-14,4.493229554e-14
1.75,3.674916555e-14,5.630119402e-14,8.371138956e-14,6.826731286e-14,9.673310079e-14,6.506634841e-14,2.693296372e-14,6.958031271e-14,1.847630941e-14,1.308315346e-14,6.902579917e-14,3.912545495e-14,2.225334313e-14,7.481494148e-14,1.944719917e-13,2.231876486e-13,7.594182181e-14,4.346205522e-14,3.866740682e-14,1.097381602e-13,3.696440929e-14,1.735124574e-14,2.043045181e-14,1.741997739e-13,1.624433315e-13,5.845926713e-14,2.934930433e-14,1.401837771e-13,2.61465823e-14,1.628691592e-13,4.43360691e-14,4.430590882e-14
1.7578125,3.609885029e-14,5.836403358e-14,8.009458152e-14,6.999371927e-14,9.646937915e-14,6.242877144e-14,2.768337556e-14,7.110688861e-14,1.704534133e-14,1.224852367e-14,6.452699689e-14,3.772631589e-14,2.400235632e-14,7.577010788e-14,1.913887907e-13,2.249273634e-13,7.596331671e-14,4.669248451e-14,4.193964778e-14,1.115005984e-13,3.593245299e-14,1.708512926e-14,2.042849338e-14,1.818713416e-13,1.756478402e-13,5.947598482e-14,3.108953032e-14,1.38769922e-13,2.477273713e-14,1.709735634e-13,4.731106874e-14,4.362394758e-14
1.765625,3.521879377e-14,6.050580291e-14,7.676521252e-14,7.181267273e-14,9.605547483e-14,5.969119888e-14,2.809402106e-14,7.231406049e-14,1.580325965e-14,1.145375492e-14,6.030831874e-14,3.646943531e-14,2.631009924e-14,7.642948612e-14,1.870799281e-13,2.251183176e-13,7.506898321e-14,5.004166974e-14,4.580380247e-14,1.134660454e-13,3.50508254e-14,1.708604216e-14,2.057348092e-14,1.910604717e-13,1.902233042e-13,6.043862767e-14,3.317858244e-14,1.362168375e-13,2.361843149e-14,1.796184356e-13,5.04213306e-14,4.281331804e-14
1.7734375,3.40185083e-14,6.262087227e-14,7.351233471e-14,7.36215203e-14,9.552424785e-14,5.697175664e-14,2.842992074e-14,7.320229271e-14,1.467742161e-14,1.074022875e-14,5.662915719e-14,3.524997982e-14,2.911153387e-14,7.683958627e-14,1.812506189e-13,2.238535536e-13,7.389916636e-14,5.357002873e-14,5.012871167e-14,1.156920381e-13,3.430372511e-14,1.730298853e-14,2.091985939e-14,2.021797445e-13,2.053648675e-13,6.14129016e-14,3.555910567e-14,1.330999341e-13,2.279201571e-14,1.891533286e-13,5.370078344e-14,4.190573107e-14
1.78125,3.271634397e-14,6.489712512e-14,7.047207097e-14,7.573971597e-14,9.528483432e-14,5.425851235e-14,2.889068659e-14,7.390415231e-14,1.366441307e-14,1.010777332e-14,5.347752146e-14,3.435580697e-14,3.228246994e-14,7.730268844e-14,1.743394805e-13,2.216687687e-13,7.276068243e-14,5.748590599e-14,5.476198828e-14,1.184465312e-13,3.361551366e-14,1.763816918e-14,2.151392446e-14,2.148921686e-13,2.212474682e-13,6.267480889e-14,3.821017132e-14,1.297353488e-13,2.206701223e-14,1.993246378e-13,5.746782101e-14,4.099226179e-14
1.7890625,3.136756237e-14,6.729099402e-14,6.765732895e-14,7.812416229e-14,9.519163339e-14,5.146565461e-14,2.940223871e-14,7.460994534e-14,1.280080426e-14,9.579249235e-15,5.067953376e-14,3.372843339e-14,3.589723849e-14,7.783186455e-14,1.669129053e-13,2.185705968e-13,7.141155749e-14,6.170540133e-14,5.975810496e-14,1.215083266e-13,3.302009586e-14,1.814134116e-14,2.230234395e-14,2.283542108e-13,2.381239005e-13,6.403328072e-14,4.104576538e-14,1.254378229e-13,2.147673207e-14,2.100564217e-13,6.156654266e-14,4.015963658e-14
1.796875,3.000776742e-14,6.959528992e-14,6.537597918e-14,8.076195309e-14,9.510985905e-14,4.890688439e-14,3.006713052e-14,7.524066086e-14,1.205741835e-14,9.116220657e-15,4.836540731e-14,3.334307098e-14,4.000279304e-14,7.853464744e-14,1.591149104e-13,2.146642789e-13,7.016665594e-14,6.636061734e-14,6.513556104e-14,1.248579457e-13,3.252873066e-14,1.879160539e-14,2.340609357e-14,2.425602927e-13,2.559898802e-13,6.546525579e-14,4.418193345e-14,1.206722777e-13,2.12502432e-14,2.215310952e-13,6.56533071e-14,3.944584706e-14
1.8046875,2.861817605e-14,7.189596834e-14,6.365219355e-14,8.394133153e-14,9.530839426e-14,4.667386577e-14,3.103735807e-14,7.567005679e-14,1.149407356e-14,8.661754916e-15,4.660851261e-14,3.341396652e-14,4.459709094e-14,7.965866311e-14,1.509971701e-13,2.1035814e-13,6.941473226e-14,7.16425738e-14,7.099179526e-14,1.290079984e-13,3.197168336e-14,1.965739568e-14,2.48193281e-14,2.584081079e-13,2.748069491e-13,6.727874049e-14,4.774474093e-14,1.160294371e-13,2.135046256e-14,2.335622904e-13,6.995231796e-14,3.892951607e-14
