"Time","Fp1","AF3","F7","F3","FC1","FC5","T7","C3","CP1","CP5","P7","P3","Pz","PO3","O1","Oz","O2","PO4","P4","P8","CP6","CP2","C4","T8","FC6","FC2","F4","F8","AF4","Fp2","Fz","Cz"
0.0078125,1.050999942e-14,9.391455733e-14,9.176666628e-14,4.365060013e-14,6.193589672e-14,6.04192838e-14,1.384984626e-13,2.282557022e-14,9.45186349e-15,4.46345645e-14,1.693951768e-13,2.275312001e-14,2.239577457e-14,8.375506279e-14,9.617453342e-14,7.252213971e-14,1.40053285e-13,5.70299164e-14,1.160481877e-14,1.542692953e-13,8.516111858e-14,8.618559143e-15,5.707227512e-14,7.801462654e-14,6.141248378e-14,3.956568221e-14,2.023976326e-14,4.157658262e-13,1.058533042e-14,9.408266937e-15,4.110129123e-14,6.523114298e-14
0.015625,1.15490797e-14,9.675501111e-14,1.004993071e-13,4.535376951e-14,6.476478135e-14,6.630001941e-14,1.47885683e-13,2.584706904e-14,9.884698642e-15,4.684143179e-14,1.732612042e-13,2.47947801e-14,2.580318088e-14,9.744288986e-14,1.101634636e-13,8.280045216e-14,1.506931143e-13,6.481099198e-14,1.191736914e-14,1.594478231e-13,9.007172871e-14,8.954561531e-15,6.086676132e-14,8.322320672e-14,6.240827588e-14,4.081043673e-14,2.16426644e-14,4.260021572e-13,1.112989924e-14,1.026501006e-14,4.211905424e-14,6.735749809e-14
0.0234375,1.263180497e-14,9.90502489e-14,1.102132599e-13,4.685013344e-14,6.74415e-14,7.251134502e-14,1.572795102e-13,2.917528031e-14,1.028455928e-14,4.892503241e-14,1.759410348e-13,2.698271192e-14,2.958801449e-14,1.127277249e-13,1.257613471e-13,9.418840457e-14,1.619899076e-13,7.339179503e-14,1.212971851e-14,1.635819023e-13,9.467478173e-14,9.234652454e-15,6.454085689e-14,8.864382717e-14,6.299455649e-14,4.165175493e-14,2.293836448e-14,4.340436731e-13,1.163459541e-14,1.113969341e-14,4.280668035e-14,6.911175592e-14
0.03125,1.382074571e-14,1.008863917e-13,1.208712414e-13,4.814667959e-14,6.987077214e-14,7.89903938e-14,1.666146898e-13,3.280986902e-14,1.064340212e-14,5.088570499e-14,1.774940652e-13,2.931773684e-14,3.380031166e-14,1.297337917e-13,1.4303774e-13,1.06719025e-13,1.741820006e-13,8.284018952e-14,1.23131375e-14,1.667214539e-13,9.8861828e-14,9.462146326e-15,6.798893257e-14,9.423312158e-14,6.329286826e-14,4.21561702e-14,2.411027636e-14,4.399856993e-13,1.214840691e-14,1.201593818e-14,4.318422415e-14,7.046051178e-14
0.0390625,1.511008547e-14,1.020645205e-13,1.325070109e-13,4.912676193e-14,7.197398816e-14,8.557992079e-14,1.758954951e-13,3.665252736e-14,1.096632206e-14,5.271288006e-14,1.780228571e-13,3.173984245e-14,3.840964456e-14,1.482423891e-13,1.617282963e-13,1.201323093e-13,1.870368573e-13,9.291605502e-14,1.244367268e-14,1.687463202e-13,1.026556427e-13,9.640776701e-15,7.119617809e-14,9.981346962e-14,6.342148569e-14,4.223985277e-14,2.503222387e-14,4.437100733e-13,1.265899286e-14,1.292914881e-14,4.320608206e-14,7.136127703e-14
0.046875,1.644940407e-14,1.024227875e-13,1.449788057e-13,4.979573692e-14,7.37761131e-14,9.220611545e-14,1.848619244e-13,4.07877255e-14,1.130995427e-14,5.433629269e-14,1.773746849e-13,3.422330079e-14,4.33718805e-14,1.6813382e-13,1.817704696e-13,1.344122679e-13,2.005213604e-13,1.035706398e-13,1.248250089e-14,1.697143602e-13,1.059165464e-13,9.793667609e-15,7.407672599e-14,1.056111158e-13,6.337894384e-14,4.172390096e-14,2.565313473e-14,4.454722605e-13,1.307775722e-14,1.383309229e-14,4.282330894e-14,7.179042839e-14
0.0546875,1.781817683e-14,1.020199805e-13,1.581973272e-13,5.007210976e-14,7.510852491e-14,9.892521799e-14,1.9356239e-13,4.525770062e-14,1.169202066e-14,5.577362867e-14,1.755904767e-13,3.677766545e-14,4.871281918e-14,1.894633516e-13,2.033326097e-13,1.497597328e-13,2.148302525e-13,1.14880593e-13,1.245876093e-14,1.694397409e-13,1.083489507e-13,9.900111624e-15,7.662931449e-14,1.112723366e-13,6.340048402e-14,4.064124827e-14,2.612703214e-14,4.4542497e-13,1.341694953e-14,1.467363707e-14,4.204164566e-14,7.170380615e-14
0.0625,1.920470389e-14,1.010788489e-13,1.721046405e-13,4.995476289e-14,7.592963801e-14,1.056866663e-13,2.022080025e-13,4.998741621e-14,1.20989184e-14,5.709982748e-14,1.73070294e-13,3.937067365e-14,5.434979466e-14,2.120422123e-13,2.262387191e-13,1.659587247e-13,2.297123637e-13,1.265354082e-13,1.240494643e-14,1.681182156e-13,1.102449921e-13,9.956148648e-15,7.895180016e-14,1.165875238e-13,6.347133104e-14,3.92139044e-14,2.661837454e-14,4.436640282e-13,1.379680885e-14,1.550544407e-14,4.100925334e-14,7.116156655e-14
0.0703125,2.04719926e-14,9.972666242e-14,1.863567538e-13,4.976005069e-14,7.650913348e-14,1.122086085e-13,2.106391578e-13,5.490365178e-14,1.256709732e-14,5.828917413e-14,1.699531675e-13,4.19298064e-14,6.018539272e-14,2.355553213e-13,2.499821915e-13,1.825332258e-13,2.450199799e-13,1.381858861e-13,1.230677847e-14,1.664829442e-13,1.118894943e-13,1.000058268e-14,8.087401631e-14,1.222515837e-13,6.337722214e-14,3.761439026e-14,2.708969207e-14,4.404175949e-13,1.419169553e-14,1.633745556e-14,3.990468249e-14,7.034363465e-14
0.078125,2.156709296e-14,9.787797163e-14,2.008283902e-13,4.944263705e-14,7.687265441e-14,1.183842066e-13,2.188423739e-13,5.985872307e-14,1.310707247e-14,5.928389398e-14,1.659812764e-13,4.440950124e-14,6.619586818e-14,2.596609635e-13,2.743154805e-13,1.992765088e-13,2.609188043e-13,1.497830478e-13,1.21591528e-14,1.646635247e-13,1.130414811e-13,1.001882913e-14,8.221706568e-14,1.282743685e-13,6.319951796e-14,3.590095695e-14,2.753298194e-14,4.356130782e-13,1.456216426e-14,1.712044074e-14,3.873723677e-14,6.931807815e-14
0.0859375,2.262216049e-14,9.555269093e-14,2.155576841e-13,4.881283841e-14,7.678473909e-14,1.244034578e-13,2.267874596e-13,6.482084319e-14,1.369147676e-14,6.008520919e-14,1.613782298e-13,4.685503342e-14,7.230897995e-14,2.841284765e-13,2.991364038e-13,2.16096542e-13,2.773401219e-13,1.613068902e-13,1.19915996e-14,1.624147204e-13,1.13664452e-13,1.000257477e-14,8.314448878e-14,1.342395403e-13,6.32086813e-14,3.409039928e-14,2.796564328e-14,4.298983041e-13,1.49814909e-14,1.786067476e-14,3.747490143e-14,6.809471582e-14
0.09375,2.359376464e-14,9.29606762e-14,2.304456385e-13,4.804196141e-14,7.616856969e-14,1.302438237e-13,2.343468745e-13,6.973614912e-14,1.432488628e-14,6.071272479e-14,1.566815526e-13,4.926399604e-14,7.841789016e-14,3.087583789e-13,3.240616393e-13,2.326834187e-13,2.939275138e-13,1.724384984e-13,1.180695069e-14,1.597608819e-13,1.13899007e-13,9.94830404e-15,8.377929622e-14,1.399993472e-13,6.328145193e-14,3.227704047e-14,2.839914542e-14,4.234726834e-13,1.545203416e-14,1.85971167e-14,3.613317883e-14,6.674523972e-14
0.1015625,2.437431712e-14,9.023817239e-14,2.452864342e-13,4.721397763e-14,7.521639464e-14,1.3565154e-13,2.415373767e-13,7.43815298e-14,1.50248101e-14,6.11509196e-14,1.516797304e-13,5.149339876e-14,8.438450645e-14,3.32913321e-13,3.484656738e-13,2.484380471e-13,3.101933074e-13,1.827443781e-13,1.162175044e-14,1.570447172e-13,1.137778067e-13,9.852186567e-15,8.400226526e-14,1.454003202e-13,6.322032819e-14,3.049670507e-14,2.879293358e-14,4.158563827e-13,1.586881209e-14,1.936234694e-14,3.472786264e-14,6.535461228e-14
0.109375,2.507931877e-14,8.732700333e-14,2.59795457e-13,4.624934155e-14,7.406849476e-14,1.40681963e-13,2.48222317e-13,7.879745959e-14,1.579530761e-14,6.138170002e-14,1.460326558e-13,5.345244578e-14,9.008042409e-14,3.560524572e-13,3.718825245e-13,2.629989707e-13,3.259693439e-13,1.922154165e-13,1.144231141e-14,1.544007429e-13,1.132123924e-13,9.768754627e-15,8.373412073e-14,1.504026064e-13,6.329485775e-14,2.857123411e-14,2.896958622e-14,4.076857808e-13,1.618772335e-14,2.012477475e-14,3.326640291e-14,6.392320906e-14
0.1171875,2.582870163e-14,8.421690803e-14,2.738678253e-13,4.513995163e-14,7.261986239e-14,1.454193269e-13,2.542453856e-13,8.309846597e-14,1.664107977e-14,6.142886506e-14,1.400449916e-13,5.51403583e-14,9.54889481e-14,3.780502105e-13,3.941406486e-13,2.763525096e-13,3.412540497e-13,2.009291242e-13,1.128443664e-14,1.517718492e-13,1.12147399e-13,9.736810801e-15,8.309344358e-14,1.549441625e-13,6.355538922e-14,2.646050257e-14,2.898511849e-14,3.990026655e-13,1.650661379e-14,2.085710826e-14,3.177943471e-14,6.241265825e-14
0.125,2.650776137e-14,8.107645627e-14,2.871947029e-13,4.390108812e-14,7.086465044e-14,1.494460174e-13,2.593836451e-13,8.704813412e-14,1.758727442e-14,6.127597608e-14,1.339043922e-13,5.654819295e-14,1.005282004e-13,3.984618394e-13,4.147917349e-13,2.880919079e-13,3.554972793e-13,2.083939547e-13,1.117186782e-14,1.494971232e-13,1.107658083e-13,9.762765455e-15,8.221687143e-14,1.591327607e-13,6.372025702e-14,2.427211392e-14,2.892877938e-14,3.895844746e-13,1.676604167e-14,2.158090961e-14,3.025779796e-14,6.088080478e-14
0.1328125,2.701079635e-14,7.801504007e-14,2.990513772e-13,4.257544113e-14,6.888696598e-14,1.525255015e-13,2.633512889e-13,9.045385254e-14,1.86569802e-14,6.090150255e-14,1.274461183e-13,5.767320425e-14,1.050535052e-13,4.16798744e-13,4.331287487e-13,2.97805829e-13,3.68140268e-13,2.142341234e-13,1.102997538e-14,1.476733328e-13,1.090048878e-13,9.830176463e-15,8.106744337e-14,1.630269292e-13,6.377429954e-14,2.202478982e-14,2.879414508e-14,3.801150903e-13,1.683207801e-14,2.229062942e-14,2.864015808e-14,5.931346711e-14
0.140625,2.744624863e-14,7.509797057e-14,3.092705519e-13,4.12502231e-14,6.663444094e-14,1.549932353e-13,2.661596749e-13,9.338986008e-14,1.986133371e-14,6.038713011e-14,1.20782599e-13,5.848529436e-14,1.090735128e-13,4.329493992e-13,4.489834271e-13,3.056958181e-13,3.790779352e-13,2.185904906e-13,1.088664144e-14,1.461812424e-13,1.067494885e-13,9.934184103e-15,7.977796368e-14,1.661274358e-13,6.381993823e-14,1.983656224e-14,2.87609496e-14,3.704434839e-13,1.681820197e-14,2.301132682e-14,2.704865179e-14,5.766828479e-14
0.1484375,2.780720626e-14,7.244636856e-14,3.181987743e-13,3.99611934e-14,6.415290912e-14,1.569185679e-13,2.677320675e-13,9.587408209e-14,2.123378712e-14,5.97773418e-14,1.142885395e-13,5.899423322e-14,1.126206991e-13,4.468925911e-13,4.624815714e-13,3.119220657e-13,3.882833081e-13,2.214995142e-13,1.08315298e-14,1.451903697e-13,1.042475763e-13,1.011806347e-14,7.862186428e-14,1.682517347e-13,6.375655992e-14,1.787117279e-14,2.893013987e-14,3.604229074e-13,1.681726602e-14,2.375937213e-14,2.567317435e-14,5.615695873e-14
0.15625,2.804084807e-14,7.020233766e-14,3.255784938e-13,3.874203095e-14,6.154269759e-14,1.58040104e-13,2.678810561e-13,9.767403961e-14,2.281528133e-14,5.905724712e-14,1.080782042e-13,5.925718609e-14,1.156994676e-13,4.585342471e-13,4.732392613e-13,3.162185012e-13,3.956132091e-13,2.228903926e-13,1.083952728e-14,1.4466017e-13,1.015278416e-13,1.037543526e-14,7.750353594e-14,1.696897506e-13,6.370472691e-14,1.62187248e-14,2.940371169e-14,3.505013569e-13,1.68188344e-14,2.455709654e-14,2.448961717e-14,5.496017918e-14
0.1640625,2.824920918e-14,6.842843059e-14,3.310807748e-13,3.757498e-14,5.872454038e-14,1.5843002e-13,2.666112985e-13,9.866833451e-14,2.464402003e-14,5.827169311e-14,1.021162573e-13,5.922534039e-14,1.18283217e-13,4.674505869e-13,4.807958909e-13,3.182446071e-13,4.006092305e-13,2.22686191e-13,1.090903762e-14,1.444365531e-13,9.852844985e-14,1.067069035e-14,7.634889935e-14,1.704444303e-13,6.380512353e-14,1.484704134e-14,3.011523341e-14,3.407690498e-13,1.674256467e-14,2.548257557e-14,2.335229622e-14,5.397917878e-14
0.171875,2.845879041e-14,6.709094899e-14,3.349514497e-13,3.639191539e-14,5.564888455e-14,1.583291985e-13,2.638508165e-13,9.913183584e-14,2.676777931e-14,5.745712074e-14,9.65442894e-14,5.887439133e-14,1.203202765e-13,4.734273376e-13,4.851353363e-13,3.180555953e-13,4.031897806e-13,2.20956912e-13,1.105384309e-14,1.445317046e-13,9.539182192e-14,1.100232044e-14,7.540362584e-14,1.705730985e-13,6.381679764e-14,1.369206957e-14,3.080529693e-14,3.311200444e-13,1.650566688e-14,2.655615639e-14,2.221101112e-14,5.31344544e-14
0.1796875,2.868765121e-14,6.623871946e-14,3.371873183e-13,3.52549163e-14,5.238908227e-14,1.57716025e-13,2.596790293e-13,9.9107891e-14,2.92171531e-14,5.66349206e-14,9.135753161e-14,5.826486541e-14,1.218327717e-13,4.76625738e-13,4.861850918e-13,3.158964767e-13,4.037008688e-13,2.178446916e-13,1.128970657e-14,1.449572799e-13,9.217228596e-14,1.136661112e-14,7.481844903e-14,1.700505604e-13,6.386796103e-14,1.286088473e-14,3.161723253e-14,3.212749753e-13,1.619121251e-14,2.778722312e-14,2.112362668e-14,5.248622616e-14
0.1875,2.896779775e-14,6.587159103e-14,3.375243502e-13,3.414610265e-14,4.903575179e-14,1.565397197e-13,2.54342038e-13,9.844530801e-14,3.19903162e-14,5.584851754e-14,8.642739405e-14,5.740434575e-14,1.227487426e-13,4.768654783e-13,4.838334928e-13,3.116817123e-13,4.018518862e-13,2.132491298e-13,1.159769411e-14,1.456141958e-13,8.89369005e-14,1.176473384e-14,7.456109027e-14,1.688518691e-13,6.41161387e-14,1.235103181e-14,3.264874857e-14,3.114628471e-13,1.578080883e-14,2.916588707e-14,2.008185047e-14,5.208102806e-14
0.1953125,2.932917656e-14,6.597191129e-14,3.358883728e-13,3.305038511e-14,4.5648286e-14,1.549434642e-13,2.478812064e-13,9.731616678e-14,3.510356478e-14,5.51162915e-14,8.180772143e-14,5.629877423e-14,1.230468369e-13,4.741492163e-13,4.782625744e-13,3.055295533e-13,3.975657934e-13,2.074115404e-13,1.194629102e-14,1.463045157e-13,8.574886461e-14,1.217774321e-14,7.459739029e-14,1.673709764e-13,6.443482402e-14,1.207979421e-14,3.37913813e-14,3.018369342e-13,1.522017747e-14,3.067479497e-14,1.906624321e-14,5.192641748e-14
0.203125,2.983517777e-14,6.658345166e-14,3.321845383e-13,3.202111068e-14,4.221477205e-14,1.529267666e-13,2.403572411e-13,9.575274183e-14,3.86288756e-14,5.443948098e-14,7.750252632e-14,5.497503422e-14,1.228436095e-13,4.686943425e-13,4.695456859e-13,2.977793031e-13,3.912194667e-13,2.006730043e-13,1.236900153e-14,1.469059449e-13,8.267566133e-14,1.255713829e-14,7.503438643e-14,1.656159798e-13,6.480055371e-14,1.209451445e-14,3.509995072e-14,2.918146625e-13,1.459398177e-14,3.23516574e-14,1.808871794e-14,5.204226748e-14
0.2109375,3.043913007e-14,6.764631397e-14,3.264904252e-13,3.102190424e-14,3.880929581e-14,1.504818329e-13,2.317605089e-13,9.36999929e-14,4.259456568e-14,5.383210259e-14,7.34774877e-14,5.348853244e-14,1.221484755e-13,4.605781688e-13,4.578461102e-13,2.886126932e-13,3.82833924e-13,1.930773454e-13,1.284542486e-14,1.474430124e-13,7.982309911e-14,1.292099812e-14,7.597565208e-14,1.636554697e-13,6.506099566e-14,1.238915009e-14,3.657235237e-14,2.816390889e-13,1.393466569e-14,3.416905024e-14,1.716022145e-14,5.244774652e-14
0.21875,3.113356523e-14,6.918998937e-14,3.194243702e-13,3.01907993e-14,3.558483718e-14,1.478753806e-13,2.222280637e-13,9.132583674e-14,4.696067006e-14,5.331392386e-14,6.981413843e-14,5.191649803e-14,1.210179928e-13,4.502558215e-13,4.438814532e-13,2.785282327e-13,3.727799547e-13,1.848809277e-13,1.337040013e-14,1.478884151e-13,7.716059082e-14,1.334349363e-14,7.736456114e-14,1.618935426e-13,6.54076973e-14,1.296339803e-14,3.822340631e-14,2.717376589e-13,1.323554391e-14,3.610221566e-14,1.632423286e-14,5.314809122e-14
0.2265625,3.195991371e-14,7.124720551e-14,3.113852897e-13,2.960139886e-14,3.262483196e-14,1.452263913e-13,2.122093134e-13,8.879300982e-14,5.172132745e-14,5.286982845e-14,6.650920729e-14,5.030380775e-14,1.195573803e-13,4.381501105e-13,4.28154079e-13,2.678350842e-13,3.614687431e-13,1.762638588e-13,1.39597706e-14,1.480481182e-13,7.477490289e-14,1.382825026e-14,7.911673125e-14,1.602957645e-13,6.588134921e-14,1.38279286e-14,4.004190195e-14,2.617480182e-13,1.24723351e-14,3.815189044e-14,1.556084769e-14,5.417091567e-14
0.234375,3.287442192e-14,7.37354533e-14,3.023033953e-13,2.919825147e-14,2.996512339e-14,1.424391444e-13,2.01708895e-13,8.616204457e-14,5.685098286e-14,5.247463206e-14,6.345314429e-14,4.872691428e-14,1.178659294e-13,4.245161455e-13,4.10720675e-13,2.565090947e-13,3.488440742e-13,1.673873979e-13,1.457498625e-14,1.477436231e-13,7.272789154e-14,1.433475551e-14,8.114704311e-14,1.589656162e-13,6.610020552e-14,1.491810228e-14,4.185541961e-14,2.514925488e-13,1.166472579e-14,4.025745683e-14,1.487726924e-14,5.552231835e-14
0.2421875,3.387385345e-14,7.663162629e-14,2.927732346e-13,2.904083917e-14,2.761028731e-14,1.394743098e-13,1.90638129e-13,8.338873581e-14,6.227735238e-14,5.214692632e-14,6.057772349e-14,4.724196795e-14,1.160839553e-13,4.097502466e-13,3.919525914e-13,2.44961126e-13,3.352035927e-13,1.585731995e-13,1.521844526e-14,1.46960299e-13,7.090079741e-14,1.487277694e-14,8.34186632e-14,1.582943745e-13,6.647837474e-14,1.621597491e-14,4.364978902e-14,2.410485229e-13,1.088202967e-14,4.238333903e-14,1.434458465e-14,5.720000567e-14
0.25,3.4946378e-14,7.992354602e-14,2.832563944e-13,2.913068258e-14,2.563841342e-14,1.364432956e-13,1.792705048e-13,8.05661558e-14,6.795775158e-14,5.187866409e-14,5.7881062e-14,4.586061469e-14,1.142653069e-13,3.941058439e-13,3.722990004e-13,2.335275124e-13,3.211549946e-13,1.498952068e-13,1.585578734e-14,1.458049157e-13,6.938783081e-14,1.548856676e-14,8.601455215e-14,1.586319973e-13,6.72440119e-14,1.774160193e-14,4.553844663e-14,2.306526629e-13,1.013798325e-14,4.450077306e-14,1.398713335e-14,5.924088609e-14
0.2578125,3.603647821e-14,8.362101132e-14,2.735632177e-13,2.952906457e-14,2.413271039e-14,1.335325183e-13,1.677980909e-13,7.781557877e-14,7.384102126e-14,5.160487988e-14,5.541291617e-14,4.465754595e-14,1.124968456e-13,3.779533823e-13,3.520822379e-13,2.223246061e-13,3.070470414e-13,1.414699733e-13,1.642560289e-14,1.442552119e-13,6.825008781e-14,1.621542096e-14,8.891138386e-14,1.601707606e-13,6.788542908e-14,1.947769941e-14,4.74997833e-14,2.205405138e-13,9.439246639e-15,4.656383219e-14,1.379830314e-14,6.159437115e-14
0.265625,3.714541254e-14,8.765343311e-14,2.643366325e-13,3.027265021e-14,2.307180618e-14,1.307845379e-13,1.563950648e-13,7.511862447e-14,7.984743237e-14,5.127324675e-14,5.321005814e-14,4.371702945e-14,1.109123004e-13,3.617830088e-13,3.318533772e-13,2.116587691e-13,2.930394443e-13,1.335665982e-13,1.697138375e-14,1.422847686e-13,6.737256998e-14,1.704001741e-14,9.184579149e-14,1.629466981e-13,6.848624123e-14,2.142287722e-14,4.946642475e-14,2.107288927e-13,8.809761227e-15,4.852263787e-14,1.376627685e-14,6.421100435e-14
0.2734375,3.825605885e-14,9.195286969e-14,2.560527091e-13,3.133150959e-14,2.247700582e-14,1.282241616e-13,1.452597886e-13,7.256224762e-14,8.592006699e-14,5.08288477e-14,5.125150851e-14,4.308643287e-14,1.095886013e-13,3.458346807e-13,3.119769345e-13,2.01605415e-13,2.79253191e-13,1.262436754e-13,1.753456993e-14,1.400802335e-13,6.674973792e-14,1.795265752e-14,9.463745627e-14,1.671301813e-13,6.921252039e-14,2.356828475e-14,5.140828325e-14,2.013127819e-13,8.29241088e-15,5.032122488e-14,1.393440493e-14,6.717505349e-14
0.28125,3.931866302e-14,9.656547274e-14,2.483744825e-13,3.272257233e-14,2.23787518e-14,1.257509052e-13,1.345907274e-13,7.019059985e-14,9.20337714e-14,5.02255424e-14,4.954159054e-14,4.275374355e-14,1.085021917e-13,3.301431707e-13,2.924268303e-13,1.920098135e-13,2.657370153e-13,1.194120845e-13,1.807748929e-14,1.376790609e-13,6.639065915e-14,1.895016971e-14,9.728058518e-14,1.72883967e-13,7.0054975e-14,2.583883895e-14,5.333936473e-14,1.924289314e-13,7.881738057e-15,5.19934799e-14,1.432115361e-14,7.050221263e-14
0.2890625,4.035592225e-14,1.013355921e-13,2.414282302e-13,3.437437901e-14,2.279857226e-14,1.230809774e-13,1.244802564e-13,6.799083674e-14,9.816187552e-14,4.950763501e-14,4.806415284e-14,4.262264613e-14,1.074825152e-13,3.145918026e-13,2.731988245e-13,1.829120825e-13,2.52742802e-13,1.130349323e-13,1.858250159e-14,1.350328378e-13,6.628055372e-14,1.999505518e-14,9.980540594e-14,1.802303997e-13,7.115601499e-14,2.821371561e-14,5.526566193e-14,1.841680288e-13,7.550371418e-15,5.357345712e-14,1.492999992e-14,7.411686869e-14
0.296875,4.142933816e-14,1.06088879e-13,2.352616251e-13,3.635576449e-14,2.38033561e-14,1.203007478e-13,1.148369726e-13,6.604920308e-14,1.042509583e-13,4.869680888e-14,4.671931582e-14,4.265128364e-14,1.064940329e-13,2.991865325e-13,2.54419815e-13,1.744522866e-13,2.405006812e-13,1.070913395e-13,1.906440569e-14,1.322131105e-13,6.642577128e-14,2.111019596e-14,1.02316753e-13,1.887807963e-13,7.228991074e-14,3.069964139e-14,5.699964346e-14,1.763863934e-13,7.313211738e-15,5.499540198e-14,1.582442685e-14,7.799045982e-14
0.3046875,4.254980182e-14,1.108261624e-13,2.29856231e-13,3.876901681e-14,2.53842759e-14,1.176015308e-13,1.057893036e-13,6.440820268e-14,1.102267454e-13,4.769725407e-14,4.55035219e-14,4.289432916e-14,1.056427332e-13,2.841939102e-13,2.362732398e-13,1.666288541e-13,2.287634444e-13,1.015350539e-13,1.952014814e-14,1.294358824e-13,6.677734876e-14,2.236165667e-14,1.04660327e-13,1.982445844e-13,7.36355726e-14,3.327265534e-14,5.850561024e-14,1.689272193e-13,7.175520988e-15,5.623707136e-14,1.701600842e-14,8.208078387e-14
0.3125,4.36946193e-14,1.154227852e-13,2.255250573e-13,4.150271717e-14,2.746181788e-14,1.14778904e-13,9.750908235e-14,6.301796588e-14,1.16050217e-13,4.646860077e-14,4.448172608e-14,4.335264289e-14,1.048528682e-13,2.698082242e-13,2.188723963e-13,1.592527107e-13,2.173892484e-13,9.628786679e-14,1.994332544e-14,1.269487153e-13,6.724721238e-14,2.376328302e-14,1.065025551e-13,2.089342947e-13,7.537119141e-14,3.59420149e-14,5.996045779e-14,1.619165986e-13,7.174522543e-15,5.729776947e-14,1.850577148e-14,8.631543622e-14
0.3203125,4.494098012e-14,1.196172097e-13,2.222291887e-13,4.444251002e-14,2.99866399e-14,1.116847464e-13,8.991170299e-14,6.186080367e-14,1.217131831e-13,4.507603808e-14,4.360679794e-14,4.392387565e-14,1.039518147e-13,2.559664966e-13,2.022829692e-13,1.522142601e-13,2.066109053e-13,9.12067671e-14,2.035283581e-14,1.246627358e-13,6.780769988e-14,2.529031103e-14,1.079089801e-13,2.20790042e-13,7.71107396e-14,3.870532405e-14,6.127220624e-14,1.553101847e-13,7.291478737e-15,5.814351651e-14,2.02658742e-14,9.063947634e-14
0.328125,4.632417578e-14,1.232031547e-13,2.199563425e-13,4.75595729e-14,3.301346379e-14,1.084028817e-13,8.297502854e-14,6.101070674e-14,1.269730279e-13,4.357061468e-14,4.302952791e-14,4.444585613e-14,1.028204778e-13,2.425725698e-13,1.866382042e-13,1.45541524e-13,1.965968567e-13,8.617535672e-14,2.079587845e-14,1.226314245e-13,6.857798469e-14,2.689140106e-14,1.09018654e-13,2.33410307e-13,7.911060432e-14,4.161728537e-14,6.239367529e-14,1.493131215e-13,7.450378028e-15,5.869569006e-14,2.226953641e-14,9.492751394e-14
0.3359375,4.758491779e-14,1.264618303e-13,2.182379398e-13,5.110959559e-14,3.663184518e-14,1.050518497e-13,7.672307554e-14,6.048913725e-14,1.31732648e-13,4.187770754e-14,4.26432002e-14,4.499993946e-14,1.014979298e-13,2.298437214e-13,1.719574219e-13,1.393295466e-13,1.873282017e-13,8.128465632e-14,2.123982291e-14,1.210133073e-13,6.946619656e-14,2.855900559e-14,1.098466088e-13,2.464350479e-13,8.138097309e-14,4.469685633e-14,6.346678669e-14,1.43712901e-13,7.710866863e-15,5.891402589e-14,2.457913319e-14,9.923644549e-14
0.34375,4.850555875e-14,1.295653165e-13,2.171965722e-13,5.511724705e-14,4.079151395e-14,1.016139093e-13,7.108116353e-14,6.027069153e-14,1.359757626e-13,4.002780574e-14,4.240104822e-14,4.562265815e-14,1.000139323e-13,2.179543983e-13,1.582832314e-13,1.33538467e-13,1.789479551e-13,7.653334783e-14,2.159363959e-14,1.195537234e-13,7.028609552e-14,3.031008344e-14,1.102358158e-13,2.598906954e-13,8.349346794e-14,4.781227091e-14,6.432006697e-14,1.383212974e-13,8.012991013e-15,5.879535758e-14,2.716455601e-14,1.034835261e-13
0.3515625,4.91958082e-14,1.324794091e-13,2.167820941e-13,5.944510638e-14,4.53403146e-14,9.803676234e-14,6.613278034e-14,6.022456786e-14,1.395370473e-13,3.804267772e-14,4.22528707e-14,4.623115754e-14,9.835927158e-14,2.067933817e-13,1.456999442e-13,1.283618824e-13,1.717079921e-13,7.199686086e-14,2.189714879e-14,1.184310677e-13,7.109005977e-14,3.212356227e-14,1.104957222e-13,2.735599087e-13,8.567668331e-14,5.097835203e-14,6.490502743e-14,1.333004985e-13,8.324629265e-15,5.835063135e-14,2.994791496e-14,1.075512933e-13
0.359375,4.973475069e-14,1.352440477e-13,2.162670167e-13,6.397459432e-14,5.024752879e-14,9.427554833e-14,6.19152697e-14,6.031288264e-14,1.423461961e-13,3.592565744e-14,4.225892851e-14,4.678757594e-14,9.652577773e-14,1.963257326e-13,1.341530963e-13,1.238303349e-13,1.658791846e-13,6.768632534e-14,2.221099384e-14,1.179046074e-13,7.205979523e-14,3.388570092e-14,1.107675252e-13,2.86794254e-13,8.793092613e-14,5.425808269e-14,6.535822291e-14,1.289075256e-13,8.713332751e-15,5.752992036e-14,3.291785904e-14,1.114411635e-13
0.3671875,5.000618606e-14,1.380953436e-13,2.157800338e-13,6.890139583e-14,5.552762552e-14,9.052404791e-14,5.820100823e-14,6.067621739e-14,1.444822596e-13,3.373647287e-14,4.230166016e-14,4.735124098e-14,9.461785451e-14,1.866678958e-13,1.235052452e-13,1.199147434e-13,1.612114549e-13,6.363490934e-14,2.255924649e-14,1.17862173e-13,7.308111658e-14,3.55487231e-14,1.107376024e-13,2.996155083e-13,9.019320834e-14,5.7564712e-14,6.570738093e-14,1.253261174e-13,9.195883275e-15,5.64721421e-14,3.607472302e-14,1.15208155e-13
0.375,4.989453979e-14,1.406711854e-13,2.158025152e-13,7.414669908e-14,6.104302633e-14,8.68003698e-14,5.485206971e-14,6.117494087e-14,1.458506873e-13,3.15410617e-14,4.24238376e-14,4.775063795e-14,9.257930052e-14,1.775125632e-13,1.137024896e-13,1.16439647e-13,1.57191458e-13,5.974575447e-14,2.293473959e-14,1.182984064e-13,7.412407514e-14,3.717614673e-14,1.104754365e-13,3.122663809e-13,9.241554177e-14,6.085022896e-14,6.616002433e-14,1.223312206e-13,9.666897683e-15,5.518526903e-14,3.932902682e-14,1.18659869e-13
0.3828125,4.970695415e-14,1.426732707e-13,2.156670702e-13,7.930690369e-14,6.661102118e-14,8.298118078e-14,5.199836003e-14,6.159989446e-14,1.464951945e-13,2.931082733e-14,4.266572885e-14,4.800259574e-14,9.036196502e-14,1.687972747e-13,1.04715482e-13,1.134017163e-13,1.539299555e-13,5.603934346e-14,2.33379374e-14,1.193154603e-13,7.518273054e-14,3.877278439e-14,1.102140528e-13,3.244993687e-13,9.440798927e-14,6.415528298e-14,6.660403135e-14,1.198596278e-13,1.011463183e-14,5.36528231e-14,4.260783595e-14,1.217847865e-13
0.390625,4.983829389e-14,1.439800258e-13,2.154279031e-13,8.427701178e-14,7.231773406e-14,7.908718542e-14,4.961038436e-14,6.224089577e-14,1.466980868e-13,2.710384612e-14,4.314215366e-14,4.811255422e-14,8.791646843e-14,1.605431801e-13,9.655292478e-14,1.109855886e-13,1.516561991e-13,5.248827026e-14,2.383449026e-14,1.210515922e-13,7.631021947e-14,4.022956284e-14,1.100200077e-13,3.365586289e-13,9.6573096e-14,6.749695715e-14,6.708615921e-14,1.179242123e-13,1.055128751e-14,5.201061117e-14,4.592218411e-14,1.247631093e-13
0.3984375,5.006493557e-14,1.447660109e-13,2.153556746e-13,8.942680326e-14,7.823169854e-14,7.534396172e-14,4.755166857e-14,6.316826082e-14,1.465848407e-13,2.498047207e-14,4.382467645e-14,4.805436021e-14,8.526668491e-14,1.526664014e-13,8.914339034e-14,1.091744268e-13,1.500493952e-13,4.90301665e-14,2.442184176e-14,1.232894967e-13,7.746807796e-14,4.152165252e-14,1.099263081e-13,3.478561907e-13,9.87691094e-14,7.077476926e-14,6.76379801e-14,1.163908424e-13,1.0928346e-14,5.034707384e-14,4.926704262e-14,1.276199975e-13
0.40625,5.040502585e-14,1.450814983e-13,2.150845658e-13,9.470468574e-14,8.419124151e-14,7.162547251e-14,4.576845419e-14,6.417646496e-14,1.46156895e-13,2.29344533e-14,4.455117853e-14,4.782425047e-14,8.241435968e-14,1.450582606e-13,8.237872825e-14,1.078886804e-13,1.490318895e-13,4.566335729e-14,2.50630613e-14,1.257745023e-13,7.85884875e-14,4.267889164e-14,1.099227183e-13,3.578953982e-13,1.009894722e-13,7.390090801e-14,6.807888598e-14,1.151678678e-13,1.117865897e-14,4.866630211e-14,5.256364422e-14,1.302612371e-13
0.4140625,5.11420514e-14,1.447346413e-13,2.145646192e-13,9.969497253e-14,8.99754659e-14,6.772425685e-14,4.430743775e-14,6.525703295e-14,1.453070135e-13,2.097969621e-14,4.52769043e-14,4.734570218e-14,7.92660537e-14,1.375994202e-13,7.61870423e-14,1.070250684e-13,1.486064063e-13,4.232828878e-14,2.57365079e-14,1.286579982e-13,7.977294754e-14,4.364439014e-14,1.10277296e-13,3.671961972e-13,1.03619429e-13,7.684981287e-14,6.845699923e-14,1.142905822e-13,1.127086265e-14,4.697776754e-14,5.569688145e-14,1.326161009e-13
0.421875,5.213854932e-14,1.437418509e-13,2.134437472e-13,1.043578294e-13,9.546352776e-14,6.373969609e-14,4.310227497e-14,6.633284931e-14,1.438594793e-13,1.919558972e-14,4.599590239e-14,4.649105695e-14,7.580988184e-14,1.301330707e-13,7.054734188e-14,1.06707174e-13,1.488751656e-13,3.905603898e-14,2.644442946e-14,1.3196207e-13,8.113284248e-14,4.435549027e-14,1.110487863e-13,3.748440985e-13,1.062605101e-13,7.953988406e-14,6.888746252e-14,1.130603744e-13,1.127263299e-14,4.520801441e-14,5.857995882e-14,1.345196355e-13
0.4296875,5.3314162e-14,1.424935179e-13,2.11600922e-13,1.08866776e-13,1.00631612e-13,5.990300868e-14,4.20233903e-14,6.733069206e-14,1.419867273e-13,1.756789426e-14,4.658418568e-14,4.552160979e-14,7.220785754e-14,1.230028882e-13,6.557400839e-14,1.07083371e-13,1.497934634e-13,3.601792375e-14,2.722834235e-14,1.355020518e-13,8.231276482e-14,4.482035235e-14,1.120794799e-13,3.800134311e-13,1.089836102e-13,8.179617063e-14,6.904091396e-14,1.120433711e-13,1.114935072e-14,4.349180688e-14,6.118046709e-14,1.360164033e-13
0.4375,5.462284258e-14,1.408546119e-13,2.092735055e-13,1.129974238e-13,1.053121559e-13,5.620686601e-14,4.115939405e-14,6.825205319e-14,1.397403041e-13,1.605762273e-14,4.711845599e-14,4.448406729e-14,6.845327781e-14,1.160058267e-13,6.110774166e-14,1.078382259e-13,1.508018851e-13,3.306675176e-14,2.8083055e-14,1.391822792e-13,8.332209563e-14,4.502644962e-14,1.134929234e-13,3.839613036e-13,1.121020043e-13,8.365967957e-14,6.909251538e-14,1.114925271e-13,1.092616401e-14,4.200563389e-14,6.347349301e-14,1.372047236e-13
0.4453125,5.59423243e-14,1.388243869e-13,2.064804231e-13,1.163775485e-13,1.092527746e-13,5.278234984e-14,4.04707805e-14,6.890980225e-14,1.370126019e-13,1.468422974e-14,4.749870167e-14,4.336231264e-14,6.460439528e-14,1.090884499e-13,5.712836843e-14,1.090194737e-13,1.519372216e-13,3.017833675e-14,2.901071014e-14,1.427435766e-13,8.436212555e-14,4.503225736e-14,1.152166531e-13,3.860235883e-13,1.151375879e-13,8.517279314e-14,6.910860524e-14,1.110394009e-13,1.072214014e-14,4.062588597e-14,6.54142217e-14,1.381610465e-13
0.453125,5.725227862e-14,1.366392627e-13,2.03049885e-13,1.192223847e-13,1.125073261e-13,4.953519629e-14,3.992583071e-14,6.928288451e-14,1.338607501e-13,1.348683764e-14,4.762473455e-14,4.221888283e-14,6.068771477e-14,1.023981012e-13,5.36761601e-14,1.107945162e-13,1.533974229e-13,2.746584906e-14,2.999521815e-14,1.461711585e-13,8.530946044e-14,4.487942977e-14,1.172878185e-13,3.859419111e-13,1.183829005e-13,8.621000936e-14,6.893017122e-14,1.109104591e-13,1.050899787e-14,3.929164682e-14,6.705848985e-14,1.388956439e-13
0.4609375,5.860017474e-14,1.341974407e-13,1.993602016e-13,1.216135691e-13,1.149576113e-13,4.641016433e-14,3.944855179e-14,6.941173917e-14,1.303448507e-13,1.244947105e-14,4.775991084e-14,4.11276096e-14,5.673063289e-14,9.585178572e-14,5.067733259e-14,1.128357842e-13,1.547616058e-13,2.499812067e-14,3.092432231e-14,1.494240436e-13,8.581949246e-14,4.453503858e-14,1.198331702e-13,3.842985672e-13,1.21763222e-13,8.664576071e-14,6.864591526e-14,1.111251981e-13,1.025743476e-14,3.817515128e-14,6.83077524e-14,1.39294141e-13
0.46875,6.007180422e-14,1.312882006e-13,1.957763493e-13,1.232246241e-13,1.164135165e-13,4.350505881e-14,3.898833386e-14,6.923090176e-14,1.266452892e-13,1.156044139e-14,4.797408672e-14,4.005542953e-14,5.28271312e-14,8.940242715e-14,4.810085419e-14,1.151553082e-13,1.558564752e-13,2.273430313e-14,3.184921118e-14,1.522428565e-13,8.595759199e-14,4.401264495e-14,1.225897723e-13,3.801871866e-13,1.246465424e-13,8.656351558e-14,6.840392455e-14,1.111916588e-13,1.001151611e-14,3.732220799e-14,6.898013744e-14,1.393428339e-13
0.4765625,6.157090282e-14,1.278679518e-13,1.920013724e-13,1.240535937e-13,1.17046745e-13,4.081505987e-14,3.866687384e-14,6.87461465e-14,1.228565453e-13,1.083709622e-14,4.801847379e-14,3.903755366e-14,4.902527746e-14,8.313666324e-14,4.590003975e-14,1.17751648e-13,1.564644796e-13,2.060516574e-14,3.278604944e-14,1.547535893e-13,8.587804441e-14,4.337455124e-14,1.255273575e-13,3.745737065e-13,1.271860787e-13,8.611037718e-14,6.831303117e-14,1.113518518e-13,9.806425047e-15,3.672686879e-14,6.92230423e-14,1.391338028e-13
0.484375,6.304487596e-14,1.24013388e-13,1.8763413e-13,1.243371685e-13,1.170092527e-13,3.833743121e-14,3.839844352e-14,6.797411307e-14,1.188941046e-13,1.030770266e-14,4.788692888e-14,3.810489187e-14,4.5310277e-14,7.701597602e-14,4.391599064e-14,1.201745598e-13,1.562193457e-13,1.858658001e-14,3.358511323e-14,1.572271816e-13,8.546749326e-14,4.266548369e-14,1.286544122e-13,3.682958896e-13,1.292942252e-13,8.522047719e-14,6.841281895e-14,1.115164151e-13,9.64380951e-15,3.630412713e-14,6.925061198e-14,1.387546588e-13
0.4921875,6.44413052e-14,1.200496279e-13,1.832147681e-13,1.242395442e-13,1.164322511e-13,3.614936948e-14,3.803611767e-14,6.700557813e-14,1.150176368e-13,9.962602209e-15,4.773839972e-14,3.732576745e-14,4.170623743e-14,7.118661848e-14,4.216899623e-14,1.222638672e-13,1.551991501e-13,1.668624761e-14,3.421076786e-14,1.595022123e-13,8.469335108e-14,4.191954534e-14,1.318500338e-13,3.601372199e-13,1.307772824e-13,8.383392399e-14,6.837213579e-14,1.115909907e-13,9.55420425e-15,3.593903033e-14,6.911991971e-14,1.384430819e-13
0.5,6.567439908e-14,1.160961072e-13,1.78812891e-13,1.238572353e-13,1.154725019e-13,3.415529076e-14,3.768964624e-14,6.588271535e-14,1.112029607e-13,9.7779682e-15,4.761962578e-14,3.668767751e-14,3.827229621e-14,6.570129795e-14,4.070081365e-14,1.241036916e-13,1.536198095e-13,1.499644389e-14,3.468386669e-14,1.615441262e-13,8.383193185e-14,4.116128277e-14,1.351271218e-13,3.510011007e-13,1.320176288e-13,8.220206788e-14,6.85653437e-14,1.115617894e-13,9.64331996e-15,3.563267339e-14,6.886979999e-14,1.380295846e-13
0.5078125,6.700571171e-14,1.124498654e-13,1.739381003e-13,1.232226375e-13,1.14184404e-13,3.244554407e-14,3.735672027e-14,6.455712053e-14,1.073616337e-13,9.739810336e-15,4.740620167e-14,3.614825396e-14,3.503918045e-14,6.049446636e-14,3.950265727e-14,1.258846665e-13,1.51776277e-13,1.358753094e-14,3.509624558e-14,1.633777573e-13,8.272833108e-14,4.04279415e-14,1.382684778e-13,3.408516614e-13,1.330536139e-13,8.032499789e-14,6.9050803e-14,1.111333944e-13,9.913180209e-15,3.545240132e-14,6.851536313e-14,1.374317569e-13
0.515625,6.830617358e-14,1.093408261e-13,1.68497486e-13,1.226624939e-13,1.128492594e-13,3.091280896e-14,3.717325827e-14,6.311085259e-14,1.035898976e-13,9.87781504e-15,4.705185932e-14,3.569496756e-14,3.199705359e-14,5.556267493e-14,3.849346597e-14,1.275588009e-13,1.495473893e-13,1.239784186e-14,3.5507933e-14,1.648262233e-13,8.132545513e-14,3.971468461e-14,1.412195202e-13,3.289704347e-13,1.335901043e-13,7.816895471e-14,6.973165087e-14,1.103599528e-13,1.037629799e-14,3.534029592e-14,6.819923043e-14,1.367171115e-13
0.5234375,6.9333164e-14,1.065195854e-13,1.6306059e-13,1.221027384e-13,1.115048233e-13,2.951275616e-14,3.714560659e-14,6.148743147e-14,9.991952649e-14,1.018026165e-14,4.652535275e-14,3.539992863e-14,2.921591969e-14,5.102705389e-14,3.763513562e-14,1.286811742e-13,1.463113483e-13,1.140938489e-14,3.577268233e-14,1.657660852e-13,7.965892533e-14,3.905293868e-14,1.441831654e-13,3.165729407e-13,1.339117666e-13,7.5889098e-14,7.078318405e-14,1.098540667e-13,1.102467026e-14,3.525041083e-14,6.801675212e-14,1.359657023e-13
0.53125,7.027949345e-14,1.03630492e-13,1.572485839e-13,1.210200619e-13,1.100500081e-13,2.826705079e-14,3.717428173e-14,5.955382859e-14,9.629734416e-14,1.060109964e-14,4.585487178e-14,3.519264786e-14,2.66653137e-14,4.686720928e-14,3.686984882e-14,1.288711794e-13,1.419478781e-13,1.056845711e-14,3.589208345e-14,1.660723825e-13,7.77873852e-14,3.846696323e-14,1.46969576e-13,3.0415228e-13,1.342988799e-13,7.356814822e-14,7.210884232e-14,1.091873367e-13,1.194761033e-14,3.511111626e-14,6.803292123e-14,1.35283861e-13
0.5390625,7.082328632e-14,1.007572195e-13,1.508008576e-13,1.198577775e-13,1.087397103e-13,2.719015732e-14,3.734008672e-14,5.743430664e-14,9.270448136e-14,1.115967014e-14,4.505296702e-14,3.509782197e-14,2.436458787e-14,4.314998745e-14,3.621538603e-14,1.281190913e-13,1.367474767e-13,9.904972294e-15,3.595650486e-14,1.656479382e-13,7.587941268e-14,3.794737368e-14,1.496905245e-13,2.908667354e-13,1.343556599e-13,7.109601137e-14,7.349341917e-14,1.082918963e-13,1.326555215e-14,3.484844976e-14,6.837442917e-14,1.346600049e-13
0.546875,7.068320875e-14,9.794981646e-14,1.4450152e-13,1.190546768e-13,1.076465858e-13,2.646421623e-14,3.758512485e-14,5.51240217e-14,8.914474262e-14,1.183373386e-14,4.411820409e-14,3.512380375e-14,2.238376426e-14,3.999542869e-14,3.572081577e-14,1.263923931e-13,1.306460022e-13,9.480081824e-15,3.589247904e-14,1.646430452e-13,7.396444846e-14,3.752082419e-14,1.527772179e-13,2.767065801e-13,1.339729039e-13,6.852265369e-14,7.498148144e-14,1.077995804e-13,1.490521651e-14,3.44419495e-14,6.909201087e-14,1.340040244e-13
0.5546875,7.039419531e-14,9.491558991e-14,1.387933575e-13,1.17879671e-13,1.065787207e-13,2.604026037e-14,3.769616473e-14,5.241079756e-14,8.566487534e-14,1.255660989e-14,4.319179079e-14,3.51702178e-14,2.065523994e-14,3.728828717e-14,3.537576279e-14,1.235319373e-13,1.237995351e-13,9.173209213e-15,3.570970347e-14,1.631666874e-13,7.178134761e-14,3.724114008e-14,1.557614397e-13,2.625524158e-13,1.332885123e-13,6.605181798e-14,7.656684395e-14,1.074169142e-13,1.693190876e-14,3.396484441e-14,7.010147303e-14,1.332853396e-13
0.5625,7.010678855e-14,9.172239105e-14,1.335445269e-13,1.16339231e-13,1.057113084e-13,2.566674697e-14,3.770686686e-14,4.949566126e-14,8.230957196e-14,1.335040848e-14,4.238086517e-14,3.523774041e-14,1.910878073e-14,3.483041742e-14,3.517697986e-14,1.198623857e-13,1.171098185e-13,8.899946357e-15,3.550988966e-14,1.616112132e-13,6.933652809e-14,3.709581017e-14,1.582092694e-13,2.488872372e-13,1.321456612e-13,6.384260563e-14,7.844169972e-14,1.072731196e-13,1.938449915e-14,3.349833381e-14,7.130051724e-14,1.324455035e-13
0.5703125,6.950611704e-14,8.898275051e-14,1.284636244e-13,1.152917158e-13,1.053383125e-13,2.538810532e-14,3.777535014e-14,4.670190523e-14,7.909509465e-14,1.423809259e-14,4.159739824e-14,3.528345331e-14,1.774581356e-14,3.257476032e-14,3.514871312e-14,1.160774876e-13,1.111808073e-13,8.768353029e-15,3.537217358e-14,1.608000846e-13,6.693227641e-14,3.70616346e-14,1.605679305e-13,2.359954843e-13,1.306918445e-13,6.207094373e-14,8.096485466e-14,1.07576074e-13,2.21681805e-14,3.294464445e-14,7.27708699e-14,1.313973239e-13
0.578125,6.851756614e-14,8.685975962e-14,1.233621061e-13,1.149330957e-13,1.05626043e-13,2.526468379e-14,3.778762266e-14,4.394664957e-14,7.603009689e-14,1.519333628e-14,4.069300407e-14,3.527767341e-14,1.661546572e-14,3.061888127e-14,3.522239946e-14,1.121302158e-13,1.05529535e-13,8.829009282e-15,3.528693322e-14,1.610136367e-13,6.460773544e-14,3.715257718e-14,1.630132037e-13,2.243018124e-13,1.291669874e-13,6.072185325e-14,8.418071887e-14,1.075923478e-13,2.527071634e-14,3.224391515e-14,7.469367667e-14,1.301989965e-13
0.5859375,6.728414154e-14,8.509767044e-14,1.185675051e-13,1.150829028e-13,1.067697308e-13,2.525565234e-14,3.762367208e-14,4.112994981e-14,7.308801658e-14,1.618406679e-14,3.975317119e-14,3.522769066e-14,1.570567957e-14,2.89645721e-14,3.526561461e-14,1.077158005e-13,9.993896423e-14,8.982695341e-15,3.519594006e-14,1.61993787e-13,6.238503862e-14,3.735623185e-14,1.654773592e-13,2.134820855e-13,1.276302485e-13,5.9692495e-14,8.79735316e-14,1.075474526e-13,2.862544976e-14,3.148427299e-14,7.714060422e-14,1.289329376e-13
0.59375,6.601331982e-14,8.384117211e-14,1.143541246e-13,1.158547223e-13,1.088088069e-13,2.536273928e-14,3.743421698e-14,3.830295396e-14,7.025291911e-14,1.718899617e-14,3.897321513e-14,3.504734974e-14,1.495445005e-14,2.750768294e-14,3.530640238e-14,1.032911564e-13,9.507347104e-14,9.223788088e-15,3.523527715e-14,1.639344922e-13,6.035438557e-14,3.769018575e-14,1.680883288e-13,2.03488761e-13,1.26289472e-13,5.909730753e-14,9.228878037e-14,1.079499913e-13,3.230112075e-14,3.064969762e-14,8.0135737e-14,1.274933225e-13
0.6015625,6.46034841e-14,8.324562316e-14,1.105811602e-13,1.17763992e-13,1.118136466e-13,2.559168561e-14,3.725180318e-14,3.557805724e-14,6.761781857e-14,1.819879215e-14,3.833636505e-14,3.47669902e-14,1.437407319e-14,2.624891615e-14,3.537061743e-14,9.897609238e-14,9.098613628e-14,9.602804164e-15,3.550135578e-14,1.670150225e-13,5.855546389e-14,3.819611591e-14,1.710115249e-13,1.952579811e-13,1.250349694e-13,5.894189107e-14,9.703120729e-14,1.086575828e-13,3.633769833e-14,2.974569631e-14,8.384871892e-14,1.259704387e-13
0.609375,6.307407893e-14,8.306472463e-14,1.071912095e-13,1.208601279e-13,1.159573439e-13,2.605239358e-14,3.698544222e-14,3.308634043e-14,6.527046567e-14,1.918632401e-14,3.777091741e-14,3.447301134e-14,1.397473875e-14,2.522719557e-14,3.545770566e-14,9.438565374e-14,8.71530718e-14,1.009254747e-14,3.590278339e-14,1.706447697e-13,5.706865943e-14,3.889746803e-14,1.746397404e-13,1.889109511e-13,1.236402793e-13,5.913797634e-14,1.021726218e-13,1.098210434e-13,4.058133473e-14,2.886425643e-14,8.849410087e-14,1.246613981e-13
0.6171875,6.156653761e-14,8.298907106e-14,1.041281089e-13,1.245927772e-13,1.211835836e-13,2.662626695e-14,3.681246186e-14,3.075834426e-14,6.316819715e-14,2.01500379e-14,3.722763765e-14,3.406298246e-14,1.372810549e-14,2.443686243e-14,3.56809681e-14,8.952430895e-14,8.358927943e-14,1.066996892e-14,3.640587002e-14,1.745495467e-13,5.583815386e-14,3.97975199e-14,1.789575897e-13,1.838576432e-13,1.224580132e-13,5.96982187e-14,1.077911334e-13,1.111620249e-13,4.504852573e-14,2.799227681e-14,9.40470887e-14,1.235570721e-13
0.625,5.973893523e-14,8.296012933e-14,1.014395147e-13,1.289920952e-13,1.275135298e-13,2.708239863e-14,3.681687804e-14,2.853199495e-14,6.126306281e-14,2.112048902e-14,3.674799031e-14,3.352642133e-14,1.36163685e-14,2.387811055e-14,3.598970284e-14,8.441233543e-14,8.06573425e-14,1.136834801e-14,3.698968787e-14,1.792299883e-13,5.496815487e-14,4.083378851e-14,1.837948127e-13,1.798241748e-13,1.217912793e-13,6.067299853e-14,1.141206419e-13,1.124335853e-13,4.976168927e-14,2.710180409e-14,1.005579328e-13,1.226248672e-13
0.6328125,5.759814887e-14,8.308411984e-14,9.901399723e-14,1.341530062e-13,1.350566113e-13,2.760992729e-14,3.680965168e-14,2.646388671e-14,5.954385503e-14,2.206047667e-14,3.632359561e-14,3.296677567e-14,1.36067454e-14,2.351832368e-14,3.624264999e-14,7.912418547e-14,7.854791164e-14,1.217212575e-14,3.760400491e-14,1.849314128e-13,5.464990221e-14,4.196366057e-14,1.896565353e-13,1.768437195e-13,1.214362075e-13,6.224029754e-14,1.214893899e-13,1.137280076e-13,5.449050611e-14,2.622253774e-14,1.0816158e-13,1.219645895e-13
0.640625,5.544935928e-14,8.338349391e-14,9.633982983e-14,1.396506903e-13,1.436118106e-13,2.83371235e-14,3.694467612e-14,2.454231025e-14,5.801550228e-14,2.289043226e-14,3.571045627e-14,3.228845103e-14,1.363277398e-14,2.329650224e-14,3.643216041e-14,7.393389295e-14,7.727002993e-14,1.298434157e-14,3.822251095e-14,1.915870416e-13,5.46832415e-14,4.318129065e-14,1.964925339e-13,1.752979058e-13,1.213687794e-13,6.433002923e-14,1.295627049e-13,1.14615959e-13,5.914420354e-14,2.540287137e-14,1.166254119e-13,1.214014912e-13
0.6484375,5.319320824e-14,8.388262845e-14,9.363406629e-14,1.454103508e-13,1.530250522e-13,2.908626178e-14,3.745629321e-14,2.279390187e-14,5.674371496e-14,2.358835981e-14,3.487114375e-14,3.149515495e-14,1.370540384e-14,2.319843871e-14,3.655281109e-14,6.896289286e-14,7.684194973e-14,1.385888834e-14,3.888014702e-14,1.99116435e-13,5.490414211e-14,4.448039055e-14,2.037667232e-13,1.749584895e-13,1.221242455e-13,6.671495325e-14,1.37749559e-13,1.151432126e-13,6.397377137e-14,2.472787183e-14,1.258543609e-13,1.208662231e-13
0.65625,5.087121767e-14,8.464420682e-14,9.130846749e-14,1.515881941e-13,1.634555395e-13,2.977788716e-14,3.816553562e-14,2.11959341e-14,5.572526813e-14,2.41491344e-14,3.395886698e-14,3.068485807e-14,1.382943252e-14,2.316281849e-14,3.656525446e-14,6.419441356e-14,7.724820337e-14,1.483567647e-14,3.961705234e-14,2.075082181e-13,5.539496141e-14,4.583102294e-14,2.115989856e-13,1.757480366e-13,1.239916097e-13,6.957104357e-14,1.461999089e-13,1.155210055e-13,6.895281379e-14,2.425381934e-14,1.360855065e-13,1.20663175e-13
0.6640625,4.865449482e-14,8.586695908e-14,8.919703924e-14,1.580935373e-13,1.750824134e-13,3.039467412e-14,3.902384088e-14,1.97308447e-14,5.491331754e-14,2.459323356e-14,3.303044218e-14,2.980491919e-14,1.388509977e-14,2.306673178e-14,3.64298551e-14,5.967513075e-14,7.854174718e-14,1.58248348e-14,4.03579362e-14,2.170462096e-13,5.620143551e-14,4.712644795e-14,2.2012222e-13,1.784023972e-13,1.265706987e-13,7.297340147e-14,1.551302342e-13,1.156053714e-13,7.384260097e-14,2.401236922e-14,1.473866143e-13,1.209309837e-13
0.671875,4.657529656e-14,8.784093007e-14,8.721993458e-14,1.650089815e-13,1.880153381e-13,3.090521809e-14,4.018183392e-14,1.85434091e-14,5.434664049e-14,2.496248791e-14,3.208722692e-14,2.886379548e-14,1.383889545e-14,2.283378549e-14,3.607192757e-14,5.560849301e-14,8.07916075e-14,1.685701291e-14,4.110845373e-14,2.276655371e-13,5.739176614e-14,4.831298899e-14,2.292517329e-13,1.823287146e-13,1.30050352e-13,7.677185588e-14,1.643752801e-13,1.155331012e-13,7.86425916e-14,2.402101516e-14,1.59838073e-13,1.216784074e-13
0.6796875,4.464345817e-14,9.052337188e-14,8.520712196e-14,1.724044953e-13,2.022256104e-13,3.130000284e-14,4.152423361e-14,1.76683842e-14,5.40543934e-14,2.521828123e-14,3.107380077e-14,2.785633221e-14,1.373513896e-14,2.246602417e-14,3.537674531e-14,5.197146252e-14,8.36326214e-14,1.79132885e-14,4.19693363e-14,2.387490141e-13,5.905838714e-14,4.93887539e-14,2.3881455e-13,1.8699244e-13,1.348131459e-13,8.095702194e-14,1.738135209e-13,1.153333714e-13,8.330790276e-14,2.420807306e-14,1.735536343e-13,1.229925726e-13
0.6875,4.285787408e-14,9.377549551e-14,8.301906586e-14,1.79840739e-13,2.173272675e-13,3.159592472e-14,4.296592596e-14,1.699795476e-14,5.401598505e-14,2.53497113e-14,2.99574946e-14,2.681118078e-14,1.361519857e-14,2.208812645e-14,3.429486673e-14,4.857780227e-14,8.675860473e-14,1.895229839e-14,4.287814326e-14,2.500161314e-13,6.111566888e-14,5.035686944e-14,2.486269964e-13,1.927939322e-13,1.402213377e-13,8.539302788e-14,1.833197783e-13,1.149292071e-13,8.779116175e-14,2.456556638e-14,1.882735551e-13,1.247390828e-13
0.6953125,4.131625801e-14,9.764920748e-14,8.097250851e-14,1.869975425e-13,2.328512324e-13,3.188892049e-14,4.47174596e-14,1.646043311e-14,5.418652786e-14,2.538976206e-14,2.878957778e-14,2.582957e-14,1.353108828e-14,2.177149609e-14,3.297985522e-14,4.558578458e-14,9.042520768e-14,2.002822601e-14,4.374256581e-14,2.616274474e-13,6.34341112e-14,5.123692514e-14,2.587933088e-13,1.994808671e-13,1.463053533e-13,9.001678136e-14,1.928679087e-13,1.141706584e-13,9.192233766e-14,2.51682662e-14,2.035971551e-13,1.267186106e-13
0.703125,4.002620005e-14,1.020089444e-13,7.944560561e-14,1.937755377e-13,2.486174757e-13,3.217519223e-14,4.682804351e-14,1.614767764e-14,5.464055966e-14,2.532628557e-14,2.765570457e-14,2.492214218e-14,1.349852115e-14,2.146825344e-14,3.157947465e-14,4.308917375e-14,9.460841477e-14,2.114188173e-14,4.458630577e-14,2.734761581e-13,6.612352923e-14,5.194140552e-14,2.690116037e-13,2.073401281e-13,1.532533269e-13,9.492510884e-14,2.025797053e-13,1.132460287e-13,9.552116265e-14,2.601602306e-14,2.194865975e-13,1.290116166e-13
0.7109375,3.89596584e-14,1.064972018e-13,7.823414893e-14,1.99911154e-13,2.645002391e-13,3.242928664e-14,4.919802165e-14,1.617445124e-14,5.546963491e-14,2.519690086e-14,2.647249726e-14,2.414609091e-14,1.356416014e-14,2.121803579e-14,3.001749573e-14,4.082349666e-14,9.869731688e-14,2.224608529e-14,4.541077754e-14,2.850260033e-13,6.920448051e-14,5.242672645e-14,2.786569644e-13,2.158346539e-13,1.60253783e-13,9.994039934e-14,2.120923124e-13,1.123859929e-13,9.883365425e-14,2.710918729e-14,2.359110101e-13,1.317290631e-13
0.71875,3.829097674e-14,1.109777747e-13,7.717485093e-14,2.05371652e-13,2.801133565e-13,3.281130622e-14,5.191355633e-14,1.646505276e-14,5.658220067e-14,2.503391591e-14,2.518026178e-14,2.356647542e-14,1.370365168e-14,2.109949439e-14,2.836299095e-14,3.868983387e-14,1.024569286e-13,2.326275076e-14,4.610471767e-14,2.960279214e-13,7.236237228e-14,5.27330977e-14,2.875934305e-13,2.241028214e-13,1.675121149e-13,1.049005655e-13,2.211049171e-13,1.113480409e-13,1.017799811e-13,2.845209585e-14,2.523229076e-13,1.347754508e-13
0.7265625,3.796732861e-14,1.156178042e-13,7.642370152e-14,2.100472748e-13,2.949266097e-13,3.336386412e-14,5.495509161e-14,1.697300855e-14,5.801957154e-14,2.478878642e-14,2.395842501e-14,2.319020077e-14,1.385934434e-14,2.108268271e-14,2.67935544e-14,3.687828811e-14,1.062861214e-13,2.427352731e-14,4.654907454e-14,3.067157938e-13,7.541797118e-14,5.282675319e-14,2.957129416e-13,2.33333413e-13,1.753005498e-13,1.099329188e-13,2.301616675e-13,1.104636669e-13,1.039794336e-13,3.008208767e-14,2.683365306e-13,1.380700141e-13
0.734375,3.775970672e-14,1.205095379e-13,7.567455179e-14,2.137552803e-13,3.088976171e-13,3.386534343e-14,5.82683259e-14,1.771474009e-14,5.991879931e-14,2.445048394e-14,2.279813414e-14,2.299919361e-14,1.407708277e-14,2.108138252e-14,2.523349023e-14,3.547101013e-14,1.104050955e-13,2.541720298e-14,4.677774347e-14,3.174675919e-13,7.853975257e-14,5.277146477e-14,3.027268034e-13,2.433017925e-13,1.831071925e-13,1.151260757e-13,2.391352905e-13,1.095685033e-13,1.057261847e-13,3.204346593e-14,2.84239039e-13,1.417674091e-13
0.7421875,3.761390417e-14,1.255050698e-13,7.492558619e-14,2.166386437e-13,3.224166017e-13,3.412994992e-14,6.195219692e-14,1.873625719e-14,6.232317873e-14,2.411513264e-14,2.160180552e-14,2.30519184e-14,1.437369681e-14,2.115050881e-14,2.368771516e-14,3.435456656e-14,1.144693085e-13,2.662483454e-14,4.682584337e-14,3.283894014e-13,8.19092324e-14,5.26467644e-14,3.08423325e-13,2.533683656e-13,1.915052801e-13,1.203637438e-13,2.471168646e-13,1.082248029e-13,1.074001137e-13,3.428006264e-14,3.001750901e-13,1.460207812e-13
0.75,3.757110976e-14,1.305134878e-13,7.430258759e-14,2.182863364e-13,3.351250748e-13,3.437515939e-14,6.602205068e-14,2.007573816e-14,6.52359449e-14,2.382991719e-14,2.04061442e-14,2.343576185e-14,1.475550798e-14,2.133065492e-14,2.22660505e-14,3.345392097e-14,1.180723536e-13,2.788032951e-14,4.65892869e-14,3.386414305e-13,8.5357544e-14,5.235677162e-14,3.125799936e-13,2.641061151e-13,2.009663816e-13,1.254707192e-13,2.540249952e-13,1.069312334e-13,1.086918785e-13,3.679413706e-14,3.156304248e-13,1.506379335e-13
0.7578125,3.783603507e-14,1.35776153e-13,7.377625566e-14,2.183384289e-13,3.463891151e-13,3.480566163e-14,7.05519787e-14,2.167069376e-14,6.856288886e-14,2.351553284e-14,1.920461706e-14,2.410546058e-14,1.524980207e-14,2.157625704e-14,2.097711102e-14,3.278798404e-14,1.212338402e-13,2.929262176e-14,4.607820214e-14,3.477665407e-13,8.867354721e-14,5.188413762e-14,3.150884969e-13,2.746387339e-13,2.106341758e-13,1.304074272e-13,2.599052592e-13,1.056837055e-13,1.094329655e-13,3.959025804e-14,3.301616201e-13,1.554193757e-13
0.765625,3.84675542e-14,1.414417947e-13,7.376865726e-14,2.176314573e-13,3.564933339e-13,3.521160168e-14,7.556062729e-14,2.354604563e-14,7.233941091e-14,2.32322544e-14,1.803711639e-14,2.512518014e-14,1.59433193e-14,2.208621137e-14,1.984051414e-14,3.230762087e-14,1.239312655e-13,3.087628447e-14,4.550375033e-14,3.56389856e-13,9.208664756e-14,5.139369775e-14,3.157886566e-13,2.849542735e-13,2.199104973e-13,1.351166186e-13,2.644075895e-13,1.045416318e-13,1.100146955e-13,4.263010941e-14,3.439680471e-13,1.604587917e-13
0.7734375,3.939658779e-14,1.471898126e-13,7.431451953e-14,2.163593248e-13,3.653656448e-13,3.564360525e-14,8.088479507e-14,2.570912018e-14,7.660067474e-14,2.309259566e-14,1.693579163e-14,2.654519629e-14,1.694301013e-14,2.299069727e-14,1.888386858e-14,3.184937096e-14,1.257125779e-13,3.251131021e-14,4.49530793e-14,3.641845148e-13,9.563844837e-14,5.101072403e-14,3.145911914e-13,2.953545256e-13,2.288673141e-13,1.393849516e-13,2.673971492e-13,1.036421188e-13,1.104790633e-13,4.590239354e-14,3.569192326e-13,1.65652228e-13
0.78125,4.080794431e-14,1.527795711e-13,7.535470771e-14,2.136567252e-13,3.719985086e-13,3.618603741e-14,8.635685712e-14,2.814043932e-14,8.120329615e-14,2.303462793e-14,1.589497005e-14,2.832208144e-14,1.824201146e-14,2.421020625e-14,1.820237609e-14,3.137318814e-14,1.266353525e-13,3.419029303e-14,4.427275646e-14,3.706391161e-13,9.892192383e-14,5.076682086e-14,3.116737964e-13,3.051412386e-13,2.372008799e-13,1.430935264e-13,2.691814089e-13,1.029448454e-13,1.104734557e-13,4.932400658e-14,3.679588571e-13,1.706120768e-13
0.7890625,4.268840455e-14,1.582238304e-13,7.702942131e-14,2.097684315e-13,3.760327018e-13,3.675727019e-14,9.182573399e-14,3.080656762e-14,8.608479106e-14,2.307765669e-14,1.492473174e-14,3.049788476e-14,1.988050369e-14,2.574888191e-14,1.78201009e-14,3.105199275e-14,1.273620488e-13,3.604935226e-14,4.343415909e-14,3.763411867e-13,1.017669479e-13,5.074508283e-14,3.069556738e-13,3.146574829e-13,2.444861953e-13,1.463278395e-13,2.704496246e-13,1.030175346e-13,1.098936807e-13,5.288295826e-14,3.764834881e-13,1.750943701e-13
0.796875,4.490581561e-14,1.632925169e-13,7.918118968e-14,2.051861114e-13,3.778488409e-13,3.76368108e-14,9.737831238e-14,3.349979097e-14,9.115377266e-14,2.330427629e-14,1.399725661e-14,3.300719546e-14,2.187048912e-14,2.757683534e-14,1.770869762e-14,3.090163295e-14,1.277667317e-13,3.796077378e-14,4.257535165e-14,3.812946655e-13,1.042695069e-13,5.104556651e-14,3.005421919e-13,3.234137012e-13,2.50497365e-13,1.491825048e-13,2.711269671e-13,1.038867202e-13,1.088647377e-13,5.655051783e-14,3.82820413e-13,1.790225384e-13
0.8046875,4.752853741e-14,1.676320895e-13,8.151891034e-14,1.994771222e-13,3.77370748e-13,3.887178218e-14,1.030613598e-13,3.619393136e-14,9.630321577e-14,2.368456051e-14,1.315790153e-14,3.584730986e-14,2.415298921e-14,2.976567128e-14,1.798765012e-14,3.073118375e-14,1.272582638e-13,3.975191164e-14,4.164747242e-14,3.849001564e-13,1.064095605e-13,5.168610575e-14,2.928288053e-13,3.30982905e-13,2.548771585e-13,1.515298202e-13,2.709403375e-13,1.054745811e-13,1.075196285e-13,6.020752235e-14,3.869260495e-13,1.823093961e-13
0.8125,5.062794613e-14,1.71294945e-13,8.390243795e-14,1.926283935e-13,3.741425987e-13,4.030670212e-14,1.087566966e-13,3.900150251e-14,1.015183816e-13,2.419467218e-14,1.244039927e-14,3.906520639e-14,2.682302129e-14,3.240023741e-14,1.870140646e-14,3.061169943e-14,1.261352838e-13,4.162035386e-14,4.051769116e-14,3.872850049e-13,1.079882175e-13,5.269786092e-14,2.837183294e-13,3.380942283e-13,2.579114142e-13,1.533205876e-13,2.70670288e-13,1.07590791e-13,1.058808187e-13,6.397967264e-14,3.883278413e-13,1.848599478e-13
0.8203125,5.433623557e-14,1.74623503e-13,8.664480567e-14,1.852544743e-13,3.686588581e-13,4.20327314e-14,1.145135769e-13,4.182100398e-14,1.068359751e-13,2.48489062e-14,1.182153998e-14,4.262606922e-14,2.996558896e-14,3.547761691e-14,1.982278051e-14,3.076653287e-14,1.249474278e-13,4.382474288e-14,3.92813422e-14,3.890110259e-13,1.09098429e-13,5.412859439e-14,2.733700063e-13,3.451001661e-13,2.600330152e-13,1.548264758e-13,2.704756069e-13,1.099926375e-13,1.040499408e-13,6.79913798e-14,3.874452641e-13,1.868459643e-13
0.828125,5.868513549e-14,1.776846815e-13,8.962216304e-14,1.779917855e-13,3.620608242e-13,4.407638483e-14,1.203207828e-13,4.460501055e-14,1.123753971e-13,2.566180701e-14,1.133561914e-14,4.65626487e-14,3.358330177e-14,3.909216313e-14,2.132971028e-14,3.106274276e-14,1.234639368e-13,4.633010734e-14,3.817570188e-14,3.900692983e-13,1.101144743e-13,5.602005682e-14,2.623249403e-13,3.522790095e-13,2.609511273e-13,1.561199925e-13,2.698184608e-13,1.133234668e-13,1.022904304e-13,7.205695244e-14,3.852481065e-13,1.886229335e-13
0.8359375,6.373437726e-14,1.802847146e-13,9.25276208e-14,1.708240795e-13,3.542859248e-13,4.634122945e-14,1.261234326e-13,4.74647527e-14,1.180724369e-13,2.660135782e-14,1.095830519e-14,5.077508726e-14,3.765854761e-14,4.308932505e-14,2.318422081e-14,3.12818608e-14,1.214042611e-13,4.900267951e-14,3.721664985e-14,3.900433127e-13,1.108784085e-13,5.841952337e-14,2.505403441e-13,3.588062591e-13,2.610666959e-13,1.570070723e-13,2.686235007e-13,1.172851924e-13,1.007651309e-13,7.601478048e-14,3.817062332e-13,1.901895261e-13
0.84375,6.969895466e-14,1.824154792e-13,9.562092755e-14,1.636726394e-13,3.449063785e-13,4.868867028e-14,1.316583959e-13,5.029665646e-14,1.236728468e-13,2.765609636e-14,1.06672797e-14,5.516283079e-14,4.212969893e-14,4.736329325e-14,2.546429997e-14,3.155347035e-14,1.191236354e-13,5.199609179e-14,3.633488201e-14,3.888797573e-13,1.110544603e-13,6.130067023e-14,2.379041925e-13,3.644244885e-13,2.607091483e-13,1.573932801e-13,2.664784632e-13,1.215029451e-13,9.948729979e-14,7.989758154e-14,3.765009861e-13,1.912805208e-13
0.8515625,7.643547333e-14,1.841643429e-13,9.86307046e-14,1.57131145e-13,3.343069532e-13,5.112961908e-14,1.364801133e-13,5.284649047e-14,1.291086528e-13,2.885802302e-14,1.049561337e-14,5.968354689e-14,4.700539905e-14,5.200865645e-14,2.811592281e-14,3.191346505e-14,1.16727874e-13,5.533539683e-14,3.564968516e-14,3.864960532e-13,1.10770846e-13,6.458577582e-14,2.247187167e-13,3.694730039e-13,2.590597885e-13,1.571854374e-13,2.631330625e-13,1.26302361e-13,9.83496226e-14,8.373959843e-14,3.699095344e-13,1.917483404e-13
0.859375,8.358729705e-14,1.855203031e-13,1.012145067e-13,1.510808286e-13,3.226642246e-13,5.352378724e-14,1.406620269e-13,5.52081704e-14,1.343387566e-13,3.014651469e-14,1.038713577e-14,6.416868885e-14,5.226832693e-14,5.677549694e-14,3.092306906e-14,3.213808398e-14,1.1397785e-13,5.877452605e-14,3.509136987e-14,3.82915134e-13,1.100630653e-13,6.813170986e-14,2.113594703e-13,3.726491386e-13,2.56432138e-13,1.562425267e-13,2.589843967e-13,1.311342856e-13,9.733584707e-14,8.745744128e-14,3.618891305e-13,1.914598262e-13
0.8671875,9.111413198e-14,1.867503e-13,1.036102268e-13,1.456911259e-13,3.10082085e-13,5.565065147e-14,1.442297618e-13,5.750217555e-14,1.390294036e-13,3.151747237e-14,1.032892625e-14,6.858706478e-14,5.787630298e-14,6.166751516e-14,3.399122792e-14,3.2375185e-14,1.113056126e-13,6.257234556e-14,3.462597247e-14,3.787274425e-13,1.088032537e-13,7.186204265e-14,1.981796596e-13,3.742036368e-13,2.536500554e-13,1.545693796e-13,2.544117901e-13,1.36102221e-13,9.661654831e-14,9.096015396e-14,3.526226228e-13,1.902102734e-13
0.875,9.911056173e-14,1.880322803e-13,1.056295884e-13,1.416329447e-13,2.967200426e-13,5.781000084e-14,1.468267575e-13,5.948077293e-14,1.429530995e-13,3.302959642e-14,1.039503258e-14,7.295829951e-14,6.387281533e-14,6.69199675e-14,3.75376218e-14,3.290572575e-14,1.090446038e-13,6.700734718e-14,3.449568451e-14,3.738527069e-13,1.069882176e-13,7.592527063e-14,1.854531732e-13,3.747058941e-13,2.502818573e-13,1.522597726e-13,2.499485595e-13,1.414713329e-13,9.633508976e-14,9.430449928e-14,3.427856413e-13,1.878966998e-13
0.8828125,1.071948596e-13,1.890185835e-13,1.068427819e-13,1.382835664e-13,2.823716098e-13,5.999552623e-14,1.484989764e-13,6.110554547e-14,1.462225182e-13,3.459096803e-14,1.059541272e-14,7.72116725e-14,7.018325306e-14,7.231026185e-14,4.144639126e-14,3.358119419e-14,1.067715459e-13,7.175852892e-14,3.461649104e-14,3.677211896e-13,1.045185288e-13,8.031412192e-14,1.733594817e-13,3.730905816e-13,2.460174918e-13,1.492814554e-13,2.458264876e-13,1.465799232e-13,9.657998074e-14,9.76434602e-14,3.323378494e-13,1.845765259e-13
0.890625,1.149130929e-13,1.89858359e-13,1.075271801e-13,1.355853669e-13,2.670851012e-13,6.175945908e-14,1.492966072e-13,6.254955136e-14,1.48803973e-13,3.61290353e-14,1.092060196e-14,8.132793298e-14,7.671316325e-14,7.776555354e-14,4.561510953e-14,3.440422463e-14,1.04437764e-13,7.674128808e-14,3.489963526e-14,3.607192621e-13,1.014366606e-13,8.478846852e-14,1.618626591e-13,3.694565957e-13,2.412803251e-13,1.455562739e-13,2.419745567e-13,1.515291367e-13,9.722530164e-14,1.00994489e-13,3.210999492e-13,1.802912392e-13
0.8984375,1.22547975e-13,1.910734972e-13,1.078901104e-13,1.342205587e-13,2.513683689e-13,6.317552341e-14,1.490281008e-13,6.381647186e-14,1.505891258e-13,3.765150817e-14,1.136394468e-14,8.520748424e-14,8.346210923e-14,8.330671819e-14,5.001900921e-14,3.558996012e-14,1.023731124e-13,8.212375279e-14,3.555548551e-14,3.532948299e-13,9.792215733e-14,8.926237195e-14,1.508351497e-13,3.638246246e-13,2.365300617e-13,1.413268224e-13,2.38948459e-13,1.563685508e-13,9.815324978e-14,1.041853974e-13,3.09552775e-13,1.752697852e-13
0.90625,1.303248781e-13,1.926088805e-13,1.074543216e-13,1.341245071e-13,2.358816952e-13,6.453806127e-14,1.477576164e-13,6.495427783e-14,1.51716455e-13,3.908703099e-14,1.19212493e-14,8.874718215e-14,9.027168258e-14,8.865540347e-14,5.454304827e-14,3.700709478e-14,1.006402767e-13,8.780920024e-14,3.658353075e-14,3.455206969e-13,9.401717413e-14,9.369743361e-14,1.404094344e-13,3.567699957e-13,2.311301986e-13,1.37012064e-13,2.373058314e-13,1.605844262e-13,9.953169274e-14,1.071661402e-13,2.983258191e-13,1.69890711e-13
0.9140625,1.379426715e-13,1.944324415e-13,1.063832027e-13,1.351711504e-13,2.207682969e-13,6.582901006e-14,1.457538424e-13,6.587928264e-14,1.522711416e-13,4.037130552e-14,1.264222628e-14,9.201056928e-14,9.703662437e-14,9.384910392e-14,5.927712264e-14,3.863104512e-14,9.934668502e-14,9.385125215e-14,3.789244241e-14,3.377416113e-13,8.983141521e-14,9.797223019e-14,1.306590248e-13,3.49310264e-13,2.248175191e-13,1.326076875e-13,2.371113454e-13,1.64235556e-13,1.013191287e-13,1.100820946e-13,2.876106254e-13,1.640257836e-13
0.921875,1.454797864e-13,1.968572594e-13,1.052321532e-13,1.373316641e-13,2.059900221e-13,6.676387385e-14,1.433047184e-13,6.64872687e-14,1.522921823e-13,4.145961358e-14,1.351415768e-14,9.501475833e-14,1.038172396e-13,9.900222528e-14,6.420769928e-14,4.061470559e-14,9.875387452e-14,1.004051357e-13,3.952050831e-14,3.301405037e-13,8.546089294e-14,1.020661743e-13,1.216248244e-13,3.403387426e-13,2.191258844e-13,1.280576424e-13,2.385031515e-13,1.673085281e-13,1.034064483e-13,1.129255112e-13,2.773793148e-13,1.576607304e-13
0.9296875,1.533437189e-13,2.000272114e-13,1.038470995e-13,1.408760158e-13,1.920688902e-13,6.738767617e-14,1.402014286e-13,6.694366363e-14,1.518525804e-13,4.232123296e-14,1.443983141e-14,9.769429165e-14,1.104893285e-13,1.039440285e-13,6.911340568e-14,4.282575302e-14,9.889372784e-14,1.073556716e-13,4.146893861e-14,3.226695756e-13,8.096305299e-14,1.059651194e-13,1.134552235e-13,3.299935923e-13,2.143125091e-13,1.235152602e-13,2.414415528e-13,1.696504463e-13,1.058308086e-13,1.155356769e-13,2.678655243e-13,1.51268636e-13
0.9375,1.614034632e-13,2.038005665e-13,1.021087685e-13,1.45783536e-13,1.791226284e-13,6.804149673e-14,1.363866116e-13,6.718819861e-14,1.508310896e-13,4.303962977e-14,1.542911475e-14,1.000382717e-13,1.168768392e-13,1.086655743e-13,7.413528444e-14,4.530155686e-14,9.968017332e-14,1.146152776e-13,4.360857729e-14,3.151900891e-13,7.638682882e-14,1.094852303e-13,1.059680152e-13,3.190868583e-13,2.095145725e-13,1.189372851e-13,2.45811278e-13,1.713432122e-13,1.085130197e-13,1.178827692e-13,2.591568132e-13,1.448420962e-13
0.9453125,1.690398465e-13,2.081497473e-13,1.000280577e-13,1.516659201e-13,1.672393942e-13,6.835508467e-14,1.323443229e-13,6.719685355e-14,1.49244462e-13,4.365196504e-14,1.654272447e-14,1.01982309e-13,1.228712715e-13,1.131051483e-13,7.93433019e-14,4.823766897e-14,1.011841152e-13,1.22092899e-13,4.587041487e-14,3.080143648e-13,7.194900471e-14,1.124167166e-13,9.91592584e-14,3.072670099e-13,2.045607158e-13,1.145945657e-13,2.51955114e-13,1.722579315e-13,1.11598978e-13,1.199985874e-13,2.51538292e-13,1.383401922e-13
0.953125,1.759105055e-13,2.129994327e-13,9.750862941e-14,1.586748809e-13,1.56876306e-13,6.80249176e-14,1.277806456e-13,6.716088499e-14,1.472759617e-13,4.410659552e-14,1.775201013e-14,1.034423165e-13,1.283646243e-13,1.171012406e-13,8.450556164e-14,5.144374706e-14,1.032655066e-13,1.295468105e-13,4.833201135e-14,3.01572938e-13,6.786269247e-14,1.147113802e-13,9.32371137e-14,2.950650888e-13,1.995509308e-13,1.108579423e-13,2.601483324e-13,1.724215216e-13,1.151433503e-13,1.217888175e-13,2.454707473e-13,1.320978506e-13
0.9609375,1.820830592e-13,2.18008699e-13,9.481109882e-14,1.665240658e-13,1.478559146e-13,6.751280717e-14,1.225033355e-13,6.704418797e-14,1.448969589e-13,4.439993118e-14,1.90185978e-14,1.044679621e-13,1.334159742e-13,1.207644621e-13,8.970832343e-14,5.484054702e-14,1.056800703e-13,1.369181181e-13,5.091517178e-14,2.954287197e-13,6.384739532e-14,1.16450956e-13,8.782727097e-14,2.820241771e-13,1.952450157e-13,1.075801589e-13,2.705196786e-13,1.7188906e-13,1.187730445e-13,1.232068859e-13,2.40598947e-13,1.262192922e-13
0.96875,1.876721642e-13,2.234209279e-13,9.223367693e-14,1.748335026e-13,1.400211536e-13,6.674547212e-14,1.168496351e-13,6.690831544e-14,1.421895246e-13,4.45093269e-14,2.03028659e-14,1.051504924e-13,1.380187562e-13,1.241604113e-13,9.50668558e-14,5.864717896e-14,1.083967295e-13,1.442198349e-13,5.350566673e-14,2.897976249e-13,5.99699027e-14,1.177067712e-13,8.271393441e-14,2.678448441e-13,1.917121237e-13,1.046962141e-13,2.828814131e-13,1.703842981e-13,1.223734444e-13,1.243756153e-13,2.366558243e-13,1.206895128e-13
0.9765625,1.925943279e-13,2.295266997e-13,8.988735888e-14,1.837165895e-13,1.334958412e-13,6.530308931e-14,1.107210198e-13,6.681754743e-14,1.393316913e-13,4.441106925e-14,2.160596045e-14,1.055024399e-13,1.419587271e-13,1.271159339e-13,1.003392345e-13,6.272565299e-14,1.113385459e-13,1.512530316e-13,5.611653531e-14,2.853602499e-13,5.655570325e-14,1.18438388e-13,7.818400353e-14,2.537449093e-13,1.882159509e-13,1.022544058e-13,2.965067436e-13,1.680556316e-13,1.258664932e-13,1.252407403e-13,2.337589653e-13,1.155330485e-13
0.984375,1.966167029e-13,2.35977186e-13,8.787524135e-14,1.928332581e-13,1.282300808e-13,6.338519045e-14,1.043882456e-13,6.670333301e-14,1.363581009e-13,4.412225707e-14,2.301504923e-14,1.055655755e-13,1.452864316e-13,1.29557866e-13,1.054131385e-13,6.687645024e-14,1.144364639e-13,1.578987573e-13,5.867648622e-14,2.817710913e-13,5.34580071e-14,1.186011955e-13,7.412664658e-14,2.398775348e-13,1.850932806e-13,1.00230605e-13,3.115730376e-13,1.653752221e-13,1.290399728e-13,1.256611599e-13,2.316217822e-13,1.109129827e-13
0.9921875,2.001331088e-13,2.429146801e-13,8.619609675e-14,2.020112417e-13,1.240325452e-13,6.137095466e-14,9.810504053e-14,6.662647874e-14,1.334022072e-13,4.365696808e-14,2.45323307e-14,1.055653153e-13,1.483466281e-13,1.318305598e-13,1.1064806e-13,7.138613492e-14,1.177650271e-13,1.643612225e-13,6.120353214e-14,2.787895961e-13,5.07234169e-14,1.183960344e-13,7.022187225e-14,2.262463096e-13,1.830649981e-13,9.862061528e-14,3.286297305e-13,1.622747026e-13,1.321060237e-13,1.258648877e-13,2.301152149e-13,1.069162851e-13
1,2.036927589e-13,2.503956832e-13,8.480797816e-14,2.110659687e-13,1.20445398e-13,5.938085761e-14,9.177669368e-14,6.650949406e-14,1.305086321e-13,4.303841754e-14,2.617631316e-14,1.056043794e-13,1.510931498e-13,1.341376763e-13,1.163978881e-13,7.644997305e-14,1.212242574e-13,1.705629372e-13,6.372881452e-14,2.762256974e-13,4.850432653e-14,1.179861241e-13,6.657592288e-14,2.129477572e-13,1.815390771e-13,9.726958198e-14,3.470201704e-13,1.583457671e-13,1.350419337e-13,1.260306254e-13,2.290851451e-13,1.033136797e-13
1.0078125,2.066950888e-13,2.573787068e-13,8.360856204e-14,2.191351554e-13,1.173013722e-13,5.726775989e-14,8.568590491e-14,6.626757379e-14,1.275086859e-13,4.228592951e-14,2.803095496e-14,1.05438626e-13,1.529724472e-13,1.359135444e-13,1.223166522e-13,8.167812577e-14,1.243749799e-13,1.759465255e-13,6.597228436e-14,2.736776386e-13,4.668333294e-14,1.170086341e-13,6.332981457e-14,1.99803512e-13,1.797393114e-13,9.609092132e-14,3.660223097e-13,1.538915079e-13,1.372429615e-13,1.258810751e-13,2.279264889e-13,1.000725077e-13
1.015625,2.084604922e-13,2.630708499e-13,8.254337689e-14,2.260047369e-13,1.146703977e-13,5.49372406e-14,8.004162536e-14,6.595089829e-14,1.243376089e-13,4.140442258e-14,2.989168749e-14,1.048972157e-13,1.537380479e-13,1.368431362e-13,1.278832278e-13,8.666030282e-14,1.271214359e-13,1.80432205e-13,6.775145774e-14,2.712673448e-13,4.51110641e-14,1.150974564e-13,6.020950326e-14,1.870038412e-13,1.783644463e-13,9.504744901e-14,3.853065404e-13,1.496155936e-13,1.384850732e-13,1.251369056e-13,2.263319227e-13,9.730314875e-14
1.0234375,2.091975101e-13,2.676781252e-13,8.170874821e-14,2.320343762e-13,1.124673993e-13,5.252283515e-14,7.486970081e-14,6.549772631e-14,1.210707634e-13,4.039937714e-14,3.151947006e-14,1.040047729e-13,1.536229658e-13,1.373107744e-13,1.333459317e-13,9.157802232e-14,1.299706167e-13,1.844680222e-13,6.917695705e-14,2.689816766e-13,4.381546876e-14,1.124902512e-13,5.706503155e-14,1.7433764e-13,1.773784256e-13,9.411959274e-14,4.048386532e-13,1.451345302e-13,1.390807567e-13,1.238159656e-13,2.244905934e-13,9.492780199e-14
1.03125,2.092496389e-13,2.712206659e-13,8.096488125e-14,2.36990062e-13,1.106475591e-13,5.007012451e-14,7.007299359e-14,6.481302223e-14,1.176993477e-13,3.935386627e-14,3.30117328e-14,1.027733214e-13,1.526461092e-13,1.372819514e-13,1.388793599e-13,9.655039377e-14,1.329958018e-13,1.881056581e-13,7.024839185e-14,2.666840439e-13,4.282771394e-14,1.094636094e-13,5.411017357e-14,1.620086159e-13,1.76210834e-13,9.348014755e-14,4.246943199e-13,1.400040431e-13,1.391749563e-13,1.220396967e-13,2.225024747e-13,9.276485649e-14
1.0390625,2.084675058e-13,2.729956986e-13,8.011136812e-14,2.403646344e-13,1.089125527e-13,4.754775152e-14,6.555639365e-14,6.393344892e-14,1.140878127e-13,3.832136267e-14,3.434406803e-14,1.011583407e-13,1.505291914e-13,1.363438665e-13,1.438967981e-13,1.010508759e-13,1.355113424e-13,1.907155012e-13,7.078861621e-14,2.642235797e-13,4.191778737e-14,1.05875861e-13,5.14623295e-14,1.504538454e-13,1.752381394e-13,9.295276647e-14,4.43977298e-13,1.347952877e-13,1.383890866e-13,1.197264451e-13,2.198822909e-13,9.072460048e-14
1.046875,2.061555856e-13,2.727899041e-13,7.940587983e-14,2.41923849e-13,1.070509089e-13,4.501207937e-14,6.144888246e-14,6.299966833e-14,1.103473509e-13,3.721773789e-14,3.532207598e-14,9.917899842e-14,1.473614268e-13,1.347351822e-13,1.484656593e-13,1.050050445e-13,1.37414244e-13,1.919472774e-13,7.067007483e-14,2.609757244e-13,4.100184033e-14,1.016684866e-13,4.902408745e-14,1.392031292e-13,1.741966213e-13,9.210572772e-14,4.623809772e-13,1.295026915e-13,1.364230946e-13,1.167734586e-13,2.16002537e-13,8.899498001e-14
1.0546875,2.027084632e-13,2.716485206e-13,7.914542609e-14,2.422551328e-13,1.053684523e-13,4.259475798e-14,5.778480419e-14,6.19005546e-14,1.067670814e-13,3.609634688e-14,3.606698716e-14,9.713174419e-14,1.437010298e-13,1.331290282e-13,1.533924219e-13,1.090881734e-13,1.395164092e-13,1.925686255e-13,7.010681879e-14,2.569613852e-13,4.023219241e-14,9.721769143e-14,4.653567589e-14,1.281581738e-13,1.731716788e-13,9.106745025e-14,4.807151847e-13,1.23940752e-13,1.337125022e-13,1.134352569e-13,2.111811567e-13,8.756683616e-14
1.0625,1.99518518e-13,2.70497598e-13,7.916931317e-14,2.419860318e-13,1.038914954e-13,4.036621887e-14,5.450885148e-14,6.046621662e-14,1.03327696e-13,3.508445806e-14,3.680699328e-14,9.516882896e-14,1.397497909e-13,1.314487821e-13,1.586226794e-13,1.133864124e-13,1.417173176e-13,1.930465494e-13,6.942160135e-14,2.527333913e-13,3.973663562e-14,9.28274057e-14,4.395670243e-14,1.177906691e-13,1.724829815e-13,9.008870746e-14,4.986581277e-13,1.185549173e-13,1.306970575e-13,1.09888354e-13,2.060855666e-13,8.613136767e-14
1.0703125,1.962219838e-13,2.688900652e-13,7.941447446e-14,2.405569541e-13,1.022440914e-13,3.824204482e-14,5.160688132e-14,5.895337814e-14,9.998399995e-14,3.416114925e-14,3.75409873e-14,9.309778347e-14,1.353582096e-13,1.292857323e-13,1.636315154e-13,1.173864132e-13,1.433019635e-13,1.927923914e-13,6.850070539e-14,2.479691372e-13,3.939063968e-14,8.841041148e-14,4.15928949e-14,1.082303368e-13,1.716623063e-13,8.895763734e-14,5.152988084e-13,1.134827744e-13,1.272657256e-13,1.060189865e-13,2.004985106e-13,8.469204463e-14
1.078125,1.920483365e-13,2.664014072e-13,8.012417981e-14,2.378105245e-13,1.004023338e-13,3.616316376e-14,4.919945127e-14,5.745876394e-14,9.680512809e-14,3.333448278e-14,3.815841548e-14,9.093480885e-14,1.306963654e-13,1.269103589e-13,1.684318243e-13,1.209512125e-13,1.444893573e-13,1.916695305e-13,6.723015764e-14,2.422722871e-13,3.895470849e-14,8.397233122e-14,3.948113405e-14,9.926734864e-14,1.705100047e-13,8.752035539e-14,5.299448269e-13,1.088345772e-13,1.233820422e-13,1.018518049e-13,1.942195316e-13,8.331490477e-14
1.0859375,1.878243667e-13,2.633547673e-13,8.108000932e-14,2.340947914e-13,9.844812546e-14,3.421099778e-14,4.730473886e-14,5.574758409e-14,9.35984802e-14,3.261643039e-14,3.861255495e-14,8.87261122e-14,1.258801811e-13,1.243706503e-13,1.731558572e-13,1.242538885e-13,1.455449367e-13,1.901113281e-13,6.581467567e-14,2.359151103e-13,3.854266055e-14,7.962803481e-14,3.737806341e-14,9.063011999e-14,1.6903291e-13,8.591260299e-14,5.419100491e-13,1.045312655e-13,1.192362171e-13,9.752108402e-14,1.875954664e-13,8.176744143e-14
1.09375,1.837852273e-13,2.593775263e-13,8.193060986e-14,2.290996024e-13,9.615075439e-14,3.254798359e-14,4.578487148e-14,5.380519212e-14,9.021300566e-14,3.197742189e-14,3.901537492e-14,8.630083833e-14,1.207516447e-13,1.212379853e-13,1.776824387e-13,1.272774222e-13,1.463539639e-13,1.880417314e-13,6.424924583e-14,2.291740319e-13,3.812556517e-14,7.535743751e-14,3.527476179e-14,8.236871157e-14,1.677778425e-13,8.417154179e-14,5.512237186e-13,1.004670839e-13,1.148263675e-13,9.310793631e-14,1.805509375e-13,7.995097401e-14
1.1015625,1.789966346e-13,2.537986024e-13,8.269504953e-14,2.229250987e-13,9.345607093e-14,3.113376542e-14,4.477050072e-14,5.168088116e-14,8.674790908e-14,3.145240582e-14,3.932165232e-14,8.356903548e-14,1.152193624e-13,1.17444187e-13,1.816165335e-13,1.295476031e-13,1.465986378e-13,1.8497061e-13,6.232071886e-14,2.218595377e-13,3.737860606e-14,7.127154142e-14,3.341781488e-14,7.477424743e-14,1.665776348e-13,8.213177098e-14,5.577838851e-13,9.687595182e-14,1.099849493e-13,8.851819488e-14,1.728352046e-13,7.806959659e-14
1.109375,1.731192806e-13,2.467829266e-13,8.312174767e-14,2.157955861e-13,9.061620867e-14,2.97952137e-14,4.431435025e-14,4.938344655e-14,8.315956109e-14,3.10746753e-14,3.92295784e-14,8.051545864e-14,1.092462608e-13,1.13062444e-13,1.846622705e-13,1.30678749e-13,1.461182873e-13,1.809229085e-13,6.005400972e-14,2.138763379e-13,3.639105903e-14,6.744158195e-14,3.185794097e-14,6.797155843e-14,1.644152384e-13,7.983846105e-14,5.612260009e-13,9.343045436e-14,1.048015224e-13,8.360410922e-14,1.647154319e-13,7.616746171e-14
1.1171875,1.665806425e-13,2.387639041e-13,8.300729763e-14,2.07775203e-13,8.770863682e-14,2.866641978e-14,4.432185963e-14,4.699255887e-14,7.932567637e-14,3.085116614e-14,3.869154538e-14,7.711275308e-14,1.029042805e-13,1.080773298e-13,1.870095008e-13,1.310444099e-13,1.453343454e-13,1.763020513e-13,5.76434811e-14,2.05704676e-13,3.538228741e-14,6.378062502e-14,3.043615116e-14,6.183664257e-14,1.616438399e-13,7.760251889e-14,5.618317773e-13,8.993615469e-14,9.956075187e-14,7.854768333e-14,1.565307792e-13,7.400203574e-14
1.125,1.59327264e-13,2.298585336e-13,8.264553225e-14,1.991551445e-13,8.452743323e-14,2.783004946e-14,4.481336126e-14,4.456820361e-14,7.539369389e-14,3.07697443e-14,3.779483326e-14,7.336969497e-14,9.62894312e-14,1.025236858e-13,1.886271316e-13,1.306704558e-13,1.43928772e-13,1.708870257e-13,5.503127157e-14,1.971074915e-13,3.416713955e-14,6.038698621e-14,2.917900973e-14,5.626557873e-14,1.583400991e-13,7.528628995e-14,5.592862329e-13,8.649414509e-14,9.429104338e-14,7.34834797e-14,1.481276245e-13,7.161496682e-14
1.1328125,1.511439601e-13,2.202514245e-13,8.221289844e-14,1.899439753e-13,8.1046124e-14,2.714363126e-14,4.572671795e-14,4.211074007e-14,7.156756613e-14,3.084858788e-14,3.656620029e-14,6.947858611e-14,8.945761538e-14,9.66843976e-14,1.892745607e-13,1.291514087e-13,1.413885895e-13,1.645002533e-13,5.213644837e-14,1.875263421e-13,3.270271814e-14,5.741981512e-14,2.813306081e-14,5.113255868e-14,1.539523193e-13,7.25483902e-14,5.531184808e-13,8.304363509e-14,8.899086879e-14,6.832191078e-14,1.393709052e-13,6.930997366e-14
1.140625,1.427032853e-13,2.106572906e-13,8.160261456e-14,1.803473511e-13,7.754081914e-14,2.661226804e-14,4.696211576e-14,3.962023602e-14,6.775339573e-14,3.11291987e-14,3.510771165e-14,6.561196959e-14,8.255397337e-14,9.08296635e-14,1.892059805e-13,1.270652797e-13,1.384568834e-13,1.577157359e-13,4.920030218e-14,1.775493396e-13,3.127655411e-14,5.488916743e-14,2.729662908e-14,4.647330046e-14,1.490734101e-13,6.96809102e-14,5.439679611e-13,7.985667557e-14,8.384055273e-14,6.320681409e-14,1.306882787e-13,6.704128432e-14
1.1484375,1.343182901e-13,2.015207864e-13,8.071669043e-14,1.705669588e-13,7.408582951e-14,2.62758378e-14,4.84204705e-14,3.719011852e-14,6.391560154e-14,3.156597389e-14,3.338505207e-14,6.168407383e-14,7.569089835e-14,8.481233461e-14,1.884902306e-13,1.248208431e-13,1.356452264e-13,1.50814289e-13,4.631378336e-14,1.676733079e-13,2.987187385e-14,5.269824851e-14,2.675328719e-14,4.247780403e-14,1.441058898e-13,6.696017692e-14,5.32246969e-13,7.695079922e-14,7.893662819e-14,5.821637722e-14,1.223502629e-13,6.466593375e-14
1.15625,1.258665132e-13,1.927128619e-13,7.977038069e-14,1.607017358e-13,7.060809323e-14,2.622212141e-14,5.013726614e-14,3.483272918e-14,6.027196089e-14,3.216815434e-14,3.142605741e-14,5.773634823e-14,6.897494238e-14,7.872088385e-14,1.87016226e-13,1.220781259e-13,1.326837321e-13,1.437697437e-13,4.339371818e-14,1.578620038e-13,2.836128953e-14,5.079730498e-14,2.640542173e-14,3.874139463e-14,1.388597653e-13,6.410883081e-14,5.177276094e-13,7.426621762e-14,7.432749963e-14,5.324611003e-14,1.142451846e-13,6.233492695e-14
1.1640625,1.177261732e-13,1.843996831e-13,7.906280546e-14,1.512205426e-13,6.722904494e-14,2.645108681e-14,5.216167808e-14,3.253939858e-14,5.686270732e-14,3.302394452e-14,2.941008863e-14,5.392900077e-14,6.251176738e-14,7.280299225e-14,1.849367369e-13,1.189473582e-13,1.295625254e-13,1.368255363e-13,4.057217984e-14,1.481497644e-13,2.684444317e-14,4.927173359e-14,2.609108418e-14,3.520631371e-14,1.333283876e-13,6.1037216e-14,5.002608241e-13,7.197662948e-14,7.008673099e-14,4.845175925e-14,1.065257256e-13,6.017677408e-14
1.171875,1.100091608e-13,1.767871328e-13,7.863754149e-14,1.422264101e-13,6.409916559e-14,2.678892211e-14,5.44475404e-14,3.04291619e-14,5.368312341e-14,3.412810703e-14,2.738550071e-14,5.02674333e-14,5.634608543e-14,6.702469167e-14,1.820475738e-13,1.154203488e-13,1.263604251e-13,1.30054346e-13,3.796922808e-14,1.384882755e-13,2.540596779e-14,4.815560051e-14,2.583160017e-14,3.224540496e-14,1.276153927e-13,5.797831787e-14,4.802891637e-13,6.980248364e-14,6.630120209e-14,4.396803088e-14,9.947356588e-14,5.819868064e-14
1.1796875,1.0256204e-13,1.699568313e-13,7.857525841e-14,1.337905463e-13,6.126525593e-14,2.726813249e-14,5.706326416e-14,2.848575728e-14,5.08285319e-14,3.547001589e-14,2.535654061e-14,4.670705299e-14,5.055642154e-14,6.152806629e-14,1.78295081e-13,1.114422309e-13,1.23085962e-13,1.234209816e-13,3.554431659e-14,1.29029591e-13,2.407588293e-14,4.744186059e-14,2.565216376e-14,2.949949609e-14,1.219203434e-13,5.493019981e-14,4.583302246e-13,6.756531646e-14,6.303166002e-14,3.974518693e-14,9.311824321e-14,5.646036894e-14
1.1875,9.514346956e-14,1.641322617e-13,7.881661776e-14,1.261234247e-13,5.867500916e-14,2.80512837e-14,5.983216755e-14,2.67109641e-14,4.827642347e-14,3.706789739e-14,2.335403568e-14,4.323886781e-14,4.518167166e-14,5.635795959e-14,1.739569388e-13,1.072756947e-13,1.196966698e-13,1.169344953e-13,3.324054954e-14,1.19901629e-13,2.281494489e-14,4.711629576e-14,2.560200174e-14,2.690975737e-14,1.159577539e-13,5.182542527e-14,4.344284791e-13,6.55655487e-14,6.028861421e-14,3.582548752e-14,8.736588146e-14,5.502894975e-14
1.1953125,8.773155104e-14,1.593058044e-13,7.915416517e-14,1.189617331e-13,5.633077535e-14,2.921005587e-14,6.269859411e-14,2.52253323e-14,4.604122006e-14,3.888159493e-14,2.145165314e-14,3.990366112e-14,4.02185535e-14,5.144081589e-14,1.689430258e-13,1.027906791e-13,1.160592551e-13,1.10603704e-13,3.106667127e-14,1.111608786e-13,2.163257839e-14,4.702133126e-14,2.571867563e-14,2.478127566e-14,1.097265218e-13,4.884409346e-14,4.095360306e-13,6.372936642e-14,5.81242359e-14,3.220709457e-14,8.228673818e-14,5.395990816e-14
1.203125,8.057793297e-14,1.554458869e-13,7.949164497e-14,1.122700943e-13,5.439422607e-14,3.059364042e-14,6.591252788e-14,2.395897323e-14,4.414708999e-14,4.085580128e-14,1.96776076e-14,3.673052185e-14,3.565115309e-14,4.698395036e-14,1.634410601e-13,9.813744345e-14,1.124032454e-13,1.046238611e-13,2.907188928e-14,1.029778712e-13,2.064550772e-14,4.701383624e-14,2.589732427e-14,2.312183467e-14,1.037503656e-13,4.612895735e-14,3.846702935e-13,6.179597834e-14,5.646567047e-14,2.886951871e-14,7.802247044e-14,5.32995938e-14
1.2109375,7.341752922e-14,1.525197765e-13,7.97668616e-14,1.062804194e-13,5.284504049e-14,3.214349044e-14,6.931812604e-14,2.283649898e-14,4.259763088e-14,4.297728816e-14,1.805570741e-14,3.37663261e-14,3.1472015e-14,4.306066432e-14,1.578780047e-13,9.377097221e-14,1.090244357e-13,9.913320318e-14,2.723147818e-14,9.534667913e-14,1.984842154e-14,4.708282687e-14,2.612619464e-14,2.19122603e-14,9.763917103e-14,4.373931412e-14,3.598451037e-13,6.004295261e-14,5.516572665e-14,2.587955221e-14,7.449356438e-14,5.30015416e-14
1.21875,6.62493984e-14,1.502328203e-13,8.016454449e-14,1.009531912e-13,5.151204258e-14,3.412844093e-14,7.278245839e-14,2.194429434e-14,4.145920982e-14,4.528742871e-14,1.66100823e-14,3.106804313e-14,2.773364054e-14,3.96105832e-14,1.521342981e-13,8.956450027e-14,1.059212384e-13,9.420899823e-14,2.550701066e-14,8.836008839e-14,1.917558695e-14,4.722332419e-14,2.648214645e-14,2.089724654e-14,9.110489526e-14,4.162457563e-14,3.352168736e-13,5.858254017e-14,5.424899528e-14,2.321303693e-14,7.160935904e-14,5.30027156e-14
1.2265625,5.945550704e-14,1.485145281e-13,8.056556927e-14,9.618258574e-14,5.046404305e-14,3.658147593e-14,7.63063022e-14,2.129617969e-14,4.069062377e-14,4.778848285e-14,1.527308809e-14,2.868609822e-14,2.440955812e-14,3.670142388e-14,1.462131899e-13,8.556489668e-14,1.033803544e-13,9.002043626e-14,2.398812675e-14,8.203251445e-14,1.861791708e-14,4.74004707e-14,2.69572729e-14,1.991200022e-14,8.459705428e-14,3.966938461e-14,3.110602239e-13,5.719920945e-14,5.373720267e-14,2.082309298e-14,6.943468611e-14,5.333610988e-14
1.234375,5.306783193e-14,1.472545502e-13,8.022811267e-14,9.181565673e-14,4.973284439e-14,3.938272166e-14,7.978243143e-14,2.082177251e-14,4.026151557e-14,5.034935041e-14,1.415431868e-14,2.661208778e-14,2.142185204e-14,3.434620687e-14,1.406125487e-13,8.226292028e-14,1.020549568e-13,8.667662128e-14,2.272687738e-14,7.63829226e-14,1.817474875e-14,4.751312108e-14,2.758907754e-14,1.911132913e-14,7.831084223e-14,3.806536827e-14,2.878720937e-13,5.593231174e-14,5.351643206e-14,1.868209386e-14,6.787774726e-14,5.401122684e-14
1.2421875,4.717073165e-14,1.460686546e-13,7.919498593e-14,8.772218987e-14,4.913385349e-14,4.26037271e-14,8.334186704e-14,2.049004372e-14,4.024777019e-14,5.286098129e-14,1.33601469e-14,2.469850429e-14,1.873793519e-14,3.254415388e-14,1.355066909e-13,7.977312533e-14,1.022410221e-13,8.411371429e-14,2.158533702e-14,7.176862919e-14,1.790308797e-14,4.74056362e-14,2.84565378e-14,1.842760555e-14,7.213544809e-14,3.692225652e-14,2.658417281e-13,5.490574563e-14,5.344016529e-14,1.675301058e-14,6.668777235e-14,5.497228394e-14
1.25,4.188636482e-14,1.450655033e-13,7.817804789e-14,8.392499213e-14,4.869764832e-14,4.638286296e-14,8.700045419e-14,2.031719565e-14,4.071428554e-14,5.536002193e-14,1.287325816e-14,2.298752007e-14,1.635243773e-14,3.140328185e-14,1.308562575e-13,7.801571122e-14,1.038735954e-13,8.233442287e-14,2.052263696e-14,6.821146452e-14,1.786853002e-14,4.706944107e-14,2.945985608e-14,1.766850211e-14,6.617350499e-14,3.613445938e-14,2.44997218e-13,5.430883298e-14,5.346380258e-14,1.507399028e-14,6.586812251e-14,5.63299933e-14
1.2578125,3.719998735e-14,1.444827188e-13,7.678826612e-14,8.05250228e-14,4.856966174e-14,5.075318127e-14,9.048915846e-14,2.029992955e-14,4.165222764e-14,5.782012767e-14,1.272076255e-14,2.154846302e-14,1.430722074e-14,3.094765581e-14,1.268545897e-13,7.708326542e-14,1.071177392e-13,8.15021551e-14,1.959707443e-14,6.566801308e-14,1.798051617e-14,4.659485501e-14,3.044222957e-14,1.703763433e-14,6.081282135e-14,3.573833899e-14,2.259641534e-13,5.408871301e-14,5.35632735e-14,1.361760803e-14,6.555262907e-14,5.821849737e-14
1.265625,3.305459109e-14,1.440288061e-13,7.448624511e-14,7.762387124e-14,4.874756557e-14,5.552559764e-14,9.367828082e-14,2.03893213e-14,4.294055753e-14,6.012309192e-14,1.288075566e-14,2.028606701e-14,1.258533207e-14,3.107944976e-14,1.235543887e-13,7.706629805e-14,1.121139451e-13,8.139871341e-14,1.874480445e-14,6.430573947e-14,1.820332684e-14,4.590396264e-14,3.152476851e-14,1.670218594e-14,5.576972595e-14,3.577662552e-14,2.089801519e-13,5.415121536e-14,5.365969108e-14,1.230377563e-14,6.566616241e-14,6.048183624e-14
1.2734375,2.940121491e-14,1.435045409e-13,7.173907301e-14,7.521750195e-14,4.9314616e-14,6.055893933e-14,9.671825871e-14,2.060563132e-14,4.454859401e-14,6.230633123e-14,1.339493708e-14,1.923203906e-14,1.110849804e-14,3.171934617e-14,1.20945805e-13,7.80297246e-14,1.189804233e-13,8.197013158e-14,1.797255764e-14,6.417062605e-14,1.870820988e-14,4.490395034e-14,3.279058313e-14,1.651056157e-14,5.080132364e-14,3.636767287e-14,1.944350801e-13,5.463675515e-14,5.375765638e-14,1.115217519e-14,6.620403146e-14,6.305414317e-14
1.28125,2.622465602e-14,1.430266548e-13,6.874115754e-14,7.326902806e-14,5.030557248e-14,6.594108532e-14,9.969824455e-14,2.097874727e-14,4.658038921e-14,6.444771183e-14,1.422945307e-14,1.830960612e-14,9.861822773e-15,3.281167084e-14,1.191359589e-13,7.999727631e-14,1.279684894e-13,8.35396437e-14,1.729803298e-14,6.535102284e-14,1.947430989e-14,4.367606218e-14,3.41052602e-14,1.646144303e-14,4.621069741e-14,3.755990796e-14,1.824126687e-13,5.525731333e-14,5.384836204e-14,1.013685218e-14,6.716464839e-14,6.611916424e-14
1.2890625,2.34630742e-14,1.424894175e-13,6.543033308e-14,7.164210219e-14,5.153974619e-14,7.180197321e-14,1.024213766e-13,2.143663163e-14,4.906783931e-14,6.646499682e-14,1.526029276e-14,1.749704907e-14,8.829176674e-15,3.434814304e-14,1.181981542e-13,8.30156376e-14,1.390296146e-13,8.588796898e-14,1.666608076e-14,6.773588987e-14,2.034018532e-14,4.225744137e-14,3.557143967e-14,1.654507653e-14,4.171956232e-14,3.932746965e-14,1.725591244e-13,5.579930049e-14,5.393124871e-14,9.200571333e-15,6.83084644e-14,6.974203402e-14
1.296875,2.109416496e-14,1.417105734e-13,6.196304979e-14,7.013478767e-14,5.294441746e-14,7.789492527e-14,1.048328159e-13,2.192587169e-14,5.197642809e-14,6.826715004e-14,1.649285392e-14,1.691444016e-14,7.981768734e-15,3.625076322e-14,1.181075903e-13,8.708097549e-14,1.522026139e-13,8.894560803e-14,1.6124752e-14,7.12405609e-14,2.137443516e-14,4.062688659e-14,3.728621545e-14,1.669151733e-14,3.724104185e-14,4.175782273e-14,1.653893138e-13,5.63119134e-14,5.406363836e-14,8.388024099e-15,6.955915389e-14,7.388276318e-14
1.3046875,1.923076265e-14,1.408208841e-13,5.844989525e-14,6.8946119e-14,5.464543323e-14,8.386007641e-14,1.069978424e-13,2.245829642e-14,5.52965108e-14,6.988145076e-14,1.791269108e-14,1.642860429e-14,7.337544364e-15,3.837881043e-14,1.187354058e-13,9.209010576e-14,1.67642377e-13,9.299690128e-14,1.575186796e-14,7.605151944e-14,2.267453516e-14,3.885581445e-14,3.911038489e-14,1.687887093e-14,3.320227267e-14,4.481367152e-14,1.605622758e-13,5.670279388e-14,5.422837807e-14,7.730448651e-15,7.101966469e-14,7.851182269e-14
1.3125,1.784749058e-14,1.39902723e-13,5.489254086e-14,6.829089819e-14,5.673470325e-14,8.985872333e-14,1.08786599e-13,2.30418983e-14,5.899684881e-14,7.134697661e-14,1.945190892e-14,1.597730041e-14,6.865683429e-15,4.06971407e-14,1.200851689e-13,9.811355802e-14,1.852134996e-13,9.792976833e-14,1.557659935e-14,8.223029946e-14,2.423081521e-14,3.699887045e-14,4.103245974e-14,1.713839918e-14,2.973307936e-14,4.859698292e-14,1.574481836e-13,5.698907344e-14,5.447903122e-14,7.181728646e-15,7.26945998e-14,8.367178319e-14
1.3203125,1.671805448e-14,1.388147286e-13,5.108222384e-14,6.786979739e-14,5.913225062e-14,9.573684114e-14,1.102864381e-13,2.360759131e-14,6.297967944e-14,7.258964956e-14,2.102775354e-14,1.560204719e-14,6.48912074e-15,4.30843421e-14,1.221079984e-13,1.050582452e-13,2.04557591e-13,1.03438409e-13,1.552834035e-14,8.959669805e-14,2.598053502e-14,3.506167044e-14,4.304505178e-14,1.755853168e-14,2.667779944e-14,5.308830231e-14,1.561716076e-13,5.700271145e-14,5.484231436e-14,6.67475207e-15,7.449532709e-14,8.934753007e-14
1.328125,1.584503479e-14,1.374420813e-13,4.70859861e-14,6.764779696e-14,6.181732584e-14,1.009077491e-13,1.116865281e-13,2.40865104e-14,6.719067936e-14,7.353507037e-14,2.260445785e-14,1.522487167e-14,6.184806555e-15,4.534465828e-14,1.245722607e-13,1.126134123e-13,2.25076041e-13,1.09275753e-13,1.556016325e-14,9.776825603e-14,2.785729537e-14,3.304449805e-14,4.511569288e-14,1.797963371e-14,2.384890153e-14,5.798328706e-14,1.563854559e-13,5.663518193e-14,5.512756562e-14,6.175378646e-15,7.629988969e-14,9.540954331e-14
1.3359375,1.529571622e-14,1.357557837e-13,4.324098558e-14,6.791006916e-14,6.493742568e-14,1.055450387e-13,1.128107704e-13,2.450618769e-14,7.163537047e-14,7.420404802e-14,2.418174467e-14,1.484789839e-14,5.954503796e-15,4.7465628e-14,1.27379702e-13,1.207415483e-13,2.465579103e-13,1.15573488e-13,1.575221362e-14,1.066569364e-13,2.992965345e-14,3.094051286e-14,4.730608407e-14,1.844805078e-14,2.133122192e-14,6.339163007e-14,1.583208655e-13,5.599255059e-14,5.5252447e-14,5.691304895e-15,7.808908725e-14,1.019616877e-13
1.34375,1.501660215e-14,1.339166839e-13,3.973708565e-14,6.844687608e-14,6.848680834e-14,1.098790807e-13,1.137667701e-13,2.488442159e-14,7.629938399e-14,7.459337131e-14,2.572370814e-14,1.45059752e-14,5.803757276e-15,4.946140292e-14,1.303734966e-13,1.293601302e-13,2.690914563e-13,1.22444557e-13,1.61060294e-14,1.163945523e-13,3.223109007e-14,2.881787343e-14,4.941767794e-14,1.915120058e-14,1.922320557e-14,6.935465449e-14,1.620806516e-13,5.485251383e-14,5.530926319e-14,5.244805864e-15,7.987669681e-14,1.090936269e-13
1.3515625,1.500735023e-14,1.320790481e-13,3.636841689e-14,6.907063255e-14,7.237008572e-14,1.135807451e-13,1.149346451e-13,2.524140418e-14,8.110387303e-14,7.471538669e-14,2.726003767e-14,1.41548527e-14,5.727161296e-15,5.125996816e-14,1.334172101e-13,1.382894434e-13,2.923120231e-13,1.295752225e-13,1.658548192e-14,1.267672946e-13,3.469936255e-14,2.672946957e-14,5.125498496e-14,1.982901454e-14,1.747816688e-14,7.569116481e-14,1.669940284e-13,5.326597623e-14,5.523375053e-14,4.859879607e-15,8.158198699e-14,1.166486341e-13
1.359375,1.520189961e-14,1.302888053e-13,3.309676088e-14,6.99496503e-14,7.66403198e-14,1.167952883e-13,1.163925732e-13,2.563637122e-14,8.594893259e-14,7.468634947e-14,2.881380688e-14,1.378188001e-14,5.682759732e-15,5.286996988e-14,1.36612339e-13,1.475166591e-13,3.159156861e-13,1.36898823e-13,1.721620714e-14,1.376117098e-13,3.735318177e-14,2.468221097e-14,5.293520062e-14,2.042089155e-14,1.601378265e-14,8.244500692e-14,1.731778406e-13,5.167727536e-14,5.504985668e-14,4.513987717e-15,8.319862961e-14,1.245411196e-13
1.3671875,1.55258069e-14,1.288170255e-13,3.04212903e-14,7.107570156e-14,8.134935752e-14,1.197932897e-13,1.182934351e-13,2.609335389e-14,9.077692518e-14,7.461208366e-14,3.025371501e-14,1.341965467e-14,5.649257482e-15,5.42408735e-14,1.397576866e-13,1.566959823e-13,3.394291785e-13,1.444035734e-13,1.800712584e-14,1.489645857e-13,4.018571922e-14,2.276145135e-14,5.435026579e-14,2.110756153e-14,1.47308932e-14,8.94016506e-14,1.801319705e-13,4.991994947e-14,5.498998491e-14,4.192195938e-15,8.48572326e-14,1.326100104e-13
1.375,1.591550174e-14,1.278229304e-13,2.823560965e-14,7.249840345e-14,8.641026187e-14,1.221450838e-13,1.206161013e-13,2.653464569e-14,9.537903162e-14,7.448831458e-14,3.141816491e-14,1.304454317e-14,5.632371223e-15,5.52454881e-14,1.424704699e-13,1.652375024e-13,3.618168944e-13,1.517847487e-13,1.891371846e-14,1.604928895e-13,4.311429804e-14,2.101211453e-14,5.537436495e-14,2.185063124e-14,1.371719253e-14,9.631106348e-14,1.866575534e-13,4.765195381e-14,5.497825024e-14,3.906678993e-15,8.657013741e-14,1.406322684e-13
1.3828125,1.634163363e-14,1.271499559e-13,2.623945241e-14,7.433532929e-14,9.17272031e-14,1.233951835e-13,1.231747112e-13,2.678587768e-14,9.954185244e-14,7.427038611e-14,3.237975282e-14,1.269347541e-14,5.62986626e-15,5.596020578e-14,1.448001915e-13,1.73062457e-13,3.828445651e-13,1.590941492e-13,1.995068753e-14,1.71688195e-13,4.61627696e-14,1.942654083e-14,5.615114371e-14,2.263421852e-14,1.302045938e-14,1.03256355e-13,1.928812909e-13,4.517678804e-14,5.501512023e-14,3.6235084e-15,8.831376142e-14,1.485474904e-13
1.390625,1.684062892e-14,1.267877263e-13,2.459289367e-14,7.65160559e-14,9.730840347e-14,1.23645306e-13,1.26037619e-13,2.683487526e-14,1.033536588e-13,7.400219132e-14,3.326085742e-14,1.243783762e-14,5.651169982e-15,5.637868044e-14,1.467366621e-13,1.801036136e-13,4.024471825e-13,1.66310437e-13,2.118710552e-14,1.825526838e-13,4.9472748e-14,1.802647837e-14,5.665650608e-14,2.347556379e-14,1.256101303e-14,1.101646582e-13,1.989882432e-13,4.268764084e-14,5.538033057e-14,3.354165527e-15,9.024620623e-14,1.561983876e-13
1.3984375,1.743578588e-14,1.266353908e-13,2.341378202e-14,7.905257774e-14,1.030486944e-13,1.232222355e-13,1.291004138e-13,2.684035458e-14,1.068585645e-13,7.3727381e-14,3.397006762e-14,1.218380096e-14,5.713765598e-15,5.631641954e-14,1.480100757e-13,1.859421499e-13,4.194657117e-13,1.727742416e-13,2.252187988e-14,1.931149551e-13,5.295448104e-14,1.678932628e-14,5.670871814e-14,2.440582348e-14,1.226321011e-14,1.168155393e-13,2.043925706e-13,4.004743935e-14,5.5903024e-14,3.126285201e-15,9.234925728e-14,1.634233329e-13
1.40625,1.814689638e-14,1.263671669e-13,2.273909922e-14,8.197098155e-14,1.087559303e-13,1.220843941e-13,1.325364519e-13,2.677659469e-14,1.099263256e-13,7.344934897e-14,3.450895712e-14,1.187316623e-14,5.809036008e-15,5.584291909e-14,1.486708649e-13,1.907274617e-13,4.337491344e-13,1.784921961e-13,2.38897967e-14,2.030077391e-13,5.638820129e-14,1.570057041e-14,5.619872646e-14,2.547390416e-14,1.200549875e-14,1.231335251e-13,2.090386646e-13,3.733807988e-14,5.641501718e-14,2.915026365e-15,9.44775872e-14,1.702518371e-13
1.4140625,1.89117232e-14,1.259857429e-13,2.242758222e-14,8.509955868e-14,1.144291071e-13,1.199573539e-13,1.36774545e-13,2.654394479e-14,1.12467279e-13,7.328708057e-14,3.495894594e-14,1.15645034e-14,5.895488956e-15,5.509679941e-14,1.48753406e-13,1.946346276e-13,4.458057923e-13,1.836758707e-13,2.532501839e-14,2.120010715e-13,5.984461232e-14,1.476319532e-14,5.523296006e-14,2.665045257e-14,1.176358179e-14,1.290113409e-13,2.131560981e-13,3.467927501e-14,5.701836443e-14,2.727107611e-15,9.655178172e-14,1.765035296e-13
1.421875,1.973861936e-14,1.257140156e-13,2.242372225e-14,8.814786793e-14,1.201259871e-13,1.170185183e-13,1.417381208e-13,2.624232737e-14,1.143697972e-13,7.331626728e-14,3.528894151e-14,1.129283449e-14,5.952748501e-15,5.410085243e-14,1.481063417e-13,1.972881932e-13,4.548770254e-13,1.876655078e-13,2.677967967e-14,2.199398229e-13,6.339945965e-14,1.395298354e-14,5.393801254e-14,2.779605577e-14,1.160437428e-14,1.342757679e-13,2.167920747e-13,3.212593297e-14,5.755915272e-14,2.568334779e-15,9.837682899e-14,1.819316504e-13
1.4296875,2.060646402e-14,1.2579497e-13,2.246452599e-14,9.111469685e-14,1.258977014e-13,1.137179417e-13,1.473566046e-13,2.594412302e-14,1.155415896e-13,7.350535019e-14,3.559176957e-14,1.110647337e-14,6.018973006e-15,5.304523178e-14,1.469802486e-13,1.989877458e-13,4.611693115e-13,1.908538026e-13,2.836887914e-14,2.269066164e-13,6.706776546e-14,1.328502241e-14,5.239856966e-14,2.876694218e-14,1.158263972e-14,1.390157926e-13,2.201587788e-13,2.963098166e-14,5.805198554e-14,2.450479614e-15,1.000954446e-13,1.866139761e-13
1.4375,2.137445415e-14,1.264840758e-13,2.236302224e-14,9.436286413e-14,1.316731115e-13,1.100151873e-13,1.534776432e-13,2.556751332e-14,1.159636333e-13,7.394404698e-14,3.600119565e-14,1.101992481e-14,6.117776112e-15,5.204746703e-14,1.456606192e-13,2.001587423e-13,4.655300153e-13,1.93903336e-13,3.012826539e-14,2.331238392e-13,7.078745268e-14,1.276128227e-14,5.065838536e-14,2.976574987e-14,1.169823958e-14,1.43295963e-13,2.231550904e-13,2.719834686e-14,5.858784164e-14,2.387900712e-15,1.019599569e-13,1.903919773e-13
1.4453125,2.201594795e-14,1.275636612e-13,2.250844148e-14,9.761011214e-14,1.369815836e-13,1.057856583e-13,1.596547837e-13,2.516397769e-14,1.156642139e-13,7.475929852e-14,3.64888022e-14,1.098191641e-14,6.252530137e-15,5.08906973e-14,1.439972132e-13,2.00288164e-13,4.670860436e-13,1.959358333e-13,3.183602366e-14,2.381348599e-13,7.419586349e-14,1.234531486e-14,4.859083589e-14,3.078972903e-14,1.182816128e-14,1.468274532e-13,2.254103554e-13,2.490904141e-14,5.899490103e-14,2.352425204e-15,1.03625124e-13,1.928594952e-13
1.453125,2.250171397e-14,1.287699406e-13,2.281884622e-14,1.003401902e-13,1.415315275e-13,1.015429812e-13,1.657781097e-13,2.489985448e-14,1.147031663e-13,7.598155305e-14,3.699874238e-14,1.099600525e-14,6.444051873e-15,4.952775263e-14,1.419136072e-13,1.990723339e-13,4.65328794e-13,1.967457949e-13,3.34737822e-14,2.418003766e-13,7.723401477e-14,1.204624348e-14,4.629021023e-14,3.150414918e-14,1.19717111e-14,1.494995149e-13,2.268719274e-13,2.262219919e-14,5.93874102e-14,2.349774315e-15,1.049249434e-13,1.94081491e-13
1.4609375,2.290106788e-14,1.301653651e-13,2.308547789e-14,1.030987337e-13,1.454512952e-13,9.726392383e-14,1.718945002e-13,2.470740389e-14,1.130123879e-13,7.757419138e-14,3.755305167e-14,1.114919552e-14,6.668593014e-15,4.814495005e-14,1.394534768e-13,1.966634103e-13,4.607934407e-13,1.968931693e-13,3.509512208e-14,2.445849847e-13,8.000020061e-14,1.187855799e-14,4.384345839e-14,3.199531914e-14,1.216144882e-14,1.514182653e-13,2.273078625e-13,2.04504087e-14,5.991908401e-14,2.37915846e-15,1.061626132e-13,1.942243178e-13
1.46875,2.328783707e-14,1.31253218e-13,2.333155361e-14,1.058935778e-13,1.485446692e-13,9.24592519e-14,1.780367832e-13,2.447632764e-14,1.105938249e-13,7.955858265e-14,3.821116176e-14,1.145951005e-14,6.913537907e-15,4.666878123e-14,1.364802397e-13,1.929391994e-13,4.534009475e-13,1.961814118e-13,3.662024243e-14,2.461008334e-13,8.224107968e-14,1.183152473e-14,4.137005072e-14,3.241802983e-14,1.234832936e-14,1.525482812e-13,2.265999656e-13,1.857948041e-14,6.038109957e-14,2.431122538e-15,1.072289606e-13,1.931504146e-13
1.4765625,2.359360817e-14,1.314911595e-13,2.358069875e-14,1.080264478e-13,1.507247859e-13,8.76901237e-14,1.841906795e-13,2.432524999e-14,1.076861689e-13,8.202645771e-14,3.893637152e-14,1.185245533e-14,7.237089396e-15,4.500394747e-14,1.330181714e-13,1.878542686e-13,4.43062617e-13,1.943833267e-13,3.806049595e-14,2.460743144e-13,8.399790689e-14,1.190066188e-14,3.906138656e-14,3.276287902e-14,1.257114178e-14,1.528612775e-13,2.250439397e-13,1.684558861e-14,6.06465519e-14,2.546716603e-15,1.078915704e-13,1.909294859e-13
1.484375,2.392550749e-14,1.31035474e-13,2.392814356e-14,1.100192492e-13,1.523478487e-13,8.323273275e-14,1.900619153e-13,2.425552869e-14,1.04356479e-13,8.492682123e-14,3.967693656e-14,1.235174169e-14,7.670846087e-15,4.332233542e-14,1.292537139e-13,1.816050777e-13,4.300304987e-13,1.91569701e-13,3.95037046e-14,2.450954193e-13,8.545266037e-14,1.205946254e-14,3.673435932e-14,3.305316379e-14,1.277334667e-14,1.524669817e-13,2.226631147e-13,1.530895789e-14,6.076674662e-14,2.713743208e-15,1.083904668e-13,1.877688213e-13
1.4921875,2.426887862e-14,1.300870526e-13,2.40785509e-14,1.1209411e-13,1.53292123e-13,7.875963319e-14,1.955193123e-13,2.419948568e-14,1.005786291e-13,8.821865649e-14,4.051507219e-14,1.304369862e-14,8.212163185e-15,4.180208521e-14,1.253204926e-13,1.745543301e-13,4.146593706e-13,1.881136003e-13,4.102439111e-14,2.432429274e-13,8.644678054e-14,1.228593499e-14,3.45557712e-14,3.336040055e-14,1.299549536e-14,1.515614009e-13,2.197013229e-13,1.402449401e-14,6.082476832e-14,2.915054319e-15,1.089159268e-13,1.836641385e-13
1.5,2.442368965e-14,1.287866113e-13,2.410335503e-14,1.13836235e-13,1.533984537e-13,7.468220086e-14,2.007121993e-13,2.427487224e-14,9.65496105e-14,9.194574946e-14,4.147089983e-14,1.391798962e-14,8.864053283e-15,4.047959155e-14,1.213877509e-13,1.67114267e-13,3.975597287e-13,1.844031658e-13,4.266591886e-14,2.403496843e-13,8.694948116e-14,1.26135653e-14,3.266217066e-14,3.360577454e-14,1.324563147e-14,1.501454525e-13,2.162551452e-13,1.283833579e-14,6.08778538e-14,3.178927921e-15,1.093334787e-13,1.786864274e-13
1.5078125,2.445216554e-14,1.272111048e-13,2.426870964e-14,1.156808625e-13,1.52970015e-13,7.120421723e-14,2.056095195e-13,2.45424763e-14,9.240590125e-14,9.606074738e-14,4.251681529e-14,1.493730405e-14,9.628666253e-15,3.927268335e-14,1.174109774e-13,1.592315199e-13,3.790147554e-13,1.803195217e-13,4.443616106e-14,2.366595337e-13,8.70929065e-14,1.30643053e-14,3.087443431e-14,3.356457326e-14,1.339559792e-14,1.480099562e-13,2.119627823e-13,1.177339654e-14,6.079705674e-14,3.486722258e-15,1.094598442e-13,1.729340344e-13
1.515625,2.440877715e-14,1.255696934e-13,2.42246898e-14,1.177330104e-13,1.520113263e-13,6.809512782e-14,2.098913434e-13,2.503533272e-14,8.81346497e-14,1.005566509e-13,4.369874588e-14,1.611503574e-14,1.052455176e-14,3.818314124e-14,1.132841332e-13,1.508887429e-13,3.590744498e-13,1.757811992e-13,4.634738611e-14,2.322331324e-13,8.688973691e-14,1.361583895e-14,2.93920844e-14,3.340230862e-14,1.357738553e-14,1.45142224e-13,2.071615748e-13,1.077264187e-14,6.048701405e-14,3.851140973e-15,1.09305629e-13,1.664503648e-13
1.5234375,2.421959741e-14,1.24197981e-13,2.402281713e-14,1.198604279e-13,1.505083132e-13,6.529910017e-14,2.133618012e-13,2.575459127e-14,8.379466076e-14,1.053216372e-13,4.494673674e-14,1.747053484e-14,1.154733985e-14,3.733678019e-14,1.09252753e-13,1.426512586e-13,3.383370229e-13,1.712011353e-13,4.838975118e-14,2.270885516e-13,8.631704946e-14,1.425040864e-14,2.820198847e-14,3.324255189e-14,1.371143412e-14,1.417473757e-13,2.021203094e-13,9.72273848e-15,6.009226269e-14,4.301239285e-15,1.091151806e-13,1.593842111e-13
1.53125,2.386356727e-14,1.23003954e-13,2.389921406e-14,1.224848514e-13,1.487410185e-13,6.279286007e-14,2.161307629e-13,2.65607246e-14,7.948884339e-14,1.101453413e-13,4.620198395e-14,1.902134393e-14,1.262771918e-14,3.678328266e-14,1.056683094e-13,1.349872171e-13,3.177831012e-13,1.67108661e-13,5.05182148e-14,2.216878978e-13,8.541707886e-14,1.492796236e-14,2.730718893e-14,3.303095455e-14,1.370686607e-14,1.380150404e-13,1.965697064e-13,8.701070262e-15,5.973497361e-14,4.79648401e-15,1.090575486e-13,1.517524641e-13
1.5390625,2.330834102e-14,1.218381301e-13,2.371566822e-14,1.256189385e-13,1.466949745e-13,6.067075206e-14,2.178572824e-13,2.745425275e-14,7.530159102e-14,1.149994122e-13,4.758205717e-14,2.079829344e-14,1.373035575e-14,3.658470157e-14,1.027214831e-13,1.280248774e-13,2.979377315e-13,1.635635122e-13,5.272252053e-14,2.163817599e-13,8.416474858e-14,1.56192428e-14,2.682818357e-14,3.27372405e-14,1.376022835e-14,1.340537766e-13,1.904387764e-13,7.754822459e-15,5.937916672e-14,5.337682597e-15,1.091933986e-13,1.437347402e-13
1.546875,2.269620485e-14,1.205054644e-13,2.364394971e-14,1.290386217e-13,1.442728319e-13,5.894081639e-14,2.180219823e-13,2.851746798e-14,7.136721572e-14,1.197564301e-13,4.913146892e-14,2.277297018e-14,1.490202969e-14,3.675664222e-14,1.003651267e-13,1.217251806e-13,2.786377126e-13,1.604801796e-13,5.506510092e-14,2.110581208e-13,8.253761643e-14,1.634755262e-14,2.656409119e-14,3.219792595e-14,1.38253521e-14,1.299337443e-13,1.838926949e-13,6.903445147e-15,5.895452469e-14,5.952868177e-15,1.095403159e-13,1.357381419e-13
1.5546875,2.221409878e-14,1.189259713e-13,2.388314718e-14,1.330862762e-13,1.416733285e-13,5.764111595e-14,2.169161935e-13,2.973407771e-14,6.784047902e-14,1.2424557e-13,5.077068005e-14,2.486329084e-14,1.618322978e-14,3.717289834e-14,9.845417329e-14,1.158817963e-13,2.596806107e-13,1.579377523e-13,5.758014765e-14,2.055781371e-13,8.073126077e-14,1.709146947e-14,2.650053861e-14,3.162938933e-14,1.379219222e-14,1.255571135e-13,1.771534301e-13,6.243177384e-15,5.850638763e-14,6.625656727e-15,1.100743318e-13,1.277846264e-13
1.5625,2.190242511e-14,1.172631958e-13,2.426162713e-14,1.379781667e-13,1.389537867e-13,5.680920664e-14,2.146921421e-13,3.109488283e-14,6.476603771e-14,1.28471164e-13,5.241906652e-14,2.707637913e-14,1.760352308e-14,3.780979203e-14,9.683758097e-14,1.103598346e-13,2.411260997e-13,1.557759997e-13,6.028154131e-14,1.997519079e-13,7.872331851e-14,1.786410414e-14,2.6647922e-14,3.104611408e-14,1.36717948e-14,1.20809366e-13,1.699760728e-13,5.772168812e-15,5.809208013e-14,7.358153159e-15,1.108458149e-13,1.199080356e-13
1.5703125,2.177657166e-14,1.154178766e-13,2.471247978e-14,1.432058846e-13,1.359165508e-13,5.615981916e-14,2.109348923e-13,3.25655621e-14,6.207895215e-14,1.323043904e-13,5.395505869e-14,2.945347494e-14,1.918340142e-14,3.87079396e-14,9.533228027e-14,1.051924629e-13,2.231789458e-13,1.540945602e-13,6.328443387e-14,1.935517175e-13,7.631514201e-14,1.87261144e-14,2.695380068e-14,3.02085354e-14,1.360368309e-14,1.159591201e-13,1.625784889e-13,5.460911478e-15,5.765265955e-14,8.149356401e-15,1.118808307e-13,1.1229037e-13
1.578125,2.172501209e-14,1.136690465e-13,2.5397644e-14,1.487410399e-13,1.325431878e-13,5.571774483e-14,2.059856287e-13,3.413797029e-14,5.978375855e-14,1.356223758e-13,5.526382847e-14,3.197482195e-14,2.089481205e-14,3.985862354e-14,9.399073105e-14,1.004464621e-13,2.06045124e-13,1.531726247e-13,6.661332238e-14,1.872065461e-13,7.363808233e-14,1.961746147e-14,2.741277984e-14,2.938459659e-14,1.349518899e-14,1.111710137e-13,1.556344056e-13,5.347043795e-15,5.725821319e-14,8.987884809e-15,1.132621405e-13,1.048491836e-13
1.5859375,2.179945493e-14,1.122547129e-13,2.642998908e-14,1.550452752e-13,1.289674163e-13,5.564155465e-14,2.004878117e-13,3.576062808e-14,5.800390762e-14,1.384461953e-13,5.632242431e-14,3.467474232e-14,2.274198337e-14,4.128544795e-14,9.286601875e-14,9.604615935e-14,1.89768602e-13,1.527908771e-13,7.022396184e-14,1.806698023e-13,7.081623912e-14,2.054750195e-14,2.792074778e-14,2.853237624e-14,1.319439057e-14,1.062820602e-13,1.486949737e-13,5.36561377e-15,5.698336065e-14,9.90461609e-15,1.15060669e-13,9.767728564e-14
1.59375,2.2049685e-14,1.108801058e-13,2.767977216e-14,1.618713552e-13,1.252620391e-13,5.555543189e-14,1.942189485e-13,3.721373591e-14,5.669414974e-14,1.406381435e-13,5.706038558e-14,3.753769128e-14,2.472742631e-14,4.292697696e-14,9.167173245e-14,9.174718675e-14,1.743690481e-13,1.52786696e-13,7.424748844e-14,1.739681784e-13,6.788927992e-14,2.159615092e-14,2.855257963e-14,2.753250733e-14,1.30357499e-14,1.013830086e-13,1.416603741e-13,5.500294193e-15,5.669534591e-14,1.091244389e-14,1.17261663e-13,9.097032874e-14
1.6015625,2.232655455e-14,1.095713384e-13,2.89744915e-14,1.690393988e-13,1.215844219e-13,5.520118147e-14,1.871092905e-13,3.842590695e-14,5.565918633e-14,1.420790926e-13,5.731438055e-14,4.036286099e-14,2.673173675e-14,4.457954942e-14,9.025905195e-14,8.749155387e-14,1.599517716e-13,1.532240407e-13,7.864879865e-14,1.672751671e-13,6.496279883e-14,2.267057865e-14,2.934836201e-14,2.649869567e-14,1.303031387e-14,9.662024164e-14,1.351439524e-13,5.79419185e-15,5.648095971e-14,1.197753584e-14,1.200462294e-13,8.461381863e-14
1.609375,2.269235972e-14,1.083599215e-13,3.035791215e-14,1.767878992e-13,1.181116167e-13,5.46636641e-14,1.795409314e-13,3.94567937e-14,5.489459192e-14,1.428641947e-13,5.69918038e-14,4.301263329e-14,2.871013825e-14,4.609592021e-14,8.875242937e-14,8.348051394e-14,1.467460688e-13,1.54210759e-13,8.316864642e-14,1.606822759e-13,6.208442781e-14,2.372412982e-14,3.015107524e-14,2.531919627e-14,1.291921253e-14,9.194787915e-14,1.28768937e-13,6.187580778e-15,5.653969636e-14,1.306437577e-14,1.234486533e-13,7.853491212e-14
1.6171875,2.306159828e-14,1.072950198e-13,3.169827539e-14,1.850083041e-13,1.14783088e-13,5.400760792e-14,1.712936499e-13,4.029073713e-14,5.443900229e-14,1.430109363e-13,5.615719668e-14,4.554546586e-14,3.076485589e-14,4.753122497e-14,8.723203715e-14,7.979951175e-14,1.348959162e-13,1.558515579e-13,8.779957087e-14,1.543587351e-13,5.935878615e-14,2.479891989e-14,3.093009633e-14,2.427992073e-14,1.267277123e-14,8.743587282e-14,1.223433029e-13,6.65277558e-15,5.680485941e-14,1.417739545e-14,1.273055645e-13,7.281151197e-14
1.625,2.356634725e-14,1.064819556e-13,3.281946176e-14,1.933931398e-13,1.115252274e-13,5.319362612e-14,1.62330257e-13,4.098530881e-14,5.421296401e-14,1.423729159e-13,5.503170238e-14,4.803647348e-14,3.285416039e-14,4.901371099e-14,8.58687281e-14,7.647208214e-14,1.243403011e-13,1.579666813e-13,9.258961502e-14,1.482230735e-13,5.685745231e-14,2.586911249e-14,3.168585477e-14,2.336875746e-14,1.233640628e-14,8.320713923e-14,1.164261232e-13,7.176844911e-15,5.732013047e-14,1.533138257e-14,1.316418642e-13,6.745739632e-14
1.6328125,2.452416341e-14,1.056857896e-13,3.397930474e-14,2.017353387e-13,1.084414308e-13,5.212132912e-14,1.53230386e-13,4.160535846e-14,5.413632043e-14,1.409209214e-13,5.380619282e-14,5.039741579e-14,3.484146594e-14,5.046899141e-14,8.479362037e-14,7.351414389e-14,1.150252297e-13,1.603811442e-13,9.734520097e-14,1.422343742e-13,5.455032088e-14,2.693634221e-14,3.231319804e-14,2.218544524e-14,1.206579864e-14,7.919891649e-14,1.110335123e-13,7.811213839e-15,5.816849035e-14,1.643412653e-14,1.363121785e-13,6.236551145e-14
1.640625,2.568175236e-14,1.048627994e-13,3.512112889e-14,2.101244679e-13,1.055060482e-13,5.094476569e-14,1.442694521e-13,4.21462795e-14,5.417752902e-14,1.38783826e-13,5.246720999e-14,5.251184482e-14,3.675477786e-14,5.171689282e-14,8.372572405e-14,7.06330781e-14,1.066250415e-13,1.630543695e-13,1.020073353e-13,1.364353495e-13,5.240766253e-14,2.800802702e-14,3.275630436e-14,2.101817216e-14,1.177178674e-14,7.524287394e-14,1.059343348e-13,8.561074751e-15,5.919498947e-14,1.743573846e-14,1.411097154e-13,5.743365689e-14
1.6484375,2.700440721e-14,1.040653915e-13,3.59126959e-14,2.187536844e-13,1.027199068e-13,4.968437713e-14,1.354240362e-13,4.262967457e-14,5.438118977e-14,1.360184752e-13,5.099443493e-14,5.447895799e-14,3.867915672e-14,5.282318446e-14,8.252097257e-14,6.76583611e-14,9.888397924e-14,1.659661961e-13,1.066988146e-13,1.305355744e-13,5.044820469e-14,2.912081831e-14,3.310844419e-14,1.985340753e-14,1.140338517e-14,7.136160967e-14,1.012445365e-13,9.332429779e-15,6.047637442e-14,1.844436001e-14,1.461696897e-13,5.276077484e-14
1.65625,2.86187053e-14,1.031872217e-13,3.666259745e-14,2.274511711e-13,1.00283781e-13,4.822198509e-14,1.265940831e-13,4.311870929e-14,5.467941545e-14,1.326400329e-13,4.948557077e-14,5.635613442e-14,4.058338088e-14,5.393199664e-14,8.148466443e-14,6.489118934e-14,9.208552563e-14,1.691056612e-13,1.113451404e-13,1.245698809e-13,4.87978501e-14,3.032807344e-14,3.342982247e-14,1.850893647e-14,1.107510911e-14,6.770281294e-14,9.709069611e-14,1.020733814e-14,6.221304333e-14,1.944269022e-14,1.514833846e-13,4.842347268e-14
1.6640625,3.05170685e-14,1.021383786e-13,3.756204567e-14,2.358818333e-13,9.802612543e-14,4.672800908e-14,1.179537862e-13,4.357895104e-14,5.496373755e-14,1.286964033e-13,4.799206197e-14,5.806219175e-14,4.242517007e-14,5.499366895e-14,8.05996985e-14,6.233161761e-14,8.615704987e-14,1.721801738e-13,1.158246091e-13,1.187963243e-13,4.745391602e-14,3.160487236e-14,3.366076983e-14,1.727788472e-14,1.075323384e-14,6.425989406e-14,9.352636087e-14,1.11998352e-14,6.433436982e-14,2.035873199e-14,1.567402462e-13,4.435569555e-14
1.671875,3.28029485e-14,1.008378914e-13,3.84550544e-14,2.440188003e-13,9.56746853e-14,4.52290245e-14,1.097306573e-13,4.384900635e-14,5.5304298e-14,1.242944002e-13,4.654915861e-14,5.967608058e-14,4.424231414e-14,5.603515697e-14,7.970403711e-14,5.965255618e-14,8.070797195e-14,1.749750331e-13,1.201935146e-13,1.131575719e-13,4.633303159e-14,3.297106419e-14,3.383550979e-14,1.615055724e-14,1.049923015e-14,6.10993583e-14,9.074178335e-14,1.229145771e-14,6.681997913e-14,2.129193312e-14,1.618569028e-13,4.063018213e-14
1.6796875,3.53442811e-14,9.940626649e-14,3.955039758e-14,2.520987998e-13,9.343970216e-14,4.374286364e-14,1.018945941e-13,4.38839221e-14,5.567783885e-14,1.195658265e-13,4.528884182e-14,6.126093599e-14,4.602656876e-14,5.716292463e-14,7.908114076e-14,5.69488757e-14,7.588201479e-14,1.775378082e-13,1.245009514e-13,1.076566618e-13,4.559628385e-14,3.445376319e-14,3.396966832e-14,1.503339441e-14,1.027953901e-14,5.843504367e-14,8.889263599e-14,1.358674553e-14,6.985706217e-14,2.227139207e-14,1.670225492e-13,3.733718041e-14
1.6875,3.817131548e-14,9.783450402e-14,4.100785666e-14,2.596373517e-13,9.136016058e-14,4.215536372e-14,9.47566851e-14,4.36712747e-14,5.599992343e-14,1.144796278e-13,4.43158983e-14,6.266992842e-14,4.768320493e-14,5.820882858e-14,7.871119017e-14,5.433448707e-14,7.173808502e-14,1.79518578e-13,1.286107128e-13,1.023818892e-13,4.528044504e-14,3.600374067e-14,3.393167938e-14,1.392651772e-14,1.007754577e-14,5.624155886e-14,8.775663966e-14,1.507216988e-14,7.35234375e-14,2.322644393e-14,1.721376127e-13,3.438656211e-14
1.6953125,4.138230335e-14,9.591687933e-14,4.280209741e-14,2.657951092e-13,8.925662557e-14,4.035510273e-14,8.82798841e-14,4.324234321e-14,5.624673055e-14,1.091327653e-13,4.363336587e-14,6.367571957e-14,4.915532144e-14,5.891073673e-14,7.820731845e-14,5.170993807e-14,6.790169719e-14,1.806401453e-13,1.3227833e-13,9.743928636e-14,4.51370809e-14,3.757981838e-14,3.371391133e-14,1.292330678e-14,9.95722853e-15,5.434781894e-14,8.705706137e-14,1.672976212e-14,7.758627131e-14,2.413686581e-14,1.768025379e-13,3.167152047e-14
1.703125,4.47536084e-14,9.389594153e-14,4.48260562e-14,2.708734452e-13,8.724541235e-14,3.862834965e-14,8.207649606e-14,4.271130326e-14,5.63254429e-14,1.037770611e-13,4.324036287e-14,6.415622944e-14,5.04478254e-14,5.926371292e-14,7.763535559e-14,4.920755047e-14,6.431332104e-14,1.811765499e-13,1.354979688e-13,9.292150023e-14,4.519620963e-14,3.918340905e-14,3.342655381e-14,1.212750591e-14,9.838861112e-15,5.278512272e-14,8.695606781e-14,1.848968478e-14,8.201916942e-14,2.49470044e-14,1.810111825e-13,2.916996992e-14
1.7109375,4.818249233e-14,9.192581554e-14,4.680247443e-14,2.749421432e-13,8.533677005e-14,3.673604034e-14,7.645084682e-14,4.199318519e-14,5.624059265e-14,9.841495862e-14,4.326945216e-14,6.423081193e-14,5.149266509e-14,5.939195239e-14,7.725077615e-14,4.694984025e-14,6.122636154e-14,1.81100765e-13,1.383366675e-13,8.880193924e-14,4.561779178e-14,4.089707545e-14,3.311465314e-14,1.135114171e-14,9.729695156e-15,5.163804491e-14,8.76280857e-14,2.022601176e-14,8.704481728e-14,2.564048926e-14,1.848429895e-13,2.690956772e-14
1.71875,5.16392895e-14,8.97762814e-14,4.863716709e-14,2.773191076e-13,8.350489719e-14,3.449248209e-14,7.158858077e-14,4.117908189e-14,5.5986669e-14,9.309238682e-14,4.387160635e-14,6.393525411e-14,5.222401811e-14,5.92922511e-14,7.705973217e-14,4.493123165e-14,5.864672611e-14,1.802753675e-13,1.405873084e-13,8.515920928e-14,4.626231512e-14,4.276340439e-14,3.277658566e-14,1.060160892e-14,9.6786947e-15,5.080187973e-14,8.880944561e-14,2.192738281e-14,9.244751926e-14,2.62306469e-14,1.879450654e-13,2.485095058e-14
1.7265625,5.487565712e-14,8.753489506e-14,5.049251736e-14,2.783864891e-13,8.195879379e-14,3.23070498e-14,6.718065959e-14,4.049315419e-14,5.551278619e-14,8.795899095e-14,4.507543324e-14,6.318027017e-14,5.281054047e-14,5.895493269e-14,7.697235844e-14,4.317527691e-14,5.631430932e-14,1.790251789e-13,1.422545501e-13,8.185911689e-14,4.700607354e-14,4.476340779e-14,3.241019476e-14,9.978392269e-15,9.713792855e-15,5.01877936e-14,9.044538708e-14,2.362888739e-14,9.815075611e-14,2.671794179e-14,1.903310492e-13,2.29405539e-14
1.734375,5.782755891e-14,8.52251468e-14,5.236269591e-14,2.786788723e-13,8.074125561e-14,3.033652881e-14,6.312151665e-14,3.98215118e-14,5.491104067e-14,8.304327055e-14,4.697930932e-14,6.210192585e-14,5.332418271e-14,5.851445713e-14,7.708915736e-14,4.180701811e-14,5.426304243e-14,1.774053775e-13,1.435783913e-13,7.865221954e-14,4.789141349e-14,4.701834056e-14,3.199365497e-14,9.380661151e-15,9.80643075e-15,4.992644061e-14,9.298675018e-14,2.532389076e-14,1.044030103e-13,2.719243616e-14,1.923679489e-13,2.12500337e-14
1.7421875,6.083154911e-14,8.266075102e-14,5.400302482e-14,2.77883863e-13,7.969575255e-14,2.853897309e-14,5.947920329e-14,3.914394024e-14,5.415846352e-14,7.842503984e-14,4.963729005e-14,6.076509333e-14,5.355372217e-14,5.795843047e-14,7.745587403e-14,4.081611457e-14,5.262765205e-14,1.749949544e-13,1.444571618e-13,7.584092712e-14,4.899452864e-14,4.95486258e-14,3.150807227e-14,8.821119138e-15,9.955576744e-15,5.004530056e-14,9.632161314e-14,2.698072771e-14,1.110007342e-13,2.762928808e-14,1.938551221e-13,1.978058638e-14
1.75,6.378727002e-14,7.981831469e-14,5.553573119e-14,2.755609852e-13,7.873071488e-14,2.680139352e-14,5.620967144e-14,3.857684209e-14,5.322520097e-14,7.416392041e-14,5.298758384e-14,5.913688102e-14,5.354163992e-14,5.721354986e-14,7.778928282e-14,3.991585673e-14,5.113509986e-14,1.717372829e-13,1.446842436e-13,7.360222872e-14,5.029774396e-14,5.214949715e-14,3.105530999e-14,8.406680137e-15,1.021158762e-14,5.035399334e-14,9.982255245e-14,2.868987746e-14,1.177019001e-13,2.795034155e-14,1.943384067e-13,1.847016734e-14
1.7578125,6.637983071e-14,7.67868306e-14,5.722287549e-14,2.718584017e-13,7.810345581e-14,2.531871047e-14,5.329694425e-14,3.805815008e-14,5.220727994e-14,7.02448509e-14,5.704831516e-14,5.742623548e-14,5.351684289e-14,5.656114224e-14,7.819951004e-14,3.928721979e-14,4.986507258e-14,1.682416981e-13,1.444825368e-13,7.164998373e-14,5.16352317e-14,5.480649597e-14,3.067324184e-14,8.079080847e-15,1.049703496e-14,5.085655392e-14,1.035281922e-13,3.039064019e-14,1.24572682e-13,2.824851466e-14,1.939991951e-13,1.738678349e-14
1.765625,6.897841778e-14,7.39076762e-14,5.889278997e-14,2.676771908e-13,7.810782861e-14,2.424056098e-14,5.081019042e-14,3.747148788e-14,5.109639646e-14,6.668107977e-14,6.187150899e-14,5.576460948e-14,5.34616015e-14,5.629274569e-14,7.910237861e-14,3.921375756e-14,4.909569779e-14,1.647331178e-13,1.442815587e-13,7.004715294e-14,5.304845759e-14,5.761380755e-14,3.028233006e-14,7.726872178e-15,1.081176382e-14,5.174121814e-14,1.077779108e-13,3.200715711e-14,1.317596929e-13,2.860972839e-14,1.934777309e-13,1.654619439e-14
1.7734375,7.170363162e-14,7.125311625e-14,6.051600121e-14,2.628620944e-13,7.853671389e-14,2.327905806e-14,4.85756505e-14,3.682665606e-14,4.994010595e-14,6.349143712e-14,6.748576921e-14,5.40536823e-14,5.328275349e-14,5.637183246e-14,8.042091714e-14,3.946751135e-14,4.859811342e-14,1.606851538e-13,1.44061371e-13,6.906616733e-14,5.46307286e-14,6.044064321e-14,2.992523078e-14,7.446651556e-15,1.117909961e-14,5.300304102e-14,1.124810605e-13,3.372597955e-14,1.391551937e-13,2.904921703e-14,1.928022772e-13,1.588473428e-14
1.78125,7.405650267e-14,6.862598803e-14,6.218380173e-14,2.565354186e-13,7.932578806e-14,2.251399072e-14,4.644759153e-14,3.624749836e-14,4.877682278e-14,6.06611111e-14,7.36132894e-14,5.220136764e-14,5.301078582e-14,5.661458644e-14,8.17920706e-14,3.993838189e-14,4.826973482e-14,1.562129084e-13,1.435739011e-13,6.852392925e-14,5.607602936e-14,6.310938034e-14,2.957604521e-14,7.277567153e-15,1.152683249e-14,5.444391097e-14,1.17270362e-13,3.552538797e-14,1.462072105e-13,2.947729183e-14,1.915630463e-13,1.539650246e-14
1.7890625,7.605833085e-14,6.626214038e-14,6.367064723e-14,2.49241099e-13,8.078285839e-14,2.196570995e-14,4.456960992e-14,3.570532829e-14,4.753786338e-14,5.815154473e-14,8.006965447e-14,5.022452597e-14,5.277419068e-14,5.692418354e-14,8.312024961e-14,4.064490346e-14,4.81829356e-14,1.52065193e-13,1.429529372e-13,6.812625986e-14,5.712569051e-14,6.561850205e-14,2.922218208e-14,7.187925206e-15,1.185307032e-14,5.604442739e-14,1.222771112e-13,3.744676026e-14,1.528091394e-13,2.982752461e-14,1.899162425e-13,1.507414161e-14
1.796875,7.798207155e-14,6.439887016e-14,6.481204095e-14,2.4162402e-13,8.302998754e-14,2.146152211e-14,4.299375231e-14,3.516921109e-14,4.627119662e-14,5.59745108e-14,8.718595055e-14,4.823968616e-14,5.264307779e-14,5.743068783e-14,8.470472432e-14,4.170161864e-14,4.841203397e-14,1.483448305e-13,1.423886073e-13,6.814245383e-14,5.794800844e-14,6.810012449e-14,2.897294358e-14,7.212617473e-15,1.216610543e-14,5.801933345e-14,1.281515813e-13,3.949581844e-14,1.593267574e-13,3.023493752e-14,1.882346316e-13,1.493484654e-14
1.8046875,7.959352535e-14,6.304509886e-14,6.57185403e-14,2.334583714e-13,8.594355023e-14,2.109294205e-14,4.162571915e-14,3.472931046e-14,4.500942352e-14,5.411983155e-14,9.487286077e-14,4.631572728e-14,5.25489299e-14,5.821316649e-14,8.651228835e-14,4.31241492e-14,4.902751833e-14,1.446510986e-13,1.417373825e-13,6.881083557e-14,5.87644272e-14,7.057920067e-14,2.875458238e-14,7.278567372e-15,1.252420432e-14,6.029681999e-14,1.346657392e-13,4.142264678e-14,1.655964779e-13,3.069946949e-14,1.86493712e-13,1.49582986e-14
