"Time","Fp1","AF3","F7","F3","FC1","FC5","T7","C3","CP1","CP5","P7","P3","Pz","PO3","O1","Oz","O2","PO4","P4","P8","CP6","CP2","C4","T8","FC6","FC2","F4","F8","AF4","Fp2","Fz","Cz"
0.0078125,1.035442532e-12,1.57203699e-12,8.079594626e-13,1.674343349e-12,7.044997803e-13,2.97085381e-13,5.083479036e-13,1.385609547e-13,5.687281925e-13,4.478614561e-13,1.517986694e-12,2.214693902e-12,2.920396712e-12,3.383996482e-12,2.018481525e-12,1.815896752e-12,8.192058895e-13,2.091943475e-12,1.665822837e-12,5.739531997e-13,1.469576305e-13,3.718919174e-13,3.074105158e-13,1.201916986e-12,1.688087031e-12,7.580371864e-13,1.551101148e-12,1.235699938e-12,2.206840807e-12,9.987787987e-13,3.160055631e-12,2.544950336e-13
0.015625,1.047839514e-12,1.583293134e-12,8.205736226e-13,1.68858296e-12,7.143098551e-13,3.032002426e-13,5.190832243e-13,1.411619996e-13,5.75263468e-13,4.50811091e-13,1.529837574e-12,2.24544353e-12,2.966533639e-12,3.432137884e-12,2.03790336e-12,1.83637345e-12,8.288603688e-13,2.118180487e-12,1.690388397e-12,5.758805673e-13,1.50540173e-13,3.803532047e-13,3.15172655e-13,1.226010347e-12,1.711138003e-12,7.670074264e-13,1.564493294e-12,1.253245799e-12,2.227475037e-12,1.014581835e-12,3.187333816e-12,2.586474316e-13
0.0234375,1.060335347e-12,1.594094151e-12,8.331224337e-13,1.702266636e-12,7.239804276e-13,3.09643347e-13,5.296611759e-13,1.438198101e-13,5.816033499e-13,4.535930414e-13,1.541220019e-12,2.275809661e-12,3.011934894e-12,3.480040473e-12,2.05737933e-12,1.856706355e-12,8.385242026e-13,2.143905655e-12,1.714640419e-12,5.775138409e-13,1.541076217e-13,3.889024858e-13,3.229282922e-13,1.249586971e-12,1.733878186e-12,7.757089893e-13,1.577513094e-12,1.270741507e-12,2.247612823e-12,1.030703988e-12,3.214131499e-12,2.627274395e-13
0.03125,1.072655323e-12,1.604274809e-12,8.456321064e-13,1.715162351e-12,7.333965414e-13,3.162925717e-13,5.402285142e-13,1.465009741e-13,5.878618157e-13,4.561437522e-13,1.551770682e-12,2.305703852e-12,3.056984485e-12,3.527127425e-12,2.075877382e-12,1.876409486e-12,8.480028198e-13,2.169134466e-12,1.738729503e-12,5.787519511e-13,1.576516091e-13,3.976356165e-13,3.306799751e-13,1.272664316e-12,1.756199981e-12,7.840688191e-13,1.589931549e-12,1.288024161e-12,2.267078486e-12,1.046942102e-12,3.240986232e-12,2.668266648e-13
0.0390625,1.084702307e-12,1.613730499e-12,8.583093298e-13,1.727285443e-12,7.425906467e-13,3.230493427e-13,5.508815382e-13,1.491272546e-13,5.94022978e-13,4.584932502e-13,1.561545632e-12,2.335178381e-12,3.101421735e-12,3.573200602e-12,2.093214948e-12,1.895247976e-12,8.571058797e-13,2.193732971e-12,1.762461751e-12,5.795974886e-13,1.612693775e-13,4.064790805e-13,3.385114012e-13,1.295729642e-12,1.777785093e-12,7.920689782e-13,1.601594624e-12,1.304950509e-12,2.285715505e-12,1.063059924e-12,3.267415484e-12,2.709786485e-13
0.046875,1.096645462e-12,1.62253898e-12,8.712948245e-13,1.7386785e-12,7.515459223e-13,3.298699545e-13,5.615044254e-13,1.517024579e-13,5.999853921e-13,4.607105246e-13,1.570788753e-12,2.364200971e-12,3.144618297e-12,3.61813598e-12,2.109652907e-12,1.913194993e-12,8.657298294e-13,2.217482475e-12,1.785537341e-12,5.801808657e-13,1.649500612e-13,4.152941436e-13,3.463732727e-13,1.318921932e-12,1.7985908e-12,7.99648084e-13,1.612442515e-12,1.321529251e-12,2.303392953e-12,1.079066619e-12,3.293381436e-12,2.751106899e-13
0.0546875,1.108417683e-12,1.630629351e-12,8.843684831e-13,1.749215449e-12,7.601918079e-13,3.367231069e-13,5.718818534e-13,1.543111542e-13,6.05729885e-13,4.627924347e-13,1.579266358e-12,2.392493834e-12,3.186471829e-12,3.661581676e-12,2.124963769e-12,1.930046516e-12,8.737472446e-13,2.240107115e-12,1.807974819e-12,5.803326329e-13,1.685092867e-13,4.241087728e-13,3.540687339e-13,1.341272708e-12,1.818629826e-12,8.067463493e-13,1.622379152e-12,1.337656062e-12,2.319991428e-12,1.094951665e-12,3.318424162e-12,2.791692188e-13
0.0625,1.119840273e-12,1.637939253e-12,8.972440502e-13,1.758862371e-12,7.685595333e-13,3.436272621e-13,5.819237871e-13,1.569639473e-13,6.113031292e-13,4.64670149e-13,1.586745061e-12,2.419839697e-12,3.227360107e-12,3.703408904e-12,2.138932424e-12,1.945739335e-12,8.811972798e-13,2.261661902e-12,1.829927687e-12,5.800471086e-13,1.719460679e-13,4.329702839e-13,3.616311993e-13,1.362292493e-12,1.837867043e-12,8.134248802e-13,1.631493324e-12,1.353150219e-12,2.335608708e-12,1.110634642e-12,3.342287841e-12,2.831918161e-13
0.0703125,1.13091127e-12,1.644478582e-12,9.099244686e-13,1.767653049e-12,7.766459486e-13,3.505288714e-13,5.917465455e-13,1.59599394e-13,6.167145641e-13,4.66366565e-13,1.593474942e-12,2.446258997e-12,3.267412645e-12,3.743571067e-12,2.151477979e-12,1.960222598e-12,8.88099698e-13,2.282331696e-12,1.851317219e-12,5.794164401e-13,1.754378371e-13,4.418528462e-13,3.692091354e-13,1.382943885e-12,1.856366294e-12,8.196668934e-13,1.63983267e-12,1.368108362e-12,2.35031711e-12,1.126155461e-12,3.36558193e-12,2.87208293e-13
0.078125,1.141758398e-12,1.650254445e-12,9.225973908e-13,1.775658196e-12,7.844326687e-13,3.574132346e-13,6.014981936e-13,1.622302979e-13,6.219732697e-13,4.679952411e-13,1.599774903e-12,2.472002212e-12,3.306375074e-12,3.782133197e-12,2.162668004e-12,1.973367283e-12,8.943043122e-13,2.30197062e-12,1.872060362e-12,5.781645425e-13,1.789291897e-13,4.507805425e-13,3.766822282e-13,1.403579962e-12,1.874064571e-12,8.253899952e-13,1.647262137e-12,1.382763704e-12,2.364062948e-12,1.141664655e-12,3.388111115e-12,2.912204429e-13
0.0859375,1.152468125e-12,1.655492862e-12,9.353121422e-13,1.783213362e-12,7.921092278e-13,3.64433599e-13,6.110510707e-13,1.649251845e-13,6.271077315e-13,4.695191356e-13,1.605606977e-12,2.497293354e-12,3.344138638e-12,3.819496065e-12,2.173014682e-12,1.98549184e-12,8.999864721e-13,2.320553752e-12,1.892336013e-12,5.765054595e-13,1.82277856e-13,4.597686954e-13,3.839302499e-13,1.42339254e-12,1.890795565e-12,8.307704019e-13,1.653933546e-12,1.397026146e-12,2.377008429e-12,1.157217803e-12,3.409532344e-12,2.95263698e-13
0.09375,1.162999772e-12,1.660549293e-12,9.479211922e-13,1.790566257e-12,7.99800607e-13,3.716634336e-13,6.201517343e-13,1.676802268e-13,6.321036447e-13,4.708097146e-13,1.610706738e-12,2.521978465e-12,3.380949148e-12,3.855738959e-12,2.182637906e-12,1.99691717e-12,9.055017567e-13,2.338402665e-12,1.912334175e-12,5.750412862e-13,1.855805252e-13,4.688030385e-13,3.909977904e-13,1.442239648e-12,1.906567088e-12,8.359115388e-13,1.660066377e-12,1.410684374e-12,2.389381804e-12,1.172721667e-12,3.431169938e-12,2.99307874e-13
0.1015625,1.173335028e-12,1.665433036e-12,9.603507181e-13,1.797416468e-12,8.072802585e-13,3.790151039e-13,6.288992765e-13,1.704137391e-13,6.369472767e-13,4.719004837e-13,1.614958236e-12,2.545807052e-12,3.416931136e-12,3.890386295e-12,2.190903198e-12,2.007222976e-12,9.105799552e-13,2.355449991e-12,1.931956895e-12,5.734347912e-13,1.889313742e-13,4.779328068e-13,3.978219706e-13,1.460508157e-12,1.921353338e-12,8.404692395e-13,1.665432959e-12,1.423779699e-12,2.401079578e-12,1.188137285e-12,3.45378921e-12,3.032335031e-13
0.109375,1.183518036e-12,1.669724022e-12,9.727572304e-13,1.803396004e-12,8.14408349e-13,3.864183334e-13,6.37542938e-13,1.730932069e-13,6.416411353e-13,4.728270248e-13,1.618351e-12,2.568828009e-12,3.451803559e-12,3.923312469e-12,2.197778506e-12,2.016142375e-12,9.148155669e-13,2.371308823e-12,1.950924678e-12,5.712053887e-13,1.922760154e-13,4.871563838e-13,4.04435619e-13,1.478102227e-12,1.935072446e-12,8.443472415e-13,1.669912028e-12,1.436387699e-12,2.411874504e-12,1.20352809e-12,3.475851378e-12,3.070547514e-13
0.1171875,1.193492578e-12,1.673079663e-12,9.853405333e-13,1.808495947e-12,8.21327484e-13,3.938850163e-13,6.459956586e-13,1.757845434e-13,6.461154558e-13,4.734948208e-13,1.620696141e-12,2.591002691e-12,3.485283754e-12,3.954662456e-12,2.20365505e-12,2.024039246e-12,9.185194172e-13,2.386110336e-12,1.96920469e-12,5.687300742e-13,1.955675317e-13,4.964069241e-13,4.109604258e-13,1.494840683e-12,1.947730884e-12,8.478983781e-13,1.673732241e-12,1.448482452e-12,2.421757987e-12,1.218831611e-12,3.496325449e-12,3.108723898e-13
0.125,1.203252156e-12,1.675756439e-12,9.980929933e-13,1.812787131e-12,8.279845322e-13,4.01492121e-13,6.541319569e-13,1.784853769e-13,6.503344475e-13,4.739316431e-13,1.622042978e-12,2.612100546e-12,3.517324881e-12,3.984062928e-12,2.208136243e-12,2.030892994e-12,9.219536683e-13,2.400148878e-12,1.987023807e-12,5.661162574e-13,1.987224539e-13,5.057125089e-13,4.17155405e-13,1.510612114e-12,1.959136595e-12,8.510677318e-13,1.676852731e-12,1.460066368e-12,2.430883231e-12,1.233877308e-12,3.516284069e-12,3.146050861e-13
0.1328125,1.212855296e-12,1.67818275e-12,1.010821592e-12,1.816365607e-12,8.342058164e-13,4.092195093e-13,6.620752928e-13,1.810969977e-13,6.544177521e-13,4.74277853e-13,1.622970155e-12,2.632307673e-12,3.547885625e-12,4.011439547e-12,2.211268682e-12,2.036515821e-12,9.248068846e-13,2.413167284e-12,2.004255518e-12,5.630971282e-13,2.017121316e-13,5.150805632e-13,4.229594305e-13,1.52541054e-12,1.969300689e-12,8.536633203e-13,1.679173249e-12,1.471101903e-12,2.439318596e-12,1.248614295e-12,3.536725904e-12,3.181730623e-13
0.140625,1.222092886e-12,1.680112864e-12,1.023519904e-12,1.819397122e-12,8.401424702e-13,4.168971672e-13,6.69828081e-13,1.836732992e-13,6.584188965e-13,4.745681444e-13,1.623669468e-12,2.651904877e-12,3.576996793e-12,4.037488696e-12,2.213929175e-12,2.041243657e-12,9.270468546e-13,2.424957224e-12,2.020555101e-12,5.598969329e-13,2.047289546e-13,5.2442674e-13,4.288837087e-13,1.539581041e-12,1.978834105e-12,8.560595218e-13,1.680889543e-12,1.481535749e-12,2.446930677e-12,1.263065507e-12,3.557206473e-12,3.217285103e-13
0.1484375,1.230854466e-12,1.681228736e-12,1.036467364e-12,1.821898502e-12,8.459639877e-13,4.245310073e-13,6.772517031e-13,1.863406334e-13,6.622023988e-13,4.747768307e-13,1.623580798e-12,2.670520066e-12,3.604856531e-12,4.062116256e-12,2.215677701e-12,2.045101952e-12,9.289920611e-13,2.435845425e-12,2.036179546e-12,5.565862914e-13,2.078549801e-13,5.337822114e-13,4.349341563e-13,1.55308469e-12,1.987707794e-12,8.583863743e-13,1.681992484e-12,1.491361742e-12,2.453714852e-12,1.277303147e-12,3.576952881e-12,3.25333833e-13
0.15625,1.239547254e-12,1.68206878e-12,1.049607087e-12,1.823836596e-12,8.515505319e-13,4.323248e-13,6.84348774e-13,1.889935007e-13,6.65704572e-13,4.748454563e-13,1.622475926e-12,2.687910516e-12,3.631402847e-12,4.084576156e-12,2.215511766e-12,2.047753418e-12,9.30627208e-13,2.445955524e-12,2.0515155e-12,5.528752969e-13,2.108648552e-13,5.432170373e-13,4.404855932e-13,1.565303489e-12,1.995035536e-12,8.601679005e-13,1.682357673e-12,1.500519632e-12,2.460034261e-12,1.291590068e-12,3.596136981e-12,3.288178157e-13
0.1640625,1.248396331e-12,1.683066106e-12,1.062415936e-12,1.825270567e-12,8.568232276e-13,4.40305145e-13,6.91091984e-13,1.914977255e-13,6.690400376e-13,4.747416321e-13,1.620818249e-12,2.704669405e-12,3.656326364e-12,4.105282876e-12,2.214084682e-12,2.049324085e-12,9.317369383e-13,2.45493203e-12,2.06621588e-12,5.488082623e-13,2.136342807e-13,5.526396443e-13,4.454965097e-13,1.576083167e-12,2.000889611e-12,8.612768688e-13,1.682119884e-12,1.509079371e-12,2.466028246e-12,1.306085619e-12,3.615301434e-12,3.321270263e-13
0.171875,1.257114359e-12,1.683805783e-12,1.074845198e-12,1.826202004e-12,8.618162497e-13,4.48301757e-13,6.974273729e-13,1.939564295e-13,6.723205667e-13,4.746579991e-13,1.61891586e-12,2.721088403e-12,3.679673027e-12,4.124786261e-12,2.212089222e-12,2.049826284e-12,9.321953818e-13,2.462652284e-12,2.079910696e-12,5.444013733e-13,2.163177621e-13,5.619607605e-13,4.503434796e-13,1.585887568e-12,2.006095595e-12,8.619131533e-13,1.681222001e-12,1.517271905e-12,2.471296082e-12,1.320444419e-12,3.634148383e-12,3.353785316e-13
0.1796875,1.265545487e-12,1.684067481e-12,1.087427492e-12,1.82660034e-12,8.664785906e-13,4.561582626e-13,7.035099528e-13,1.964616729e-13,6.755661827e-13,4.747489488e-13,1.616589727e-12,2.73661347e-12,3.701610399e-12,4.142348028e-12,2.208933078e-12,2.048980246e-12,9.319516395e-13,2.469323119e-12,2.092728386e-12,5.395594937e-13,2.190441742e-13,5.711933679e-13,4.549632375e-13,1.595118473e-12,2.010464056e-12,8.620272803e-13,1.679476676e-12,1.524992328e-12,2.475602409e-12,1.334231691e-12,3.65239812e-12,3.385953915e-13
0.1875,1.273704066e-12,1.684021778e-12,1.100239691e-12,1.826406513e-12,8.707770285e-13,4.638589296e-13,7.093832036e-13,1.989451569e-13,6.787024597e-13,4.747932568e-13,1.61353012e-12,2.750954244e-12,3.721818441e-12,4.157646272e-12,2.204425003e-12,2.047019963e-12,9.310794802e-13,2.474888622e-12,2.104567856e-12,5.346011064e-13,2.217628815e-13,5.803039121e-13,4.591918977e-13,1.603738364e-12,2.013393161e-12,8.615897302e-13,1.677035897e-12,1.531915617e-12,2.479091183e-12,1.347568417e-12,3.670654738e-12,3.416832452e-13
0.1953125,1.281521981e-12,1.683508829e-12,1.112937101e-12,1.825510337e-12,8.747369514e-13,4.715493554e-13,7.148201571e-13,2.013591566e-13,6.816054555e-13,4.746266004e-13,1.609650722e-12,2.764319707e-12,3.739966497e-12,4.171357325e-12,2.198835702e-12,2.044126404e-12,9.295846446e-13,2.479070605e-12,2.115170239e-12,5.296859281e-13,2.243897977e-13,5.892308781e-13,4.631092756e-13,1.611358004e-12,2.015051546e-12,8.606582086e-13,1.673929639e-12,1.538121369e-12,2.481753356e-12,1.360836369e-12,3.688944364e-12,3.44560742e-13
0.203125,1.289052644e-12,1.682515151e-12,1.125560636e-12,1.824056985e-12,8.783531968e-13,4.792682437e-13,7.197721882e-13,2.037111821e-13,6.842650375e-13,4.744604523e-13,1.605246224e-12,2.776726382e-12,3.756225127e-12,4.183433733e-12,2.191929584e-12,2.039918564e-12,9.273584361e-13,2.481851555e-12,2.124705864e-12,5.245548177e-13,2.269420673e-13,5.979608391e-13,4.667094138e-13,1.61793465e-12,2.015673793e-12,8.592079398e-13,1.66998203e-12,1.543845989e-12,2.483557892e-12,1.37397387e-12,3.706688513e-12,3.472213373e-13
0.2109375,1.296304247e-12,1.681451632e-12,1.138245821e-12,1.822357638e-12,8.816630996e-13,4.868794486e-13,7.24375568e-13,2.059979974e-13,6.867718987e-13,4.744008823e-13,1.600587572e-12,2.788110706e-12,3.77074247e-12,4.193284712e-12,2.183731098e-12,2.034340303e-12,9.245035537e-13,2.483427063e-12,2.133378141e-12,5.192374782e-13,2.294730566e-13,6.064776809e-13,4.698766337e-13,1.623828542e-12,2.015101889e-12,8.573389619e-13,1.665421569e-12,1.548938047e-12,2.484810205e-12,1.386651344e-12,3.72435761e-12,3.497145754e-13
0.21875,1.303137389e-12,1.680425047e-12,1.150775529e-12,1.8204465e-12,8.847446162e-13,4.944009429e-13,7.287064884e-13,2.082126981e-13,6.890873499e-13,4.742459754e-13,1.595443542e-12,2.798456414e-12,3.783388499e-12,4.200857686e-12,2.174603029e-12,2.027729507e-12,9.212215095e-13,2.483896286e-12,2.141205572e-12,5.138789626e-13,2.319634573e-13,6.148023097e-13,4.726412613e-13,1.62888808e-12,2.013304084e-12,8.551330346e-13,1.660512591e-12,1.553112357e-12,2.48578894e-12,1.398911846e-12,3.742616901e-12,3.520800489e-13
0.2265625,1.309650031e-12,1.679295564e-12,1.163015473e-12,1.818257004e-12,8.876398261e-13,5.019148368e-13,7.329182688e-13,2.103413758e-13,6.910865594e-13,4.738989497e-13,1.589545888e-12,2.807551515e-12,3.794216089e-12,4.206279689e-12,2.164521153e-12,2.020207669e-12,9.175618326e-13,2.483267422e-12,2.148327332e-12,5.084006667e-13,2.343773977e-13,6.23032548e-13,4.751504347e-13,1.632672754e-12,2.010411991e-12,8.52520646e-13,1.655112472e-12,1.556361433e-12,2.486427605e-12,1.410990833e-12,3.761025738e-12,3.543487512e-13
0.234375,1.315937348e-12,1.678081275e-12,1.17501934e-12,1.815841108e-12,8.903690826e-13,5.093403792e-13,7.370391219e-13,2.123867642e-13,6.928251044e-13,4.734915725e-13,1.583169403e-12,2.815391328e-12,3.803501898e-12,4.209725005e-12,2.153532487e-12,2.011811616e-12,9.135260409e-13,2.481555125e-12,2.154766739e-12,5.028612782e-13,2.367068606e-13,6.31215298e-13,4.773716495e-13,1.635298242e-12,2.006470299e-12,8.495767255e-13,1.649189283e-12,1.558891658e-12,2.486566989e-12,1.422841722e-12,3.77902266e-12,3.565511702e-13
0.2421875,1.321835179e-12,1.676786016e-12,1.186704463e-12,1.813170237e-12,8.929045429e-13,5.166819377e-13,7.407510961e-13,2.143820342e-13,6.944773624e-13,4.731323394e-13,1.576638895e-12,2.822354262e-12,3.811369681e-12,4.211533846e-12,2.141882095e-12,2.002592848e-12,9.090758792e-13,2.478786857e-12,2.160357108e-12,4.973054369e-13,2.389365553e-13,6.392925409e-13,4.790746889e-13,1.637016457e-12,2.001391889e-12,8.463557991e-13,1.642886873e-12,1.560843495e-12,2.48623213e-12,1.4344461e-12,3.796797023e-12,3.586667066e-13
0.25,1.327420232e-12,1.675456172e-12,1.198039204e-12,1.810237768e-12,8.952357811e-13,5.24033549e-13,7.439237454e-13,2.163443278e-13,6.96069347e-13,4.728069113e-13,1.569809678e-12,2.828568791e-12,3.817720342e-12,4.211738364e-12,2.129396143e-12,1.992504252e-12,9.041771936e-13,2.475002268e-12,2.165105427e-12,4.916243165e-13,2.411151613e-13,6.472099029e-13,4.802860642e-13,1.637756648e-12,1.995084591e-12,8.42740027e-13,1.636155091e-12,1.562138304e-12,2.485547963e-12,1.445999017e-12,3.814969374e-12,3.606512038e-13
0.2578125,1.332877555e-12,1.674185432e-12,1.209153471e-12,1.807185611e-12,8.97473158e-13,5.313418215e-13,7.467742629e-13,2.182790095e-13,6.975103578e-13,4.724691136e-13,1.562530241e-12,2.833886801e-12,3.822439976e-12,4.210163403e-12,2.115748674e-12,1.981469538e-12,8.988721296e-13,2.470206134e-12,2.169051298e-12,4.859569946e-13,2.433233964e-13,6.549536505e-13,4.812351866e-13,1.637502923e-12,1.98771018e-12,8.387938824e-13,1.628972376e-12,1.562682751e-12,2.484523169e-12,1.457421234e-12,3.833769663e-12,3.624898362e-13
0.265625,1.338038566e-12,1.672918979e-12,1.22005122e-12,1.804134807e-12,8.996960052e-13,5.385676216e-13,7.493780666e-13,2.20200529e-13,6.987789783e-13,4.721335534e-13,1.555023385e-12,2.838336966e-12,3.825528619e-12,4.206891994e-12,2.101127114e-12,1.969517254e-12,8.931643083e-13,2.464410738e-12,2.172132645e-12,4.804514045e-13,2.454837514e-13,6.62495142e-13,4.817927595e-13,1.636345638e-12,1.979484245e-12,8.346654623e-13,1.621518718e-12,1.562605794e-12,2.483184557e-12,1.468487031e-12,3.852843964e-12,3.642096112e-13
0.2734375,1.342830494e-12,1.671717926e-12,1.230709738e-12,1.801126479e-12,9.018487952e-13,5.457445049e-13,7.516715111e-13,2.220814718e-13,6.998952592e-13,4.718500257e-13,1.547471444e-12,2.841953595e-12,3.826975871e-12,4.202124269e-12,2.086085652e-12,1.956961833e-12,8.87164331e-13,2.457717473e-12,2.174384092e-12,4.749432139e-13,2.474735022e-13,6.697979276e-13,4.817633187e-13,1.634162116e-12,1.970309895e-12,8.303676657e-13,1.613946558e-12,1.562018022e-12,2.48172267e-12,1.47933722e-12,3.872186557e-12,3.658645685e-13
0.28125,1.347392633e-12,1.670653763e-12,1.241248182e-12,1.79792286e-12,9.037738993e-13,5.527379354e-13,7.535747762e-13,2.238058653e-13,7.008389618e-13,4.716184755e-13,1.539703093e-12,2.844570464e-12,3.826680937e-12,4.195719474e-12,2.070581676e-12,1.943884476e-12,8.809158503e-13,2.450076e-12,2.175740262e-12,4.693169931e-13,2.494166251e-13,6.76856603e-13,4.813995274e-13,1.630824058e-12,1.960101499e-12,8.259006906e-13,1.606181037e-12,1.560755515e-12,2.480100206e-12,1.490084153e-12,3.89172252e-12,3.673805491e-13
0.2890625,1.351588532e-12,1.669453069e-12,1.251649018e-12,1.79407738e-12,9.052125191e-13,5.593374044e-13,7.549553649e-13,2.25265207e-13,7.01595956e-13,4.714346574e-13,1.531505342e-12,2.846058831e-12,3.824564367e-12,4.187113538e-12,2.05382921e-12,1.929682065e-12,8.739423784e-13,2.441172123e-12,2.175945963e-12,4.635994559e-13,2.515092876e-13,6.836612175e-13,4.808754679e-13,1.626701154e-12,1.948953445e-12,8.210793785e-13,1.59793876e-12,1.558672568e-12,2.477998275e-12,1.50041942e-12,3.910770978e-12,3.685585326e-13
0.296875,1.355252241e-12,1.668051728e-12,1.261731661e-12,1.789741636e-12,9.061443199e-13,5.656259478e-13,7.559565465e-13,2.265447235e-13,7.021587435e-13,4.713416771e-13,1.522984543e-12,2.846476055e-12,3.820417599e-12,4.176207142e-12,2.035909067e-12,1.914329713e-12,8.661405565e-13,2.430908905e-12,2.174923792e-12,4.579395574e-13,2.536065415e-13,6.901364129e-13,4.799164023e-13,1.622158826e-12,1.936760895e-12,8.157268851e-13,1.589213627e-12,1.555903193e-12,2.475436608e-12,1.510072974e-12,3.929721374e-12,3.694109089e-13
0.3046875,1.358458016e-12,1.666796013e-12,1.271433314e-12,1.785560198e-12,9.069630988e-13,5.719381815e-13,7.568428227e-13,2.278407524e-13,7.024854419e-13,4.713279483e-13,1.514391622e-12,2.8458821e-12,3.813933129e-12,4.163651055e-12,2.017883209e-12,1.89872746e-12,8.583691574e-13,2.419566927e-12,2.1728257e-12,4.526476032e-13,2.554060887e-13,6.961897024e-13,4.783459022e-13,1.616622311e-12,1.923409499e-12,8.101927105e-13,1.580429356e-12,1.552542661e-12,2.472744338e-12,1.519082404e-12,3.949337216e-12,3.701436625e-13
0.3125,1.361206552e-12,1.665779253e-12,1.280768494e-12,1.781538077e-12,9.078092302e-13,5.782615034e-13,7.574514029e-13,2.291677764e-13,7.025519837e-13,4.713261843e-13,1.505643964e-12,2.844057729e-12,3.805380706e-12,4.149418315e-12,1.999610243e-12,1.882872004e-12,8.50878879e-13,2.407300293e-12,2.169875933e-12,4.476302989e-13,2.570143459e-13,7.01858271e-13,4.763405113e-13,1.609588495e-12,1.909134088e-12,8.047560756e-13,1.571645445e-12,1.54841324e-12,2.469974745e-12,1.527633607e-12,3.96885345e-12,3.70791951e-13
0.3203125,1.363427493e-12,1.664871593e-12,1.289737497e-12,1.777240704e-12,9.083877738e-13,5.841678107e-13,7.576225702e-13,2.304109586e-13,7.023773645e-13,4.713317003e-13,1.496395815e-12,2.840778854e-12,3.795482508e-12,4.132920596e-12,1.980179877e-12,1.866095702e-12,8.429684217e-13,2.394059361e-12,2.166226061e-12,4.423977546e-13,2.587687132e-13,7.072955843e-13,4.740646494e-13,1.601867154e-12,1.894172846e-12,7.991209766e-13,1.562495611e-12,1.543454231e-12,2.466958004e-12,1.535907338e-12,3.988144223e-12,3.712800642e-13
0.328125,1.365116198e-12,1.663975305e-12,1.29839089e-12,1.772711809e-12,9.08687799e-13,5.896460065e-13,7.575954564e-13,2.315484203e-13,7.019955372e-13,4.713409813e-13,1.486650515e-12,2.836348285e-12,3.784323679e-12,4.114561651e-12,1.960035337e-12,1.848729212e-12,8.346028602e-13,2.379927327e-12,2.161711845e-12,4.369702418e-13,2.605570798e-13,7.125258704e-13,4.714337875e-13,1.593943146e-12,1.878484465e-12,7.931656183e-13,1.553015146e-12,1.537920102e-12,2.463583408e-12,1.543808104e-12,4.008128078e-12,3.716178562e-13
0.3359375,1.366327443e-12,1.662937492e-12,1.306758924e-12,1.76808832e-12,9.088746996e-13,5.950584139e-13,7.574946853e-13,2.325802855e-13,7.014565442e-13,4.713112086e-13,1.476817375e-12,2.831097652e-12,3.77143942e-12,4.094689392e-12,1.939715527e-12,1.831054015e-12,8.261225557e-13,2.364988028e-12,2.156148135e-12,4.316908129e-13,2.620309411e-13,7.173880239e-13,4.682929237e-13,1.584900664e-12,1.861875898e-12,7.870809399e-13,1.543388065e-12,1.531897792e-12,2.459796102e-12,1.55110505e-12,4.028346845e-12,3.718211275e-13
0.34375,1.367234416e-12,1.661909798e-12,1.31481649e-12,1.763223121e-12,9.087899064e-13,6.002392372e-13,7.572811955e-13,2.334860212e-13,7.007565933e-13,4.713228e-13,1.467160618e-12,2.824852748e-12,3.756750398e-12,4.072785972e-12,1.918606507e-12,1.812542411e-12,8.172643397e-13,2.349155343e-12,2.149713241e-12,4.265184309e-13,2.632702646e-13,7.217689672e-13,4.647017824e-13,1.57449562e-12,1.844236674e-12,7.808744644e-13,1.533527862e-12,1.525174988e-12,2.455691867e-12,1.557974361e-12,4.048440271e-12,3.719124511e-13
0.3515625,1.367797717e-12,1.66123914e-12,1.322481281e-12,1.758231039e-12,9.084497196e-13,6.048844842e-13,7.569651063e-13,2.343036504e-13,6.998166187e-13,4.715393032e-13,1.45765331e-12,2.817679568e-12,3.740486316e-12,4.049379913e-12,1.896899055e-12,1.793486964e-12,8.081000082e-13,2.332461729e-12,2.142462453e-12,4.21421767e-13,2.644979628e-13,7.256639243e-13,4.608231885e-13,1.563731442e-12,1.825843091e-12,7.746712946e-13,1.52369213e-12,1.517760783e-12,2.451493045e-12,1.564704301e-12,4.068774302e-12,3.719128425e-13
0.359375,1.36769023e-12,1.660771855e-12,1.329588463e-12,1.753383387e-12,9.081943827e-13,6.092486872e-13,7.564020245e-13,2.350445733e-13,6.986559846e-13,4.719659241e-13,1.44817068e-12,2.809976249e-12,3.722794291e-12,4.025441389e-12,1.875607176e-12,1.774681126e-12,7.991470607e-13,2.315117237e-12,2.134179904e-12,4.165605011e-13,2.656266811e-13,7.291296931e-13,4.566799112e-13,1.552843695e-12,1.807071011e-12,7.687315217e-13,1.514246683e-12,1.509900358e-12,2.447238868e-12,1.571076076e-12,4.088617724e-12,3.717756876e-13
0.3671875,1.366963075e-12,1.660175642e-12,1.336190913e-12,1.748590379e-12,9.080007201e-13,6.134944635e-13,7.555612544e-13,2.356823e-13,6.973856624e-13,4.724857998e-13,1.438555453e-12,2.80160053e-12,3.703763553e-12,4.000279127e-12,1.854380428e-12,1.755761343e-12,7.902576042e-13,2.297130105e-12,2.124946772e-12,4.118284822e-13,2.666131475e-13,7.323393782e-13,4.523003612e-13,1.541167252e-12,1.787772221e-12,7.62954323e-13,1.504863161e-12,1.501600077e-12,2.442745588e-12,1.576787806e-12,4.107757246e-12,3.715375447e-13
0.375,1.365879399e-12,1.659430038e-12,1.342607618e-12,1.743716151e-12,9.076180244e-13,6.174372409e-13,7.546537328e-13,2.362243318e-13,6.959783295e-13,4.73064512e-13,1.428826482e-12,2.792328883e-12,3.683280703e-12,3.973289727e-12,1.832356226e-12,1.736151328e-12,7.81065086e-13,2.278249667e-12,2.114889249e-12,4.070539846e-13,2.675893107e-13,7.353475717e-13,4.477055821e-13,1.528620697e-12,1.767662785e-12,7.571626114e-13,1.495222447e-12,1.492739063e-12,2.437937176e-12,1.582002167e-12,4.126202251e-12,3.712497536e-13
0.3828125,1.364275867e-12,1.658566424e-12,1.348848347e-12,1.738851373e-12,9.070790276e-13,6.211176305e-13,7.535822802e-13,2.366404836e-13,6.94342081e-13,4.737445411e-13,1.419210437e-12,2.78241973e-12,3.66116456e-12,3.945253631e-12,1.809899747e-12,1.716193452e-12,7.71670742e-13,2.258379919e-12,2.103808035e-12,4.02282431e-13,2.685179574e-13,7.379064403e-13,4.426786915e-13,1.515672562e-12,1.746878059e-12,7.513676855e-13,1.485611038e-12,1.483422425e-12,2.432971739e-12,1.586947735e-12,4.142531164e-12,3.707691369e-13
0.390625,1.362097448e-12,1.657716189e-12,1.354628223e-12,1.734026342e-12,9.064620756e-13,6.246208939e-13,7.521637034e-13,2.369186378e-13,6.925238369e-13,4.745162034e-13,1.409647382e-12,2.771773569e-12,3.637538016e-12,3.916286602e-12,1.787410966e-12,1.696137345e-12,7.621338406e-13,2.237679599e-12,2.091724266e-12,3.975641102e-13,2.693297534e-13,7.399366557e-13,4.371094272e-13,1.502475339e-12,1.725507342e-12,7.455046066e-13,1.476074472e-12,1.473741338e-12,2.427859982e-12,1.591521605e-12,4.157461496e-12,3.700819271e-13
0.3984375,1.35964994e-12,1.65704985e-12,1.359934002e-12,1.729230868e-12,9.057671985e-13,6.278103306e-13,7.505670743e-13,2.371257942e-13,6.905637988e-13,4.753118837e-13,1.399816207e-12,2.759974559e-12,3.612517522e-12,3.885745509e-12,1.764453134e-12,1.675694175e-12,7.52415752e-13,2.21619286e-12,2.078868644e-12,3.929156974e-13,2.701558394e-13,7.417013918e-13,4.312757042e-13,1.488833362e-12,1.703396438e-12,7.395980789e-13,1.466277521e-12,1.463510646e-12,2.422307184e-12,1.595579103e-12,4.172732227e-12,3.694133781e-13
0.40625,1.356867481e-12,1.656397855e-12,1.364936627e-12,1.724540209e-12,9.050610314e-13,6.306253716e-13,7.488149165e-13,2.372245223e-13,6.883905401e-13,4.761346883e-13,1.389806996e-12,2.747186392e-12,3.585988909e-12,3.853766009e-12,1.741030714e-12,1.654869114e-12,7.426288993e-13,2.193848663e-12,2.065168149e-12,3.883209505e-13,2.710342816e-13,7.432406236e-13,4.253144614e-13,1.474593735e-12,1.680579474e-12,7.338268498e-13,1.456305604e-12,1.45261922e-12,2.416300231e-12,1.599144249e-12,4.186398456e-12,3.687117786e-13
0.4140625,1.353462356e-12,1.655625079e-12,1.369720553e-12,1.71989104e-12,9.043149047e-13,6.330695783e-13,7.467910602e-13,2.371341406e-13,6.860218519e-13,4.770828878e-13,1.379964594e-12,2.733750892e-12,3.558017083e-12,3.820715912e-12,1.717745209e-12,1.634009593e-12,7.327850314e-13,2.170789885e-12,2.05058479e-12,3.837723343e-13,2.717643439e-13,7.443345849e-13,4.189977676e-13,1.459694385e-12,1.65725867e-12,7.281987117e-13,1.446544799e-12,1.441313126e-12,2.410207832e-12,1.60215786e-12,4.197964527e-12,3.677504519e-13
0.421875,1.34943832e-12,1.654843193e-12,1.374215951e-12,1.715114574e-12,9.034738025e-13,6.351055167e-13,7.4476069e-13,2.369526226e-13,6.835466205e-13,4.782195194e-13,1.370276045e-12,2.719589168e-12,3.528814699e-12,3.786523631e-12,1.694617e-12,1.613183074e-12,7.2289001e-13,2.147199489e-12,2.035295771e-12,3.794439113e-13,2.722191144e-13,7.449562717e-13,4.122457721e-13,1.444082624e-12,1.633673067e-12,7.227366367e-13,1.437087025e-12,1.429791949e-12,2.404033403e-12,1.604466546e-12,4.210596233e-12,3.666355024e-13
0.4296875,1.344807338e-12,1.654047105e-12,1.37806884e-12,1.710266788e-12,9.02651849e-13,6.367582266e-13,7.429510876e-13,2.367701256e-13,6.808794264e-13,4.795503527e-13,1.360684822e-12,2.704469021e-12,3.498411965e-12,3.75112749e-12,1.671344777e-12,1.592305228e-12,7.131538332e-13,2.123088381e-12,2.019287456e-12,3.753612262e-13,2.725408725e-13,7.451640208e-13,4.052786784e-13,1.427919394e-12,1.610054068e-12,7.176013747e-13,1.427813296e-12,1.417872997e-12,2.397517224e-12,1.60612715e-12,4.223673498e-12,3.655094428e-13
0.4375,1.339615308e-12,1.653321503e-12,1.381196819e-12,1.705540933e-12,9.018791095e-13,6.380711266e-13,7.411868643e-13,2.365031997e-13,6.778884344e-13,4.810398548e-13,1.351350195e-12,2.688331753e-12,3.466836024e-12,3.714746435e-12,1.648207272e-12,1.571623607e-12,7.037240037e-13,2.098556144e-12,2.002562171e-12,3.713054557e-13,2.729192033e-13,7.449257586e-13,3.982570083e-13,1.411596797e-12,1.586341618e-12,7.127575442e-13,1.418685354e-12,1.405463828e-12,2.390788877e-12,1.607282907e-12,4.234756852e-12,3.642496355e-13
0.4453125,1.334148599e-12,1.652778795e-12,1.384264679e-12,1.700877318e-12,9.009913695e-13,6.391049225e-13,7.393419076e-13,2.360857519e-13,6.746936968e-13,4.825677392e-13,1.342135772e-12,2.671531051e-12,3.434290425e-12,3.677834554e-12,1.6254581e-12,1.551283011e-12,6.944929103e-13,2.073701638e-12,1.985337281e-12,3.673896399e-13,2.732988302e-13,7.443167982e-13,3.911141543e-13,1.395331723e-12,1.562382113e-12,7.080549027e-13,1.409694549e-12,1.392935109e-12,2.383985899e-12,1.607983914e-12,4.245420616e-12,3.628223472e-13
0.453125,1.328500912e-12,1.652180375e-12,1.387640182e-12,1.696074922e-12,8.998859162e-13,6.398459255e-13,7.375320705e-13,2.355205574e-13,6.714818216e-13,4.841004501e-13,1.332789279e-12,2.654422738e-12,3.400999839e-12,3.640405128e-12,1.602724337e-12,1.530864317e-12,6.85208044e-13,2.048413962e-12,1.967648773e-12,3.637865022e-13,2.73550962e-13,7.434746387e-13,3.837075845e-13,1.379141517e-12,1.538301272e-12,7.034245678e-13,1.400766161e-12,1.380541577e-12,2.376933641e-12,1.60833769e-12,4.256307331e-12,3.61300271e-13
0.4609375,1.322470529e-12,1.651561668e-12,1.390778244e-12,1.69130816e-12,8.986524406e-13,6.40066301e-13,7.358955944e-13,2.347748143e-13,6.682030415e-13,4.857662254e-13,1.32355163e-12,2.636725703e-12,3.367040719e-12,3.601910329e-12,1.579877098e-12,1.510261076e-12,6.758608238e-13,2.022776867e-12,1.949384882e-12,3.602526025e-13,2.737915214e-13,7.423849552e-13,3.760469495e-13,1.363130146e-12,1.514196843e-12,6.988898863e-13,1.391989145e-12,1.368031049e-12,2.369692107e-12,1.608225174e-12,4.265453061e-12,3.596304249e-13
0.46875,1.315957516e-12,1.651247571e-12,1.393318909e-12,1.686866763e-12,8.975053821e-13,6.397314148e-13,7.343801543e-13,2.338468915e-13,6.647747419e-13,4.875761845e-13,1.314655144e-12,2.618307412e-12,3.332263611e-12,3.562527221e-12,1.557311934e-12,1.490020732e-12,6.66763867e-13,1.996971015e-12,1.930489158e-12,3.567676548e-13,2.741123683e-13,7.40910682e-13,3.682844246e-13,1.34725264e-12,1.490031249e-12,6.947193455e-13,1.383692115e-12,1.355234783e-12,2.362490309e-12,1.607273917e-12,4.273033289e-12,3.578776385e-13
0.4765625,1.309000961e-12,1.650848057e-12,1.395546303e-12,1.682350695e-12,8.964733659e-13,6.391530152e-13,7.327790433e-13,2.328411014e-13,6.61254608e-13,4.894465932e-13,1.305729435e-12,2.599537094e-12,3.296435559e-12,3.522750936e-12,1.534993689e-12,1.470116264e-12,6.578194246e-13,1.970662624e-12,1.910805288e-12,3.535180774e-13,2.743267278e-13,7.389505831e-13,3.604930336e-13,1.331089404e-12,1.465828576e-12,6.910716034e-13,1.375865999e-12,1.342284423e-12,2.355130921e-12,1.605659015e-12,4.279573924e-12,3.562743251e-13
0.484375,1.301567127e-12,1.649773317e-12,1.397602504e-12,1.67714006e-12,8.952758968e-13,6.383589417e-13,7.31159178e-13,2.318431261e-13,6.575786785e-13,4.913755355e-13,1.296352327e-12,2.580034159e-12,3.259463414e-12,3.481892882e-12,1.512456785e-12,1.449917647e-12,6.485894392e-13,1.943527214e-12,1.890261961e-12,3.502766111e-13,2.74359885e-13,7.36571009e-13,3.526877754e-13,1.314380773e-12,1.441477077e-12,6.876325616e-13,1.36800255e-12,1.329027954e-12,2.347131512e-12,1.603695762e-12,4.284122494e-12,3.548308171e-13
0.4921875,1.293456566e-12,1.648167599e-12,1.399263721e-12,1.671433718e-12,8.938045698e-13,6.370255602e-13,7.297654992e-13,2.307859174e-13,6.535940567e-13,4.932473196e-13,1.286668378e-12,2.559177346e-12,3.221438081e-12,3.439388025e-12,1.489593298e-12,1.429443734e-12,6.393288448e-13,1.915895039e-12,1.86903166e-12,3.470332013e-13,2.743423268e-13,7.339001232e-13,3.449081423e-13,1.297444553e-12,1.416920591e-12,6.842713912e-13,1.359905588e-12,1.315185638e-12,2.338280545e-12,1.600907215e-12,4.28683496e-12,3.533640669e-13
0.5,1.284608375e-12,1.646275002e-12,1.400415959e-12,1.665665339e-12,8.922190515e-13,6.350546045e-13,7.284027517e-13,2.29589618e-13,6.493876576e-13,4.949408907e-13,1.277143373e-12,2.5375207e-12,3.182649714e-12,3.395991958e-12,1.466639e-12,1.409133709e-12,6.30512726e-13,1.888039934e-12,1.847229688e-12,3.441148543e-13,2.742156129e-13,7.309338545e-13,3.370419139e-13,1.280611293e-12,1.392431601e-12,6.811938721e-13,1.351898671e-12,1.301041485e-12,2.328850314e-12,1.597178931e-12,4.287755458e-12,3.518147217e-13
0.5078125,1.275423936e-12,1.644098511e-12,1.401206424e-12,1.659672636e-12,8.905110104e-13,6.325765649e-13,7.267681405e-13,2.28335028e-13,6.450985692e-13,4.965905065e-13,1.267877802e-12,2.515543978e-12,3.143403569e-12,3.35215395e-12,1.443870035e-12,1.389051172e-12,6.218809806e-13,1.859817816e-12,1.824974182e-12,3.412488292e-13,2.73892181e-13,7.276691835e-13,3.289641089e-13,1.263740515e-12,1.368059308e-12,6.78285571e-13,1.344135656e-12,1.286997305e-12,2.319214097e-12,1.593334684e-12,4.28589995e-12,3.502216319e-13
0.515625,1.266114677e-12,1.641737596e-12,1.401626359e-12,1.653346912e-12,8.886897742e-13,6.296547657e-13,7.25044427e-13,2.270582781e-13,6.406313347e-13,4.982341318e-13,1.258464043e-12,2.492775949e-12,3.103644139e-12,3.307615377e-12,1.421385429e-12,1.369112612e-12,6.132164716e-13,1.831263309e-12,1.802455253e-12,3.381505252e-13,2.735584374e-13,7.241543252e-13,3.208603837e-13,1.246759961e-12,1.343632897e-12,6.75463433e-13,1.336496291e-12,1.272838116e-12,2.309282728e-12,1.589371555e-12,4.281722165e-12,3.486108685e-13
0.5234375,1.256219851e-12,1.639142091e-12,1.401360546e-12,1.646964695e-12,8.869862792e-13,6.263487293e-13,7.234204793e-13,2.256097848e-13,6.359206259e-13,4.997773308e-13,1.248728044e-12,2.469304897e-12,3.063128581e-12,3.262581564e-12,1.398954588e-12,1.349270934e-12,6.047918542e-13,1.802506685e-12,1.779538047e-12,3.352628291e-13,2.732977978e-13,7.202802911e-13,3.128613879e-13,1.229889314e-12,1.319336893e-12,6.730379221e-13,1.328949928e-12,1.258301791e-12,2.298786667e-12,1.584559926e-12,4.275915627e-12,3.470148806e-13
0.53125,1.245566157e-12,1.636220956e-12,1.40041455e-12,1.640584837e-12,8.854090398e-13,6.227842969e-13,7.217972555e-13,2.239609311e-13,6.31094965e-13,5.013868574e-13,1.238954651e-12,2.445703525e-12,3.021922676e-12,3.217324567e-12,1.376577947e-12,1.329586676e-12,5.966476321e-13,1.773465577e-12,1.755998e-12,3.327474899e-13,2.728799669e-13,7.159768152e-13,3.047216776e-13,1.21298462e-12,1.295264775e-12,6.710425743e-13,1.321587335e-12,1.2436619e-12,2.287892249e-12,1.579226377e-12,4.267806684e-12,3.454425318e-13
0.5390625,1.234627208e-12,1.633185096e-12,1.399201271e-12,1.634043402e-12,8.837703805e-13,6.189843568e-13,7.201968437e-13,2.222926116e-13,6.262257594e-13,5.0314339e-13,1.229157339e-12,2.421665215e-12,2.980339667e-12,3.171621935e-12,1.354633059e-12,1.310306996e-12,5.886760863e-13,1.74420706e-12,1.732062995e-12,3.30271286e-13,2.722195219e-13,7.114504712e-13,2.963680388e-13,1.195739256e-12,1.271205023e-12,6.692597637e-13,1.314526485e-12,1.229127434e-12,2.27686774e-12,1.574011723e-12,4.25770084e-12,3.438899038e-13
0.546875,1.223531392e-12,1.630055403e-12,1.397752344e-12,1.627254774e-12,8.820762908e-13,6.147893364e-13,7.186868997e-13,2.206817489e-13,6.212555221e-13,5.048228912e-13,1.219156327e-12,2.396683426e-12,2.938580129e-12,3.125277847e-12,1.332991442e-12,1.291315449e-12,5.80869824e-13,1.714904524e-12,1.707970533e-12,3.27839654e-13,2.715538445e-13,7.068360295e-13,2.881334744e-13,1.178469766e-12,1.247358058e-12,6.677332933e-13,1.307757592e-12,1.214505437e-12,2.265630488e-12,1.56860373e-12,4.246782527e-12,3.424021008e-13
0.5546875,1.212007024e-12,1.626581624e-12,1.395802705e-12,1.620257018e-12,8.804255746e-13,6.100873244e-13,7.172003857e-13,2.190397195e-13,6.161438058e-13,5.064508242e-13,1.209207684e-12,2.371050247e-12,2.896578143e-12,3.078361917e-12,1.311285597e-12,1.272228169e-12,5.730911843e-13,1.685451841e-12,1.68352929e-12,3.255507335e-13,2.71024407e-13,7.019996638e-13,2.801839173e-13,1.161658292e-12,1.224020752e-12,6.665532032e-13,1.301155481e-12,1.199739662e-12,2.254072818e-12,1.562627377e-12,4.234634442e-12,3.410188609e-13
0.5625,1.200142527e-12,1.622887692e-12,1.393442142e-12,1.6133002e-12,8.789089057e-13,6.049694151e-13,7.157763069e-13,2.172943297e-13,6.109118061e-13,5.082247132e-13,1.199559186e-12,2.345263648e-12,2.854129426e-12,3.031153958e-12,1.289796172e-12,1.25321205e-12,5.654060253e-13,1.655758489e-12,1.658638753e-12,3.233633095e-13,2.705045148e-13,6.96842226e-13,2.723585376e-13,1.145242769e-12,1.200912815e-12,6.657578589e-13,1.294777884e-12,1.185019912e-12,2.242253796e-12,1.556217031e-12,4.220508219e-12,3.397115557e-13
0.5703125,1.188211714e-12,1.619331831e-12,1.390885986e-12,1.606509846e-12,8.775534686e-13,5.995504037e-13,7.144828968e-13,2.15450499e-13,6.055918998e-13,5.100436157e-13,1.189964751e-12,2.319360563e-12,2.811282428e-12,2.983874903e-12,1.268725025e-12,1.234572202e-12,5.580563194e-13,1.626050346e-12,1.633608331e-12,3.214200634e-13,2.699345602e-13,6.914418121e-13,2.645554224e-13,1.128925272e-12,1.177819247e-12,6.653290007e-13,1.288666634e-12,1.170363227e-12,2.230169695e-12,1.549463499e-12,4.205240611e-12,3.384244797e-13
0.578125,1.176153182e-12,1.615887025e-12,1.38814743e-12,1.599604617e-12,8.761928539e-13,5.938807899e-13,7.132645209e-13,2.13551248e-13,6.001554568e-13,5.117365003e-13,1.180134203e-12,2.293023965e-12,2.768373203e-12,2.936383372e-12,1.247806581e-12,1.216204151e-12,5.509322279e-13,1.59658113e-12,1.608691515e-12,3.197256701e-13,2.69432316e-13,6.859124954e-13,2.568477469e-13,1.112556396e-12,1.155001653e-12,6.650394612e-13,1.282580596e-12,1.15562998e-12,2.217712077e-12,1.542273323e-12,4.189430253e-12,3.371489063e-13
0.5859375,1.163710079e-12,1.612178562e-12,1.385139365e-12,1.592399764e-12,8.747692349e-13,5.87961337e-13,7.121144191e-13,2.115955104e-13,5.945675963e-13,5.132804951e-13,1.170062763e-12,2.266106619e-12,2.725529999e-12,2.888650525e-12,1.227195103e-12,1.198128218e-12,5.439520347e-13,1.567333013e-12,1.583722567e-12,3.180863141e-13,2.690005696e-13,6.802558548e-13,2.493308756e-13,1.096288617e-12,1.132575465e-12,6.649122213e-13,1.276492434e-12,1.140819673e-12,2.204783771e-12,1.534560873e-12,4.172276918e-12,3.359571193e-13
0.59375,1.150860718e-12,1.607970668e-12,1.381734009e-12,1.5849052e-12,8.734114204e-13,5.81666116e-13,7.109947595e-13,2.095491199e-13,5.88912608e-13,5.147049112e-13,1.159892603e-12,2.238863713e-12,2.682583301e-12,2.840882123e-12,1.207060718e-12,1.180364541e-12,5.372303414e-13,1.537983861e-12,1.558419173e-12,3.165405893e-13,2.685301946e-13,6.743885215e-13,2.419924961e-13,1.080520608e-12,1.110343443e-12,6.652219013e-13,1.270623636e-12,1.126060866e-12,2.191369609e-12,1.526481224e-12,4.153402174e-12,3.349103543e-13
0.6015625,1.137808346e-12,1.603345894e-12,1.378011494e-12,1.576973599e-12,8.720416029e-13,5.749685817e-13,7.098298524e-13,2.074537501e-13,5.832542995e-13,5.160962811e-13,1.149624876e-12,2.211369029e-12,2.639448238e-12,2.79292796e-12,1.186967352e-12,1.162596883e-12,5.305917704e-13,1.508298198e-12,1.532851436e-12,3.151318903e-13,2.680365909e-13,6.683590776e-13,2.347465594e-13,1.065265029e-12,1.088238822e-12,6.657906304e-13,1.264861895e-12,1.111433813e-12,2.177502286e-12,1.518300294e-12,4.13301275e-12,3.339518259e-13
0.609375,1.124520996e-12,1.598386148e-12,1.374282957e-12,1.56858185e-12,8.705647223e-13,5.680774633e-13,7.088407253e-13,2.053372861e-13,5.774784865e-13,5.17448925e-13,1.139016068e-12,2.183283199e-12,2.596251051e-12,2.744578597e-12,1.166839807e-12,1.144837925e-12,5.239364853e-13,1.478610398e-12,1.507312505e-12,3.137853801e-13,2.675406163e-13,6.623238788e-13,2.275889959e-13,1.050066616e-12,1.066443933e-12,6.663733533e-13,1.259031424e-12,1.096915475e-12,2.163168599e-12,1.509822726e-12,4.11073634e-12,3.33002711e-13
0.6171875,1.110868265e-12,1.593117187e-12,1.370619623e-12,1.559913718e-12,8.690838425e-13,5.609924372e-13,7.082631551e-13,2.031300844e-13,5.715386603e-13,5.186526055e-13,1.128071063e-12,2.15462206e-12,2.553217384e-12,2.69599113e-12,1.146996231e-12,1.127333801e-12,5.174592084e-13,1.4493608e-12,1.481894272e-12,3.125507663e-13,2.669748252e-13,6.563019105e-13,2.205552266e-13,1.034828958e-12,1.045047246e-12,6.671369307e-13,1.253250542e-12,1.082458614e-12,2.148417439e-12,1.500777674e-12,4.086859449e-12,3.320946098e-13
0.625,1.097209891e-12,1.587813838e-12,1.366918697e-12,1.551037586e-12,8.675483549e-13,5.535214783e-13,7.078830104e-13,2.008616143e-13,5.656370671e-13,5.198047888e-13,1.117183198e-12,2.12599028e-12,2.510520558e-12,2.647372608e-12,1.127247039e-12,1.109926189e-12,5.111279426e-13,1.420406852e-12,1.456556609e-12,3.114201917e-13,2.663731524e-13,6.502663764e-13,2.136519417e-13,1.019877307e-12,1.023890959e-12,6.680872751e-13,1.247580279e-12,1.068131653e-12,2.133461714e-12,1.491556807e-12,4.062550808e-12,3.313086568e-13
0.6328125,1.083930471e-12,1.582684167e-12,1.36323306e-12,1.542085521e-12,8.65940844e-13,5.458058124e-13,7.074835618e-13,1.986512412e-13,5.599165168e-13,5.210566153e-13,1.106475091e-12,2.097724552e-12,2.468245446e-12,2.599069971e-12,1.107642284e-12,1.092691439e-12,5.049444732e-13,1.391598109e-12,1.431364888e-12,3.103821953e-13,2.657916789e-13,6.443047821e-13,2.069706656e-13,1.005324266e-12,1.003034286e-12,6.691582678e-13,1.242097873e-12,1.054128557e-12,2.118447913e-12,1.482535016e-12,4.037698683e-12,3.306701157e-13
0.640625,1.070741929e-12,1.577501605e-12,1.359529402e-12,1.533217888e-12,8.645702691e-13,5.380476845e-13,7.072104092e-13,1.964238135e-13,5.542195917e-13,5.222411557e-13,1.095770104e-12,2.069411712e-12,2.426530764e-12,2.551452777e-12,1.088879552e-12,1.076167066e-12,4.991583134e-13,1.363325619e-12,1.406411069e-12,3.095573425e-13,2.651625007e-13,6.384467551e-13,2.005438003e-13,9.910480001e-13,9.828232876e-13,6.705951914e-13,1.23701349e-12,1.040512814e-12,2.103281301e-12,1.473445433e-12,4.011456141e-12,3.301489694e-13
0.6484375,1.057280252e-12,1.572095563e-12,1.355599068e-12,1.524317143e-12,8.635546338e-13,5.301044134e-13,7.07206843e-13,1.940097785e-13,5.483624504e-13,5.231592631e-13,1.085036213e-12,2.040658717e-12,2.385369458e-12,2.504292525e-12,1.070934546e-12,1.060312522e-12,4.937217406e-13,1.335721558e-12,1.381709551e-12,3.088449841e-13,2.644869101e-13,6.325913425e-13,1.941992416e-13,9.769673672e-13,9.631686873e-13,6.724492613e-13,1.232240355e-12,1.027078422e-12,2.087811138e-12,1.464020555e-12,3.983887426e-12,3.297150029e-13
0.65625,1.043717382e-12,1.566594463e-12,1.351332275e-12,1.515304108e-12,8.626593105e-13,5.219332646e-13,7.074565336e-13,1.91476127e-13,5.424172176e-13,5.23972408e-13,1.074231435e-12,2.011825513e-12,2.344413181e-12,2.457231497e-12,1.05305888e-12,1.044573515e-12,4.884745413e-13,1.308307726e-12,1.357182702e-12,3.081608915e-13,2.638832608e-13,6.266902796e-13,1.879196549e-13,9.631292687e-13,9.436621199e-13,6.74526819e-13,1.227541891e-12,1.013678008e-12,2.072060356e-12,1.45441953e-12,3.955142689e-12,3.293608431e-13
0.6640625,1.030372115e-12,1.561072576e-12,1.346787243e-12,1.506229193e-12,8.617602154e-13,5.137418195e-13,7.078096962e-13,1.889987094e-13,5.365210721e-13,5.248805988e-13,1.063283675e-12,1.983301109e-12,2.303578608e-12,2.410387075e-12,1.035147817e-12,1.028831652e-12,4.834505608e-13,1.280870369e-12,1.332744944e-12,3.07702516e-13,2.634134522e-13,6.208498646e-13,1.819483965e-13,9.496739889e-13,9.243939625e-13,6.767586688e-13,1.222882874e-12,1.000456893e-12,2.056141449e-12,1.444938483e-12,3.925285841e-12,3.290738773e-13
0.671875,1.017287708e-12,1.55549622e-12,1.342172494e-12,1.496966572e-12,8.609025722e-13,5.055312421e-13,7.080518341e-13,1.865434948e-13,5.306738138e-13,5.257005921e-13,1.052248673e-12,1.954842241e-12,2.263344178e-12,2.363874558e-12,1.01752273e-12,1.013260971e-12,4.785319592e-13,1.253674666e-12,1.308495978e-12,3.073251285e-13,2.630311983e-13,6.152443039e-13,1.763520392e-13,9.365989746e-13,9.056745724e-13,6.790856636e-13,1.218226419e-12,9.875806948e-13,2.040018576e-12,1.435586294e-12,3.894516072e-12,3.288538381e-13
0.6796875,1.004297812e-12,1.549794586e-12,1.337697451e-12,1.487482611e-12,8.601289306e-13,4.971762817e-13,7.083429467e-13,1.839798872e-13,5.249128045e-13,5.262317751e-13,1.04101159e-12,1.926331458e-12,2.224002024e-12,2.317639841e-12,1.000118846e-12,9.978535151e-13,4.736401738e-13,1.226872948e-12,1.284644587e-12,3.06771624e-13,2.625935738e-13,6.099459517e-13,1.709467246e-13,9.237688281e-13,8.874113531e-13,6.815457381e-13,1.213648329e-12,9.750591682e-13,2.0236489e-12,1.426046861e-12,3.862400643e-12,3.287511372e-13
0.6875,9.914240692e-13,1.543984732e-12,1.333349787e-12,1.47795107e-12,8.594212089e-13,4.887533007e-13,7.090489271e-13,1.813473307e-13,5.193288146e-13,5.266740777e-13,1.029368403e-12,1.897917947e-12,2.185363804e-12,2.271589068e-12,9.828039909e-13,9.825773337e-13,4.689168305e-13,1.200484937e-12,1.261287855e-12,3.063321038e-13,2.620655572e-13,6.049243278e-13,1.656369907e-13,9.112287984e-13,8.693800912e-13,6.841978016e-13,1.209345358e-12,9.628461017e-13,2.007209988e-12,1.416316496e-12,3.829160914e-12,3.287990902e-13
0.6953125,9.789291112e-13,1.538296424e-12,1.329018735e-12,1.468396067e-12,8.587298537e-13,4.803425434e-13,7.100138794e-13,1.787497431e-13,5.138351344e-13,5.27161909e-13,1.017466954e-12,1.869354118e-12,2.147295019e-12,2.22553643e-12,9.65627325e-13,9.674411526e-13,4.643095985e-13,1.174559132e-12,1.238415827e-12,3.061374005e-13,2.616843176e-13,6.001856918e-13,1.605403817e-13,8.991363596e-13,8.515882313e-13,6.868311249e-13,1.205156235e-12,9.508573394e-13,1.99078367e-12,1.406771839e-12,3.795881568e-12,3.289659877e-13
0.703125,9.667281296e-13,1.532717853e-12,1.324630386e-12,1.458792006e-12,8.581624537e-13,4.718726608e-13,7.109513877e-13,1.761555163e-13,5.083512572e-13,5.27525533e-13,1.005639279e-12,1.840659411e-12,2.109961556e-12,2.179773382e-12,9.487089152e-13,9.524712704e-13,4.597659129e-13,1.149063749e-12,1.21591878e-12,3.059729997e-13,2.615150808e-13,5.957213218e-13,1.557977358e-13,8.875440746e-13,8.342914894e-13,6.89505579e-13,1.20095899e-12,9.391463182e-13,1.974247483e-12,1.397427584e-12,3.761699122e-12,3.29231965e-13
0.7109375,9.545730334e-13,1.526997589e-12,1.320179544e-12,1.449222197e-12,8.578745807e-13,4.633304649e-13,7.120903597e-13,1.735138444e-13,5.03042326e-13,5.27817291e-13,9.940397477e-13,1.812475393e-12,2.073644665e-12,2.134991576e-12,9.323115303e-13,9.378781131e-13,4.554742218e-13,1.12411147e-12,1.193761747e-12,3.060556778e-13,2.612396502e-13,5.914845279e-13,1.513333865e-13,8.763577269e-13,8.177181345e-13,6.926117506e-13,1.197114516e-12,9.279745417e-13,1.95772173e-12,1.388110576e-12,3.725496644e-12,3.29651074e-13
0.71875,9.427708527e-13,1.521373628e-12,1.315871517e-12,1.439692218e-12,8.57799064e-13,4.547876113e-13,7.135755939e-13,1.70898439e-13,4.979645963e-13,5.281761717e-13,9.825779328e-13,1.784796653e-12,2.038367953e-12,2.091091135e-12,9.164897476e-13,9.238255244e-13,4.514853589e-13,1.099981779e-12,1.172228622e-12,3.065484297e-13,2.607895849e-13,5.875234468e-13,1.470021334e-13,8.652858499e-13,8.01641187e-13,6.960369063e-13,1.193690097e-12,9.172927467e-13,1.941401089e-12,1.378930388e-12,3.689355901e-12,3.303172015e-13
0.7265625,9.314855945e-13,1.5160814e-12,1.311838103e-12,1.430106132e-12,8.578488084e-13,4.462539579e-13,7.151094091e-13,1.683776914e-13,4.928956392e-13,5.283922488e-13,9.710931038e-13,1.756995604e-12,2.003773943e-12,2.047493057e-12,9.010108339e-13,9.101663215e-13,4.477891181e-13,1.076576657e-12,1.151412915e-12,3.071660051e-13,2.604482946e-13,5.83846923e-13,1.428828534e-13,8.54211509e-13,7.857758769e-13,6.994930393e-13,1.190332118e-12,9.067289406e-13,1.925100214e-12,1.369879481e-12,3.654818779e-12,3.312085978e-13
0.734375,9.202036164e-13,1.510684619e-12,1.30782573e-12,1.420396901e-12,8.580552878e-13,4.377234991e-13,7.16547901e-13,1.658843081e-13,4.877995e-13,5.283837339e-13,9.597267754e-13,1.729149093e-12,1.969744388e-12,2.004396964e-12,8.861061325e-13,8.968444144e-13,4.444430283e-13,1.053565117e-12,1.130879105e-12,3.079814986e-13,2.602101873e-13,5.803506241e-13,1.390183428e-13,8.435293075e-13,7.703895151e-13,7.031338204e-13,1.187076903e-12,8.963618767e-13,1.908695837e-12,1.360853502e-12,3.619812928e-12,3.321095847e-13
0.7421875,9.089388644e-13,1.505141123e-12,1.303702779e-12,1.410739302e-12,8.584340379e-13,4.292376825e-13,7.180290363e-13,1.633294445e-13,4.829270274e-13,5.28370735e-13,9.487239569e-13,1.701833003e-12,1.936641144e-12,1.962269416e-12,8.721145908e-13,8.839729755e-13,4.412680089e-13,1.031017207e-12,1.110531658e-12,3.091926371e-13,2.59890105e-13,5.771144813e-13,1.352381458e-13,8.334171016e-13,7.556854436e-13,7.070043768e-13,1.184109832e-12,8.865458906e-13,1.892453087e-12,1.35197133e-12,3.583170663e-12,3.329054556e-13
0.75,8.98308146e-13,1.500033e-12,1.299618602e-12,1.401417971e-12,8.590519525e-13,4.2084276e-13,7.196042841e-13,1.607483608e-13,4.783399215e-13,5.283604045e-13,9.378087426e-13,1.675171641e-12,1.904542519e-12,1.920941919e-12,8.584717394e-13,8.71336568e-13,4.380997745e-13,1.009106978e-12,1.09084116e-12,3.104727558e-13,2.596074174e-13,5.74296873e-13,1.315879485e-13,8.234405125e-13,7.413428392e-13,7.109013943e-13,1.181219192e-12,8.771071318e-13,1.876453837e-12,1.343238023e-12,3.546703642e-12,3.337655297e-13
0.7578125,8.881006054e-13,1.495186126e-12,1.295363306e-12,1.392163212e-12,8.59910342e-13,4.125920932e-13,7.211932554e-13,1.582162703e-13,4.7381936e-13,5.282692987e-13,9.264953929e-13,1.64883197e-12,1.873121851e-12,1.880109413e-12,8.446835263e-13,8.587497528e-13,4.350805381e-13,9.876783085e-13,1.07181218e-12,3.116302931e-13,2.594583257e-13,5.717396195e-13,1.282615791e-13,8.134720157e-13,7.27181884e-13,7.148349149e-13,1.178259239e-12,8.676964099e-13,1.860408549e-12,1.334536507e-12,3.511546608e-12,3.347783171e-13
0.765625,8.776717944e-13,1.490003055e-12,1.290619944e-12,1.382467029e-12,8.608329481e-13,4.044930056e-13,7.22779676e-13,1.557065595e-13,4.692800027e-13,5.282223457e-13,9.148510577e-13,1.622563259e-12,1.842385543e-12,1.839822048e-12,8.313262387e-13,8.465591695e-13,4.322958254e-13,9.666486516e-13,1.05297721e-12,3.128640409e-13,2.592247027e-13,5.692506557e-13,1.251310958e-13,8.038655944e-13,7.13327535e-13,7.189466571e-13,1.175483106e-12,8.584305114e-13,1.844210584e-12,1.325911656e-12,3.477034019e-12,3.358186896e-13
0.7734375,8.67347436e-13,1.48478662e-12,1.285734765e-12,1.372598796e-12,8.618201461e-13,3.964662464e-13,7.244616446e-13,1.531789969e-13,4.64921524e-13,5.282980089e-13,9.033409547e-13,1.596625807e-12,1.812687374e-12,1.800204686e-12,8.186534888e-13,8.34845125e-13,4.296582501e-13,9.46144283e-13,1.03435286e-12,3.141653202e-13,2.58874175e-13,5.670607176e-13,1.220529096e-13,7.946371675e-13,6.998446973e-13,7.232718855e-13,1.173080275e-12,8.495921255e-13,1.828138596e-12,1.31752824e-12,3.442436506e-12,3.369073925e-13
0.78125,8.578978094e-13,1.480106375e-12,1.281218997e-12,1.363055216e-12,8.630064803e-13,3.885148575e-13,7.261909499e-13,1.506850333e-13,4.608979363e-13,5.283626381e-13,8.921706898e-13,1.571328287e-12,1.784210072e-12,1.761271145e-12,8.060455645e-13,8.23120301e-13,4.27065688e-13,9.261721721e-13,1.016394565e-12,3.154090511e-13,2.587351118e-13,5.65552299e-13,1.192095509e-13,7.85629093e-13,6.867869549e-13,7.275911847e-13,1.170825092e-12,8.412759109e-13,1.81243426e-12,1.309750652e-12,3.40754965e-12,3.381878892e-13
0.7890625,8.492938689e-13,1.475859267e-12,1.277007627e-12,1.353696805e-12,8.643541079e-13,3.80745346e-13,7.278060585e-13,1.482545521e-13,4.571022492e-13,5.281894128e-13,8.811261736e-13,1.54635113e-12,1.756890296e-12,1.723081851e-12,7.935145748e-13,8.113566492e-13,4.244624581e-13,9.067644554e-13,9.993275982e-13,3.166626923e-13,2.588652859e-13,5.647548544e-13,1.166971962e-13,7.769116497e-13,6.740977075e-13,7.316428343e-13,1.168482029e-12,8.333963713e-13,1.797040895e-12,1.302706617e-12,3.373001472e-12,3.396288449e-13
0.796875,8.40984153e-13,1.471865418e-12,1.272868999e-12,1.344457186e-12,8.65923847e-13,3.731750697e-13,7.295267529e-13,1.458575158e-13,4.534291341e-13,5.278044785e-13,8.700642593e-13,1.521518151e-12,1.730611824e-12,1.685814019e-12,7.816034066e-13,7.999704086e-13,4.220091254e-13,8.880901675e-13,9.830243811e-13,3.180608566e-13,2.589000551e-13,5.643735917e-13,1.143384775e-13,7.683641455e-13,6.616061221e-13,7.357168424e-13,1.16632163e-12,8.257649368e-13,1.78192717e-12,1.295835871e-12,3.339815613e-12,3.411349136e-13
0.8046875,8.329195585e-13,1.468344038e-12,1.268833449e-12,1.335692434e-12,8.678991018e-13,3.658020193e-13,7.316929361e-13,1.435012916e-13,4.499721452e-13,5.276418156e-13,8.59246403e-13,1.497387124e-12,1.705380012e-12,1.649552125e-12,7.701529041e-13,7.889872438e-13,4.19934636e-13,8.701595072e-13,9.673218556e-13,3.197073715e-13,2.587655059e-13,5.642585381e-13,1.120264602e-13,7.598286479e-13,6.49436152e-13,7.402444399e-13,1.1646836e-12,8.183820706e-13,1.767268199e-12,1.288981181e-12,3.307671565e-12,3.427139604e-13
0.8125,8.255281792e-13,1.465440904e-12,1.264964011e-12,1.327466696e-12,8.702493765e-13,3.586807406e-13,7.340855476e-13,1.411718179e-13,4.467822787e-13,5.278147887e-13,8.487918533e-13,1.474131071e-12,1.681297883e-12,1.61422627e-12,7.58976726e-13,7.783580635e-13,4.182142982e-13,8.52901221e-13,9.522777535e-13,3.216104359e-13,2.588016117e-13,5.645901259e-13,1.098655369e-13,7.515585448e-13,6.377654953e-13,7.450301219e-13,1.163396023e-12,8.114386156e-13,1.75306164e-12,1.282811928e-12,3.275408884e-12,3.443902355e-13
0.8203125,8.188175723e-13,1.462896985e-12,1.261267105e-12,1.319484149e-12,8.729057137e-13,3.517558206e-13,7.363567912e-13,1.387986144e-13,4.437536222e-13,5.277799128e-13,8.38320721e-13,1.45120827e-12,1.658321993e-12,1.579792039e-12,7.484794354e-13,7.682137002e-13,4.166991452e-13,8.363609183e-13,9.379863609e-13,3.237206444e-13,2.590323171e-13,5.654892407e-13,1.079739012e-13,7.436275966e-13,6.264084002e-13,7.498128041e-13,1.162215052e-12,8.048814358e-13,1.739079708e-12,1.277323427e-12,3.243219892e-12,3.461662316e-13
0.828125,8.12335478e-13,1.460349205e-12,1.257761547e-12,1.311500306e-12,8.758547011e-13,3.449863545e-13,7.386300815e-13,1.364098419e-13,4.408455147e-13,5.273034125e-13,8.276458843e-13,1.428441226e-12,1.636273942e-12,1.546144057e-12,7.385897e-13,7.583051146e-13,4.15232808e-13,8.204863733e-13,9.243285724e-13,3.260224441e-13,2.591397073e-13,5.668133173e-13,1.062886594e-13,7.356806636e-13,6.152342925e-13,7.546934763e-13,1.161137677e-12,7.985297452e-13,1.725264277e-12,1.271775315e-12,3.211895707e-12,3.480353653e-13
0.8359375,8.060090061e-13,1.457809477e-12,1.254427915e-12,1.30349232e-12,8.789749631e-13,3.385121253e-13,7.410877534e-13,1.341092351e-13,4.381096853e-13,5.267759307e-13,8.171097284e-13,1.406110046e-12,1.61506936e-12,1.51312479e-12,7.287581304e-13,7.482736449e-13,4.136765053e-13,8.051358697e-13,9.112201506e-13,3.28388618e-13,2.591426943e-13,5.684779491e-13,1.046759929e-13,7.27716834e-13,6.04382251e-13,7.596170058e-13,1.160067761e-12,7.924763342e-13,1.71167209e-12,1.266148899e-12,3.181171351e-12,3.499550502e-13
0.84375,8.001625868e-13,1.45561755e-12,1.251277741e-12,1.295676352e-12,8.822473657e-13,3.323693877e-13,7.436198909e-13,1.318721375e-13,4.355446056e-13,5.263614327e-13,8.069621106e-13,1.384323745e-12,1.594761159e-12,1.48090096e-12,7.191069958e-13,7.382808994e-13,4.121001846e-13,7.903497258e-13,8.987540463e-13,3.306509606e-13,2.593311302e-13,5.705736822e-13,1.031792668e-13,7.200871446e-13,5.939224817e-13,7.644471291e-13,1.158949747e-12,7.868518395e-13,1.698298592e-12,1.26094165e-12,3.15088132e-12,3.518787572e-13
0.8515625,7.948595883e-13,1.453907645e-12,1.248382687e-12,1.288177035e-12,8.857873874e-13,3.264348296e-13,7.461143952e-13,1.295829015e-13,4.331493025e-13,5.258506452e-13,7.970732086e-13,1.363082856e-12,1.575509289e-12,1.449785431e-12,7.100833482e-13,7.286485725e-13,4.106652913e-13,7.762501697e-13,8.869750276e-13,3.329060246e-13,2.596966943e-13,5.731564017e-13,1.018817511e-13,7.127633702e-13,5.838130341e-13,7.693135066e-13,1.157948151e-12,7.815824137e-13,1.685234459e-12,1.256144897e-12,3.121607339e-12,3.538282268e-13
0.859375,7.899608687e-13,1.452557957e-12,1.245811345e-12,1.280911688e-12,8.896351562e-13,3.207147823e-13,7.486951792e-13,1.272315905e-13,4.309826464e-13,5.252097713e-13,7.873097921e-13,1.34245893e-12,1.557454612e-12,1.419751512e-12,7.016430759e-13,7.194659618e-13,4.094596939e-13,7.628622619e-13,8.759374629e-13,3.354042399e-13,2.600116364e-13,5.762268672e-13,1.006877546e-13,7.05494487e-13,5.739496847e-13,7.744074251e-13,1.157146628e-12,7.766333954e-13,1.672611353e-12,1.251493101e-12,3.093494663e-12,3.55914983e-13
0.8671875,7.855359419e-13,1.451619948e-12,1.243659034e-12,1.273940984e-12,8.938418063e-13,3.152772386e-13,7.515143082e-13,1.249079396e-13,4.290688787e-13,5.2458914e-13,7.777485088e-13,1.322467759e-12,1.5405069e-12,1.390654141e-12,6.936868138e-13,7.107103922e-13,4.085574635e-13,7.501700584e-13,8.657535463e-13,3.382195246e-13,2.60293167e-13,5.798031106e-13,9.952583307e-14,6.983861707e-13,5.642482146e-13,7.797948507e-13,1.156527913e-12,7.721019863e-13,1.660440999e-12,1.24706383e-12,3.066599791e-12,3.581947332e-13
0.875,7.816859103e-13,1.451195994e-12,1.241890942e-12,1.267326446e-12,8.984081756e-13,3.101400021e-13,7.54446802e-13,1.226507481e-13,4.273867681e-13,5.239852029e-13,7.684595518e-13,1.303042616e-12,1.524519094e-12,1.362513849e-12,6.862843368e-13,7.022666797e-13,4.078754582e-13,7.381506697e-13,8.56353955e-13,3.411931714e-13,2.607426713e-13,5.83866439e-13,9.84661844e-14,6.917020769e-13,5.548903594e-13,7.853702804e-13,1.156072773e-12,7.680575539e-13,1.648716485e-12,1.243055419e-12,3.041225694e-12,3.6054498e-13
0.8828125,7.782961652e-13,1.451139146e-12,1.240290044e-12,1.260932458e-12,9.032315157e-13,3.053760876e-13,7.574052464e-13,1.204188047e-13,4.259559159e-13,5.233231773e-13,7.594260137e-13,1.284211593e-12,1.509620492e-12,1.335364612e-12,6.793463081e-13,6.940666135e-13,4.072944872e-13,7.268317448e-13,8.476114008e-13,3.442218192e-13,2.612998943e-13,5.88374234e-13,9.753243844e-14,6.853831915e-13,5.460381283e-13,7.910562226e-13,1.155772988e-12,7.644653694e-13,1.637492458e-12,1.239353373e-12,3.016963784e-12,3.629137218e-13
0.890625,7.753722283e-13,1.451489004e-12,1.238890054e-12,1.25482174e-12,9.083634693e-13,3.009687124e-13,7.606345442e-13,1.181842363e-13,4.248222664e-13,5.227424588e-13,7.507816554e-13,1.266160324e-12,1.495977709e-12,1.309194901e-12,6.728631898e-13,6.861972175e-13,4.068854568e-13,7.162524294e-13,8.395548358e-13,3.474403527e-13,2.617744123e-13,5.933821709e-13,9.668556032e-14,6.792096222e-13,5.374477497e-13,7.970011974e-13,1.15577736e-12,7.612079245e-13,1.62686072e-12,1.23586046e-12,2.993692121e-12,3.654568123e-13
0.8984375,7.731520979e-13,1.452552209e-12,1.237907283e-12,1.249141851e-12,9.138516111e-13,2.967667886e-13,7.640706967e-13,1.159737032e-13,4.239543041e-13,5.222916125e-13,7.425565663e-13,1.248818908e-12,1.483328685e-12,1.283845867e-12,6.668310815e-13,6.78525455e-13,4.065176493e-13,7.061970765e-13,8.321399301e-13,3.50839096e-13,2.623454966e-13,5.989978082e-13,9.591752275e-14,6.731588587e-13,5.2891939e-13,8.031156087e-13,1.156070159e-12,7.58202131e-13,1.616772148e-12,1.232840759e-12,2.972078342e-12,3.681967407e-13
0.90625,7.715004514e-13,1.454062733e-12,1.237150649e-12,1.243642804e-12,9.195500616e-13,2.927756165e-13,7.67234851e-13,1.138275269e-13,4.232482491e-13,5.216271516e-13,7.342941793e-13,1.231700588e-12,1.471238677e-12,1.259010241e-12,6.608787272e-13,6.707706262e-13,4.059933894e-13,6.963760191e-13,8.252049891e-13,3.541851945e-13,2.631656754e-13,6.051527319e-13,9.523842204e-14,6.671760858e-13,5.20631141e-13,8.090437368e-13,1.156255574e-12,7.554779203e-13,1.606887311e-12,1.230294556e-12,2.951384131e-12,3.709906459e-13
0.9140625,7.700034467e-13,1.455456039e-12,1.236321195e-12,1.238126487e-12,9.254703075e-13,2.89093668e-13,7.701524898e-13,1.117525307e-13,4.227073185e-13,5.207273443e-13,7.2585661e-13,1.214728115e-12,1.459794294e-12,1.234766127e-12,6.550277247e-13,6.631422605e-13,4.05612418e-13,6.869338658e-13,8.187357373e-13,3.575298835e-13,2.638424104e-13,6.116760971e-13,9.467200573e-14,6.610836624e-13,5.126857556e-13,8.14877434e-13,1.156279204e-12,7.530980133e-13,1.597045112e-12,1.227832594e-12,2.930561061e-12,3.73857243e-13
0.921875,7.688569867e-13,1.457094537e-12,1.235602002e-12,1.232998656e-12,9.317535582e-13,2.85682134e-13,7.732849153e-13,1.096982791e-13,4.224743159e-13,5.201597691e-13,7.179537856e-13,1.198553313e-12,1.449419294e-12,1.211643665e-12,6.499449683e-13,6.560401858e-13,4.05532025e-13,6.781523645e-13,8.128047413e-13,3.609934783e-13,2.642067011e-13,6.185824378e-13,9.421443277e-14,6.550830931e-13,5.049180813e-13,8.209165776e-13,1.15654536e-12,7.510789609e-13,1.587591534e-12,1.225535931e-12,2.911051006e-12,3.768566279e-13
0.9296875,7.684361666e-13,1.459564908e-12,1.235209291e-12,1.228599738e-12,9.383567289e-13,2.824988021e-13,7.767260922e-13,1.076077923e-13,4.225332812e-13,5.199972098e-13,7.108542695e-13,1.183399687e-12,1.440013123e-12,1.189770276e-12,6.456330866e-13,6.493002441e-13,4.053962795e-13,6.698835771e-13,8.073861172e-13,3.644513034e-13,2.647247957e-13,6.258883673e-13,9.381194028e-14,6.49506932e-13,4.972590853e-13,8.271280597e-13,1.157129584e-12,7.493327221e-13,1.578702928e-12,1.223772116e-12,2.894087079e-12,3.799152613e-13
0.9375,7.682994937e-13,1.462297311e-12,1.234918457e-12,1.22443083e-12,9.45199896e-13,2.795447065e-13,7.802159581e-13,1.055066723e-13,4.226260051e-13,5.196361689e-13,7.038475285e-13,1.168533839e-12,1.431103623e-12,1.168591993e-12,6.414853904e-13,6.426521953e-13,4.052621402e-13,6.619290834e-13,8.024301016e-13,3.680049265e-13,2.655271758e-13,6.33393789e-13,9.345379026e-14,6.441058299e-13,4.898523332e-13,8.335186117e-13,1.157828965e-12,7.476888337e-13,1.570062998e-12,1.222390181e-12,2.878425794e-12,3.830154952e-13
0.9453125,7.679655876e-13,1.464689585e-12,1.234481347e-12,1.219961858e-12,9.522869854e-13,2.767904582e-13,7.834930849e-13,1.034695337e-13,4.226632934e-13,5.189163794e-13,6.967191911e-13,1.153483825e-12,1.422685887e-12,1.147711119e-12,6.375984464e-13,6.363011154e-13,4.055081572e-13,6.544570604e-13,7.979287413e-13,3.717685787e-13,2.662640726e-13,6.410496974e-13,9.315413133e-14,6.386115683e-13,4.827634363e-13,8.401957755e-13,1.1586403e-12,7.461103409e-13,1.561575331e-12,1.221042097e-12,2.863600065e-12,3.861750625e-13
0.953125,7.678334181e-13,1.467439968e-12,1.23401945e-12,1.215765496e-12,9.596884743e-13,2.743155722e-13,7.865992438e-13,1.015189251e-13,4.228624465e-13,5.182279609e-13,6.901892213e-13,1.138752735e-12,1.415033881e-12,1.127412216e-12,6.343016743e-13,6.303320119e-13,4.059847575e-13,6.475998349e-13,7.939007109e-13,3.755098907e-13,2.669767299e-13,6.490567187e-13,9.288579662e-14,6.333286642e-13,4.758395424e-13,8.470713703e-13,1.159633382e-12,7.447249103e-13,1.553606514e-12,1.219760459e-12,2.850813894e-12,3.893559607e-13
0.9609375,7.684113475e-13,1.471305467e-12,1.233788233e-12,1.212605472e-12,9.675443701e-13,2.72217674e-13,7.898759383e-13,9.96340572e-14,4.233253586e-13,5.177263335e-13,6.845354111e-13,1.124837315e-12,1.408116348e-12,1.108102218e-12,6.313535963e-13,6.244664555e-13,4.064120591e-13,6.412656101e-13,7.904411806e-13,3.793168223e-13,2.679742923e-13,6.574557345e-13,9.26880965e-14,6.283931186e-13,4.689817127e-13,8.540546507e-13,1.160814321e-12,7.43588348e-13,1.546414513e-12,1.218864784e-12,2.84054554e-12,3.925920467e-13
0.96875,7.694945421e-13,1.475602773e-12,1.233802398e-12,1.209560993e-12,9.755731246e-13,2.703863025e-13,7.931899708e-13,9.781809619e-14,4.239636255e-13,5.17088248e-13,6.787857137e-13,1.11149967e-12,1.401769215e-12,1.089566771e-12,6.284594414e-13,6.185280314e-13,4.067743904e-13,6.352841407e-13,7.875049067e-13,3.833776436e-13,2.691272467e-13,6.66142295e-13,9.26495505e-14,6.23488397e-13,4.623124516e-13,8.608883558e-13,1.161789662e-12,7.42687056e-13,1.539550721e-12,1.218309171e-12,2.832446229e-12,3.958683883e-13
0.9765625,7.709120815e-13,1.479989452e-12,1.233943216e-12,1.206418845e-12,9.838283434e-13,2.687448469e-13,7.962531155e-13,9.606367879e-14,4.246095301e-13,5.164940829e-13,6.729848536e-13,1.098564369e-12,1.396018614e-12,1.071837141e-12,6.26085141e-13,6.129402608e-13,4.072788892e-13,6.297502179e-13,7.850262568e-13,3.874146396e-13,2.703688273e-13,6.749747324e-13,9.270056783e-14,6.188051066e-13,4.559094714e-13,8.677889639e-13,1.162772508e-12,7.42044446e-13,1.532870401e-12,1.21799514e-12,2.826727849e-12,3.991224885e-13
0.984375,7.72131451e-13,1.484140278e-12,1.234188392e-12,1.203456889e-12,9.925109069e-13,2.674050509e-13,7.995118758e-13,9.438648344e-14,4.253120927e-13,5.16112318e-13,6.675833971e-13,1.086002823e-12,1.390698653e-12,1.054789644e-12,6.241830431e-13,6.07631838e-13,4.078446834e-13,6.244521698e-13,7.828073852e-13,3.914714439e-13,2.715776709e-13,6.838212037e-13,9.268824052e-14,6.144738815e-13,4.496511059e-13,8.751152572e-13,1.16388252e-12,7.414982846e-13,1.526293681e-12,1.217279184e-12,2.822528501e-12,4.024681066e-13
0.9921875,7.732193996e-13,1.488523387e-12,1.234635018e-12,1.201084768e-12,1.001732824e-12,2.664209426e-13,8.034958773e-13,9.276845892e-14,4.261262718e-13,5.160590317e-13,6.629804312e-13,1.07392968e-12,1.385730242e-12,1.038537765e-12,6.227722904e-13,6.028551829e-13,4.087647316e-13,6.194927263e-13,7.808584213e-13,3.959714068e-13,2.72684398e-13,6.926646018e-13,9.26476759e-14,6.101782487e-13,4.435153921e-13,8.830480262e-13,1.16541018e-12,7.409264257e-13,1.520200021e-12,1.216470335e-12,2.819845958e-12,4.060265569e-13
1,7.746428217e-13,1.493420113e-12,1.235355915e-12,1.199124647e-12,1.011294781e-12,2.65722948e-13,8.076549919e-13,9.116236929e-14,4.270477442e-13,5.161310392e-13,6.590171234e-13,1.062412629e-12,1.381171072e-12,1.023162357e-12,6.219323174e-13,5.987010044e-13,4.101084753e-13,6.149753715e-13,7.792325773e-13,4.006684985e-13,2.737945311e-13,7.01658064e-13,9.272305722e-14,6.059128947e-13,4.375547896e-13,8.912447849e-13,1.16715902e-12,7.404749822e-13,1.514587646e-12,1.21599091e-12,2.819109277e-12,4.096404603e-13
1.0078125,7.763533334e-13,1.498526672e-12,1.236388659e-12,1.197473197e-12,1.021216646e-12,2.653003715e-13,8.114244742e-13,8.95893081e-14,4.281066582e-13,5.16211511e-13,6.554692043e-13,1.051532274e-12,1.377145006e-12,1.008617349e-12,6.215181509e-13,5.948359123e-13,4.116034662e-13,6.108215306e-13,7.779196397e-13,4.053181615e-13,2.749729264e-13,7.108706937e-13,9.287465303e-14,6.019701279e-13,4.31732241e-13,8.995359248e-13,1.168907867e-12,7.403189594e-13,1.509205955e-12,1.215629555e-12,2.820192656e-12,4.131874305e-13
1.015625,7.782280618e-13,1.503883962e-12,1.237640828e-12,1.196245081e-12,1.031526691e-12,2.651195288e-13,8.151273225e-13,8.811021282e-14,4.293285251e-13,5.163549035e-13,6.521736317e-13,1.041119319e-12,1.373741938e-12,9.947339277e-13,6.213264698e-13,5.911881188e-13,4.131694229e-13,6.070743608e-13,7.770760788e-13,4.102095417e-13,2.762235576e-13,7.203378969e-13,9.293264622e-14,5.98230028e-13,4.26003037e-13,9.07980026e-13,1.170762043e-12,7.403732603e-13,1.504159145e-12,1.215471653e-12,2.82315819e-12,4.167499246e-13
1.0234375,7.80428213e-13,1.509785906e-12,1.238938024e-12,1.195375301e-12,1.042016658e-12,2.650823755e-13,8.190804733e-13,8.671996511e-14,4.306684461e-13,5.164883275e-13,6.490238657e-13,1.03082849e-12,1.370815938e-12,9.812962193e-13,6.212026239e-13,5.877832479e-13,4.148469159e-13,6.037381237e-13,7.767741334e-13,4.152678693e-13,2.776251507e-13,7.300512508e-13,9.289123211e-14,5.945065686e-13,4.20380334e-13,9.16512269e-13,1.172697822e-12,7.404752181e-13,1.499563731e-12,1.215740669e-12,2.827917497e-12,4.203540917e-13
1.03125,7.827439649e-13,1.5158428e-12,1.240348906e-12,1.194575315e-12,1.052567816e-12,2.651812466e-13,8.232940224e-13,8.539008997e-14,4.320966828e-13,5.167361504e-13,6.463205004e-13,1.020732587e-12,1.368158038e-12,9.682863742e-13,6.212311594e-13,5.843610512e-13,4.164672297e-13,6.005236474e-13,7.766316702e-13,4.202884876e-13,2.790407555e-13,7.397915698e-13,9.28979481e-14,5.909178664e-13,4.14926226e-13,9.251684389e-13,1.174685667e-12,7.406913332e-13,1.495264733e-12,1.216114379e-12,2.83355701e-12,4.239763359e-13
1.0390625,7.850134454e-13,1.521662071e-12,1.242095628e-12,1.193687788e-12,1.063162731e-12,2.65507894e-13,8.277709064e-13,8.411268307e-14,4.336741823e-13,5.174010243e-13,6.444521295e-13,1.011274375e-12,1.365950615e-12,9.559797616e-13,6.217646344e-13,5.808886506e-13,4.178200795e-13,5.973246817e-13,7.764763542e-13,4.25295185e-13,2.802491862e-13,7.495156601e-13,9.299493054e-14,5.874776351e-13,4.097375799e-13,9.339647102e-13,1.176815351e-12,7.412393915e-13,1.491219465e-12,1.216563828e-12,2.839781695e-12,4.2764671e-13
1.046875,7.876566444e-13,1.527814463e-12,1.244162918e-12,1.193282529e-12,1.07408315e-12,2.662015557e-13,8.323682652e-13,8.286304266e-14,4.354496535e-13,5.182767498e-13,6.432772357e-13,1.002664996e-12,1.364520213e-12,9.447212998e-13,6.228979353e-13,5.776837109e-13,4.191269641e-13,5.945338635e-13,7.768228075e-13,4.300922256e-13,2.814854681e-13,7.594760213e-13,9.30883534e-14,5.841028827e-13,4.048216169e-13,9.429044152e-13,1.179167186e-12,7.421427642e-13,1.487763251e-12,1.217571211e-12,2.84708048e-12,4.313692112e-13
1.0546875,7.907692157e-13,1.534842517e-12,1.24640529e-12,1.194077986e-12,1.085846161e-12,2.673400546e-13,8.369676896e-13,8.162509134e-14,4.373357054e-13,5.189142065e-13,6.424339742e-13,9.946234527e-13,1.363786343e-12,9.345097282e-13,6.244874323e-13,5.75004833e-13,4.209161225e-13,5.924941054e-13,7.779914142e-13,4.348140453e-13,2.830358604e-13,7.696778019e-13,9.313413465e-14,5.80875191e-13,4.00057987e-13,9.52323121e-13,1.181928466e-12,7.431585248e-13,1.485217676e-12,1.219081711e-12,2.855246126e-12,4.351557509e-13
1.0625,7.93845963e-13,1.542255682e-12,1.248777174e-12,1.195618224e-12,1.098259276e-12,2.687620564e-13,8.415135021e-13,8.041801535e-14,4.391988095e-13,5.193409567e-13,6.418593061e-13,9.86657388e-13,1.363461939e-12,9.249116739e-13,6.26578646e-13,5.729355875e-13,4.232184728e-13,5.910605266e-13,7.796117111e-13,4.398940688e-13,2.846784908e-13,7.798751985e-13,9.319585016e-14,5.778992496e-13,3.953879825e-13,9.622965593e-13,1.184961703e-12,7.440927752e-13,1.483180452e-12,1.220498183e-12,2.864305289e-12,4.390241105e-13
1.0703125,7.966617645e-13,1.549521373e-12,1.251238431e-12,1.197105703e-12,1.110726196e-12,2.702630489e-13,8.458794057e-13,7.927502963e-14,4.410383775e-13,5.198787955e-13,6.417235463e-13,9.787270528e-13,1.363344504e-12,9.157022587e-13,6.292539844e-13,5.71380045e-13,4.256220106e-13,5.898892878e-13,7.81311591e-13,4.451409016e-13,2.86208427e-13,7.898766288e-13,9.331985224e-14,5.752136799e-13,3.908627595e-13,9.724329124e-13,1.187890255e-12,7.449953296e-13,1.481027004e-12,1.221611625e-12,2.875495837e-12,4.429113528e-13
1.078125,7.994678986e-13,1.556935666e-12,1.253737007e-12,1.198753685e-12,1.123338892e-12,2.718878105e-13,8.503017598e-13,7.822755513e-14,4.429227151e-13,5.206930408e-13,6.4213054e-13,9.712290188e-13,1.363120809e-12,9.071001718e-13,6.324638504e-13,5.70181737e-13,4.281015466e-13,5.887866319e-13,7.830731561e-13,4.505069967e-13,2.877760798e-13,7.995468808e-13,9.347342013e-14,5.727361069e-13,3.864284585e-13,9.827266773e-13,1.191016726e-12,7.459658501e-13,1.479015242e-12,1.222776345e-12,2.88917715e-12,4.467991532e-13
1.0859375,8.023847151e-13,1.564563502e-12,1.256295395e-12,1.200696251e-12,1.136267117e-12,2.737143276e-13,8.550482399e-13,7.726415369e-14,4.447852732e-13,5.215825464e-13,6.428846456e-13,9.640221102e-13,1.362531507e-12,8.990348453e-13,6.360300914e-13,5.692870546e-13,4.308993168e-13,5.877270977e-13,7.849367517e-13,4.564381426e-13,2.893609633e-13,8.089494369e-13,9.364399172e-14,5.702463969e-13,3.819595024e-13,9.933371512e-13,1.194519874e-12,7.469536463e-13,1.47737679e-12,1.224081789e-12,2.904039934e-12,4.507697476e-13
1.09375,8.050731855e-13,1.571715024e-12,1.258954393e-12,1.202390745e-12,1.149180474e-12,2.756791217e-13,8.597237077e-13,7.635174106e-14,4.465227155e-13,5.221961791e-13,6.43749262e-13,9.565228815e-13,1.361732056e-12,8.911410974e-13,6.397512252e-13,5.686673504e-13,4.339798564e-13,5.86750795e-13,7.868253763e-13,4.626855623e-13,2.907540835e-13,8.182333593e-13,9.384623969e-14,5.677724563e-13,3.775737403e-13,1.004045023e-12,1.19761613e-12,7.478945049e-13,1.475343636e-12,1.224944445e-12,2.91956363e-12,4.54828186e-13
1.1015625,8.073081482e-13,1.578289964e-12,1.26169481e-12,1.203854262e-12,1.161892578e-12,2.777706888e-13,8.6420701e-13,7.550277077e-14,4.482432737e-13,5.227193761e-13,6.448749708e-13,9.488575774e-13,1.360960589e-12,8.83491634e-13,6.436931073e-13,5.682233495e-13,4.370763597e-13,5.858098082e-13,7.886257738e-13,4.687746826e-13,2.920568694e-13,8.273110038e-13,9.40081948e-14,5.656122264e-13,3.734823727e-13,1.014812343e-12,1.200097636e-12,7.488872003e-13,1.472680976e-12,1.22509772e-12,2.936533983e-12,4.588904313e-13
1.109375,8.095286583e-13,1.58492119e-12,1.264518438e-12,1.205478524e-12,1.174392576e-12,2.800174037e-13,8.69089888e-13,7.471529164e-14,4.500961896e-13,5.236453531e-13,6.464049382e-13,9.415559965e-13,1.360183303e-12,8.762741011e-13,6.478167294e-13,5.677291384e-13,4.398869898e-13,5.847834476e-13,7.904159783e-13,4.748470722e-13,2.934768254e-13,8.361607256e-13,9.40898072e-14,5.637474774e-13,3.695502238e-13,1.025753855e-12,1.202626979e-12,7.500234152e-13,1.470205824e-12,1.225180487e-12,2.954697791e-12,4.629432206e-13
1.1171875,8.120954791e-13,1.591597274e-12,1.267593e-12,1.207131898e-12,1.186704673e-12,2.823735747e-13,8.742791538e-13,7.396113628e-14,4.519754334e-13,5.248167224e-13,6.480517875e-13,9.345152193e-13,1.359318662e-12,8.692607242e-13,6.517303766e-13,5.67033815e-13,4.424648453e-13,5.83730035e-13,7.924363078e-13,4.808869676e-13,2.949519665e-13,8.449631614e-13,9.423858402e-14,5.61894152e-13,3.655306221e-13,1.036611304e-12,1.205125777e-12,7.512255929e-13,1.468065062e-12,1.225691956e-12,2.972806926e-12,4.670631988e-13
1.125,8.147062867e-13,1.597916713e-12,1.271047302e-12,1.208716082e-12,1.199068838e-12,2.848337333e-13,8.790575776e-13,7.328831058e-14,4.537371387e-13,5.2578555e-13,6.495793873e-13,9.274588883e-13,1.358311705e-12,8.623189524e-13,6.554503648e-13,5.663574044e-13,4.452362094e-13,5.827975372e-13,7.94686181e-13,4.867268531e-13,2.964730466e-13,8.53682642e-13,9.453789029e-14,5.600702027e-13,3.614846325e-13,1.047162002e-12,1.207130705e-12,7.524000416e-13,1.465711958e-12,1.226310127e-12,2.990853772e-12,4.712586317e-13
1.1328125,8.170892121e-13,1.603960544e-12,1.274708223e-12,1.210362213e-12,1.2114813e-12,2.874488985e-13,8.835571298e-13,7.273725974e-14,4.554474385e-13,5.266512008e-13,6.510987266e-13,9.20574279e-13,1.357034684e-12,8.556195299e-13,6.592393908e-13,5.658139296e-13,4.480979613e-13,5.818855791e-13,7.968967036e-13,4.92476643e-13,2.981742576e-13,8.621368251e-13,9.481640318e-14,5.584570178e-13,3.574955409e-13,1.057514656e-12,1.208832388e-12,7.534735263e-13,1.463108344e-12,1.226506998e-12,3.009676237e-12,4.754025093e-13
1.140625,8.192711304e-13,1.609737422e-12,1.278510427e-12,1.211935478e-12,1.22366116e-12,2.902366277e-13,8.88351396e-13,7.224298703e-14,4.571561085e-13,5.276489352e-13,6.527700693e-13,9.139787373e-13,1.355497038e-12,8.491967293e-13,6.629301611e-13,5.651140038e-13,4.504443377e-13,5.808283114e-13,7.989410898e-13,4.97991452e-13,2.999205671e-13,8.702644817e-13,9.496525066e-14,5.570053129e-13,3.534689399e-13,1.06776299e-12,1.210424493e-12,7.543691333e-13,1.460453691e-12,1.226207036e-12,3.029323652e-12,4.794378517e-13
1.1484375,8.212709957e-13,1.61514668e-12,1.282687629e-12,1.213455034e-12,1.235662327e-12,2.93179533e-13,8.933206888e-13,7.177996187e-14,4.588106534e-13,5.287163884e-13,6.546880981e-13,9.074993469e-13,1.353905188e-12,8.430220826e-13,6.665772584e-13,5.643082421e-13,4.523141061e-13,5.797309888e-13,8.009547618e-13,5.032069768e-13,3.015082571e-13,8.780571147e-13,9.513572929e-14,5.556318154e-13,3.494684439e-13,1.077875875e-12,1.211825069e-12,7.552164706e-13,1.457803528e-12,1.225817868e-12,3.049676149e-12,4.834505381e-13
1.15625,8.232648022e-13,1.620718509e-12,1.287104735e-12,1.215492597e-12,1.247744568e-12,2.96168915e-13,8.982173864e-13,7.139776588e-14,4.604278368e-13,5.298602401e-13,6.570825611e-13,9.010927324e-13,1.352363644e-12,8.371780631e-13,6.706043472e-13,5.638724052e-13,4.543655819e-13,5.78825975e-13,8.031444532e-13,5.088215147e-13,3.031043301e-13,8.855817787e-13,9.54242922e-14,5.544491885e-13,3.456109565e-13,1.087985678e-12,1.213312518e-12,7.56137705e-13,1.455373523e-12,1.225635755e-12,3.071532445e-12,4.87484141e-13
1.1640625,8.252184244e-13,1.626403502e-12,1.291359303e-12,1.217840906e-12,1.259778007e-12,2.99075697e-13,9.031466681e-13,7.116136416e-14,4.620473456e-13,5.308948017e-13,6.594727693e-13,8.946299999e-13,1.350670671e-12,8.313031406e-13,6.744866087e-13,5.635013307e-13,4.566621553e-13,5.779473384e-13,8.054423728e-13,5.149999331e-13,3.048450121e-13,8.929191305e-13,9.571104535e-14,5.534488331e-13,3.416848962e-13,1.097993244e-12,1.214608363e-12,7.568225788e-13,1.452856583e-12,1.225241406e-12,3.09408084e-12,4.915826655e-13
1.171875,8.269194958e-13,1.631784935e-12,1.29568211e-12,1.220098365e-12,1.271712368e-12,3.019673522e-13,9.082154985e-13,7.10489358e-14,4.63589885e-13,5.316956242e-13,6.617058706e-13,8.878635955e-13,1.348503868e-12,8.25108218e-13,6.779046551e-13,5.629604804e-13,4.590167909e-13,5.769132652e-13,8.076168747e-13,5.212915558e-13,3.06664279e-13,8.999678935e-13,9.593695151e-14,5.525956205e-13,3.374968801e-13,1.107963701e-12,1.215342607e-12,7.570268417e-13,1.449906195e-12,1.224435574e-12,3.116963569e-12,4.959418316e-13
1.1796875,8.281498529e-13,1.636524434e-12,1.300373295e-12,1.222154455e-12,1.283579297e-12,3.050435177e-13,9.13362975e-13,7.097502252e-14,4.650736422e-13,5.324297563e-13,6.639708412e-13,8.809834792e-13,1.345834655e-12,8.1888875e-13,6.811832964e-13,5.623750106e-13,4.612108291e-13,5.756531451e-13,8.094473094e-13,5.273286306e-13,3.084065152e-13,9.065598182e-13,9.624712762e-14,5.519674038e-13,3.333877332e-13,1.117975387e-12,1.215670448e-12,7.571725332e-13,1.446633705e-12,1.223319105e-12,3.139956648e-12,5.005222882e-13
1.1875,8.290166272e-13,1.640891199e-12,1.305087767e-12,1.224281431e-12,1.295486201e-12,3.08301111e-13,9.186508618e-13,7.091847198e-14,4.665614338e-13,5.334729521e-13,6.666659154e-13,8.744604126e-13,1.343057324e-12,8.132105457e-13,6.846547005e-13,5.620836604e-13,4.6343327e-13,5.744254052e-13,8.109808227e-13,5.332349058e-13,3.099243322e-13,9.125850878e-13,9.666630405e-14,5.515712607e-13,3.296751365e-13,1.128201311e-12,1.216206662e-12,7.57566904e-13,1.443385921e-12,1.221906483e-12,3.16328382e-12,5.050766004e-13
1.1953125,8.297799518e-13,1.645222058e-12,1.309697792e-12,1.226637445e-12,1.307550974e-12,3.116624193e-13,9.240106488e-13,7.100361275e-14,4.680149806e-13,5.347311346e-13,6.698403406e-13,8.682288921e-13,1.340379393e-12,8.080681978e-13,6.8832234e-13,5.621215697e-13,4.658181599e-13,5.734020285e-13,8.125072144e-13,5.391686316e-13,3.113519313e-13,9.180653219e-13,9.703378637e-14,5.513333689e-13,3.261437628e-13,1.138569221e-12,1.216860807e-12,7.578780506e-13,1.440158343e-12,1.220247604e-12,3.186905035e-12,5.096432255e-13
1.203125,8.305300041e-13,1.649353667e-12,1.31462764e-12,1.22911321e-12,1.319687085e-12,3.152069628e-13,9.291974516e-13,7.126653904e-14,4.693445684e-13,5.356506796e-13,6.731235031e-13,8.619692871e-13,1.337530893e-12,8.032433111e-13,6.922343325e-13,5.623534238e-13,4.682196445e-13,5.724160293e-13,8.142196372e-13,5.451294167e-13,3.130424743e-13,9.232114885e-13,9.735950102e-14,5.512520623e-13,3.225895513e-13,1.148808587e-12,1.217132892e-12,7.579473832e-13,1.436848933e-12,1.218633235e-12,3.210241036e-12,5.143912772e-13
1.2109375,8.309560785e-13,1.652706131e-12,1.319949065e-12,1.231513215e-12,1.331815079e-12,3.188885609e-13,9.342165951e-13,7.156809643e-14,4.704075151e-13,5.359941537e-13,6.764635569e-13,8.555408525e-13,1.334243757e-12,7.987155023e-13,6.965634656e-13,5.62869399e-13,4.707841732e-13,5.713974499e-13,8.159783804e-13,5.512005173e-13,3.148843819e-13,9.280936009e-13,9.779809003e-14,5.512066893e-13,3.191427501e-13,1.159054028e-12,1.217072881e-12,7.579507822e-13,1.433308563e-12,1.217024428e-12,3.232493795e-12,5.19296189e-13
1.21875,8.307838488e-13,1.655189164e-12,1.325359009e-12,1.23381229e-12,1.343999751e-12,3.224854426e-13,9.391795416e-13,7.188245592e-14,4.712230042e-13,5.361494944e-13,6.80200564e-13,8.488772932e-13,1.330492548e-12,7.942614008e-13,7.013077154e-13,5.637539915e-13,4.737680295e-13,5.704702971e-13,8.175297177e-13,5.575375137e-13,3.164734274e-13,9.324770655e-13,9.831346063e-14,5.510800684e-13,3.157918971e-13,1.169492506e-12,1.216907362e-12,7.577984393e-13,1.429332784e-12,1.214990059e-12,3.254058849e-12,5.243261857e-13
1.2265625,8.304019636e-13,1.657494586e-12,1.330737765e-12,1.236247244e-12,1.356111476e-12,3.260162234e-13,9.440196933e-13,7.23196706e-14,4.721152478e-13,5.365496735e-13,6.841872913e-13,8.42256893e-13,1.326374243e-12,7.897898731e-13,7.060264433e-13,5.647264961e-13,4.768897923e-13,5.69552988e-13,8.18827214e-13,5.639648034e-13,3.179691822e-13,9.363056169e-13,9.878620047e-14,5.511953391e-13,3.123692513e-13,1.179773431e-12,1.216602397e-12,7.574469673e-13,1.425167513e-12,1.212665889e-12,3.276269326e-12,5.294490256e-13
1.234375,8.30203779e-13,1.659795202e-12,1.336073015e-12,1.238811775e-12,1.367876174e-12,3.296298321e-13,9.486915377e-13,7.287909493e-14,4.731586147e-13,5.371222329e-13,6.878899181e-13,8.359535207e-13,1.322007685e-12,7.85542758e-13,7.102367541e-13,5.654991434e-13,4.79711972e-13,5.68430057e-13,8.199422982e-13,5.700770731e-13,3.197364681e-13,9.397735998e-13,9.92562126e-14,5.5186083e-13,3.08953933e-13,1.189606041e-12,1.215996226e-12,7.571397847e-13,1.420991638e-12,1.21061955e-12,3.298364559e-12,5.345216595e-13
1.2421875,8.297783089e-13,1.661337935e-12,1.34148259e-12,1.240892316e-12,1.378982578e-12,3.332724351e-13,9.53241211e-13,7.348576739e-14,4.740354546e-13,5.37540232e-13,6.911641292e-13,8.295316961e-13,1.317246931e-12,7.812056583e-13,7.138621292e-13,5.660015448e-13,4.820284978e-13,5.669736399e-13,8.207687764e-13,5.758019637e-13,3.215957797e-13,9.428083981e-13,9.977453698e-14,5.528016707e-13,3.056815275e-13,1.198954115e-12,1.214745941e-12,7.568108402e-13,1.416161732e-12,1.208560916e-12,3.318786631e-12,5.394392916e-13
1.25,8.286548917e-13,1.661819586e-12,1.347237062e-12,1.242109461e-12,1.389099346e-12,3.369068049e-13,9.57771767e-13,7.413213313e-14,4.746812195e-13,5.377141692e-13,6.940957813e-13,8.226328563e-13,1.311763716e-12,7.763096462e-13,7.169560069e-13,5.661046458e-13,4.837501048e-13,5.65107921e-13,8.210861375e-13,5.81315597e-13,3.232751979e-13,9.451584364e-13,1.002527701e-13,5.537431976e-13,3.024792512e-13,1.207600391e-12,1.212766122e-12,7.561901014e-13,1.410351744e-12,1.205757297e-12,3.338885296e-12,5.441283427e-13
1.2578125,8.270298695e-13,1.661683786e-12,1.353261892e-12,1.242962754e-12,1.398445594e-12,3.405463101e-13,9.623662772e-13,7.485933567e-14,4.752272432e-13,5.37682114e-13,6.967149859e-13,8.154519341e-13,1.305639333e-12,7.712009936e-13,7.197164705e-13,5.659328938e-13,4.852386299e-13,5.630150348e-13,8.209642965e-13,5.867033359e-13,3.249153859e-13,9.469110167e-13,1.006215441e-13,5.548938159e-13,2.992544639e-13,1.215620239e-12,1.210468769e-12,7.553420256e-13,1.404204848e-12,1.202459597e-12,3.3596118e-12,5.485943094e-13
1.265625,8.25242951e-13,1.661207215e-12,1.359237662e-12,1.243973141e-12,1.407603777e-12,3.440601944e-13,9.668081676e-13,7.570547225e-14,4.756376533e-13,5.373610648e-13,6.991019137e-13,8.079903709e-13,1.299262036e-12,7.661333602e-13,7.224427119e-13,5.659499042e-13,4.870632151e-13,5.610938645e-13,8.208053939e-13,5.921427299e-13,3.266802326e-13,9.483643625e-13,1.009872196e-13,5.56433837e-13,2.960084101e-13,1.223437146e-12,1.207909223e-12,7.544265261e-13,1.398018564e-12,1.199251177e-12,3.378935631e-12,5.53077694e-13
1.2734375,8.233820854e-13,1.660488911e-12,1.365244455e-12,1.245117731e-12,1.416563699e-12,3.474988156e-13,9.708969807e-13,7.665477957e-14,4.76005936e-13,5.367914149e-13,7.013109467e-13,8.003576243e-13,1.292769615e-12,7.608863053e-13,7.249512523e-13,5.661412203e-13,4.891352199e-13,5.594401283e-13,8.208465257e-13,5.97915716e-13,3.284765878e-13,9.495478223e-13,1.015047067e-13,5.581994398e-13,2.928238868e-13,1.231037611e-12,1.204913413e-12,7.534933834e-13,1.391628819e-12,1.195980439e-12,3.396653459e-12,5.577244264e-13
1.28125,8.214186718e-13,1.659579879e-12,1.371492144e-12,1.246270944e-12,1.425083133e-12,3.510771118e-13,9.748658964e-13,7.767080026e-14,4.764467863e-13,5.361650324e-13,7.0344843e-13,7.9294252e-13,1.286067702e-12,7.556639129e-13,7.271095994e-13,5.661847508e-13,4.910959721e-13,5.578566838e-13,8.209117345e-13,6.039408181e-13,3.302261319e-13,9.502815266e-13,1.021219732e-13,5.600845835e-13,2.897740935e-13,1.238253377e-12,1.201783662e-12,7.525650911e-13,1.385208594e-12,1.192442125e-12,3.414359388e-12,5.623616501e-13
1.2890625,8.191435761e-13,1.658041332e-12,1.37779238e-12,1.247161525e-12,1.433232284e-12,3.546699157e-13,9.788298485e-13,7.877490358e-14,4.767599088e-13,5.354321871e-13,7.056039313e-13,7.855387445e-13,1.278920647e-12,7.50603399e-13,7.292290724e-13,5.661069244e-13,4.928954442e-13,5.561176441e-13,8.206429715e-13,6.096652985e-13,3.319898644e-13,9.504857321e-13,1.026624727e-13,5.623078398e-13,2.867159874e-13,1.245193404e-12,1.198466949e-12,7.514797508e-13,1.378556039e-12,1.188624165e-12,3.430919251e-12,5.668700922e-13
1.296875,8.162605976e-13,1.655320837e-12,1.383940751e-12,1.247385103e-12,1.440857345e-12,3.581335214e-13,9.826559467e-13,7.997484745e-14,4.76874938e-13,5.344665871e-13,7.075214462e-13,7.779207419e-13,1.271045505e-12,7.453806131e-13,7.310432866e-13,5.657801236e-13,4.943620456e-13,5.539320978e-13,8.197494469e-13,6.147407589e-13,3.337113804e-13,9.501185301e-13,1.031557921e-13,5.650169415e-13,2.835137573e-13,1.251816932e-12,1.19446048e-12,7.501306783e-13,1.371061244e-12,1.18429038e-12,3.445176922e-12,5.713297394e-13
1.3046875,8.128471009e-13,1.651562849e-12,1.390044903e-12,1.247056668e-12,1.447756884e-12,3.616605011e-13,9.864703641e-13,8.126823304e-14,4.769735148e-13,5.333686026e-13,7.089594368e-13,7.703999644e-13,1.262594182e-12,7.400447865e-13,7.321351098e-13,5.649867348e-13,4.953817971e-13,5.512919094e-13,8.183109495e-13,6.195464473e-13,3.352717849e-13,9.492316188e-13,1.03749389e-13,5.680132676e-13,2.803402352e-13,1.257985136e-12,1.189897777e-12,7.487807479e-13,1.362836372e-12,1.179524231e-12,3.458555173e-12,5.758200509e-13
1.3125,8.093086978e-13,1.647232837e-12,1.396219781e-12,1.246528309e-12,1.454098314e-12,3.652313662e-13,9.902261468e-13,8.273460044e-14,4.770439873e-13,5.320546799e-13,7.099423165e-13,7.627619408e-13,1.254042203e-12,7.346592631e-13,7.328650763e-13,5.640009658e-13,4.962138563e-13,5.485908119e-13,8.167815e-13,6.244735141e-13,3.368834732e-13,9.481819301e-13,1.043940633e-13,5.712567482e-13,2.773157746e-13,1.263586418e-12,1.184885669e-12,7.475575419e-13,1.35415665e-12,1.174716209e-12,3.4713006e-12,5.803268863e-13
1.3203125,8.056835335e-13,1.642262865e-12,1.402465908e-12,1.245639968e-12,1.459842505e-12,3.686317493e-13,9.935833617e-13,8.436884108e-14,4.770222306e-13,5.302319847e-13,7.103977307e-13,7.54630784e-13,1.245458227e-12,7.288740296e-13,7.33314079e-13,5.629136769e-13,4.968724529e-13,5.459073396e-13,8.152745031e-13,6.292051203e-13,3.387655458e-13,9.470834554e-13,1.049830596e-13,5.749735355e-13,2.743052612e-13,1.268390668e-12,1.179012692e-12,7.461809447e-13,1.344735466e-12,1.16978019e-12,3.482303436e-12,5.847631245e-13
1.328125,8.015186005e-13,1.636272944e-12,1.40875822e-12,1.244125148e-12,1.46481166e-12,3.719424857e-13,9.966787294e-13,8.60390749e-14,4.769685318e-13,5.279866845e-13,7.10418685e-13,7.463849242e-13,1.236544977e-12,7.22768528e-13,7.332288591e-13,5.615775843e-13,4.97352169e-13,5.430050736e-13,8.133810009e-13,6.335442391e-13,3.405529633e-13,9.454253922e-13,1.055780903e-13,5.789697292e-13,2.712494954e-13,1.272561192e-12,1.172481355e-12,7.444750574e-13,1.334505702e-12,1.164427838e-12,3.491878733e-12,5.891629395e-13
1.3359375,7.967045997e-13,1.629322944e-12,1.415042261e-12,1.242071275e-12,1.469146657e-12,3.751921444e-13,9.996810937e-13,8.777826091e-14,4.768752386e-13,5.255504885e-13,7.102899265e-13,7.381492416e-13,1.227223515e-12,7.166400525e-13,7.329671537e-13,5.603185349e-13,4.981084637e-13,5.399593949e-13,8.109826819e-13,6.37960645e-13,3.41907058e-13,9.430158916e-13,1.062237684e-13,5.829017077e-13,2.681926689e-13,1.276461252e-12,1.165670424e-12,7.425831545e-13,1.323608234e-12,1.158679984e-12,3.500306867e-12,5.936312803e-13
1.34375,7.917527264e-13,1.621787039e-12,1.421353174e-12,1.239638849e-12,1.472835583e-12,3.782571277e-13,1.002244232e-12,8.972348087e-14,4.767721627e-13,5.228052625e-13,7.097441731e-13,7.296245708e-13,1.217692277e-12,7.103664532e-13,7.326185083e-13,5.591254758e-13,4.989916137e-13,5.368692388e-13,8.08399769e-13,6.425328936e-13,3.432597551e-13,9.403517148e-13,1.068402143e-13,5.87109816e-13,2.651810101e-13,1.279772299e-12,1.158281637e-12,7.407095408e-13,1.312037107e-12,1.152830529e-12,3.50690757e-12,5.979973811e-13
1.3515625,7.868865054e-13,1.613715476e-12,1.427769949e-12,1.236963394e-12,1.475816959e-12,3.813045945e-13,1.004423823e-12,9.183044891e-14,4.767078877e-13,5.19660922e-13,7.084161159e-13,7.209451716e-13,1.208103427e-12,7.038860327e-13,7.317265627e-13,5.574392598e-13,4.992380603e-13,5.336240426e-13,8.057802095e-13,6.467284608e-13,3.451014262e-13,9.375757646e-13,1.074283634e-13,5.920182737e-13,2.623086764e-13,1.282348351e-12,1.150409477e-12,7.388249111e-13,1.300182969e-12,1.147227358e-12,3.511741505e-12,6.021576308e-13
1.359375,7.816982137e-13,1.604928467e-12,1.434155214e-12,1.234089146e-12,1.478474067e-12,3.84428594e-13,1.006732996e-12,9.400567133e-14,4.765509891e-13,5.163201687e-13,7.066463002e-13,7.121443013e-13,1.198362175e-12,6.972001182e-13,7.302661844e-13,5.554309729e-13,4.990916882e-13,5.303275311e-13,8.030076335e-13,6.506239644e-13,3.471956983e-13,9.343245336e-13,1.080929617e-13,5.97276831e-13,2.59527207e-13,1.28493938e-12,1.142618896e-12,7.366227044e-13,1.288366238e-12,1.141664559e-12,3.515154281e-12,6.064548074e-13
1.3671875,7.760534212e-13,1.5955054e-12,1.440375295e-12,1.230861703e-12,1.480896182e-12,3.87399956e-13,1.009185853e-12,9.628690046e-14,4.762849994e-13,5.12947873e-13,7.047646529e-13,7.030916821e-13,1.188289363e-12,6.902351792e-13,7.28357306e-13,5.535164256e-13,4.992039879e-13,5.270817681e-13,7.999422284e-13,6.548255166e-13,3.491172271e-13,9.305542312e-13,1.088295634e-13,6.024570404e-13,2.56671186e-13,1.287639454e-12,1.134845697e-12,7.340510699e-13,1.276214894e-12,1.135644491e-12,3.516722922e-12,6.109880769e-13
1.375,7.703795656e-13,1.585687801e-12,1.446592447e-12,1.227315916e-12,1.482642303e-12,3.902501615e-13,1.011441043e-12,9.874354206e-14,4.761077029e-13,5.094997276e-13,7.026011647e-13,6.941636888e-13,1.177929134e-12,6.832905835e-13,7.260442157e-13,5.513767273e-13,4.991334069e-13,5.237208363e-13,7.96578859e-13,6.592066138e-13,3.509537882e-13,9.26459091e-13,1.095411323e-13,6.078462421e-13,2.538114779e-13,1.289499499e-12,1.126778159e-12,7.315173066e-13,1.26362606e-12,1.129362955e-12,3.516151825e-12,6.1537557e-13
1.3828125,7.648001504e-13,1.575559327e-12,1.452824152e-12,1.223709522e-12,1.48369846e-12,3.931525343e-13,1.013214207e-12,1.013674912e-13,4.76017435e-13,5.058088365e-13,7.000713147e-13,6.855182746e-13,1.167389098e-12,6.765112887e-13,7.235445618e-13,5.489062209e-13,4.985474295e-13,5.202652983e-13,7.930438895e-13,6.631066152e-13,3.530015847e-13,9.219922485e-13,1.102448687e-13,6.137722304e-13,2.511225691e-13,1.290287609e-12,1.118379926e-12,7.291174512e-13,1.250967923e-12,1.123064374e-12,3.514040296e-12,6.195298727e-13
1.390625,7.58961443e-13,1.565101802e-12,1.458753138e-12,1.219991168e-12,1.48431356e-12,3.959225973e-13,1.014392506e-12,1.040336534e-13,4.758486151e-13,5.018391683e-13,6.973482636e-13,6.767611135e-13,1.156548554e-12,6.694879141e-13,7.20758895e-13,5.464522895e-13,4.980422513e-13,5.168424811e-13,7.892640394e-13,6.664276516e-13,3.551786775e-13,9.170156066e-13,1.110338635e-13,6.198971447e-13,2.485846455e-13,1.290617532e-12,1.109621703e-12,7.264506475e-13,1.238216862e-12,1.116405308e-12,3.51137517e-12,6.236467502e-13
1.3984375,7.527919158e-13,1.55426924e-12,1.464484012e-12,1.215939205e-12,1.484261961e-12,3.984193966e-13,1.015430406e-12,1.066528002e-13,4.756130591e-13,4.977806543e-13,6.945789784e-13,6.678199801e-13,1.145360513e-12,6.621708223e-13,7.175443286e-13,5.439118946e-13,4.976206855e-13,5.133043969e-13,7.850569075e-13,6.695079159e-13,3.572262979e-13,9.115719987e-13,1.118831378e-13,6.259968758e-13,2.461217674e-13,1.290625099e-12,1.100543135e-12,7.234770185e-13,1.225189398e-12,1.109446194e-12,3.508202362e-12,6.276964678e-13
1.40625,7.464960789e-13,1.54284284e-12,1.470658913e-12,1.211542061e-12,1.483302116e-12,4.008443271e-13,1.016815744e-12,1.093590952e-13,4.754310828e-13,4.936318202e-13,6.916543548e-13,6.588932565e-13,1.134090994e-12,6.548753316e-13,7.141036507e-13,5.410440872e-13,4.967012137e-13,5.095716419e-13,7.805771898e-13,6.725088492e-13,3.59166117e-13,9.058788818e-13,1.127118933e-13,6.324955719e-13,2.437067481e-13,1.290007956e-12,1.091088066e-12,7.20619788e-13,1.211816962e-12,1.102578995e-12,3.503289967e-12,6.316338466e-13
1.4140625,7.399668976e-13,1.530516743e-12,1.477344317e-12,1.206777868e-12,1.481581675e-12,4.033871522e-13,1.018205097e-12,1.122634824e-13,4.75318408e-13,4.891562696e-13,6.882800069e-13,6.50014016e-13,1.122929485e-12,6.475768624e-13,7.103324728e-13,5.379375094e-13,4.954102619e-13,5.057602961e-13,7.759738313e-13,6.754188298e-13,3.610743805e-13,9.000571128e-13,1.135417745e-13,6.394573907e-13,2.413418911e-13,1.288713371e-12,1.081019968e-12,7.179972203e-13,1.197881361e-12,1.095732365e-12,3.495863535e-12,6.355390946e-13
1.421875,7.330639391e-13,1.517325851e-12,1.483831147e-12,1.201643839e-12,1.479304101e-12,4.060870533e-13,1.019221516e-12,1.152670624e-13,4.752218062e-13,4.843815042e-13,6.845159481e-13,6.412000151e-13,1.111877286e-12,6.402797166e-13,7.061692871e-13,5.347264404e-13,4.940764523e-13,5.019067e-13,7.71139632e-13,6.780990386e-13,3.628671135e-13,8.940101723e-13,1.144210375e-13,6.464663408e-13,2.391490156e-13,1.286978489e-12,1.070555705e-12,7.153686823e-13,1.183476688e-12,1.088878833e-12,3.486380294e-12,6.394572868e-13
1.4296875,7.260756318e-13,1.503652383e-12,1.489928014e-12,1.196307489e-12,1.476627531e-12,4.088281363e-13,1.020176345e-12,1.183432644e-13,4.752083059e-13,4.794852226e-13,6.806824689e-13,6.324284876e-13,1.101094996e-12,6.331352168e-13,7.01983886e-13,5.315748924e-13,4.926523106e-13,4.980902423e-13,7.662279578e-13,6.80492493e-13,3.645875134e-13,8.878127205e-13,1.153282808e-13,6.536897467e-13,2.372217662e-13,1.285109469e-12,1.060145572e-12,7.127199096e-13,1.169036005e-12,1.082161019e-12,3.475292064e-12,6.434961514e-13
1.4375,7.192163095e-13,1.489619122e-12,1.496262289e-12,1.190679494e-12,1.473566309e-12,4.113665696e-13,1.021250391e-12,1.215485832e-13,4.754022907e-13,4.744585415e-13,6.7667368e-13,6.236348071e-13,1.090687956e-12,6.25932158e-13,6.976596311e-13,5.28456897e-13,4.910882492e-13,4.943505337e-13,7.614361606e-13,6.828769974e-13,3.663373141e-13,8.817055108e-13,1.162632173e-13,6.614056311e-13,2.353678946e-13,1.283098262e-12,1.049700888e-12,7.102163732e-13,1.154499966e-12,1.075501584e-12,3.462816524e-12,6.477391038e-13
1.4453125,7.122906985e-13,1.475160504e-12,1.503113206e-12,1.184534935e-12,1.469948846e-12,4.137112306e-13,1.022259275e-12,1.248116289e-13,4.756539371e-13,4.693846763e-13,6.723747321e-13,6.148288955e-13,1.080322835e-12,6.184527673e-13,6.929480599e-13,5.250608158e-13,4.89235853e-13,4.90576889e-13,7.565327963e-13,6.854335261e-13,3.680800875e-13,8.755292702e-13,1.172947132e-13,6.692853306e-13,2.333359604e-13,1.280752025e-12,1.039132833e-12,7.077219489e-13,1.13963959e-12,1.068913065e-12,3.449996842e-12,6.520760406e-13
1.453125,7.050787721e-13,1.460344189e-12,1.509984132e-12,1.178191223e-12,1.465775795e-12,4.161777739e-13,1.023210921e-12,1.281901218e-13,4.758556773e-13,4.641549093e-13,6.677316735e-13,6.059819099e-13,1.069678679e-12,6.109016565e-13,6.881110274e-13,5.215648756e-13,4.872404112e-13,4.867628829e-13,7.513215116e-13,6.878319986e-13,3.698380472e-13,8.690112426e-13,1.184434221e-13,6.773663548e-13,2.311986869e-13,1.278088695e-12,1.028502396e-12,7.050197592e-13,1.124592244e-12,1.062331806e-12,3.436611964e-12,6.563912243e-13
1.4609375,6.979162979e-13,1.445602178e-12,1.516724167e-12,1.172000466e-12,1.461208758e-12,4.188411033e-13,1.024060511e-12,1.317581257e-13,4.761339849e-13,4.586861355e-13,6.627865391e-13,5.972777428e-13,1.059007068e-12,6.034436759e-13,6.832459781e-13,5.184150074e-13,4.857178856e-13,4.832693352e-13,7.460183538e-13,6.901544073e-13,3.717260753e-13,8.62323726e-13,1.196030234e-13,6.85864146e-13,2.29184188e-13,1.275257866e-12,1.017907132e-12,7.023172708e-13,1.109651179e-12,1.055573276e-12,3.422394587e-12,6.605820999e-13
1.46875,6.909545798e-13,1.430746078e-12,1.523480896e-12,1.165663919e-12,1.456006108e-12,4.214632718e-13,1.024447531e-12,1.353772135e-13,4.76634474e-13,4.529712476e-13,6.574858605e-13,5.887973279e-13,1.048589992e-12,5.958336896e-13,6.780237807e-13,5.152421587e-13,4.843899817e-13,4.799502985e-13,7.407508709e-13,6.92570026e-13,3.737389571e-13,8.55694754e-13,1.207035432e-13,6.945931484e-13,2.272993225e-13,1.271819231e-12,1.007092666e-12,6.997637532e-13,1.094667785e-12,1.048762293e-12,3.407075248e-12,6.645594934e-13
1.4765625,6.839706977e-13,1.415317111e-12,1.530207479e-12,1.158708173e-12,1.449905005e-12,4.238392872e-13,1.024442403e-12,1.389923619e-13,4.772209278e-13,4.470400813e-13,6.518769118e-13,5.801545932e-13,1.038315313e-12,5.878128424e-13,6.72333121e-13,5.114971516e-13,4.824164653e-13,4.765094152e-13,7.355265693e-13,6.949080887e-13,3.758244706e-13,8.490004287e-13,1.218662147e-13,7.035650808e-13,2.253972658e-13,1.267631873e-12,9.958882917e-13,6.970870893e-13,1.079316589e-12,1.041934915e-12,3.391148521e-12,6.684655173e-13
1.484375,6.767166067e-13,1.399184234e-12,1.536853411e-12,1.15096453e-12,1.443101303e-12,4.259423217e-13,1.024629372e-12,1.4275935e-13,4.777246924e-13,4.407991538e-13,6.458269214e-13,5.711484917e-13,1.027969687e-12,5.795130694e-13,6.66138827e-13,5.074109021e-13,4.801257138e-13,4.729892355e-13,7.302463879e-13,6.970735578e-13,3.778658047e-13,8.421140891e-13,1.231863924e-13,7.127690637e-13,2.234573116e-13,1.263255318e-12,9.843905125e-13,6.940681964e-13,1.063462027e-12,1.034810725e-12,3.374153062e-12,6.724820794e-13
1.4921875,6.690986596e-13,1.382476633e-12,1.543456677e-12,1.142604044e-12,1.435865462e-12,4.279527936e-13,1.025150876e-12,1.466670272e-13,4.782017075e-13,4.343087757e-13,6.392488734e-13,5.622246144e-13,1.01759984e-12,5.712699247e-13,6.59619287e-13,5.032899305e-13,4.779751639e-13,4.694113633e-13,7.246868705e-13,6.991038686e-13,3.797627327e-13,8.350597231e-13,1.245104325e-13,7.218234038e-13,2.215577228e-13,1.25880825e-12,9.728192201e-13,6.908513872e-13,1.047351408e-12,1.0275617e-12,3.354947281e-12,6.765272945e-13
1.5,6.613271419e-13,1.365470211e-12,1.549933013e-12,1.134067894e-12,1.428257487e-12,4.30103901e-13,1.025610255e-12,1.505827089e-13,4.787929223e-13,4.277570937e-13,6.324538873e-13,5.536181727e-13,1.007509709e-12,5.631559732e-13,6.531527543e-13,4.990626554e-13,4.75500987e-13,4.658024429e-13,7.189899362e-13,7.009660792e-13,3.816623736e-13,8.279499935e-13,1.257144812e-13,7.309614216e-13,2.197484e-13,1.253896587e-12,9.612445583e-13,6.876637014e-13,1.031296401e-12,1.020488241e-12,3.334357598e-12,6.804646317e-13
1.5078125,6.538046097e-13,1.348364337e-12,1.556320546e-12,1.125431831e-12,1.420095309e-12,4.32319922e-13,1.025787628e-12,1.545017531e-13,4.795422883e-13,4.211125614e-13,6.255408715e-13,5.450747184e-13,9.978490405e-13,5.550024938e-13,6.465175915e-13,4.946909933e-13,4.727355752e-13,4.623909862e-13,7.134565718e-13,7.027004062e-13,3.836895033e-13,8.209643663e-13,1.269442395e-13,7.40632848e-13,2.180658483e-13,1.248382675e-12,9.494837508e-13,6.84595239e-13,1.015179912e-12,1.013437838e-12,3.314308522e-12,6.842458904e-13
1.515625,6.46576181e-13,1.330994722e-12,1.562832019e-12,1.116348712e-12,1.411122414e-12,4.343911911e-13,1.025698645e-12,1.584538673e-13,4.803943543e-13,4.142375539e-13,6.181312403e-13,5.365513475e-13,9.882790566e-13,5.467931589e-13,6.393150511e-13,4.901162941e-13,4.701113949e-13,4.59143203e-13,7.078503939e-13,7.041798823e-13,3.858186295e-13,8.140730164e-13,1.283202419e-13,7.505382653e-13,2.164705832e-13,1.242249201e-12,9.374125775e-13,6.815776086e-13,9.987572513e-13,1.006383333e-12,3.294114001e-12,6.878830108e-13
1.5234375,6.392817999e-13,1.313192661e-12,1.569416048e-12,1.107002457e-12,1.401618196e-12,4.364415037e-13,1.025322252e-12,1.624917695e-13,4.812932819e-13,4.071096273e-13,6.101666618e-13,5.281887045e-13,9.785121362e-13,5.386783886e-13,6.318669285e-13,4.853684043e-13,4.674256965e-13,4.558247169e-13,7.019431479e-13,7.052728561e-13,3.880953461e-13,8.070571002e-13,1.297377356e-13,7.605472244e-13,2.148455541e-13,1.235699465e-12,9.251554807e-13,6.784939765e-13,9.821198588e-13,9.993444664e-13,3.271011705e-12,6.915540721e-13
1.53125,6.31770152e-13,1.295151021e-12,1.5758224e-12,1.097778713e-12,1.392019099e-12,4.386158946e-13,1.024695387e-12,1.666870878e-13,4.822827069e-13,3.998222362e-13,6.020496801e-13,5.199670118e-13,9.688717995e-13,5.306875464e-13,6.244857932e-13,4.807424138e-13,4.6463592e-13,4.525346902e-13,6.960333983e-13,7.062787987e-13,3.903429976e-13,7.999233127e-13,1.31103039e-13,7.708158741e-13,2.132233319e-13,1.229207437e-12,9.128844162e-13,6.753688355e-13,9.654513741e-13,9.921029387e-13,3.244796502e-12,6.953738867e-13
1.5390625,6.242898915e-13,1.277059053e-12,1.581987674e-12,1.088375442e-12,1.38193856e-12,4.407136604e-13,1.023930612e-12,1.709905514e-13,4.8348853e-13,3.925591018e-13,5.938616823e-13,5.119072175e-13,9.597363528e-13,5.22714469e-13,6.168731262e-13,4.761526737e-13,4.618803355e-13,4.493754579e-13,6.902437877e-13,7.072371691e-13,3.923198457e-13,7.928578921e-13,1.32467237e-13,7.811108766e-13,2.117909678e-13,1.222618683e-12,9.006858022e-13,6.723302648e-13,9.487925937e-13,9.849064434e-13,3.218356538e-12,6.9916435e-13
1.546875,6.17020874e-13,1.258787113e-12,1.587979307e-12,1.0785223e-12,1.370924369e-12,4.42631613e-13,1.023083967e-12,1.753444708e-13,4.849301979e-13,3.853809679e-13,5.853634265e-13,5.040189675e-13,9.510561962e-13,5.146929333e-13,6.088617266e-13,4.711779625e-13,4.587879986e-13,4.461615554e-13,6.844224748e-13,7.078473205e-13,3.943393885e-13,7.859393612e-13,1.339112296e-13,7.915192713e-13,2.105888743e-13,1.215411435e-12,8.88470293e-13,6.694382555e-13,9.320724609e-13,9.781736926e-13,3.192887743e-12,7.028145538e-13
1.5546875,6.097848354e-13,1.240107913e-12,1.593874987e-12,1.068333162e-12,1.35930534e-12,4.444961143e-13,1.022176761e-12,1.797333011e-13,4.864790809e-13,3.781483558e-13,5.766861617e-13,4.961580569e-13,9.42786996e-13,5.066026327e-13,6.006965375e-13,4.659059138e-13,4.552969322e-13,4.428857739e-13,6.787215079e-13,7.082804774e-13,3.965370806e-13,7.791487421e-13,1.354791037e-13,8.021508349e-13,2.094701167e-13,1.207763508e-12,8.759682394e-13,6.666626432e-13,9.151108062e-13,9.716007511e-13,3.166703323e-12,7.06411294e-13
1.5625,6.024507749e-13,1.221086407e-12,1.599771025e-12,1.057705046e-12,1.347349509e-12,4.463263219e-13,1.021218801e-12,1.840765457e-13,4.881795278e-13,3.708638108e-13,5.681260344e-13,4.884638183e-13,9.350970545e-13,4.985119137e-13,5.925141104e-13,4.606412374e-13,4.517502944e-13,4.397534585e-13,6.733502573e-13,7.086841501e-13,3.984285227e-13,7.724446099e-13,1.371542005e-13,8.124240178e-13,2.083830781e-13,1.200046882e-12,8.632944288e-13,6.639776852e-13,8.980254174e-13,9.648824227e-13,3.139317761e-12,7.099746064e-13
1.5703125,5.953398611e-13,1.202152655e-12,1.605600619e-12,1.046736113e-12,1.335013634e-12,4.481883598e-13,1.02015263e-12,1.8842808e-13,4.902477395e-13,3.636733196e-13,5.594777911e-13,4.813217199e-13,9.280588257e-13,4.906294008e-13,5.842414076e-13,4.553580791e-13,4.48114707e-13,4.368383591e-13,6.682938485e-13,7.089746059e-13,4.001449734e-13,7.658709365e-13,1.388594308e-13,8.224306485e-13,2.074270933e-13,1.192213951e-12,8.510742148e-13,6.614453308e-13,8.813825177e-13,9.583713303e-13,3.112136845e-12,7.134962989e-13
1.578125,5.886999128e-13,1.183579181e-12,1.611113374e-12,1.035798734e-12,1.322386189e-12,4.501694359e-13,1.018835555e-12,1.929354353e-13,4.925714777e-13,3.565115518e-13,5.504206703e-13,4.746242676e-13,9.215338273e-13,4.829713054e-13,5.758077451e-13,4.500174846e-13,4.44443472e-13,4.341489593e-13,6.635573135e-13,7.094469342e-13,4.022527042e-13,7.595465645e-13,1.405577185e-13,8.329208748e-13,2.066100372e-13,1.184164116e-12,8.393334092e-13,6.590959927e-13,8.652781805e-13,9.522432977e-13,3.085606918e-12,7.169156981e-13
1.5859375,5.822055593e-13,1.165207886e-12,1.616213609e-12,1.024879792e-12,1.309444576e-12,4.52139202e-13,1.017208618e-12,1.974750873e-13,4.94834505e-13,3.492458813e-13,5.411646791e-13,4.679685178e-13,9.153581231e-13,4.753782386e-13,5.672179949e-13,4.447222361e-13,4.410616314e-13,4.317326906e-13,6.590909248e-13,7.101668643e-13,4.044088679e-13,7.533946279e-13,1.422743166e-13,8.43602586e-13,2.058444578e-13,1.175850638e-12,8.274372141e-13,6.567920948e-13,8.491739525e-13,9.461568103e-13,3.059604819e-12,7.200754992e-13
1.59375,5.756474992e-13,1.146993651e-12,1.621027528e-12,1.01411632e-12,1.296224274e-12,4.541779965e-13,1.015512103e-12,2.019139858e-13,4.970900341e-13,3.419811927e-13,5.319843889e-13,4.614345442e-13,9.095966597e-13,4.680804324e-13,5.586784022e-13,4.396831739e-13,4.380124016e-13,4.296340996e-13,6.547795885e-13,7.109163189e-13,4.061665656e-13,7.47244231e-13,1.439998171e-13,8.53900709e-13,2.05154753e-13,1.167437273e-12,8.155501933e-13,6.544396016e-13,8.331001861e-13,9.399834304e-13,3.034352044e-12,7.230591653e-13
1.6015625,5.693647828e-13,1.129140793e-12,1.625630869e-12,1.003784524e-12,1.282833144e-12,4.56497159e-13,1.013945224e-12,2.064011154e-13,4.995248589e-13,3.348581745e-13,5.227270652e-13,4.552584666e-13,9.044289835e-13,4.613005852e-13,5.504076622e-13,4.350241746e-13,4.351172504e-13,4.278381767e-13,6.507083989e-13,7.118082123e-13,4.079525204e-13,7.411723322e-13,1.45697647e-13,8.641539834e-13,2.046044233e-13,1.159160973e-12,8.042925502e-13,6.521253794e-13,8.175870454e-13,9.340055852e-13,3.009194935e-12,7.260183122e-13
1.609375,5.635000605e-13,1.111596317e-12,1.63002187e-12,9.933253937e-13,1.268888862e-12,4.588178559e-13,1.012222067e-12,2.109570047e-13,5.020719238e-13,3.27820104e-13,5.133045667e-13,4.493163496e-13,8.997782459e-13,4.546336107e-13,5.42223502e-13,4.303468429e-13,4.320048628e-13,4.262009786e-13,6.469006478e-13,7.125112698e-13,4.100507976e-13,7.352840477e-13,1.473641881e-13,8.747859473e-13,2.041934079e-13,1.150640566e-12,7.933096127e-13,6.499257262e-13,8.024985217e-13,9.283751791e-13,2.983842853e-12,7.287788089e-13
1.6171875,5.577584502e-13,1.094085939e-12,1.63425183e-12,9.822155963e-13,1.254337166e-12,4.609301045e-13,1.010128444e-12,2.154370191e-13,5.047177382e-13,3.20766975e-13,5.039499575e-13,4.435304725e-13,8.955106204e-13,4.479073653e-13,5.339729529e-13,4.253275599e-13,4.283714132e-13,4.246458792e-13,6.431124038e-13,7.126470541e-13,4.121753925e-13,7.29480988e-13,1.490253397e-13,8.858008201e-13,2.039480007e-13,1.141613018e-12,7.821466266e-13,6.47868335e-13,7.874144313e-13,9.229298656e-13,2.959225401e-12,7.313760618e-13
1.625,5.519834451e-13,1.076433106e-12,1.638440279e-12,9.708053167e-13,1.239829065e-12,4.631040641e-13,1.008104625e-12,2.19906481e-13,5.0758602e-13,3.137437142e-13,4.94738811e-13,4.380231275e-13,8.917763754e-13,4.415136259e-13,5.258860842e-13,4.20292142e-13,4.245411667e-13,4.232644214e-13,6.392927532e-13,7.128508164e-13,4.141453773e-13,7.237523e-13,1.507538399e-13,8.968837675e-13,2.038274675e-13,1.132711913e-12,7.712230659e-13,6.459861729e-13,7.72436008e-13,9.17540309e-13,2.934750885e-12,7.341616328e-13
1.6328125,5.46279441e-13,1.05864324e-12,1.642778743e-12,9.592774904e-13,1.225239775e-12,4.653415327e-13,1.006527443e-12,2.24443547e-13,5.106428915e-13,3.068742384e-13,4.855059064e-13,4.327803103e-13,8.887145735e-13,4.353775247e-13,5.178300403e-13,4.153093331e-13,4.207930288e-13,4.22029662e-13,6.357129934e-13,7.132668497e-13,4.159116313e-13,7.18255141e-13,1.52600593e-13,9.075710493e-13,2.037331927e-13,1.124101571e-12,7.607270324e-13,6.442677811e-13,7.576887922e-13,9.123175006e-13,2.909191627e-12,7.369539349e-13
1.640625,5.408199348e-13,1.041041244e-12,1.647314265e-12,9.476699847e-13,1.210105459e-12,4.674945428e-13,1.00505672e-12,2.289712995e-13,5.137865032e-13,3.001809493e-13,4.762186835e-13,4.277436652e-13,8.862792053e-13,4.292258368e-13,5.095254992e-13,4.101839536e-13,4.169306444e-13,4.209289371e-13,6.325979802e-13,7.132606142e-13,4.175183141e-13,7.130478767e-13,1.544946505e-13,9.179875568e-13,2.037657643e-13,1.115209567e-12,7.503870898e-13,6.426821217e-13,7.431530632e-13,9.074876371e-13,2.883662986e-12,7.393696743e-13
1.6484375,5.356787176e-13,1.023964364e-12,1.651773134e-12,9.364359398e-13,1.195083826e-12,4.697803307e-13,1.003293769e-12,2.335096755e-13,5.170396756e-13,2.935925549e-13,4.669560288e-13,4.229755459e-13,8.84419038e-13,4.234269572e-13,5.01478353e-13,4.053463938e-13,4.131651981e-13,4.201935703e-13,6.299741541e-13,7.131512426e-13,4.192044569e-13,7.080313783e-13,1.564085417e-13,9.285593742e-13,2.040112568e-13,1.106250007e-12,7.403714348e-13,6.411399872e-13,7.290810774e-13,9.0311347e-13,2.858901791e-12,7.417488782e-13
1.65625,5.307129544e-13,1.00727636e-12,1.656073647e-12,9.255795987e-13,1.180622368e-12,4.72340151e-13,1.001452391e-12,2.381056105e-13,5.204572664e-13,2.871118858e-13,4.576884223e-13,4.18529469e-13,8.83011792e-13,4.182753762e-13,4.940318732e-13,4.010685118e-13,4.098951102e-13,4.198441241e-13,6.276794736e-13,7.133363372e-13,4.209758583e-13,7.031254765e-13,1.58464141e-13,9.391001123e-13,2.042861077e-13,1.097759015e-12,7.308688582e-13,6.395716092e-13,7.15561805e-13,8.989772959e-13,2.833756322e-12,7.444921505e-13
1.6640625,5.25907688e-13,9.907849859e-13,1.660575209e-12,9.146814106e-13,1.166045208e-12,4.751108734e-13,9.999387138e-13,2.426797929e-13,5.239822383e-13,2.807853966e-13,4.48409359e-13,4.143558578e-13,8.819343641e-13,4.13507644e-13,4.866729922e-13,3.969259927e-13,4.068865779e-13,4.196310493e-13,6.255530701e-13,7.133896696e-13,4.225976941e-13,6.984222523e-13,1.60676634e-13,9.494405316e-13,2.045302571e-13,1.089439738e-12,7.215799791e-13,6.381500023e-13,7.022158715e-13,8.949435597e-13,2.808701617e-12,7.47282229e-13
1.671875,5.214209857e-13,9.745769676e-13,1.665392338e-12,9.037354751e-13,1.15107236e-12,4.779138178e-13,9.987410469e-13,2.471834756e-13,5.274839719e-13,2.745663358e-13,4.392933986e-13,4.103299907e-13,8.812350649e-13,4.08902243e-13,4.792858848e-13,3.927902978e-13,4.038377251e-13,4.195352571e-13,6.236505838e-13,7.133281378e-13,4.240801747e-13,6.940231571e-13,1.628959071e-13,9.598789337e-13,2.049029186e-13,1.081019637e-12,7.123535673e-13,6.369367328e-13,6.888626126e-13,8.910830122e-13,2.785062003e-12,7.498037912e-13
1.6796875,5.170663535e-13,9.58591481e-13,1.670337904e-12,8.927668093e-13,1.136048236e-12,4.804587332e-13,9.976076341e-13,2.516401958e-13,5.309869936e-13,2.684029144e-13,4.304203947e-13,4.064495191e-13,8.808834689e-13,4.044623731e-13,4.721887598e-13,3.88825801e-13,4.008443482e-13,4.196089076e-13,6.2198136e-13,7.133988928e-13,4.255243419e-13,6.897859727e-13,1.650695948e-13,9.702825166e-13,2.053970893e-13,1.072781995e-12,7.034345492e-13,6.35607577e-13,6.757617209e-13,8.872171314e-13,2.762091569e-12,7.522784973e-13
1.6875,5.126968517e-13,9.427801785e-13,1.67546856e-12,8.817222595e-13,1.120969124e-12,4.830817951e-13,9.963888677e-13,2.560963513e-13,5.346266954e-13,2.62315846e-13,4.214956113e-13,4.028466941e-13,8.807889867e-13,4.00295389e-13,4.652405657e-13,3.849589484e-13,3.979697717e-13,4.197825829e-13,6.204602562e-13,7.135305871e-13,4.268758036e-13,6.856110086e-13,1.67283235e-13,9.800307869e-13,2.05927767e-13,1.064689345e-12,6.948982906e-13,6.340989663e-13,6.630877545e-13,8.831974998e-13,2.73910737e-12,7.548404259e-13
1.6953125,5.087001383e-13,9.274026327e-13,1.680611026e-12,8.707866773e-13,1.105622265e-12,4.863509356e-13,9.948819264e-13,2.605775249e-13,5.38337997e-13,2.563149962e-13,4.122474969e-13,3.994329606e-13,8.811410663e-13,3.964772294e-13,4.58328178e-13,3.811494537e-13,3.950735619e-13,4.20170482e-13,6.192887102e-13,7.138763706e-13,4.28152579e-13,6.816786515e-13,1.69618845e-13,9.889417103e-13,2.065267539e-13,1.05623315e-12,6.863633849e-13,6.326992189e-13,6.506783924e-13,8.794482387e-13,2.716799425e-12,7.572021129e-13
1.703125,5.051336848e-13,9.124115868e-13,1.685156517e-12,8.598593486e-13,1.089937928e-12,4.897436741e-13,9.929837453e-13,2.649792319e-13,5.420039557e-13,2.504431996e-13,4.029094443e-13,3.959929026e-13,8.820815801e-13,3.92839965e-13,4.515017425e-13,3.77346832e-13,3.920753254e-13,4.208900286e-13,6.186006455e-13,7.14307783e-13,4.293673945e-13,6.780027075e-13,1.720787847e-13,9.975213604e-13,2.072168099e-13,1.04726398e-12,6.77594274e-13,6.313221343e-13,6.383128835e-13,8.761281897e-13,2.695466215e-12,7.592755761e-13
1.7109375,5.015323874e-13,8.974617272e-13,1.689115939e-12,8.487397721e-13,1.074055293e-12,4.927545525e-13,9.91068844e-13,2.69261464e-13,5.456732107e-13,2.447933491e-13,3.937285902e-13,3.92571913e-13,8.833579421e-13,3.893498787e-13,4.446616039e-13,3.73557206e-13,3.892211515e-13,4.218431722e-13,6.181160658e-13,7.144981185e-13,4.303674969e-13,6.74364041e-13,1.745565525e-13,1.006192397e-12,2.080122909e-13,1.038246454e-12,6.690479709e-13,6.297250152e-13,6.260650324e-13,8.727182727e-13,2.67502625e-12,7.613628503e-13
1.71875,4.98005529e-13,8.827513413e-13,1.693057767e-12,8.377880224e-13,1.058218346e-12,4.960054501e-13,9.893469792e-13,2.735919897e-13,5.493116348e-13,2.393252725e-13,3.844130612e-13,3.893318389e-13,8.848481975e-13,3.863400172e-13,4.380402289e-13,3.700812958e-13,3.86685744e-13,4.230475562e-13,6.178629972e-13,7.146442211e-13,4.312105857e-13,6.708131765e-13,1.769694394e-13,1.014567456e-12,2.089147516e-13,1.029404074e-12,6.610552751e-13,6.280856876e-13,6.142250004e-13,8.692324049e-13,2.655076298e-12,7.633382395e-13
1.7265625,4.950142807e-13,8.687107045e-13,1.697048077e-12,8.272480529e-13,1.042348542e-12,4.996835131e-13,9.874069606e-13,2.779470811e-13,5.528609783e-13,2.339188181e-13,3.748166751e-13,3.863889956e-13,8.86832269e-13,3.839437734e-13,4.317889947e-13,3.668390866e-13,3.840547772e-13,4.245634313e-13,6.182453635e-13,7.146218152e-13,4.321959417e-13,6.675251967e-13,1.793702912e-13,1.022229206e-12,2.098721568e-13,1.020262724e-12,6.531702061e-13,6.266507755e-13,6.028869012e-13,8.661945932e-13,2.634846133e-12,7.646714757e-13
1.734375,4.923902958e-13,8.55181204e-13,1.70111042e-12,8.168714814e-13,1.026381683e-12,5.033461961e-13,9.852504059e-13,2.82108419e-13,5.564519651e-13,2.286359557e-13,3.65420871e-13,3.838235717e-13,8.893962643e-13,3.82014046e-13,4.255023593e-13,3.63491826e-13,3.812186962e-13,4.262782288e-13,6.191761564e-13,7.143419016e-13,4.33261114e-13,6.644271076e-13,1.817984385e-13,1.029697226e-12,2.109433923e-13,1.010696917e-12,6.451997582e-13,6.254299829e-13,5.919116674e-13,8.633484966e-13,2.614808625e-12,7.65576019e-13
1.7421875,4.898102341e-13,8.418331233e-13,1.705735785e-12,8.066492831e-13,1.010723174e-12,5.072304799e-13,9.834783274e-13,2.861532512e-13,5.600924751e-13,2.236480727e-13,3.564649674e-13,3.815520635e-13,8.922644543e-13,3.805103488e-13,4.192852399e-13,3.604163153e-13,3.788763233e-13,4.282378249e-13,6.203163859e-13,7.147259575e-13,4.340293426e-13,6.614317718e-13,1.842049854e-13,1.03733605e-12,2.12229702e-13,1.001370762e-12,6.375999533e-13,6.243748653e-13,5.812229095e-13,8.601396033e-13,2.595730922e-12,7.667039786e-13
1.75,4.874326271e-13,8.287763292e-13,1.710757978e-12,7.967545017e-13,9.954604461e-13,5.114805519e-13,9.81998307e-13,2.902378343e-13,5.636586856e-13,2.189687559e-13,3.476704538e-13,3.795467033e-13,8.953949254e-13,3.79406693e-13,4.136942531e-13,3.579758058e-13,3.770901888e-13,4.30596212e-13,6.217368928e-13,7.159469812e-13,4.344572079e-13,6.585334165e-13,1.865488704e-13,1.04455068e-12,2.136883256e-13,9.925281472e-13,6.304653217e-13,6.233976181e-13,5.708199384e-13,8.568102218e-13,2.576830238e-12,7.678481714e-13
1.7578125,4.854371581e-13,8.162271618e-13,1.715291564e-12,7.870803102e-13,9.802180851e-13,5.156300881e-13,9.802336408e-13,2.942223426e-13,5.672525876e-13,2.144692607e-13,3.390828471e-13,3.779660056e-13,8.990490924e-13,3.786794951e-13,4.086402904e-13,3.557845988e-13,3.751394374e-13,4.33238241e-13,6.235613772e-13,7.169809161e-13,4.347517714e-13,6.556530879e-13,1.888240122e-13,1.051094949e-12,2.152929697e-13,9.83795861e-13,6.235766066e-13,6.224251621e-13,5.607157579e-13,8.537679998e-13,2.558001302e-12,7.685244594e-13
1.765625,4.837502006e-13,8.041723125e-13,1.719315725e-12,7.775186374e-13,9.650706195e-13,5.197209633e-13,9.78356831e-13,2.980437802e-13,5.709698796e-13,2.101225522e-13,3.309442313e-13,3.767352101e-13,9.032744254e-13,3.784219987e-13,4.038823214e-13,3.537022873e-13,3.730969263e-13,4.3607132e-13,6.257673995e-13,7.176540776e-13,4.349800056e-13,6.528428683e-13,1.910795658e-13,1.057398492e-12,2.170805904e-13,9.751868822e-13,6.171151161e-13,6.215396138e-13,5.510898804e-13,8.509024698e-13,2.540639824e-12,7.690100856e-13
1.7734375,4.82334535e-13,7.925487671e-13,1.723593344e-12,7.681018841e-13,9.501795146e-13,5.240747837e-13,9.767925169e-13,3.018377718e-13,5.746733006e-13,2.060876082e-13,3.2301707e-13,3.756456234e-13,9.079212169e-13,3.785754222e-13,3.993990304e-13,3.519263983e-13,3.714295083e-13,4.392560509e-13,6.28457535e-13,7.182830921e-13,4.351818992e-13,6.503039803e-13,1.933755815e-13,1.06341522e-12,2.190402288e-13,9.668273028e-13,6.112359548e-13,6.208667469e-13,5.421425679e-13,8.480892984e-13,2.52486058e-12,7.695350805e-13
1.78125,4.812316529e-13,7.813689436e-13,1.728202644e-12,7.588392529e-13,9.352064079e-13,5.286167744e-13,9.753995287e-13,3.05559711e-13,5.782793784e-13,2.024640075e-13,3.150872375e-13,3.747567845e-13,9.129391794e-13,3.789861716e-13,3.949319465e-13,3.503016689e-13,3.698617266e-13,4.428152339e-13,6.316503051e-13,7.18687314e-13,4.352444385e-13,6.480130329e-13,1.956692613e-13,1.068776855e-12,2.211668595e-13,9.584154442e-13,6.056560059e-13,6.204023796e-13,5.337130112e-13,8.454787877e-13,2.509584578e-12,7.697565309e-13
1.7890625,4.80411148e-13,7.706810529e-13,1.732715069e-12,7.498667514e-13,9.201615395e-13,5.334064591e-13,9.740274675e-13,3.090937111e-13,5.817980283e-13,1.991142839e-13,3.073650644e-13,3.741151945e-13,9.183156979e-13,3.798346277e-13,3.905848695e-13,3.489266097e-13,3.683243387e-13,4.466304052e-13,6.351991582e-13,7.191371423e-13,4.348323474e-13,6.457883817e-13,1.979281132e-13,1.073500656e-12,2.233902399e-13,9.500026195e-13,6.002280923e-13,6.199755397e-13,5.255406108e-13,8.431615142e-13,2.49453205e-12,7.69638454e-13
1.796875,4.797891371e-13,7.605351572e-13,1.737200291e-12,7.413794614e-13,9.055260111e-13,5.385542893e-13,9.727810319e-13,3.124955994e-13,5.851878465e-13,1.959057577e-13,2.998309284e-13,3.735610217e-13,9.240892864e-13,3.813466992e-13,3.868714538e-13,3.48229884e-13,3.673475756e-13,4.507814152e-13,6.391278121e-13,7.20005583e-13,4.340859719e-13,6.436620899e-13,2.00209329e-13,1.077692873e-12,2.256145636e-13,9.420798933e-13,5.952231347e-13,6.193910015e-13,5.17772448e-13,8.409670334e-13,2.480204338e-12,7.694998168e-13
1.8046875,4.793276734e-13,7.508947887e-13,1.741926165e-12,7.332420824e-13,8.912186876e-13,5.43792823e-13,9.716183026e-13,3.15804277e-13,5.884485386e-13,1.929142096e-13,2.922523322e-13,3.730113859e-13,9.30285063e-13,3.832692523e-13,3.836131493e-13,3.479394689e-13,3.666921934e-13,4.552926453e-13,6.435059978e-13,7.208441186e-13,4.335323739e-13,6.417645444e-13,2.024879414e-13,1.081396849e-12,2.279744023e-13,9.344885388e-13,5.907594566e-13,6.18651129e-13,5.10604395e-13,8.386538341e-13,2.467364687e-12,7.692786302e-13
