"Time","Fp1","AF3","F7","F3","FC1","FC5","T7","C3","CP1","CP5","P7","P3","Pz","PO3","O1","Oz","O2","PO4","P4","P8","CP6","CP2","C4","T8","FC6","FC2","F4","F8","AF4","Fp2","Fz","Cz"
0.0078125,4.000080542e-13,2.854270936e-13,1.803138558e-13,4.775051086e-13,8.056586115e-13,4.931022075e-13,3.129243511e-13,2.45705711e-13,3.247313358e-13,2.424298988e-13,9.22104998e-13,9.815928055e-13,2.479942951e-12,1.544560828e-12,1.536105624e-12,1.48135277e-12,2.887819805e-12,1.214401616e-12,4.692946437e-13,1.948713436e-13,2.446027839e-13,2.574566026e-13,2.331175167e-13,7.570658611e-13,5.355558459e-13,4.73043305e-13,1.87692442e-12,1.024390967e-13,4.159584139e-13,6.722817485e-13,6.182636884e-13,5.829979724e-13
0.015625,4.109398523e-13,2.896436187e-13,1.863475908e-13,4.87582585e-13,8.194941074e-13,5.03861692e-13,3.17788648e-13,2.52768269e-13,3.332099833e-13,2.474127134e-13,9.398457154e-13,1.003621687e-12,2.559142313e-12,1.574480405e-12,1.564056524e-12,1.52072612e-12,2.947855183e-12,1.240561992e-12,4.801789622e-13,1.983309515e-13,2.502047218e-13,2.646471042e-13,2.377422037e-13,7.746081697e-13,5.439293525e-13,4.794483475e-13,1.911573802e-12,1.073528719e-13,4.251826983e-13,6.875166615e-13,6.28364183e-13,5.944669303e-13
0.0234375,4.218576412e-13,2.939321993e-13,1.926157164e-13,4.977716947e-13,8.333079854e-13,5.14450597e-13,3.224886312e-13,2.599519582e-13,3.418127581e-13,2.525619906e-13,9.577910843e-13,1.025780024e-12,2.639394643e-12,1.604519216e-12,1.591874946e-12,1.560333741e-12,3.008012721e-12,1.266849022e-12,4.909814035e-13,2.017461368e-13,2.558251423e-13,2.719332098e-13,2.423125907e-13,7.918697187e-13,5.52120635e-13,4.858854171e-13,1.945935816e-12,1.12571878e-13,4.345927788e-13,7.029379525e-13,6.385333534e-13,6.057469097e-13
0.03125,4.329308399e-13,2.983033574e-13,1.991414742e-13,5.080099427e-13,8.468833536e-13,5.248575907e-13,3.269985449e-13,2.672139026e-13,3.50487196e-13,2.579103888e-13,9.756429802e-13,1.047926858e-12,2.721561647e-12,1.634357125e-12,1.618947058e-12,1.600297539e-12,3.068670131e-12,1.293296645e-12,5.019112188e-13,2.05024567e-13,2.614199155e-13,2.791907147e-13,2.468009261e-13,8.094916127e-13,5.603605592e-13,4.922264821e-13,1.97990711e-12,1.183100734e-13,4.442513814e-13,7.183620703e-13,6.487342078e-13,6.168086861e-13
0.0390625,4.443028527e-13,3.026966369e-13,2.059049334e-13,5.183404634e-13,8.60355655e-13,5.351913038e-13,3.316499166e-13,2.745026979e-13,3.591791198e-13,2.634699732e-13,9.935270022e-13,1.070404389e-12,2.805652918e-12,1.664421629e-12,1.646093753e-12,1.64103904e-12,3.129349539e-12,1.319561024e-12,5.129481469e-13,2.082495182e-13,2.670903049e-13,2.865107616e-13,2.513080983e-13,8.273416062e-13,5.688508991e-13,4.985063531e-13,2.013676583e-12,1.244058875e-13,4.542603375e-13,7.338781078e-13,6.58975005e-13,6.279134827e-13
0.046875,4.55814309e-13,3.070513058e-13,2.128687395e-13,5.286926189e-13,8.737639791e-13,5.45319257e-13,3.362915789e-13,2.818583371e-13,3.678853111e-13,2.691907363e-13,1.011631982e-12,1.093229467e-12,2.891346494e-12,1.694763996e-12,1.673738517e-12,1.682185746e-12,3.188631294e-12,1.345366376e-12,5.238665133e-13,2.115099942e-13,2.729051529e-13,2.939240935e-13,2.559348959e-13,8.446795857e-13,5.772664741e-13,5.047298294e-13,2.04764995e-12,1.306752074e-13,4.644301828e-13,7.495977734e-13,6.691872092e-13,6.39017794e-13
0.0546875,4.672382492e-13,3.113180762e-13,2.199572192e-13,5.389731591e-13,8.868349442e-13,5.55249341e-13,3.405176341e-13,2.892292902e-13,3.766174853e-13,2.748776287e-13,1.029456514e-12,1.115907843e-12,2.977252731e-12,1.724774929e-12,1.700784538e-12,1.723243098e-12,3.246725337e-12,1.371030776e-12,5.347984934e-13,2.148424454e-13,2.786974623e-13,3.013404185e-13,2.605498163e-13,8.618403107e-13,5.853945104e-13,5.10626842e-13,2.081771853e-12,1.369482894e-13,4.744607739e-13,7.656867463e-13,6.791064897e-13,6.498174923e-13
0.0625,4.787076287e-13,3.154789144e-13,2.271581212e-13,5.490655366e-13,8.99386864e-13,5.650311614e-13,3.444472722e-13,2.96497065e-13,3.853966092e-13,2.803981922e-13,1.046432991e-12,1.138263329e-12,3.063476388e-12,1.754275778e-12,1.72658498e-12,1.764194912e-12,3.304624521e-12,1.396694485e-12,5.459337819e-13,2.182800486e-13,2.844177186e-13,3.088764904e-13,2.650422729e-13,8.794938314e-13,5.935451248e-13,5.160793536e-13,2.115604602e-12,1.433189892e-13,4.843807356e-13,7.819333017e-13,6.885406121e-13,6.603114642e-13
0.0703125,4.902666139e-13,3.195786232e-13,2.344157973e-13,5.588681605e-13,9.114798503e-13,5.744841498e-13,3.484902081e-13,3.036968387e-13,3.942350903e-13,2.859612482e-13,1.062822422e-12,1.160461595e-12,3.150658903e-12,1.783377758e-12,1.751370333e-12,1.804670866e-12,3.361261658e-12,1.421651751e-12,5.571049124e-13,2.217666317e-13,2.901936234e-13,3.166689756e-13,2.694638134e-13,8.971057647e-13,6.017185992e-13,5.212483936e-13,2.149154405e-12,1.501057291e-13,4.942971835e-13,7.977802453e-13,6.975803845e-13,6.706298006e-13
0.078125,5.016486604e-13,3.236719132e-13,2.417069043e-13,5.685791131e-13,9.232468851e-13,5.837610654e-13,3.52621774e-13,3.109333641e-13,4.031284808e-13,2.917821707e-13,1.079221114e-12,1.182555696e-12,3.237033096e-12,1.812074623e-12,1.775317624e-12,1.844545225e-12,3.41566714e-12,1.445596261e-12,5.682295592e-13,2.25192036e-13,2.959921826e-13,3.246235349e-13,2.737780092e-13,9.142929456e-13,6.095024641e-13,5.261801208e-13,2.182443136e-12,1.573132601e-13,5.042158075e-13,8.13714664e-13,7.063903822e-13,6.807550613e-13
0.0859375,5.128290272e-13,3.277297579e-13,2.491178688e-13,5.78330947e-13,9.347609977e-13,5.931085067e-13,3.565342519e-13,3.182449826e-13,4.120778174e-13,2.977382296e-13,1.095598181e-12,1.204603094e-12,3.322143275e-12,1.840573618e-12,1.798727774e-12,1.884378805e-12,3.468665211e-12,1.46897912e-12,5.793372029e-13,2.284892758e-13,3.017841262e-13,3.326399591e-13,2.779391637e-13,9.317406765e-13,6.169717497e-13,5.308278901e-13,2.215321709e-12,1.647197347e-13,5.14175168e-13,8.30592056e-13,7.14968962e-13,6.90700585e-13
0.09375,5.239179857e-13,3.316551705e-13,2.565619594e-13,5.878942043e-13,9.459891879e-13,6.021611366e-13,3.601274743e-13,3.256230103e-13,4.210062338e-13,3.037578733e-13,1.111659737e-12,1.226623295e-12,3.408587542e-12,1.868903391e-12,1.821726043e-12,1.924133608e-12,3.520482536e-12,1.491809935e-12,5.90219514e-13,2.31618625e-13,3.076530732e-13,3.406383273e-13,2.820609019e-13,9.495159669e-13,6.245060763e-13,5.352043309e-13,2.248161856e-12,1.722716309e-13,5.240549875e-13,8.475982502e-13,7.232440576e-13,7.004689528e-13
0.1015625,5.348146907e-13,3.354176865e-13,2.639646501e-13,5.972492861e-13,9.569414766e-13,6.106432809e-13,3.633612438e-13,3.330599001e-13,4.297960861e-13,3.099728628e-13,1.127595964e-12,1.248371844e-12,3.496772648e-12,1.896645814e-12,1.843939811e-12,1.963477667e-12,3.570894064e-12,1.513984202e-12,6.00870771e-13,2.346417756e-13,3.134774417e-13,3.485367707e-13,2.862035948e-13,9.668002193e-13,6.319960198e-13,5.393168363e-13,2.280871438e-12,1.801139364e-13,5.336792204e-13,8.637868816e-13,7.312634839e-13,7.100387372e-13
0.109375,5.45558605e-13,3.391059179e-13,2.715308522e-13,6.066015078e-13,9.677394729e-13,6.187966102e-13,3.663237903e-13,3.406172482e-13,4.385226169e-13,3.163250694e-13,1.143556661e-12,1.26973184e-12,3.58422944e-12,1.923684131e-12,1.865289274e-12,2.002704716e-12,3.620422847e-12,1.535838152e-12,6.116469069e-13,2.376866258e-13,3.191069649e-13,3.564787729e-13,2.902945616e-13,9.83490078e-13,6.391847201e-13,5.432081675e-13,2.312703598e-12,1.885322675e-13,5.432070093e-13,8.799815781e-13,7.390994122e-13,7.194981062e-13
0.1171875,5.563163351e-13,3.427688848e-13,2.793247447e-13,6.15903159e-13,9.783265105e-13,6.267068733e-13,3.694544641e-13,3.483017531e-13,4.473574277e-13,3.226867473e-13,1.159259358e-12,1.291012955e-12,3.670824951e-12,1.950253588e-12,1.885894752e-12,2.041745607e-12,3.668773432e-12,1.557244743e-12,6.226029805e-13,2.407110531e-13,3.246661984e-13,3.646199579e-13,2.942477215e-13,1.000335472e-12,6.461216757e-13,5.468287065e-13,2.344147167e-12,1.975103037e-13,5.527791282e-13,8.966425e-13,7.466183808e-13,7.287613335e-13
0.125,5.669802959e-13,3.463096625e-13,2.872073727e-13,6.250773801e-13,9.884347316e-13,6.343935176e-13,3.728168011e-13,3.55952693e-13,4.562911175e-13,3.291233532e-13,1.174579932e-12,1.312405406e-12,3.758858307e-12,1.976330197e-12,1.905427778e-12,2.079947289e-12,3.7148814e-12,1.577775994e-12,6.335052705e-13,2.43607142e-13,3.302546705e-13,3.728370118e-13,2.979980529e-13,1.017661395e-12,6.527542249e-13,5.500066091e-13,2.375787569e-12,2.065878112e-13,5.621702911e-13,9.128769383e-13,7.536309625e-13,7.375699787e-13
0.1328125,5.774131088e-13,3.496985143e-13,2.951314224e-13,6.341683282e-13,9.980286533e-13,6.419981146e-13,3.759259909e-13,3.635235159e-13,4.65261614e-13,3.356627756e-13,1.189597805e-12,1.333649277e-12,3.847959674e-12,2.001803944e-12,1.92371566e-12,2.117182215e-12,3.758672026e-12,1.597502104e-12,6.443363691e-13,2.464892674e-13,3.358082773e-13,3.810580986e-13,3.015951501e-13,1.034804175e-12,6.589894771e-13,5.528490493e-13,2.406678382e-12,2.158324912e-13,5.713288936e-13,9.286293424e-13,7.602657548e-13,7.459867597e-13
0.140625,5.877399775e-13,3.531091905e-13,3.030423413e-13,6.431514105e-13,1.007295138e-12,6.493550861e-13,3.788083171e-13,3.711341414e-13,4.742908941e-13,3.423189949e-13,1.204312601e-12,1.354597997e-12,3.935328789e-12,2.026856948e-12,1.941121648e-12,2.153853183e-12,3.800848713e-12,1.616447988e-12,6.551571128e-13,2.494970575e-13,3.412942761e-13,3.893900169e-13,3.051188989e-13,1.051175663e-12,6.650530655e-13,5.555228739e-13,2.43694915e-12,2.257376699e-13,5.805871103e-13,9.44657789e-13,7.667775128e-13,7.541715813e-13
0.1484375,5.980083043e-13,3.565705204e-13,3.109387083e-13,6.519828376e-13,1.016109115e-12,6.563129876e-13,3.818443907e-13,3.787094669e-13,4.833049655e-13,3.4921434e-13,1.2186478e-12,1.375407677e-12,4.020485117e-12,2.051623775e-12,1.957619129e-12,2.190003728e-12,3.841290694e-12,1.634322029e-12,6.658442924e-13,2.524647941e-13,3.467003013e-13,3.97783649e-13,3.084773506e-13,1.067263201e-12,6.709651275e-13,5.577526705e-13,2.467925748e-12,2.358919778e-13,5.899978065e-13,9.608876795e-13,7.730122852e-13,7.619147441e-13
0.15625,6.079593454e-13,3.597740809e-13,3.188263111e-13,6.605019746e-13,1.024139292e-12,6.629916534e-13,3.848509988e-13,3.860534528e-13,4.921691111e-13,3.563365301e-13,1.232299125e-12,1.395962042e-12,4.10448344e-12,2.075784017e-12,1.972585672e-12,2.224928987e-12,3.878260692e-12,1.650909756e-12,6.761798029e-13,2.551197973e-13,3.520790099e-13,4.061002309e-13,3.116441812e-13,1.083507732e-12,6.765077825e-13,5.594080474e-13,2.498803026e-12,2.457490671e-13,5.991546548e-13,9.768732204e-13,7.786124838e-13,7.690724295e-13
0.1640625,6.174639189e-13,3.625870827e-13,3.265369524e-13,6.685476337e-13,1.03148461e-12,6.692882727e-13,3.876190195e-13,3.931815832e-13,5.009124894e-13,3.636773902e-13,1.245299242e-12,1.416047742e-12,4.187346133e-12,2.099034015e-12,1.98614511e-12,2.258278791e-12,3.911015313e-12,1.666231166e-12,6.860997884e-13,2.575000976e-13,3.575275903e-13,4.143632832e-13,3.147543165e-13,1.099553513e-12,6.819377674e-13,5.608784075e-13,2.528119264e-12,2.559718198e-13,6.079181055e-13,9.926041579e-13,7.836638249e-13,7.759274722e-13
0.171875,6.267989052e-13,3.653437797e-13,3.342090564e-13,6.763861186e-13,1.038530648e-12,6.751878447e-13,3.903408412e-13,4.002105243e-13,5.096257519e-13,3.713770644e-13,1.258343531e-12,1.435962701e-12,4.269712532e-12,2.121670908e-12,1.999255947e-12,2.290992953e-12,3.942051598e-12,1.680914241e-12,6.95951736e-13,2.598797305e-13,3.628944111e-13,4.226256488e-13,3.177226924e-13,1.115552881e-12,6.874177126e-13,5.622984414e-13,2.55636508e-12,2.671008467e-13,6.1666862e-13,1.008389038e-12,7.885666362e-13,7.826929675e-13
0.1796875,6.361124346e-13,3.682679035e-13,3.421549511e-13,6.84283931e-13,1.045300726e-12,6.810050629e-13,3.929849155e-13,4.071411763e-13,5.182532852e-13,3.792739074e-13,1.271344052e-12,1.455967861e-12,4.351477587e-12,2.143954121e-12,2.011790056e-12,2.323545534e-12,3.972887274e-12,1.695606082e-12,7.061212288e-13,2.62314332e-13,3.679756491e-13,4.308638457e-13,3.204167344e-13,1.131950689e-12,6.925044004e-13,5.634491304e-13,2.583937785e-12,2.785485302e-13,6.255722428e-13,1.024526386e-12,7.934277019e-13,7.891899278e-13
0.1875,6.452001655e-13,3.71131533e-13,3.501230644e-13,6.9204127e-13,1.051581926e-12,6.866007253e-13,3.954588821e-13,4.139216768e-13,5.266915457e-13,3.870865769e-13,1.283530444e-12,1.475771979e-12,4.430443595e-12,2.165546562e-12,2.022789855e-12,2.355105951e-12,4.001576206e-12,1.709743116e-12,7.163975139e-13,2.6464859e-13,3.729209173e-13,4.39099918e-13,3.230264981e-13,1.148078961e-12,6.972504498e-13,5.643872051e-13,2.610335586e-12,2.898651626e-13,6.343064996e-13,1.040538542e-12,7.980816185e-13,7.952160405e-13
0.1953125,6.540412856e-13,3.737443602e-13,3.579757537e-13,6.995615752e-13,1.057385496e-12,6.916900399e-13,3.979824035e-13,4.205664992e-13,5.34946355e-13,3.949810745e-13,1.295393712e-12,1.495175579e-12,4.507206249e-12,2.186271064e-12,2.032632041e-12,2.385659236e-12,4.027505414e-12,1.722560266e-12,7.264448337e-13,2.669450573e-13,3.778698163e-13,4.473788767e-13,3.25607686e-13,1.163254232e-12,7.021654976e-13,5.652524134e-13,2.635738316e-12,3.012218488e-13,6.427286222e-13,1.055776443e-12,8.024871909e-13,8.008159106e-13
0.203125,6.627352663e-13,3.762031769e-13,3.66130559e-13,7.06959817e-13,1.062736935e-12,6.966371549e-13,4.005151298e-13,4.27095595e-13,5.430487781e-13,4.030719143e-13,1.307562929e-12,1.514233326e-12,4.584319432e-12,2.20629734e-12,2.04199473e-12,2.415826021e-12,4.052192984e-12,1.734383546e-12,7.364755179e-13,2.693672264e-13,3.826444216e-13,4.556558719e-13,3.279061133e-13,1.178009561e-12,7.070573604e-13,5.659012894e-13,2.660497139e-12,3.128144795e-13,6.510339906e-13,1.071069599e-12,8.066532232e-13,8.06034967e-13
0.2109375,6.711375235e-13,3.785683538e-13,3.744800723e-13,7.140701702e-13,1.067455232e-12,7.015551132e-13,4.02801655e-13,4.334291612e-13,5.509785095e-13,4.11117008e-13,1.319111051e-12,1.532826117e-12,4.660322503e-12,2.225511324e-12,2.050195793e-12,2.445070235e-12,4.075354516e-12,1.745436817e-12,7.466864728e-13,2.717733316e-13,3.871993125e-13,4.638832171e-13,3.299554093e-13,1.192971491e-12,7.116568754e-13,5.661598081e-13,2.684669453e-12,3.248452267e-13,6.592716395e-13,1.087292153e-12,8.104052211e-13,8.107607764e-13
0.21875,6.791394546e-13,3.808202662e-13,3.825003435e-13,7.207921944e-13,1.071531291e-12,7.059193379e-13,4.050481887e-13,4.39531735e-13,5.587403608e-13,4.192347154e-13,1.329725865e-12,1.550934294e-12,4.732865862e-12,2.243795083e-12,2.056912821e-12,2.472722449e-12,4.095520562e-12,1.755242716e-12,7.568231258e-13,2.739996564e-13,3.917542178e-13,4.721129232e-13,3.319739885e-13,1.208030925e-12,7.161624331e-13,5.66004148e-13,2.708458246e-12,3.373067165e-13,6.673667322e-13,1.103323963e-12,8.136415323e-13,8.149473695e-13
0.2265625,6.866247107e-13,3.830451973e-13,3.902081234e-13,7.274083638e-13,1.075259821e-12,7.097900627e-13,4.075141426e-13,4.455048847e-13,5.663226925e-13,4.27803349e-13,1.340659314e-12,1.568764875e-12,4.802719906e-12,2.261225685e-12,2.062662154e-12,2.498761186e-12,4.111990165e-12,1.763757647e-12,7.667328238e-13,2.762006124e-13,3.96365255e-13,4.803717465e-13,3.338380797e-13,1.222759292e-12,7.203228802e-13,5.655367883e-13,2.731414511e-12,3.498417386e-13,6.752989176e-13,1.118115766e-12,8.165794519e-13,8.186964751e-13
0.234375,6.933666796e-13,3.852968433e-13,3.977923732e-13,7.340134649e-13,1.078801186e-12,7.136737806e-13,4.10008715e-13,4.513661159e-13,5.736819938e-13,4.367160764e-13,1.352124232e-12,1.586351449e-12,4.870545748e-12,2.277642867e-12,2.067179678e-12,2.52313962e-12,4.125024892e-12,1.771364282e-12,7.765443529e-13,2.784878569e-13,4.008730229e-13,4.885903786e-13,3.353898819e-13,1.236996709e-12,7.239387927e-13,5.649263661e-13,2.752700283e-12,3.624564125e-13,6.83004128e-13,1.132447168e-12,8.194152812e-13,8.221374247e-13
0.2421875,6.995779142e-13,3.87466804e-13,4.0525146e-13,7.403484337e-13,1.081987244e-12,7.174029535e-13,4.124400463e-13,4.570688237e-13,5.809282148e-13,4.456872678e-13,1.362938879e-12,1.603604472e-12,4.936107492e-12,2.292980761e-12,2.070181135e-12,2.54611941e-12,4.135850488e-12,1.778096198e-12,7.863447593e-13,2.807076918e-13,4.0519185e-13,4.967319176e-13,3.36750243e-13,1.25103492e-12,7.277134493e-13,5.642023715e-13,2.772499743e-12,3.755704001e-13,6.905082325e-13,1.147140877e-12,8.220494105e-13,8.253543884e-13
0.25,7.056087243e-13,3.894557605e-13,4.126369483e-13,7.46328113e-13,1.08462344e-12,7.206343182e-13,4.149215274e-13,4.626800066e-13,5.881979624e-13,4.547676465e-13,1.37272246e-12,1.620425508e-12,4.999492485e-12,2.307456575e-12,2.072159576e-12,2.567898201e-12,4.14462134e-12,1.783790518e-12,7.961540985e-13,2.827280578e-13,4.093727363e-13,5.047844098e-13,3.379931699e-13,1.26489351e-12,7.319583439e-13,5.632518815e-13,2.791408875e-12,3.892958059e-13,6.979056699e-13,1.162230591e-12,8.243480408e-13,8.282163691e-13
0.2578125,7.112809825e-13,3.912899362e-13,4.199711827e-13,7.521247546e-13,1.086747403e-12,7.235810642e-13,4.172561173e-13,4.682122248e-13,5.953861502e-13,4.640999849e-13,1.382205416e-12,1.636730113e-12,5.060338428e-12,2.321019998e-12,2.073237422e-12,2.588079043e-12,4.150265922e-12,1.788449903e-12,8.059043575e-13,2.846056296e-13,4.134631944e-13,5.126880296e-13,3.390735052e-13,1.278338216e-12,7.360895401e-13,5.620260776e-13,2.809463291e-12,4.03470415e-13,7.050978013e-13,1.177741975e-12,8.263409218e-13,8.304889302e-13
0.265625,7.165088134e-13,3.930447748e-13,4.272530852e-13,7.577726757e-13,1.088474967e-12,7.264776207e-13,4.191858548e-13,4.736293208e-13,6.024113326e-13,4.737613371e-13,1.391911922e-12,1.6527641e-12,5.118389363e-12,2.33356101e-12,2.073226973e-12,2.606651388e-12,4.153148079e-12,1.792199799e-12,8.154127875e-13,2.865660493e-13,4.174079146e-13,5.204162326e-13,3.400114357e-13,1.291826766e-12,7.399829714e-13,5.605209115e-13,2.826842422e-12,4.180286696e-13,7.120818326e-13,1.193351529e-12,8.280864297e-13,8.322672336e-13
0.2734375,7.215392676e-13,3.947431292e-13,4.34438528e-13,7.631243139e-13,1.089712863e-12,7.292208782e-13,4.207852286e-13,4.790138811e-13,6.093591021e-13,4.838051133e-13,1.401618526e-12,1.668771927e-12,5.173112829e-12,2.345198671e-12,2.072101777e-12,2.623764276e-12,4.153777701e-12,1.795099825e-12,8.246136849e-13,2.888246596e-13,4.211273271e-13,5.279351341e-13,3.407985553e-13,1.305593323e-12,7.439777756e-13,5.587076051e-13,2.843997223e-12,4.328121554e-13,7.190770878e-13,1.208358437e-12,8.295607491e-13,8.337524926e-13
0.28125,7.262852901e-13,3.96333484e-13,4.41345198e-13,7.681526164e-13,1.090368474e-12,7.316198922e-13,4.222862293e-13,4.843241533e-13,6.161276287e-13,4.941520954e-13,1.411046791e-12,1.684398746e-12,5.223644553e-12,2.35580974e-12,2.069726062e-12,2.639231303e-12,4.151683728e-12,1.797046137e-12,8.335950044e-13,2.912831581e-13,4.246180642e-13,5.35208657e-13,3.413698094e-13,1.318860764e-12,7.479837411e-13,5.566241833e-13,2.860596519e-12,4.476080878e-13,7.259795106e-13,1.222722524e-12,8.307199761e-13,8.348461354e-13
0.2890625,7.305604945e-13,3.977827346e-13,4.479437907e-13,7.729812246e-13,1.090710132e-12,7.335961373e-13,4.239347625e-13,4.893863426e-13,6.225359239e-13,5.047177527e-13,1.42044212e-12,1.699294207e-12,5.27106286e-12,2.365152347e-12,2.066284957e-12,2.653271097e-12,4.147206696e-12,1.797836566e-12,8.424704543e-13,2.93722053e-13,4.278550967e-13,5.424439973e-13,3.417165684e-13,1.331519133e-12,7.51826819e-13,5.543837043e-13,2.87577057e-12,4.627903052e-13,7.325005924e-13,1.237166304e-12,8.316516823e-13,8.355165331e-13
0.296875,7.344182436e-13,3.991154724e-13,4.542742082e-13,7.776460045e-13,1.090891975e-12,7.353376593e-13,4.257315426e-13,4.942043047e-13,6.286316085e-13,5.155496115e-13,1.429879489e-12,1.7136704e-12,5.315848614e-12,2.37332813e-12,2.06200565e-12,2.665718262e-12,4.139915707e-12,1.797368158e-12,8.513754079e-13,2.962100707e-13,4.307889611e-13,5.498407665e-13,3.418347883e-13,1.344228133e-12,7.555921117e-13,5.520140627e-13,2.889491425e-12,4.789903827e-13,7.387393199e-13,1.252249924e-12,8.324721585e-13,8.358331151e-13
0.3046875,7.378056341e-13,4.003241046e-13,4.602580489e-13,7.82026421e-13,1.090472104e-12,7.370511907e-13,4.27412512e-13,4.987676217e-13,6.344170914e-13,5.266025732e-13,1.438863836e-12,1.727661144e-12,5.355683735e-12,2.380500234e-12,2.056471564e-12,2.675918468e-12,4.128851441e-12,1.795967218e-12,8.603240115e-13,2.988323937e-13,4.335206782e-13,5.570985186e-13,3.41705396e-13,1.356777605e-12,7.592493264e-13,5.493849525e-13,2.902054407e-12,4.956994779e-13,7.448147671e-13,1.267680659e-12,8.330247333e-13,8.355252311e-13
0.3125,7.407076882e-13,4.013927331e-13,4.660205109e-13,7.860330552e-13,1.089193945e-12,7.386190647e-13,4.291288781e-13,5.029395457e-13,6.397977428e-13,5.377206673e-13,1.447199939e-12,1.741081511e-12,5.390768769e-12,2.386703559e-12,2.049606802e-12,2.684539498e-12,4.115677977e-12,1.794048164e-12,8.691975981e-13,3.014141024e-13,4.361555913e-13,5.638708322e-13,3.413455426e-13,1.36866657e-12,7.626742614e-13,5.464655648e-13,2.912756331e-12,5.118501381e-13,7.505692443e-13,1.282760411e-12,8.331809248e-13,8.344267241e-13
0.3203125,7.433520047e-13,4.023729124e-13,4.716918499e-13,7.898356424e-13,1.087530501e-12,7.400259331e-13,4.311792732e-13,5.067783027e-13,6.449323282e-13,5.489005201e-13,1.455293345e-12,1.754018329e-12,5.423952473e-12,2.392151817e-12,2.042012308e-12,2.692416543e-12,4.101254725e-12,1.791253213e-12,8.780135124e-13,3.039092147e-13,4.385591601e-13,5.703609166e-13,3.407471934e-13,1.379996761e-12,7.659031145e-13,5.434902347e-13,2.921277525e-12,5.277233662e-13,7.560598615e-13,1.297461161e-12,8.332702082e-13,8.328691097e-13
0.328125,7.458669351e-13,4.032782823e-13,4.772247727e-13,7.93697635e-13,1.085739241e-12,7.41552984e-13,4.332101886e-13,5.104347046e-13,6.500747969e-13,5.602849081e-13,1.463628126e-12,1.766817329e-12,5.455008524e-12,2.397124772e-12,2.033926911e-12,2.698910183e-12,4.083705829e-12,1.78712713e-12,8.867933253e-13,3.06478248e-13,4.406053589e-13,5.768718104e-13,3.399065053e-13,1.390968278e-12,7.69018794e-13,5.405470566e-13,2.928715813e-12,5.440681195e-13,7.614858924e-13,1.312203644e-12,8.334759674e-13,8.310237489e-13
0.3359375,7.481491868e-13,4.040500904e-13,4.827009829e-13,7.975051368e-13,1.083420766e-12,7.431789038e-13,4.350871416e-13,5.139115876e-13,6.552457632e-13,5.719824551e-13,1.472345932e-12,1.779438183e-12,5.482438107e-12,2.40133425e-12,2.025039754e-12,2.70361336e-12,4.063372591e-12,1.78214084e-12,8.953735157e-13,3.091132936e-13,4.42395979e-13,5.833764154e-13,3.388984869e-13,1.401743316e-12,7.720055753e-13,5.373937804e-13,2.9353963e-12,5.607341042e-13,7.667460999e-13,1.326976407e-12,8.334160892e-13,8.286999504e-13
0.34375,7.499747836e-13,4.047097434e-13,4.879351388e-13,8.009580503e-13,1.080435044e-12,7.446641226e-13,4.372701972e-13,5.172022545e-13,6.602998415e-13,5.839535739e-13,1.480942757e-12,1.791434398e-12,5.506437671e-12,2.40405727e-12,2.014766568e-12,2.706794671e-12,4.041690275e-12,1.776592558e-12,9.037778417e-13,3.117416119e-13,4.439930794e-13,5.897862737e-13,3.377256763e-13,1.412147547e-12,7.748612112e-13,5.339714148e-13,2.940523593e-12,5.778468271e-13,7.717795876e-13,1.341611125e-12,8.329657603e-13,8.258582392e-13
0.3515625,7.512359088e-13,4.053521264e-13,4.925961702e-13,8.041739431e-13,1.077137372e-12,7.461300122e-13,4.394792251e-13,5.203093784e-13,6.650689112e-13,5.960368795e-13,1.488961391e-12,1.802743985e-12,5.526527308e-12,2.405352328e-12,2.003053746e-12,2.708417307e-12,4.017776405e-12,1.770148002e-12,9.122683429e-13,3.144503099e-13,4.453269699e-13,5.960611863e-13,3.362697675e-13,1.421818434e-12,7.776867428e-13,5.304445492e-13,2.944347192e-12,5.955294061e-13,7.767757181e-13,1.355981627e-12,8.32506736e-13,8.225778078e-13
0.359375,7.520845003e-13,4.059970201e-13,4.970269937e-13,8.074183367e-13,1.073651502e-12,7.478381098e-13,4.4118362e-13,5.232093498e-13,6.695024748e-13,6.082037797e-13,1.496862935e-12,1.813828966e-12,5.541743433e-12,2.406124674e-12,1.991009643e-12,2.70867872e-12,3.991576242e-12,1.763076512e-12,9.208726583e-13,3.173045879e-13,4.464269851e-13,6.021440254e-13,3.345205681e-13,1.431198406e-12,7.804671278e-13,5.267180409e-13,2.947617348e-12,6.12730268e-13,7.816898005e-13,1.369874156e-12,8.321433105e-13,8.188311446e-13
0.3671875,7.525084414e-13,4.06583939e-13,5.014408709e-13,8.106032442e-13,1.0698126e-12,7.498280875e-13,4.429194246e-13,5.259290323e-13,6.736716205e-13,6.205828513e-13,1.505046753e-12,1.824738528e-12,5.552207583e-12,2.406619699e-12,1.979108295e-12,2.70757769e-12,3.963816949e-12,1.75558101e-12,9.294082931e-13,3.202912997e-13,4.473757767e-13,6.080803422e-13,3.325730599e-13,1.440572158e-12,7.830221736e-13,5.226770899e-13,2.950255033e-12,6.292534976e-13,7.86269609e-13,1.383664416e-12,8.316824607e-13,8.146492265e-13
0.375,7.523138954e-13,4.070417278e-13,5.053615902e-13,8.13583342e-13,1.06562153e-12,7.520045258e-13,4.450573278e-13,5.28447524e-13,6.775285421e-13,6.331575485e-13,1.513134986e-12,1.835045075e-12,5.558400956e-12,2.406319278e-12,1.966344257e-12,2.704442843e-12,3.933331386e-12,1.746864773e-12,9.377927956e-13,3.234091421e-13,4.481406269e-13,6.139658245e-13,3.304078664e-13,1.449412658e-12,7.853918586e-13,5.185656579e-13,2.952124273e-12,6.464298375e-13,7.904997294e-13,1.397986708e-12,8.31070304e-13,8.101648265e-13
0.3828125,7.516917331e-13,4.073195985e-13,5.087615806e-13,8.163542896e-13,1.061204458e-12,7.54282564e-13,4.470907472e-13,5.30719356e-13,6.809798796e-13,6.458526745e-13,1.521012346e-12,1.844739191e-12,5.561309555e-12,2.405048159e-12,1.952411457e-12,2.69927449e-12,3.899660476e-12,1.736746601e-12,9.460079872e-13,3.26619184e-13,4.486619302e-13,6.198097527e-13,3.279975956e-13,1.45814029e-12,7.87769421e-13,5.145689344e-13,2.953106647e-12,6.644169147e-13,7.944288938e-13,1.412595247e-12,8.302453286e-13,8.054554297e-13
0.390625,7.508898599e-13,4.074195389e-13,5.119447245e-13,8.188764301e-13,1.056590236e-12,7.567348875e-13,4.490452268e-13,5.328030563e-13,6.841188971e-13,6.587292943e-13,1.528893919e-12,1.853926055e-12,5.561432145e-12,2.402734148e-12,1.937835986e-12,2.692584391e-12,3.863972946e-12,1.726038969e-12,9.540461577e-13,3.299490821e-13,4.489289759e-13,6.255990868e-13,3.25506926e-13,1.467207993e-12,7.901387275e-13,5.106152553e-13,2.95285936e-12,6.82267283e-13,7.979718133e-13,1.427146478e-12,8.29199186e-13,8.00506345e-13
0.3984375,7.497066616e-13,4.073979941e-13,5.1483705e-13,8.212026891e-13,1.051754847e-12,7.593716098e-13,4.513288541e-13,5.346932809e-13,6.870167082e-13,6.717520391e-13,1.536630514e-12,1.862265418e-12,5.55761446e-12,2.399045414e-12,1.92242205e-12,2.684459425e-12,3.826803308e-12,1.714845369e-12,9.61899156e-13,3.335482167e-13,4.489288864e-13,6.313121652e-13,3.230900106e-13,1.475323575e-12,7.925539416e-13,5.06726145e-13,2.951487987e-12,6.998774528e-13,8.012152407e-13,1.44179685e-12,8.281599983e-13,7.952763996e-13
0.40625,7.479712191e-13,4.072999201e-13,5.174796424e-13,8.234071777e-13,1.046654044e-12,7.619298435e-13,4.536680941e-13,5.363221305e-13,6.896272723e-13,6.848218622e-13,1.544184199e-12,1.869735497e-12,5.549398141e-12,2.393968415e-12,1.905987734e-12,2.674991254e-12,3.788161571e-12,1.702651974e-12,9.694876909e-13,3.374233545e-13,4.486666817e-13,6.36888628e-13,3.206700707e-13,1.482071996e-12,7.95113912e-13,5.029240568e-13,2.949080263e-12,7.175220269e-13,8.043493946e-13,1.456248019e-12,8.27124723e-13,7.897360961e-13
0.4140625,7.457577885e-13,4.07085179e-13,5.198443962e-13,8.252881228e-13,1.041181375e-12,7.644703524e-13,4.558344924e-13,5.37804533e-13,6.920241411e-13,6.980270899e-13,1.551699053e-12,1.876676603e-12,5.53735746e-12,2.387687229e-12,1.888763345e-12,2.663985624e-12,3.747551986e-12,1.689405498e-12,9.767656647e-13,3.41394765e-13,4.481760961e-13,6.422936356e-13,3.181008981e-13,1.488718568e-12,7.974642021e-13,4.990371459e-13,2.945457359e-12,7.351388603e-13,8.072826142e-13,1.470394864e-12,8.257706266e-13,7.838129722e-13
0.421875,7.430443298e-13,4.066775335e-13,5.216777549e-13,8.267429343e-13,1.035317306e-12,7.67375324e-13,4.581569401e-13,5.392953341e-13,6.942776177e-13,7.114257211e-13,1.558961255e-12,1.882880856e-12,5.521596892e-12,2.380174501e-12,1.870577238e-12,2.65099564e-12,3.704438488e-12,1.675397591e-12,9.837972778e-13,3.453421191e-13,4.47456718e-13,6.47522611e-13,3.153361892e-13,1.495096994e-12,7.993722228e-13,4.950043645e-13,2.941137769e-12,7.526478879e-13,8.098440813e-13,1.484986327e-12,8.241154663e-13,7.77405827e-13
0.4296875,7.398167523e-13,4.061164645e-13,5.232624181e-13,8.281056293e-13,1.029249064e-12,7.7051835e-13,4.607222669e-13,5.407437428e-13,6.962945444e-13,7.249515833e-13,1.565841567e-12,1.888141218e-12,5.503523206e-12,2.37148941e-12,1.851461474e-12,2.636467004e-12,3.659630383e-12,1.660850084e-12,9.906497998e-13,3.493437738e-13,4.464877888e-13,6.52600584e-13,3.123879992e-13,1.500393121e-12,8.011986996e-13,4.909311577e-13,2.936612898e-12,7.701825285e-13,8.121043364e-13,1.499957712e-12,8.224727268e-13,7.705437738e-13
0.4375,7.362035584e-13,4.055021844e-13,5.247678375e-13,8.295616477e-13,1.023133573e-12,7.737050589e-13,4.63287374e-13,5.42003138e-13,6.980787994e-13,7.385742888e-13,1.572493448e-12,1.892944859e-12,5.484019813e-12,2.361890788e-12,1.831956974e-12,2.620981209e-12,3.613412628e-12,1.645576348e-12,9.973350725e-13,3.536652857e-13,4.453154838e-13,6.575996431e-13,3.093096007e-13,1.505391963e-12,8.029888935e-13,4.868399579e-13,2.931236318e-12,7.879074623e-13,8.141513895e-13,1.514485485e-12,8.208125011e-13,7.634133743e-13
0.4453125,7.322531542e-13,4.047745734e-13,5.256025476e-13,8.308236962e-13,1.016952027e-12,7.771890595e-13,4.658594867e-13,5.430051868e-13,6.997356433e-13,7.521451073e-13,1.578789024e-12,1.897516656e-12,5.459163105e-12,2.351633988e-12,1.812331509e-12,2.604298472e-12,3.565145706e-12,1.62921369e-12,1.003763534e-12,3.583702078e-13,4.440234944e-13,6.625127155e-13,3.061789424e-13,1.510612886e-12,8.044140261e-13,4.828020587e-13,2.924272864e-12,8.052324378e-13,8.159070073e-13,1.528565717e-12,8.189160703e-13,7.561965299e-13
0.453125,7.279109099e-13,4.038161274e-13,5.256714378e-13,8.31759431e-13,1.010733391e-12,7.808511476e-13,4.686318676e-13,5.437798964e-13,7.012083772e-13,7.655408905e-13,1.584617996e-12,1.901469558e-12,5.426258081e-12,2.340784912e-12,1.792612542e-12,2.586445613e-12,3.516077193e-12,1.61215519e-12,1.009832188e-12,3.630218588e-13,4.425691165e-13,6.672142674e-13,3.030021946e-13,1.515482287e-12,8.056372338e-13,4.78975537e-13,2.915708927e-12,8.215755617e-13,8.173080421e-13,1.542245986e-12,8.169037507e-13,7.489258298e-13
0.4609375,7.232154569e-13,4.027054399e-13,5.255801137e-13,8.326575502e-13,1.004550716e-12,7.844892988e-13,4.71551792e-13,5.44362043e-13,7.024453138e-13,7.789993205e-13,1.590378244e-12,1.904723458e-12,5.390470364e-12,2.329171719e-12,1.772655764e-12,2.567754323e-12,3.467240774e-12,1.59500165e-12,1.015663693e-12,3.674036206e-13,4.408334812e-13,6.716783054e-13,2.997303413e-13,1.520042642e-12,8.069029501e-13,4.753162083e-13,2.905758009e-12,8.378717018e-13,8.184221978e-13,1.555457876e-12,8.150453553e-13,7.415030522e-13
0.46875,7.183237487e-13,4.015744432e-13,5.25443945e-13,8.336756816e-13,9.983198045e-13,7.886293661e-13,4.742963316e-13,5.447673725e-13,7.035750898e-13,7.926703957e-13,1.596378767e-12,1.907553843e-12,5.356599618e-12,2.316844038e-12,1.752168946e-12,2.547836735e-12,3.416615479e-12,1.577274647e-12,1.0214194e-12,3.720035362e-13,4.389042934e-13,6.760625587e-13,2.963566034e-13,1.524563236e-12,8.080446412e-13,4.717257455e-13,2.894593145e-12,8.547170617e-13,8.193414916e-13,1.569131035e-12,8.133529645e-13,7.33900328e-13
0.4765625,7.133791028e-13,4.004062837e-13,5.249896512e-13,8.346816281e-13,9.920051751e-13,7.934358994e-13,4.767889508e-13,5.450922523e-13,7.046387111e-13,8.063176353e-13,1.602391266e-12,1.910009969e-12,5.321589727e-12,2.304105316e-12,1.731369197e-12,2.526353558e-12,3.363264182e-12,1.558481658e-12,1.027002174e-12,3.77061278e-13,4.369374803e-13,6.805025602e-13,2.929036812e-13,1.528644555e-12,8.089862241e-13,4.683175564e-13,2.882245096e-12,8.710682141e-13,8.200643085e-13,1.583485893e-12,8.117396667e-13,7.262404486e-13
0.484375,7.084741459e-13,3.991698533e-13,5.242409305e-13,8.356414654e-13,9.858056079e-13,7.983267221e-13,4.794580848e-13,5.454110359e-13,7.055651936e-13,8.198683561e-13,1.608201211e-12,1.911980395e-12,5.281536243e-12,2.290883241e-12,1.710642093e-12,2.50400748e-12,3.309868216e-12,1.539462613e-12,1.032350864e-12,3.82156767e-13,4.347620273e-13,6.849926082e-13,2.894025381e-13,1.532092935e-12,8.098207018e-13,4.651667159e-13,2.868677308e-12,8.865944234e-13,8.205954853e-13,1.597102847e-12,8.102735312e-13,7.186648666e-13
0.4921875,7.036100655e-13,3.978762243e-13,5.233322384e-13,8.366004134e-13,9.798225343e-13,8.032776836e-13,4.825308482e-13,5.45634371e-13,7.064320352e-13,8.334999783e-13,1.613930203e-12,1.913447069e-12,5.237322472e-12,2.277000837e-12,1.689801614e-12,2.481483427e-12,3.257943926e-12,1.520871816e-12,1.037582917e-12,3.87138307e-13,4.321708469e-13,6.894798231e-13,2.859028078e-13,1.535216364e-12,8.10678857e-13,4.621682657e-13,2.85416657e-12,9.018013209e-13,8.210492528e-13,1.609685642e-12,8.089764109e-13,7.112618261e-13
0.5,6.985512612e-13,3.964766024e-13,5.221666023e-13,8.374843831e-13,9.738454042e-13,8.086783942e-13,4.855635799e-13,5.456768689e-13,7.072726391e-13,8.471785774e-13,1.619592093e-12,1.914454848e-12,5.190846636e-12,2.262632924e-12,1.6686759e-12,2.458273682e-12,3.205278486e-12,1.501861416e-12,1.042680525e-12,3.922719895e-13,4.293538537e-13,6.939204254e-13,2.823992583e-13,1.538151934e-12,8.116959097e-13,4.592279366e-13,2.839073681e-12,9.166955232e-13,8.21394795e-13,1.622414182e-12,8.076858629e-13,7.03934458e-13
0.5078125,6.930280244e-13,3.949457779e-13,5.205888431e-13,8.382755247e-13,9.676998036e-13,8.144644583e-13,4.883464834e-13,5.455230053e-13,7.078775937e-13,8.607619032e-13,1.625071691e-12,1.914971801e-12,5.142805261e-12,2.247808834e-12,1.647526045e-12,2.4337596e-12,3.1502334e-12,1.481800019e-12,1.047577666e-12,3.975937671e-13,4.265034454e-13,6.982974169e-13,2.788365305e-13,1.540821341e-12,8.125620668e-13,4.563492708e-13,2.823210129e-12,9.318365132e-13,8.214189342e-13,1.635574846e-12,8.063775555e-13,6.964010502e-13
0.515625,6.871161367e-13,3.933425049e-13,5.186394228e-13,8.390616464e-13,9.616036989e-13,8.204737614e-13,4.91376408e-13,5.45139696e-13,7.082050237e-13,8.742861746e-13,1.63062262e-12,1.91492374e-12,5.09320227e-12,2.232440665e-12,1.62665596e-12,2.408475978e-12,3.094483785e-12,1.46146825e-12,1.052298211e-12,4.030519675e-13,4.235090141e-13,7.027088522e-13,2.752630346e-13,1.543342594e-12,8.129725344e-13,4.537019589e-13,2.806052211e-12,9.476195095e-13,8.211974929e-13,1.648840264e-12,8.052679382e-13,6.886959554e-13
0.5234375,6.810459248e-13,3.917044853e-13,5.163838387e-13,8.398455882e-13,9.558531795e-13,8.267064113e-13,4.947399499e-13,5.445837698e-13,7.085073396e-13,8.877306785e-13,1.636440452e-12,1.914364804e-12,5.041170584e-12,2.216693705e-12,1.606202529e-12,2.383028394e-12,3.039758604e-12,1.441400686e-12,1.056737764e-12,4.087874795e-13,4.203116736e-13,7.072759679e-13,2.717922282e-13,1.545856695e-12,8.13418031e-13,4.514731304e-13,2.787667233e-12,9.629011534e-13,8.210192261e-13,1.662281401e-12,8.044244538e-13,6.811692733e-13
0.53125,6.748814853e-13,3.900516781e-13,5.138558991e-13,8.405595945e-13,9.502342684e-13,8.331991331e-13,4.978725671e-13,5.439627552e-13,7.088209439e-13,9.008343369e-13,1.641912514e-12,1.913285719e-12,4.986775488e-12,2.200524038e-12,1.585935302e-12,2.357224794e-12,2.985605162e-12,1.421088226e-12,1.060884636e-12,4.14767282e-13,4.169396049e-13,7.119126657e-13,2.683952373e-13,1.548085881e-12,8.141642031e-13,4.494914049e-13,2.768528334e-12,9.770648018e-13,8.208164664e-13,1.675707981e-12,8.036953078e-13,6.737028921e-13
0.5390625,6.686303624e-13,3.883773593e-13,5.111726898e-13,8.411628604e-13,9.443388651e-13,8.400083183e-13,5.007871027e-13,5.432816161e-13,7.089512672e-13,9.135174679e-13,1.646394576e-12,1.911570347e-12,4.931438844e-12,2.183739865e-12,1.565517588e-12,2.330941677e-12,2.93121269e-12,1.400336297e-12,1.064994214e-12,4.207104143e-13,4.133359922e-13,7.164301352e-13,2.64981078e-13,1.549851171e-12,8.146496702e-13,4.474725479e-13,2.74843191e-12,9.908427458e-13,8.203148022e-13,1.688682628e-12,8.030514436e-13,6.658409603e-13
0.546875,6.623593406e-13,3.865776374e-13,5.082047248e-13,8.417145944e-13,9.383350641e-13,8.470499436e-13,5.039486975e-13,5.425745873e-13,7.089444451e-13,9.261047978e-13,1.650214808e-12,1.909440307e-12,4.8751979e-12,2.166501436e-12,1.54512714e-12,2.304156981e-12,2.876371551e-12,1.379442896e-12,1.069062059e-12,4.265676482e-13,4.095629477e-13,7.207814186e-13,2.616091937e-13,1.551468136e-12,8.148455052e-13,4.454976447e-13,2.727276775e-12,1.004565105e-12,8.194869679e-13,1.701177449e-12,8.026052635e-13,6.576446992e-13
0.5546875,6.561393113e-13,3.846489413e-13,5.047896547e-13,8.423639056e-13,9.326096541e-13,8.543590175e-13,5.072533811e-13,5.419039891e-13,7.089487557e-13,9.386498221e-13,1.653880768e-12,1.907029002e-12,4.817058007e-12,2.148832631e-12,1.524980334e-12,2.276730922e-12,2.821326688e-12,1.358463811e-12,1.072886946e-12,4.325985745e-13,4.057085039e-13,7.250092426e-13,2.583577912e-13,1.552821703e-12,8.152806066e-13,4.437301942e-13,2.70597862e-12,1.017824927e-12,8.184918464e-13,1.713573296e-12,8.024283497e-13,6.49478106e-13
0.5625,6.498831388e-13,3.827784243e-13,5.01270164e-13,8.430889691e-13,9.270677711e-13,8.620996859e-13,5.105113551e-13,5.412132568e-13,7.08837806e-13,9.506928888e-13,1.657153059e-12,1.903819827e-12,4.756974802e-12,2.130555906e-12,1.504862817e-12,2.249055488e-12,2.766787121e-12,1.337531419e-12,1.076601927e-12,4.38853873e-13,4.016421458e-13,7.291882693e-13,2.55151137e-13,1.55346604e-12,8.156698414e-13,4.421342485e-13,2.684486462e-12,1.030072119e-12,8.174810361e-13,1.726168572e-12,8.025220668e-13,6.414188311e-13
0.5703125,6.433630369e-13,3.80942032e-13,4.977666513e-13,8.437086483e-13,9.215382554e-13,8.699294449e-13,5.138967628e-13,5.404762159e-13,7.084541208e-13,9.621382865e-13,1.659769295e-12,1.899679479e-12,4.695465825e-12,2.112037e-12,1.484841195e-12,2.221395678e-12,2.712434056e-12,1.316629875e-12,1.080209739e-12,4.450048457e-13,3.973402666e-13,7.334722134e-13,2.519379823e-13,1.553759882e-12,8.154038784e-13,4.407218282e-13,2.661565779e-12,1.04138681e-12,8.1637586e-13,1.738608669e-12,8.027223106e-13,6.334718952e-13
0.578125,6.366573336e-13,3.788513537e-13,4.939386302e-13,8.442326599e-13,9.161448567e-13,8.775435383e-13,5.173592464e-13,5.396854673e-13,7.078510746e-13,9.73311669e-13,1.662069499e-12,1.895092942e-12,4.633061456e-12,2.093674207e-12,1.465247439e-12,2.1932222e-12,2.657176866e-12,1.295220436e-12,1.083345899e-12,4.509190676e-13,3.929619515e-13,7.379841706e-13,2.488116101e-13,1.554004691e-12,8.147863624e-13,4.395834924e-13,2.637833026e-12,1.052405128e-12,8.148440908e-13,1.750585283e-12,8.028389423e-13,6.257189019e-13
0.5859375,6.300595865e-13,3.76514061e-13,4.898895501e-13,8.447476703e-13,9.10935336e-13,8.853259678e-13,5.208048334e-13,5.386957649e-13,7.070384869e-13,9.840629652e-13,1.664279594e-12,1.889738999e-12,4.56928507e-12,2.075070159e-12,1.446007921e-12,2.164501152e-12,2.60169948e-12,1.273394149e-12,1.086143355e-12,4.569502572e-13,3.88458604e-13,7.427183896e-13,2.458285404e-13,1.553479904e-12,8.144749258e-13,4.387605776e-13,2.614845473e-12,1.062851564e-12,8.128725229e-13,1.762707671e-12,8.03047832e-13,6.181219913e-13
0.59375,6.234897055e-13,3.742306034e-13,4.858091965e-13,8.452465886e-13,9.059230412e-13,8.934378772e-13,5.243434793e-13,5.375197326e-13,7.059855831e-13,9.940307555e-13,1.66614116e-12,1.883083269e-12,4.503374583e-12,2.055841917e-12,1.42710603e-12,2.13601959e-12,2.547391394e-12,1.251928959e-12,1.0891448e-12,4.632869072e-13,3.837417032e-13,7.475575648e-13,2.429249522e-13,1.551977816e-12,8.144166196e-13,4.382311421e-13,2.59187318e-12,1.072595614e-12,8.108233738e-13,1.775167146e-12,8.035850831e-13,6.106368914e-13
0.6015625,6.168306363e-13,3.720006925e-13,4.815906577e-13,8.458913314e-13,9.012851968e-13,9.016954571e-13,5.278102132e-13,5.363963328e-13,7.049146374e-13,1.003325573e-12,1.667415822e-12,1.875863087e-12,4.437550799e-12,2.036351134e-12,1.408750437e-12,2.108108353e-12,2.494068496e-12,1.230874425e-12,1.092332918e-12,4.695239329e-13,3.789355307e-13,7.523579647e-13,2.400307624e-13,1.550562526e-12,8.141263042e-13,4.378250599e-13,2.567575141e-12,1.082713024e-12,8.086892942e-13,1.787132617e-12,8.042238421e-13,6.033318823e-13
0.609375,6.102366805e-13,3.696035283e-13,4.77409881e-13,8.468016067e-13,8.970200981e-13,9.102378088e-13,5.31167936e-13,5.353105904e-13,7.040408129e-13,1.012084314e-12,1.667992046e-12,1.868718128e-12,4.373807653e-12,2.016937397e-12,1.390599634e-12,2.080320769e-12,2.441200552e-12,1.209777321e-12,1.095298883e-12,4.753853378e-13,3.740969769e-13,7.571242876e-13,2.371480785e-13,1.549766677e-12,8.134962511e-13,4.374272442e-13,2.54233572e-12,1.09262108e-12,8.062202739e-13,1.798279126e-12,8.047453437e-13,5.962396462e-13
0.6171875,6.035518534e-13,3.671047779e-13,4.731582602e-13,8.476901073e-13,8.929364869e-13,9.190603913e-13,5.34819453e-13,5.340518186e-13,7.032175077e-13,1.020223363e-12,1.667901083e-12,1.861049823e-12,4.309146582e-12,1.99744119e-12,1.372266216e-12,2.052115664e-12,2.388691137e-12,1.188431761e-12,1.097818825e-12,4.81299389e-13,3.692196558e-13,7.619058132e-13,2.343510605e-13,1.548662838e-12,8.127404824e-13,4.372314386e-13,2.516766956e-12,1.100684929e-12,8.035991733e-13,1.808870313e-12,8.053704097e-13,5.893219721e-13
0.625,5.965961877e-13,3.646900857e-13,4.683767712e-13,8.483560273e-13,8.889992425e-13,9.279960642e-13,5.38683717e-13,5.326772184e-13,7.023196747e-13,1.027902102e-12,1.667433287e-12,1.852599445e-12,4.241392276e-12,1.977783847e-12,1.354132864e-12,2.023556722e-12,2.336290666e-12,1.166762851e-12,1.099796998e-12,4.875516991e-13,3.643757673e-13,7.665776936e-13,2.316974555e-13,1.546567515e-12,8.1196649e-13,4.373837389e-13,2.490802575e-12,1.107937143e-12,8.011007449e-13,1.819240573e-12,8.062274683e-13,5.82568205e-13
0.6328125,5.897371653e-13,3.622654886e-13,4.633941481e-13,8.489472604e-13,8.85226581e-13,9.370483484e-13,5.423079153e-13,5.313593687e-13,7.014880392e-13,1.035428471e-12,1.666426102e-12,1.843859457e-12,4.173109262e-12,1.958080677e-12,1.336390534e-12,1.995133664e-12,2.284143602e-12,1.145124088e-12,1.101302413e-12,4.935904263e-13,3.594811919e-13,7.7113196e-13,2.291539937e-13,1.544301372e-12,8.112860859e-13,4.377785595e-13,2.464386954e-12,1.115741479e-12,7.985710684e-13,1.829945815e-12,8.071182175e-13,5.760400996e-13
0.640625,5.831022808e-13,3.596435876e-13,4.585795433e-13,8.494638759e-13,8.816096291e-13,9.458274785e-13,5.45788611e-13,5.300749438e-13,7.006861418e-13,1.042850767e-12,1.664195008e-12,1.834704775e-12,4.105748782e-12,1.938165915e-12,1.3186572e-12,1.966891616e-12,2.232550242e-12,1.123855579e-12,1.102496486e-12,4.990163841e-13,3.544428297e-13,7.757568565e-13,2.267084152e-13,1.542563638e-12,8.108281879e-13,4.384059015e-13,2.437519278e-12,1.123257978e-12,7.957329778e-13,1.840510506e-12,8.079409699e-13,5.69811696e-13
0.6484375,5.763355999e-13,3.56868522e-13,4.535874023e-13,8.498572252e-13,8.782655527e-13,9.541087532e-13,5.492791671e-13,5.287729765e-13,6.997006317e-13,1.049949516e-12,1.660884219e-12,1.824623751e-12,4.038437809e-12,1.917831319e-12,1.301117793e-12,1.938780209e-12,2.181579801e-12,1.102492123e-12,1.103372814e-12,5.043071e-13,3.494562884e-13,7.803567898e-13,2.24431148e-13,1.540659652e-12,8.104587182e-13,4.393360613e-13,2.410325078e-12,1.130172363e-12,7.925741072e-13,1.849840297e-12,8.088278484e-13,5.638503124e-13
0.65625,5.694923817e-13,3.54116635e-13,4.484570616e-13,8.503937808e-13,8.752638156e-13,9.625121358e-13,5.525132272e-13,5.275093914e-13,6.986041848e-13,1.056406436e-12,1.657245289e-12,1.813746976e-12,3.970809393e-12,1.897307528e-12,1.284226057e-12,1.911142421e-12,2.131966282e-12,1.080964529e-12,1.104065373e-12,5.098847451e-13,3.446141281e-13,7.847924698e-13,2.223428312e-13,1.538235585e-12,8.100323473e-13,4.404983349e-13,2.382848082e-12,1.136767039e-12,7.892879176e-13,1.858727356e-12,8.099711026e-13,5.580823296e-13
0.6640625,5.628575713e-13,3.514379746e-13,4.434051844e-13,8.511895989e-13,8.725193241e-13,9.711908891e-13,5.554478719e-13,5.263159093e-13,6.975857071e-13,1.062048485e-12,1.65313416e-12,1.802438707e-12,3.902818749e-12,1.876818678e-12,1.267691668e-12,1.883859333e-12,2.084198921e-12,1.059989798e-12,1.104873026e-12,5.155890003e-13,3.397232591e-13,7.893958143e-13,2.204231694e-13,1.536032843e-12,8.096447821e-13,4.418598906e-13,2.354787941e-12,1.142331506e-12,7.859598052e-13,1.86819911e-12,8.114250943e-13,5.525568969e-13
0.671875,5.562599667e-13,3.487289553e-13,4.381953325e-13,8.519716217e-13,8.700072861e-13,9.796952715e-13,5.583840727e-13,5.251976834e-13,6.966005045e-13,1.066916319e-12,1.648090165e-12,1.790648102e-12,3.836129771e-12,1.856121766e-12,1.251229074e-12,1.856562805e-12,2.03705998e-12,1.039405075e-12,1.105676403e-12,5.212154972e-13,3.347392493e-13,7.943739992e-13,2.187133713e-13,1.534096365e-12,8.093357341e-13,4.434717719e-13,2.326355306e-12,1.147128638e-12,7.824907588e-13,1.877257083e-12,8.130263977e-13,5.473179612e-13
0.6796875,5.494655936e-13,3.45917482e-13,4.329496496e-13,8.526779351e-13,8.677485114e-13,9.882012867e-13,5.615509204e-13,5.242263323e-13,6.95552122e-13,1.071024584e-12,1.642311331e-12,1.778197074e-12,3.77220212e-12,1.835008993e-12,1.235114858e-12,1.829545722e-12,1.989608291e-12,1.018555856e-12,1.106193194e-12,5.266788034e-13,3.298041585e-13,7.993840927e-13,2.172241751e-13,1.531709655e-12,8.090612138e-13,4.452667458e-13,2.298088979e-12,1.152368407e-12,7.78915716e-13,1.885561928e-12,8.146489375e-13,5.422603721e-13
0.6875,5.425975358e-13,3.430705401e-13,4.278157271e-13,8.535828791e-13,8.65754372e-13,9.968227994e-13,5.650129234e-13,5.234407415e-13,6.944236768e-13,1.074368354e-12,1.635822046e-12,1.765118599e-12,3.707797358e-12,1.813700719e-12,1.219421785e-12,1.80306025e-12,1.943088045e-12,9.976870376e-13,1.106515512e-12,5.319846587e-13,3.249924037e-13,8.042140915e-13,2.159057012e-13,1.528849356e-12,8.088657852e-13,4.471688122e-13,2.269684021e-12,1.157727622e-12,7.753466105e-13,1.894084939e-12,8.16363948e-13,5.373493342e-13
0.6953125,5.358097347e-13,3.402860844e-13,4.223911631e-13,8.547388625e-13,8.641256414e-13,1.005102239e-12,5.686237761e-13,5.227200587e-13,6.932031077e-13,1.077088254e-12,1.628347267e-12,1.751514644e-12,3.640909262e-12,1.792466893e-12,1.203997819e-12,1.776975172e-12,1.898677416e-12,9.771257676e-13,1.106737973e-12,5.372530718e-13,3.203091743e-13,8.090117732e-13,2.147608337e-13,1.525897941e-12,8.08724959e-13,4.492817184e-13,2.24083316e-12,1.162248878e-12,7.716994601e-13,1.902402666e-12,8.18290121e-13,5.327062855e-13
0.703125,5.290590076e-13,3.375514992e-13,4.167743702e-13,8.558998489e-13,8.62859077e-13,1.013044247e-12,5.721111212e-13,5.219176113e-13,6.919437273e-13,1.079285236e-12,1.620190551e-12,1.737387919e-12,3.575724105e-12,1.771338987e-12,1.18896026e-12,1.751336204e-12,1.855426824e-12,9.567584094e-13,1.106758787e-12,5.423889662e-13,3.156970823e-13,8.13831954e-13,2.137854552e-13,1.522892075e-12,8.085701742e-13,4.517033971e-13,2.212075772e-12,1.166148603e-12,7.679891187e-13,1.909728753e-12,8.204847648e-13,5.283401437e-13
0.7109375,5.222915025e-13,3.347267378e-13,4.114541638e-13,8.56958016e-13,8.617482821e-13,1.020898287e-12,5.752957895e-13,5.210486631e-13,6.907153097e-13,1.080833375e-12,1.611774691e-12,1.722664954e-12,3.514375217e-12,1.750165951e-12,1.174446569e-12,1.726086047e-12,1.812481182e-12,9.366486764e-13,1.106556105e-12,5.472072061e-13,3.111445888e-13,8.186210494e-13,2.129337001e-13,1.519752508e-12,8.085087991e-13,4.542877358e-13,2.18364139e-12,1.169887368e-12,7.642969334e-13,1.916534259e-12,8.227527974e-13,5.241591318e-13
0.71875,5.155422958e-13,3.316815147e-13,4.062901462e-13,8.58016596e-13,8.60735067e-13,1.028520822e-12,5.781539745e-13,5.202185131e-13,6.894931953e-13,1.081570813e-12,1.602958076e-12,1.707319852e-12,3.45391986e-12,1.7287332e-12,1.160380172e-12,1.701197448e-12,1.770759326e-12,9.168403651e-13,1.106100797e-12,5.517794444e-13,3.067815263e-13,8.233783467e-13,2.122570906e-13,1.516500089e-12,8.086703106e-13,4.568385735e-13,2.155389272e-12,1.173144387e-12,7.603822796e-13,1.923106805e-12,8.247183858e-13,5.202279205e-13
0.7265625,5.087999867e-13,3.284758991e-13,4.010809291e-13,8.591191358e-13,8.599745461e-13,1.035882619e-12,5.8088014e-13,5.194871945e-13,6.882838516e-13,1.081559698e-12,1.593548765e-12,1.691500088e-12,3.393404782e-12,1.707056392e-12,1.146621981e-12,1.677021201e-12,1.730547575e-12,8.97395721e-13,1.105371324e-12,5.561233284e-13,3.026058385e-13,8.281425881e-13,2.118228994e-13,1.513253203e-12,8.089757996e-13,4.594462732e-13,2.127845366e-12,1.175545711e-12,7.562168295e-13,1.929377376e-12,8.264419718e-13,5.166659596e-13
0.734375,5.020343781e-13,3.252632288e-13,3.959926973e-13,8.602379892e-13,8.595494119e-13,1.043069003e-12,5.837059604e-13,5.188699005e-13,6.8715218e-13,1.080977e-12,1.583542201e-12,1.67531497e-12,3.334383849e-12,1.685374094e-12,1.133075163e-12,1.65339395e-12,1.690760376e-12,8.785789641e-13,1.104478305e-12,5.602485834e-13,2.985089849e-13,8.330000308e-13,2.115822138e-13,1.510095801e-12,8.093594357e-13,4.623348651e-13,2.101357282e-12,1.177580791e-12,7.521677941e-13,1.935336204e-12,8.283194979e-13,5.134468369e-13
0.7421875,4.95337131e-13,3.220426288e-13,3.909883529e-13,8.613742496e-13,8.593669917e-13,1.049933674e-12,5.866116746e-13,5.183104524e-13,6.860252684e-13,1.079804789e-12,1.572712052e-12,1.658549894e-12,3.276571866e-12,1.663682089e-12,1.119688803e-12,1.629746128e-12,1.651468903e-12,8.601046808e-13,1.103386322e-12,5.643689718e-13,2.946387598e-13,8.378905487e-13,2.115547028e-13,1.506968409e-12,8.100339558e-13,4.655133054e-13,2.075183853e-12,1.179995843e-12,7.481541425e-13,1.940659503e-12,8.303173369e-13,5.104416924e-13
0.75,4.887805289e-13,3.187601171e-13,3.859443402e-13,8.624532266e-13,8.591782698e-13,1.056382935e-12,5.895567517e-13,5.177170195e-13,6.847347933e-13,1.078001185e-12,1.560881954e-12,1.641124869e-12,3.218549616e-12,1.641867844e-12,1.106482642e-12,1.606296579e-12,1.613488068e-12,8.414862905e-13,1.101949738e-12,5.682720411e-13,2.911441578e-13,8.425450517e-13,2.118528889e-13,1.503868663e-12,8.110827301e-13,4.688665188e-13,2.048880446e-12,1.182752397e-12,7.439581955e-13,1.945708631e-12,8.321848888e-13,5.074879244e-13
0.7578125,4.822705299e-13,3.15464222e-13,3.81009139e-13,8.634132243e-13,8.588925958e-13,1.062443168e-12,5.92553141e-13,5.171742064e-13,6.83312805e-13,1.075804125e-12,1.548394462e-12,1.623418583e-12,3.16048495e-12,1.62007649e-12,1.093659265e-12,1.583442205e-12,1.576473046e-12,8.230754708e-13,1.100215749e-12,5.715031671e-13,2.878715134e-13,8.469424141e-13,2.124352131e-13,1.500777284e-12,8.120935652e-13,4.723798417e-13,2.023165537e-12,1.185547326e-12,7.399014209e-13,1.950887323e-12,8.339763047e-13,5.045981238e-13
0.765625,4.75688985e-13,3.121325311e-13,3.763380278e-13,8.643991793e-13,8.588733682e-13,1.068084641e-12,5.954191432e-13,5.168848022e-13,6.820116138e-13,1.07333212e-12,1.535439373e-12,1.605512437e-12,3.103867753e-12,1.598228862e-12,1.081227656e-12,1.56079688e-12,1.540120655e-12,8.052987188e-13,1.098275324e-12,5.743508403e-13,2.847361369e-13,8.513906178e-13,2.131810093e-13,1.49758857e-12,8.129035956e-13,4.760829015e-13,1.998503443e-12,1.18852571e-12,7.360355718e-13,1.954984226e-12,8.357341147e-13,5.020710227e-13
0.7734375,4.690754111e-13,3.087196704e-13,3.718756139e-13,8.654954887e-13,8.593100488e-13,1.073215515e-12,5.981331988e-13,5.168201682e-13,6.809485386e-13,1.070403129e-12,1.521561508e-12,1.587139274e-12,3.049147019e-12,1.576049795e-12,1.068625365e-12,1.537998249e-12,1.504688991e-12,7.880496424e-13,1.096226532e-12,5.772639801e-13,2.818159379e-13,8.559703439e-13,2.140789652e-13,1.494601105e-12,8.140583624e-13,4.79918009e-13,1.974613497e-12,1.191755776e-12,7.320669901e-13,1.957599276e-12,8.373744286e-13,4.999858913e-13
0.78125,4.62576244e-13,3.053966928e-13,3.675453799e-13,8.665898348e-13,8.598489274e-13,1.077790816e-12,6.008641549e-13,5.16792456e-13,6.799656421e-13,1.067070424e-12,1.506809155e-12,1.568579974e-12,2.995737094e-12,1.553886044e-12,1.055754238e-12,1.515306561e-12,1.469788933e-12,7.714276284e-13,1.094258892e-12,5.800243175e-13,2.790471665e-13,8.604396181e-13,2.151325489e-13,1.492289135e-12,8.158786143e-13,4.837845419e-13,1.951682772e-12,1.194959011e-12,7.282826339e-13,1.960221488e-12,8.39000675e-13,4.98066656e-13
0.7890625,4.561620032e-13,3.022841056e-13,3.634687824e-13,8.677523853e-13,8.605223622e-13,1.08205824e-12,6.034066243e-13,5.16803983e-13,6.789007069e-13,1.063377315e-12,1.492125408e-12,1.550114262e-12,2.944273018e-12,1.53214135e-12,1.043443241e-12,1.49310263e-12,1.435287418e-12,7.554786984e-13,1.092372711e-12,5.824824132e-13,2.763645867e-13,8.646963083e-13,2.163718599e-13,1.490284865e-12,8.181115633e-13,4.877711534e-13,1.929916346e-12,1.198048082e-12,7.24894819e-13,1.962917552e-12,8.407908403e-13,4.963859757e-13
0.796875,4.497253774e-13,2.992032268e-13,3.597507274e-13,8.691494872e-13,8.618445575e-13,1.086265774e-12,6.057337476e-13,5.169290632e-13,6.777301542e-13,1.058825376e-12,1.4778161e-12,1.531248796e-12,2.895837199e-12,1.510448771e-12,1.031866957e-12,1.471628936e-12,1.401995799e-12,7.397595107e-13,1.090473583e-12,5.848613608e-13,2.738627864e-13,8.689055367e-13,2.179005533e-13,1.487641499e-12,8.206446678e-13,4.921057771e-13,1.908391754e-12,1.201412889e-12,7.214306106e-13,1.96471334e-12,8.427640405e-13,4.952822247e-13
0.8046875,4.434886279e-13,2.960351924e-13,3.561805263e-13,8.706446712e-13,8.637082601e-13,1.090143078e-12,6.083786791e-13,5.17092888e-13,6.765372927e-13,1.053196905e-12,1.463327726e-12,1.511865744e-12,2.849835408e-12,1.488610105e-12,1.020391469e-12,1.450834761e-12,1.370110713e-12,7.241936108e-13,1.088675915e-12,5.871068176e-13,2.715942883e-13,8.732441921e-13,2.196562151e-13,1.484309533e-12,8.234311315e-13,4.967053879e-13,1.886439198e-12,1.205464495e-12,7.177855872e-13,1.966098349e-12,8.447596054e-13,4.946464104e-13
0.8125,4.37555629e-13,2.928932308e-13,3.52528229e-13,8.720699177e-13,8.656219736e-13,1.093384996e-12,6.112099907e-13,5.172674793e-13,6.75553983e-13,1.047012846e-12,1.448484857e-12,1.492607501e-12,2.804411685e-12,1.466958987e-12,1.008930961e-12,1.430140865e-12,1.338889567e-12,7.09098101e-13,1.08699361e-12,5.889937394e-13,2.695303005e-13,8.777639548e-13,2.214444759e-13,1.481097125e-12,8.262432487e-13,5.012949454e-13,1.864714623e-12,1.210075831e-12,7.143429682e-13,1.967596146e-12,8.46541879e-13,4.942673552e-13
0.8203125,4.315009346e-13,2.898341971e-13,3.488913235e-13,8.735098922e-13,8.676221491e-13,1.096121446e-12,6.135857724e-13,5.175615511e-13,6.749214241e-13,1.040492609e-12,1.433306074e-12,1.473547174e-12,2.758313533e-12,1.445443284e-12,9.975275154e-13,1.409169196e-12,1.307922716e-12,6.944043477e-13,1.085274474e-12,5.905286576e-13,2.676440721e-13,8.824172576e-13,2.232984226e-13,1.478047338e-12,8.292308441e-13,5.059274573e-13,1.84367515e-12,1.215062594e-12,7.111170493e-13,1.969042358e-12,8.480845102e-13,4.942305517e-13
0.828125,4.25276447e-13,2.868021225e-13,3.455038478e-13,8.750640562e-13,8.698607815e-13,1.09847693e-12,6.158428178e-13,5.180233483e-13,6.744096862e-13,1.033409895e-12,1.417648016e-12,1.454309516e-12,2.713293941e-12,1.423920533e-12,9.860996754e-13,1.388519516e-12,1.277560429e-12,6.800879445e-13,1.083572957e-12,5.918159815e-13,2.659158643e-13,8.870483292e-13,2.253794052e-13,1.474601137e-12,8.327979838e-13,5.106913546e-13,1.823080703e-12,1.220558798e-12,7.080220363e-13,1.970196993e-12,8.495901386e-13,4.944200467e-13
0.8359375,4.193611238e-13,2.837950792e-13,3.424715461e-13,8.767424076e-13,8.721953666e-13,1.100415828e-12,6.183742528e-13,5.186172656e-13,6.737717818e-13,1.025910137e-12,1.401874175e-12,1.435009178e-12,2.672244742e-12,1.402628109e-12,9.752622288e-13,1.368763956e-12,1.248243658e-12,6.664426234e-13,1.081984879e-12,5.929834176e-13,2.643940251e-13,8.914693139e-13,2.276940851e-13,1.471056881e-12,8.369034323e-13,5.154400651e-13,1.802994147e-12,1.22618097e-12,7.051919375e-13,1.969857051e-12,8.511733713e-13,4.946378344e-13
0.84375,4.136569884e-13,2.808776239e-13,3.397468782e-13,8.784668722e-13,8.745785334e-13,1.101945266e-12,6.205313304e-13,5.19309132e-13,6.730677796e-13,1.01819537e-12,1.386447039e-12,1.415696719e-12,2.633594485e-12,1.381495381e-12,9.653004628e-13,1.349454608e-12,1.219817753e-12,6.533599479e-13,1.080466713e-12,5.941217484e-13,2.631382136e-13,8.957371462e-13,2.302348767e-13,1.467789972e-12,8.413179617e-13,5.202996381e-13,1.783442713e-12,1.231389353e-12,7.026063072e-13,1.967820049e-12,8.52774399e-13,4.95100239e-13
0.8515625,4.077454148e-13,2.780438597e-13,3.372554101e-13,8.800974454e-13,8.77067343e-13,1.103047616e-12,6.222416434e-13,5.200866679e-13,6.723707157e-13,1.010110588e-12,1.371175582e-12,1.396094233e-12,2.594147878e-12,1.360254539e-12,9.554853102e-13,1.330106579e-12,1.191946308e-12,6.405770036e-13,1.078994627e-12,5.950517705e-13,2.621160029e-13,9.001158677e-13,2.330530422e-13,1.464416134e-12,8.460387123e-13,5.255328797e-13,1.76410732e-12,1.236691948e-12,7.000795619e-13,1.966394416e-12,8.542284448e-13,4.959563058e-13
0.859375,4.017537061e-13,2.751293322e-13,3.349710868e-13,8.816829086e-13,8.796607302e-13,1.103669246e-12,6.242180998e-13,5.209608211e-13,6.716267789e-13,1.001648503e-12,1.355775019e-12,1.376297819e-12,2.55533615e-12,1.338986196e-12,9.455697593e-13,1.310892141e-12,1.164771276e-12,6.283375023e-13,1.077434278e-12,5.955519038e-13,2.61296404e-13,9.045733969e-13,2.361009151e-13,1.461139102e-12,8.510587518e-13,5.309968971e-13,1.74518332e-12,1.2425446e-12,6.974317364e-13,1.966072737e-12,8.553893115e-13,4.969707775e-13
0.8671875,3.958881167e-13,2.72061576e-13,3.328546529e-13,8.833469674e-13,8.823535493e-13,1.103773273e-12,6.261220962e-13,5.218452644e-13,6.708331827e-13,9.929144863e-13,1.340179539e-12,1.356556299e-12,2.518955409e-12,1.317748814e-12,9.358540105e-13,1.291915459e-12,1.13832552e-12,6.167893751e-13,1.075649962e-12,5.957482461e-13,2.606717025e-13,9.087845954e-13,2.393218205e-13,1.458468773e-12,8.564165963e-13,5.365067802e-13,1.727232945e-12,1.248489702e-12,6.946882592e-13,1.964756703e-12,8.563201945e-13,4.980271716e-13
0.875,3.900645014e-13,2.690561706e-13,3.308882008e-13,8.850209692e-13,8.850863825e-13,1.103422398e-12,6.273521126e-13,5.22587912e-13,6.700251782e-13,9.838200893e-13,1.324361641e-12,1.336833239e-12,2.483536539e-12,1.296597776e-12,9.262582692e-13,1.273069494e-12,1.112299702e-12,6.05597028e-13,1.073825547e-12,5.957702016e-13,2.602488226e-13,9.127085734e-13,2.427298958e-13,1.455917589e-12,8.623572518e-13,5.420678478e-13,1.710333712e-12,1.254657917e-12,6.922294763e-13,1.962362312e-12,8.571347718e-13,4.992360442e-13
0.8828125,3.842288948e-13,2.661836259e-13,3.290428483e-13,8.866717665e-13,8.879109341e-13,1.102777348e-12,6.284456028e-13,5.232640643e-13,6.692397467e-13,9.74405679e-13,1.308517984e-12,1.317139181e-12,2.448722455e-12,1.275728686e-12,9.167869281e-13,1.254376396e-12,1.08679321e-12,5.946074258e-13,1.072030224e-12,5.953822838e-13,2.601716032e-13,9.165328178e-13,2.462588672e-13,1.453161242e-12,8.689318361e-13,5.475839006e-13,1.69433247e-12,1.261590956e-12,6.901651204e-13,1.959926611e-12,8.577746619e-13,5.007011934e-13
0.890625,3.783704991e-13,2.632085793e-13,3.271773753e-13,8.882381154e-13,8.909863112e-13,1.101735625e-12,6.296093815e-13,5.240623497e-13,6.685021527e-13,9.647079369e-13,1.292739167e-12,1.29748155e-12,2.415396327e-12,1.254930407e-12,9.074998357e-13,1.235875e-12,1.06197766e-12,5.839441561e-13,1.069980892e-12,5.945046838e-13,2.605567812e-13,9.202259197e-13,2.498408813e-13,1.450372454e-12,8.758595135e-13,5.53076227e-13,1.679341356e-12,1.26872149e-12,6.881225406e-13,1.95675667e-12,8.581730411e-13,5.024850337e-13
0.8984375,3.725288738e-13,2.601847411e-13,3.25320994e-13,8.894891326e-13,8.941590402e-13,1.100133179e-12,6.302640686e-13,5.249715137e-13,6.677359946e-13,9.54519913e-13,1.276812541e-12,1.277702064e-12,2.383721351e-12,1.233915021e-12,8.982051431e-13,1.217636639e-12,1.03754618e-12,5.735977451e-13,1.067685256e-12,5.935233021e-13,2.61281954e-13,9.237359757e-13,2.535691429e-13,1.447073337e-12,8.829944903e-13,5.587156847e-13,1.665402784e-12,1.275599551e-12,6.86162643e-13,1.952557121e-12,8.583731438e-13,5.044945079e-13
0.90625,3.668214385e-13,2.573963677e-13,3.237644032e-13,8.906797888e-13,8.973031317e-13,1.09834685e-12,6.306624112e-13,5.260498696e-13,6.669166697e-13,9.440348052e-13,1.260891084e-12,1.257893311e-12,2.354727555e-12,1.212970601e-12,8.890762417e-13,1.199675564e-12,1.013638534e-12,5.636410011e-13,1.065510021e-12,5.926483361e-13,2.622679735e-13,9.27207644e-13,2.575324293e-13,1.443189e-12,8.904954201e-13,5.644111399e-13,1.652187791e-12,1.283117158e-12,6.846822452e-13,1.948048408e-12,8.58483773e-13,5.065832546e-13
0.9140625,3.612988855e-13,2.54693772e-13,3.226270699e-13,8.924766369e-13,9.008021539e-13,1.096636607e-12,6.314470478e-13,5.275858432e-13,6.662027205e-13,9.337763944e-13,1.245284211e-12,1.238333034e-12,2.328853084e-12,1.192362603e-12,8.803114263e-13,1.181840697e-12,9.909902985e-13,5.544058138e-13,1.063597519e-12,5.916413765e-13,2.636545551e-13,9.306903844e-13,2.617043369e-13,1.43957218e-12,8.985746483e-13,5.700505319e-13,1.639561831e-12,1.29184007e-12,6.835001149e-13,1.943200055e-12,8.585639061e-13,5.088368326e-13
0.921875,3.560097152e-13,2.51799587e-13,3.218760017e-13,8.948780799e-13,9.048464119e-13,1.094481368e-12,6.324477114e-13,5.296253665e-13,6.656567179e-13,9.236916294e-13,1.229832056e-12,1.219017279e-12,2.304841665e-12,1.171981351e-12,8.716598008e-13,1.164167001e-12,9.694359073e-13,5.46135284e-13,1.061836972e-12,5.903076254e-13,2.655351336e-13,9.341149896e-13,2.660660892e-13,1.436381509e-12,9.073073912e-13,5.75730081e-13,1.627973422e-12,1.301136237e-12,6.823131219e-13,1.937793949e-12,8.584629526e-13,5.113453592e-13
0.9296875,3.509307261e-13,2.488850899e-13,3.215705511e-13,8.97408849e-13,9.090972233e-13,1.091590953e-12,6.33435772e-13,5.31891189e-13,6.6514823e-13,9.134997156e-13,1.214464922e-12,1.199823427e-12,2.282392817e-12,1.151761619e-12,8.631781377e-13,1.146651013e-12,9.480013728e-13,5.387680466e-13,1.060137296e-12,5.886923605e-13,2.678718256e-13,9.374982704e-13,2.706101568e-13,1.433228583e-12,9.165586229e-13,5.814204997e-13,1.617544604e-12,1.310523594e-12,6.813174269e-13,1.931741112e-12,8.581097487e-13,5.139821776e-13
0.9375,3.459282285e-13,2.461554906e-13,3.216141444e-13,9.000185604e-13,9.134220147e-13,1.088488005e-12,6.344727429e-13,5.34234333e-13,6.646515543e-13,9.033371979e-13,1.19937308e-12,1.180750897e-12,2.261494597e-12,1.131694793e-12,8.55077376e-13,1.128991993e-12,9.268088881e-13,5.320213664e-13,1.058504286e-12,5.869391485e-13,2.706172349e-13,9.408450479e-13,2.753208903e-13,1.430158856e-12,9.261834466e-13,5.870689609e-13,1.607604641e-12,1.320283827e-12,6.806629434e-13,1.925188829e-12,8.577315718e-13,5.166832337e-13
0.9453125,3.410847187e-13,2.435035215e-13,3.217685032e-13,9.028301192e-13,9.179610651e-13,1.085566442e-12,6.353717789e-13,5.367028161e-13,6.642815988e-13,8.931884915e-13,1.184403991e-12,1.161811855e-12,2.24144385e-12,1.111817377e-12,8.471740263e-13,1.111362648e-12,9.068423907e-13,5.256347e-13,1.057002536e-12,5.851528773e-13,2.737594872e-13,9.441162409e-13,2.802533881e-13,1.427307699e-12,9.363455961e-13,5.928001765e-13,1.59795003e-12,1.330775809e-12,6.802626483e-13,1.919171932e-12,8.573660645e-13,5.195149861e-13
0.953125,3.364636173e-13,2.408576384e-13,3.22039524e-13,9.057525735e-13,9.226930435e-13,1.082643456e-12,6.360219864e-13,5.393377946e-13,6.640411484e-13,8.827841368e-13,1.169381136e-12,1.14307488e-12,2.222819344e-12,1.092180265e-12,8.394978675e-13,1.09434752e-12,8.881111459e-13,5.19612328e-13,1.055596293e-12,5.831724032e-13,2.773169406e-13,9.473263155e-13,2.854472187e-13,1.424816922e-12,9.472818917e-13,5.986314444e-13,1.589268008e-12,1.342065169e-12,6.801657508e-13,1.913402517e-12,8.5683504e-13,5.225020333e-13
0.9609375,3.317805219e-13,2.38267369e-13,3.226224648e-13,9.086828941e-13,9.275717237e-13,1.079482229e-12,6.364250424e-13,5.421256671e-13,6.638072804e-13,8.721827839e-13,1.154434925e-12,1.124677199e-12,2.206392774e-12,1.072578203e-12,8.321993587e-13,1.077922684e-12,8.699800459e-13,5.140972527e-13,1.05418683e-12,5.806934414e-13,2.812256603e-13,9.504646248e-13,2.90810169e-13,1.42270249e-12,9.588550768e-13,6.044535882e-13,1.581872414e-12,1.354191014e-12,6.80435099e-13,1.906026294e-12,8.561595605e-13,5.256874738e-13
0.96875,3.269059386e-13,2.356962785e-13,3.236172941e-13,9.116286737e-13,9.327393755e-13,1.076420636e-12,6.363031066e-13,5.450516864e-13,6.635620376e-13,8.614636957e-13,1.139781079e-12,1.106631751e-12,2.192179976e-12,1.052741028e-12,8.247584668e-13,1.061649858e-12,8.524723144e-13,5.092038413e-13,1.052822265e-12,5.779758661e-13,2.853972263e-13,9.535120272e-13,2.96248981e-13,1.420568247e-12,9.708173768e-13,6.10279778e-13,1.576188094e-12,1.367035268e-12,6.809927488e-13,1.897796321e-12,8.551078751e-13,5.291560934e-13
0.9765625,3.221186502e-13,2.331793439e-13,3.249191657e-13,9.146883315e-13,9.38117146e-13,1.072959544e-12,6.357872753e-13,5.479478672e-13,6.63448503e-13,8.50289367e-13,1.12529976e-12,1.088896089e-12,2.177957126e-12,1.033352584e-12,8.17538772e-13,1.045103622e-12,8.344763377e-13,5.049622986e-13,1.051571638e-12,5.752081429e-13,2.899372078e-13,9.56588738e-13,3.018202144e-13,1.418471311e-12,9.832891318e-13,6.160704851e-13,1.571276475e-12,1.380055121e-12,6.819656144e-13,1.890762857e-12,8.537225393e-13,5.329130224e-13
0.984375,3.172926853e-13,2.307503119e-13,3.263195309e-13,9.179069125e-13,9.436326753e-13,1.069269882e-12,6.353122092e-13,5.508219123e-13,6.634599367e-13,8.389068076e-13,1.111452632e-12,1.071504589e-12,2.165983238e-12,1.014447742e-12,8.107242703e-13,1.027891711e-12,8.155686505e-13,5.012856561e-13,1.050478044e-12,5.725805884e-13,2.948857849e-13,9.597222567e-13,3.075708966e-13,1.416234962e-12,9.965571779e-13,6.218849699e-13,1.567172722e-12,1.392841952e-12,6.833379057e-13,1.883476072e-12,8.521178327e-13,5.368832793e-13
0.9921875,3.12642296e-13,2.283923286e-13,3.277732866e-13,9.211593083e-13,9.491335411e-13,1.065488751e-12,6.348244013e-13,5.536757017e-13,6.633029778e-13,8.277765112e-13,1.098165926e-12,1.054408697e-12,2.1560998e-12,9.958000436e-13,8.040722586e-13,1.010899533e-12,7.974536242e-13,4.980199346e-13,1.049694282e-12,5.696955382e-13,3.001255127e-13,9.628229122e-13,3.134608529e-13,1.413744413e-12,1.01030478e-12,6.279168923e-13,1.563854676e-12,1.406477977e-12,6.849179094e-13,1.875040673e-12,8.506305827e-13,5.409286527e-13
1,3.082623113e-13,2.260197764e-13,3.294591772e-13,9.24407453e-13,9.544565762e-13,1.061809415e-12,6.340101823e-13,5.564698029e-13,6.628665993e-13,8.167507039e-13,1.084857794e-12,1.037507135e-12,2.148130431e-12,9.773131081e-13,7.972774338e-13,9.946408967e-13,7.809706069e-13,4.95263556e-13,1.049245445e-12,5.661588993e-13,3.056633598e-13,9.658971657e-13,3.194864316e-13,1.411366508e-12,1.024090311e-12,6.339226541e-13,1.561457539e-12,1.421801748e-12,6.865052985e-13,1.867527313e-12,8.490320374e-13,5.449399226e-13
1.0078125,3.037441251e-13,2.235797537e-13,3.313673657e-13,9.278056303e-13,9.598207774e-13,1.058260132e-12,6.328390512e-13,5.593801579e-13,6.624967308e-13,8.055952968e-13,1.071387968e-12,1.020985166e-12,2.142651029e-12,9.589009441e-13,7.905464897e-13,9.782715627e-13,7.648593595e-13,4.930322762e-13,1.048871771e-12,5.628001494e-13,3.117554602e-13,9.688910646e-13,3.257279232e-13,1.409358418e-12,1.038301934e-12,6.396377287e-13,1.560092957e-12,1.437545725e-12,6.881613286e-13,1.860833767e-12,8.469713918e-13,5.490024489e-13
1.015625,2.99154597e-13,2.211756198e-13,3.333559828e-13,9.313475621e-13,9.655323978e-13,1.054801394e-12,6.313882748e-13,5.626503848e-13,6.624154521e-13,7.945727811e-13,1.058150393e-12,1.005192359e-12,2.138336994e-12,9.406163912e-13,7.842878639e-13,9.618089375e-13,7.49110007e-13,4.91015136e-13,1.048416287e-12,5.601728085e-13,3.183551922e-13,9.71710308e-13,3.321934665e-13,1.407562717e-12,1.053578752e-12,6.45347159e-13,1.55967636e-12,1.452665464e-12,6.901952738e-13,1.852815877e-12,8.447306253e-13,5.532111359e-13
1.0234375,2.948129936e-13,2.188907212e-13,3.354028274e-13,9.34904132e-13,9.714340088e-13,1.051448496e-12,6.29690941e-13,5.661937519e-13,6.623587658e-13,7.837664061e-13,1.045449168e-12,9.900726502e-13,2.134647181e-12,9.224774037e-13,7.784173345e-13,9.458939841e-13,7.34313425e-13,4.892685502e-13,1.048001635e-12,5.57231252e-13,3.251139946e-13,9.744617017e-13,3.387772455e-13,1.406391705e-12,1.069505753e-12,6.512666604e-13,1.560198981e-12,1.468283177e-12,6.926588607e-13,1.843345558e-12,8.426308429e-13,5.575001831e-13
1.03125,2.906426258e-13,2.166539059e-13,3.376908359e-13,9.385316323e-13,9.772756286e-13,1.048120725e-12,6.277609304e-13,5.698301777e-13,6.622289437e-13,7.729662317e-13,1.033217891e-12,9.753475161e-13,2.132908922e-12,9.043888612e-13,7.726780353e-13,9.302466858e-13,7.198242083e-13,4.881878539e-13,1.04781462e-12,5.535946771e-13,3.320715986e-13,9.772183987e-13,3.455251314e-13,1.405616132e-12,1.085666417e-12,6.572293627e-13,1.561597888e-12,1.485552297e-12,6.954371022e-13,1.833251326e-12,8.405053283e-13,5.618516697e-13
1.0390625,2.867292283e-13,2.143991566e-13,3.404490971e-13,9.423171717e-13,9.830997226e-13,1.044871033e-12,6.257390968e-13,5.736590627e-13,6.623623531e-13,7.622897796e-13,1.0212104e-12,9.610933714e-13,2.134102749e-12,8.866136384e-13,7.672018788e-13,9.145798954e-13,7.054607455e-13,4.876978974e-13,1.047929457e-12,5.501002663e-13,3.394760499e-13,9.798817441e-13,3.525989797e-13,1.403786809e-12,1.102806276e-12,6.631040598e-13,1.563992081e-12,1.504027447e-12,6.986176266e-13,1.822882456e-12,8.38075714e-13,5.663242335e-13
1.046875,2.831995326e-13,2.121371318e-13,3.436123743e-13,9.462815379e-13,9.889238906e-13,1.041834474e-12,6.23833173e-13,5.777654352e-13,6.627795634e-13,7.518793227e-13,1.009367514e-12,9.474260858e-13,2.138264399e-12,8.6930476e-13,7.619944679e-13,8.989762027e-13,6.915114835e-13,4.875635667e-13,1.048318037e-12,5.467301297e-13,3.472486329e-13,9.824835859e-13,3.598856102e-13,1.401193583e-12,1.120965986e-12,6.688381284e-13,1.567679423e-12,1.522839425e-12,7.021750893e-13,1.812718698e-12,8.353713452e-13,5.708539953e-13
1.0546875,2.799340155e-13,2.09949685e-13,3.470964633e-13,9.504439156e-13,9.946733078e-13,1.038783113e-12,6.218271219e-13,5.820049741e-13,6.632041997e-13,7.416150069e-13,9.978085206e-13,9.342662931e-13,2.144089446e-12,8.521378564e-13,7.567972009e-13,8.834871326e-13,6.779165956e-13,4.87927957e-13,1.048999206e-12,5.43020923e-13,3.55247488e-13,9.852222339e-13,3.671518001e-13,1.399565609e-12,1.139040767e-12,6.743918871e-13,1.57246737e-12,1.542212688e-12,7.06082465e-13,1.802779914e-12,8.326103999e-13,5.75391152e-13
1.0625,2.770509049e-13,2.079229984e-13,3.510155754e-13,9.547361267e-13,1.000497755e-12,1.035612114e-12,6.195284998e-13,5.863242913e-13,6.638205093e-13,7.316089343e-13,9.865388525e-13,9.217532993e-13,2.151396753e-12,8.351794511e-13,7.517132135e-13,8.682461544e-13,6.648390464e-13,4.887904051e-13,1.049968177e-12,5.392606046e-13,3.635436704e-13,9.882676592e-13,3.744334809e-13,1.398772787e-12,1.157134764e-12,6.798178319e-13,1.57826135e-12,1.563089686e-12,7.105486691e-13,1.792823591e-12,8.297358188e-13,5.800953136e-13
1.0703125,2.745709648e-13,2.059661255e-13,3.55124883e-13,9.59191318e-13,1.006649873e-12,1.032732514e-12,6.173546616e-13,5.907672638e-13,6.647866347e-13,7.219123968e-13,9.755677673e-13,9.098768343e-13,2.162531543e-12,8.187007872e-13,7.469609485e-13,8.530516061e-13,6.520286224e-13,4.899847655e-13,1.051132979e-12,5.358052772e-13,3.722692194e-13,9.916303622e-13,3.818519445e-13,1.397717954e-12,1.176067952e-12,6.85175265e-13,1.585383743e-12,1.584971725e-12,7.154233278e-13,1.783094563e-12,8.266473301e-13,5.85063472e-13
1.078125,2.721785412e-13,2.039756501e-13,3.591075422e-13,9.639405229e-13,1.013048581e-12,1.030225405e-12,6.152129559e-13,5.952218019e-13,6.656224292e-13,7.120125931e-13,9.649852749e-13,8.981462632e-13,2.177257415e-12,8.024121229e-13,7.425166574e-13,8.378838186e-13,6.393709308e-13,4.917686178e-13,1.052606797e-12,5.325984668e-13,3.814174538e-13,9.950972662e-13,3.894667341e-13,1.396404627e-12,1.195449855e-12,6.905236276e-13,1.593507713e-12,1.606525942e-12,7.204029866e-13,1.773620477e-12,8.236846405e-13,5.900903467e-13
1.0859375,2.69790026e-13,2.020058561e-13,3.632611963e-13,9.68763116e-13,1.019324716e-12,1.027705319e-12,6.123169507e-13,5.996452657e-13,6.661702912e-13,7.016545446e-13,9.546224573e-13,8.864999493e-13,2.192866388e-12,7.860410199e-13,7.382131125e-13,8.23143209e-13,6.275390217e-13,4.94370305e-13,1.054486404e-12,5.293301792e-13,3.907982421e-13,9.984980771e-13,3.973746089e-13,1.395204858e-12,1.214884337e-12,6.959008515e-13,1.602262761e-12,1.628482522e-12,7.25597776e-13,1.764113331e-12,8.208320516e-13,5.950126785e-13
1.09375,2.674223117e-13,1.999688462e-13,3.678410329e-13,9.734387114e-13,1.025364448e-12,1.025284667e-12,6.087548079e-13,6.042209457e-13,6.669940326e-13,6.912734767e-13,9.442324107e-13,8.754344792e-13,2.209891839e-12,7.696338456e-13,7.335995678e-13,8.081747441e-13,6.158743001e-13,4.975293224e-13,1.056478353e-12,5.258601204e-13,4.004079121e-13,1.001929985e-12,4.055345857e-13,1.394344291e-12,1.234934201e-12,7.011553626e-13,1.612126735e-12,1.651999108e-12,7.308911374e-13,1.754500144e-12,8.17342942e-13,6.000021727e-13
1.1015625,2.6521724e-13,1.977637396e-13,3.727188925e-13,9.783160677e-13,1.031516763e-12,1.023484179e-12,6.050147179e-13,6.090264164e-13,6.682925544e-13,6.811163867e-13,9.339961927e-13,8.650802024e-13,2.229982508e-12,7.533226144e-13,7.287139787e-13,7.924982685e-13,6.035939631e-13,5.011062981e-13,1.058572896e-12,5.22616538e-13,4.104896395e-13,1.005490156e-12,4.138249723e-13,1.393909032e-12,1.255817512e-12,7.061561485e-13,1.623282299e-12,1.676381874e-12,7.360615924e-13,1.744746088e-12,8.132055421e-13,6.052439769e-13
1.109375,2.636553546e-13,1.956667416e-13,3.779567274e-13,9.836092172e-13,1.038110964e-12,1.02232432e-12,6.008340812e-13,6.139395186e-13,6.697471313e-13,6.710749445e-13,9.242086473e-13,8.553221955e-13,2.252736819e-12,7.375127658e-13,7.24522516e-13,7.775188331e-13,5.921941243e-13,5.052155582e-13,1.061209223e-12,5.197019221e-13,4.208858525e-13,1.009171154e-12,4.223394638e-13,1.393620855e-12,1.277144341e-12,7.111240728e-13,1.635508747e-12,1.701509178e-12,7.415414826e-13,1.734845645e-12,8.094222391e-13,6.106717617e-13
1.1171875,2.626627136e-13,1.938911377e-13,3.835756267e-13,9.889454472e-13,1.045031612e-12,1.021435872e-12,5.963023046e-13,6.188350868e-13,6.712720698e-13,6.612125514e-13,9.148336867e-13,8.462035213e-13,2.278517845e-12,7.224009038e-13,7.211728055e-13,7.63741307e-13,5.821302655e-13,5.098026314e-13,1.064365426e-12,5.164994457e-13,4.311840305e-13,1.013048421e-12,4.311226124e-13,1.393417728e-12,1.29868728e-12,7.162901224e-13,1.648828765e-12,1.727921222e-12,7.476093424e-13,1.724818075e-12,8.063222284e-13,6.161866573e-13
1.125,2.61637065e-13,1.922659084e-13,3.893840498e-13,9.94259186e-13,1.052005043e-12,1.020870146e-12,5.920237575e-13,6.236723854e-13,6.728793633e-13,6.515747971e-13,9.058440546e-13,8.376180141e-13,2.307841162e-12,7.07671714e-13,7.178679376e-13,7.499171909e-13,5.719466338e-13,5.148552233e-13,1.067865304e-12,5.130351496e-13,4.415464253e-13,1.017129581e-12,4.399699731e-13,1.393558863e-12,1.32050533e-12,7.214754911e-13,1.662798284e-12,1.754634453e-12,7.539384742e-13,1.714641527e-12,8.033263422e-13,6.217921513e-13
1.1328125,2.606303703e-13,1.90663307e-13,3.954610911e-13,9.999790977e-13,1.059040653e-12,1.021036419e-12,5.878320726e-13,6.285672529e-13,6.743884089e-13,6.420427936e-13,8.973778275e-13,8.294515052e-13,2.33902475e-12,6.932809236e-13,7.148687071e-13,7.36090711e-13,5.619967871e-13,5.204844911e-13,1.072029959e-12,5.099329724e-13,4.523784325e-13,1.021244126e-12,4.488446638e-13,1.393905794e-12,1.342837842e-12,7.265048171e-13,1.676964882e-12,1.781089316e-12,7.604142074e-13,1.704450011e-12,8.002169885e-13,6.274762688e-13
1.140625,2.60035846e-13,1.890610467e-13,4.019930484e-13,1.006090935e-12,1.066233879e-12,1.021854652e-12,5.833090175e-13,6.336037316e-13,6.757266662e-13,6.32612598e-13,8.893175958e-13,8.217976344e-13,2.371187953e-12,6.793855944e-13,7.127575765e-13,7.230497196e-13,5.530993366e-13,5.266185523e-13,1.076854821e-12,5.07004776e-13,4.635573068e-13,1.025320014e-12,4.579457283e-13,1.394151431e-12,1.365772104e-12,7.315576853e-13,1.691940852e-12,1.808257016e-12,7.670862286e-13,1.694221128e-12,7.971775068e-13,6.331733809e-13
1.1484375,2.598824322e-13,1.874034428e-13,4.089999419e-13,1.01219987e-12,1.073446243e-12,1.022819215e-12,5.785596512e-13,6.385741707e-13,6.769708271e-13,6.233032773e-13,8.814480321e-13,8.146409737e-13,2.406168713e-12,6.658678747e-13,7.11069875e-13,7.103298178e-13,5.443950511e-13,5.332006221e-13,1.08186787e-12,5.036356925e-13,4.747408377e-13,1.029419998e-12,4.672999719e-13,1.394498534e-12,1.388959024e-12,7.366791096e-13,1.708307716e-12,1.836582666e-12,7.738892022e-13,1.683854837e-12,7.941170813e-13,6.388045666e-13
1.15625,2.601949822e-13,1.857930299e-13,4.164482984e-13,1.018435273e-12,1.080643603e-12,1.023741614e-12,5.738017782e-13,6.434890998e-13,6.782049047e-13,6.140492638e-13,8.738324502e-13,8.080281062e-13,2.444764694e-12,6.529135228e-13,7.096407556e-13,6.976404732e-13,5.360685872e-13,5.40219075e-13,1.087117326e-12,5.000673271e-13,4.859240412e-13,1.033520999e-12,4.767412169e-13,1.395315183e-12,1.412130146e-12,7.416932133e-13,1.725682599e-12,1.865873107e-12,7.808750069e-13,1.673735014e-12,7.910023261e-13,6.44360873e-13
1.1640625,2.610112168e-13,1.843153762e-13,4.241438503e-13,1.025156941e-12,1.087967359e-12,1.025341614e-12,5.689978354e-13,6.485866028e-13,6.795169568e-13,6.051330637e-13,8.668320983e-13,8.022086228e-13,2.485437286e-12,6.403745537e-13,7.088506558e-13,6.854693788e-13,5.291254478e-13,5.476807009e-13,1.092963445e-12,4.968523629e-13,4.972803567e-13,1.037734657e-12,4.862579824e-13,1.396690855e-12,1.435499354e-12,7.467327878e-13,1.743946791e-12,1.895086922e-12,7.880828102e-13,1.664016723e-12,7.880626623e-13,6.499444565e-13
1.171875,2.621712386e-13,1.828254213e-13,4.319980859e-13,1.032125597e-12,1.095350821e-12,1.027435099e-12,5.641383041e-13,6.539156487e-13,6.80937881e-13,5.965062874e-13,8.60159964e-13,7.97079467e-13,2.526668025e-12,6.280736739e-13,7.083224764e-13,6.736484043e-13,5.227274659e-13,5.555624982e-13,1.099417704e-12,4.939824147e-13,5.087611041e-13,1.04217313e-12,4.96018269e-13,1.398152671e-12,1.459364494e-12,7.518660728e-13,1.763460025e-12,1.924140865e-12,7.952251271e-13,1.654479347e-12,7.851777061e-13,6.556002558e-13
1.1796875,2.635433827e-13,1.812780637e-13,4.402574934e-13,1.039001358e-12,1.102665863e-12,1.029770903e-12,5.590984222e-13,6.59230126e-13,6.823878759e-13,5.879944597e-13,8.537845386e-13,7.923199342e-13,2.570822139e-12,6.158438133e-13,7.077289684e-13,6.61622865e-13,5.15759487e-13,5.63994585e-13,1.106390954e-12,4.911691425e-13,5.20337813e-13,1.046857197e-12,5.061078017e-13,1.399737908e-12,1.48352279e-12,7.567674209e-13,1.784378084e-12,1.953041652e-12,8.02421291e-13,1.64511778e-12,7.819513265e-13,6.612467636e-13
1.1875,2.652471209e-13,1.798936794e-13,4.489776189e-13,1.046077119e-12,1.110258223e-12,1.032580426e-12,5.541905993e-13,6.646569855e-13,6.839295424e-13,5.797394713e-13,8.480366878e-13,7.881007394e-13,2.619318958e-12,6.039014631e-13,7.075593042e-13,6.498425935e-13,5.090088509e-13,5.730638427e-13,1.113878695e-12,4.885290434e-13,5.320979004e-13,1.051737509e-12,5.163649349e-13,1.401533698e-12,1.507681284e-12,7.614926081e-13,1.806374148e-12,1.982194633e-12,8.100378855e-13,1.636239457e-12,7.788726773e-13,6.668889496e-13
1.1953125,2.676507401e-13,1.787611355e-13,4.580822615e-13,1.053715347e-12,1.118457837e-12,1.036044782e-12,5.496404177e-13,6.703732235e-13,6.856407582e-13,5.718719194e-13,8.427002089e-13,7.846509738e-13,2.669888708e-12,5.925560191e-13,7.08048952e-13,6.391397035e-13,5.036494526e-13,5.828467708e-13,1.121947316e-12,4.862870596e-13,5.440591305e-13,1.056784641e-12,5.266612372e-13,1.403486024e-12,1.532066391e-12,7.664536046e-13,1.829233672e-12,2.012144269e-12,8.180175771e-13,1.627656507e-12,7.767817545e-13,6.726039501e-13
1.203125,2.707874648e-13,1.777647143e-13,4.677930331e-13,1.061760081e-12,1.126902595e-12,1.039941529e-12,5.449094091e-13,6.760479718e-13,6.873254308e-13,5.64112789e-13,8.371973955e-13,7.816839329e-13,2.722995943e-12,5.81838342e-13,7.08929298e-13,6.292219449e-13,4.994570371e-13,5.933097249e-13,1.130687213e-12,4.8439131e-13,5.561083721e-13,1.06201515e-12,5.371762049e-13,1.405898194e-12,1.557040472e-12,7.715466604e-13,1.853255946e-12,2.04278305e-12,8.26126085e-13,1.618731161e-12,7.753589606e-13,6.783159505e-13
1.2109375,2.740844026e-13,1.768276147e-13,4.780137905e-13,1.06996796e-12,1.135115549e-12,1.04413327e-12,5.399935366e-13,6.814258634e-13,6.888284444e-13,5.563251437e-13,8.31594241e-13,7.790455742e-13,2.781314659e-12,5.714825701e-13,7.101133027e-13,6.19229359e-13,4.955420127e-13,6.040569796e-13,1.13994437e-12,4.826963768e-13,5.680869004e-13,1.067460657e-12,5.480409578e-13,1.408834158e-12,1.582143216e-12,7.764159108e-13,1.878533956e-12,2.073121505e-12,8.3418717e-13,1.609312139e-12,7.737544525e-13,6.838904823e-13
1.21875,2.773786391e-13,1.759548768e-13,4.883734381e-13,1.078304531e-12,1.143130081e-12,1.048817856e-12,5.353328426e-13,6.866477084e-13,6.902759317e-13,5.486367064e-13,8.263150704e-13,7.769771105e-13,2.843415e-12,5.614028325e-13,7.117458076e-13,6.09288299e-13,4.91700959e-13,6.150538183e-13,1.149655018e-12,4.810736765e-13,5.798915389e-13,1.073104104e-12,5.591055336e-13,1.411947704e-12,1.606773815e-12,7.810505391e-13,1.904828776e-12,2.103234288e-12,8.422647638e-13,1.600055226e-12,7.71952149e-13,6.893166652e-13
1.2265625,2.811611052e-13,1.751509108e-13,4.990928117e-13,1.086694344e-12,1.151003071e-12,1.054111024e-12,5.303239114e-13,6.917255387e-13,6.916936786e-13,5.409869887e-13,8.213166793e-13,7.754266999e-13,2.90765259e-12,5.517848797e-13,7.137434426e-13,5.998365183e-13,4.879895511e-13,6.268595874e-13,1.160193228e-12,4.794447523e-13,5.915573013e-13,1.078916498e-12,5.703529961e-13,1.415196143e-12,1.631336708e-12,7.854937436e-13,1.932085987e-12,2.134315406e-12,8.505671218e-13,1.591492578e-12,7.70233949e-13,6.945997971e-13
1.234375,2.855482659e-13,1.74391467e-13,5.104161322e-13,1.09509628e-12,1.158499716e-12,1.059776758e-12,5.247741692e-13,6.965834761e-13,6.92915813e-13,5.333722013e-13,8.163008196e-13,7.741588045e-13,2.976059418e-12,5.424779091e-13,7.156196388e-13,5.90506526e-13,4.842940002e-13,6.3945098e-13,1.171633592e-12,4.778778204e-13,6.031080821e-13,1.084953794e-12,5.819050992e-13,1.418403372e-12,1.656147981e-12,7.896928396e-13,1.96013159e-12,2.165364573e-12,8.58845715e-13,1.58304097e-12,7.684758315e-13,6.996746104e-13
1.2421875,2.904248042e-13,1.737263108e-13,5.221231512e-13,1.103682828e-12,1.16562638e-12,1.065611389e-12,5.197125423e-13,7.013505678e-13,6.939801061e-13,5.259911062e-13,8.112698252e-13,7.733209935e-13,3.049293083e-12,5.332662692e-13,7.172575794e-13,5.813040063e-13,4.81246054e-13,6.523106634e-13,1.183641361e-12,4.763965495e-13,6.143932758e-13,1.091283824e-12,5.935394503e-13,1.421315205e-12,1.680536932e-12,7.937227381e-13,1.989084567e-12,2.195090884e-12,8.669502113e-13,1.57395875e-12,7.667566798e-13,7.045538763e-13
1.25,2.960548363e-13,1.732951393e-13,5.3439637e-13,1.112604414e-12,1.172765573e-12,1.071786416e-12,5.149805051e-13,7.060835461e-13,6.951872558e-13,5.18767802e-13,8.065361872e-13,7.73145382e-13,3.125886934e-12,5.245561921e-13,7.193346524e-13,5.73005641e-13,4.795036951e-13,6.656157775e-13,1.196377609e-12,4.749758581e-13,6.253678641e-13,1.097946153e-12,6.04994107e-13,1.424434059e-12,1.704267989e-12,7.977230311e-13,2.019499763e-12,2.225369567e-12,8.754145423e-13,1.564901489e-12,7.655376531e-13,7.094016664e-13
1.2578125,3.025084144e-13,1.731064095e-13,5.475457049e-13,1.121867769e-12,1.180142439e-12,1.078454841e-12,5.096383833e-13,7.107530049e-13,6.967925349e-13,5.114908755e-13,8.023358473e-13,7.73711857e-13,3.205443139e-12,5.167428268e-13,7.221832181e-13,5.656264182e-13,4.784838313e-13,6.797117649e-13,1.210198092e-12,4.738326106e-13,6.362696497e-13,1.105064269e-12,6.165547828e-13,1.42822151e-12,1.727992843e-12,8.017798323e-13,2.050820142e-12,2.256972061e-12,8.843128666e-13,1.556725787e-12,7.649548535e-13,7.143322558e-13
1.265625,3.094259421e-13,1.73005105e-13,5.611372011e-13,1.131463546e-12,1.187724759e-12,1.085425295e-12,5.041921717e-13,7.154970272e-13,6.987720553e-13,5.043034847e-13,7.984582306e-13,7.751101515e-13,3.287323613e-12,5.096490975e-13,7.252948709e-13,5.585495944e-13,4.778454469e-13,6.941615466e-13,1.224860091e-12,4.73207236e-13,6.473063575e-13,1.112668966e-12,6.285568948e-13,1.43277728e-12,1.751946413e-12,8.058930348e-13,2.082176063e-12,2.287930683e-12,8.930040218e-13,1.548859104e-12,7.64704086e-13,7.192649184e-13
1.2734375,3.16673563e-13,1.729210853e-13,5.748141221e-13,1.14134759e-12,1.195507645e-12,1.09260368e-12,4.991829907e-13,7.203678359e-13,7.008735517e-13,4.974960459e-13,7.944944602e-13,7.771893787e-13,3.370982875e-12,5.032016442e-13,7.283416424e-13,5.518396115e-13,4.782295819e-13,7.084566169e-13,1.240048075e-12,4.729850601e-13,6.584512403e-13,1.120509625e-12,6.408156266e-13,1.438596572e-12,1.776031476e-12,8.099746187e-13,2.114118528e-12,2.318603209e-12,9.013075612e-13,1.540861684e-12,7.646400327e-13,7.240871297e-13
1.28125,3.244695131e-13,1.729448687e-13,5.888914629e-13,1.151487243e-12,1.203423349e-12,1.100200525e-12,4.942632835e-13,7.251884406e-13,7.029582161e-13,4.911364189e-13,7.905194409e-13,7.796578192e-13,3.457900561e-12,4.976762373e-13,7.315715117e-13,5.459292189e-13,4.795223239e-13,7.226864738e-13,1.255789368e-12,4.728790584e-13,6.694720825e-13,1.128449431e-12,6.531308081e-13,1.445660903e-12,1.800473608e-12,8.139701726e-13,2.146796785e-12,2.35078696e-12,9.094931626e-13,1.533440415e-12,7.649651932e-13,7.287588829e-13
1.2890625,3.329517068e-13,1.731524147e-13,6.034873822e-13,1.161961067e-12,1.211295548e-12,1.108245734e-12,4.897855186e-13,7.298764761e-13,7.051019646e-13,4.850104859e-13,7.870048091e-13,7.825576416e-13,3.548730445e-12,4.930998871e-13,7.353924479e-13,5.40790895e-13,4.810259854e-13,7.370859527e-13,1.27194872e-12,4.728373711e-13,6.801949113e-13,1.136694954e-12,6.656102059e-13,1.453110725e-12,1.825043201e-12,8.178955701e-13,2.179575709e-12,2.383772102e-12,9.177048089e-13,1.526604379e-12,7.657540281e-13,7.332483149e-13
1.296875,3.420509793e-13,1.734691224e-13,6.183949327e-13,1.17276483e-12,1.219123063e-12,1.116490116e-12,4.859849824e-13,7.344877518e-13,7.073153854e-13,4.787535285e-13,7.840179477e-13,7.859494328e-13,3.642435536e-12,4.89149118e-13,7.399455019e-13,5.361843281e-13,4.830025224e-13,7.51768554e-13,1.288378633e-12,4.730698931e-13,6.908469617e-13,1.145388177e-12,6.783201435e-13,1.460555998e-12,1.849154705e-12,8.217851972e-13,2.213146632e-12,2.416381792e-12,9.259972652e-13,1.519603694e-12,7.667760156e-13,7.376391005e-13
1.3046875,3.5174665e-13,1.738248113e-13,6.338056973e-13,1.183761167e-12,1.226976749e-12,1.124889216e-12,4.819130247e-13,7.390184675e-13,7.095589052e-13,4.722946849e-13,7.811718258e-13,7.897446698e-13,3.739785289e-12,4.856707813e-13,7.447831838e-13,5.321643552e-13,4.859982427e-13,7.669331433e-13,1.305511114e-12,4.735692221e-13,7.015888053e-13,1.154493272e-12,6.913132026e-13,1.468009993e-12,1.873040487e-12,8.256692843e-13,2.248025684e-12,2.449074371e-12,9.343500496e-13,1.512563039e-12,7.679586024e-13,7.420760792e-13
1.3125,3.621057571e-13,1.743421287e-13,6.50097167e-13,1.194927664e-12,1.234731622e-12,1.133703923e-12,4.774519003e-13,7.434183951e-13,7.119069882e-13,4.659892475e-13,7.783721535e-13,7.94164967e-13,3.841830642e-12,4.828939239e-13,7.495164002e-13,5.288065608e-13,4.896464788e-13,7.827947645e-13,1.323863179e-12,4.740174432e-13,7.120792222e-13,1.16403921e-12,7.046477937e-13,1.47568472e-12,1.896894489e-12,8.295356559e-13,2.283062745e-12,2.482033262e-12,9.427504622e-13,1.505777316e-12,7.694956453e-13,7.464381037e-13
1.3203125,3.730632215e-13,1.751201483e-13,6.671671339e-13,1.206279673e-12,1.242344063e-12,1.143034015e-12,4.736157522e-13,7.476500856e-13,7.143695681e-13,4.600160397e-13,7.759521459e-13,7.994135655e-13,3.946634146e-12,4.810897553e-13,7.5464136e-13,5.259110945e-13,4.935349177e-13,7.993717162e-13,1.343332189e-12,4.744267382e-13,7.221977293e-13,1.173982593e-12,7.180917671e-13,1.484178451e-12,1.919956085e-12,8.334742111e-13,2.317734909e-12,2.514258138e-12,9.512092284e-13,1.498993832e-12,7.71515634e-13,7.505405776e-13
1.328125,3.845834943e-13,1.760909184e-13,6.847249501e-13,1.217778526e-12,1.249979335e-12,1.152576118e-12,4.704016894e-13,7.517160875e-13,7.168314794e-13,4.542199999e-13,7.740874677e-13,8.052333976e-13,4.052924883e-12,4.802747514e-13,7.607670045e-13,5.23691025e-13,4.983902179e-13,8.166397524e-13,1.363714997e-12,4.751145617e-13,7.321864524e-13,1.184068611e-12,7.314675181e-13,1.493288334e-12,1.942087035e-12,8.376765149e-13,2.352852902e-12,2.545983054e-12,9.59677251e-13,1.492365862e-12,7.74133636e-13,7.544649987e-13
1.3359375,3.967784675e-13,1.772516293e-13,7.028972272e-13,1.229596446e-12,1.257580001e-12,1.162084377e-12,4.671438204e-13,7.556710907e-13,7.192226206e-13,4.486341337e-13,7.72644114e-13,8.114479005e-13,4.162660172e-12,4.80300583e-13,7.67713157e-13,5.227153131e-13,5.049464147e-13,8.347221123e-13,1.385201811e-12,4.761191617e-13,7.420159153e-13,1.194151617e-12,7.449659469e-13,1.502343992e-12,1.964002792e-12,8.419734434e-13,2.389180265e-12,2.579290434e-12,9.682597632e-13,1.486069084e-12,7.774239099e-13,7.581751735e-13
1.34375,4.095303236e-13,1.786243371e-13,7.218777684e-13,1.241881151e-12,1.264837288e-12,1.171768037e-12,4.640145923e-13,7.595419189e-13,7.215646844e-13,4.433943256e-13,7.7149877e-13,8.182065667e-13,4.276692618e-12,4.811274908e-13,7.751342161e-13,5.226134952e-13,5.124082279e-13,8.535909238e-13,1.407772969e-12,4.774221321e-13,7.517411295e-13,1.204448921e-12,7.586864295e-13,1.511849741e-12,1.985571929e-12,8.45916331e-13,2.426780248e-12,2.613757167e-12,9.769642961e-13,1.479865588e-12,7.810874715e-13,7.614666452e-13
1.3515625,4.226213539e-13,1.801381282e-13,7.415311529e-13,1.254354953e-12,1.271646375e-12,1.18186466e-12,4.612895503e-13,7.633498241e-13,7.239777401e-13,4.383402016e-13,7.705390395e-13,8.255287446e-13,4.393238989e-12,4.828467505e-13,7.830239065e-13,5.225527741e-13,5.198204991e-13,8.729415916e-13,1.431116344e-12,4.790801368e-13,7.615303416e-13,1.215250986e-12,7.726481386e-13,1.522391522e-12,2.006502306e-12,8.494342998e-13,2.46478603e-12,2.646317537e-12,9.85491267e-13,1.473915103e-12,7.847565863e-13,7.644752573e-13
1.359375,4.361942785e-13,1.818336457e-13,7.618871608e-13,1.266939995e-12,1.278181043e-12,1.192310935e-12,4.586776355e-13,7.671660854e-13,7.265056023e-13,4.33298133e-13,7.695337139e-13,8.331605932e-13,4.511479473e-12,4.85239307e-13,7.911062929e-13,5.22597907e-13,5.276081845e-13,8.927130682e-13,1.455389152e-12,4.808490686e-13,7.709748014e-13,1.226487675e-12,7.870367834e-13,1.533584898e-12,2.027357249e-12,8.5264952e-13,2.502735546e-12,2.677448455e-12,9.938812921e-13,1.468035638e-12,7.884498253e-13,7.673514622e-13
1.3671875,4.504571661e-13,1.837535006e-13,7.830541401e-13,1.280101467e-12,1.284627001e-12,1.203108994e-12,4.5613938e-13,7.709382004e-13,7.289402323e-13,4.283247445e-13,7.683690651e-13,8.408629942e-13,4.63221874e-12,4.878058521e-13,7.988139181e-13,5.229776743e-13,5.362784888e-13,9.131040842e-13,1.480893168e-12,4.82640649e-13,7.797864087e-13,1.23791306e-12,8.016998966e-13,1.545228716e-12,2.048044554e-12,8.554287176e-13,2.541304804e-12,2.709904094e-12,1.002258629e-12,1.46150131e-12,7.922966891e-13,7.698739435e-13
1.375,4.653950825e-13,1.85760326e-13,8.045748912e-13,1.293847429e-12,1.291020205e-12,1.214318326e-12,4.539595723e-13,7.744485291e-13,7.312013239e-13,4.234599443e-13,7.672066799e-13,8.487275115e-13,4.755721842e-12,4.906295598e-13,8.062151508e-13,5.236135632e-13,5.456263782e-13,9.339633722e-13,1.507242535e-12,4.848916054e-13,7.883227584e-13,1.249567227e-12,8.162072988e-13,1.557269404e-12,2.06776965e-12,8.578469661e-13,2.580227574e-12,2.743016664e-12,1.010170741e-12,1.454970396e-12,7.963376198e-13,7.720770382e-13
1.3828125,4.810199909e-13,1.878318937e-13,8.261803986e-13,1.307592198e-12,1.297215118e-12,1.225740062e-12,4.521266101e-13,7.775902887e-13,7.335327472e-13,4.187255863e-13,7.662229302e-13,8.570750297e-13,4.881040368e-12,4.943125086e-13,8.138371506e-13,5.248658728e-13,5.555019321e-13,9.550575134e-13,1.533995598e-12,4.877773678e-13,7.965952458e-13,1.261589654e-12,8.306257495e-13,1.56943773e-12,2.086713556e-12,8.602830516e-13,2.618516979e-12,2.775357215e-12,1.017463976e-12,1.449436647e-12,8.005712754e-13,7.742801936e-13
1.390625,4.973357418e-13,1.900732539e-13,8.485461347e-13,1.32130953e-12,1.302993584e-12,1.237230302e-12,4.505814842e-13,7.804507003e-13,7.360418962e-13,4.142321587e-13,7.654418953e-13,8.660520229e-13,5.007660368e-12,4.990139118e-13,8.21607965e-13,5.268730946e-13,5.657408279e-13,9.767178483e-13,1.561525389e-12,4.909982427e-13,8.043182095e-13,1.273914726e-12,8.452848469e-13,1.58210489e-12,2.105318036e-12,8.627119338e-13,2.656492206e-12,2.807771971e-12,1.024595692e-12,1.444068386e-12,8.047630897e-13,7.763463021e-13
1.3984375,5.141958103e-13,1.924658653e-13,8.720963348e-13,1.335380385e-12,1.308233179e-12,1.248875082e-12,4.494359929e-13,7.831340443e-13,7.385995002e-13,4.100071646e-13,7.648410833e-13,8.755854406e-13,5.137095816e-12,5.045335841e-13,8.29245943e-13,5.291756034e-13,5.762891591e-13,9.993133609e-13,1.590406684e-12,4.944571143e-13,8.115892059e-13,1.286483053e-12,8.60121613e-13,1.595687542e-12,2.12316118e-12,8.648688438e-13,2.694712445e-12,2.840670974e-12,1.031714267e-12,1.438296291e-12,8.087244851e-13,7.77946765e-13
1.40625,5.315949229e-13,1.950156638e-13,8.962648595e-13,1.349669602e-12,1.312958539e-12,1.260666183e-12,4.486309874e-13,7.856705764e-13,7.411070445e-13,4.060044954e-13,7.643288191e-13,8.854562519e-13,5.270003283e-12,5.107402252e-13,8.369992727e-13,5.318877621e-13,5.875320401e-13,1.022633465e-12,1.620672677e-12,4.981657668e-13,8.184080346e-13,1.299331634e-12,8.749380529e-13,1.609688953e-12,2.140070892e-12,8.668770262e-13,2.733394917e-12,2.873592349e-12,1.03881098e-12,1.432949783e-12,8.127587323e-13,7.791118436e-13
1.4140625,5.497984557e-13,1.977785907e-13,9.207321194e-13,1.364019497e-12,1.317284044e-12,1.272604179e-12,4.481266526e-13,7.880213956e-13,7.435246289e-13,4.022767755e-13,7.637601224e-13,8.953966961e-13,5.404487221e-12,5.175053181e-13,8.449142021e-13,5.35503257e-13,5.995749018e-13,1.04643445e-12,1.652171562e-12,5.019145235e-13,8.247312685e-13,1.312532762e-12,8.898104534e-13,1.623905269e-12,2.156619235e-12,8.688700713e-13,2.773026115e-12,2.906674469e-12,1.045953509e-12,1.427947525e-12,8.171423139e-13,7.799283698e-13
1.421875,5.688790309e-13,2.007273799e-13,9.46042932e-13,1.378733355e-12,1.321285189e-12,1.284813167e-12,4.480736325e-13,7.901673011e-13,7.459665288e-13,3.988937638e-13,7.631779385e-13,9.054527708e-13,5.541442419e-12,5.250129341e-13,8.526729814e-13,5.400349708e-13,6.125439747e-13,1.070837685e-12,1.684879852e-12,5.058787651e-13,8.309984828e-13,1.326223628e-12,9.049027585e-13,1.639014719e-12,2.17297659e-12,8.706648954e-13,2.813099324e-12,2.940135478e-12,1.052898189e-12,1.422669136e-12,8.217417428e-13,7.804020455e-13
1.4296875,5.885178738e-13,2.038998212e-13,9.725724127e-13,1.393957452e-12,1.324999225e-12,1.297305345e-12,4.483988913e-13,7.92208394e-13,7.486184769e-13,3.958072094e-13,7.627472056e-13,9.157931194e-13,5.68402616e-12,5.335448306e-13,8.604083248e-13,5.453726375e-13,6.269652381e-13,1.095904557e-12,1.718689954e-12,5.107394286e-13,8.374739738e-13,1.340406673e-12,9.201860887e-13,1.655154584e-12,2.188595117e-12,8.722234522e-13,2.853066635e-12,2.973642008e-12,1.059595318e-12,1.417426704e-12,8.265584792e-13,7.806265756e-13
1.4375,6.086688076e-13,2.073258643e-13,1.000069183e-12,1.409687216e-12,1.328652797e-12,1.310147505e-12,4.489722121e-13,7.942652539e-13,7.514115103e-13,3.928921685e-13,7.624519351e-13,9.263750876e-13,5.830546599e-12,5.428114947e-13,8.682923335e-13,5.512662202e-13,6.42413851e-13,1.121526177e-12,1.753589043e-12,5.165870294e-13,8.438699472e-13,1.355016524e-12,9.356090225e-13,1.671735616e-12,2.203146046e-12,8.736448154e-13,2.89398103e-12,3.006764352e-12,1.06626545e-12,1.412157006e-12,8.317544917e-13,7.80673212e-13
1.4453125,6.296776873e-13,2.108908966e-13,1.028317923e-12,1.426031967e-12,1.332523293e-12,1.323367927e-12,4.49871527e-13,7.963580992e-13,7.542611617e-13,3.901238126e-13,7.62463686e-13,9.374098575e-13,5.977585672e-12,5.527331161e-13,8.758426817e-13,5.572901918e-13,6.578183873e-13,1.147891414e-12,1.789763971e-12,5.22631508e-13,8.499619856e-13,1.370279621e-12,9.513332088e-13,1.688790076e-12,2.217059282e-12,8.749323037e-13,2.934651734e-12,3.040410613e-12,1.07268375e-12,1.40653095e-12,8.371112487e-13,7.806430395e-13
1.453125,6.512674118e-13,2.145980329e-13,1.057222016e-12,1.442714866e-12,1.336432295e-12,1.336588955e-12,4.512066753e-13,7.983885056e-13,7.572648202e-13,3.875530414e-13,7.623295426e-13,9.492343539e-13,6.128889178e-12,5.637517197e-13,8.833572739e-13,5.635781143e-13,6.733938631e-13,1.17503184e-12,1.827273188e-12,5.287717668e-13,8.557382744e-13,1.386013541e-12,9.672532779e-13,1.707088402e-12,2.230814668e-12,8.759570685e-13,2.975005008e-12,3.074638025e-12,1.078781472e-12,1.401492053e-12,8.425918975e-13,7.806459679e-13
1.4609375,6.730819114e-13,2.186194707e-13,1.08656456e-12,1.459422969e-12,1.340041236e-12,1.349574642e-12,4.53191033e-13,8.00213428e-13,7.60444452e-13,3.852823024e-13,7.621583826e-13,9.615575589e-13,6.280038582e-12,5.760963549e-13,8.908424086e-13,5.706189104e-13,6.900595388e-13,1.203020539e-12,1.86595323e-12,5.355547175e-13,8.61248935e-13,1.401970788e-12,9.829026733e-13,1.726282883e-12,2.244184121e-12,8.767270253e-13,3.015448284e-12,3.109523457e-12,1.084831198e-12,1.397215742e-12,8.483197295e-13,7.805937992e-13
1.46875,6.953154121e-13,2.229311203e-13,1.116592306e-12,1.476404895e-12,1.343389051e-12,1.362614737e-12,4.561396266e-13,8.017167481e-13,7.637898636e-13,3.8318929e-13,7.620212619e-13,9.739999776e-13,6.429716354e-12,5.894104417e-13,8.981713277e-13,5.784892552e-13,7.081130368e-13,1.231682633e-12,1.905691805e-12,5.430097927e-13,8.665645038e-13,1.418325413e-12,9.980360354e-13,1.745803062e-12,2.256611985e-12,8.775147387e-13,3.056206621e-12,3.144906339e-12,1.090645004e-12,1.393276696e-12,8.544195121e-13,7.804721722e-13
1.4765625,7.182298506e-13,2.273492146e-13,1.147674429e-12,1.493663494e-12,1.346587281e-12,1.375639101e-12,4.595953599e-13,8.029420757e-13,7.673965766e-13,3.811327402e-13,7.619466639e-13,9.867140972e-13,6.584699211e-12,6.0334677e-13,9.054695736e-13,5.869010626e-13,7.273036234e-13,1.260455538e-12,1.946294477e-12,5.509007495e-13,8.715146486e-13,1.435282819e-12,1.012739665e-12,1.765595749e-12,2.26762662e-12,8.784298236e-13,3.096073006e-12,3.181897617e-12,1.095919252e-12,1.389348187e-12,8.606329333e-13,7.804044282e-13
1.484375,7.416468842e-13,2.318495298e-13,1.17976701e-12,1.5108502e-12,1.349487106e-12,1.388372203e-12,4.628663301e-13,8.039582154e-13,7.711391634e-13,3.791875741e-13,7.619385519e-13,9.998693679e-13,6.744957082e-12,6.178113768e-13,9.130608778e-13,5.958235702e-13,7.4724507e-13,1.289366287e-12,1.987713151e-12,5.59466176e-13,8.759754984e-13,1.452452836e-12,1.027178858e-12,1.785835942e-12,2.277097765e-12,8.79359978e-13,3.135187112e-12,3.219722146e-12,1.100928168e-12,1.38493787e-12,8.668561395e-13,7.802015958e-13
1.4921875,7.655101653e-13,2.36582448e-13,1.212725538e-12,1.528213712e-12,1.35196706e-12,1.401233811e-12,4.662345152e-13,8.046863978e-13,7.747760302e-13,3.774385958e-13,7.620904659e-13,1.013610692e-12,6.905495875e-12,6.331697196e-13,9.211450549e-13,6.055416547e-13,7.678543847e-13,1.319291043e-12,2.030220179e-12,5.685813903e-13,8.801068767e-13,1.469434976e-12,1.041575148e-12,1.80692136e-12,2.285820608e-12,8.803263168e-13,3.174317677e-12,3.256646356e-12,1.105964972e-12,1.380294054e-12,8.734392387e-13,7.795059194e-13
1.5,7.899083476e-13,2.416629867e-13,1.246502001e-12,1.546087411e-12,1.353946849e-12,1.41429873e-12,4.701959314e-13,8.050426517e-13,7.782580143e-13,3.757742419e-13,7.624992821e-13,1.028069759e-12,7.067349757e-12,6.498927599e-13,9.296668472e-13,6.161324604e-13,7.89322436e-13,1.350483189e-12,2.073946717e-12,5.777442311e-13,8.83932068e-13,1.486374214e-12,1.055976214e-12,1.829118844e-12,2.294272389e-12,8.813809392e-13,3.212442097e-12,3.293469571e-12,1.111028935e-12,1.37585702e-12,8.805104032e-13,7.782241491e-13
1.5078125,8.145315989e-13,2.470330291e-13,1.280690267e-12,1.564125305e-12,1.355315143e-12,1.426952748e-12,4.746078495e-13,8.050658389e-13,7.815181513e-13,3.741448281e-13,7.631133225e-13,1.042889892e-12,7.22997093e-12,6.677480364e-13,9.383774198e-13,6.272969791e-13,8.113928422e-13,1.382094634e-12,2.11877842e-12,5.871539549e-13,8.873763785e-13,1.503473091e-12,1.070184574e-12,1.851586873e-12,2.301574606e-12,8.822270168e-13,3.24946327e-12,3.330518239e-12,1.116184552e-12,1.371009827e-12,8.877709842e-13,7.763898098e-13
1.515625,8.39112343e-13,2.526035116e-13,1.31517081e-12,1.582224057e-12,1.35632217e-12,1.439372465e-12,4.790875033e-13,8.049058639e-13,7.845424409e-13,3.72703363e-13,7.63837011e-13,1.057630589e-12,7.389514616e-12,6.861937014e-13,9.471575034e-13,6.389548161e-13,8.340748917e-13,1.413779069e-12,2.164679444e-12,5.973482414e-13,8.905809465e-13,1.520629916e-12,1.08420103e-12,1.873369378e-12,2.307661443e-12,8.825605122e-13,3.286863665e-12,3.367202755e-12,1.121393378e-12,1.365777523e-12,8.951137111e-13,7.741757714e-13
1.5234375,8.638874075e-13,2.583790045e-13,1.35048043e-12,1.600744412e-12,1.357338828e-12,1.451891171e-12,4.833178576e-13,8.047713453e-13,7.875686715e-13,3.714953404e-13,7.645374382e-13,1.072287402e-12,7.546996743e-12,7.051543225e-13,9.559443225e-13,6.513415372e-13,8.582737777e-13,1.445983017e-12,2.211397576e-12,6.082529578e-13,8.935835554e-13,1.537744987e-12,1.098078449e-12,1.895055959e-12,2.313800703e-12,8.825805385e-13,3.324250214e-12,3.404793119e-12,1.126344584e-12,1.3610909e-12,9.026205109e-13,7.719055119e-13
1.53125,8.889476213e-13,2.643213665e-13,1.386353584e-12,1.619524024e-12,1.358171816e-12,1.463799629e-12,4.876082052e-13,8.046840376e-13,7.906831314e-13,3.70429665e-13,7.650573129e-13,1.087016141e-12,7.704039331e-12,7.248788347e-13,9.64486216e-13,6.643476355e-13,8.840183113e-13,1.478386588e-12,2.258415707e-12,6.194126197e-13,8.961720292e-13,1.554848643e-12,1.111476406e-12,1.917685242e-12,2.319703266e-12,8.825118633e-13,3.360695468e-12,3.444215967e-12,1.13090932e-12,1.356822043e-12,9.101006458e-13,7.695352768e-13
1.5390625,9.139778963e-13,2.704308492e-13,1.422310076e-12,1.638344e-12,1.358579787e-12,1.474968251e-12,4.927288794e-13,8.044509217e-13,7.938095345e-13,3.695683215e-13,7.655684423e-13,1.10207221e-12,7.861775988e-12,7.456400142e-13,9.72913091e-13,6.777654268e-13,9.103221516e-13,1.510335007e-12,2.305702095e-12,6.308395909e-13,8.983491928e-13,1.571834519e-12,1.12411764e-12,1.941117132e-12,2.323807841e-12,8.822363905e-13,3.397190867e-12,3.485483101e-12,1.135363653e-12,1.352593984e-12,9.174513905e-13,7.668561732e-13
1.546875,9.390745062e-13,2.768559623e-13,1.459350368e-12,1.657656753e-12,1.358923125e-12,1.486395041e-12,4.983904906e-13,8.040551982e-13,7.971476608e-13,3.690237523e-13,7.66443306e-13,1.117707891e-12,8.024648069e-12,7.674369663e-13,9.817299206e-13,6.918429523e-13,9.373464305e-13,1.542428716e-12,2.353693596e-12,6.430875862e-13,9.004537746e-13,1.588600692e-12,1.13621618e-12,1.964508048e-12,2.326333437e-12,8.818323046e-13,3.433894162e-12,3.528651243e-12,1.139957979e-12,1.348580096e-12,9.250032785e-13,7.641499157e-13
1.5546875,9.646853573e-13,2.835590758e-13,1.497801039e-12,1.677509379e-12,1.359338325e-12,1.498136351e-12,5.039533059e-13,8.036005251e-13,8.008078612e-13,3.688075658e-13,7.675435913e-13,1.133834458e-12,8.191101617e-12,7.898511669e-13,9.906788587e-13,7.065770277e-13,9.657541866e-13,1.575526176e-12,2.402534662e-12,6.563018995e-13,9.026870657e-13,1.605404811e-12,1.148078626e-12,1.987691479e-12,2.32864039e-12,8.814595793e-13,3.469346188e-12,3.571783689e-12,1.144566799e-12,1.344507608e-12,9.327746074e-13,7.616099406e-13
1.5625,9.903989178e-13,2.902792621e-13,1.5361779e-12,1.697033847e-12,1.359169298e-12,1.509249556e-12,5.102202065e-13,8.029210325e-13,8.044043651e-13,3.689440635e-13,7.682350979e-13,1.150215144e-12,8.352574469e-12,8.125082963e-13,9.98819215e-13,7.212799314e-13,9.947985651e-13,1.609409625e-12,2.451994573e-12,6.700372524e-13,9.048651248e-13,1.622437389e-12,1.159770605e-12,2.011631076e-12,2.330782052e-12,8.808387949e-13,3.503358373e-12,3.613360871e-12,1.148906071e-12,1.340242288e-12,9.400675627e-13,7.58795391e-13
1.5703125,1.015406557e-12,2.96969781e-13,1.574433313e-12,1.715772501e-12,1.357978826e-12,1.519502828e-12,5.177166558e-13,8.018443058e-13,8.076327327e-13,3.693325402e-13,7.681799669e-13,1.166632272e-12,8.508056524e-12,8.353544304e-13,1.005756723e-12,7.355200016e-13,1.023393587e-12,1.643784386e-12,2.501952235e-12,6.84085025e-13,9.067508951e-13,1.639532669e-12,1.171237817e-12,2.036850009e-12,2.331918374e-12,8.798794236e-13,3.536545414e-12,3.655452443e-12,1.152814256e-12,1.336057542e-12,9.464225426e-13,7.554536357e-13
1.578125,1.040212888e-12,3.038147389e-13,1.613997153e-12,1.734385722e-12,1.356297481e-12,1.529341314e-12,5.253026284e-13,8.005395504e-13,8.106474554e-13,3.697639209e-13,7.677409884e-13,1.182890394e-12,8.663424052e-12,8.585841125e-13,1.011980046e-12,7.49768309e-13,1.051903089e-12,1.678805676e-12,2.552698032e-12,6.984370287e-13,9.083647385e-13,1.65679203e-12,1.182535051e-12,2.062401146e-12,2.331643337e-12,8.789984127e-13,3.568618817e-12,3.699801255e-12,1.156245137e-12,1.331815471e-12,9.523872071e-13,7.51907243e-13
1.5859375,1.065772489e-12,3.10916756e-13,1.654666019e-12,1.753689284e-12,1.354852283e-12,1.53906329e-12,5.3254014e-13,7.992080005e-13,8.136288645e-13,3.703204316e-13,7.674729063e-13,1.199019393e-12,8.819515554e-12,8.824648522e-13,1.018216152e-12,7.647754467e-13,1.08155538e-12,1.714296668e-12,2.604564924e-12,7.130803719e-13,9.098636547e-13,1.674446564e-12,1.193780659e-12,2.087736203e-12,2.3301074e-12,8.782871593e-13,3.599611845e-12,3.744941616e-12,1.159295396e-12,1.327364545e-12,9.588598993e-13,7.484100697e-13
1.59375,1.091695045e-12,3.182185324e-13,1.69550525e-12,1.773577649e-12,1.353636831e-12,1.548632898e-12,5.404362335e-13,7.978703783e-13,8.166321492e-13,3.711716605e-13,7.673009998e-13,1.21509301e-12,8.973564248e-12,9.069691536e-13,1.024590971e-12,7.806801721e-13,1.112666185e-12,1.750014838e-12,2.657304254e-12,7.283287549e-13,9.112803888e-13,1.692191875e-12,1.204813864e-12,2.11324892e-12,2.327746947e-12,8.775659129e-13,3.630149314e-12,3.789055869e-12,1.162207577e-12,1.322587477e-12,9.660217486e-13,7.449769893e-13
1.6015625,1.117369589e-12,3.256364894e-13,1.736894383e-12,1.793412788e-12,1.352247744e-12,1.557679517e-12,5.492939002e-13,7.965345611e-13,8.198397857e-13,3.721908805e-13,7.668229598e-13,1.231194026e-12,9.126237576e-12,9.321209693e-13,1.030777999e-12,7.972283403e-13,1.144746599e-12,1.786209998e-12,2.710440754e-12,7.443502165e-13,9.124499695e-13,1.709704516e-12,1.215224898e-12,2.138720408e-12,2.324558962e-12,8.76967943e-13,3.659844825e-12,3.833230012e-12,1.165131629e-12,1.317484444e-12,9.733780808e-13,7.41620388e-13
1.609375,1.143115974e-12,3.331960438e-13,1.779438617e-12,1.81328474e-12,1.350737547e-12,1.56607998e-12,5.584197342e-13,7.952099591e-13,8.233967303e-13,3.733171519e-13,7.663465318e-13,1.247757414e-12,9.279548643e-12,9.583269838e-13,1.037015379e-12,8.145463476e-13,1.178149575e-12,1.823071642e-12,2.763919601e-12,7.610386958e-13,9.132804527e-13,1.726970558e-12,1.224762133e-12,2.16408038e-12,2.31993421e-12,8.764621684e-13,3.687837633e-12,3.879516533e-12,1.167909439e-12,1.312532875e-12,9.806477019e-13,7.383057766e-13
1.6171875,1.16907835e-12,3.409083972e-13,1.822853845e-12,1.83371245e-12,1.349415112e-12,1.574364556e-12,5.674339695e-13,7.938438235e-13,8.27177585e-13,3.746777697e-13,7.664457336e-13,1.265146332e-12,9.431838371e-12,9.85571002e-13,1.043730885e-12,8.326477979e-13,1.212960207e-12,1.86026531e-12,2.817800737e-12,7.785661767e-13,9.140026883e-13,1.743869727e-12,1.233479382e-12,2.189816742e-12,2.314053068e-12,8.757460782e-13,3.714673607e-12,3.92632433e-12,1.170222209e-12,1.30731146e-12,9.880063062e-13,7.34970379e-13
1.625,1.19501009e-12,3.487100874e-13,1.866442854e-12,1.854346312e-12,1.348164431e-12,1.582719347e-12,5.765489891e-13,7.923764887e-13,8.310622128e-13,3.762567697e-13,7.669318516e-13,1.283244936e-12,9.581303238e-12,1.013582902e-12,1.050712417e-12,8.510282591e-13,1.247626484e-12,1.897357335e-12,2.872016533e-12,7.967036012e-13,9.148255859e-13,1.760533582e-12,1.241625619e-12,2.21545077e-12,2.307858773e-12,8.749366645e-13,3.741777517e-12,3.972305021e-12,1.172209385e-12,1.301326246e-12,9.956016903e-13,7.316163123e-13
1.6328125,1.220813525e-12,3.567529919e-13,1.909945294e-12,1.874595648e-12,1.346751162e-12,1.59054377e-12,5.861474108e-13,7.908406728e-13,8.350596353e-13,3.780529901e-13,7.67425929e-13,1.301754516e-12,9.730765911e-12,1.042589991e-12,1.057830871e-12,8.697680852e-13,1.282122659e-12,1.934416962e-12,2.926512742e-12,8.148871838e-13,9.156099819e-13,1.777276454e-12,1.249277691e-12,2.240645304e-12,2.301230083e-12,8.742225127e-13,3.769093875e-12,4.021049761e-12,1.174601267e-12,1.296008905e-12,1.003361804e-12,7.282450158e-13
1.640625,1.24617089e-12,3.652449954e-13,1.953705769e-12,1.894817718e-12,1.345302583e-12,1.597741022e-12,5.96374813e-13,7.894436724e-13,8.390994682e-13,3.801587244e-13,7.679934465e-13,1.320273011e-12,9.881091648e-12,1.072366223e-12,1.065152541e-12,8.893233581e-13,1.318505427e-12,1.971873424e-12,2.981178204e-12,8.336784295e-13,9.162376945e-13,1.793862878e-12,1.256189054e-12,2.266143912e-12,2.293604952e-12,8.73296929e-13,3.795083288e-12,4.073633951e-12,1.177621131e-12,1.291719832e-12,1.011133844e-12,7.248465118e-13
1.6484375,1.271041955e-12,3.740373376e-13,1.997798126e-12,1.915472242e-12,1.34391409e-12,1.604970573e-12,6.071515313e-13,7.883649309e-13,8.431816773e-13,3.824895482e-13,7.686771642e-13,1.338685938e-12,1.002787267e-11,1.102273531e-12,1.072303784e-12,9.09244355e-13,1.356512427e-12,2.00989804e-12,3.036190815e-12,8.538534411e-13,9.168734528e-13,1.81024265e-12,1.262456274e-12,2.291956353e-12,2.285580581e-12,8.720289892e-13,3.819560323e-12,4.12683188e-12,1.180605621e-12,1.286948995e-12,1.018850626e-12,7.214333368e-13
1.65625,1.296083146e-12,3.829561983e-13,2.042076222e-12,1.936287248e-12,1.342480637e-12,1.612198515e-12,6.185705906e-13,7.874420576e-13,8.474353342e-13,3.849505793e-13,7.693822876e-13,1.357369571e-12,1.017059736e-11,1.132668883e-12,1.079174048e-12,9.292398598e-13,1.394787918e-12,2.048633116e-12,3.092101308e-12,8.748691103e-13,9.17633755e-13,1.826960848e-12,1.268499357e-12,2.317793792e-12,2.277542712e-12,8.707398939e-13,3.843843301e-12,4.181156926e-12,1.183185456e-12,1.282303338e-12,1.026609709e-12,7.180200433e-13
1.6640625,1.321457824e-12,3.920415094e-13,2.086984209e-12,1.957017751e-12,1.341151781e-12,1.618703756e-12,6.307578453e-13,7.863971617e-13,8.517577104e-13,3.875863113e-13,7.699965498e-13,1.37619599e-12,1.0312673e-11,1.164016761e-12,1.08597626e-12,9.500358738e-13,1.434553601e-12,2.088553994e-12,3.148966036e-12,8.962450124e-13,9.183503168e-13,1.843865442e-12,1.274019279e-12,2.343955771e-12,2.268818761e-12,8.694202937e-13,3.867484486e-12,4.2380696e-12,1.185493081e-12,1.278561196e-12,1.034401123e-12,7.146302001e-13
1.671875,1.346744022e-12,4.012272801e-13,2.132796193e-12,1.977803898e-12,1.340183279e-12,1.624444705e-12,6.435108243e-13,7.852050018e-13,8.559912388e-13,3.903714693e-13,7.702812793e-13,1.39474996e-12,1.045384344e-11,1.195947534e-12,1.092409341e-12,9.716803395e-13,1.476114491e-12,2.129617214e-12,3.206208541e-12,9.183686696e-13,9.188270707e-13,1.860258661e-12,1.278437892e-12,2.369973897e-12,2.259290412e-12,8.677509237e-13,3.888728554e-12,4.296422592e-12,1.187453649e-12,1.274047476e-12,1.041979575e-12,7.112755146e-13
1.6796875,1.371675268e-12,4.104611309e-13,2.179079117e-12,1.99848872e-12,1.339357969e-12,1.629708038e-12,6.565173581e-13,7.838750469e-13,8.602462061e-13,3.932657999e-13,7.701389165e-13,1.413485007e-12,1.05928195e-11,1.228317234e-12,1.098344212e-12,9.933096696e-13,1.5172521e-12,2.170905798e-12,3.263142145e-12,9.410954475e-13,9.191834665e-13,1.876031314e-12,1.282024598e-12,2.395452467e-12,2.24920141e-12,8.658303698e-13,3.907961594e-12,4.357516344e-12,1.189112961e-12,1.268797581e-12,1.049209973e-12,7.079340872e-13
1.6875,1.395615464e-12,4.198078738e-13,2.225295663e-12,2.018513206e-12,1.338281024e-12,1.634174935e-12,6.695613595e-13,7.823113058e-13,8.644819589e-13,3.963004866e-13,7.696357958e-13,1.43266233e-12,1.072716155e-11,1.261010958e-12,1.104119212e-12,1.014691054e-12,1.557804364e-12,2.211565422e-12,3.319052765e-12,9.638156982e-13,9.19627428e-13,1.891046112e-12,1.285125876e-12,2.420788642e-12,2.238089684e-12,8.6396738e-13,3.926344502e-12,4.421383362e-12,1.190624224e-12,1.264250882e-12,1.056152418e-12,7.04603079e-13
1.6953125,1.41805919e-12,4.291641534e-13,2.270679603e-12,2.037756265e-12,1.337068957e-12,1.637742494e-12,6.824112083e-13,7.806669387e-13,8.685047492e-13,3.995003414e-13,7.687832936e-13,1.451624783e-12,1.085054026e-11,1.293469919e-12,1.109578542e-12,1.036003861e-12,1.599163597e-12,2.25128146e-12,3.373774309e-12,9.866067234e-13,9.200084622e-13,1.904912966e-12,1.287492143e-12,2.445396542e-12,2.225910286e-12,8.62119503e-13,3.943067523e-12,4.484152803e-12,1.191688943e-12,1.259463566e-12,1.06289921e-12,7.013094031e-13
1.703125,1.439782322e-12,4.385028887e-13,2.314950806e-12,2.056565731e-12,1.335970327e-12,1.640791713e-12,6.949860139e-13,7.792133402e-13,8.725281358e-13,4.029617302e-13,7.677140988e-13,1.470400054e-12,1.096367584e-11,1.325767672e-12,1.114366956e-12,1.057102432e-12,1.640875318e-12,2.290452456e-12,3.427960983e-12,1.0097293e-12,9.201309216e-13,1.918033625e-12,1.289133646e-12,2.469096476e-12,2.213337517e-12,8.601332672e-13,3.957644431e-12,4.546976712e-12,1.192316765e-12,1.25407368e-12,1.069439477e-12,6.980427566e-13
1.7109375,1.461566007e-12,4.480175073e-13,2.359130994e-12,2.074727993e-12,1.334697766e-12,1.643058132e-12,7.077219178e-13,7.778229833e-13,8.768042241e-13,4.067334376e-13,7.664061655e-13,1.489731144e-12,1.107670075e-11,1.358450982e-12,1.118604528e-12,1.078021349e-12,1.682607609e-12,2.330083923e-12,3.481933847e-12,1.033045921e-12,9.201935488e-13,1.931085428e-12,1.290251672e-12,2.493212988e-12,2.200558796e-12,8.580216463e-13,3.971396477e-12,4.613683161e-12,1.193117386e-12,1.249595268e-12,1.075514454e-12,6.947143762e-13
1.71875,1.483050628e-12,4.577098516e-13,2.403708706e-12,2.092069312e-12,1.333139599e-12,1.644224258e-12,7.211538843e-13,7.763144075e-13,8.81114632e-13,4.106411806e-13,7.646373425e-13,1.509595236e-12,1.119215089e-11,1.391681959e-12,1.122726689e-12,1.099324937e-12,1.725754773e-12,2.370529613e-12,3.535419585e-12,1.056964489e-12,9.204603219e-13,1.943891852e-12,1.290516755e-12,2.517279588e-12,2.187456876e-12,8.557555343e-13,3.984892924e-12,4.681576384e-12,1.194138616e-12,1.245723377e-12,1.081231456e-12,6.912775424e-13
1.7265625,1.503789199e-12,4.675651937e-13,2.448228104e-12,2.109705165e-12,1.331994472e-12,1.645052363e-12,7.348912944e-13,7.749811545e-13,8.851960311e-13,4.145824366e-13,7.628154223e-13,1.52937143e-12,1.130315897e-11,1.425422297e-12,1.127149298e-12,1.121623722e-12,1.771248647e-12,2.411352908e-12,3.588592926e-12,1.082381943e-12,9.209695916e-13,1.956048372e-12,1.289710286e-12,2.539892304e-12,2.173901357e-12,8.532827809e-13,3.997510575e-12,4.7471453e-12,1.19499008e-12,1.241292461e-12,1.087433528e-12,6.878691435e-13
1.734375,1.523753586e-12,4.777325853e-13,2.493126654e-12,2.128233685e-12,1.331642438e-12,1.646106378e-12,7.481884802e-13,7.740744651e-13,8.889475474e-13,4.186945862e-13,7.614153736e-13,1.548582928e-12,1.140875334e-11,1.459219637e-12,1.131524621e-12,1.144651093e-12,1.818250935e-12,2.452689103e-12,3.641955186e-12,1.10896832e-12,9.216281819e-13,1.967632331e-12,1.288243378e-12,2.562216987e-12,2.159572703e-12,8.506981823e-13,4.009003085e-12,4.812485545e-12,1.195730506e-12,1.236596386e-12,1.094266203e-12,6.846095582e-13
1.7421875,1.543010919e-12,4.88029396e-13,2.538517935e-12,2.146409285e-12,1.331635404e-12,1.6469678e-12,7.615416066e-13,7.734190279e-13,8.92367873e-13,4.230860998e-13,7.598899372e-13,1.567204566e-12,1.15136726e-11,1.492576412e-12,1.135141439e-12,1.167319778e-12,1.864947611e-12,2.494651417e-12,3.695384843e-12,1.135566031e-12,9.223037708e-13,1.978747534e-12,1.286395921e-12,2.5850388e-12,2.144948998e-12,8.480999668e-13,4.019321931e-12,4.881035754e-12,1.196425672e-12,1.231943185e-12,1.10077201e-12,6.814619537e-13
1.75,1.561682296e-12,4.981725216e-13,2.583261157e-12,2.163680652e-12,1.331890006e-12,1.647518676e-12,7.756487873e-13,7.729126137e-13,8.957851186e-13,4.277007707e-13,7.57755016e-13,1.585743311e-12,1.161788145e-11,1.525902516e-12,1.138327459e-12,1.189401215e-12,1.910816091e-12,2.536384095e-12,3.748141429e-12,1.162366482e-12,9.23051006e-13,1.989297781e-12,1.283964779e-12,2.606773351e-12,2.130919746e-12,8.455181229e-13,4.028402614e-12,4.954388513e-12,1.19690124e-12,1.227309347e-12,1.106726421e-12,6.785183994e-13
1.7578125,1.579581774e-12,5.083591655e-13,2.627443214e-12,2.18084066e-12,1.33266603e-12,1.647880973e-12,7.897307047e-13,7.725578438e-13,8.994174705e-13,4.324126889e-13,7.553920082e-13,1.604383965e-12,1.171898846e-11,1.559431652e-12,1.141468451e-12,1.211725813e-12,1.957300038e-12,2.577525678e-12,3.799635921e-12,1.190102918e-12,9.240162475e-13,1.999148093e-12,1.280742552e-12,2.627492418e-12,2.116808113e-12,8.42926735e-13,4.036279519e-12,5.031451611e-12,1.19727347e-12,1.222775994e-12,1.112645267e-12,6.758801184e-13
1.765625,1.596388839e-12,5.187295861e-13,2.671683586e-12,2.197710593e-12,1.333606039e-12,1.647528234e-12,8.033516187e-13,7.721479839e-13,9.028885811e-13,4.372157925e-13,7.53047803e-13,1.622670091e-12,1.181764279e-11,1.59244949e-12,1.143990652e-12,1.234284689e-12,2.004589508e-12,2.618428239e-12,3.849731117e-12,1.218058781e-12,9.250271236e-13,2.008058114e-12,1.276703984e-12,2.648785262e-12,2.101438984e-12,8.401479391e-13,4.042891773e-12,5.108577735e-12,1.197678253e-12,1.217773698e-12,1.118311659e-12,6.73304579e-13
1.7734375,1.61222673e-12,5.289566617e-13,2.714724195e-12,2.213508526e-12,1.334367578e-12,1.64612714e-12,8.175671263e-13,7.716362616e-13,9.059668195e-13,4.423080804e-13,7.506488954e-13,1.640476183e-12,1.191184555e-11,1.62461661e-12,1.145900519e-12,1.256184564e-12,2.051001838e-12,2.658684847e-12,3.898313144e-12,1.245423264e-12,9.258746152e-13,2.015983499e-12,1.271880643e-12,2.669957458e-12,2.085240872e-12,8.371307121e-13,4.048696559e-12,5.184694034e-12,1.197733108e-12,1.211838539e-12,1.123394272e-12,6.7067701e-13
1.78125,1.627168128e-12,5.389037591e-13,2.755926081e-12,2.228171833e-12,1.335160462e-12,1.644007109e-12,8.32557656e-13,7.712464417e-13,9.089341447e-13,4.478361385e-13,7.482207809e-13,1.658106987e-12,1.199644912e-11,1.656221299e-12,1.147755168e-12,1.277253837e-12,2.096549441e-12,2.698203709e-12,3.9455642e-12,1.272776638e-12,9.266609434e-13,2.023366207e-12,1.266341932e-12,2.689715232e-12,2.068786852e-12,8.341468827e-13,4.05398461e-12,5.262791938e-12,1.197044823e-12,1.205651583e-12,1.128194348e-12,6.682216476e-13
1.7890625,1.64117826e-12,5.488879535e-13,2.796873346e-12,2.24185137e-12,1.336017698e-12,1.641360491e-12,8.47478406e-13,7.710204479e-13,9.119244544e-13,4.537296927e-13,7.456977626e-13,1.675750302e-12,1.207454625e-11,1.68756542e-12,1.149429158e-12,1.298128864e-12,2.142632075e-12,2.738231438e-12,3.992531665e-12,1.300690558e-12,9.274389924e-13,2.030427545e-12,1.260154513e-12,2.708846207e-12,2.051600384e-12,8.312359572e-13,4.057784819e-12,5.343095556e-12,1.196023748e-12,1.200002356e-12,1.132920273e-12,6.658503503e-13
1.796875,1.654629666e-12,5.591064003e-13,2.838247205e-12,2.254929615e-12,1.336880212e-12,1.638346976e-12,8.624860742e-13,7.709058836e-13,9.148751627e-13,4.598108503e-13,7.430368724e-13,1.693371568e-12,1.215462552e-11,1.718822199e-12,1.150841282e-12,1.3192638e-12,2.189288699e-12,2.779120268e-12,4.039812259e-12,1.328965464e-12,9.28109303e-13,2.036870437e-12,1.253392188e-12,2.727822889e-12,2.033815538e-12,8.281378062e-13,4.060101668e-12,5.422871965e-12,1.195378951e-12,1.194570975e-12,1.137567016e-12,6.633992647e-13
1.8046875,1.667365033e-12,5.693766691e-13,2.879091155e-12,2.267563121e-12,1.337932254e-12,1.635234054e-12,8.778376794e-13,7.709272625e-13,9.177137304e-13,4.658486633e-13,7.402415852e-13,1.710459258e-12,1.223463321e-11,1.749425613e-12,1.151963413e-12,1.340380568e-12,2.236043756e-12,2.819771495e-12,4.086495175e-12,1.357429082e-12,9.286307103e-13,2.042714581e-12,1.246234248e-12,2.745367315e-12,2.016173569e-12,8.249464819e-13,4.062334829e-12,5.504102543e-12,1.194888483e-12,1.188713316e-12,1.142010242e-12,6.611683827e-13
