"Time","Fp1","AF3","F7","F3","FC1","FC5","T7","C3","CP1","CP5","P7","P3","Pz","PO3","O1","Oz","O2","PO4","P4","P8","CP6","CP2","C4","T8","FC6","FC2","F4","F8","AF4","Fp2","Fz","Cz"
0.0078125,1.969160948e-13,1.824559867e-13,2.847597521e-13,3.210248448e-13,2.881531979e-13,3.259070029e-13,4.496074797e-14,2.864862773e-13,5.257088264e-13,9.717198244e-14,3.604419374e-13,3.260521187e-13,7.519726712e-13,9.451832423e-13,7.034367803e-13,7.763445811e-13,9.572831143e-13,8.120097183e-13,5.394416082e-13,4.785386128e-12,3.11644588e-13,3.260766979e-13,3.616532309e-13,9.835875053e-14,2.063860776e-13,3.82492469e-13,2.032124493e-13,2.743178248e-13,1.77188687e-13,6.009365105e-14,2.983384156e-13,4.048149485e-13
0.015625,2.214862257e-13,2.026424273e-13,3.177413229e-13,3.522615335e-13,3.219641653e-13,3.483794001e-13,4.561782284e-14,3.179077374e-13,5.504557088e-13,1.043103652e-13,3.831153597e-13,3.49230987e-13,8.298784025e-13,1.092196231e-12,7.544626153e-13,8.111473351e-13,9.879700523e-13,8.839830139e-13,6.146083113e-13,5.071068479e-12,3.352289157e-13,3.560829104e-13,3.901474982e-13,1.164876814e-13,2.324135763e-13,4.171058773e-13,2.132337711e-13,2.888606215e-13,1.891423802e-13,6.392281344e-14,3.347715931e-13,4.339238367e-13
0.0234375,2.486632187e-13,2.247029481e-13,3.54131024e-13,3.856328909e-13,3.596796637e-13,3.705782318e-13,4.600147376e-14,3.52766268e-13,5.719058384e-13,1.115672847e-13,4.048116051e-13,3.716439956e-13,9.126842405e-13,1.256582424e-12,8.08206876e-13,8.450041114e-13,1.014097802e-12,9.623676704e-13,6.989597662e-13,5.348162342e-12,3.59813923e-13,3.86370991e-13,4.188729573e-13,1.372768124e-13,2.608782903e-13,4.541255163e-13,2.229808738e-13,3.026449178e-13,2.0175335e-13,6.789644034e-14,3.754031097e-13,4.637592167e-13
0.03125,2.7856395e-13,2.489557337e-13,3.946086658e-13,4.211222788e-13,4.013422073e-13,3.929734342e-13,4.641237291e-14,3.921162964e-13,5.900788091e-13,1.190944437e-13,4.254795235e-13,3.938690211e-13,1.001240299e-12,1.440937795e-12,8.657694801e-13,8.786785222e-13,1.035930297e-12,1.04790613e-12,7.931195793e-13,5.615221779e-12,3.851044831e-13,4.169385555e-13,4.478051824e-13,1.607127742e-13,2.919796327e-13,4.932781711e-13,2.323096285e-13,3.159824019e-13,2.151647256e-13,7.1929509e-14,4.201773717e-13,4.941688982e-13
0.0390625,3.111265558e-13,2.754991293e-13,4.394821406e-13,4.590621111e-13,4.471562666e-13,4.164022225e-13,4.703063455e-14,4.361712567e-13,6.04739844e-13,1.268820836e-13,4.456085934e-13,4.156953452e-13,1.09520915e-12,1.645671337e-12,9.276028303e-13,9.123980589e-13,1.053640497e-12,1.140754579e-12,8.972714149e-13,5.87092326e-12,4.111089704e-13,4.473339653e-13,4.767045809e-13,1.868977529e-13,3.256066676e-13,5.343585584e-13,2.409198872e-13,3.284342475e-13,2.289874874e-13,7.627692883e-14,4.686415503e-13,5.249065326e-13
0.046875,3.468049158e-13,3.041925313e-13,4.884635707e-13,4.989844172e-13,4.977722247e-13,4.400214853e-13,4.786261182e-14,4.850469959e-13,6.157622527e-13,1.350509642e-13,4.650458661e-13,4.36674179e-13,1.19452888e-12,1.871044721e-12,9.938081163e-13,9.463648741e-13,1.067859151e-12,1.241630187e-12,1.012294138e-12,6.116358215e-12,4.383866285e-13,4.768551265e-13,5.050252294e-13,2.157055052e-13,3.616338688e-13,5.778113634e-13,2.489111181e-13,3.399405838e-13,2.43342956e-13,8.103075351e-14,5.212455212e-13,5.563036681e-13
0.0546875,3.860254191e-13,3.353645179e-13,5.429532784e-13,5.403228095e-13,5.532219458e-13,4.632558245e-13,4.88158794e-14,5.383727794e-13,6.228037789e-13,1.433864181e-13,4.832633576e-13,4.571498796e-13,1.300134946e-12,2.119495874e-12,1.065308301e-12,9.813527337e-13,1.078461767e-12,1.351563158e-12,1.139019748e-12,6.351021702e-12,4.67144352e-13,5.058146181e-13,5.325637657e-13,2.473919341e-13,4.004968832e-13,6.241992918e-13,2.568155918e-13,3.510206082e-13,2.590156939e-13,8.619067299e-14,5.789799915e-13,5.884101129e-13
0.0625,4.285745772e-13,3.692060984e-13,6.024002763e-13,5.832638937e-13,6.133522065e-13,4.865910568e-13,4.977518792e-14,5.961127845e-13,6.25896326e-13,1.516470391e-13,5.005669035e-13,4.771732801e-13,1.411622395e-12,2.389497417e-12,1.141505561e-12,1.016903911e-12,1.084812275e-12,1.470329576e-12,1.277265372e-12,6.573221887e-12,4.972682085e-13,5.340375888e-13,5.594271404e-13,2.818102834e-13,4.420760222e-13,6.733113356e-13,2.646948391e-13,3.613357516e-13,2.761711348e-13,9.171091663e-14,6.41832086e-13,6.209871101e-13
0.0703125,4.741048261e-13,4.050466468e-13,6.662800093e-13,6.269941797e-13,6.777034456e-13,5.093661682e-13,5.087042944e-14,6.58244572e-13,6.250190191e-13,1.599118382e-13,5.16554746e-13,4.960611485e-13,1.527428281e-12,2.677944141e-12,1.220942727e-12,1.051933655e-12,1.086747796e-12,1.596891277e-12,1.426613127e-12,6.78144358e-12,5.284022889e-13,5.597966431e-13,5.853555628e-13,3.190361085e-13,4.858785053e-13,7.243223256e-13,2.721379858e-13,3.706006712e-13,2.941540138e-13,9.777268898e-14,7.085953854e-13,6.53419588e-13
0.078125,5.225278429e-13,4.420209996e-13,7.352879699e-13,6.705254556e-13,7.457020042e-13,5.314145341e-13,5.214463259e-14,7.247842145e-13,6.196998959e-13,1.681481862e-13,5.307591675e-13,5.131619392e-13,1.646217659e-12,2.983565058e-12,1.304213404e-12,1.086772636e-12,1.084121289e-12,1.730462906e-12,1.586432052e-12,6.973290191e-12,5.602958807e-13,5.821587671e-13,6.095881888e-13,3.589468718e-13,5.315747647e-13,7.767059041e-13,2.788877775e-13,3.798974658e-13,3.126739919e-13,1.043664058e-13,7.781762009e-13,6.850907328e-13
0.0859375,5.736568531e-13,4.80152317e-13,8.086296779e-13,7.147205867e-13,8.17852565e-13,5.536867696e-13,5.370535047e-14,7.963755684e-13,6.103197258e-13,1.762581569e-13,5.443846525e-13,5.285769527e-13,1.767395938e-12,3.304903721e-12,1.392562156e-12,1.122353976e-12,1.077253208e-12,1.87065873e-12,1.75601121e-12,7.149998656e-12,5.933420198e-13,6.011749639e-13,6.315925873e-13,4.007792159e-13,5.786319214e-13,8.304051815e-13,2.857427658e-13,3.895528149e-13,3.324262787e-13,1.113938922e-13,8.506792701e-13,7.160610802e-13
0.09375,6.274724265e-13,5.196240642e-13,8.872960946e-13,7.598696797e-13,8.936775723e-13,5.764082178e-13,5.576283473e-14,8.724173219e-13,5.971836215e-13,1.840683437e-13,5.581362571e-13,5.425642132e-13,1.890176107e-12,3.639799303e-12,1.486536854e-12,1.159367727e-12,1.067564269e-12,2.016595212e-12,1.934558294e-12,7.315239779e-12,6.278525885e-13,6.162633894e-13,6.514290056e-13,4.446820845e-13,6.271223598e-13,8.850042673e-13,2.934495257e-13,3.986641325e-13,3.537505414e-13,1.190463446e-13,9.256406414e-13,7.45909806e-13
0.1015625,6.83845026e-13,5.602493071e-13,9.717311903e-13,8.055268408e-13,9.720126698e-13,5.998783137e-13,5.829941411e-14,9.518135384e-13,5.804392656e-13,1.913772099e-13,5.715772595e-13,5.55035928e-13,2.013463048e-12,3.984787885e-12,1.586258558e-12,1.199195561e-12,1.057202458e-12,2.167163276e-12,2.120711228e-12,7.47029195e-12,6.636455878e-13,6.267341378e-13,6.689642596e-13,4.898791193e-13,6.771854623e-13,9.399785447e-13,3.017312728e-13,4.074653592e-13,3.760846839e-13,1.272331887e-13,1.001942731e-12,7.739167906e-13
0.109375,7.41544868e-13,6.012528549e-13,1.060161695e-12,8.509817028e-13,1.052380195e-12,6.236525376e-13,6.132237928e-14,1.033912322e-12,5.610774207e-13,1.980765059e-13,5.842658525e-13,5.659288272e-13,2.1371874e-12,4.33592389e-12,1.690628462e-12,1.242632807e-12,1.047352708e-12,2.320152628e-12,2.312067694e-12,7.615272571e-12,7.002767189e-13,6.327191186e-13,6.838893535e-13,5.352291594e-13,7.277291508e-13,9.948326619e-13,3.100998913e-13,4.165613787e-13,3.98778302e-13,1.358808688e-13,1.078974879e-12,7.999626496e-13
0.1171875,7.99908358e-13,6.415334622e-13,1.15067114e-12,8.941334579e-13,1.133132899e-12,6.459818366e-13,6.470254738e-14,1.117696746e-12,5.397608262e-13,2.040898341e-13,5.962037738e-13,5.74945531e-13,2.260214169e-12,4.687605107e-12,1.797455417e-12,1.289059005e-12,1.038415469e-12,2.471417854e-12,2.505368963e-12,7.750287423e-12,7.371988083e-13,6.34938004e-13,6.962897419e-13,5.810224875e-13,7.775191161e-13,1.048281062e-12,3.180599613e-13,4.256005861e-13,4.214695834e-13,1.449061274e-13,1.155573738e-12,8.237281438e-13
0.125,8.584324808e-13,6.803272336e-13,1.240438355e-12,9.333262199e-13,1.211801115e-12,6.661129496e-13,6.826560922e-14,1.202412639e-12,5.172495528e-13,2.094808741e-13,6.076172648e-13,5.819962757e-13,2.380432293e-12,5.031969344e-12,1.904284345e-12,1.337680515e-12,1.031559982e-12,2.616719681e-12,2.697281081e-12,7.87456938e-12,7.737914723e-13,6.33730556e-13,7.060684127e-13,6.266738951e-13,8.263398766e-13,1.098796236e-12,3.254405618e-13,4.344218317e-13,4.437252559e-13,1.54023082e-13,1.229880587e-12,8.444363616e-13
0.1328125,9.154976616e-13,7.167520695e-13,1.329693671e-12,9.680119927e-13,1.286983359e-12,6.841029672e-13,7.205744134e-14,1.287002114e-12,4.945921459e-13,2.140518651e-13,6.182668648e-13,5.877266403e-13,2.497556839e-12,5.364292881e-12,2.009406752e-12,1.387684938e-12,1.02735298e-12,2.752781811e-12,2.884486699e-12,7.986558506e-12,8.09426176e-13,6.289827123e-13,7.128325289e-13,6.70793852e-13,8.740118626e-13,1.145453549e-12,3.325849644e-13,4.437893708e-13,4.652571687e-13,1.630725402e-13,1.300203053e-12,8.613401623e-13
0.140625,9.706678914e-13,7.503701545e-13,1.419054889e-12,9.978972549e-13,1.358180986e-12,6.998353357e-13,7.631729561e-14,1.370199671e-12,4.721289744e-13,2.174819278e-13,6.281360554e-13,5.92012955e-13,2.609696547e-12,5.68144926e-12,2.112241178e-12,1.439274715e-12,1.026129319e-12,2.877490876e-12,3.063750794e-12,8.086176473e-12,8.4389938e-13,6.21218685e-13,7.164850994e-13,7.129231411e-13,9.192173611e-13,1.187467892e-12,3.39483595e-13,4.546487718e-13,4.859669051e-13,1.720128044e-13,1.365459022e-12,8.743018119e-13
0.1484375,1.023507023e-12,7.80848112e-13,1.504766107e-12,1.022773421e-12,1.424229244e-12,7.133140476e-13,8.114415498e-14,1.451747004e-12,4.50277999e-13,2.201079143e-13,6.37232344e-13,5.938324705e-13,2.712975809e-12,5.976374014e-12,2.211747973e-12,1.493316885e-12,1.029265866e-12,2.988615985e-12,3.231569001e-12,8.173334309e-12,8.76909914e-13,6.10892641e-13,7.172913581e-13,7.529550951e-13,9.608274309e-13,1.22382016e-12,3.455918415e-13,4.666317909e-13,5.052694606e-13,1.807340406e-13,1.424724009e-12,8.83518432e-13
0.15625,1.072227865e-12,8.074852885e-13,1.585562761e-12,1.0424784e-12,1.48293618e-12,7.24435832e-13,8.624915525e-14,1.530828427e-12,4.29749451e-13,2.22366014e-13,6.452923454e-13,5.937281353e-13,2.806223178e-12,6.242364484e-12,2.306530449e-12,1.549900118e-12,1.037473319e-12,3.08298854e-12,3.383691646e-12,8.244730541e-12,9.073974104e-13,5.97490268e-13,7.154707715e-13,7.898891157e-13,9.986140208e-13,1.253470272e-12,3.509908825e-13,4.799069044e-13,5.229479485e-13,1.888141673e-13,1.47656608e-12,8.883663138e-13
0.1640625,1.115454603e-12,8.299474447e-13,1.661515334e-12,1.057073343e-12,1.532486847e-12,7.331550194e-13,9.177679507e-14,1.605660691e-12,4.107578931e-13,2.243149964e-13,6.522544899e-13,5.92189455e-13,2.887634134e-12,6.47355799e-12,2.394965905e-12,1.60923395e-12,1.050662142e-12,3.157731616e-12,3.515684592e-12,8.297349388e-12,9.344337484e-13,5.808872528e-13,7.105536594e-13,8.227158421e-13,1.03146303e-12,1.275527847e-12,3.558762288e-13,4.961068333e-13,5.388786095e-13,1.960670454e-13,1.519466828e-12,8.884174963e-13
0.171875,1.151911078e-12,8.474061643e-13,1.729104153e-12,1.066334564e-12,1.572250138e-12,7.391590822e-13,9.79017353e-14,1.675811987e-12,3.932147985e-13,2.260162742e-13,6.572947865e-13,5.878269474e-13,2.953799554e-12,6.663268909e-12,2.474571587e-12,1.67109963e-12,1.068595161e-12,3.210574595e-12,3.624128888e-12,8.330141552e-12,9.57711882e-13,5.614339821e-13,7.020578463e-13,8.510105894e-13,1.058360992e-12,1.289462661e-12,3.596874155e-13,5.141352242e-13,5.525100207e-13,2.022889157e-13,1.55268157e-12,8.842062437e-13
0.1796875,1.181385852e-12,8.59452707e-13,1.786761532e-12,1.070165094e-12,1.601576656e-12,7.419968482e-13,1.044656301e-13,1.741700295e-12,3.776037983e-13,2.275566698e-13,6.599279854e-13,5.808195544e-13,3.004500858e-12,6.808863978e-12,2.544263824e-12,1.734901319e-12,1.090997362e-12,3.240204536e-12,3.707093894e-12,8.340005566e-12,9.767407543e-13,5.392098261e-13,6.90635191e-13,8.738949387e-13,1.079840125e-12,1.294749778e-12,3.625029321e-13,5.325514958e-13,5.641412882e-13,2.070846743e-13,1.575902567e-12,8.752859632e-13
0.1875,1.20434609e-12,8.665441788e-13,1.834026894e-12,1.06905883e-12,1.619368128e-12,7.418624254e-13,1.119586344e-13,1.802810672e-12,3.646032189e-13,2.291480709e-13,6.605644144e-13,5.721539288e-13,3.039018818e-12,6.90747601e-12,2.603234888e-12,1.800706791e-12,1.118040775e-12,3.245506246e-12,3.762777232e-12,8.322304377e-12,9.907022025e-13,5.146414606e-13,6.769402342e-13,8.915243972e-13,1.095835869e-12,1.290621742e-12,3.641017568e-13,5.530215593e-13,5.736114931e-13,2.106955419e-13,1.588186286e-12,8.608852854e-13
0.1953125,1.219201773e-12,8.68458915e-13,1.869299918e-12,1.063153824e-12,1.625663502e-12,7.386427141e-13,1.204822493e-13,1.85829924e-12,3.544101595e-13,2.311379618e-13,6.587515175e-13,5.615512154e-13,3.05557503e-12,6.955700368e-12,2.649420318e-12,1.86752148e-12,1.148998298e-12,3.225188554e-12,3.789622524e-12,8.275398415e-12,9.992327219e-13,4.885564369e-13,6.60626632e-13,9.046181626e-13,1.105682748e-12,1.2772782e-12,3.637005258e-13,5.758344112e-13,5.802688631e-13,2.134227747e-13,1.589280613e-12,8.418080584e-13
0.203125,1.224902629e-12,8.652064269e-13,1.892738951e-12,1.052713209e-12,1.621442505e-12,7.324235089e-13,1.29747646e-13,1.907929369e-12,3.472040297e-13,2.336135802e-13,6.541946441e-13,5.494039826e-13,3.055255096e-12,6.954962386e-12,2.682700606e-12,1.934149428e-12,1.182623053e-12,3.17966496e-12,3.787896048e-12,8.199750346e-12,1.002594636e-12,4.617772968e-13,6.415310048e-13,9.118312473e-13,1.109758822e-12,1.255632443e-12,3.619872758e-13,6.00336511e-13,5.848406247e-13,2.152962018e-13,1.580300669e-12,8.190040436e-13
0.2109375,1.222826359e-12,8.575863576e-13,1.90386312e-12,1.038885015e-12,1.607982802e-12,7.238773105e-13,1.404109786e-13,1.951426406e-12,3.429768161e-13,2.36473849e-13,6.471787861e-13,5.365558888e-13,3.038969605e-12,6.907020014e-12,2.703719175e-12,2.000965923e-12,1.219084322e-12,3.110842086e-12,3.759377616e-12,8.094596367e-12,1.000951822e-12,4.35074307e-13,6.203913904e-13,9.12697748e-13,1.108767427e-12,1.225886449e-12,3.594726726e-13,6.26641992e-13,5.878011493e-13,2.164538267e-13,1.562253263e-12,7.925613824e-13
0.21875,1.213296406e-12,8.466663732e-13,1.903504196e-12,1.022943686e-12,1.586329647e-12,7.133925203e-13,1.525418406e-13,1.98769911e-12,3.415140761e-13,2.399168347e-13,6.379124048e-13,5.239645051e-13,3.007291173e-12,6.815167948e-12,2.712348263e-12,2.067250867e-12,1.257705564e-12,3.020679805e-12,3.705511192e-12,7.958406013e-12,9.939420336e-13,4.092469193e-13,5.981590071e-13,9.087832074e-13,1.10310309e-12,1.188440737e-12,3.559878594e-13,6.54221174e-13,5.887661979e-13,2.171117354e-13,1.536015641e-12,7.628096364e-13
0.2265625,1.195153408e-12,8.332109404e-13,1.893531413e-12,1.006468069e-12,1.557184521e-12,7.022383184e-13,1.656237646e-13,2.016563692e-12,3.427149385e-13,2.441804938e-13,6.269303538e-13,5.120809014e-13,2.960186733e-12,6.682712243e-12,2.709297776e-12,2.131084434e-12,1.296369713e-12,2.91095653e-12,3.626402199e-12,7.790508682e-12,9.815874006e-13,3.848045415e-13,5.751956626e-13,8.995667092e-13,1.092305031e-12,1.144334733e-12,3.51858004e-13,6.835825609e-13,5.878615848e-13,2.170947568e-13,1.502334183e-12,7.309213916e-13
0.234375,1.169178086e-12,8.177320627e-13,1.871986085e-12,9.912505002e-13,1.522265837e-12,6.914899078e-13,1.799010082e-13,2.039153915e-12,3.461776718e-13,2.49342e-13,6.145473895e-13,5.003461329e-13,2.896557838e-12,6.50980907e-12,2.695082055e-12,2.191692377e-12,1.333901635e-12,2.784226133e-12,3.52313129e-12,7.592978471e-12,9.647194361e-13,3.617440857e-13,5.514256814e-13,8.848451155e-13,1.075667559e-12,1.094248612e-12,3.472608247e-13,7.147735053e-13,5.856776188e-13,2.159951452e-13,1.462265419e-12,6.9764661e-13
0.2421875,1.13724587e-12,8.00888076e-13,1.838269323e-12,9.774498496e-13,1.482251687e-12,6.803959547e-13,1.953603883e-13,2.055233215e-12,3.512168846e-13,2.55605297e-13,6.005949392e-13,4.887986166e-13,2.817344565e-12,6.299396418e-12,2.66984054e-12,2.247840434e-12,1.368768317e-12,2.643082535e-12,3.397553643e-12,7.368071926e-12,9.435237542e-13,3.401518929e-13,5.273723446e-13,8.662596184e-13,1.054032222e-12,1.038764776e-12,3.424270389e-13,7.466380891e-13,5.824070164e-13,2.138105964e-13,1.417023634e-12,6.628539707e-13
0.25,1.099056192e-12,7.821877933e-13,1.794652446e-12,9.637977701e-13,1.436343077e-12,6.681423801e-13,2.122574149e-13,2.063410208e-12,3.572967431e-13,2.631617902e-13,5.845228003e-13,4.773048736e-13,2.72282639e-12,6.054822534e-12,2.633227788e-12,2.297192598e-12,1.399135976e-12,2.488670802e-12,3.250218097e-12,7.115047858e-12,9.176596137e-13,3.199388327e-13,5.041282921e-13,8.430924177e-13,1.028311843e-12,9.786990982e-13,3.370293864e-13,7.789396335e-13,5.774103088e-13,2.103468135e-13,1.366567397e-12,6.272305435e-13
0.2578125,1.054982896e-12,7.614907474e-13,1.742270363e-12,9.50706136e-13,1.386128868e-12,6.554634193e-13,2.311721827e-13,2.063812829e-12,3.641237576e-13,2.724627346e-13,5.66365936e-13,4.654843987e-13,2.613556652e-12,5.780506641e-12,2.58526707e-12,2.338404693e-12,1.424190283e-12,2.324300568e-12,3.084334004e-12,6.836372699e-12,8.880035179e-13,3.008558784e-13,4.821543763e-13,8.154232035e-13,9.985250642e-13,9.151853912e-13,3.307920461e-13,8.115497787e-13,5.708628042e-13,2.054564119e-13,1.311778799e-12,5.917981729e-13
0.265625,1.007970874e-12,7.408724426e-13,1.681589699e-12,9.410529941e-13,1.334912995e-12,6.442223212e-13,2.521500721e-13,2.057988054e-12,3.716629848e-13,2.838261988e-13,5.4687988e-13,4.544058865e-13,2.493505223e-12,5.485695541e-12,2.528956624e-12,2.371662203e-12,1.443080144e-12,2.156189097e-12,2.906234496e-12,6.537831744e-12,8.558236645e-13,2.833419037e-13,4.614052532e-13,7.848014793e-13,9.658040072e-13,8.499866667e-13,3.250640527e-13,8.445004177e-13,5.64291103e-13,1.996475887e-13,1.25556599e-12,5.567856391e-13
0.2734375,9.596393063e-13,7.219978462e-13,1.614339466e-12,9.369681242e-13,1.284642309e-12,6.354693014e-13,2.757018826e-13,2.046030494e-12,3.80091616e-13,2.969220443e-13,5.26327696e-13,4.455787691e-13,2.366460185e-12,5.179338964e-12,2.467067192e-12,2.397193313e-12,1.455447975e-12,1.988671119e-12,2.720415571e-12,6.221742487e-12,8.214638097e-13,2.677985063e-13,4.425591624e-13,7.515726968e-13,9.318354077e-13,7.846419279e-13,3.204765255e-13,8.770423909e-13,5.583707793e-13,1.936313324e-13,1.199747306e-12,5.225868461e-13
0.28125,9.102990332e-13,7.04933207e-13,1.543269769e-12,9.382148178e-13,1.236128223e-12,6.293010372e-13,3.019271637e-13,2.026782563e-12,3.889460794e-13,3.118081119e-13,5.052017273e-13,4.393093893e-13,2.234371374e-12,4.867776385e-12,2.399585951e-12,2.412990068e-12,1.460368996e-12,1.823700741e-12,2.530014414e-12,5.891240422e-12,7.853428718e-13,2.541558068e-13,4.267602868e-13,7.171256329e-13,8.972674863e-13,7.200376791e-13,3.16123219e-13,9.083975559e-13,5.523386126e-13,1.876750136e-13,1.14496973e-12,4.89801311e-13
0.2890625,8.607867426e-13,6.893571904e-13,1.4683147e-12,9.439586705e-13,1.19022374e-12,6.26076261e-13,3.307899858e-13,2.000908845e-12,3.974518925e-13,3.287052834e-13,4.837879666e-13,4.352350639e-13,2.098269213e-12,4.554810329e-12,2.327058517e-12,2.416845435e-12,1.456422163e-12,1.662787556e-12,2.338640228e-12,5.551690815e-12,7.483016113e-13,2.425859144e-13,4.145093482e-13,6.816546623e-13,8.62556216e-13,6.571366771e-13,3.119241513e-13,9.394969143e-13,5.455358641e-13,1.816314454e-13,1.091985277e-12,4.58739151e-13
0.296875,8.117960303e-13,6.752259005e-13,1.389196008e-12,9.537601219e-13,1.147271664e-12,6.258518946e-13,3.627025464e-13,1.969471708e-12,4.056923717e-13,3.47260099e-13,4.61892014e-13,4.335780975e-13,1.959725067e-12,4.244065968e-12,2.250942553e-12,2.409260058e-12,1.444592446e-12,1.507465106e-12,2.149279947e-12,5.205654512e-12,7.109648201e-13,2.331488038e-13,4.056758675e-13,6.455972373e-13,8.282473988e-13,5.967527528e-13,3.082933554e-13,9.693097397e-13,5.380831267e-13,1.757612101e-13,1.04081678e-12,4.298061271e-13
0.3046875,7.63679536e-13,6.623891586e-13,1.308682859e-12,9.669626555e-13,1.106925663e-12,6.285212056e-13,3.973805276e-13,1.932057231e-12,4.134646993e-13,3.66968462e-13,4.402774431e-13,4.345311349e-13,1.819461922e-12,3.93914542e-12,2.171797946e-12,2.390330126e-12,1.425791441e-12,1.358682818e-12,1.963723062e-12,4.856911616e-12,6.738558567e-13,2.252021253e-13,4.002876493e-13,6.107772688e-13,7.94658137e-13,5.393640028e-13,3.047460035e-13,9.964664155e-13,5.297515672e-13,1.700231007e-13,9.912762164e-13,4.034772234e-13
0.3125,7.171482986e-13,6.505302179e-13,1.228663921e-12,9.836835276e-13,1.069869213e-12,6.351954359e-13,4.353048259e-13,1.888971536e-12,4.20097496e-13,3.874956007e-13,4.200402565e-13,4.378004643e-13,1.678168236e-12,3.642677583e-12,2.09050998e-12,2.359562114e-12,1.399878981e-12,1.218037771e-12,1.784059444e-12,4.511843011e-12,6.37409104e-13,2.182815405e-13,3.990096478e-13,5.762015451e-13,7.625914468e-13,4.854744274e-13,3.00860106e-13,1.022160499e-12,5.204902931e-13,1.639446695e-13,9.436531046e-13,3.79528615e-13
0.3203125,6.739807562e-13,6.405452874e-13,1.150655367e-12,1.006087899e-12,1.037893575e-12,6.476059995e-13,4.769261477e-13,1.841030142e-12,4.25580613e-13,4.087650414e-13,4.017267324e-13,4.439529984e-13,1.539917107e-12,3.360243825e-12,2.009282167e-12,2.318393837e-12,1.367952011e-12,1.088293145e-12,1.613231542e-12,4.173883208e-12,6.020333578e-13,2.126712269e-13,4.02173701e-13,5.423719545e-13,7.324111718e-13,4.357608296e-13,2.971547928e-13,1.046540813e-12,5.112410723e-13,1.576989665e-13,8.98828287e-13,3.574247036e-13
0.328125,6.35038912e-13,6.333818892e-13,1.076525014e-12,1.035141925e-12,1.01165312e-12,6.660900242e-13,5.214217633e-13,1.788012842e-12,4.299241526e-13,4.303013332e-13,3.851910246e-13,4.538296176e-13,1.40549793e-12,3.095525059e-12,1.929852085e-12,2.268243812e-12,1.33125406e-12,9.696945705e-13,1.45250135e-12,3.844908778e-12,5.681839678e-13,2.081794256e-13,4.090852211e-13,5.10690545e-13,7.031798106e-13,3.910366214e-13,2.942622654e-13,1.069198271e-12,5.02342509e-13,1.516333776e-13,8.581018504e-13,3.373849066e-13
0.3359375,6.004169118e-13,6.28366477e-13,1.006460809e-12,1.069057582e-12,9.903144701e-13,6.902938555e-13,5.681558524e-13,1.729985565e-12,4.332178882e-13,4.517361203e-13,3.703897507e-13,4.668962413e-13,1.27662274e-12,2.849178458e-12,1.852161105e-12,2.209398579e-12,1.290913403e-12,8.622969611e-13,1.30286596e-12,3.528787314e-12,5.359930561e-13,2.049576989e-13,4.194832234e-13,4.814829937e-13,6.752394496e-13,3.518064885e-13,2.920345374e-13,1.090297371e-12,4.939713238e-13,1.45819199e-13,8.213479235e-13,3.195757047e-13
0.34375,5.70591794e-13,6.249932794e-13,9.414422126e-13,1.10733596e-12,9.738653311e-13,7.211366996e-13,6.170735277e-13,1.668859532e-12,4.354105704e-13,4.733749349e-13,3.580093847e-13,4.829976658e-13,1.155981842e-12,2.624310115e-12,1.776548987e-12,2.141685879e-12,1.247025172e-12,7.669999114e-13,1.165515058e-12,3.229337202e-12,5.058381658e-13,2.024602751e-13,4.335099787e-13,4.538721239e-13,6.49908446e-13,3.181073315e-13,2.896808968e-13,1.109762475e-12,4.864172944e-13,1.401391962e-13,7.886772902e-13,3.038718738e-13
0.3515625,5.464748859e-13,6.233444422e-13,8.831235656e-13,1.150111219e-12,9.621491977e-13,7.591616537e-13,6.685675546e-13,1.605709083e-12,4.361102633e-13,4.945977517e-13,3.481352376e-13,5.02748977e-13,1.043449626e-12,2.422758608e-12,1.705032818e-12,2.066674492e-12,1.20044268e-12,6.827256035e-13,1.040935877e-12,2.947176652e-12,4.777627779e-13,2.003174627e-13,4.507747512e-13,4.289188253e-13,6.269641365e-13,2.898859688e-13,2.866513696e-13,1.128369058e-12,4.786171287e-13,1.347480624e-13,7.600037493e-13,2.900459162e-13
0.359375,5.282132815e-13,6.232495997e-13,8.308000078e-13,1.196926717e-12,9.54057112e-13,8.039837846e-13,7.217733527e-13,1.540706367e-12,4.349062046e-13,5.149416494e-13,3.401552214e-13,5.254105092e-13,9.365373565e-13,2.241813928e-12,1.638638545e-12,1.987858956e-12,1.154273223e-12,6.085450251e-13,9.28970785e-13,2.681775717e-12,4.514019933e-13,1.983554516e-13,4.706640064e-13,4.069239863e-13,6.056522479e-13,2.668297129e-13,2.831950343e-13,1.145744897e-12,4.707723584e-13,1.300254406e-13,7.345843606e-13,2.776003821e-13
0.3671875,5.157580713e-13,6.247940825e-13,7.849778804e-13,1.248486988e-12,9.496444622e-13,8.567294078e-13,7.750854282e-13,1.475588725e-12,4.32342523e-13,5.342727032e-13,3.350297135e-13,5.508051153e-13,8.377620406e-13,2.081441823e-12,1.577661092e-12,1.907133624e-12,1.11015602e-12,5.445080559e-13,8.299485189e-13,2.435077798e-12,4.268272874e-13,1.967531672e-13,4.926167725e-13,3.870538143e-13,5.862637827e-13,2.487581756e-13,2.792037676e-13,1.161411483e-12,4.64130374e-13,1.261437266e-13,7.127279097e-13,2.66174962e-13
0.375,5.084185739e-13,6.284512795e-13,7.466403908e-13,1.305883054e-12,9.49824304e-13,9.185877897e-13,8.281057104e-13,1.412436111e-12,4.289970969e-13,5.519637855e-13,3.338743379e-13,5.798281267e-13,7.49300473e-13,1.944202346e-12,1.523608379e-12,1.827087321e-12,1.070064288e-12,4.902158996e-13,7.433043523e-13,2.209647059e-12,4.041893829e-13,1.951614707e-13,5.164020208e-13,3.688702566e-13,5.691621272e-13,2.358217713e-13,2.742520454e-13,1.177101483e-12,4.586815181e-13,1.233141433e-13,6.947082812e-13,2.562029827e-13
0.3828125,5.059073971e-13,6.346061742e-13,7.165469599e-13,1.369565679e-12,9.549182229e-13,9.886199622e-13,8.798516968e-13,1.350802889e-12,4.248499376e-13,5.670279466e-13,3.358962913e-13,6.122330061e-13,6.700085291e-13,1.829958712e-12,1.477176073e-12,1.751091002e-12,1.036141017e-12,4.459647406e-13,6.681478587e-13,2.004019395e-12,3.834129287e-13,1.939124086e-13,5.414881905e-13,3.540211177e-13,5.532885602e-13,2.281542414e-13,2.6910961e-13,1.193169381e-12,4.54790993e-13,1.214436198e-13,6.807744125e-13,2.477803452e-13
0.390625,5.083461077e-13,6.435195063e-13,6.954634596e-13,1.439619897e-12,9.643768252e-13,1.066843843e-12,9.282590755e-13,1.290573541e-12,4.194540729e-13,5.78552242e-13,3.412571529e-13,6.47570002e-13,5.99166418e-13,1.7364502e-12,1.438181155e-12,1.680263014e-12,1.00852748e-12,4.112501365e-13,6.042446519e-13,1.817125721e-12,3.642388398e-13,1.927630135e-13,5.669095385e-13,3.419076735e-13,5.382061862e-13,2.252231113e-13,2.638805595e-13,1.210149663e-12,4.52855075e-13,1.202809327e-13,6.715421567e-13,2.40333917e-13
0.3984375,5.154301387e-13,6.557082908e-13,6.841150413e-13,1.515631794e-12,9.773717149e-13,1.153972198e-12,9.723567905e-13,1.233625901e-12,4.131760839e-13,5.859968757e-13,3.517053846e-13,6.861684678e-13,5.373571127e-13,1.662362058e-12,1.406997434e-12,1.61612361e-12,9.881159251e-13,3.854746504e-13,5.511470062e-13,1.651347974e-12,3.468077076e-13,1.912173873e-13,5.918808373e-13,3.310912662e-13,5.24330119e-13,2.262780769e-13,2.574975098e-13,1.228838023e-12,4.534486718e-13,1.201503057e-13,6.669733945e-13,2.333839611e-13
0.40625,5.270866484e-13,6.716985757e-13,6.823346216e-13,1.597999213e-12,9.941921665e-13,1.249383973e-12,1.012046381e-12,1.180550502e-12,4.065717399e-13,5.890704993e-13,3.670384813e-13,7.276973727e-13,4.84508342e-13,1.60689588e-12,1.383691853e-12,1.560481764e-12,9.75854894e-13,3.684617129e-13,5.081491218e-13,1.506346387e-12,3.314298539e-13,1.900700502e-13,6.156389016e-13,3.225902714e-13,5.107097286e-13,2.315648971e-13,2.507148296e-13,1.24900516e-12,4.56902975e-13,1.213765642e-13,6.675858196e-13,2.271477126e-13
0.4140625,5.43764065e-13,6.918806697e-13,6.898232169e-13,1.686896294e-12,1.014860496e-12,1.352427439e-12,1.046701449e-12,1.131230571e-12,4.000814516e-13,5.871996618e-13,3.869962545e-13,7.719221734e-13,4.406507781e-13,1.568644513e-12,1.368620376e-12,1.514337431e-12,9.719406619e-13,3.600358812e-13,4.744251728e-13,1.379683574e-12,3.177110923e-13,1.897501123e-13,6.370277088e-13,3.162499966e-13,4.964534683e-13,2.403612499e-13,2.442654336e-13,1.271207564e-12,4.635840903e-13,1.241723778e-13,6.738080424e-13,2.210928274e-13
0.421875,5.647395881e-13,7.157422408e-13,7.068492644e-13,1.781212205e-12,1.039003998e-12,1.462180441e-12,1.0747117e-12,1.086799489e-12,3.935912422e-13,5.808591296e-13,4.123341916e-13,8.184558139e-13,4.057918649e-13,1.546213757e-12,1.361863217e-12,1.478577208e-12,9.772827088e-13,3.598126454e-13,4.49229244e-13,1.271975515e-12,3.054780358e-13,1.895868362e-13,6.560107379e-13,3.113463204e-13,4.822870229e-13,2.516895937e-13,2.372346391e-13,1.295832072e-12,4.739013517e-13,1.283901839e-13,6.853296566e-13,2.145625591e-13
0.4296875,5.895136041e-13,7.43649886e-13,7.337819598e-13,1.882053012e-12,1.067385128e-12,1.577908668e-12,1.095698674e-12,1.047480849e-12,3.869925626e-13,5.717476485e-13,4.433620857e-13,8.665787896e-13,3.793268908e-13,1.53839517e-12,1.363905138e-12,1.454243377e-12,9.913478939e-13,3.670554891e-13,4.319512599e-13,1.183102947e-12,2.959153897e-13,1.901615623e-13,6.725960889e-13,3.089807927e-13,4.677207722e-13,2.661583964e-13,2.306781176e-13,1.32415869e-12,4.869883556e-13,1.337149225e-13,7.01937683e-13,2.077621083e-13
0.4375,6.183330507e-13,7.775856114e-13,7.709944812e-13,1.991901623e-12,1.100805897e-12,1.699360951e-12,1.111472269e-12,1.013287499e-12,3.810305329e-13,5.598266197e-13,4.797075328e-13,9.172059081e-13,3.610519592e-13,1.544631606e-12,1.374860098e-12,1.442620612e-12,1.014346401e-12,3.815687748e-13,4.218332538e-13,1.109505737e-12,2.891779512e-13,1.917038398e-13,6.863942585e-13,3.094842319e-13,4.522238957e-13,2.829922759e-13,2.254609933e-13,1.357560995e-12,5.025757307e-13,1.403222473e-13,7.237707283e-13,2.010013106e-13
0.4453125,6.510133182e-13,8.179342612e-13,8.16444192e-13,2.110192242e-12,1.138922459e-12,1.825752255e-12,1.123044143e-12,9.849281967e-13,3.770313382e-13,5.440952771e-13,5.209578854e-13,9.713439248e-13,3.512324242e-13,1.564723263e-12,1.394725598e-12,1.444170293e-12,1.046775672e-12,4.035220889e-13,4.186331347e-13,1.049196093e-12,2.84503198e-13,1.944601424e-13,6.975649388e-13,3.121715633e-13,4.369010359e-13,3.009744855e-13,2.198210726e-13,1.393880648e-12,5.215095372e-13,1.485920358e-13,7.510898137e-13,1.94178125e-13
0.453125,6.863629919e-13,8.638723044e-13,8.699648152e-13,2.235241042e-12,1.18088906e-12,1.954343602e-12,1.128675486e-12,9.619423251e-13,3.749519586e-13,5.251870888e-13,5.683428849e-13,1.027833887e-12,3.49083578e-13,1.595379691e-12,1.422038694e-12,1.45793706e-12,1.087009295e-12,4.322122004e-13,4.221050614e-13,1.001382407e-12,2.820268984e-13,1.98519882e-13,7.062855601e-13,3.166064179e-13,4.223555675e-13,3.206251851e-13,2.141072276e-13,1.433113604e-12,5.439756317e-13,1.586654303e-13,7.839737291e-13,1.87333591e-13
0.4609375,7.230053438e-13,9.143023237e-13,9.315741818e-13,2.365966159e-12,1.226624175e-12,2.082355959e-12,1.12785057e-12,9.437098654e-13,3.741774487e-13,5.040495522e-13,6.209028251e-13,1.084679064e-12,3.530068536e-13,1.632540946e-12,1.455133055e-12,1.482878579e-12,1.133852857e-12,4.663862817e-13,4.307245436e-13,9.640781694e-13,2.817174535e-13,2.035295466e-13,7.120557223e-13,3.21256592e-13,4.079841568e-13,3.413202294e-13,2.096610446e-13,1.476231972e-12,5.694546638e-13,1.703056726e-13,8.21669181e-13,1.801334973e-13
0.46875,7.610562082e-13,9.685871215e-13,9.986066605e-13,2.502271403e-12,1.276879096e-12,2.210376583e-12,1.121471598e-12,9.295137063e-13,3.748119787e-13,4.809720936e-13,6.77086683e-13,1.141604884e-12,3.628992376e-13,1.676338905e-12,1.493119758e-12,1.517977709e-12,1.187271076e-12,5.04815535e-13,4.433138354e-13,9.372317882e-13,2.832683971e-13,2.093809188e-13,7.15407372e-13,3.253067133e-13,3.936721322e-13,3.617150517e-13,2.051574238e-13,1.5228314e-12,5.959954091e-13,1.825913132e-13,8.628348424e-13,1.726349915e-13
0.4765625,8.017996434e-13,1.027719327e-12,1.072081604e-12,2.643514804e-12,1.330661203e-12,2.337300187e-12,1.108123864e-12,9.182829856e-13,3.775755977e-13,4.559588351e-13,7.382430964e-13,1.199361538e-12,3.788133763e-13,1.72609477e-12,1.535186659e-12,1.562580668e-12,1.246173278e-12,5.472475818e-13,4.600576182e-13,9.214329065e-13,2.86950903e-13,2.164573714e-13,7.169394731e-13,3.289987573e-13,3.80028615e-13,3.818862879e-13,2.001556872e-13,1.573333933e-12,6.22994389e-13,1.954398407e-13,9.064408753e-13,1.652603392e-13
0.484375,8.442961075e-13,1.091059057e-12,1.151669441e-12,2.7876666e-12,1.386658434e-12,2.458628636e-12,1.086549608e-12,9.105587457e-13,3.826685507e-13,4.291276771e-13,8.033454183e-13,1.256040996e-12,3.991631807e-13,1.776529112e-12,1.579362386e-12,1.615604012e-12,1.308730562e-12,5.936007739e-13,4.803799899e-13,9.149400818e-13,2.930116197e-13,2.250063291e-13,7.161409189e-13,3.316294833e-13,3.672245173e-13,4.018841803e-13,1.964720814e-13,1.62553658e-12,6.517243833e-13,2.09496395e-13,9.523662722e-13,1.579163723e-13
0.4921875,8.856520403e-13,1.156520416e-12,1.233060521e-12,2.934413561e-12,1.445916528e-12,2.572817085e-12,1.058027353e-12,9.058946717e-13,3.89700868e-13,4.021508253e-13,8.700216782e-13,1.309044191e-12,4.227482215e-13,1.824417048e-12,1.622826126e-12,1.674256146e-12,1.372909381e-12,6.414757719e-13,5.023254744e-13,9.14230968e-13,3.013878617e-13,2.346165716e-13,7.13308485e-13,3.338813751e-13,3.542586574e-13,4.209545921e-13,1.942503566e-13,1.677518117e-12,6.806675931e-13,2.238348834e-13,9.995196373e-13,1.505885328e-13
0.5,9.25068101e-13,1.223155038e-12,1.315494306e-12,3.082236626e-12,1.507977971e-12,2.679695905e-12,1.023744789e-12,9.022193973e-13,3.984796202e-13,3.759106172e-13,9.371687516e-13,1.358120887e-12,4.498268061e-13,1.870811393e-12,1.665058449e-12,1.735968672e-12,1.437929876e-12,6.88253193e-13,5.244640744e-13,9.157895077e-13,3.11230299e-13,2.45219883e-13,7.07945746e-13,3.375604777e-13,3.40515741e-13,4.378951852e-13,1.918187494e-13,1.730258812e-12,7.067368993e-13,2.372918791e-13,1.045484925e-12,1.431104075e-13
0.5078125,9.636233744e-13,1.2902837e-12,1.399377142e-12,3.227249783e-12,1.570586133e-12,2.777210172e-12,9.852565034e-13,8.992289662e-13,4.091257292e-13,3.499442127e-13,1.003736541e-12,1.40388777e-12,4.797135723e-13,1.915053169e-12,1.70678431e-12,1.799906089e-12,1.503844939e-12,7.3409531e-13,5.468120355e-13,9.198169895e-13,3.220914589e-13,2.568534702e-13,6.991242646e-13,3.415610914e-13,3.264552082e-13,4.518810037e-13,1.890019272e-13,1.782711699e-12,7.29491052e-13,2.501584458e-13,1.088985071e-12,1.351147609e-13
0.515625,1.000396627e-12,1.356852667e-12,1.483001565e-12,3.366505362e-12,1.632906529e-12,2.862021371e-12,9.438157634e-13,8.978647328e-13,4.223676945e-13,3.243206561e-13,1.069430062e-12,1.446835513e-12,5.119480545e-13,1.954406484e-12,1.744499117e-12,1.863501269e-12,1.567224484e-12,7.782056073e-13,5.692548062e-13,9.264458265e-13,3.342141649e-13,2.693728031e-13,6.875919922e-13,3.446116927e-13,3.125562223e-13,4.630563256e-13,1.867083669e-13,1.832256066e-12,7.498047296e-13,2.625857122e-13,1.12990376e-12,1.269735853e-13
0.5234375,1.032995285e-12,1.420893066e-12,1.56492179e-12,3.497151617e-12,1.693509762e-12,2.932754774e-12,8.998556477e-13,8.985978412e-13,4.387398127e-13,2.996390773e-13,1.132871475e-12,1.486216075e-12,5.458137925e-13,1.988759357e-12,1.776158166e-12,1.922888291e-12,1.62370075e-12,8.186160283e-13,5.909464064e-13,9.322986547e-13,3.469955525e-13,2.833299425e-13,6.743408672e-13,3.471468127e-13,2.991310093e-13,4.713202363e-13,1.846783301e-13,1.875992941e-12,7.667907231e-13,2.744134003e-13,1.166514624e-12,1.193192796e-13
0.53125,1.062176742e-12,1.482123323e-12,1.644409113e-12,3.61890258e-12,1.751897327e-12,2.991673506e-12,8.560360888e-13,9.00073028e-13,4.579097583e-13,2.766455831e-13,1.193782462e-12,1.522144907e-12,5.813160624e-13,2.019750138e-12,1.804985955e-12,1.978173864e-12,1.67367418e-12,8.566604136e-13,6.127371536e-13,9.383085736e-13,3.600601364e-13,2.991466212e-13,6.590672822e-13,3.479957206e-13,2.867223795e-13,4.766559415e-13,1.824572483e-13,1.912740565e-12,7.796026519e-13,2.861079926e-13,1.198146674e-12,1.119818354e-13
0.5390625,1.089268559e-12,1.541707193e-12,1.720390411e-12,3.733162154e-12,1.810222242e-12,3.037844629e-12,8.147259737e-13,8.996382288e-13,4.798810628e-13,2.558403618e-13,1.252071782e-12,1.555473584e-12,6.19222867e-13,2.044818801e-12,1.830207266e-12,2.029900359e-12,1.717617772e-12,8.92917968e-13,6.361297194e-13,9.478832509e-13,3.741054116e-13,3.164574771e-13,6.417631912e-13,3.464158038e-13,2.756415074e-13,4.803516919e-13,1.81128173e-13,1.942332429e-12,7.900023577e-13,2.980610417e-13,1.227296322e-12,1.047507993e-13
0.546875,1.112365169e-12,1.597645466e-12,1.791058061e-12,3.837466065e-12,1.867292255e-12,3.067604576e-12,7.745543496e-13,8.975215048e-13,5.049004364e-13,2.370206279e-13,1.303450392e-12,1.584611252e-12,6.586538406e-13,2.059666718e-12,1.84625126e-12,2.073424331e-12,1.751593279e-12,9.236938792e-13,6.598055812e-13,9.570717214e-13,3.886754676e-13,3.353299891e-13,6.231666678e-13,3.440764421e-13,2.658605433e-13,4.828389046e-13,1.810743271e-13,1.963290304e-12,7.981002945e-13,3.102056209e-13,1.253992149e-12,9.788409091e-14
0.5546875,1.129804084e-12,1.647423246e-12,1.854139938e-12,3.927903694e-12,1.919741528e-12,3.082184277e-12,7.353692615e-13,8.95882121e-13,5.327933236e-13,2.206142847e-13,1.346356458e-12,1.609102485e-12,6.984232708e-13,2.065285479e-12,1.852027115e-12,2.104365952e-12,1.772342203e-12,9.464832611e-13,6.818408516e-13,9.610892091e-13,4.028406185e-13,3.557466229e-13,6.039794732e-13,3.408568097e-13,2.572179503e-13,4.826775826e-13,1.808612734e-13,1.973688268e-12,8.016957588e-13,3.222387912e-13,1.274606561e-12,9.128798568e-14
0.5625,1.143055458e-12,1.691255054e-12,1.90858115e-12,4.003579446e-12,1.967958697e-12,3.083105808e-12,6.992910939e-13,8.952065964e-13,5.633821991e-13,2.071212133e-13,1.383140114e-12,1.629582753e-12,7.383749783e-13,2.063608955e-12,1.850243171e-12,2.123507165e-12,1.781746981e-12,9.621101081e-13,7.022656237e-13,9.616784342e-13,4.1678185e-13,3.777492076e-13,5.84505266e-13,3.352891766e-13,2.495938088e-13,4.791884334e-13,1.803431561e-13,1.972741152e-12,8.008315961e-13,3.338478026e-13,1.287877757e-12,8.482126264e-14
0.5703125,1.155665357e-12,1.730841945e-12,1.954644076e-12,4.069104085e-12,2.013754313e-12,3.070158442e-12,6.656349616e-13,8.952812038e-13,5.966570867e-13,1.964296403e-13,1.413363012e-12,1.644508291e-12,7.786664022e-13,2.053225613e-12,1.84153824e-12,2.133937174e-12,1.784106595e-12,9.722770761e-13,7.22069284e-13,9.610919005e-13,4.306167962e-13,4.020622887e-13,5.651185205e-13,3.278436543e-13,2.430101592e-13,4.735239322e-13,1.803670249e-13,1.96258429e-12,7.968558252e-13,3.451721581e-13,1.296151744e-12,7.862954792e-14
0.578125,1.167966823e-12,1.767530605e-12,1.992641174e-12,4.12700024e-12,2.056563735e-12,3.044208162e-12,6.334554342e-13,8.957075145e-13,6.323778198e-13,1.887151124e-13,1.435536785e-12,1.653616822e-12,8.193391585e-13,2.034267087e-12,1.824862682e-12,2.13660757e-12,1.780322483e-12,9.777780335e-13,7.412807471e-13,9.588075496e-13,4.441229789e-13,4.282705563e-13,5.465171325e-13,3.192709014e-13,2.37438025e-13,4.662110832e-13,1.809433255e-13,1.944960809e-12,7.90092032e-13,3.560609335e-13,1.300307155e-12,7.271349199e-14
0.5859375,1.176406685e-12,1.799005332e-12,2.021173892e-12,4.170080347e-12,2.093839298e-12,3.004481337e-12,6.044949283e-13,8.953628499e-13,6.691616578e-13,1.836798448e-13,1.448358139e-12,1.656638329e-12,8.583747811e-13,2.007614454e-12,1.800219938e-12,2.129722475e-12,1.768966574e-12,9.774900954e-13,7.58481595e-13,9.542911928e-13,4.571328854e-13,4.548649075e-13,5.284438628e-13,3.10212421e-13,2.327680589e-13,4.564829034e-13,1.8169026e-13,1.918162632e-12,7.793384018e-13,3.655227143e-13,1.298242586e-12,6.742642262e-14
0.59375,1.181411042e-12,1.824130006e-12,2.039702979e-12,4.196471439e-12,2.124727029e-12,2.950517596e-12,5.785794767e-13,8.92904676e-13,7.054743544e-13,1.813117318e-13,1.452015454e-12,1.651720321e-12,8.938334965e-13,1.971610836e-12,1.769030601e-12,2.114622882e-12,1.751966748e-12,9.718947546e-13,7.740524672e-13,9.491958877e-13,4.697461e-13,4.81357493e-13,5.101437908e-13,3.014304009e-13,2.288336356e-13,4.452392928e-13,1.830743191e-13,1.882722095e-12,7.651218968e-13,3.731762776e-13,1.291196817e-12,6.318353782e-14
0.6015625,1.185038317e-12,1.845345783e-12,2.050683216e-12,4.212397772e-12,2.150876707e-12,2.883669487e-12,5.54082863e-13,8.883786369e-13,7.416158034e-13,1.82307858e-13,1.447404376e-12,1.639326977e-12,9.266745863e-13,1.924832721e-12,1.73049156e-12,2.093195743e-12,1.729802261e-12,9.622855915e-13,7.889829934e-13,9.436309869e-13,4.818462107e-13,5.085693241e-13,4.920614523e-13,2.923888944e-13,2.254690425e-13,4.337389371e-13,1.861015431e-13,1.839290312e-12,7.497170456e-13,3.795263327e-13,1.282053246e-12,5.971935225e-14
0.609375,1.185879567e-12,1.862724201e-12,2.05296853e-12,4.220698704e-12,2.173980123e-12,2.807578833e-12,5.31609493e-13,8.830621895e-13,7.780703e-13,1.862762948e-13,1.433587878e-12,1.621338005e-12,9.580388585e-13,1.869678915e-12,1.682157618e-12,2.061596356e-12,1.69821626e-12,9.473853544e-13,8.024476204e-13,9.343898504e-13,4.929762894e-13,5.371104325e-13,4.750580064e-13,2.835018932e-13,2.225613814e-13,4.211156883e-13,1.899340559e-13,1.785752893e-12,7.318621248e-13,3.843997473e-13,1.269572886e-12,5.690370611e-14
0.6171875,1.184445016e-12,1.878036234e-12,2.046602859e-12,4.225127228e-12,2.195523975e-12,2.727600316e-12,5.118227575e-13,8.760463079e-13,8.144976677e-13,1.927036258e-13,1.412295698e-12,1.600407536e-12,9.892568097e-13,1.812265278e-12,1.626739882e-12,2.018978438e-12,1.656453138e-12,9.288285689e-13,8.158019968e-13,9.215918991e-13,5.036674433e-13,5.666957375e-13,4.593502153e-13,2.755834952e-13,2.201843617e-13,4.076274969e-13,1.945412353e-13,1.725207575e-12,7.120402046e-13,3.878404506e-13,1.254925016e-12,5.486653324e-14
0.625,1.182698858e-12,1.89413307e-12,2.037547513e-12,4.227020974e-12,2.215117553e-12,2.644612329e-12,4.945455256e-13,8.666000615e-13,8.514311404e-13,2.015810853e-13,1.385469054e-12,1.57896581e-12,1.021532313e-12,1.755210946e-12,1.568372384e-12,1.968174313e-12,1.60645074e-12,9.089460245e-13,8.307307072e-13,9.070806805e-13,5.143201659e-13,5.975108078e-13,4.448868829e-13,2.679916254e-13,2.187153964e-13,3.946113337e-13,2.013197075e-13,1.661567527e-12,6.936074982e-13,3.911018859e-13,1.241376213e-12,5.327328533e-14
0.6328125,1.179765976e-12,1.90912554e-12,2.024345628e-12,4.223528221e-12,2.231625493e-12,2.55707245e-12,4.798551126e-13,8.56507951e-13,8.883575956e-13,2.12574673e-13,1.351846874e-12,1.55536176e-12,1.05278919e-12,1.694630788e-12,1.505992638e-12,1.908298705e-12,1.548356636e-12,8.853430998e-13,8.454426976e-13,8.90141302e-13,5.244635995e-13,6.29743759e-13,4.319866545e-13,2.619864258e-13,2.180128497e-13,3.818120926e-13,2.093957069e-13,1.593095161e-12,6.756116786e-13,3.94080632e-13,1.228231527e-12,5.188831853e-14
0.640625,1.174656399e-12,1.920914363e-12,2.001496015e-12,4.213284472e-12,2.244540534e-12,2.464485855e-12,4.671945122e-13,8.45755243e-13,9.230237757e-13,2.258669035e-13,1.311586631e-12,1.526813356e-12,1.079861012e-12,1.626818645e-12,1.438025986e-12,1.83897163e-12,1.483243684e-12,8.559050661e-13,8.577753735e-13,8.705470873e-13,5.337512963e-13,6.623262586e-13,4.210713702e-13,2.588816019e-13,2.17362399e-13,3.688553067e-13,2.178064879e-13,1.519475405e-12,6.562925148e-13,3.955918304e-13,1.214144947e-12,5.090744043e-14
0.6484375,1.168504152e-12,1.929832682e-12,1.970743094e-12,4.195947533e-12,2.252896333e-12,2.367566594e-12,4.560760065e-13,8.344973291e-13,9.556696905e-13,2.420015904e-13,1.26637473e-12,1.493907232e-12,1.102567869e-12,1.552171947e-12,1.365561554e-12,1.761802049e-12,1.413233112e-12,8.209767166e-13,8.673356335e-13,8.491848825e-13,5.421838405e-13,6.946701596e-13,4.120358096e-13,2.582345318e-13,2.165016236e-13,3.558487277e-13,2.266607459e-13,1.443738633e-12,6.359750126e-13,3.958657904e-13,1.198766117e-12,5.049570586e-14
0.65625,1.16182397e-12,1.938750814e-12,1.936717088e-12,4.178772964e-12,2.260553526e-12,2.271004193e-12,4.467850007e-13,8.2498836e-13,9.881714314e-13,2.615006315e-13,1.217942254e-12,1.459260402e-12,1.123308318e-12,1.475200196e-12,1.291474728e-12,1.680107465e-12,1.341466549e-12,7.836192451e-13,8.758849862e-13,8.270835569e-13,5.508227782e-13,7.275347967e-13,4.051294368e-13,2.610374263e-13,2.154384442e-13,3.43175136e-13,2.365338392e-13,1.368558806e-12,6.157944031e-13,3.956161677e-13,1.183663501e-12,5.078422653e-14
0.6640625,1.154577216e-12,1.950126325e-12,1.901754608e-12,4.168068736e-12,2.271875595e-12,2.177877365e-12,4.396883346e-13,8.172188076e-13,1.020130989e-12,2.84440505e-13,1.167053448e-12,1.424187659e-12,1.143234854e-12,1.399943221e-12,1.218618532e-12,1.598162625e-12,1.27081652e-12,7.470855305e-13,8.847420108e-13,8.040307383e-13,5.599525596e-13,7.611658827e-13,4.007821724e-13,2.681879293e-13,2.142945173e-13,3.314398988e-13,2.480205205e-13,1.295457913e-12,5.968766525e-13,3.951546762e-13,1.17135261e-12,5.177650275e-14
0.671875,1.1483726e-12,1.962794625e-12,1.862542368e-12,4.158427012e-12,2.283164665e-12,2.086304853e-12,4.349700834e-13,8.099262859e-13,1.050196932e-12,3.094589324e-13,1.113635569e-12,1.387530672e-12,1.160777161e-12,1.325225072e-12,1.146469569e-12,1.516294707e-12,1.201331275e-12,7.10286127e-13,8.919457012e-13,7.798970595e-13,5.684687404e-13,7.939987402e-13,3.982984491e-13,2.800430096e-13,2.13118977e-13,3.204922573e-13,2.602161233e-13,1.226149014e-12,5.788732431e-13,3.937166824e-13,1.161838988e-12,5.334805221e-14
0.6796875,1.143023899e-12,1.976296329e-12,1.81699382e-12,4.14792486e-12,2.292148515e-12,1.996148866e-12,4.319154716e-13,8.033414096e-13,1.077907616e-12,3.359882527e-13,1.05899793e-12,1.348467194e-12,1.174365133e-12,1.249115978e-12,1.074251813e-12,1.434023349e-12,1.133144478e-12,6.720029616e-13,8.959846641e-13,7.563325036e-13,5.765684195e-13,8.248210366e-13,3.972720415e-13,2.96517618e-13,2.112661001e-13,3.101819686e-13,2.731501811e-13,1.161788886e-12,5.618081521e-13,3.90177736e-13,1.154982978e-12,5.536417248e-14
0.6875,1.138225389e-12,1.992328586e-12,1.769896057e-12,4.143170779e-12,2.303164092e-12,1.91097561e-12,4.300175323e-13,7.982110905e-13,1.103246394e-12,3.650492439e-13,1.004733526e-12,1.308265181e-12,1.184110314e-12,1.173084659e-12,1.004825411e-12,1.354355683e-12,1.069187653e-12,6.344404587e-13,8.979286807e-13,7.337115413e-13,5.848161738e-13,8.544231852e-13,3.982903639e-13,3.166279672e-13,2.084054092e-13,3.007601247e-13,2.877073917e-13,1.102212149e-12,5.461925102e-13,3.852748137e-13,1.151650712e-12,5.767923219e-14
0.6953125,1.136502477e-12,2.012625923e-12,1.723245249e-12,4.147711708e-12,2.318368234e-12,1.832914962e-12,4.29597387e-13,7.938894782e-13,1.126308211e-12,3.964487895e-13,9.513284161e-13,1.268138776e-12,1.191187045e-12,1.099824195e-12,9.401324517e-13,1.280105047e-12,1.011944732e-12,6.003712376e-13,8.987022927e-13,7.122616565e-13,5.930862096e-13,8.826701597e-13,4.010467673e-13,3.410632862e-13,2.05014008e-13,2.921409493e-13,3.036759979e-13,1.048706023e-12,5.328325896e-13,3.79498607e-13,1.152907366e-12,6.03136632e-14
0.703125,1.136318072e-12,2.036167622e-12,1.675518811e-12,4.156388002e-12,2.33452651e-12,1.759214291e-12,4.302565293e-13,7.89300265e-13,1.146953471e-12,4.292851853e-13,8.983706514e-13,1.227303754e-12,1.195930641e-12,1.029644261e-12,8.782838121e-13,1.209580828e-12,9.599037865e-13,5.697294829e-13,8.976615159e-13,6.931518787e-13,6.011000982e-13,9.082086311e-13,4.043193924e-13,3.70812139e-13,2.013611523e-13,2.842160071e-13,3.206741154e-13,1.001327738e-12,5.219854822e-13,3.724556888e-13,1.158641509e-12,6.331350416e-14
0.7109375,1.135063965e-12,2.060451416e-12,1.626790156e-12,4.165114748e-12,2.349322196e-12,1.688705781e-12,4.3188576e-13,7.85679375e-13,1.165325512e-12,4.634876096e-13,8.461007673e-13,1.184879182e-12,1.197908031e-12,9.616899136e-13,8.185216816e-13,1.140505146e-12,9.118945833e-13,5.40776056e-13,8.935303613e-13,6.76816223e-13,6.082793385e-13,9.309123399e-13,4.076743328e-13,4.059281487e-13,1.973941879e-13,2.770066638e-13,3.381544985e-13,9.588861623e-13,5.120114791e-13,3.64661369e-13,1.167147277e-12,6.686869182e-14
0.71875,1.135222436e-12,2.086711839e-12,1.57892534e-12,4.17842106e-12,2.36427053e-12,1.625109006e-12,4.349452927e-13,7.843617191e-13,1.183198807e-12,4.995754416e-13,7.956140654e-13,1.143757429e-12,1.199024376e-12,8.986676547e-13,7.629372485e-13,1.074806355e-12,8.69232784e-13,5.139533635e-13,8.86321819e-13,6.641273756e-13,6.14482458e-13,9.515315357e-13,4.118840025e-13,4.449224948e-13,1.930797332e-13,2.70357678e-13,3.564141672e-13,9.240469107e-13,5.036453969e-13,3.56253185e-13,1.178614437e-12,7.142605831e-14
0.7265625,1.136511027e-12,2.114599997e-12,1.533762954e-12,4.194984593e-12,2.378507682e-12,1.568621902e-12,4.393194163e-13,7.848820944e-13,1.201601161e-12,5.380796764e-13,7.465771854e-13,1.106737246e-12,1.200386682e-12,8.4197528e-13,7.112790273e-13,1.012685726e-12,8.307681778e-13,4.892225945e-13,8.763558972e-13,6.546631301e-13,6.198123134e-13,9.706430238e-13,4.174640508e-13,4.852920306e-13,1.885274351e-13,2.639650394e-13,3.753289633e-13,8.977483123e-13,4.977192135e-13,3.473907034e-13,1.192576101e-12,7.700521126e-14
0.734375,1.135888899e-12,2.141040012e-12,1.488135811e-12,4.208753199e-12,2.390151964e-12,1.516429967e-12,4.445328956e-13,7.860799447e-13,1.218277046e-12,5.787302448e-13,6.989243655e-13,1.071778286e-12,1.199022876e-12,7.881101125e-13,6.614022161e-13,9.521453102e-13,7.951720522e-13,4.654116753e-13,8.635062902e-13,6.471441619e-13,6.246462321e-13,9.869826862e-13,4.237212236e-13,5.277674783e-13,1.837486137e-13,2.579345172e-13,3.937609772e-13,8.768751227e-13,4.922163753e-13,3.386240458e-13,1.207213166e-12,8.311147049e-14
0.7421875,1.134804289e-12,2.167733595e-12,1.44034226e-12,4.222705841e-12,2.401204432e-12,1.468988042e-12,4.498238858e-13,7.87684227e-13,1.233113408e-12,6.213850493e-13,6.537556607e-13,1.038433713e-12,1.194849927e-12,7.367960242e-13,6.140421964e-13,8.949700454e-13,7.636510397e-13,4.441061885e-13,8.490842757e-13,6.424434407e-13,6.294840736e-13,9.991488892e-13,4.300696948e-13,5.730576483e-13,1.787850983e-13,2.526759869e-13,4.128385376e-13,8.607795677e-13,4.879813486e-13,3.305227616e-13,1.223918085e-12,8.965031324e-14
0.75,1.135218446e-12,2.195853872e-12,1.393860767e-12,4.238593584e-12,2.412088563e-12,1.426844656e-12,4.55052813e-13,7.915699573e-13,1.248998357e-12,6.656743453e-13,6.11105418e-13,1.008988327e-12,1.190725026e-12,6.902631658e-13,5.7019176e-13,8.418382007e-13,7.354856516e-13,4.259414802e-13,8.338389894e-13,6.406069943e-13,6.337881337e-13,1.008654388e-12,4.36762507e-13,6.187979153e-13,1.740499349e-13,2.479986902e-13,4.331319479e-13,8.499277757e-13,4.863012806e-13,3.24013013e-13,1.243488288e-12,9.705257262e-14
0.7578125,1.135472073e-12,2.223190788e-12,1.348570395e-12,4.253494703e-12,2.421408035e-12,1.388741834e-12,4.599923087e-13,7.977207595e-13,1.265018151e-12,7.106421857e-13,5.710116042e-13,9.829874616e-13,1.186101096e-12,6.475961189e-13,5.284988315e-13,7.901304671e-13,7.087234374e-13,4.092053142e-13,8.172956192e-13,6.408025291e-13,6.373485856e-13,1.016327518e-12,4.439902479e-13,6.63088174e-13,1.693929742e-13,2.436363045e-13,4.53542377e-13,8.432529619e-13,4.860668466e-13,3.18938982e-13,1.26489186e-12,1.052068068e-13
0.765625,1.135659941e-12,2.250509818e-12,1.304751824e-12,4.268252973e-12,2.429595185e-12,1.354512502e-12,4.635113447e-13,8.043818725e-13,1.280206686e-12,7.56848959e-13,5.341500321e-13,9.60748267e-13,1.181064201e-12,6.084775284e-13,4.888448615e-13,7.397196985e-13,6.841089047e-13,3.943571468e-13,8.00301697e-13,6.439521464e-13,6.407608441e-13,1.021537663e-12,4.512810787e-13,7.047052316e-13,1.644927882e-13,2.39763089e-13,4.751767521e-13,8.410030812e-13,4.879300944e-13,3.153819702e-13,1.288588925e-12,1.136783247e-13
0.7734375,1.139670389e-12,2.280218502e-12,1.265130743e-12,4.285689993e-12,2.436746684e-12,1.325784129e-12,4.657785998e-13,8.121297195e-13,1.297220203e-12,8.041474137e-13,5.009439279e-13,9.444051143e-13,1.177770734e-12,5.744187057e-13,4.524626271e-13,6.921656717e-13,6.63754127e-13,3.827030718e-13,7.837477526e-13,6.510404008e-13,6.439135871e-13,1.024956582e-12,4.575662527e-13,7.432476228e-13,1.598604624e-13,2.361515932e-13,4.986223457e-13,8.448589101e-13,4.924932762e-13,3.139536891e-13,1.314337057e-12,1.227335725e-13
0.78125,1.146100705e-12,2.311783416e-12,1.229331596e-12,4.30662612e-12,2.441790865e-12,1.303049707e-12,4.671672882e-13,8.21074298e-13,1.316118535e-12,8.50696708e-13,4.709971244e-13,9.33199721e-13,1.175879167e-12,5.455348154e-13,4.188399679e-13,6.473800288e-13,6.482900342e-13,3.738718023e-13,7.671070583e-13,6.623250107e-13,6.459530073e-13,1.026015159e-12,4.62203122e-13,7.790561801e-13,1.556035061e-13,2.322828494e-13,5.221393375e-13,8.540906698e-13,4.979486583e-13,3.142487604e-13,1.34020965e-12,1.326745472e-13
0.7890625,1.149815543e-12,2.341402113e-12,1.196629606e-12,4.326194013e-12,2.442710096e-12,1.283444185e-12,4.668095436e-13,8.308440809e-13,1.33457962e-12,8.959791193e-13,4.433636718e-13,9.248042117e-13,1.174149679e-12,5.205055423e-13,3.871184355e-13,6.049283582e-13,6.370763975e-13,3.671257309e-13,7.496169594e-13,6.777229104e-13,6.461839408e-13,1.023392843e-12,4.653046753e-13,8.107836963e-13,1.512092038e-13,2.281788852e-13,5.44565245e-13,8.660463189e-13,5.030563074e-13,3.165006565e-13,1.364355172e-12,1.431869985e-13
0.796875,1.153627277e-12,2.368200376e-12,1.166752637e-12,4.341730828e-12,2.439245027e-12,1.265732844e-12,4.645778313e-13,8.414903637e-13,1.352306361e-12,9.395750221e-13,4.18433281e-13,9.190284026e-13,1.173429447e-12,4.993656601e-13,3.580477954e-13,5.65640088e-13,6.299250276e-13,3.627992988e-13,7.321192743e-13,6.976397058e-13,6.449694488e-13,1.018672068e-12,4.668275668e-13,8.364718078e-13,1.466956084e-13,2.241205658e-13,5.656782612e-13,8.806975926e-13,5.086843826e-13,3.207853591e-13,1.386872977e-12,1.538765485e-13
0.8046875,1.160219747e-12,2.394884823e-12,1.140911702e-12,4.357630968e-12,2.432646682e-12,1.252300337e-12,4.602881144e-13,8.523576686e-13,1.370968718e-12,9.808937345e-13,3.965337617e-13,9.177901732e-13,1.175672645e-12,4.839098441e-13,3.320736875e-13,5.300217549e-13,6.26873051e-13,3.612641183e-13,7.155947583e-13,7.224325958e-13,6.42524574e-13,1.013600402e-12,4.668707534e-13,8.551643574e-13,1.424213151e-13,2.198685211e-13,5.853719946e-13,8.988378037e-13,5.149823526e-13,3.268336178e-13,1.408155247e-12,1.649696053e-13
0.8125,1.165700384e-12,2.419683554e-12,1.120408172e-12,4.372864872e-12,2.421687354e-12,1.243616158e-12,4.54009316e-13,8.640310018e-13,1.391185465e-12,1.019779911e-12,3.770129334e-13,9.217817744e-13,1.18010519e-12,4.73758661e-13,3.086596912e-13,4.975843047e-13,6.277528548e-13,3.616555337e-13,6.993300722e-13,7.506771863e-13,6.382793707e-13,1.00660852e-12,4.65378203e-13,8.679997586e-13,1.383842824e-13,2.152040129e-13,6.032114036e-13,9.197159354e-13,5.204731356e-13,3.350317358e-13,1.426208681e-12,1.768893985e-13
0.8203125,1.169899537e-12,2.440538049e-12,1.102783949e-12,4.385056738e-12,2.407222502e-12,1.238278276e-12,4.467943956e-13,8.76075632e-13,1.410338254e-12,1.055247792e-12,3.602639905e-13,9.289769146e-13,1.183276811e-12,4.667205924e-13,2.87814176e-13,4.689273999e-13,6.328475375e-13,3.636684159e-13,6.839632783e-13,7.814304594e-13,6.328536134e-13,9.96369545e-13,4.616847247e-13,8.770842039e-13,1.343548314e-13,2.106832171e-13,6.189848692e-13,9.429155806e-13,5.249583209e-13,3.448569993e-13,1.44080281e-12,1.891494412e-13
0.828125,1.174532468e-12,2.459102755e-12,1.08732235e-12,4.396898002e-12,2.391577652e-12,1.235492425e-12,4.381990063e-13,8.87448167e-13,1.42728086e-12,1.087635444e-12,3.46301371e-13,9.379346293e-13,1.184888942e-12,4.625636291e-13,2.694434265e-13,4.440886478e-13,6.412541093e-13,3.674048257e-13,6.704991862e-13,8.142125557e-13,6.270513736e-13,9.847717112e-13,4.562694812e-13,8.807470226e-13,1.302826174e-13,2.064762062e-13,6.332316496e-13,9.667801799e-13,5.290447814e-13,3.560529868e-13,1.453767383e-12,2.013396649e-13
0.8359375,1.178104368e-12,2.474712979e-12,1.075070822e-12,4.407864793e-12,2.372785266e-12,1.234437904e-12,4.286428702e-13,8.998058289e-13,1.444497911e-12,1.117977158e-12,3.34349354e-13,9.494005945e-13,1.186819658e-12,4.613657741e-13,2.527366046e-13,4.215484079e-13,6.51323487e-13,3.71885126e-13,6.578420318e-13,8.475980384e-13,6.202963994e-13,9.725286196e-13,4.502389505e-13,8.781937518e-13,1.261676187e-13,2.021364206e-13,6.465379432e-13,9.899209154e-13,5.327609702e-13,3.689989163e-13,1.464499118e-12,2.139146293e-13
0.84375,1.179800099e-12,2.486381923e-12,1.065454364e-12,4.417452174e-12,2.349891274e-12,1.235142806e-12,4.192326124e-13,9.14121863e-13,1.462751191e-12,1.145429267e-12,3.240625653e-13,9.643042258e-13,1.187657688e-12,4.618171742e-13,2.375778934e-13,4.017880256e-13,6.634123261e-13,3.766230881e-13,6.458725942e-13,8.814024403e-13,6.122634505e-13,9.579457912e-13,4.434022827e-13,8.716372711e-13,1.219083581e-13,1.979006929e-13,6.591933543e-13,1.014244553e-12,5.360177688e-13,3.833412628e-13,1.471630606e-12,2.270543711e-13
0.8515625,1.180388281e-12,2.494409436e-12,1.059131105e-12,4.427315901e-12,2.325057018e-12,1.238665311e-12,4.085641068e-13,9.298589823e-13,1.480632195e-12,1.169186658e-12,3.150112045e-13,9.828662634e-13,1.185700026e-12,4.638568023e-13,2.24491778e-13,3.855667726e-13,6.775114261e-13,3.817956759e-13,6.353746943e-13,9.159154122e-13,6.031792223e-13,9.413455922e-13,4.353914572e-13,8.607707354e-13,1.174754284e-13,1.940037264e-13,6.703291302e-13,1.039918348e-12,5.381412224e-13,3.989895818e-13,1.474694812e-12,2.407868147e-13
0.859375,1.180718331e-12,2.497956092e-12,1.055412602e-12,4.436558932e-12,2.299448573e-12,1.245328027e-12,3.967838199e-13,9.460715285e-13,1.497100984e-12,1.188774176e-12,3.072133047e-13,1.00444213e-12,1.181749954e-12,4.683631908e-13,2.134675537e-13,3.718592621e-13,6.929164977e-13,3.870755439e-13,6.258753277e-13,9.506830503e-13,5.929157516e-13,9.238996977e-13,4.265875386e-13,8.472370041e-13,1.12914289e-13,1.900302804e-13,6.789017404e-13,1.06435689e-12,5.385872325e-13,4.156154222e-13,1.473440748e-12,2.549932611e-13
0.8671875,1.179893698e-12,2.496637162e-12,1.053293358e-12,4.443833129e-12,2.272294963e-12,1.254280465e-12,3.856023099e-13,9.62228306e-13,1.512179101e-12,1.204137335e-12,3.006901427e-13,1.028425771e-12,1.175426301e-12,4.747796376e-13,2.04081181e-13,3.606870805e-13,7.102933347e-13,3.918874806e-13,6.168799287e-13,9.848168487e-13,5.814251255e-13,9.051849688e-13,4.170982644e-13,8.329264474e-13,1.081296232e-13,1.859327682e-13,6.85260443e-13,1.087808854e-12,5.37367445e-13,4.325566149e-13,1.46763706e-12,2.69319756e-13
0.875,1.177624365e-12,2.49063215e-12,1.054437897e-12,4.449613043e-12,2.243068933e-12,1.265314103e-12,3.7549493e-13,9.79451099e-13,1.526997036e-12,1.216218707e-12,2.952030407e-13,1.055615818e-12,1.165996142e-12,4.826176107e-13,1.961829607e-13,3.524399994e-13,7.291589687e-13,3.963940737e-13,6.090072317e-13,1.017944607e-12,5.691283511e-13,8.854456022e-13,4.06468859e-13,8.168622539e-13,1.031959082e-13,1.823427591e-13,6.899054216e-13,1.112242726e-12,5.346749174e-13,4.500965462e-13,1.457381903e-12,2.841437298e-13
0.8828125,1.17558078e-12,2.480645266e-12,1.058524125e-12,4.455983915e-12,2.213921877e-12,1.278973181e-12,3.664400568e-13,9.978260319e-13,1.542225668e-12,1.225573384e-12,2.908124658e-13,1.086739556e-12,1.15485903e-12,4.923141194e-13,1.896154619e-13,3.465775874e-13,7.4856458e-13,4.010589661e-13,6.027735856e-13,1.050995663e-12,5.562778361e-13,8.659177541e-13,3.952919942e-13,8.008890634e-13,9.829085481e-14,1.797143679e-13,6.935418309e-13,1.137807169e-12,5.310470587e-13,4.682634553e-13,1.443709561e-12,2.997392986e-13
0.890625,1.173189233e-12,2.466271315e-12,1.065054284e-12,4.461413745e-12,2.184956229e-12,1.29443051e-12,3.58188285e-13,1.017264493e-12,1.558317746e-12,1.232836541e-12,2.870230884e-13,1.121824992e-12,1.142935349e-12,5.042402669e-13,1.83815369e-13,3.422353687e-13,7.679230065e-13,4.046467592e-13,5.972373662e-13,1.082328256e-12,5.424540773e-13,8.47244184e-13,3.851373311e-13,7.863706158e-13,9.314997628e-14,1.775355111e-13,6.959426778e-13,1.163780225e-12,5.261773487e-13,4.866020648e-13,1.425971928e-12,3.160799798e-13
0.8984375,1.169838493e-12,2.445059115e-12,1.073263227e-12,4.460254441e-12,2.153416544e-12,1.310837852e-12,3.515275893e-13,1.037907889e-12,1.574718687e-12,1.237582127e-12,2.834584995e-13,1.16030749e-12,1.129374814e-12,5.185720469e-13,1.786366115e-13,3.383461315e-13,7.852335868e-13,4.059280854e-13,5.917184402e-13,1.108840106e-12,5.273167874e-13,8.291236903e-13,3.759371332e-13,7.722571407e-13,8.77262977e-14,1.753205077e-13,6.950701162e-13,1.189310911e-12,5.189969655e-13,5.046965405e-13,1.402088326e-12,3.334766146e-13
0.90625,1.166734358e-12,2.417368721e-12,1.082392014e-12,4.451159092e-12,2.119037957e-12,1.328362957e-12,3.467655529e-13,1.058587314e-12,1.591296959e-12,1.238805428e-12,2.805864692e-13,1.202286792e-12,1.114438496e-12,5.353699478e-13,1.74388402e-13,3.347290522e-13,7.995820692e-13,4.056789471e-13,5.868194321e-13,1.130464211e-12,5.108900943e-13,8.114993621e-13,3.669524702e-13,7.586303987e-13,8.241553744e-14,1.735300004e-13,6.908532889e-13,1.214764907e-12,5.096751416e-13,5.222723282e-13,1.372445382e-12,3.522670454e-13
0.9140625,1.164252207e-12,2.38472271e-12,1.095831743e-12,4.435243072e-12,2.081612602e-12,1.347042221e-12,3.433983065e-13,1.080139674e-12,1.61153258e-12,1.237539179e-12,2.785490493e-13,1.250359306e-12,1.099971621e-12,5.546527808e-13,1.708874186e-13,3.31429504e-13,8.108467633e-13,4.041107532e-13,5.822609841e-13,1.146873381e-12,4.930848926e-13,7.955157685e-13,3.589257309e-13,7.459607725e-13,7.746020422e-14,1.723488366e-13,6.842824739e-13,1.241786277e-12,4.99114123e-13,5.39935215e-13,1.33821437e-12,3.731899748e-13
0.921875,1.162529136e-12,2.346822037e-12,1.112358752e-12,4.412545337e-12,2.04107864e-12,1.367514412e-12,3.418606687e-13,1.103137235e-12,1.636116153e-12,1.234873787e-12,2.770342507e-13,1.305036511e-12,1.085894111e-12,5.755369726e-13,1.676420079e-13,3.279618872e-13,8.183190313e-13,4.005260051e-13,5.775778271e-13,1.157332637e-12,4.74313707e-13,7.816984446e-13,3.5239913e-13,7.337346569e-13,7.282378519e-14,1.715253093e-13,6.754374072e-13,1.270060728e-12,4.875495502e-13,5.577041327e-13,1.299969856e-12,3.961587163e-13
0.9296875,1.162186622e-12,2.305389739e-12,1.129546342e-12,4.384644764e-12,1.999338205e-12,1.390062439e-12,3.426076611e-13,1.125801434e-12,1.663431852e-12,1.232254655e-12,2.762305768e-13,1.365332065e-12,1.072442598e-12,5.977455853e-13,1.644957933e-13,3.242962595e-13,8.22331605e-13,3.953034221e-13,5.735542096e-13,1.162859264e-12,4.552896913e-13,7.699087261e-13,3.47147787e-13,7.223794701e-13,6.832889049e-14,1.71187876e-13,6.660874495e-13,1.299853989e-12,4.754785487e-13,5.753339907e-13,1.258734725e-12,4.205889723e-13
0.9375,1.163678165e-12,2.261394807e-12,1.150334398e-12,4.35137528e-12,1.956407677e-12,1.413643333e-12,3.458504575e-13,1.148246221e-12,1.69551546e-12,1.230960491e-12,2.761005338e-13,1.432572228e-12,1.061150957e-12,6.22094423e-13,1.614828036e-13,3.200587648e-13,8.221381945e-13,3.888216405e-13,5.702617774e-13,1.163211846e-12,4.358205621e-13,7.60535508e-13,3.434522809e-13,7.120284997e-13,6.396504194e-14,1.711297355e-13,6.565703254e-13,1.332466513e-12,4.633395121e-13,5.931311951e-13,1.214383085e-12,4.472175359e-13
0.9453125,1.166925066e-12,2.21371645e-12,1.174816004e-12,4.310930522e-12,1.911677877e-12,1.437260061e-12,3.510771044e-13,1.171541744e-12,1.733151142e-12,1.23016835e-12,2.760723443e-13,1.506835974e-12,1.05185401e-12,6.488582274e-13,1.586229783e-13,3.146512508e-13,8.162014384e-13,3.807076631e-13,5.675945371e-13,1.1575415e-12,4.15602893e-13,7.541613046e-13,3.415500232e-13,7.00195161e-13,5.973717871e-14,1.709378579e-13,6.443389099e-13,1.36556878e-12,4.50712441e-13,6.110506099e-13,1.166727915e-12,4.764086985e-13
0.953125,1.172534446e-12,2.164073677e-12,1.202442788e-12,4.2650153e-12,1.865444534e-12,1.461874372e-12,3.586774043e-13,1.195176695e-12,1.775625883e-12,1.229940467e-12,2.765836299e-13,1.588281036e-12,1.04633528e-12,6.794602273e-13,1.564164521e-13,3.085602671e-13,8.052148191e-13,3.713612004e-13,5.663383521e-13,1.145732011e-12,3.951942622e-13,7.515308595e-13,3.411012174e-13,6.872794523e-13,5.582402699e-14,1.708811233e-13,6.299605442e-13,1.398501623e-12,4.381253405e-13,6.293943361e-13,1.117169518e-12,5.076726666e-13
0.9609375,1.179705083e-12,2.114187574e-12,1.231751367e-12,4.217015014e-12,1.817652297e-12,1.489996414e-12,3.69232685e-13,1.217434158e-12,1.821962523e-12,1.230794406e-12,2.779635892e-13,1.676774833e-12,1.045767689e-12,7.137593724e-13,1.55214955e-13,3.023443391e-13,7.903594858e-13,3.614734813e-13,5.660591847e-13,1.127808205e-12,3.752491569e-13,7.518758979e-13,3.418028918e-13,6.742843489e-13,5.250017637e-14,1.712835311e-13,6.162421341e-13,1.434346255e-12,4.267067344e-13,6.470074026e-13,1.066912584e-12,5.403479823e-13
0.96875,1.186076298e-12,2.064033805e-12,1.261193212e-12,4.167603298e-12,1.768660803e-12,1.52090045e-12,3.812166606e-13,1.237418817e-12,1.870453047e-12,1.232788004e-12,2.800279378e-13,1.770378884e-12,1.048426109e-12,7.494581634e-13,1.544703388e-13,2.957810153e-13,7.719008871e-13,3.509371783e-13,5.659654108e-13,1.10528555e-12,3.56016624e-13,7.534939787e-13,3.435195493e-13,6.589600447e-13,4.955816e-14,1.722152125e-13,6.033348998e-13,1.473718244e-12,4.16600939e-13,6.624954182e-13,1.016483033e-12,5.738240212e-13
0.9765625,1.191956448e-12,2.01380496e-12,1.292166413e-12,4.114966517e-12,1.718233048e-12,1.551970888e-12,3.941318004e-13,1.255669111e-12,1.92118896e-12,1.236151727e-12,2.83287426e-13,1.868557172e-12,1.054562546e-12,7.864919601e-13,1.538055196e-13,2.886771402e-13,7.503341032e-13,3.39884785e-13,5.664851093e-13,1.07878185e-12,3.374759367e-13,7.561477748e-13,3.460786083e-13,6.415855985e-13,4.687542984e-14,1.73683316e-13,5.90282857e-13,1.515262514e-12,4.074620243e-13,6.766181086e-13,9.661003827e-13,6.081281769e-13
0.984375,1.197117984e-12,1.962702101e-12,1.321905665e-12,4.057962642e-12,1.666189145e-12,1.583110687e-12,4.076582433e-13,1.271360253e-12,1.973097423e-12,1.240099533e-12,2.87190928e-13,1.968752967e-12,1.063776962e-12,8.24054784e-13,1.532705813e-13,2.813087929e-13,7.263621697e-13,3.287040439e-13,5.675968061e-13,1.047614417e-12,3.196630941e-13,7.597085141e-13,3.488711532e-13,6.224038513e-13,4.45557638e-14,1.754842282e-13,5.777691487e-13,1.557527261e-12,3.988691281e-13,6.886927394e-13,9.158766209e-13,6.431213252e-13
0.9921875,1.200533396e-12,1.911300114e-12,1.348745489e-12,3.997292838e-12,1.613143331e-12,1.614712999e-12,4.203602844e-13,1.283587323e-12,2.025858987e-12,1.244654354e-12,2.908074939e-13,2.069166253e-12,1.076077569e-12,8.613921784e-13,1.530222967e-13,2.738321411e-13,6.998818415e-13,3.172486326e-13,5.685691693e-13,1.013033633e-12,3.028044709e-13,7.637792518e-13,3.511692128e-13,5.994669702e-13,4.254538537e-14,1.773917267e-13,5.668277879e-13,1.600798488e-12,3.911505283e-13,6.977646762e-13,8.662611107e-13,6.78821545e-13
1,1.201787882e-12,1.861114381e-12,1.373608315e-12,3.933679441e-12,1.558947595e-12,1.647034077e-12,4.321805986e-13,1.292487936e-12,2.080507773e-12,1.250065355e-12,2.944110219e-13,2.17115998e-12,1.092439245e-12,8.993325592e-13,1.531034915e-13,2.658816346e-13,6.706066463e-13,3.051382061e-13,5.688271622e-13,9.757700853e-13,2.868573609e-13,7.682670175e-13,3.532492948e-13,5.738513588e-13,4.072998394e-14,1.792097489e-13,5.573880232e-13,1.645045448e-12,3.847651021e-13,7.042514329e-13,8.176936178e-13,7.151637284e-13
1.0078125,1.198780695e-12,1.81130337e-12,1.394785945e-12,3.867020323e-12,1.503837891e-12,1.67949322e-12,4.437365659e-13,1.296735826e-12,2.134367704e-12,1.255449605e-12,2.980045173e-13,2.271854037e-12,1.111131908e-12,9.360843001e-13,1.533516879e-13,2.574583068e-13,6.39297404e-13,2.924259152e-13,5.680198887e-13,9.363691153e-13,2.717135579e-13,7.726985794e-13,3.552094281e-13,5.468028566e-13,3.901653983e-14,1.809223941e-13,5.49982659e-13,1.686952712e-12,3.79200379e-13,7.074780439e-13,7.706439164e-13,7.511651896e-13
1.015625,1.191688995e-12,1.761976996e-12,1.411790239e-12,3.797763064e-12,1.448671768e-12,1.710688329e-12,4.551181607e-13,1.29581337e-12,2.185999992e-12,1.260927746e-12,3.014885004e-13,2.368381968e-12,1.132131341e-12,9.71053129e-13,1.539993446e-13,2.490272782e-13,6.066500743e-13,2.797472357e-13,5.66244548e-13,8.969921733e-13,2.576608756e-13,7.763135002e-13,3.560088924e-13,5.171480957e-13,3.747051003e-14,1.826616979e-13,5.457000651e-13,1.726865872e-12,3.746199571e-13,7.073501223e-13,7.259613697e-13,7.861149807e-13
1.0234375,1.181322961e-12,1.714149965e-12,1.422309495e-12,3.725673541e-12,1.394040279e-12,1.739899084e-12,4.658574103e-13,1.291149651e-12,2.235432195e-12,1.266369885e-12,3.047123741e-13,2.460698667e-12,1.155300159e-12,1.005058824e-12,1.546675061e-13,2.400500894e-13,5.72202749e-13,2.673338498e-13,5.63901324e-13,8.576609144e-13,2.449974345e-13,7.781183548e-13,3.551588877e-13,4.859881782e-13,3.610122036e-14,1.845083209e-13,5.44296883e-13,1.765367041e-12,3.713698011e-13,7.045151876e-13,6.845785405e-13,8.192843611e-13
1.03125,1.165378637e-12,1.666883846e-12,1.424799889e-12,3.648542747e-12,1.339824945e-12,1.765448054e-12,4.760225404e-13,1.283177655e-12,2.280471043e-12,1.271111724e-12,3.069309267e-13,2.546644235e-12,1.177212496e-12,1.035795491e-12,1.545086597e-13,2.297254641e-13,5.355346948e-13,2.548236395e-13,5.613666933e-13,8.176791679e-13,2.335716723e-13,7.778923353e-13,3.531240819e-13,4.542986806e-13,3.483651069e-14,1.866480427e-13,5.455164432e-13,1.797553502e-12,3.684556909e-13,6.990826863e-13,6.465143796e-13,8.501919138e-13
1.0390625,1.142422934e-12,1.619192597e-12,1.421154157e-12,3.566126084e-12,1.284991463e-12,1.787327611e-12,4.861800299e-13,1.271700191e-12,2.320291719e-12,1.275676824e-12,3.084479429e-13,2.62438291e-12,1.196155143e-12,1.061679539e-12,1.538339907e-13,2.184563579e-13,4.974796193e-13,2.421213168e-13,5.584430393e-13,7.775692907e-13,2.229234546e-13,7.759595172e-13,3.501920362e-13,4.219321838e-13,3.370076021e-14,1.88893555e-13,5.4961776e-13,1.822335815e-12,3.653030698e-13,6.915527231e-13,6.109159264e-13,8.789472215e-13
1.046875,1.11218631e-12,1.570646737e-12,1.409728332e-12,3.479566133e-12,1.22965627e-12,1.805738569e-12,4.961423484e-13,1.257138197e-12,2.353571056e-12,1.280675074e-12,3.101282755e-13,2.692195687e-12,1.211647916e-12,1.082475153e-12,1.52747594e-13,2.065134114e-13,4.588885096e-13,2.292868316e-13,5.545102176e-13,7.369722868e-13,2.132054954e-13,7.713166551e-13,3.459029497e-13,3.908621887e-13,3.27496336e-14,1.907955538e-13,5.567346685e-13,1.840519122e-12,3.621939879e-13,6.820176631e-13,5.776797633e-13,9.046186455e-13
1.0546875,1.075145191e-12,1.522053063e-12,1.39138648e-12,3.38919164e-12,1.174598095e-12,1.818255275e-12,5.056829919e-13,1.239493284e-12,2.378396256e-12,1.286570612e-12,3.114341283e-13,2.748791414e-12,1.222757271e-12,1.098350424e-12,1.509351847e-13,1.93898612e-13,4.203011652e-13,2.165518822e-13,5.497259047e-13,6.96664492e-13,2.050756324e-13,7.633746514e-13,3.400297422e-13,3.614818693e-13,3.202687118e-14,1.924503543e-13,5.672358645e-13,1.851193531e-12,3.590398927e-13,6.705198648e-13,5.472610361e-13,9.266650554e-13
1.0625,1.033497039e-12,1.475408474e-12,1.368377235e-12,3.298418322e-12,1.120054402e-12,1.82697089e-12,5.146829482e-13,1.217706882e-12,2.394988348e-12,1.292570735e-12,3.120786476e-13,2.794981635e-12,1.228993475e-12,1.111023364e-12,1.492313065e-13,1.816416896e-13,3.833990725e-13,2.046743912e-13,5.44547578e-13,6.581305439e-13,1.984618026e-13,7.52404924e-13,3.331676497e-13,3.34027813e-13,3.143965565e-14,1.939066443e-13,5.806143297e-13,1.857171757e-12,3.558965598e-13,6.568954984e-13,5.198424477e-13,9.453000731e-13
1.0703125,9.875858389e-13,1.430374945e-12,1.337235699e-12,3.20955734e-12,1.066809468e-12,1.833826908e-12,5.227186405e-13,1.192071736e-12,2.402063528e-12,1.296935827e-12,3.125679288e-13,2.828279161e-12,1.229394645e-12,1.119954463e-12,1.483018491e-13,1.704219881e-13,3.489977343e-13,1.93981323e-13,5.388182441e-13,6.212988621e-13,1.931146204e-13,7.377101576e-13,3.253621497e-13,3.09475312e-13,3.104319952e-14,1.948607499e-13,5.96280938e-13,1.857865524e-12,3.530137609e-13,6.403185706e-13,4.958195174e-13,9.595862523e-13
1.078125,9.366038817e-13,1.385446565e-12,1.298108055e-12,3.119596014e-12,1.014860785e-12,1.834262767e-12,5.297265776e-13,1.164200917e-12,2.397879366e-12,1.300010965e-12,3.124214038e-13,2.844554079e-12,1.223152725e-12,1.123021518e-12,1.476606198e-13,1.597157561e-13,3.165411429e-13,1.842772757e-13,5.32204943e-13,5.869742733e-13,1.892149342e-13,7.194212594e-13,3.162671918e-13,2.870573878e-13,3.098312803e-14,1.954833763e-13,6.147631426e-13,1.848395083e-12,3.503505062e-13,6.211660094e-13,4.75259915e-13,9.690941175e-13
1.0859375,8.826958251e-13,1.341023714e-12,1.253158022e-12,3.028160694e-12,9.637722389e-13,1.827044673e-12,5.368514654e-13,1.133767574e-12,2.382796702e-12,1.302115412e-12,3.113748412e-13,2.843504316e-12,1.210554305e-12,1.120441275e-12,1.468819263e-13,1.491370283e-13,2.863801877e-13,1.757665239e-13,5.246073125e-13,5.56638493e-13,1.866456365e-13,6.983422265e-13,3.061720767e-13,2.674441158e-13,3.110268074e-14,1.959742038e-13,6.358038166e-13,1.829091388e-12,3.479777275e-13,5.995519543e-13,4.578403021e-13,9.741905665e-13
1.09375,8.271480937e-13,1.29814216e-12,1.202522063e-12,2.93854873e-12,9.142237749e-13,1.814631818e-12,5.448121414e-13,1.100963308e-12,2.35760275e-12,1.303099206e-12,3.099052637e-13,2.826979495e-12,1.19274173e-12,1.113788279e-12,1.463448944e-13,1.386852024e-13,2.586441162e-13,1.685164022e-13,5.163220358e-13,5.30268014e-13,1.85256021e-13,6.745379591e-13,2.957087806e-13,2.517788546e-13,3.138071106e-14,1.959292431e-13,6.587982063e-13,1.802322953e-12,3.460203256e-13,5.755948923e-13,4.436137868e-13,9.747346975e-13
1.1015625,7.698218205e-13,1.257350498e-12,1.148127018e-12,2.852553791e-12,8.669526624e-13,1.797270402e-12,5.529835618e-13,1.067383266e-12,2.322541142e-12,1.304042299e-12,3.079173558e-13,2.795786081e-12,1.169687299e-12,1.104018476e-12,1.465238325e-13,1.285596403e-13,2.334895152e-13,1.628696376e-13,5.076488948e-13,5.073143784e-13,1.852383781e-13,6.485755401e-13,2.854571977e-13,2.398963781e-13,3.18277655e-14,1.952721449e-13,6.840330009e-13,1.768381927e-12,3.446942589e-13,5.506772274e-13,4.327258878e-13,9.707258838e-13
1.109375,7.124889253e-13,1.21859261e-12,1.088857509e-12,2.770328594e-12,8.228046865e-13,1.774595451e-12,5.620467913e-13,1.032983802e-12,2.27695131e-12,1.305437843e-12,3.054079356e-13,2.748300424e-12,1.139391819e-12,1.090029435e-12,1.469685025e-13,1.189994814e-13,2.115496969e-13,1.593491344e-13,4.984298585e-13,4.878073655e-13,1.867961087e-13,6.209632358e-13,2.758370311e-13,2.314346746e-13,3.224641492e-14,1.94437297e-13,7.114189458e-13,1.726358608e-12,3.441041275e-13,5.249089734e-13,4.254292131e-13,9.624262029e-13
1.1171875,6.560437901e-13,1.181621296e-12,1.025536297e-12,2.690412565e-12,7.817151465e-13,1.745672157e-12,5.723179945e-13,9.983597404e-13,2.222302915e-12,1.308331617e-12,3.028455728e-13,2.685658459e-12,1.102703636e-12,1.071804425e-12,1.474914902e-13,1.099546661e-13,1.923715035e-13,1.574005504e-13,4.88408463e-13,4.716958469e-13,1.896653921e-13,5.919267783e-13,2.672071952e-13,2.256287807e-13,3.27721301e-14,1.933719376e-13,7.401527592e-13,1.676096639e-12,3.440670976e-13,4.986136928e-13,4.213966279e-13,9.505496887e-13
1.125,6.011881885e-13,1.146825414e-12,9.624355971e-13,2.612733823e-12,7.43084134e-13,1.710405153e-12,5.82288437e-13,9.645590059e-13,2.160880472e-12,1.313950458e-12,3.001434464e-13,2.612105418e-12,1.06212916e-12,1.052130821e-12,1.48778449e-13,1.015161978e-13,1.756416807e-13,1.569101046e-13,4.781598154e-13,4.583234435e-13,1.931476943e-13,5.623831155e-13,2.598467924e-13,2.217634966e-13,3.351423407e-14,1.915993305e-13,7.693254483e-13,1.619425274e-12,3.44705553e-13,4.730376828e-13,4.198366127e-13,9.352360922e-13
1.1328125,5.487666939e-13,1.114697131e-12,8.991975037e-13,2.540409142e-12,7.082758778e-13,1.67077541e-12,5.922485858e-13,9.306539277e-13,2.091557518e-12,1.322585559e-12,2.969412446e-13,2.5281067e-12,1.017043316e-12,1.031342022e-12,1.508552119e-13,9.388441448e-14,1.615981629e-13,1.584138499e-13,4.688326721e-13,4.476632116e-13,1.972809854e-13,5.332100465e-13,2.540933992e-13,2.203903778e-13,3.424984657e-14,1.892111744e-13,7.987198607e-13,1.555889171e-12,3.459978911e-13,4.485301354e-13,4.21303187e-13,9.156096163e-13
1.140625,4.984268906e-13,1.085451466e-12,8.365656183e-13,2.4745329e-12,6.779961787e-13,1.627558504e-12,6.032311494e-13,8.963346182e-13,2.014256192e-12,1.334698228e-12,2.937616931e-13,2.433868684e-12,9.676975767e-13,1.008564818e-12,1.536510617e-13,8.722622143e-14,1.504599004e-13,1.617603711e-13,4.602990632e-13,4.400473715e-13,2.024619166e-13,5.044484553e-13,2.500557301e-13,2.224825791e-13,3.50144811e-14,1.867341211e-13,8.287611574e-13,1.485541501e-12,3.478377879e-13,4.253499367e-13,4.262123642e-13,8.920489035e-13
1.1484375,4.510669808e-13,1.058922367e-12,7.760431499e-13,2.413289533e-12,6.511859447e-13,1.579391072e-12,6.149312802e-13,8.628586077e-13,1.930698611e-12,1.349995942e-12,2.909062043e-13,2.330945195e-12,9.153645755e-13,9.846143127e-13,1.576038007e-13,8.153041451e-14,1.423943529e-13,1.667394105e-13,4.516269365e-13,4.351676347e-13,2.082570145e-13,4.760002966e-13,2.475610117e-13,2.270464191e-13,3.591010505e-14,1.840695995e-13,8.590036683e-13,1.411436538e-12,3.502945511e-13,4.034019831e-13,4.338007773e-13,8.653732953e-13
1.15625,4.07151499e-13,1.034353195e-12,7.164664819e-13,2.356134453e-12,6.276047964e-13,1.526040724e-12,6.275924077e-13,8.310317681e-13,1.841490526e-12,1.36928001e-12,2.877555108e-13,2.219489396e-12,8.597819766e-13,9.593314359e-13,1.627258682e-13,7.643250569e-14,1.370018576e-13,1.730833762e-13,4.427114053e-13,4.335194616e-13,2.143485225e-13,4.481499541e-13,2.467561493e-13,2.326320465e-13,3.673200869e-14,1.809709423e-13,8.887264512e-13,1.33450354e-12,3.531258397e-13,3.827393822e-13,4.437214182e-13,8.356068759e-13
1.1640625,3.663755695e-13,1.011201326e-12,6.595016079e-13,2.304094814e-12,6.076627818e-13,1.469751586e-12,6.418731213e-13,8.003981968e-13,1.747429539e-12,1.39312886e-12,2.845387098e-13,2.101234393e-12,8.020414613e-13,9.334890771e-13,1.689826844e-13,7.198735183e-14,1.343324756e-13,1.806407172e-13,4.338457469e-13,4.355945338e-13,2.208943191e-13,4.206955001e-13,2.474615108e-13,2.39155109e-13,3.74359281e-14,1.777956792e-13,9.17852778e-13,1.255664571e-12,3.564031468e-13,3.637001532e-13,4.557101357e-13,8.031423619e-13
1.171875,3.296636949e-13,9.898591264e-13,6.074681023e-13,2.257593514e-12,5.921126017e-13,1.411473312e-12,6.577962758e-13,7.709197345e-13,1.64947827e-12,1.419290433e-12,2.816814441e-13,1.978392527e-12,7.440161551e-13,9.093855978e-13,1.768188762e-13,6.847856789e-14,1.345435522e-13,1.894679836e-13,4.252752292e-13,4.403709695e-13,2.278045449e-13,3.939461053e-13,2.494311876e-13,2.46734347e-13,3.824119949e-14,1.746877181e-13,9.453908361e-13,1.176045875e-12,3.600517447e-13,3.459615141e-13,4.69584846e-13,7.682395571e-13
1.1796875,2.976925363e-13,9.708129785e-13,5.604873179e-13,2.215668876e-12,5.812445818e-13,1.350464267e-12,6.750769475e-13,7.438514266e-13,1.550091389e-12,1.446458144e-12,2.78625161e-13,1.853115824e-12,6.871468332e-13,8.872947411e-13,1.86236384e-13,6.577665474e-14,1.371719096e-13,1.990038305e-13,4.168013257e-13,4.472899344e-13,2.347864367e-13,3.692325235e-13,2.527896903e-13,2.553504939e-13,3.915758081e-14,1.714974707e-13,9.699636512e-13,1.096124727e-12,3.633649321e-13,3.296806489e-13,4.848126901e-13,7.312379291e-13
1.1875,2.703752746e-13,9.532340953e-13,5.179832157e-13,2.176553783e-12,5.740402846e-13,1.287295552e-12,6.92923956e-13,7.193408149e-13,1.451403645e-12,1.473900842e-12,2.754461982e-13,1.727303913e-12,6.319483393e-13,8.667240603e-13,1.964439478e-13,6.378131596e-14,1.420517903e-13,2.089751754e-13,4.078350946e-13,4.566370476e-13,2.413740657e-13,3.465332558e-13,2.569056129e-13,2.646716034e-13,4.009621222e-14,1.682620024e-13,9.916063405e-13,1.017787098e-12,3.662883969e-13,3.148401385e-13,4.999621668e-13,6.928118195e-13
1.1953125,2.468307375e-13,9.357124201e-13,4.788758513e-13,2.138299706e-12,5.69765699e-13,1.222541167e-12,7.104832364e-13,6.965855103e-13,1.35230572e-12,1.500117524e-12,2.725358603e-13,1.600591661e-12,5.77728681e-13,8.479658098e-13,2.074789198e-13,6.254146472e-14,1.486357217e-13,2.193522865e-13,3.983094291e-13,4.678260362e-13,2.472476987e-13,3.249005718e-13,2.610459166e-13,2.738767037e-13,4.112470414e-14,1.649377199e-13,1.010414807e-12,9.40736426e-13,3.690306454e-13,3.007908827e-13,5.146649167e-13,6.52810185e-13
1.203125,2.264560137e-13,9.180178799e-13,4.428239369e-13,2.09967253e-12,5.683600691e-13,1.155846768e-12,7.274522579e-13,6.757144782e-13,1.252981441e-12,1.524512499e-12,2.69500674e-13,1.473991298e-12,5.250843939e-13,8.302257036e-13,2.198239415e-13,6.196504995e-14,1.56374017e-13,2.296105623e-13,3.882892155e-13,4.805803045e-13,2.524834422e-13,3.042002697e-13,2.651882011e-13,2.825832608e-13,4.226137634e-14,1.617712248e-13,1.025710714e-12,8.64620985e-13,3.711657235e-13,2.874354381e-13,5.29169867e-13,6.116113059e-13
1.2109375,2.09774229e-13,9.007918288e-13,4.100408045e-13,2.061391594e-12,5.694358768e-13,1.087510697e-12,7.430082208e-13,6.576970815e-13,1.156340269e-12,1.547184076e-12,2.662999712e-13,1.350132632e-12,4.751658145e-13,8.119576788e-13,2.325774031e-13,6.204239629e-14,1.658829592e-13,2.400230536e-13,3.776532094e-13,4.962016804e-13,2.568648453e-13,2.848162995e-13,2.691443835e-13,2.907914187e-13,4.345642625e-14,1.592574727e-13,1.037753181e-12,7.91706406e-13,3.722480632e-13,2.74828536e-13,5.427000365e-13,5.707843393e-13
1.21875,1.962909388e-13,8.839991362e-13,3.806306203e-13,2.023972461e-12,5.721939862e-13,1.019043319e-12,7.564858439e-13,6.435667493e-13,1.06448794e-12,1.568653611e-12,2.632698501e-13,1.230692238e-12,4.282644827e-13,7.933197156e-13,2.450051877e-13,6.293953686e-14,1.770450805e-13,2.505295639e-13,3.665171277e-13,5.150929559e-13,2.599507305e-13,2.670308538e-13,2.72316222e-13,2.985868723e-13,4.462202809e-14,1.572066569e-13,1.047293923e-12,7.229179296e-13,3.719703974e-13,2.633402302e-13,5.543334647e-13,5.308859705e-13
1.2265625,1.848982964e-13,8.663627215e-13,3.548565502e-13,1.985161522e-12,5.761494614e-13,9.513716689e-13,7.681315564e-13,6.327340566e-13,9.770155911e-13,1.587758906e-12,2.604618185e-13,1.11612485e-12,3.843141695e-13,7.754788847e-13,2.577433689e-13,6.461662835e-14,1.884621567e-13,2.601483718e-13,3.552296144e-13,5.359447582e-13,2.618357531e-13,2.505027177e-13,2.745677717e-13,3.06728455e-13,4.572790319e-14,1.552885348e-13,1.0534665e-12,6.5752456e-13,3.702634587e-13,2.530608012e-13,5.640899587e-13,4.914321236e-13
1.234375,1.755356912e-13,8.469822717e-13,3.323716667e-13,1.943493865e-12,5.812962141e-13,8.843004005e-13,7.7732216e-13,6.240007127e-13,8.930156181e-13,1.602442965e-12,2.580635031e-13,1.005910395e-12,3.431295852e-13,7.579815741e-13,2.70888164e-13,6.70841377e-14,1.997734677e-13,2.693859207e-13,3.444341957e-13,5.57639362e-13,2.626616056e-13,2.349264663e-13,2.763612757e-13,3.152675666e-13,4.69658419e-14,1.538772695e-13,1.055395619e-12,5.951433375e-13,3.672461859e-13,2.434914722e-13,5.724065039e-13,4.528424936e-13
1.2421875,1.679690164e-13,8.26304605e-13,3.130672141e-13,1.900212439e-12,5.873559454e-13,8.19136234e-13,7.834476442e-13,6.17349282e-13,8.137700786e-13,1.613111648e-12,2.567845524e-13,9.011480779e-13,3.050638378e-13,7.391646845e-13,2.83240067e-13,7.037089403e-14,2.115123918e-13,2.786786785e-13,3.343189698e-13,5.794633469e-13,2.621995173e-13,2.204823927e-13,2.773789783e-13,3.236496707e-13,4.840059355e-14,1.532257296e-13,1.053980483e-12,5.374677479e-13,3.624938162e-13,2.349185971e-13,5.7847883e-13,4.161781429e-13
1.25,1.617103562e-13,8.046058832e-13,2.973632117e-13,1.855763895e-12,5.939928859e-13,7.571393597e-13,7.867328881e-13,6.128091683e-13,7.402258859e-13,1.620275796e-12,2.570432302e-13,8.033569045e-13,2.704114569e-13,7.191677477e-13,2.940714576e-13,7.424599284e-14,2.23697485e-13,2.871950624e-13,3.244929946e-13,6.010986108e-13,2.604381015e-13,2.07175837e-13,2.76965379e-13,3.318517321e-13,4.993530646e-14,1.52935201e-13,1.049535348e-12,4.855357766e-13,3.558501703e-13,2.27425171e-13,5.814690021e-13,3.813887794e-13
1.2578125,1.568684129e-13,7.818303977e-13,2.845153891e-13,1.809437985e-12,6.011299461e-13,6.974871346e-13,7.868078266e-13,6.105465623e-13,6.720789875e-13,1.623158115e-12,2.583021786e-13,7.121775092e-13,2.39241198e-13,6.995353053e-13,3.037794128e-13,7.865758314e-14,2.360067796e-13,2.952369413e-13,3.154333757e-13,6.223609326e-13,2.576376907e-13,1.949419048e-13,2.754533141e-13,3.393529771e-13,5.160385402e-14,1.527936243e-13,1.041780609e-12,4.37356659e-13,3.480850302e-13,2.207805691e-13,5.823027719e-13,3.478117424e-13
1.265625,1.532414312e-13,7.577492578e-13,2.732176033e-13,1.760066937e-12,6.083786237e-13,6.397167953e-13,7.831876687e-13,6.103372783e-13,6.094441177e-13,1.6210397e-12,2.606095551e-13,6.268213096e-13,2.112949354e-13,6.790338164e-13,3.12127838e-13,8.346946714e-14,2.480170765e-13,3.033411538e-13,3.077208154e-13,6.428984816e-13,2.539412581e-13,1.834658081e-13,2.730074728e-13,3.465733159e-13,5.342144593e-14,1.531163853e-13,1.031272317e-12,3.92472599e-13,3.391822331e-13,2.150124026e-13,5.811670039e-13,3.157376001e-13
1.2734375,1.50203667e-13,7.315078745e-13,2.629350736e-13,1.705831526e-12,6.148979166e-13,5.842047541e-13,7.758395381e-13,6.115786259e-13,5.524708457e-13,1.613529864e-12,2.645780853e-13,5.474536385e-13,1.863636864e-13,6.562994608e-13,3.183003407e-13,8.841731567e-14,2.595076164e-13,3.107835508e-13,3.008259079e-13,6.630130467e-13,2.491998168e-13,1.725670537e-13,2.693969072e-13,3.542144915e-13,5.546110631e-14,1.540725785e-13,1.017949052e-12,3.518181387e-13,3.282620194e-13,2.097693611e-13,5.768308962e-13,2.858841862e-13
1.28125,1.475155366e-13,7.034733673e-13,2.541020199e-13,1.647090172e-12,6.20079667e-13,5.316125006e-13,7.65236053e-13,6.151244972e-13,5.021821107e-13,1.600861905e-12,2.700626207e-13,4.7606339e-13,1.654774727e-13,6.338265475e-13,3.22873031e-13,9.371022247e-14,2.703086403e-13,3.174968463e-13,2.943840102e-13,6.828753097e-13,2.433684734e-13,1.629166187e-13,2.650607962e-13,3.609220683e-13,5.782053052e-14,1.554427686e-13,1.001789099e-12,3.149536063e-13,3.158361373e-13,2.052867248e-13,5.691735528e-13,2.585860587e-13
1.2890625,1.452796016e-13,6.750721148e-13,2.472284585e-13,1.58597014e-12,6.241045083e-13,4.823147134e-13,7.516684727e-13,6.208912312e-13,4.594287471e-13,1.582582042e-12,2.770995968e-13,4.134940269e-13,1.488141722e-13,6.121882838e-13,3.264525835e-13,9.951460074e-14,2.80004124e-13,3.243929347e-13,2.889797542e-13,7.015681154e-13,2.366711186e-13,1.547070883e-13,2.604120705e-13,3.656857916e-13,6.041469266e-14,1.573473912e-13,9.834982749e-13,2.819405879e-13,3.030956177e-13,2.016590758e-13,5.590999631e-13,2.339787776e-13
1.296875,1.434558733e-13,6.464152634e-13,2.413355479e-13,1.522730114e-12,6.267543859e-13,4.360186441e-13,7.346504668e-13,6.275602832e-13,4.236289498e-13,1.558319726e-12,2.860025736e-13,3.579411712e-13,1.355425635e-13,5.889910459e-13,3.281488623e-13,1.055337227e-13,2.883738348e-13,3.315351918e-13,2.854166381e-13,7.185270448e-13,2.291080944e-13,1.475388951e-13,2.552422469e-13,3.684052505e-13,6.317801119e-14,1.603063422e-13,9.635594043e-13,2.529079843e-13,2.899558248e-13,1.982684363e-13,5.471037881e-13,2.119180776e-13
1.3046875,1.414409328e-13,6.167556036e-13,2.350800939e-13,1.456591274e-12,6.271721828e-13,3.930665561e-13,7.138710769e-13,6.357353552e-13,3.939441947e-13,1.528598805e-12,2.968496652e-13,3.084303888e-13,1.254510106e-13,5.64347018e-13,3.277735447e-13,1.117527404e-13,2.954735647e-13,3.384947577e-13,2.834455536e-13,7.339925277e-13,2.206689028e-13,1.415124996e-13,2.493138733e-13,3.692277604e-13,6.604729994e-14,1.641752718e-13,9.422716544e-13,2.267792454e-13,2.760337254e-13,1.952904615e-13,5.328174502e-13,1.920994239e-13
1.3125,1.38616055e-13,5.858591767e-13,2.282448877e-13,1.388001702e-12,6.260099673e-13,3.538133952e-13,6.889651043e-13,6.453979967e-13,3.692118715e-13,1.492942986e-12,3.095714948e-13,2.650441676e-13,1.180283499e-13,5.396613611e-13,3.259344973e-13,1.183525035e-13,3.016747696e-13,3.456217389e-13,2.824367051e-13,7.470129765e-13,2.1138886e-13,1.365579321e-13,2.426873862e-13,3.691182477e-13,6.907152039e-14,1.684152984e-13,9.192350243e-13,2.030071162e-13,2.614904381e-13,1.929813613e-13,5.16332391e-13,1.743410612e-13
1.3203125,1.355610288e-13,5.549793599e-13,2.211922468e-13,1.318758642e-12,6.24472684e-13,3.179386376e-13,6.600684044e-13,6.55036079e-13,3.493848587e-13,1.451957543e-12,3.237420162e-13,2.277947725e-13,1.134048669e-13,5.15169939e-13,3.223278111e-13,1.250172406e-13,3.070564792e-13,3.534558185e-13,2.829184545e-13,7.56201186e-13,2.014587111e-13,1.324031519e-13,2.357471638e-13,3.681449282e-13,7.250181912e-14,1.72914266e-13,8.948495813e-13,1.818935076e-13,2.471170781e-13,1.913095344e-13,4.990796455e-13,1.585303009e-13
1.328125,1.33130927e-13,5.255024486e-13,2.143231589e-13,1.249944114e-12,6.217906049e-13,2.851813536e-13,6.286319372e-13,6.651991879e-13,3.352730045e-13,1.407293519e-12,3.394080015e-13,1.962920899e-13,1.120115165e-13,4.909929657e-13,3.167040018e-13,1.31543786e-13,3.110915997e-13,3.614235052e-13,2.848311109e-13,7.620735237e-13,1.914947881e-13,1.29106561e-13,2.290350212e-13,3.656106689e-13,7.655944458e-14,1.776749559e-13,8.700855623e-13,1.633446147e-13,2.335121832e-13,1.903596413e-13,4.814524655e-13,1.446892035e-13
1.3359375,1.305849574e-13,4.965949106e-13,2.074414376e-13,1.181075893e-12,6.170751912e-13,2.553175468e-13,5.957608853e-13,6.768703233e-13,3.255910961e-13,1.359191976e-12,3.569025694e-13,1.694229557e-13,1.130939048e-13,4.679292954e-13,3.099468361e-13,1.383411245e-13,3.141501726e-13,3.690117423e-13,2.8714412e-13,7.656678429e-13,1.816254071e-13,1.267370189e-13,2.228543078e-13,3.612721565e-13,8.144445016e-14,1.827707159e-13,8.439677519e-13,1.467715333e-13,2.200576938e-13,1.898267935e-13,4.628783073e-13,1.327656691e-13
1.34375,1.272528457e-13,4.677448089e-13,2.003673517e-13,1.113097953e-12,6.109117492e-13,2.283187277e-13,5.615970339e-13,6.885977126e-13,3.188696341e-13,1.308408087e-12,3.760049028e-13,1.466287208e-13,1.1607997e-13,4.463200868e-13,3.026554507e-13,1.456784555e-13,3.170666273e-13,3.769196089e-13,2.895565137e-13,7.669178414e-13,1.717147001e-13,1.25225521e-13,2.17136313e-13,3.552024524e-13,8.700550092e-14,1.878553507e-13,8.161506763e-13,1.319285231e-13,2.067622671e-13,1.895015425e-13,4.438225653e-13,1.224559906e-13
1.3515625,1.238998263e-13,4.4011668e-13,1.93257531e-13,1.047741728e-12,6.035019358e-13,2.041824371e-13,5.265561163e-13,6.98791435e-13,3.153841407e-13,1.255402116e-12,3.9669429e-13,1.279255741e-13,1.206193133e-13,4.262761939e-13,2.943613405e-13,1.530945214e-13,3.1923403e-13,3.846220386e-13,2.917446968e-13,7.647026046e-13,1.61984432e-13,1.242181758e-13,2.116429609e-13,3.483253712e-13,9.292184238e-14,1.922315632e-13,7.874860468e-13,1.193254087e-13,1.942179753e-13,1.890993204e-13,4.245660016e-13,1.134738835e-13
1.359375,1.206796256e-13,4.139293316e-13,1.858314327e-13,9.850987554e-13,5.945402285e-13,1.825207805e-13,4.920250369e-13,7.082383247e-13,3.152158622e-13,1.20001198e-12,4.188000871e-13,1.129635039e-13,1.264364996e-13,4.086894648e-13,2.854959865e-13,1.602982164e-13,3.200944641e-13,3.910067579e-13,2.934086535e-13,7.585639642e-13,1.525563484e-13,1.23416187e-13,2.064029855e-13,3.411782978e-13,9.925573e-14,1.962188545e-13,7.582559977e-13,1.089417827e-13,1.824132137e-13,1.881587499e-13,4.052375258e-13,1.055925052e-13
1.3671875,1.172376328e-13,3.885991193e-13,1.781780586e-13,9.246935684e-13,5.839568911e-13,1.62832034e-13,4.58757897e-13,7.179402415e-13,3.174055076e-13,1.143111873e-12,4.418682296e-13,1.008769012e-13,1.33543896e-13,3.936548193e-13,2.769591808e-13,1.675871036e-13,3.203814758e-13,3.967459015e-13,2.948340899e-13,7.493896229e-13,1.436381833e-13,1.227658221e-13,2.017176347e-13,3.332481457e-13,1.059139365e-13,2.000491324e-13,7.287630679e-13,1.000451192e-13,1.71510697e-13,1.868675713e-13,3.8603358e-13,9.865121504e-14
1.375,1.137571019e-13,3.640076086e-13,1.706949876e-13,8.666135082e-13,5.714755555e-13,1.45188248e-13,4.263746652e-13,7.267703155e-13,3.20763426e-13,1.084944236e-12,4.657889868e-13,9.09096914e-14,1.416063689e-13,3.816010337e-13,2.690685442e-13,1.749694482e-13,3.200553696e-13,4.022750799e-13,2.958730423e-13,7.365055959e-13,1.351887228e-13,1.221070991e-13,1.976568983e-13,3.245430752e-13,1.127333333e-13,2.028965061e-13,6.979033078e-13,9.261282053e-14,1.611597251e-13,1.852331605e-13,3.66301025e-13,9.254250304e-14
1.3828125,1.10223346e-13,3.409389511e-13,1.637881744e-13,8.130935594e-13,5.573160324e-13,1.303063855e-13,3.955292781e-13,7.336822577e-13,3.255073174e-13,1.02663586e-12,4.898066497e-13,8.335922945e-14,1.506652105e-13,3.731902838e-13,2.624260548e-13,1.824647659e-13,3.186142094e-13,4.070282751e-13,2.958800844e-13,7.191600982e-13,1.269720692e-13,1.216848259e-13,1.943365888e-13,3.153868363e-13,1.199503152e-13,2.045737985e-13,6.653734887e-13,8.682089309e-14,1.51143477e-13,1.830078496e-13,3.463138744e-13,8.713693855e-14
1.390625,1.064656677e-13,3.203220624e-13,1.573567074e-13,7.65854688e-13,5.419892796e-13,1.181038527e-13,3.668657312e-13,7.398893695e-13,3.325851023e-13,9.701438945e-13,5.133334556e-13,7.826902292e-14,1.604931372e-13,3.664986383e-13,2.566025812e-13,1.898441011e-13,3.165349299e-13,4.102799119e-13,2.946223011e-13,6.98882632e-13,1.192811121e-13,1.217748095e-13,1.92031579e-13,3.062534045e-13,1.274919446e-13,2.05471045e-13,6.337178366e-13,8.239664064e-14,1.421899248e-13,1.806107084e-13,3.271956706e-13,8.248988635e-14
1.3984375,1.023181431e-13,3.017774085e-13,1.507100168e-13,7.234787081e-13,5.253985323e-13,1.077301304e-13,3.400450265e-13,7.468973649e-13,3.411324206e-13,9.153671643e-13,5.364029336e-13,7.459003987e-14,1.701588263e-13,3.603782251e-13,2.510252947e-13,1.965528779e-13,3.140204852e-13,4.117826846e-13,2.92504005e-13,6.768838235e-13,1.123112847e-13,1.219783577e-13,1.905511717e-13,2.979885588e-13,1.351037596e-13,2.054046102e-13,6.034016569e-13,7.919863125e-14,1.343273961e-13,1.784154186e-13,3.089971642e-13,7.858984935e-14
1.40625,9.794450408e-14,2.849592308e-13,1.447803777e-13,6.859448915e-13,5.07546319e-13,9.905088173e-14,3.156627196e-13,7.542448203e-13,3.501978334e-13,8.628273413e-13,5.58649631e-13,7.204031997e-14,1.798750599e-13,3.564899516e-13,2.464022752e-13,2.027601463e-13,3.107683236e-13,4.119113385e-13,2.893636315e-13,6.525009522e-13,1.061432172e-13,1.221420799e-13,1.89650784e-13,2.906885612e-13,1.429970078e-13,2.038750405e-13,5.729252068e-13,7.728320129e-14,1.270436126e-13,1.764173733e-13,2.911924869e-13,7.49797511e-14
1.4140625,9.379690069e-14,2.702823411e-13,1.40427085e-13,6.542426581e-13,4.884169999e-13,9.226225702e-14,2.944467446e-13,7.61612596e-13,3.605173511e-13,8.137151032e-13,5.803734574e-13,7.115296891e-14,1.899768016e-13,3.555302408e-13,2.430134881e-13,2.083913646e-13,3.065296772e-13,4.098159779e-13,2.843939203e-13,6.240076011e-13,1.008774946e-13,1.222647818e-13,1.894139137e-13,2.836905025e-13,1.511129917e-13,2.007486467e-13,5.421909105e-13,7.634127767e-14,1.202566173e-13,1.74753966e-13,2.736912832e-13,7.145172701e-14
1.421875,8.980514632e-14,2.580340135e-13,1.371219267e-13,6.281983459e-13,4.685844908e-13,8.717579072e-14,2.762682675e-13,7.697551386e-13,3.720683626e-13,7.6784457e-13,6.006954802e-13,7.177819242e-14,1.994390509e-13,3.559701031e-13,2.408792381e-13,2.13292046e-13,3.014162664e-13,4.052347992e-13,2.78168496e-13,5.924301843e-13,9.631362915e-14,1.220117629e-13,1.896987836e-13,2.770364068e-13,1.589691687e-13,1.966877009e-13,5.119091395e-13,7.596295787e-14,1.144359054e-13,1.73574865e-13,2.57748471e-13,6.844687765e-14
1.4296875,8.608889256e-14,2.484351029e-13,1.347255053e-13,6.082361753e-13,4.499175685e-13,8.32414259e-14,2.613944402e-13,7.779168933e-13,3.832609743e-13,7.257390972e-13,6.175481468e-13,7.319176482e-14,2.075015109e-13,3.567592826e-13,2.398337888e-13,2.178955394e-13,2.962054098e-13,3.996538578e-13,2.716780885e-13,5.601511827e-13,9.26001686e-14,1.214051007e-13,1.901512569e-13,2.719113615e-13,1.662131113e-13,1.922450776e-13,4.831802095e-13,7.65676856e-14,1.100587157e-13,1.726707107e-13,2.446322996e-13,6.588632178e-14
1.4375,8.269469799e-14,2.409374963e-13,1.325901058e-13,5.939210785e-13,4.328248946e-13,8.029363032e-14,2.504039207e-13,7.854379319e-13,3.929842351e-13,6.877895473e-13,6.318969349e-13,7.490496283e-14,2.141530211e-13,3.58448744e-13,2.395543951e-13,2.216420579e-13,2.908680114e-13,3.925299087e-13,2.64093023e-13,5.261137726e-13,8.990144957e-14,1.204180526e-13,1.906330467e-13,2.688727662e-13,1.724708055e-13,1.870043376e-13,4.559625852e-13,7.830002146e-14,1.066348522e-13,1.715895497e-13,2.334309258e-13,6.294936515e-14
1.4453125,7.926158487e-14,2.349856243e-13,1.309397531e-13,5.842848177e-13,4.163382794e-13,7.880080243e-14,2.429403815e-13,7.931524696e-13,4.015305973e-13,6.532135695e-13,6.451558533e-13,7.696636818e-14,2.193284025e-13,3.606847425e-13,2.404858485e-13,2.237980798e-13,2.847900446e-13,3.827184329e-13,2.549307776e-13,4.904857741e-13,8.797412583e-14,1.187608519e-13,1.914127498e-13,2.669910721e-13,1.776516609e-13,1.806011283e-13,4.296855118e-13,8.044424032e-14,1.038726518e-13,1.699818645e-13,2.23281239e-13,5.963817182e-14
1.453125,7.629693784e-14,2.309909959e-13,1.310146283e-13,5.790643484e-13,4.005689062e-13,7.839130999e-14,2.385627037e-13,8.01380873e-13,4.09279273e-13,6.22010018e-13,6.564939669e-13,7.940849222e-14,2.228683594e-13,3.624290523e-13,2.428053397e-13,2.249483336e-13,2.782825523e-13,3.710318772e-13,2.449549365e-13,4.554629915e-13,8.67302387e-14,1.167254451e-13,1.926757505e-13,2.6564417e-13,1.818621085e-13,1.732569265e-13,4.050709075e-13,8.270263122e-14,1.02077026e-13,1.678181261e-13,2.145223071e-13,5.663604125e-14
1.4609375,7.398045877e-14,2.290276937e-13,1.318876027e-13,5.784073626e-13,3.862608982e-13,7.85615864e-14,2.377445541e-13,8.098583784e-13,4.157179897e-13,5.946594471e-13,6.648584074e-13,8.192525956e-14,2.246463767e-13,3.638721609e-13,2.460791627e-13,2.256846323e-13,2.718016857e-13,3.582241951e-13,2.343884134e-13,4.2117628e-13,8.606886649e-14,1.147061126e-13,1.941128932e-13,2.651132614e-13,1.847665773e-13,1.654214873e-13,3.823547883e-13,8.500945891e-14,1.008497417e-13,1.652585446e-13,2.072693932e-13,5.392112336e-14
1.46875,7.202092301e-14,2.291726267e-13,1.328530889e-13,5.829782337e-13,3.745142932e-13,7.969022202e-14,2.40579904e-13,8.181422514e-13,4.204793115e-13,5.714570983e-13,6.691811776e-13,8.45587822e-14,2.249434113e-13,3.652487359e-13,2.49947417e-13,2.25845683e-13,2.655736805e-13,3.446063923e-13,2.236943448e-13,3.879310563e-13,8.615849523e-14,1.12763298e-13,1.958998973e-13,2.656853545e-13,1.864208885e-13,1.575573357e-13,3.621671066e-13,8.749651368e-14,1.002697275e-13,1.624824109e-13,2.021960983e-13,5.10844729e-14
1.4765625,7.074496865e-14,2.313662663e-13,1.353052474e-13,5.912556723e-13,3.650484703e-13,8.132334924e-14,2.469265532e-13,8.263975137e-13,4.237384022e-13,5.521819683e-13,6.700194317e-13,8.764159431e-14,2.239146148e-13,3.662021635e-13,2.541365374e-13,2.251343987e-13,2.5931491e-13,3.29709585e-13,2.129073309e-13,3.56584792e-13,8.741137587e-14,1.1105489e-13,1.988425436e-13,2.676891306e-13,1.875730857e-13,1.495040279e-13,3.449131022e-13,9.01298747e-14,1.007652323e-13,1.598848486e-13,1.995946667e-13,4.81335864e-14
1.484375,6.970916076e-14,2.347150173e-13,1.39259764e-13,6.013785237e-13,3.564675613e-13,8.292886211e-14,2.562185945e-13,8.345946222e-13,4.256287925e-13,5.359251164e-13,6.691321226e-13,9.099256229e-14,2.209580432e-13,3.659781503e-13,2.585570943e-13,2.235490426e-13,2.524857901e-13,3.13065727e-13,2.013466113e-13,3.271917189e-13,8.962991078e-14,1.094633932e-13,2.030973208e-13,2.709813749e-13,1.882929229e-13,1.410801006e-13,3.292027567e-13,9.228553304e-14,1.018083069e-13,1.573855531e-13,1.98817213e-13,4.536483273e-14
1.4921875,6.888131728e-14,2.392450827e-13,1.433241499e-13,6.145965226e-13,3.498152794e-13,8.519085749e-14,2.677030462e-13,8.41835885e-13,4.262985782e-13,5.226437682e-13,6.659134011e-13,9.4301624e-14,2.159981098e-13,3.646089746e-13,2.634466862e-13,2.215913004e-13,2.458147448e-13,2.960667967e-13,1.898807731e-13,2.994658072e-13,9.252074021e-14,1.077734987e-13,2.08194405e-13,2.746726898e-13,1.881847879e-13,1.328165346e-13,3.156318998e-13,9.420006345e-14,1.035478305e-13,1.545558791e-13,2.004345821e-13,4.286139368e-14
1.5,6.920250896e-14,2.454405999e-13,1.474511951e-13,6.31161059e-13,3.461790338e-13,8.825352995e-14,2.822984663e-13,8.485563716e-13,4.256063589e-13,5.125374601e-13,6.591171896e-13,9.81484888e-14,2.100091042e-13,3.638374959e-13,2.686668742e-13,2.195636494e-13,2.398039267e-13,2.794851382e-13,1.79345431e-13,2.733684332e-13,9.608837686e-14,1.062869709e-13,2.137692348e-13,2.783666766e-13,1.874900747e-13,1.24957944e-13,3.054156193e-13,9.576409799e-14,1.065470504e-13,1.518853973e-13,2.051073454e-13,4.044224165e-14
1.5078125,7.02144678e-14,2.527054729e-13,1.518899912e-13,6.491526655e-13,3.447450686e-13,9.163984576e-14,2.994833926e-13,8.548979161e-13,4.23214803e-13,5.04955286e-13,6.490246108e-13,1.03165725e-13,2.033006008e-13,3.635330334e-13,2.732685307e-13,2.167950882e-13,2.335795279e-13,2.624904549e-13,1.691135303e-13,2.493144094e-13,1.003368656e-13,1.051919153e-13,2.199366383e-13,2.817385636e-13,1.863968192e-13,1.175753148e-13,2.975032936e-13,9.617115847e-14,1.10277996e-13,1.496448806e-13,2.12066044e-13,3.806761048e-14
1.515625,7.140592355e-14,2.6048515e-13,1.561181767e-13,6.674844245e-13,3.453346416e-13,9.513445482e-14,3.17262654e-13,8.601297143e-13,4.19412302e-13,4.997799768e-13,6.363113362e-13,1.087291621e-13,1.95086552e-13,3.616735829e-13,2.772602697e-13,2.130416045e-13,2.269084531e-13,2.448556746e-13,1.588713647e-13,2.273801341e-13,1.053396143e-13,1.043372856e-13,2.271410195e-13,2.847097123e-13,1.8466764e-13,1.110178232e-13,2.91601598e-13,9.621538357e-14,1.144808587e-13,1.473725358e-13,2.207620212e-13,3.588909059e-14
1.5234375,7.317171536e-14,2.690287836e-13,1.599808264e-13,6.864167742e-13,3.478777774e-13,9.863566423e-14,3.358380299e-13,8.649280345e-13,4.147584812e-13,4.97000485e-13,6.215017409e-13,1.143756517e-13,1.856420314e-13,3.591095829e-13,2.814200325e-13,2.091661745e-13,2.202672637e-13,2.273719393e-13,1.489550098e-13,2.07781641e-13,1.109097739e-13,1.03634959e-13,2.352361897e-13,2.882816438e-13,1.824324063e-13,1.051853133e-13,2.881289384e-13,9.632086728e-14,1.194231522e-13,1.451739579e-13,2.316743308e-13,3.403363353e-14
1.53125,7.525564512e-14,2.783959337e-13,1.636829355e-13,7.059932073e-13,3.516849873e-13,1.021915593e-13,3.553048092e-13,8.698804654e-13,4.092739552e-13,4.959309122e-13,6.051100377e-13,1.206816038e-13,1.763109189e-13,3.572562586e-13,2.85146645e-13,2.05320154e-13,2.137116492e-13,2.109830995e-13,1.397353232e-13,1.910835712e-13,1.168630648e-13,1.030538397e-13,2.439633008e-13,2.917950471e-13,1.80127003e-13,9.986397988e-14,2.866423299e-13,9.563517134e-14,1.24718536e-13,1.431705243e-13,2.451475932e-13,3.260245715e-14
1.5390625,7.742099853e-14,2.878201857e-13,1.672727342e-13,7.245432092e-13,3.565016124e-13,1.054575129e-13,3.750250263e-13,8.748681423e-13,4.024207371e-13,4.961547767e-13,5.879105837e-13,1.277107219e-13,1.669614639e-13,3.551101319e-13,2.880656241e-13,2.013465954e-13,2.072746972e-13,1.95700197e-13,1.315353655e-13,1.775515018e-13,1.233650293e-13,1.025201481e-13,2.535728651e-13,2.937309984e-13,1.778634217e-13,9.536795634e-14,2.866826201e-13,9.400581845e-14,1.30107413e-13,1.411611451e-13,2.609990187e-13,3.161400842e-14
1.546875,7.97857069e-14,2.974917019e-13,1.702951217e-13,7.425034449e-13,3.631038402e-13,1.08483406e-13,3.94365776e-13,8.788920699e-13,3.940106565e-13,4.976109735e-13,5.692910702e-13,1.351529024e-13,1.569359264e-13,3.522997354e-13,2.906899291e-13,1.981355471e-13,2.01450508e-13,1.814562366e-13,1.242771809e-13,1.671621959e-13,1.305715525e-13,1.019334379e-13,2.641620989e-13,2.949847299e-13,1.756605769e-13,9.200882193e-14,2.882414129e-13,9.17694446e-14,1.359611023e-13,1.393330756e-13,2.797131403e-13,3.102775388e-14
1.5546875,8.272441793e-14,3.087204893e-13,1.72384065e-13,7.623278817e-13,3.723175436e-13,1.119627263e-13,4.128914922e-13,8.80891006e-13,3.847160548e-13,5.004669958e-13,5.48297735e-13,1.434012158e-13,1.470059715e-13,3.49532087e-13,2.925686472e-13,1.960690819e-13,1.967379233e-13,1.686480724e-13,1.173992951e-13,1.593993167e-13,1.388652096e-13,1.014954022e-13,2.762597768e-13,2.958979297e-13,1.739109151e-13,8.966297866e-14,2.918962383e-13,8.958511572e-14,1.428214693e-13,1.378877729e-13,3.020406508e-13,3.093074678e-14
1.5625,8.688600009e-14,3.210570295e-13,1.742801123e-13,7.822053857e-13,3.82992125e-13,1.154724105e-13,4.309362183e-13,8.819147994e-13,3.745739341e-13,5.044347762e-13,5.270182953e-13,1.527797976e-13,1.376717294e-13,3.472126073e-13,2.932753749e-13,1.943498584e-13,1.926777958e-13,1.56686626e-13,1.109920153e-13,1.541234151e-13,1.482836243e-13,1.011823937e-13,2.902078205e-13,2.957974278e-13,1.72880813e-13,8.810480208e-14,2.974234697e-13,8.777125135e-14,1.508281785e-13,1.364177354e-13,3.271305014e-13,3.128853466e-14
1.5703125,9.1909859e-14,3.333837054e-13,1.763005905e-13,7.998023927e-13,3.938733913e-13,1.182685827e-13,4.474807201e-13,8.821040792e-13,3.629848419e-13,5.08536931e-13,5.065415369e-13,1.628021385e-13,1.28711582e-13,3.450720899e-13,2.928270851e-13,1.92521953e-13,1.885429197e-13,1.455600703e-13,1.056009552e-13,1.521310977e-13,1.584245117e-13,1.0053748e-13,3.049512779e-13,2.957693388e-13,1.726109918e-13,8.742413897e-14,3.035834549e-13,8.613589014e-14,1.589582712e-13,1.346339916e-13,3.538952312e-13,3.196845384e-14
1.578125,9.759234892e-14,3.463861395e-13,1.77233685e-13,8.168831251e-13,4.056498492e-13,1.205365257e-13,4.617152755e-13,8.805048497e-13,3.504603257e-13,5.129625236e-13,4.850480338e-13,1.728766622e-13,1.201776115e-13,3.420004326e-13,2.907426954e-13,1.907744439e-13,1.846719158e-13,1.362878482e-13,1.008670084e-13,1.533895956e-13,1.693979787e-13,9.983255143e-14,3.200149077e-13,2.954301156e-13,1.730576021e-13,8.770925476e-14,3.101619996e-13,8.517647135e-14,1.666955448e-13,1.331975693e-13,3.827627324e-13,3.295103488e-14
1.5859375,1.047991818e-13,3.609261929e-13,1.767180647e-13,8.347947817e-13,4.187433101e-13,1.227593366e-13,4.740919264e-13,8.778760612e-13,3.37310094e-13,5.18480396e-13,4.626783457e-13,1.83182774e-13,1.117307968e-13,3.382990904e-13,2.871983515e-13,1.894005023e-13,1.81632175e-13,1.283864773e-13,9.645711968e-14,1.571347209e-13,1.813613109e-13,9.941815715e-14,3.359194761e-13,2.933759892e-13,1.740068902e-13,8.872296422e-14,3.172537833e-13,8.540271594e-14,1.74717453e-13,1.323067743e-13,4.139924811e-13,3.417390749e-14
1.59375,1.1349865e-13,3.765253327e-13,1.758156718e-13,8.516271164e-13,4.322368597e-13,1.249170383e-13,4.840651994e-13,8.748487305e-13,3.228715432e-13,5.246512999e-13,4.407823132e-13,1.943280617e-13,1.035277401e-13,3.357571078e-13,2.831038744e-13,1.886775343e-13,1.795076528e-13,1.212928052e-13,9.265087932e-14,1.636705551e-13,1.945844931e-13,9.881915497e-14,3.525509861e-13,2.907518817e-13,1.758062057e-13,9.044791059e-14,3.244507945e-13,8.656090687e-14,1.830726068e-13,1.314601419e-13,4.47127021e-13,3.574296266e-14
1.6015625,1.234943637e-13,3.922595703e-13,1.746601343e-13,8.645658749e-13,4.446668386e-13,1.262803497e-13,4.902945753e-13,8.718737677e-13,3.077658993e-13,5.310730507e-13,4.196069819e-13,2.061177589e-13,9.650258575e-14,3.340063428e-13,2.783342405e-13,1.883361703e-13,1.781868312e-13,1.155358908e-13,8.92098037e-14,1.73048589e-13,2.091290294e-13,9.789547031e-14,3.694484911e-13,2.875181412e-13,1.786995519e-13,9.288022271e-14,3.314562597e-13,8.837232452e-14,1.913999582e-13,1.309790599e-13,4.81318411e-13,3.77899219e-14
1.609375,1.355280122e-13,4.084237794e-13,1.723701887e-13,8.745928061e-13,4.558968273e-13,1.269546019e-13,4.922960473e-13,8.694917836e-13,2.935659019e-13,5.383963891e-13,3.994082153e-13,2.17573796e-13,9.053796109e-14,3.314165641e-13,2.724514319e-13,1.878404759e-13,1.77207686e-13,1.110382078e-13,8.592151307e-14,1.846863934e-13,2.243410687e-13,9.710674399e-14,3.861793368e-13,2.830670304e-13,1.821256392e-13,9.566837237e-14,3.381256253e-13,9.173645832e-14,1.992668582e-13,1.310393268e-13,5.158956074e-13,4.025451974e-14
1.6171875,1.499275186e-13,4.260329132e-13,1.686336169e-13,8.840117577e-13,4.670940605e-13,1.275867455e-13,4.914619762e-13,8.674462292e-13,2.802460673e-13,5.475284178e-13,3.802766282e-13,2.286651772e-13,8.512304267e-14,3.290499233e-13,2.661812952e-13,1.874928663e-13,1.763815922e-13,1.076519394e-13,8.329235108e-14,1.991880125e-13,2.401829475e-13,9.675416108e-14,4.025461802e-13,2.782330341e-13,1.859577424e-13,9.88541421e-14,3.449020787e-13,9.788365215e-14,2.066751006e-13,1.313487781e-13,5.518394821e-13,4.308988766e-14
1.625,1.665077342e-13,4.446889092e-13,1.646384716e-13,8.909998656e-13,4.776795258e-13,1.274038441e-13,4.879566862e-13,8.650943505e-13,2.662718867e-13,5.583363562e-13,3.617312049e-13,2.39994023e-13,8.037934371e-14,3.284420915e-13,2.597235759e-13,1.874043173e-13,1.759149564e-13,1.057767553e-13,8.139632098e-14,2.171313468e-13,2.569624344e-13,9.662987024e-14,4.189718235e-13,2.721388301e-13,1.904936504e-13,1.026027574e-13,3.513693816e-13,1.063730094e-13,2.140708155e-13,1.321329901e-13,5.893933585e-13,4.607114416e-14
1.6328125,1.85148698e-13,4.636642992e-13,1.609459288e-13,8.945165844e-13,4.871239745e-13,1.259272704e-13,4.81127774e-13,8.61683191e-13,2.515879254e-13,5.702666151e-13,3.432245616e-13,2.506193463e-13,7.673203073e-14,3.283113286e-13,2.521844183e-13,1.868628004e-13,1.756183226e-13,1.055093627e-13,7.991912233e-14,2.37464789e-13,2.745740221e-13,9.632853005e-14,4.35815385e-13,2.654030203e-13,1.958446198e-13,1.066480114e-13,3.565707617e-13,1.165017436e-13,2.206970704e-13,1.334542471e-13,6.273225007e-13,4.916726043e-14
1.640625,2.05935049e-13,4.83420592e-13,1.558137172e-13,8.962565803e-13,4.962758358e-13,1.238597632e-13,4.71828452e-13,8.583192486e-13,2.37949573e-13,5.839251764e-13,3.251273966e-13,2.595308179e-13,7.448365476e-14,3.276341737e-13,2.436795302e-13,1.859140242e-13,1.755714394e-13,1.064302019e-13,7.895174573e-14,2.590388743e-13,2.92698217e-13,9.611761037e-14,4.527667606e-13,2.59080655e-13,2.018263239e-13,1.107202067e-13,3.615692609e-13,1.285850964e-13,2.262641021e-13,1.351719662e-13,6.655161448e-13,5.273642907e-14
1.6484375,2.290840637e-13,5.039549031e-13,1.49289737e-13,8.963235742e-13,5.042924093e-13,1.21149292e-13,4.599085596e-13,8.561242751e-13,2.254047733e-13,5.9929722e-13,3.081495453e-13,2.676190769e-13,7.330750053e-14,3.271510722e-13,2.348186706e-13,1.846346953e-13,1.758052072e-13,1.083072356e-13,7.840728073e-14,2.823454807e-13,3.107574597e-13,9.635962203e-14,4.693518869e-13,2.512753579e-13,2.08183885e-13,1.145236004e-13,3.662302935e-13,1.430433305e-13,2.314013987e-13,1.37266345e-13,7.035625992e-13,5.662506966e-14
1.65625,2.545385688e-13,5.244864134e-13,1.426834631e-13,8.941982561e-13,5.102759037e-13,1.175858042e-13,4.458568043e-13,8.536257641e-13,2.128079068e-13,6.150496405e-13,2.916038417e-13,2.75262101e-13,7.344479848e-14,3.274033248e-13,2.251680266e-13,1.821580651e-13,1.754229819e-13,1.116946283e-13,7.810286308e-14,3.075847361e-13,3.285383194e-13,9.677613633e-14,4.853793548e-13,2.428760055e-13,2.15140661e-13,1.178850704e-13,3.683148136e-13,1.600927139e-13,2.352944222e-13,1.394714261e-13,7.404427279e-13,6.038368227e-14
1.6640625,2.821991136e-13,5.450987145e-13,1.352443535e-13,8.900862345e-13,5.147295336e-13,1.135894947e-13,4.30333467e-13,8.499911813e-13,2.006498448e-13,6.306545465e-13,2.751328077e-13,2.81556842e-13,7.577729701e-14,3.28474701e-13,2.142985566e-13,1.784096486e-13,1.743248236e-13,1.166789359e-13,7.819647806e-14,3.339302132e-13,3.461539667e-13,9.741111546e-14,5.004021261e-13,2.358450935e-13,2.225231517e-13,1.209940282e-13,3.687174453e-13,1.793473417e-13,2.374470075e-13,1.415100155e-13,7.759084741e-13,6.400806677e-14
1.671875,3.121172099e-13,5.662629743e-13,1.270084245e-13,8.843436735e-13,5.17804941e-13,1.094977001e-13,4.1253705e-13,8.451585761e-13,1.893017657e-13,6.461624968e-13,2.596724938e-13,2.865481594e-13,7.99390116e-14,3.303262038e-13,2.029384573e-13,1.741503965e-13,1.733704955e-13,1.225935811e-13,7.885429128e-14,3.620029085e-13,3.63616885e-13,9.846403083e-14,5.140482395e-13,2.292178438e-13,2.298109678e-13,1.237891224e-13,3.693181712e-13,2.005040021e-13,2.386123844e-13,1.432866909e-13,8.098747581e-13,6.762779745e-14
1.6796875,3.443057926e-13,5.872865817e-13,1.186610699e-13,8.758971865e-13,5.188990307e-13,1.05218052e-13,3.93387954e-13,8.388475941e-13,1.780191197e-13,6.610828434e-13,2.453757432e-13,2.907100998e-13,8.492981376e-14,3.334209371e-13,1.920764555e-13,1.695744153e-13,1.725849227e-13,1.297599619e-13,7.986673939e-14,3.919288754e-13,3.803935319e-13,9.969785456e-14,5.263242894e-13,2.228411221e-13,2.369108132e-13,1.259753916e-13,3.686978829e-13,2.239443816e-13,2.389602874e-13,1.447551121e-13,8.420797524e-13,7.128053577e-14
1.6875,3.782163182e-13,6.070205492e-13,1.101169128e-13,8.634357993e-13,5.170221208e-13,1.003518461e-13,3.745576463e-13,8.312929777e-13,1.667740862e-13,6.747166141e-13,2.319026767e-13,2.935306578e-13,9.085235185e-14,3.379051703e-13,1.818098967e-13,1.644588504e-13,1.716857632e-13,1.385946381e-13,8.088726431e-14,4.226066121e-13,3.955180971e-13,1.012881556e-13,5.364291691e-13,2.173289909e-13,2.435568982e-13,1.274545222e-13,3.657718222e-13,2.492469139e-13,2.381191414e-13,1.458748811e-13,8.713718851e-13,7.493298425e-14
1.6953125,4.1289059e-13,6.256212763e-13,1.016441856e-13,8.493256071e-13,5.131503357e-13,9.52475544e-14,3.563829343e-13,8.218651262e-13,1.561424371e-13,6.870391167e-13,2.191558201e-13,2.94575035e-13,9.885902455e-14,3.437473271e-13,1.718049338e-13,1.588445453e-13,1.708025516e-13,1.486501373e-13,8.236416888e-14,4.54624994e-13,4.091192673e-13,1.037277675e-13,5.437947598e-13,2.12345983e-13,2.500335037e-13,1.281932305e-13,3.618295919e-13,2.753755139e-13,2.358697218e-13,1.467210297e-13,8.974625187e-13,7.860921933e-14
1.703125,4.483313008e-13,6.437507977e-13,9.354753395e-14,8.35194199e-13,5.088902139e-13,9.047726836e-14,3.384925837e-13,8.102675632e-13,1.463362682e-13,6.980861014e-13,2.070401218e-13,2.944597968e-13,1.094418913e-13,3.523424894e-13,1.621831314e-13,1.531229726e-13,1.700457633e-13,1.602038511e-13,8.470958388e-14,4.877468752e-13,4.21339107e-13,1.069586789e-13,5.489713735e-13,2.076758047e-13,2.569255732e-13,1.282217274e-13,3.572523922e-13,3.021665894e-13,2.32659713e-13,1.47375476e-13,9.213454829e-13,8.233236682e-14
1.7109375,4.844579049e-13,6.608866384e-13,8.615059379e-14,8.194032847e-13,5.035857971e-13,8.585070945e-14,3.220364462e-13,7.9707326e-13,1.370810375e-13,7.070781624e-13,1.958298508e-13,2.93821114e-13,1.217098699e-13,3.64237453e-13,1.534672332e-13,1.473573724e-13,1.693555036e-13,1.73682504e-13,8.767340111e-14,5.198094779e-13,4.313613043e-13,1.105605751e-13,5.518684089e-13,2.035853635e-13,2.639582686e-13,1.275457312e-13,3.507135958e-13,3.294163584e-13,2.285998877e-13,1.474498037e-13,9.423263038e-13,8.594346084e-14
1.71875,5.201320927e-13,6.76283314e-13,7.934989323e-14,8.022787692e-13,4.970914312e-13,8.120761811e-14,3.082740248e-13,7.822261374e-13,1.282597248e-13,7.139699753e-13,1.858545226e-13,2.922468553e-13,1.350477263e-13,3.786124764e-13,1.457552035e-13,1.411653183e-13,1.682620563e-13,1.882456386e-13,9.143609361e-14,5.506367579e-13,4.393667503e-13,1.146099211e-13,5.523868288e-13,2.001200316e-13,2.711504195e-13,1.261320639e-13,3.423854399e-13,3.559694337e-13,2.229139748e-13,1.467565436e-13,9.600228225e-13,8.954062101e-14
1.7265625,5.552425602e-13,6.901438899e-13,7.310946125e-14,7.853648622e-13,4.899809399e-13,7.664257991e-14,2.964077241e-13,7.660833887e-13,1.202917219e-13,7.193292826e-13,1.772022097e-13,2.89315824e-13,1.49694928e-13,3.952354399e-13,1.387970973e-13,1.346989223e-13,1.665468192e-13,2.031249496e-13,9.607885493e-14,5.814249391e-13,4.457501305e-13,1.195509851e-13,5.510192554e-13,1.969263048e-13,2.784999682e-13,1.239509822e-13,3.33950986e-13,3.816083943e-13,2.158908074e-13,1.458058188e-13,9.750477217e-13,9.326555905e-14
1.734375,5.900040158e-13,7.029678581e-13,6.804422908e-14,7.691332111e-13,4.823865447e-13,7.258201707e-14,2.866012248e-13,7.487602596e-13,1.131906292e-13,7.226747671e-13,1.695862015e-13,2.860352229e-13,1.658172406e-13,4.144381556e-13,1.328063828e-13,1.285219067e-13,1.648889384e-13,2.189294367e-13,1.015101307e-13,6.113217613e-13,4.501458864e-13,1.252195067e-13,5.474715209e-13,1.939894911e-13,2.855989372e-13,1.210179363e-13,3.252319331e-13,4.071792928e-13,2.084591051e-13,1.446749761e-13,9.870988953e-13,9.685338214e-14
1.7421875,6.230236979e-13,7.142406295e-13,6.417311695e-14,7.527327387e-13,4.744716608e-13,6.930914389e-14,2.781616995e-13,7.295293558e-13,1.067283719e-13,7.231390936e-13,1.626754803e-13,2.835591681e-13,1.833685989e-13,4.369128444e-13,1.277977654e-13,1.22452937e-13,1.632864362e-13,2.363373012e-13,1.078332321e-13,6.38408076e-13,4.523874315e-13,1.31297433e-13,5.413790057e-13,1.916234436e-13,2.927062283e-13,1.176325301e-13,3.153845567e-13,4.316221786e-13,2.006692875e-13,1.43173535e-13,9.961417703e-13,1.003134432e-13
1.75,6.531687002e-13,7.229059903e-13,6.116695483e-14,7.348927725e-13,4.659161198e-13,6.650417268e-14,2.703662836e-13,7.083835728e-13,1.010653357e-13,7.204802691e-13,1.568112449e-13,2.81579791e-13,2.025464544e-13,4.623958123e-13,1.233730738e-13,1.161424878e-13,1.610709649e-13,2.546922437e-13,1.14899254e-13,6.632112673e-13,4.523502772e-13,1.37920967e-13,5.329470033e-13,1.900074618e-13,2.997430256e-13,1.139468949e-13,3.052581906e-13,4.533890783e-13,1.923666695e-13,1.414888158e-13,1.001729815e-12,1.040268015e-13
1.7578125,6.806341142e-13,7.299022555e-13,5.892725405e-14,7.172871186e-13,4.57431822e-13,6.419608484e-14,2.655221389e-13,6.857739907e-13,9.622197687e-14,7.153026163e-13,1.521235108e-13,2.797746507e-13,2.234379101e-13,4.902028575e-13,1.196299466e-13,1.101977673e-13,1.588322488e-13,2.735024988e-13,1.229442269e-13,6.873476763e-13,4.504323652e-13,1.451218509e-13,5.224343939e-13,1.892848337e-13,3.060637239e-13,1.099453452e-13,2.953979326e-13,4.735271417e-13,1.836996065e-13,1.398814964e-13,1.004117988e-12,1.079480639e-13
1.765625,7.054496817e-13,7.36591652e-13,5.772820924e-14,7.017231964e-13,4.497962983e-13,6.258260877e-14,2.636253619e-13,6.619771777e-13,9.236698223e-14,7.07670076e-13,1.47827378e-13,2.788464149e-13,2.454992108e-13,5.206839291e-13,1.167736959e-13,1.050397342e-13,1.571481607e-13,2.934275827e-13,1.321960554e-13,7.097921727e-13,4.467792026e-13,1.528741993e-13,5.10107056e-13,1.893533254e-13,3.114890325e-13,1.057986351e-13,2.851658605e-13,4.926267916e-13,1.749474564e-13,1.386726024e-13,1.004835943e-12,1.118435004e-13
1.7734375,7.272265509e-13,7.420056182e-13,5.764397786e-14,6.874469395e-13,4.425866969e-13,6.167294114e-14,2.630268059e-13,6.368380502e-13,8.962573006e-14,6.966442085e-13,1.435841782e-13,2.791720626e-13,2.684596063e-13,5.538453976e-13,1.145677522e-13,1.003253576e-13,1.556349483e-13,3.144477551e-13,1.422983794e-13,7.293737795e-13,4.405978835e-13,1.611529594e-13,4.961960367e-13,1.898145309e-13,3.161269496e-13,1.015884337e-13,2.748350906e-13,5.090123483e-13,1.662326846e-13,1.378701793e-13,1.003341407e-12,1.158063111e-13
1.78125,7.45497782e-13,7.45210957e-13,5.834455229e-14,6.740198905e-13,4.357099178e-13,6.155762431e-14,2.635010548e-13,6.106642137e-13,8.755166902e-14,6.826586252e-13,1.401539439e-13,2.805245271e-13,2.920727602e-13,5.892114383e-13,1.128438016e-13,9.612768784e-14,1.545042536e-13,3.355735809e-13,1.527954857e-13,7.466723376e-13,4.320308678e-13,1.694074832e-13,4.811905705e-13,1.906822003e-13,3.200033053e-13,9.730048183e-14,2.650084125e-13,5.219576241e-13,1.575021896e-13,1.373482834e-13,9.984456335e-13,1.198160864e-13
1.7890625,7.593592371e-13,7.461166301e-13,5.995378346e-14,6.607140907e-13,4.285755315e-13,6.220870113e-14,2.648895112e-13,5.847090409e-13,8.596960084e-14,6.664473338e-13,1.37739761e-13,2.829306264e-13,3.154753123e-13,6.267304226e-13,1.117428772e-13,9.268931579e-14,1.539822758e-13,3.563723985e-13,1.634316864e-13,7.605606972e-13,4.213889602e-13,1.769038946e-13,4.652744308e-13,1.919256635e-13,3.227055871e-13,9.293306821e-14,2.551889385e-13,5.316949867e-13,1.487494882e-13,1.371927004e-13,9.898833191e-13,1.236780644e-13
1.796875,7.685681118e-13,7.447395547e-13,6.278260755e-14,6.469284994e-13,4.208331533e-13,6.374238331e-14,2.676613789e-13,5.589432025e-13,8.500765806e-14,6.473060887e-13,1.357846067e-13,2.870782545e-13,3.384385599e-13,6.674275909e-13,1.11105942e-13,9.006376197e-14,1.538755771e-13,3.771414876e-13,1.743736759e-13,7.693917928e-13,4.084920415e-13,1.834715906e-13,4.480744152e-13,1.93514337e-13,3.240162932e-13,8.871572477e-14,2.45635389e-13,5.379017806e-13,1.400931155e-13,1.375867486e-13,9.777056659e-13,1.272170961e-13
1.8046875,7.738974476e-13,7.41893212e-13,6.717047714e-14,6.340665566e-13,4.132351316e-13,6.638578087e-14,2.715543924e-13,5.32692025e-13,8.470341214e-14,6.253418669e-13,1.343635261e-13,2.939300526e-13,3.610738871e-13,7.126288501e-13,1.106600011e-13,8.849328467e-14,1.544438075e-13,3.980742453e-13,1.855463194e-13,7.737925521e-13,3.940333701e-13,1.893460471e-13,4.300561578e-13,1.962793571e-13,3.243839686e-13,8.486101977e-14,2.367938463e-13,5.408416448e-13,1.31749136e-13,1.387530747e-13,9.628926026e-13,1.302027244e-13
