"Time","Fp1","AF3","F7","F3","FC1","FC5","T7","C3","CP1","CP5","P7","P3","Pz","PO3","O1","Oz","O2","PO4","P4","P8","CP6","CP2","C4","T8","FC6","FC2","F4","F8","AF4","Fp2","Fz","Cz"
0.0078125,1.045860677e-13,4.177232948e-13,3.935571254e-13,2.186746637e-13,4.738969898e-15,9.029021178e-14,2.85723542e-14,4.75653067e-14,8.907916532e-14,7.265221034e-14,2.939361219e-13,1.347053633e-13,8.422874586e-14,1.328105161e-13,6.831279658e-14,4.033557592e-14,4.147400462e-14,1.863387485e-14,3.609787843e-14,1.664409485e-13,2.589661534e-14,3.65549408e-14,3.491960916e-14,5.611961145e-14,1.146353739e-14,1.482015737e-14,6.083663723e-14,3.334314493e-14,3.264440583e-13,1.266272701e-13,2.756634827e-14,3.458033454e-14
0.015625,1.173435348e-13,4.632634653e-13,4.422347535e-13,2.28834942e-13,5.528757651e-15,1.064233525e-13,2.778044177e-14,5.31429863e-14,9.921869509e-14,8.537509514e-14,3.367036612e-13,1.470026354e-13,9.02472767e-14,1.497345542e-13,7.757891535e-14,4.926912351e-14,4.746589217e-14,2.079220199e-14,3.846751813e-14,1.914623359e-13,2.753350263e-14,3.774023572e-14,3.654285479e-14,5.88469754e-14,1.343126249e-14,1.673073111e-14,5.734849605e-14,3.960694353e-14,3.162319196e-13,1.32069613e-13,3.038916276e-14,3.855853705e-14
0.0234375,1.267742332e-13,5.014217076e-13,4.797880139e-13,2.350270675e-13,6.467066615e-15,1.229238123e-13,2.71883667e-14,5.711536966e-14,1.079952714e-13,9.624930887e-14,3.718915614e-13,1.561594525e-13,9.558640769e-14,1.640279348e-13,8.543733342e-14,5.89971613e-14,5.325154837e-14,2.307545426e-14,3.931822206e-14,2.141903854e-13,2.826110901e-14,3.831990512e-14,3.697826551e-14,6.020051197e-14,1.541079875e-14,1.860302853e-14,5.250829878e-14,4.660057637e-14,2.947839381e-13,1.346020102e-13,3.24895429e-14,4.26174445e-14
0.03125,1.319797616e-13,5.303452914e-13,5.027023939e-13,2.376373105e-13,7.580890326e-15,1.383038481e-13,2.702108393e-14,5.919978148e-14,1.146383855e-13,1.041987813e-13,3.966174526e-13,1.613396697e-13,1.00360941e-13,1.747109611e-13,9.1534759e-14,6.96180487e-14,5.877295747e-14,2.572295865e-14,3.886949636e-14,2.327507253e-13,2.823882522e-14,3.850599505e-14,3.617930713e-14,6.026591999e-14,1.758632816e-14,2.034621019e-14,4.760795587e-14,5.467823603e-14,2.668081476e-13,1.345818737e-13,3.374008665e-14,4.675335647e-14
0.0390625,1.336537038e-13,5.491528372e-13,5.109427008e-13,2.365940315e-13,8.867301379e-15,1.522832334e-13,2.727349654e-14,5.945852362e-14,1.193508077e-13,1.088294126e-13,4.086180703e-13,1.629183722e-13,1.048943583e-13,1.817659599e-13,9.586138803e-14,8.100149912e-14,6.368954591e-14,2.875777176e-14,3.740156639e-14,2.451342361e-13,2.74096413e-14,3.877112322e-14,3.442888456e-14,5.972073465e-14,1.960471377e-14,2.179843053e-14,4.317402809e-14,6.403019958e-14,2.352933128e-13,1.331560521e-13,3.395447191e-14,5.101973503e-14
0.046875,1.321492021e-13,5.582303271e-13,5.05492773e-13,2.323945582e-13,1.028767046e-14,1.644425544e-13,2.787740834e-14,5.829144209e-14,1.222948062e-13,1.098637431e-13,4.062478309e-13,1.611125754e-13,1.093522509e-13,1.848476287e-13,9.851309005e-14,9.303007622e-14,6.792083275e-14,3.224943548e-14,3.531370302e-14,2.503170784e-13,2.609679943e-14,3.938550499e-14,3.211341806e-14,5.951819066e-14,2.155107564e-14,2.295806471e-14,4.011833236e-14,7.478280841e-14,2.051647336e-13,1.314742705e-13,3.315101553e-14,5.565361052e-14
0.0546875,1.281766109e-13,5.601554975e-13,4.883880941e-13,2.268765008e-13,1.191107489e-14,1.749333757e-13,2.910479567e-14,5.600419087e-14,1.238854196e-13,1.077797419e-13,3.924859471e-13,1.56388029e-13,1.137633356e-13,1.847105052e-13,1.006881576e-13,1.056368043e-13,7.179376679e-14,3.648645956e-14,3.325717038e-14,2.477057924e-13,2.44335642e-14,4.071976985e-14,2.961705963e-14,5.99957351e-14,2.346392114e-14,2.386799556e-14,3.871094025e-14,8.725752186e-14,1.79433096e-13,1.321796955e-13,3.20455088e-14,6.064333329e-14
0.0625,1.235701475e-13,5.588545315e-13,4.644060673e-13,2.213492309e-13,1.379627235e-14,1.848446345e-13,3.104191519e-14,5.301058882e-14,1.25002534e-13,1.037208986e-13,3.717431381e-13,1.498537452e-13,1.183519239e-13,1.832268585e-13,1.04036762e-13,1.188881151e-13,7.490702872e-14,4.143404466e-14,3.178021601e-14,2.373067909e-13,2.261491765e-14,4.31145763e-14,2.742393793e-14,6.179353961e-14,2.535294494e-14,2.440172458e-14,3.923937982e-14,1.018397641e-13,1.606302667e-13,1.368998352e-13,3.111586852e-14,6.595109856e-14
0.0703125,1.192947587e-13,5.571962668e-13,4.376441112e-13,2.175833244e-13,1.595826678e-14,1.9524981e-13,3.380824894e-14,4.972087814e-14,1.263814825e-13,9.877967552e-14,3.470190324e-13,1.428281065e-13,1.230296424e-13,1.812783991e-13,1.092978645e-13,1.321821152e-13,7.721102399e-14,4.67355101e-14,3.115877164e-14,2.202300701e-13,2.08712279e-14,4.657911318e-14,2.557813058e-14,6.509923701e-14,2.701419528e-14,2.455606815e-14,4.174721034e-14,1.18558174e-13,1.492316497e-13,1.456275801e-13,3.042379588e-14,7.156413206e-14
0.078125,1.15950393e-13,5.584636277e-13,4.121061371e-13,2.162547435e-13,1.843736471e-14,2.055546637e-13,3.690532981e-14,4.690394037e-14,1.286102712e-13,9.34323872e-14,3.198523147e-13,1.365108726e-13,1.276888502e-13,1.792481626e-13,1.171624339e-13,1.452689739e-13,7.939340832e-14,5.21657951e-14,3.181405418e-14,1.985843715e-13,1.949942032e-14,5.109658067e-14,2.42317404e-14,7.006183805e-14,2.84338335e-14,2.450715598e-14,4.574478786e-14,1.371517802e-13,1.450810259e-13,1.58309757e-13,3.011553424e-14,7.758155876e-14
0.0859375,1.142765974e-13,5.642380422e-13,3.91984369e-13,2.179518164e-13,2.131014856e-14,2.158969309e-13,4.048442186e-14,4.503695309e-14,1.322542728e-13,8.794518739e-14,2.910294757e-13,1.316893192e-13,1.321741563e-13,1.772922876e-13,1.276238922e-13,1.569513655e-13,8.122845753e-14,5.728750817e-14,3.375930672e-14,1.755235035e-13,1.873934197e-14,5.661922519e-14,2.332443884e-14,7.704765806e-14,2.961945277e-14,2.442815616e-14,5.087995388e-14,1.576408756e-13,1.468039087e-13,1.744119888e-13,3.001011106e-14,8.429500068e-14
0.09375,1.146020911e-13,5.748221981e-13,3.805925873e-13,2.2291332e-13,2.464080471e-14,2.264365973e-13,4.474681002e-14,4.458795893e-14,1.375490141e-13,8.316415444e-14,2.634431261e-13,1.289828253e-13,1.363155758e-13,1.763568578e-13,1.405804266e-13,1.66490122e-13,8.234704843e-14,6.172047693e-14,3.646905996e-14,1.527102875e-13,1.861436839e-14,6.280484862e-14,2.284051277e-14,8.613261929e-14,3.05438318e-14,2.436334583e-14,5.618579757e-14,1.793756677e-13,1.517531258e-13,1.925109839e-13,3.014738059e-14,9.177067486e-14
0.1015625,1.16723509e-13,5.877920109e-13,3.76961981e-13,2.305334721e-13,2.854518444e-14,2.362887524e-13,5.033953474e-14,4.54414055e-14,1.441522152e-13,7.91203323e-14,2.3890121e-13,1.279613854e-13,1.395299768e-13,1.762891842e-13,1.548151564e-13,1.730768555e-13,8.288418516e-14,6.53546909e-14,3.958537727e-14,1.314953904e-13,1.901956013e-14,6.940147787e-14,2.289669034e-14,9.668610496e-14,3.132700794e-14,2.437918719e-14,6.152699763e-14,2.013649031e-13,1.582232958e-13,2.114912423e-13,3.064466961e-14,9.956364448e-14
0.109375,1.207617132e-13,6.015356798e-13,3.808471759e-13,2.401188879e-13,3.294503313e-14,2.448203245e-13,5.673747049e-14,4.750347278e-14,1.516470049e-13,7.566679329e-14,2.18151795e-13,1.28572476e-13,1.413998174e-13,1.773451324e-13,1.698681483e-13,1.769649189e-13,8.324985473e-14,6.797937473e-14,4.264609075e-14,1.138839585e-13,1.986102431e-14,7.599777407e-14,2.351694862e-14,1.084449844e-13,3.217399093e-14,2.462360462e-14,6.649391492e-14,2.232562053e-13,1.645956232e-13,2.297040281e-13,3.146370653e-14,1.06817786e-13
0.1171875,1.266860702e-13,6.146927924e-13,3.909456003e-13,2.491636259e-13,3.750109817e-14,2.51530464e-13,6.333151639e-14,5.068120484e-14,1.596867054e-13,7.272219136e-14,2.003181218e-13,1.305146128e-13,1.419091922e-13,1.791199836e-13,1.844124963e-13,1.786894361e-13,8.366385077e-14,6.955657006e-14,4.539592054e-14,1.002550304e-13,2.096734729e-14,8.236247961e-14,2.458192258e-14,1.213078395e-13,3.337273799e-14,2.487753588e-14,7.052874754e-14,2.456223315e-13,1.689449621e-13,2.457501721e-13,3.207287624e-14,1.131863851e-13
0.125,1.337898083e-13,6.270492135e-13,4.055406353e-13,2.559626147e-13,4.218803409e-14,2.544769211e-13,7.023463998e-14,5.504554125e-14,1.676695285e-13,7.039547945e-14,1.861768262e-13,1.332941914e-13,1.412704321e-13,1.811412156e-13,1.975432716e-13,1.786944166e-13,8.427780416e-14,7.017769715e-14,4.777016258e-14,8.981363077e-14,2.215268141e-14,8.821048628e-14,2.620056985e-14,1.348448298e-13,3.524706061e-14,2.509584822e-14,7.349253693e-14,2.684947563e-13,1.702639123e-13,2.591148554e-13,3.219503234e-14,1.187484433e-13
0.1328125,1.415509571e-13,6.364760112e-13,4.215192157e-13,2.588744071e-13,4.693087206e-14,2.539000219e-13,7.77271765e-14,6.049233732e-14,1.74734298e-13,6.876981355e-14,1.762911641e-13,1.362818943e-13,1.392254764e-13,1.829682681e-13,2.081940836e-13,1.768942929e-13,8.498655226e-14,6.997658857e-14,4.967699304e-14,8.256111947e-14,2.329685641e-14,9.32640813e-14,2.868501317e-14,1.483728138e-13,3.805502679e-14,2.540743527e-14,7.584688253e-14,2.915547492e-13,1.690830925e-13,2.700499987e-13,3.216907821e-14,1.229258112e-13
0.140625,1.496360847e-13,6.431457219e-13,4.365564556e-13,2.570513694e-13,5.149278563e-14,2.496940127e-13,8.574520816e-14,6.666317924e-14,1.801389277e-13,6.769812368e-14,1.706908686e-13,1.386454709e-13,1.350719643e-13,1.839858641e-13,2.153235285e-13,1.735623415e-13,8.579480609e-14,6.921654297e-14,5.11462255e-14,7.813285e-14,2.430970899e-14,9.71670251e-14,3.218898989e-14,1.614079324e-13,4.129742982e-14,2.596906177e-14,7.745909712e-14,3.127291051e-13,1.637855017e-13,2.784944625e-13,3.232533455e-14,1.251606693e-13
0.1484375,1.570241685e-13,6.464576229e-13,4.462496304e-13,2.517240031e-13,5.554246861e-14,2.434631528e-13,9.350830307e-14,7.279386252e-14,1.834879449e-13,6.670805526e-14,1.681450031e-13,1.401238087e-13,1.297679589e-13,1.838517195e-13,2.18676738e-13,1.692885574e-13,8.649394839e-14,6.798544431e-14,5.255077898e-14,7.628549228e-14,2.513224123e-14,1.00510779e-13,3.649137672e-14,1.726515461e-13,4.447987013e-14,2.677775071e-14,7.895188278e-14,3.313006968e-13,1.580860912e-13,2.849151025e-13,3.294407826e-14,1.255544934e-13
0.15625,1.632583284e-13,6.439091078e-13,4.4953469e-13,2.414330379e-13,5.853802895e-14,2.351024568e-13,1.0083313e-13,7.858199137e-14,1.838591785e-13,6.553876786e-14,1.675047484e-13,1.397244249e-13,1.231205497e-13,1.818781919e-13,2.183826491e-13,1.638550242e-13,8.647865346e-14,6.634625806e-14,5.372753413e-14,7.604730401e-14,2.566291594e-14,1.027243047e-13,4.122022885e-14,1.814045837e-13,4.684313753e-14,2.780691808e-14,8.019300563e-14,3.444847758e-13,1.500504814e-13,2.87681721e-13,3.370166099e-14,1.237569921e-13
0.1640625,1.67511615e-13,6.338480165e-13,4.445360434e-13,2.270750675e-13,6.050759521e-14,2.271220721e-13,1.076082012e-13,8.367273657e-14,1.805667784e-13,6.360079733e-14,1.668546091e-13,1.357833612e-13,1.145800891e-13,1.770003537e-13,2.139362652e-13,1.565644821e-13,8.532000085e-14,6.459728331e-14,5.479057875e-14,7.681373036e-14,2.593582853e-14,1.03574056e-13,4.637198886e-14,1.870331242e-13,4.7961902e-14,2.913691369e-14,8.076587946e-14,3.514837565e-13,1.389477037e-13,2.866370503e-13,3.470981699e-14,1.199635437e-13
0.171875,1.699372768e-13,6.161466361e-13,4.331619727e-13,2.124167078e-13,6.16736238e-14,2.206940898e-13,1.140213957e-13,8.738160922e-14,1.740804469e-13,6.045985588e-14,1.653647354e-13,1.287454669e-13,1.049772501e-13,1.696316116e-13,2.059888039e-13,1.477607673e-13,8.318415725e-14,6.292944448e-14,5.575418921e-14,7.763437582e-14,2.598823971e-14,1.033513826e-13,5.159314118e-14,1.893585266e-13,4.710024887e-14,3.089460568e-14,8.12801275e-14,3.512518025e-13,1.263805248e-13,2.816141238e-13,3.647857885e-14,1.1470643e-13
0.1796875,1.703023673e-13,5.883399338e-13,4.149555198e-13,1.977088484e-13,6.217860332e-14,2.160528526e-13,1.198249752e-13,8.982134693e-14,1.646619364e-13,5.60948612e-14,1.611706063e-13,1.184222866e-13,9.466392813e-14,1.590575521e-13,1.938050327e-13,1.370378627e-13,7.892162737e-14,6.102770005e-14,5.656612413e-14,7.733428455e-14,2.586653344e-14,1.024104315e-13,5.676475926e-14,1.887415774e-13,4.392204489e-14,3.304141145e-14,8.039008884e-14,3.431631908e-13,1.115696383e-13,2.718038001e-13,3.931088637e-14,1.082404254e-13
0.1875,1.687215932e-13,5.53068304e-13,3.903200467e-13,1.841070377e-13,6.177776613e-14,2.129722251e-13,1.245171509e-13,9.093417272e-14,1.534525697e-13,5.076165107e-14,1.544076619e-13,1.058269043e-13,8.466591852e-14,1.463258093e-13,1.786779279e-13,1.248403425e-13,7.273514207e-14,5.916837194e-14,5.736747154e-14,7.659779397e-14,2.561037741e-14,1.01447389e-13,6.165215683e-14,1.851586073e-13,3.924997665e-14,3.543720052e-14,7.800929905e-14,3.289199201e-13,9.621690823e-14,2.593006824e-13,4.284503416e-14,1.014389891e-13
0.1953125,1.65920691e-13,5.13451469e-13,3.640750888e-13,1.717308047e-13,6.027299875e-14,2.125582012e-13,1.273080305e-13,9.095800851e-14,1.414468822e-13,4.529201349e-14,1.467394209e-13,9.266910598e-14,7.52770867e-14,1.330241948e-13,1.626746226e-13,1.125388039e-13,6.603514673e-14,5.76093525e-14,5.818697769e-14,7.490483828e-14,2.51800517e-14,1.002087817e-13,6.580136763e-14,1.793210169e-13,3.381035218e-14,3.782602659e-14,7.491045876e-14,3.118900323e-13,8.103151696e-14,2.449850117e-13,4.609003992e-14,9.474432218e-14
0.203125,1.618893535e-13,4.724924391e-13,3.371279319e-13,1.617479504e-13,5.819593571e-14,2.125869477e-13,1.290363657e-13,9.034689972e-14,1.287625352e-13,4.051220513e-14,1.388902465e-13,7.947633579e-14,6.601503686e-14,1.194016194e-13,1.465144828e-13,1.008510323e-13,5.989844102e-14,5.566519156e-14,5.843897476e-14,7.251214112e-14,2.468320231e-14,9.784006848e-14,6.91386963e-14,1.720640578e-13,2.838910473e-14,4.041275647e-14,7.271520772e-14,2.926800102e-13,6.812525107e-14,2.280576603e-13,4.952029979e-14,8.80982173e-14
0.2109375,1.568663295e-13,4.323624597e-13,3.119223727e-13,1.536064231e-13,5.578278728e-14,2.13583919e-13,1.286872574e-13,8.88555318e-14,1.161953567e-13,3.668092433e-14,1.31646523e-13,6.728851557e-14,5.770514138e-14,1.071101653e-13,1.32084532e-13,9.073203436e-14,5.479143193e-14,5.377667584e-14,5.780762461e-14,6.94606478e-14,2.422219827e-14,9.460736791e-14,7.181448171e-14,1.634919182e-13,2.325864516e-14,4.318030492e-14,6.979877412e-14,2.724623133e-13,5.694837123e-14,2.097035954e-13,5.33928178e-14,8.164878998e-14
0.21875,1.513488987e-13,3.937748398e-13,2.896489893e-13,1.452865284e-13,5.301769682e-14,2.149643737e-13,1.264821678e-13,8.661035563e-14,1.043491054e-13,3.413084808e-14,1.248081432e-13,5.715131389e-14,5.071371842e-14,9.727603201e-14,1.208400544e-13,8.360340811e-14,5.114442131e-14,5.267542988e-14,5.663564013e-14,6.589522734e-14,2.396114227e-14,9.085446139e-14,7.353962486e-14,1.543004238e-13,1.931190404e-14,4.58618406e-14,6.642719373e-14,2.55622226e-13,4.831700692e-14,1.923069441e-13,5.738614881e-14,7.576697874e-14
0.2265625,1.450460649e-13,3.559248921e-13,2.703859104e-13,1.366812008e-13,5.002353617e-14,2.159362696e-13,1.223186697e-13,8.357918502e-14,9.332832398e-14,3.25679651e-14,1.177274025e-13,4.930913543e-14,4.462350258e-14,9.041026571e-14,1.13239406e-13,8.000985512e-14,4.970072526e-14,5.276776586e-14,5.524510346e-14,6.310222416e-14,2.391897523e-14,8.642767433e-14,7.395460847e-14,1.44575684e-13,1.711345556e-14,4.812015543e-14,6.274173911e-14,2.446512511e-13,4.275311004e-14,1.771758771e-13,6.057158407e-14,7.051473736e-14
0.234375,1.388390388e-13,3.208756462e-13,2.538639547e-13,1.282061448e-13,4.654488556e-14,2.172248542e-13,1.16072673e-13,8.035049681e-14,8.317615452e-14,3.203889377e-14,1.101364409e-13,4.382311879e-14,3.953605449e-14,8.716001688e-14,1.097089243e-13,8.043757752e-14,5.090331252e-14,5.454098221e-14,5.392386993e-14,6.151292052e-14,2.405217478e-14,8.099065025e-14,7.284000379e-14,1.346566625e-13,1.672903415e-14,4.974898859e-14,5.95435294e-14,2.403568711e-13,4.013719336e-14,1.653273372e-13,6.255131883e-14,6.5493763e-14
0.2421875,1.330033635e-13,2.890213385e-13,2.394503993e-13,1.200562385e-13,4.233520735e-14,2.200063456e-13,1.084822376e-13,7.726291242e-14,7.384978803e-14,3.203178333e-14,1.008136321e-13,4.04984155e-14,3.540496271e-14,8.710386263e-14,1.100663111e-13,8.525821685e-14,5.529209932e-14,5.818068734e-14,5.281136293e-14,6.154748688e-14,2.432819455e-14,7.415001591e-14,6.964069592e-14,1.248398595e-13,1.846148509e-14,5.026474993e-14,5.829068715e-14,2.445181867e-13,4.146355409e-14,1.570252829e-13,6.261623391e-14,6.021414108e-14
0.25,1.272116233e-13,2.613875044e-13,2.262567913e-13,1.133955995e-13,3.790521608e-14,2.237101551e-13,1.003510672e-13,7.48761128e-14,6.535121757e-14,3.242548785e-14,9.010677618e-14,3.852338947e-14,3.223708302e-14,8.889645984e-14,1.133816262e-13,9.413398063e-14,6.303770695e-14,6.355862076e-14,5.166296283e-14,6.312404042e-14,2.482368465e-14,6.646442027e-14,6.486634867e-14,1.153043509e-13,2.173913032e-14,4.993080826e-14,5.890703148e-14,2.545931472e-13,4.548591807e-14,1.518210794e-13,6.144797517e-14,5.504020491e-14
0.2578125,1.219822302e-13,2.383943582e-13,2.130815013e-13,1.082128219e-13,3.363225286e-14,2.280704614e-13,9.207280004e-14,7.358342887e-14,5.764413316e-14,3.310885072e-14,7.894536423e-14,3.74724248e-14,3.020351844e-14,9.275630895e-14,1.191668576e-13,1.078846692e-13,7.425228089e-14,7.179790541e-14,5.152529056e-14,6.589139004e-14,2.550836733e-14,5.879446402e-14,5.92443264e-14,1.060843111e-13,2.654124475e-14,4.897441781e-14,6.143546228e-14,2.711448202e-13,5.285524405e-14,1.51656026e-13,5.913054747e-14,5.021206832e-14
0.265625,1.175004522e-13,2.189165926e-13,1.998481799e-13,1.044818279e-13,2.972210675e-14,2.314256719e-13,8.404515093e-14,7.376030714e-14,5.044224136e-14,3.469896453e-14,6.81253026e-14,3.717980216e-14,2.904845956e-14,9.741562512e-14,1.259506977e-13,1.254490422e-13,8.802439194e-14,8.174824255e-14,5.177715984e-14,6.938655887e-14,2.61063463e-14,5.116683626e-14,5.303967695e-14,9.772002449e-14,3.228031059e-14,4.789534615e-14,6.5916798e-14,2.905564633e-13,6.291803262e-14,1.529972878e-13,5.626590192e-14,4.556306208e-14
0.2734375,1.126710837e-13,2.02647965e-13,1.847981986e-13,1.018311426e-13,2.623555201e-14,2.325074172e-13,7.594646796e-14,7.540627448e-14,4.387545883e-14,3.742879896e-14,5.814690288e-14,3.736472152e-14,2.89462099e-14,1.012432605e-13,1.32328495e-13,1.462384199e-13,1.047626989e-13,9.367340718e-14,5.312007366e-14,7.244234274e-14,2.673755323e-14,4.418483516e-14,4.690921343e-14,8.925423599e-14,3.884867384e-14,4.651024229e-14,7.190513053e-14,3.117641469e-13,7.54986703e-14,1.580870202e-13,5.280728858e-14,4.112691177e-14
0.28125,1.079592961e-13,1.891158873e-13,1.690363666e-13,9.957029536e-14,2.31481315e-14,2.305098936e-13,6.858521696e-14,7.874067704e-14,3.801054463e-14,4.181907517e-14,5.065636484e-14,3.803946983e-14,2.985267508e-14,1.041795599e-13,1.390527917e-13,1.695290609e-13,1.230901764e-13,1.065573548e-13,5.51969944e-14,7.443028921e-14,2.72598742e-14,3.786749964e-14,4.127501666e-14,8.126391852e-14,4.586776225e-14,4.499556858e-14,7.969876288e-14,3.322311944e-13,8.996407508e-14,1.649707178e-13,4.896125301e-14,3.678857497e-14
0.2890625,1.037504056e-13,1.766823482e-13,1.532029697e-13,9.650362481e-14,2.040609894e-14,2.24867124e-13,6.171295546e-14,8.322099281e-14,3.30540035e-14,4.732702313e-14,4.524440933e-14,3.900122885e-14,3.211787516e-14,1.071037563e-13,1.467261255e-13,1.957318054e-13,1.430394822e-13,1.203716666e-13,5.814105558e-14,7.478729824e-14,2.765330277e-14,3.265873056e-14,3.652180284e-14,7.413721063e-14,5.333605681e-14,4.338429356e-14,8.853822821e-14,3.506060318e-13,1.057446886e-13,1.736079602e-13,4.501840805e-14,3.287451995e-14
0.296875,9.989013688e-14,1.639003886e-13,1.376823571e-13,9.166209667e-14,1.814517207e-14,2.160333159e-13,5.497493341e-14,8.781386115e-14,2.878758145e-14,5.397468273e-14,4.172778075e-14,4.031726523e-14,3.550355694e-14,1.105982832e-13,1.557285306e-13,2.239348862e-13,1.630358837e-13,1.334336988e-13,6.106912201e-14,7.323642602e-14,2.758202669e-14,2.843917845e-14,3.284317501e-14,6.784366539e-14,6.090595921e-14,4.198463571e-14,9.735567233e-14,3.651540574e-13,1.2131447e-13,1.810179098e-13,4.157711061e-14,2.93768767e-14
0.3046875,9.673979212e-14,1.509466716e-13,1.231176295e-13,8.548821086e-14,1.639305737e-14,2.046120371e-13,4.864875379e-14,9.089537773e-14,2.541977615e-14,6.065223222e-14,3.998854784e-14,4.207142598e-14,4.01199564e-14,1.136750192e-13,1.642866251e-13,2.520077845e-13,1.817930029e-13,1.443679942e-13,6.376811062e-14,7.001332919e-14,2.710055991e-14,2.532875197e-14,3.046983189e-14,6.226354949e-14,6.854127084e-14,4.074898673e-14,1.059705907e-13,3.750772097e-13,1.36556662e-13,1.862205663e-13,3.87270908e-14,2.604293795e-14
0.3125,9.408826043e-14,1.373047887e-13,1.108889172e-13,7.799059571e-14,1.513083436e-14,1.926035799e-13,4.249338378e-14,9.19499723e-14,2.30831722e-14,6.705464552e-14,3.941046427e-14,4.39686983e-14,4.56262872e-14,1.156699146e-13,1.715373864e-13,2.783204749e-13,1.9756599e-13,1.517180933e-13,6.584999895e-14,6.507611702e-14,2.615422235e-14,2.334361123e-14,2.939066763e-14,5.770614569e-14,7.566544041e-14,3.967324031e-14,1.14130372e-13,3.802305244e-13,1.505395056e-13,1.875571192e-13,3.630558533e-14,2.305695555e-14
0.3203125,9.216350856e-14,1.240093215e-13,1.009824534e-13,7.02508304e-14,1.436949484e-14,1.821530942e-13,3.718295534e-14,9.047188748e-14,2.179966867e-14,7.206870779e-14,3.946428374e-14,4.58559991e-14,5.192821589e-14,1.169651314e-13,1.776179026e-13,3.026371489e-13,2.108662415e-13,1.56305222e-13,6.799108817e-14,5.922928001e-14,2.494486993e-14,2.239112018e-14,2.925354047e-14,5.424364197e-14,8.227596612e-14,3.850439502e-14,1.223855167e-13,3.843774622e-13,1.638476185e-13,1.872845539e-13,3.440007571e-14,2.029986073e-14
0.328125,9.088941366e-14,1.10752904e-13,9.32722264e-14,6.245299475e-14,1.39172293e-14,1.728154471e-13,3.285715997e-14,8.725870649e-14,2.173133992e-14,7.560965382e-14,3.983714241e-14,4.76941556e-14,5.915829917e-14,1.185385371e-13,1.830427461e-13,3.254263243e-13,2.220276878e-13,1.588400724e-13,7.047652985e-14,5.326982239e-14,2.365664116e-14,2.223371238e-14,2.975587297e-14,5.170073944e-14,8.849000505e-14,3.714538584e-14,1.313355811e-13,3.895003322e-13,1.776108813e-13,1.867400958e-13,3.288053093e-14,1.791451168e-14
0.3359375,9.043118258e-14,9.89071374e-14,8.764550076e-14,5.578784111e-14,1.385728839e-14,1.657768298e-13,2.928181327e-14,8.179386627e-14,2.274208193e-14,7.630261886e-14,3.971640591e-14,4.958202124e-14,6.724434054e-14,1.213812641e-13,1.879266113e-13,3.45500795e-13,2.305082465e-13,1.594453083e-13,7.339897159e-14,4.818389368e-14,2.250206851e-14,2.275124107e-14,3.076233985e-14,4.978734869e-14,9.388478684e-14,3.586714337e-14,1.40687839e-13,3.956400329e-13,1.918441566e-13,1.868198366e-13,3.204519388e-14,1.603715229e-14
0.34375,9.087883724e-14,8.952346359e-14,8.369363639e-14,5.102059845e-14,1.385735179e-14,1.601672858e-13,2.617018162e-14,7.448252643e-14,2.507345615e-14,7.444867322e-14,3.967238463e-14,5.241436993e-14,7.651005211e-14,1.264641267e-13,1.930245222e-13,3.643114743e-13,2.379868625e-13,1.58905047e-13,7.70717901e-14,4.467890374e-14,2.163575897e-14,2.410082054e-14,3.226049466e-14,4.840878386e-14,9.927823586e-14,3.501403566e-14,1.51372667e-13,4.050931989e-13,2.083590255e-13,1.901342931e-13,3.159179074e-14,1.48862641e-14
0.3515625,9.198896024e-14,8.263302336e-14,8.105674083e-14,4.869676467e-14,1.381224699e-14,1.556449884e-13,2.379963392e-14,6.652830968e-14,2.867329896e-14,7.035597801e-14,4.020845784e-14,5.640381115e-14,8.71215108e-14,1.334183886e-13,1.978359354e-13,3.809160793e-13,2.449794302e-13,1.582045035e-13,8.223484997e-14,4.243767437e-14,2.107449548e-14,2.660829368e-14,3.451371912e-14,4.747852177e-14,1.042316245e-13,3.471783035e-14,1.636289537e-13,4.174942963e-13,2.281754285e-13,1.986882283e-13,3.154976269e-14,1.4356491e-14
0.359375,9.343088886e-14,7.801127669e-14,7.984099356e-14,4.848607378e-14,1.388676081e-14,1.526808335e-13,2.213583132e-14,5.849431722e-14,3.322840809e-14,6.540155716e-14,4.240679463e-14,6.203688509e-14,9.871951764e-14,1.420360267e-13,2.022547088e-13,3.94653381e-13,2.533696436e-13,1.584999278e-13,8.895763996e-14,4.191214278e-14,2.087379268e-14,2.998844347e-14,3.720414582e-14,4.675785291e-14,1.094164043e-13,3.52252016e-14,1.781689218e-13,4.325501745e-13,2.530033534e-13,2.129930157e-13,3.232323601e-14,1.44686155e-14
0.3671875,9.471231123e-14,7.566279083e-14,7.931194596e-14,5.049100507e-14,1.436917997e-14,1.513257908e-13,2.085131897e-14,5.099610447e-14,3.818345529e-14,6.047503736e-14,4.70208635e-14,6.910804062e-14,1.103545266e-13,1.516008305e-13,2.063478928e-13,4.04862387e-13,2.632294459e-13,1.596980403e-13,9.668662398e-14,4.244161506e-14,2.076030587e-14,3.394249136e-14,4.044051427e-14,4.56258779e-14,1.139832816e-13,3.672182787e-14,1.94202386e-13,4.468294704e-13,2.810648463e-13,2.320641357e-13,3.424919035e-14,1.532460287e-14
0.375,9.650240375e-14,7.650561112e-14,7.958511173e-14,5.442009827e-14,1.509367333e-14,1.516723621e-13,1.981482435e-14,4.427566547e-14,4.321617214e-14,5.618553657e-14,5.499065086e-14,7.799581021e-14,1.221333495e-13,1.634713043e-13,2.113290696e-13,4.123630876e-13,2.761000604e-13,1.62991747e-13,1.053164391e-13,4.392643759e-14,2.09074651e-14,3.817863902e-14,4.388598908e-14,4.439130029e-14,1.183526693e-13,3.934933901e-14,2.119331067e-13,4.590742173e-13,3.135005681e-13,2.570314538e-13,3.75820694e-14,1.660705548e-14
0.3828125,9.849951594e-14,7.837753335e-14,7.946596442e-14,5.989197113e-14,1.646764269e-14,1.526966626e-13,1.950146657e-14,3.816014316e-14,4.771417721e-14,5.248621505e-14,6.565188806e-14,8.794587669e-14,1.33630073e-13,1.76536567e-13,2.167857946e-13,4.172216094e-13,2.929214319e-13,1.688594153e-13,1.143951512e-13,4.689357739e-14,2.126967317e-14,4.252204863e-14,4.754958046e-14,4.318066622e-14,1.227971206e-13,4.363359885e-14,2.30307224e-13,4.687056424e-13,3.485297855e-13,2.855157299e-13,4.315096054e-14,1.84141411e-14
0.390625,9.997470131e-14,8.134847729e-14,7.839803124e-14,6.622511333e-14,1.857687977e-14,1.525858437e-13,1.990117326e-14,3.295535414e-14,5.097902545e-14,4.969879261e-14,7.755590387e-14,9.836163216e-14,1.43445494e-13,1.886313207e-13,2.214458094e-13,4.183578198e-13,3.124698521e-13,1.753831064e-13,1.22477048e-13,5.113599746e-14,2.157816966e-14,4.614000634e-14,5.069050575e-14,4.163725249e-14,1.271608701e-13,4.896892264e-14,2.477538374e-13,4.725179651e-13,3.827136919e-13,3.121585585e-13,5.050243301e-14,2.051509641e-14
0.3984375,1.002526063e-13,8.328005285e-14,7.597064751e-14,7.210667271e-14,2.11666519e-14,1.508790188e-13,2.075585793e-14,2.891746294e-14,5.246448642e-14,4.778413135e-14,8.865014949e-14,1.078399015e-13,1.499284286e-13,1.972333329e-13,2.236410681e-13,4.130454928e-13,3.32560058e-13,1.804062069e-13,1.285327475e-13,5.594400496e-14,2.151707953e-14,4.859277149e-14,5.331596236e-14,3.958282571e-14,1.308898189e-13,5.443352518e-14,2.606894282e-13,4.670270372e-13,4.095434494e-13,3.320860388e-13,5.88512483e-14,2.255731755e-14
0.40625,9.92782598e-14,8.38388999e-14,7.194653904e-14,7.721480936e-14,2.401804602e-14,1.472940643e-13,2.242269333e-14,2.583932787e-14,5.205804065e-14,4.664993882e-14,9.852074935e-14,1.152235284e-13,1.522692991e-13,2.015954077e-13,2.226262926e-13,4.016832237e-13,3.523943309e-13,1.838588524e-13,1.324419519e-13,6.107983689e-14,2.121673969e-14,4.957921876e-14,5.52566357e-14,3.739586657e-14,1.337310627e-13,5.933101524e-14,2.688512046e-13,4.519415086e-13,4.278564297e-13,3.449963515e-13,6.77144943e-14,2.405312034e-14
0.4140625,9.752857333e-14,8.141729555e-14,6.666419518e-14,8.071887175e-14,2.683920804e-14,1.411308887e-13,2.498166857e-14,2.404126342e-14,4.992471365e-14,4.66409449e-14,1.065845752e-13,1.198255987e-13,1.503861999e-13,2.018294421e-13,2.183487663e-13,3.850524084e-13,3.694881248e-13,1.855330252e-13,1.338998347e-13,6.658646986e-14,2.077292457e-14,4.9154627e-14,5.636778441e-14,3.562522637e-14,1.354735121e-13,6.334793388e-14,2.710488678e-13,4.288802709e-13,4.358631968e-13,3.506618039e-13,7.66377398e-14,2.487759008e-14
0.421875,9.400311083e-14,7.675522018e-14,5.98694188e-14,8.293545761e-14,2.940000868e-14,1.316446025e-13,2.802986608e-14,2.328213285e-14,4.604909687e-14,4.70668658e-14,1.111201202e-13,1.202618621e-13,1.444170893e-13,1.962461863e-13,2.100477982e-13,3.63659694e-13,3.819304216e-13,1.851088882e-13,1.326204828e-13,7.23948706e-14,2.012381035e-14,4.714576718e-14,5.598059525e-14,3.399166051e-14,1.3573316e-13,6.569268532e-14,2.676109157e-13,3.999193571e-13,4.344456726e-13,3.477909511e-13,8.456057256e-14,2.489690204e-14
0.4296875,8.902951249e-14,7.007790231e-14,5.284166382e-14,8.326760719e-14,3.115740747e-14,1.191230906e-13,3.093202251e-14,2.386937355e-14,4.125726507e-14,4.793382265e-14,1.115837873e-13,1.166942475e-13,1.351339475e-13,1.851833796e-13,1.978938567e-13,3.387856849e-13,3.895505035e-13,1.823428569e-13,1.288138341e-13,7.81789514e-14,1.920080665e-14,4.38641147e-14,5.432542048e-14,3.243888479e-14,1.353562e-13,6.595558508e-14,2.585129578e-13,3.679670585e-13,4.237752319e-13,3.361730577e-13,9.001067017e-14,2.428408793e-14
0.4375,8.286143009e-14,6.238513465e-14,4.696279151e-14,8.20709633e-14,3.167947657e-14,1.048549564e-13,3.38403134e-14,2.622407569e-14,3.626637466e-14,4.884980124e-14,1.085804068e-13,1.096670967e-13,1.231632712e-13,1.689104202e-13,1.817508993e-13,3.098960197e-13,3.893223439e-13,1.760165942e-13,1.227107103e-13,8.313789891e-14,1.787829886e-14,3.967686504e-14,5.197048429e-14,3.126549133e-14,1.341116229e-13,6.361418186e-14,2.434197874e-13,3.337679813e-13,4.036784271e-13,3.158415886e-13,9.184929539e-14,2.281510155e-14
0.4453125,7.595084007e-14,5.451132141e-14,4.242916733e-14,8.060222571e-14,3.127413754e-14,9.022545799e-14,3.63064547e-14,3.041794874e-14,3.153244097e-14,4.973226771e-14,1.028990079e-13,1.000981707e-13,1.097425651e-13,1.498156788e-13,1.636781578e-13,2.79742487e-13,3.804377139e-13,1.671921313e-13,1.151732975e-13,8.673676162e-14,1.634449057e-14,3.503834158e-14,4.941520461e-14,3.049862726e-14,1.313880425e-13,5.921896484e-14,2.239652876e-13,2.991082005e-13,3.766726483e-13,2.9096468e-13,9.073046691e-14,2.080150288e-14
0.453125,6.894914798e-14,4.800621312e-14,3.983205762e-14,7.949112629e-14,3.043805107e-14,7.669107332e-14,3.789239414e-14,3.563220584e-14,2.763748269e-14,5.059415471e-14,9.639270801e-14,8.929384108e-14,9.661586578e-14,1.302908305e-13,1.450995225e-13,2.505186393e-13,3.627552796e-13,1.569362768e-13,1.067427279e-13,8.905937155e-14,1.484795289e-14,3.06121738e-14,4.699325703e-14,2.979848393e-14,1.268147951e-13,5.413091619e-14,2.021436735e-13,2.655151084e-13,3.459481168e-13,2.646159123e-13,8.779374998e-14,1.88261779e-14
0.4609375,6.195415549e-14,4.41409552e-14,3.895434195e-14,7.968895173e-14,2.914089592e-14,6.47528391e-14,3.848221946e-14,4.151010591e-14,2.455459766e-14,5.111415191e-14,8.99874686e-14,7.766029179e-14,8.435947688e-14,1.111696167e-13,1.271255384e-13,2.232287275e-13,3.382458148e-13,1.465516922e-13,9.793697066e-14,9.016295553e-14,1.33657541e-14,2.662088605e-14,4.485793471e-14,2.908642274e-14,1.204855998e-13,4.844660045e-14,1.789745647e-13,2.340380236e-13,3.138297464e-13,2.390009503e-13,8.297705515e-14,1.689643225e-14
0.46875,5.553186977e-14,4.318476158e-14,3.942247244e-14,8.116817756e-14,2.765303641e-14,5.535733333e-14,3.825869667e-14,4.702165313e-14,2.225530116e-14,5.079189001e-14,8.542387064e-14,6.646454181e-14,7.379094758e-14,9.404753733e-14,1.116780626e-13,1.994533003e-13,3.104085832e-13,1.372024456e-13,8.990195189e-14,9.018429551e-14,1.199643855e-14,2.325670568e-14,4.281089925e-14,2.82979602e-14,1.131151322e-13,4.27542174e-14,1.566485064e-13,2.067053097e-13,2.834434519e-13,2.15708577e-13,7.685860931e-14,1.524265923e-14
0.4765625,4.979824638e-14,4.581424672e-14,4.138437514e-14,8.457290772e-14,2.645408828e-14,4.797781279e-14,3.696538181e-14,5.21413862e-14,2.055129788e-14,4.98468445e-14,8.318331799e-14,5.664880134e-14,6.574810978e-14,7.937295969e-14,9.91052138e-14,1.802695758e-13,2.813661968e-13,1.296147924e-13,8.310662829e-14,8.939807303e-14,1.074431934e-14,2.07043377e-14,4.104170709e-14,2.759137832e-14,1.054457699e-13,3.790566714e-14,1.369370231e-13,1.838899468e-13,2.562782784e-13,1.948085312e-13,7.034981743e-14,1.402788514e-14
0.484375,4.462512572e-14,5.135391358e-14,4.363292422e-14,8.941916424e-14,2.554500549e-14,4.25057451e-14,3.527198023e-14,5.579164594e-14,1.903016262e-14,4.829599597e-14,8.284866765e-14,4.857516896e-14,6.018149538e-14,6.747899882e-14,9.022306852e-14,1.67427716e-13,2.549146233e-13,1.251087295e-13,7.796440615e-14,8.726885687e-14,9.648889752e-15,1.910474276e-14,3.947389125e-14,2.69905556e-14,9.739579053e-14,3.396600957e-14,1.20263573e-13,1.668401096e-13,2.336301841e-13,1.780121862e-13,6.409592318e-14,1.305374389e-14
0.4921875,4.036807181e-14,5.89243251e-14,4.616385199e-14,9.512920702e-14,2.490480049e-14,3.903115394e-14,3.375375747e-14,5.751966466e-14,1.775530132e-14,4.623432774e-14,8.420508407e-14,4.256058029e-14,5.73183549e-14,5.866161719e-14,8.477280722e-14,1.614141465e-13,2.327943148e-13,1.243184629e-13,7.466009394e-14,8.499443277e-14,8.95030854e-15,1.847302727e-14,3.791744826e-14,2.639790865e-14,9.019232536e-14,3.099272715e-14,1.076430429e-13,1.567499461e-13,2.171150295e-13,1.659957923e-13,5.857335565e-14,1.218381422e-14
0.5,3.702975954e-14,6.71093112e-14,4.878587789e-14,1.014388347e-13,2.46727092e-14,3.685183105e-14,3.246364529e-14,5.759020882e-14,1.668843404e-14,4.376501839e-14,8.667480158e-14,3.812472676e-14,5.680987546e-14,5.233036708e-14,8.208664263e-14,1.612851477e-13,2.150143694e-13,1.276777012e-13,7.312077951e-14,8.24396883e-14,8.758264094e-15,1.875590803e-14,3.629658791e-14,2.594827092e-14,8.365684591e-14,2.888112865e-14,9.925044522e-14,1.524224066e-13,2.07348964e-13,1.593227206e-13,5.390066859e-14,1.149180772e-14
0.5078125,3.46026055e-14,7.521442104e-14,5.08704219e-14,1.074167488e-13,2.486324128e-14,3.607355634e-14,3.107019639e-14,5.622230075e-14,1.557314535e-14,4.100238666e-14,8.98611732e-14,3.52141126e-14,5.827159263e-14,4.848905731e-14,8.225943437e-14,1.668338826e-13,2.035352003e-13,1.358651776e-13,7.367915233e-14,7.987816931e-14,9.146984728e-15,1.992105911e-14,3.458578976e-14,2.564431291e-14,7.829499141e-14,2.76354115e-14,9.581538255e-14,1.543700384e-13,2.052249467e-13,1.591375941e-13,5.049181889e-14,1.088608279e-14
0.515625,3.303912545e-14,8.19648689e-14,5.200711489e-14,1.125612076e-13,2.487164161e-14,3.610757528e-14,3.013886886e-14,5.383849433e-14,1.433667693e-14,3.825347312e-14,9.218577562e-14,3.357727049e-14,6.138057309e-14,4.655470148e-14,8.441562064e-14,1.773019917e-13,1.97724534e-13,1.47285206e-13,7.544377712e-14,7.708702349e-14,9.977061865e-15,2.168992634e-14,3.289844293e-14,2.564373055e-14,7.432830829e-14,2.690007309e-14,9.630110967e-14,1.613129752e-13,2.085979677e-13,1.635076445e-13,4.791530279e-14,9.939623243e-15
0.5234375,3.210575871e-14,8.660292951e-14,5.237406037e-14,1.151519823e-13,2.45148274e-14,3.681482193e-14,2.993745251e-14,5.105369055e-14,1.314425485e-14,3.571428229e-14,9.281946876e-14,3.272109714e-14,6.579473977e-14,4.567185596e-14,8.715054387e-14,1.90483925e-13,1.961281671e-13,1.607796399e-13,7.811876297e-14,7.494839896e-14,1.112367992e-14,2.397336925e-14,3.122557711e-14,2.578913358e-14,7.17608235e-14,2.64096907e-14,9.946861351e-14,1.715048412e-13,2.150897275e-13,1.713141324e-13,4.568455778e-14,8.978950717e-15
0.53125,3.200239573e-14,8.801231379e-14,5.278848896e-14,1.148396477e-13,2.404106095e-14,3.827678807e-14,3.010777811e-14,4.840469246e-14,1.230667511e-14,3.344965127e-14,9.135736697e-14,3.264462495e-14,7.137738665e-14,4.581006305e-14,9.000149609e-14,2.055692484e-13,1.998564162e-13,1.756605456e-13,8.143332279e-14,7.424593032e-14,1.245342734e-14,2.658066826e-14,2.967778971e-14,2.639070985e-14,7.098578263e-14,2.608234527e-14,1.045965582e-13,1.850017375e-13,2.236225326e-13,1.816502781e-13,4.388695642e-14,8.283743166e-15
0.5390625,3.264545873e-14,8.67262618e-14,5.424312286e-14,1.116226319e-13,2.374186751e-14,4.039092342e-14,3.03414726e-14,4.606696453e-14,1.196125851e-14,3.157642226e-14,8.806328092e-14,3.336623039e-14,7.750348856e-14,4.664796298e-14,9.246323844e-14,2.208774534e-13,2.066830841e-13,1.89771013e-13,8.461139107e-14,7.436237333e-14,1.395145545e-14,2.919102864e-14,2.844556965e-14,2.727423572e-14,7.136140792e-14,2.596343702e-14,1.106776624e-13,1.994854451e-13,2.318607794e-13,1.921033359e-13,4.272930387e-14,7.809938012e-15
0.546875,3.358126494e-14,8.311453494e-14,5.761775331e-14,1.054406663e-13,2.365260035e-14,4.367557547e-14,3.075295542e-14,4.448618258e-14,1.202310557e-14,3.025796807e-14,8.319867882e-14,3.4867674e-14,8.344974946e-14,4.796843733e-14,9.418241068e-14,2.341200616e-13,2.147636521e-13,2.023699901e-13,8.728696844e-14,7.537181947e-14,1.55475302e-14,3.143995836e-14,2.720428994e-14,2.822548962e-14,7.215236316e-14,2.615248186e-14,1.160758123e-13,2.113216484e-13,2.378305448e-13,2.011086314e-13,4.24281796e-14,7.815206425e-15
0.5546875,3.469247886e-14,7.849574741e-14,6.337760312e-14,9.704247345e-14,2.390688145e-14,4.866462692e-14,3.134387069e-14,4.404832261e-14,1.265654018e-14,2.93079284e-14,7.698852951e-14,3.682034915e-14,8.948841723e-14,4.994822795e-14,9.568652982e-14,2.462514984e-13,2.246247369e-13,2.135645821e-13,8.946928522e-14,7.812188576e-14,1.714493326e-14,3.334562335e-14,2.596808282e-14,2.935639994e-14,7.354979929e-14,2.667408225e-14,1.204810002e-13,2.206571668e-13,2.41569824e-13,2.089755161e-13,4.31520959e-14,8.63227535e-15
0.5625,3.606491041e-14,7.258643175e-14,7.247933203e-14,8.612219818e-14,2.463634971e-14,5.673482805e-14,3.193123355e-14,4.485253328e-14,1.388463687e-14,2.866193204e-14,6.960672362e-14,3.925926314e-14,9.534212343e-14,5.272284785e-14,9.593117928e-14,2.563343729e-13,2.3484352e-13,2.219260133e-13,9.090110561e-14,8.283816535e-14,1.860014537e-14,3.483986175e-14,2.48153056e-14,3.074039166e-14,7.53047122e-14,2.728983115e-14,1.220115111e-13,2.272177913e-13,2.406882773e-13,2.143504875e-13,4.47290145e-14,1.036585272e-14
0.5703125,3.740771048e-14,6.579012577e-14,8.470624948e-14,7.478720563e-14,2.623822238e-14,6.853029721e-14,3.243493222e-14,4.685691132e-14,1.566012537e-14,2.835408804e-14,6.191440154e-14,4.206762291e-14,1.009039776e-13,5.657579937e-14,9.501134923e-14,2.632600691e-13,2.44019467e-13,2.265363474e-13,9.159159908e-14,8.881144047e-14,1.990914483e-14,3.605290522e-14,2.397455182e-14,3.229370618e-14,7.712336589e-14,2.799741309e-14,1.20793402e-13,2.31260531e-13,2.363225644e-13,2.180881562e-13,4.748097817e-14,1.311566132e-14
0.578125,3.861980059e-14,5.961489088e-14,1.002177174e-13,6.466601113e-14,2.946097021e-14,8.49030944e-14,3.260188483e-14,5.008269938e-14,1.786151337e-14,2.810962992e-14,5.500110696e-14,4.524475727e-14,1.058173543e-13,6.115591365e-14,9.383506264e-14,2.667298973e-13,2.509928211e-13,2.265848261e-13,9.085681957e-14,9.541528557e-14,2.086145474e-14,3.67004859e-14,2.331175786e-14,3.37665601e-14,7.813118291e-14,2.920769729e-14,1.170092567e-13,2.316135488e-13,2.272984166e-13,2.182320763e-13,5.241410993e-14,1.706676986e-14
0.5859375,3.968552062e-14,5.486138872e-14,1.172595746e-13,5.647513964e-14,3.404248803e-14,1.050443211e-13,3.248970277e-14,5.459840748e-14,2.021729085e-14,2.802661188e-14,4.994496493e-14,4.842480284e-14,1.101352048e-13,6.637637992e-14,9.321697052e-14,2.675354162e-13,2.552002679e-13,2.233867234e-13,8.924131217e-14,1.017476401e-13,2.163589704e-14,3.686788753e-14,2.293232295e-14,3.478454232e-14,7.801678902e-14,3.084993019e-14,1.116261637e-13,2.287702628e-13,2.159133332e-13,2.166618228e-13,5.966491189e-14,2.184285421e-14
0.59375,4.053220316e-14,5.270324216e-14,1.350830654e-13,5.043864743e-14,3.963445493e-14,1.295250507e-13,3.206456163e-14,6.043518926e-14,2.266299045e-14,2.824743766e-14,4.789925342e-14,5.172307288e-14,1.138606203e-13,7.313226638e-14,9.48150232e-14,2.686072406e-13,2.580223748e-13,2.176728337e-13,8.688142879e-14,1.08005474e-13,2.233556838e-14,3.644221741e-14,2.281540003e-14,3.498768326e-14,7.700587614e-14,3.312759468e-14,1.057100998e-13,2.253690168e-13,2.043099566e-13,2.148263619e-13,6.892826725e-14,2.735020987e-14
0.6015625,4.093123861e-14,5.221571164e-14,1.505615167e-13,4.572980282e-14,4.532745164e-14,1.559232784e-13,3.152351583e-14,6.665200013e-14,2.478462684e-14,2.845289793e-14,4.84051581e-14,5.465503999e-14,1.165373086e-13,8.096550847e-14,9.797526379e-14,2.689285503e-13,2.57271995e-13,2.080801916e-13,8.340781908e-14,1.121171446e-13,2.283265145e-14,3.525923903e-14,2.318435598e-14,3.438247233e-14,7.542932262e-14,3.562774539e-14,9.899857402e-14,2.220715855e-13,1.917467269e-13,2.109843494e-13,7.853431381e-14,3.323740306e-14
0.609375,4.095827127e-14,5.333231305e-14,1.620870477e-13,4.268265747e-14,5.112842778e-14,1.819741027e-13,3.120818242e-14,7.267005834e-14,2.642659238e-14,2.882088382e-14,5.081670943e-14,5.665825958e-14,1.179979219e-13,8.923601267e-14,1.022680263e-13,2.679098283e-13,2.526659774e-13,1.951670914e-13,7.860565238e-14,1.134410216e-13,2.318307157e-14,3.327495991e-14,2.418609334e-14,3.307060591e-14,7.347336505e-14,3.878422009e-14,9.322786831e-14,2.19814432e-13,1.788707908e-13,2.059977406e-13,8.882499322e-14,3.912633712e-14
0.6171875,4.085775726e-14,5.623945115e-14,1.672761826e-13,4.144622322e-14,5.677466393e-14,2.034822891e-13,3.123657227e-14,7.795474141e-14,2.715920074e-14,2.913001735e-14,5.45472851e-14,5.757574808e-14,1.175350641e-13,9.665626215e-14,1.078274238e-13,2.667283348e-13,2.463925837e-13,1.808782247e-13,7.295888415e-14,1.120708032e-13,2.346412313e-14,3.055809734e-14,2.589574453e-14,3.118608247e-14,7.150382547e-14,4.283128387e-14,9.000746321e-14,2.189506654e-13,1.664988546e-13,2.012587008e-13,1.002054027e-13,4.429037483e-14
0.625,4.098818339e-14,6.140469354e-14,1.667330867e-13,4.155488542e-14,6.19454164e-14,2.18832975e-13,3.172152022e-14,8.23169319e-14,2.746733923e-14,2.984714864e-14,5.930839332e-14,5.784784759e-14,1.154438262e-13,1.034030099e-13,1.148083141e-13,2.658803258e-13,2.386153925e-13,1.666289926e-13,6.69788964e-14,1.090454116e-13,2.367357316e-14,2.747614865e-14,2.821535376e-14,2.887606808e-14,6.966823263e-14,4.761421312e-14,8.950517737e-14,2.19560008e-13,1.554553608e-13,1.969547912e-13,1.118554226e-13,4.853771921e-14
0.6328125,4.123079971e-14,6.807727133e-14,1.595950119e-13,4.223957637e-14,6.557521656e-14,2.260698211e-13,3.214252458e-14,8.443874939e-14,2.730213538e-14,3.056782812e-14,6.439932855e-14,5.773696521e-14,1.122315148e-13,1.094522854e-13,1.216547356e-13,2.646609391e-13,2.304253145e-13,1.533668911e-13,6.104599261e-14,1.044907859e-13,2.382382163e-14,2.423679846e-14,3.078097352e-14,2.618983311e-14,6.836375737e-14,5.279271928e-14,9.217841108e-14,2.216894438e-13,1.472618803e-13,1.923790611e-13,1.222962038e-13,5.112672121e-14
0.640625,4.142614225e-14,7.534306373e-14,1.470359666e-13,4.280388806e-14,6.758354575e-14,2.240678083e-13,3.23145683e-14,8.355641611e-14,2.673434999e-14,3.124670566e-14,6.872594017e-14,5.72972209e-14,1.079847369e-13,1.143322637e-13,1.269339046e-13,2.620489756e-13,2.208313291e-13,1.409757708e-13,5.512070879e-14,9.955490914e-14,2.37329236e-14,2.092555511e-14,3.337930754e-14,2.339624372e-14,6.772043056e-14,5.85569836e-14,9.805900712e-14,2.249834388e-13,1.410061374e-13,1.863109188e-13,1.311802867e-13,5.249780796e-14
0.6484375,4.145620181e-14,8.216019088e-14,1.301631321e-13,4.285113307e-14,6.782772864e-14,2.128744867e-13,3.199388979e-14,7.954764915e-14,2.590557162e-14,3.198717436e-14,7.153035412e-14,5.645165335e-14,1.025921025e-13,1.166690856e-13,1.28913387e-13,2.563475518e-13,2.102709391e-13,1.298825459e-13,4.935908933e-14,9.598440652e-14,2.336376631e-14,1.780519387e-14,3.573278123e-14,2.07534886e-14,6.750216406e-14,6.404180621e-14,1.061273687e-13,2.277869569e-13,1.359216792e-13,1.781124212e-13,1.376019344e-13,5.202070542e-14
0.65625,4.135826619e-14,8.876841848e-14,1.117621188e-13,4.294920942e-14,6.651114924e-14,1.945030155e-13,3.09742679e-14,7.293708299e-14,2.517809309e-14,3.336590874e-14,7.307727674e-14,5.591299669e-14,9.612319366e-14,1.163958955e-13,1.279840241e-13,2.470738568e-13,1.984127244e-13,1.1963784e-13,4.370542233e-14,9.391850561e-14,2.292440196e-14,1.50704914e-14,3.741102304e-14,1.838610397e-14,6.732859484e-14,6.867877482e-14,1.150477578e-13,2.291623729e-13,1.320121088e-13,1.682282126e-13,1.415313405e-13,4.978787244e-14
0.6640625,4.098552182e-14,9.3932035e-14,9.399992591e-14,4.267027055e-14,6.440685113e-14,1.71233567e-13,2.917301013e-14,6.47680553e-14,2.470019662e-14,3.486165826e-14,7.220867101e-14,5.554681023e-14,8.870729349e-14,1.132735403e-13,1.247990263e-13,2.341052896e-13,1.862131607e-13,1.105357963e-13,3.861638943e-14,9.488663984e-14,2.237702106e-14,1.282224123e-14,3.79505267e-14,1.646687122e-14,6.623342481e-14,7.208016423e-14,1.238811163e-13,2.27310602e-13,1.290736417e-13,1.570301708e-13,1.432593835e-13,4.644551254e-14
0.671875,4.019604772e-14,9.781415261e-14,7.765700351e-14,4.239841088e-14,6.171971426e-14,1.452985548e-13,2.686595626e-14,5.569006525e-14,2.439873585e-14,3.636591763e-14,6.974514486e-14,5.525805607e-14,8.110607474e-14,1.078202961e-13,1.1931671e-13,2.179300275e-13,1.736953019e-13,1.025013206e-13,3.415172463e-14,9.764921013e-14,2.169474397e-14,1.10617359e-14,3.717346681e-14,1.514892494e-14,6.469352763e-14,7.398733934e-14,1.314489324e-13,2.226534277e-13,1.272272344e-13,1.44296997e-13,1.426583037e-13,4.196999342e-14
0.6796875,3.853810729e-14,9.934863967e-14,6.427991409e-14,4.147500335e-14,5.844536071e-14,1.195216441e-13,2.418408362e-14,4.646190171e-14,2.428489543e-14,3.771116502e-14,6.602358636e-14,5.473845214e-14,7.328193336e-14,9.938150046e-14,1.111540092e-13,1.97623166e-13,1.603427151e-13,9.531923132e-14,3.048560871e-14,1.026761305e-13,2.104148064e-14,9.906860039e-15,3.513940922e-14,1.453418094e-14,6.253319896e-14,7.38931526e-14,1.376960802e-13,2.157946064e-13,1.270316592e-13,1.304736251e-13,1.391647211e-13,3.66561395e-14
0.6875,3.606634293e-14,9.89385269e-14,5.497207424e-14,4.034391629e-14,5.488953448e-14,9.634636237e-14,2.167839726e-14,3.775265925e-14,2.468689779e-14,3.917308739e-14,6.198804982e-14,5.426489249e-14,6.530613927e-14,8.830954983e-14,1.012907478e-13,1.73383858e-13,1.458061139e-13,8.776356109e-14,2.747019402e-14,1.087328335e-13,2.034499016e-14,9.436718775e-15,3.204640742e-14,1.471192864e-14,6.001626745e-14,7.147517596e-14,1.407141168e-13,2.068469842e-13,1.270982963e-13,1.160217381e-13,1.32648375e-13,3.097218571e-14
0.6953125,3.278420345e-14,9.641451474e-14,4.923822937e-14,3.813444463e-14,5.112301711e-14,7.673365993e-14,1.960381768e-14,3.001147044e-14,2.544993235e-14,4.014251024e-14,5.812938399e-14,5.381576335e-14,5.72203052e-14,7.514215291e-14,8.990246448e-14,1.461420502e-13,1.290519782e-13,7.898881294e-14,2.49409401e-14,1.144376822e-13,1.984702921e-14,9.563601561e-15,2.812145577e-14,1.561159663e-14,5.707595069e-14,6.720216716e-14,1.401024412e-13,1.951633639e-13,1.263539183e-13,1.017086917e-13,1.233698772e-13,2.558996263e-14
0.703125,2.913298914e-14,9.284295942e-14,4.669698283e-14,3.606158988e-14,4.796162678e-14,6.112172365e-14,1.800315322e-14,2.347524871e-14,2.663920241e-14,4.035660628e-14,5.447473308e-14,5.3438192e-14,4.94186227e-14,6.181885044e-14,7.892027712e-14,1.192107818e-13,1.120390824e-13,6.977079527e-14,2.316659947e-14,1.19589713e-13,1.97350174e-14,1.01011203e-14,2.384693452e-14,1.697306658e-14,5.39286767e-14,6.201899897e-14,1.364197814e-13,1.815493172e-13,1.251058468e-13,8.924966316e-14,1.130344275e-13,2.104908278e-14
0.7109375,2.587280162e-14,8.958963197e-14,4.742037368e-14,3.459785059e-14,4.548285106e-14,4.923600907e-14,1.709000942e-14,1.855307825e-14,2.848420212e-14,3.989428679e-14,5.205965289e-14,5.360573344e-14,4.279944821e-14,5.007746909e-14,7.005618502e-14,9.550056315e-14,9.660877834e-14,6.139001562e-14,2.260536473e-14,1.238617154e-13,2.009229167e-14,1.112622049e-14,1.958359448e-14,1.871932786e-14,5.146032623e-14,5.661338118e-14,1.313576558e-13,1.677816006e-13,1.244931137e-13,7.950501935e-14,1.02724611e-13,1.760767093e-14
0.71875,2.29998564e-14,8.607242915e-14,5.098981622e-14,3.345721945e-14,4.377389941e-14,4.083392264e-14,1.689871978e-14,1.534261485e-14,3.07819001e-14,3.939130465e-14,5.152428647e-14,5.424990141e-14,3.740842754e-14,4.01904436e-14,6.308625037e-14,7.541743663e-14,8.272701256e-14,5.438337294e-14,2.308451218e-14,1.27938453e-13,2.076707295e-14,1.246776771e-14,1.587140938e-14,2.077810585e-14,5.013231538e-14,5.197733867e-14,1.257415815e-13,1.546798378e-13,1.246518283e-13,7.238445849e-14,9.296565806e-14,1.594644173e-14
0.7265625,2.090605062e-14,8.31532664e-14,5.637922933e-14,3.297334193e-14,4.266716619e-14,3.47004499e-14,1.72016216e-14,1.400632284e-14,3.355358091e-14,3.89488508e-14,5.256062774e-14,5.542313217e-14,3.33823839e-14,3.252170529e-14,5.766476196e-14,5.994827894e-14,7.138034429e-14,4.91773701e-14,2.437479493e-14,1.321325176e-13,2.161567755e-14,1.39541986e-14,1.311374518e-14,2.30087517e-14,5.018203479e-14,4.852707111e-14,1.192643907e-13,1.418249465e-13,1.24410432e-13,6.749669235e-14,8.382679322e-14,1.613200081e-14
0.734375,1.993691042e-14,8.165189189e-14,6.378754696e-14,3.293650451e-14,4.219540175e-14,2.995987821e-14,1.816596847e-14,1.447720342e-14,3.690674134e-14,3.889240744e-14,5.488327525e-14,5.760675435e-14,3.072871455e-14,2.71274822e-14,5.288257449e-14,4.860005378e-14,6.236648702e-14,4.584212507e-14,2.652519988e-14,1.364153465e-13,2.256506824e-14,1.563544989e-14,1.140273875e-14,2.528143027e-14,5.199759384e-14,4.678912925e-14,1.129142342e-13,1.288853491e-13,1.239296602e-13,6.39182107e-14,7.602142477e-14,1.851654726e-14
0.7421875,2.035166691e-14,8.171828971e-14,7.238004628e-14,3.410304546e-14,4.244352839e-14,2.640227022e-14,1.955000359e-14,1.66302326e-14,4.082357155e-14,3.929857918e-14,5.854776919e-14,6.075508233e-14,2.952311043e-14,2.415852138e-14,4.846013018e-14,4.112163808e-14,5.500587061e-14,4.401726935e-14,2.926153515e-14,1.401329259e-13,2.349143989e-14,1.76189223e-14,1.100137562e-14,2.738716387e-14,5.499590934e-14,4.706695507e-14,1.066387649e-13,1.157707951e-13,1.232266785e-13,6.182854349e-14,7.07833801e-14,2.34261613e-14
0.75,2.213034169e-14,8.317109745e-14,8.267980708e-14,3.650418121e-14,4.352139491e-14,2.39727027e-14,2.123952673e-14,2.049462191e-14,4.517815034e-14,4.03232873e-14,6.313859978e-14,6.472424688e-14,3.00118678e-14,2.346361359e-14,4.455898241e-14,3.791469917e-14,5.043310482e-14,4.45536957e-14,3.281022305e-14,1.451251845e-13,2.448354308e-14,1.997288978e-14,1.187762742e-14,2.938997687e-14,5.970634077e-14,4.946798402e-14,1.0280465e-13,1.047949814e-13,1.247481218e-13,6.191491764e-14,6.838421025e-14,3.048422926e-14
0.7578125,2.49683949e-14,8.615761038e-14,9.46731718e-14,3.996463954e-14,4.514741434e-14,2.287052429e-14,2.330497852e-14,2.602332827e-14,5.01258471e-14,4.238358518e-14,6.814359889e-14,6.97959038e-14,3.210886122e-14,2.454627321e-14,4.130998032e-14,3.812386577e-14,4.778445923e-14,4.700561364e-14,3.677995069e-14,1.495223329e-13,2.52778423e-14,2.273059001e-14,1.400016881e-14,3.119883003e-14,6.5190659e-14,5.344104736e-14,1.011838557e-13,9.724119934e-14,1.286065991e-13,6.408364785e-14,6.806910013e-14,3.923245615e-14
0.765625,2.847216565e-14,9.100772317e-14,1.084930237e-13,4.461348677e-14,4.765821838e-14,2.303724963e-14,2.549472152e-14,3.316351752e-14,5.55033816e-14,4.520363002e-14,7.290642529e-14,7.574564131e-14,3.570336534e-14,2.68266047e-14,3.845060723e-14,4.105037909e-14,4.679292289e-14,5.150992216e-14,4.107520203e-14,1.534183988e-13,2.592494822e-14,2.593098856e-14,1.730360766e-14,3.274465887e-14,7.065568118e-14,5.887575762e-14,1.0186366e-13,9.376494561e-14,1.348476317e-13,6.832577094e-14,6.975635758e-14,4.92657993e-14
0.7734375,3.240849047e-14,9.684503365e-14,1.229615025e-13,4.986625492e-14,5.044374157e-14,2.459982518e-14,2.763979069e-14,4.183697056e-14,6.117912822e-14,4.900738243e-14,7.736294233e-14,8.299447065e-14,4.06127468e-14,2.997025794e-14,3.620379503e-14,4.647882813e-14,4.684068847e-14,5.735947942e-14,4.552870338e-14,1.555135444e-13,2.638870233e-14,2.953693584e-14,2.148417894e-14,3.39595782e-14,7.599140644e-14,6.491414856e-14,1.046843905e-13,9.426231944e-14,1.438183437e-13,7.463175396e-14,7.288217723e-14,5.989133317e-14
0.78125,3.603134015e-14,1.036396317e-13,1.359850795e-13,5.536656691e-14,5.30390594e-14,2.718830378e-14,2.960192368e-14,5.191676146e-14,6.702355913e-14,5.353622199e-14,8.024463742e-14,9.133566309e-14,4.635524488e-14,3.338920587e-14,3.489148392e-14,5.333445086e-14,4.754476091e-14,6.400350385e-14,4.976209731e-14,1.572475657e-13,2.694848655e-14,3.344584007e-14,2.626188722e-14,3.46889755e-14,8.107556121e-14,7.078388791e-14,1.102615763e-13,9.852465728e-14,1.561148774e-13,8.313170607e-14,7.646295863e-14,6.984342708e-14
0.7890625,3.886848372e-14,1.113135452e-13,1.465909053e-13,6.058354444e-14,5.524636442e-14,3.045139324e-14,3.131125879e-14,6.313238535e-14,7.243015355e-14,5.772216528e-14,8.112467766e-14,9.960149303e-14,5.229038912e-14,3.656073646e-14,3.492794566e-14,6.073171789e-14,4.767071672e-14,7.058947727e-14,5.344839699e-14,1.576872484e-13,2.775284924e-14,3.744924827e-14,3.110064029e-14,3.511883799e-14,8.465679764e-14,7.588492086e-14,1.172260519e-13,1.048114121e-13,1.698804476e-13,9.316561951e-14,7.984537215e-14,7.845010581e-14
0.796875,4.066678148e-14,1.187730514e-13,1.532118261e-13,6.526982568e-14,5.651134815e-14,3.327869177e-14,3.288536825e-14,7.518031963e-14,7.720537909e-14,6.141025315e-14,7.861175586e-14,1.072357177e-13,5.848273353e-14,3.921092113e-14,3.64522755e-14,6.772245333e-14,4.684106736e-14,7.633833516e-14,5.616906389e-14,1.546563521e-13,2.866180361e-14,4.144821408e-14,3.588450565e-14,3.540546136e-14,8.675116338e-14,7.946230284e-14,1.242142312e-13,1.123569602e-13,1.83663133e-13,1.030996877e-13,8.17912497e-14,8.472086222e-14
0.8046875,4.133125578e-14,1.251890294e-13,1.562677241e-13,6.881677275e-14,5.74782004e-14,3.611321578e-14,3.403665973e-14,8.716816688e-14,8.074707362e-14,6.395611648e-14,7.399513225e-14,1.132681288e-13,6.417131234e-14,4.123906551e-14,3.911924742e-14,7.438828461e-14,4.632639877e-14,8.132818722e-14,5.797216333e-14,1.486150747e-13,2.959272945e-14,4.511308457e-14,4.017523241e-14,3.554635412e-14,8.755391663e-14,8.151126194e-14,1.297793321e-13,1.204771825e-13,1.96171794e-13,1.126977305e-13,8.282137833e-14,8.84552337e-14
0.8125,4.046822208e-14,1.289405679e-13,1.544497528e-13,7.068241301e-14,5.817550735e-14,3.836800691e-14,3.475493456e-14,9.871609855e-14,8.229511477e-14,6.520508857e-14,6.735934272e-14,1.165027658e-13,6.816960297e-14,4.195588971e-14,4.285530786e-14,8.081892037e-14,4.55220035e-14,8.473361006e-14,5.838917086e-14,1.406544455e-13,3.041703389e-14,4.797593617e-14,4.396642984e-14,3.558453532e-14,8.70188117e-14,8.249064016e-14,1.337294431e-13,1.275640103e-13,2.049677792e-13,1.198246939e-13,8.296294446e-14,8.987432742e-14
0.8203125,3.875583438e-14,1.313166112e-13,1.489273658e-13,7.195437178e-14,5.810545797e-14,3.976034675e-14,3.498607013e-14,1.091932704e-13,8.213766497e-14,6.54120546e-14,5.947246396e-14,1.177793326e-13,7.004145763e-14,4.152970102e-14,4.771295572e-14,8.648594707e-14,4.469378675e-14,8.614853104e-14,5.713233026e-14,1.314833734e-13,3.088881822e-14,4.994298636e-14,4.729978606e-14,3.58511351e-14,8.494442858e-14,8.207421209e-14,1.348669654e-13,1.325767821e-13,2.088937264e-13,1.245597645e-13,8.170665053e-14,8.915298496e-14
0.828125,3.674228169e-14,1.320446226e-13,1.408508477e-13,7.29975582e-14,5.78706614e-14,4.028459478e-14,3.464479788e-14,1.17774878e-13,8.022647694e-14,6.454531069e-14,5.102243549e-14,1.173251145e-13,7.050922546e-14,4.083190435e-14,5.387065483e-14,9.19461566e-14,4.448607381e-14,8.690887154e-14,5.484613982e-14,1.222149873e-13,3.097673909e-14,5.091015103e-14,5.01088776e-14,3.612054824e-14,8.178318515e-14,8.133491289e-14,1.342881124e-13,1.357288792e-13,2.079536834e-13,1.267110285e-13,8.022612999e-14,8.668935739e-14
0.8359375,3.483837263e-14,1.313722456e-13,1.320981603e-13,7.431886768e-14,5.747218382e-14,4.008548261e-14,3.385418111e-14,1.233167965e-13,7.668279095e-14,6.250254785e-14,4.246368499e-14,1.14540443e-13,6.958376168e-14,3.983025975e-14,6.11101054e-14,9.734223647e-14,4.502380074e-14,8.787564414e-14,5.225320056e-14,1.140387384e-13,3.051073761e-14,5.093166887e-14,5.295735978e-14,3.650701612e-14,7.716999528e-14,8.052099273e-14,1.32166218e-13,1.36596967e-13,2.030261692e-13,1.273618682e-13,7.875245684e-14,8.311779163e-14
0.84375,3.333084433e-14,1.300521993e-13,1.235480427e-13,7.625407641e-14,5.712469181e-14,3.97614734e-14,3.263106818e-14,1.252497679e-13,7.199767747e-14,6.026992629e-14,3.510373332e-14,1.096883243e-13,6.737745649e-14,3.895424689e-14,6.961528024e-14,1.039275784e-13,4.64764707e-14,8.790324704e-14,4.905833307e-14,1.06854316e-13,2.93393463e-14,4.979045212e-14,5.574547847e-14,3.714417102e-14,7.115739868e-14,7.986468067e-14,1.276027387e-13,1.350541699e-13,1.929719847e-13,1.250307e-13,7.758455411e-14,7.922415247e-14
0.8515625,3.182176567e-14,1.267683906e-13,1.144537093e-13,7.822246038e-14,5.694459704e-14,3.948298957e-14,3.120462357e-14,1.234950112e-13,6.614588539e-14,5.764277977e-14,2.892755207e-14,1.017533865e-13,6.295178416e-14,3.729350732e-14,7.772376883e-14,1.098785479e-13,4.766540503e-14,8.583991999e-14,4.496743342e-14,1.001213242e-13,2.744384236e-14,4.756087359e-14,5.945718253e-14,3.791814573e-14,6.359254663e-14,7.902062166e-14,1.201445453e-13,1.298070427e-13,1.781272793e-13,1.196268359e-13,7.629120205e-14,7.542420522e-14
0.859375,3.075524098e-14,1.229841967e-13,1.060837537e-13,8.038372191e-14,5.683197446e-14,3.957347317e-14,2.970574577e-14,1.179629474e-13,5.996570209e-14,5.468784242e-14,2.463320442e-14,9.204717981e-14,5.697994902e-14,3.50766026e-14,8.462552524e-14,1.137563526e-13,4.834835014e-14,8.230722428e-14,4.073614432e-14,9.339519054e-14,2.502500788e-14,4.500511875e-14,6.404614734e-14,3.861015581e-14,5.476271554e-14,7.789171634e-14,1.103447051e-13,1.214596494e-13,1.606015346e-13,1.133345009e-13,7.496031847e-14,7.193230318e-14
0.8671875,3.063397262e-14,1.1920703e-13,9.93745193e-14,8.243186584e-14,5.693459554e-14,4.053240075e-14,2.823269402e-14,1.099683415e-13,5.419971497e-14,5.206003163e-14,2.211414452e-14,8.18417435e-14,5.088104242e-14,3.287725611e-14,8.995592432e-14,1.160463265e-13,4.923899332e-14,7.891927741e-14,3.740921518e-14,8.814796266e-14,2.249545277e-14,4.268156458e-14,6.964732274e-14,3.946120601e-14,4.618335328e-14,7.660288839e-14,9.998847337e-14,1.126125112e-13,1.448637898e-13,1.091040045e-13,7.391950087e-14,6.901420403e-14
0.875,3.14497585e-14,1.157713892e-13,9.393237801e-14,8.418616923e-14,5.731007168e-14,4.195605185e-14,2.682843105e-14,9.993879427e-14,4.909054278e-14,4.949578064e-14,2.082855345e-14,7.150351252e-14,4.492133149e-14,3.135855145e-14,9.517891863e-14,1.187849112e-13,5.108572798e-14,7.553677292e-14,3.477186366e-14,8.464673749e-14,2.002425128e-14,4.064906916e-14,7.674164877e-14,4.038716285e-14,3.829924571e-14,7.493834392e-14,8.940304151e-14,1.048068643e-13,1.314710266e-13,1.076219203e-13,7.269975613e-14,6.692258514e-14
0.8828125,3.324673347e-14,1.130950489e-13,9.053991123e-14,8.568273847e-14,5.795237927e-14,4.398598241e-14,2.580160163e-14,8.889823462e-14,4.531485824e-14,4.744566434e-14,2.005836304e-14,6.181003148e-14,3.980072615e-14,3.063709405e-14,1.002992483e-13,1.209470116e-13,5.321628459e-14,7.191908896e-14,3.295784585e-14,8.16635473e-14,1.788394316e-14,3.969812161e-14,8.535145417e-14,4.192312854e-14,3.152456033e-14,7.23214173e-14,7.877119303e-14,9.734663246e-14,1.217667406e-13,1.094736503e-13,7.10394625e-14,6.560900003e-14
0.890625,3.562506863e-14,1.108527801e-13,8.844339819e-14,8.644938762e-14,5.875706646e-14,4.659573383e-14,2.541560014e-14,7.791584103e-14,4.300066602e-14,4.552741644e-14,1.956308181e-14,5.344463175e-14,3.620348089e-14,3.080397719e-14,1.049500609e-13,1.222782897e-13,5.531087116e-14,6.82530418e-14,3.20318856e-14,7.933532352e-14,1.627134838e-14,4.006859792e-14,9.518336757e-14,4.391005517e-14,2.647696802e-14,6.897227857e-14,7.002561044e-14,9.186213149e-14,1.178769343e-13,1.16337024e-13,6.892418956e-14,6.487420978e-14
0.8984375,3.850945012e-14,1.096578146e-13,8.768706929e-14,8.63651175e-14,5.967467502e-14,4.949578374e-14,2.549959101e-14,6.802319658e-14,4.209380925e-14,4.403861678e-14,1.98800975e-14,4.71298341e-14,3.412125469e-14,3.222188261e-14,1.09153115e-13,1.234635464e-13,5.792806612e-14,6.495555385e-14,3.201049862e-14,7.791863675e-14,1.531871063e-14,4.156293525e-14,1.063498712e-13,4.63668874e-14,2.354079834e-14,6.526712238e-14,6.357870439e-14,8.915957107e-14,1.200871206e-13,1.284078112e-13,6.645145553e-14,6.481411495e-14
0.90625,4.20982821e-14,1.100575199e-13,8.836884499e-14,8.614457004e-14,6.08195002e-14,5.216739603e-14,2.584357691e-14,5.983625825e-14,4.262450906e-14,4.368758968e-14,2.067460169e-14,4.386542424e-14,3.37325368e-14,3.572003636e-14,1.139392708e-13,1.264514389e-13,6.259054833e-14,6.267135984e-14,3.284514722e-14,7.789027089e-14,1.502021442e-14,4.382225565e-14,1.181204956e-13,4.925541372e-14,2.301414153e-14,6.165313767e-14,6.074632305e-14,9.10732949e-14,1.283269725e-13,1.458645414e-13,6.405548955e-14,6.550009801e-14
0.9140625,4.623255567e-14,1.121548456e-13,9.003920237e-14,8.623468609e-14,6.239068663e-14,5.36885404e-14,2.64146074e-14,5.353398059e-14,4.437504131e-14,4.466815446e-14,2.182613887e-14,4.367063043e-14,3.506648456e-14,4.169180659e-14,1.200709009e-13,1.334141128e-13,7.031885587e-14,6.180823229e-14,3.453385118e-14,7.996683186e-14,1.530473042e-14,4.674390231e-14,1.302281728e-13,5.241053079e-14,2.503806721e-14,5.874814352e-14,6.224735003e-14,9.743255803e-14,1.424605382e-13,1.67759903e-13,6.216538378e-14,6.731569423e-14
0.921875,5.120059766e-14,1.163871239e-13,9.29262532e-14,8.742916856e-14,6.430151003e-14,5.435011806e-14,2.707497263e-14,4.87161419e-14,4.734295573e-14,4.747657049e-14,2.379190101e-14,4.701855489e-14,3.848500612e-14,5.057155005e-14,1.282754933e-13,1.459114355e-13,8.183938444e-14,6.253239862e-14,3.686199191e-14,8.519981365e-14,1.593979739e-14,5.028133665e-14,1.415259162e-13,5.613441137e-14,2.958516796e-14,5.704605236e-14,6.89499115e-14,1.085976617e-13,1.614425172e-13,1.926010603e-13,6.111927625e-14,7.023837609e-14
0.9296875,5.696835244e-14,1.223990097e-13,9.654589909e-14,8.964756279e-14,6.603332519e-14,5.377251875e-14,2.767683277e-14,4.508060258e-14,5.118217587e-14,5.271945169e-14,2.690919244e-14,5.436752539e-14,4.391526905e-14,6.218232614e-14,1.382004007e-13,1.641179776e-13,9.820586833e-14,6.484821557e-14,3.95847832e-14,9.306558457e-14,1.68310579e-14,5.397506147e-14,1.510376797e-13,6.035965871e-14,3.727303594e-14,5.642417472e-14,8.0456794e-14,1.24895219e-13,1.834586325e-13,2.171202708e-13,6.058920833e-14,7.362424758e-14
0.9375,6.374284678e-14,1.304665381e-13,1.008828953e-13,9.319956363e-14,6.796506105e-14,5.191598126e-14,2.837444806e-14,4.241398281e-14,5.54905492e-14,6.128190614e-14,3.213368456e-14,6.580038107e-14,5.154011142e-14,7.735573288e-14,1.511943977e-13,1.903482579e-13,1.21456872e-13,6.956316804e-14,4.279261402e-14,1.042938116e-13,1.797670821e-14,5.714915687e-14,1.577615741e-13,6.543257313e-14,4.853041903e-14,5.800113019e-14,9.793101886e-14,1.465539889e-13,2.093672427e-13,2.399260322e-13,6.162964423e-14,7.770167015e-14
0.9453125,7.146710381e-14,1.402051343e-13,1.052036437e-13,9.831273525e-14,6.99780268e-14,4.899490667e-14,2.887103627e-14,4.037891465e-14,5.973814587e-14,7.399419293e-14,3.975904844e-14,8.076567574e-14,6.144511119e-14,9.574475289e-14,1.674948714e-13,2.25314665e-13,1.52190847e-13,7.662206388e-14,4.623666601e-14,1.188123382e-13,1.922196708e-14,5.945251402e-14,1.600086518e-13,7.134135895e-14,6.353490105e-14,6.172984882e-14,1.206252163e-13,1.738680396e-13,2.371190266e-13,2.583622468e-13,6.439637246e-14,8.156603563e-14
0.953125,8.041074452e-14,1.517307337e-13,1.095996784e-13,1.052500245e-13,7.182644221e-14,4.500661196e-14,2.952510154e-14,3.867604105e-14,6.421987734e-14,9.090109676e-14,4.994874549e-14,9.907343272e-14,7.39475832e-14,1.160162295e-13,1.85643435e-13,2.666079494e-13,1.894454002e-13,8.554523682e-14,4.984423062e-14,1.359019837e-13,2.046543333e-14,6.114089202e-14,1.580567908e-13,7.791502555e-14,8.237939097e-14,6.690769935e-14,1.474120979e-13,2.07095151e-13,2.650482473e-13,2.708637489e-13,6.809209914e-14,8.447158681e-14
0.9609375,9.025033772e-14,1.641835834e-13,1.137684093e-13,1.125811262e-13,7.343669235e-14,4.022947034e-14,3.068243266e-14,3.743644727e-14,6.854300951e-14,1.11110636e-13,6.197817846e-14,1.1939243e-13,8.831843612e-14,1.358089466e-13,2.03755451e-13,3.106495878e-13,2.311618922e-13,9.494581398e-14,5.291604899e-14,1.536335132e-13,2.152920124e-14,6.222114538e-14,1.520689385e-13,8.525959486e-14,1.044948577e-13,7.296988657e-14,1.749010915e-13,2.430382031e-13,2.876214101e-13,2.727311635e-13,7.192808694e-14,8.619939502e-14
0.96875,1.007152235e-13,1.781983341e-13,1.180496471e-13,1.205628772e-13,7.491198915e-14,3.562333292e-14,3.236009272e-14,3.652795203e-14,7.26709757e-14,1.337214838e-13,7.597225999e-14,1.409090645e-13,1.040786164e-13,1.543659484e-13,2.219818623e-13,3.544405639e-13,2.743664057e-13,1.044911041e-13,5.522259845e-14,1.696029706e-13,2.252541164e-14,6.318742878e-14,1.434713875e-13,9.312116118e-14,1.285093056e-13,7.945274903e-14,2.014329695e-13,2.797372706e-13,3.05477489e-13,2.647969237e-13,7.584501404e-14,8.689526125e-14
0.9765625,1.121319214e-13,1.943761807e-13,1.228869805e-13,1.283065384e-13,7.605668463e-14,3.175071968e-14,3.480369915e-14,3.622863193e-14,7.680566654e-14,1.564697083e-13,9.141938755e-14,1.620958197e-13,1.210161924e-13,1.70828129e-13,2.399052366e-13,3.942288524e-13,3.160059673e-13,1.142133484e-13,5.695546651e-14,1.831063772e-13,2.374517232e-14,6.424491702e-14,1.333712572e-13,1.014879336e-13,1.534679361e-13,8.541962961e-14,2.249233424e-13,3.157956777e-13,3.18836329e-13,2.506019741e-13,7.953337641e-14,8.642066264e-14
0.984375,1.227552952e-13,2.099776902e-13,1.280876454e-13,1.347122606e-13,7.635447361e-14,2.886450167e-14,3.77129274e-14,3.695406146e-14,8.044095973e-14,1.768437215e-13,1.061411544e-13,1.800303009e-13,1.373449441e-13,1.821418522e-13,2.536486438e-13,4.239659288e-13,3.498287864e-13,1.221600531e-13,5.7663237e-14,1.917866693e-13,2.516896385e-14,6.533722564e-14,1.227513161e-13,1.098861327e-13,1.759309816e-13,8.974416707e-14,2.415766645e-13,3.461240284e-13,3.238124166e-13,2.302916888e-13,8.143779288e-14,8.466186606e-14
0.9921875,1.311154441e-13,2.223055787e-13,1.334822101e-13,1.376322814e-13,7.541909696e-14,2.734070456e-14,4.117848334e-14,3.825948205e-14,8.323088148e-14,1.923854201e-13,1.178045618e-13,1.935692312e-13,1.516413595e-13,1.862684029e-13,2.607248757e-13,4.395746143e-13,3.709150439e-13,1.26794102e-13,5.732719575e-14,1.930796792e-13,2.691405257e-14,6.647320843e-14,1.124552958e-13,1.178337511e-13,1.939998009e-13,9.119156872e-14,2.495124813e-13,3.686525156e-13,3.200627291e-13,2.048893619e-13,8.025109191e-14,8.181730615e-14
1,1.359686881e-13,2.305682431e-13,1.375441536e-13,1.368038794e-13,7.332004632e-14,2.699541969e-14,4.43686282e-14,3.97467592e-14,8.427273702e-14,2.008856361e-13,1.263097046e-13,2.010584792e-13,1.613228972e-13,1.828837997e-13,2.613403491e-13,4.386550746e-13,3.769310941e-13,1.273871256e-13,5.575569261e-14,1.859606513e-13,2.886101593e-14,6.724773467e-14,1.025228973e-13,1.240413667e-13,2.047811697e-13,8.950608366e-14,2.47056328e-13,3.796783916e-13,3.062702795e-13,1.76010281e-13,7.61789466e-14,7.78594777e-14
1.0078125,1.374725089e-13,2.34009836e-13,1.40713421e-13,1.328236249e-13,7.063128739e-14,2.801138744e-14,4.699215852e-14,4.105807792e-14,8.378440378e-14,2.01210497e-13,1.318989583e-13,2.016600308e-13,1.662681481e-13,1.735887806e-13,2.569405811e-13,4.22865726e-13,3.701699014e-13,1.252619616e-13,5.346467199e-14,1.736047448e-13,3.093755537e-14,6.788490881e-14,9.325300771e-14,1.279134004e-13,2.080555285e-13,8.554677472e-14,2.36004483e-13,3.801660565e-13,2.860768897e-13,1.484203889e-13,7.062110247e-14,7.393223731e-14
1.015625,1.350548108e-13,2.315042308e-13,1.425890752e-13,1.25657375e-13,6.755310476e-14,3.044245568e-14,4.900860025e-14,4.189597234e-14,8.17374898e-14,1.937509158e-13,1.33591903e-13,1.949015773e-13,1.661152826e-13,1.594642205e-13,2.467075439e-13,3.93923271e-13,3.514001e-13,1.19899396e-13,5.046273798e-14,1.572903352e-13,3.326751724e-14,6.820436934e-14,8.463973276e-14,1.287303088e-13,2.036552982e-13,7.958733033e-14,2.177006335e-13,3.706452509e-13,2.617713938e-13,1.236057378e-13,6.369447135e-14,7.057645441e-14
1.0234375,1.282728939e-13,2.20901014e-13,1.41881795e-13,1.147201573e-13,6.423033799e-14,3.378672289e-14,5.093376964e-14,4.230883964e-14,7.789271147e-14,1.793411266e-13,1.303552383e-13,1.816537672e-13,1.609728642e-13,1.415027144e-13,2.301735989e-13,3.554725667e-13,3.231083974e-13,1.119455487e-13,4.711719378e-14,1.397630617e-13,3.560470806e-14,6.79730493e-14,7.655150945e-14,1.261809414e-13,1.932859284e-13,7.228604773e-14,1.944891745e-13,3.530695964e-13,2.358861057e-13,1.024296988e-13,5.601968726e-14,6.775684424e-14
1.03125,1.180879611e-13,2.045128636e-13,1.392732156e-13,1.014728178e-13,6.112873743e-14,3.793835356e-14,5.284186177e-14,4.234958843e-14,7.253075397e-14,1.600518741e-13,1.232300351e-13,1.64277271e-13,1.509448053e-13,1.216617527e-13,2.104570669e-13,3.129337967e-13,2.895195896e-13,1.018140288e-13,4.372624054e-14,1.23122547e-13,3.768471886e-14,6.707469347e-14,6.957013784e-14,1.202215172e-13,1.78394228e-13,6.469779197e-14,1.691350067e-13,3.30558507e-13,2.096796715e-13,8.566123476e-14,4.849762892e-14,6.585471107e-14
1.0390625,1.056734768e-13,1.831562531e-13,1.359878061e-13,8.643593776e-14,5.871690141e-14,4.298265131e-14,5.499003652e-14,4.184028804e-14,6.625324376e-14,1.383511351e-13,1.139475811e-13,1.441906476e-13,1.370972387e-13,1.016534589e-13,1.893792653e-13,2.691798898e-13,2.542873293e-13,9.045119917e-14,4.032042108e-14,1.083977635e-13,3.908721642e-14,6.572032162e-14,6.352775034e-14,1.112150681e-13,1.6117933e-13,5.787651029e-14,1.434874108e-13,3.059354977e-13,1.849297661e-13,7.27968413e-14,4.1720485e-14,6.556639951e-14
1.046875,9.17110983e-14,1.590163757e-13,1.319916579e-13,7.104884968e-14,5.717164287e-14,4.899043359e-14,5.715264036e-14,4.126573933e-14,5.923540247e-14,1.157913782e-13,1.038794127e-13,1.225135467e-13,1.209359223e-13,8.302932784e-14,1.697879505e-13,2.287532154e-13,2.218713476e-13,7.901410464e-14,3.716836724e-14,9.730374815e-14,3.977326208e-14,6.399391397e-14,5.87696358e-14,9.987436994e-14,1.442018356e-13,5.274545725e-14,1.198449829e-13,2.818288786e-13,1.637255304e-13,6.347195672e-14,3.657008077e-14,6.709505685e-14
1.0546875,7.753999751e-14,1.355561128e-13,1.278437445e-13,5.701624373e-14,5.63647985e-14,5.543100372e-14,5.92231446e-14,4.070875892e-14,5.215155683e-14,9.513628517e-14,9.403227234e-14,1.011632057e-13,1.043912859e-13,6.704553978e-14,1.529703395e-13,1.946608284e-13,1.948876258e-13,6.852532223e-14,3.455367841e-14,9.041730602e-14,3.981322898e-14,6.230217597e-14,5.538433753e-14,8.761521738e-14,1.291693512e-13,4.948360381e-14,9.967073264e-14,2.589721871e-13,1.477153904e-13,5.708862215e-14,3.365420664e-14,7.025905686e-14
1.0625,6.41557149e-14,1.147207621e-13,1.247332613e-13,4.48345474e-14,5.598237916e-14,6.248013071e-14,6.159685856e-14,4.025151824e-14,4.559066258e-14,7.731637903e-14,8.542153584e-14,8.202859653e-14,8.92103781e-14,5.429692581e-14,1.392265094e-13,1.675727145e-13,1.741126937e-13,5.96361698e-14,3.261099168e-14,8.771533957e-14,3.925638161e-14,6.087011801e-14,5.293715841e-14,7.565009876e-14,1.173282041e-13,4.833664008e-14,8.326989081e-14,2.388713424e-13,1.364498512e-13,5.281830106e-14,3.322756212e-14,7.475898408e-14
1.0703125,5.206699351e-14,9.850547219e-14,1.227745831e-13,3.5268608e-14,5.608732815e-14,7.037866519e-14,6.424752962e-14,4.03351879e-14,3.975563465e-14,6.298992819e-14,7.881517635e-14,6.57273779e-14,7.588631245e-14,4.463280928e-14,1.291819001e-13,1.482989748e-13,1.59585038e-13,5.204175878e-14,3.127878238e-14,8.87654166e-14,3.823085796e-14,5.99199139e-14,5.174699767e-14,6.503127947e-14,1.086193175e-13,4.9270777e-14,7.089350104e-14,2.214972565e-13,1.287544439e-13,4.938271399e-14,3.512987612e-14,8.031802991e-14
1.078125,4.185249361e-14,8.843854514e-14,1.221767664e-13,2.864551983e-14,5.626153555e-14,7.972667675e-14,6.703585662e-14,4.088806728e-14,3.512043375e-14,5.20684644e-14,7.429018661e-14,5.287118682e-14,6.540526169e-14,3.803629699e-14,1.231575131e-13,1.362797193e-13,1.505772138e-13,4.584138637e-14,3.063374169e-14,9.296990019e-14,3.68335549e-14,6.000910237e-14,5.117094242e-14,5.616766528e-14,1.024935931e-13,5.154577627e-14,6.217456508e-14,2.071762146e-13,1.234993065e-13,4.654549903e-14,3.877931377e-14,8.664083598e-14
1.0859375,3.35797821e-14,8.430490036e-14,1.22977672e-13,2.443466977e-14,5.601974072e-14,9.123198145e-14,6.925502432e-14,4.189875206e-14,3.166389025e-14,4.431722031e-14,7.170090667e-14,4.33230827e-14,5.803027139e-14,3.409756269e-14,1.205365453e-13,1.302667567e-13,1.459009743e-13,4.076110558e-14,3.058237099e-14,1.002327994e-13,3.537622263e-14,6.091795357e-14,5.117940294e-14,4.922958503e-14,9.835813712e-14,5.483185691e-14,5.65867282e-14,1.953935802e-13,1.193477061e-13,4.437352335e-14,4.359539843e-14,9.27624128e-14
1.09375,2.711469006e-14,8.598041493e-14,1.240522735e-13,2.202206942e-14,5.485632596e-14,1.048452959e-13,7.064452601e-14,4.300797145e-14,2.9045881e-14,3.906410569e-14,7.027632254e-14,3.657975469e-14,5.346342902e-14,3.243395229e-14,1.205731889e-13,1.291030393e-13,1.447913631e-13,3.648174914e-14,3.088372109e-14,1.100224324e-13,3.375513755e-14,6.198025146e-14,5.125874287e-14,4.403229214e-14,9.519209091e-14,5.837812288e-14,5.333624103e-14,1.853434106e-13,1.152555693e-13,4.267062689e-14,4.887442331e-14,9.775677986e-14
1.1015625,2.226370376e-14,9.213647262e-14,1.24316126e-13,2.075948642e-14,5.239437344e-14,1.196039103e-13,7.032289519e-14,4.410393992e-14,2.709272763e-14,3.577484917e-14,6.975136395e-14,3.23964092e-14,5.115725388e-14,3.253943445e-14,1.220819993e-13,1.304400252e-13,1.45178933e-13,3.253062902e-14,3.118165389e-14,1.208007168e-13,3.189031815e-14,6.288190011e-14,5.118097656e-14,3.963086853e-14,9.154167889e-14,6.117503917e-14,5.111624585e-14,1.747344068e-13,1.09650489e-13,4.143303863e-14,5.346434528e-14,1.002733984e-13
1.109375,1.928617809e-14,1.007091027e-13,1.243758e-13,1.984798525e-14,4.900373227e-14,1.352249217e-13,6.856164661e-14,4.480719391e-14,2.613375945e-14,3.406896019e-14,7.025173005e-14,3.087013635e-14,5.14641762e-14,3.430284124e-14,1.244845886e-13,1.324766929e-13,1.454998721e-13,2.890906059e-14,3.172799637e-14,1.3055161e-13,2.995563533e-14,6.365633154e-14,5.062331209e-14,3.580964842e-14,8.664565944e-14,6.247056377e-14,4.933110881e-14,1.63873454e-13,1.028644535e-13,4.082213891e-14,5.67049169e-14,1.005139549e-13
1.1171875,1.790728979e-14,1.107173772e-13,1.238613921e-13,1.898449075e-14,4.464400871e-14,1.506335468e-13,6.528484476e-14,4.498287568e-14,2.574310364e-14,3.326095257e-14,7.130190715e-14,3.132787399e-14,5.349999211e-14,3.742614293e-14,1.272658609e-13,1.343509295e-13,1.450439328e-13,2.554229301e-14,3.228608804e-14,1.385083092e-13,2.800499758e-14,6.359077486e-14,4.924355182e-14,3.242645741e-14,8.016741099e-14,6.206283716e-14,4.782734756e-14,1.523440553e-13,9.432480905e-14,4.10006106e-14,5.860241897e-14,9.787669768e-14
1.125,1.790055049e-14,1.200496092e-13,1.233465104e-13,1.780811491e-14,3.965892294e-14,1.651289399e-13,6.044586276e-14,4.458512342e-14,2.592079568e-14,3.305681326e-14,7.248820012e-14,3.373299754e-14,5.665458596e-14,4.18597794e-14,1.301020431e-13,1.354474131e-13,1.427686652e-13,2.224963745e-14,3.264309983e-14,1.440111327e-13,2.607947868e-14,6.252879116e-14,4.753584599e-14,2.900736108e-14,7.241828886e-14,5.973730937e-14,4.623046343e-14,1.410725606e-13,8.490147411e-14,4.205462433e-14,5.867003538e-14,9.246546683e-14
1.1328125,1.858469207e-14,1.27487473e-13,1.220874427e-13,1.645360713e-14,3.443878774e-14,1.759857933e-13,5.458911638e-14,4.375338875e-14,2.629473337e-14,3.346680586e-14,7.407649083e-14,3.744956727e-14,5.973488696e-14,4.714647496e-14,1.316385733e-13,1.355416604e-13,1.387491754e-13,1.87700421e-14,3.246783665e-14,1.469926007e-13,2.423157725e-14,6.022907071e-14,4.560057995e-14,2.551654097e-14,6.325992715e-14,5.620346032e-14,4.417038022e-14,1.282742859e-13,7.420970921e-14,4.339947661e-14,5.694261131e-14,8.512668192e-14
1.140625,1.982419851e-14,1.30053414e-13,1.208782226e-13,1.466990721e-14,2.950438887e-14,1.831522243e-13,4.831698314e-14,4.258860073e-14,2.705702711e-14,3.446519286e-14,7.606333508e-14,4.245633907e-14,6.299707765e-14,5.294717649e-14,1.31240733e-13,1.339790015e-13,1.327290275e-13,1.559918235e-14,3.184448231e-14,1.463303244e-13,2.239063354e-14,5.720508194e-14,4.392022427e-14,2.22720453e-14,5.401071692e-14,5.13675019e-14,4.192615167e-14,1.153030347e-13,6.381184267e-14,4.372984312e-14,5.321761231e-14,7.674994867e-14
1.1484375,2.192728656e-14,1.286311868e-13,1.194497911e-13,1.27088727e-14,2.532607975e-14,1.85497224e-13,4.211968929e-14,4.096874213e-14,2.801407394e-14,3.597604495e-14,7.927460657e-14,4.869482879e-14,6.617775991e-14,5.988300992e-14,1.305087191e-13,1.315439664e-13,1.259969561e-13,1.292828899e-14,3.114690246e-14,1.429143392e-13,2.072550279e-14,5.346585825e-14,4.260416775e-14,1.921886841e-14,4.498758419e-14,4.619234002e-14,4.078926488e-14,1.027471216e-13,5.454130776e-14,4.441487244e-14,4.853370493e-14,6.793266213e-14
1.15625,2.444526085e-14,1.237424475e-13,1.182557718e-13,1.092378146e-14,2.178336446e-14,1.830954541e-13,3.633777471e-14,3.921591003e-14,2.881860469e-14,3.77288775e-14,8.30296089e-14,5.527093841e-14,6.829964368e-14,6.726169394e-14,1.284405585e-13,1.272571369e-13,1.183818478e-13,1.061079927e-14,3.013384686e-14,1.369614813e-13,1.929841819e-14,4.919469072e-14,4.160753101e-14,1.662412646e-14,3.651294005e-14,4.138915897e-14,4.029380104e-14,8.993789557e-14,4.616809654e-14,4.460621506e-14,4.317267708e-14,5.916407208e-14
1.1640625,2.701136996e-14,1.160709236e-13,1.17354594e-13,9.363344502e-15,1.895139669e-14,1.763037163e-13,3.112506835e-14,3.739437278e-14,2.944360279e-14,3.936408267e-14,8.640380383e-14,6.14438477e-14,6.894678856e-14,7.420647021e-14,1.247826679e-13,1.215629058e-13,1.10781181e-13,8.736586351e-15,2.897554848e-14,1.302783657e-13,1.817578098e-14,4.463826324e-14,4.1372861e-14,1.465625904e-14,2.932509959e-14,3.748447633e-14,4.09085429e-14,7.742452825e-14,3.98278579e-14,4.431201115e-14,3.79306043e-14,5.090642599e-14
1.171875,2.878102772e-14,1.06742191e-13,1.162609048e-13,8.304235111e-15,1.699896839e-14,1.660701078e-13,2.674276871e-14,3.547271314e-14,2.948008849e-14,4.069734771e-14,8.882194043e-14,6.669311994e-14,6.763756314e-14,8.01380646e-14,1.196662316e-13,1.160864824e-13,1.042091164e-13,7.384116743e-15,2.740315581e-14,1.23045824e-13,1.728546625e-14,4.010565803e-14,4.162987367e-14,1.333914008e-14,2.327063316e-14,3.500862039e-14,4.283792687e-14,6.553624167e-14,3.521055165e-14,4.251592258e-14,3.337912341e-14,4.381851629e-14
1.1796875,3.043854331e-14,9.619426161e-14,1.154876749e-13,7.561843197e-15,1.570411962e-14,1.536174341e-13,2.331926163e-14,3.351549101e-14,2.939817842e-14,4.144219925e-14,9.10042572e-14,7.170667963e-14,6.576936314e-14,8.564482458e-14,1.150915812e-13,1.108212611e-13,9.877894227e-14,6.539906621e-15,2.556674842e-14,1.149677071e-13,1.644144095e-14,3.611027191e-14,4.230341384e-14,1.256357253e-14,1.871656428e-14,3.387216956e-14,4.592844636e-14,5.624810045e-14,3.226496612e-14,3.951813888e-14,2.930749318e-14,3.798893922e-14
1.1875,3.194381481e-14,8.651818783e-14,1.147614194e-13,7.276654993e-15,1.492674172e-14,1.401062361e-13,2.088495533e-14,3.158100775e-14,2.901267662e-14,4.161951308e-14,9.244215091e-14,7.587489505e-14,6.303630787e-14,9.046374068e-14,1.113629636e-13,1.062102984e-13,9.493587856e-14,6.19130832e-15,2.384712652e-14,1.074816896e-13,1.564707559e-14,3.270908075e-14,4.303528586e-14,1.2322978e-14,1.556523313e-14,3.425542432e-14,5.019942386e-14,4.937404498e-14,3.123594468e-14,3.644593909e-14,2.601545311e-14,3.346110959e-14
1.1953125,3.306756033e-14,7.805262859e-14,1.138753291e-13,7.518040031e-15,1.454696129e-14,1.256797835e-13,1.947169903e-14,2.96637072e-14,2.822488672e-14,4.170736678e-14,9.313773473e-14,7.917253321e-14,5.96657602e-14,9.439684087e-14,1.077101889e-13,1.023807676e-13,9.235624524e-14,6.254011031e-15,2.229768766e-14,1.004297272e-13,1.49075412e-14,2.983990863e-14,4.381092869e-14,1.25789705e-14,1.376013699e-14,3.578934762e-14,5.474653385e-14,4.400493735e-14,3.175077452e-14,3.31135849e-14,2.341303934e-14,3.014765997e-14
1.203125,3.336470789e-14,7.084610468e-14,1.120883462e-13,8.168677235e-15,1.427138726e-14,1.112037984e-13,1.869588624e-14,2.773394535e-14,2.702640045e-14,4.137888153e-14,9.226899921e-14,8.078497812e-14,5.600770492e-14,9.663583043e-14,1.040911676e-13,1.006407888e-13,9.198013945e-14,6.606006827e-15,2.125036189e-14,9.455640874e-14,1.412450782e-14,2.750881277e-14,4.427263355e-14,1.31959087e-14,1.328773552e-14,3.824249205e-14,5.951885541e-14,4.055466913e-14,3.399537869e-14,2.964090971e-14,2.152183979e-14,2.786234474e-14
1.2109375,3.259588384e-14,6.631172402e-14,1.087530237e-13,9.524202301e-15,1.430381951e-14,9.718646006e-14,1.837938009e-14,2.574176844e-14,2.53742677e-14,4.073361536e-14,8.997769577e-14,8.077042494e-14,5.223787127e-14,9.736666283e-14,1.011387399e-13,1.018594002e-13,9.433958772e-14,7.411444696e-15,2.066247511e-14,8.965360291e-14,1.321147878e-14,2.55940503e-14,4.448238218e-14,1.386706019e-14,1.393069892e-14,4.129534969e-14,6.393229951e-14,3.851021008e-14,3.779008018e-14,2.666688193e-14,2.04270241e-14,2.643772843e-14
1.21875,3.122786687e-14,6.372179959e-14,1.046783438e-13,1.156685555e-14,1.463211531e-14,8.399301272e-14,1.853531996e-14,2.363097378e-14,2.380220378e-14,3.990578315e-14,8.658829341e-14,8.030943967e-14,4.932734506e-14,9.745437963e-14,9.910759237e-14,1.048523242e-13,9.838121248e-14,8.620732087e-15,2.030542605e-14,8.498103765e-14,1.22072889e-14,2.425509483e-14,4.452723116e-14,1.473736904e-14,1.55676051e-14,4.444263265e-14,6.73542392e-14,3.753395885e-14,4.236359379e-14,2.360674499e-14,1.993887648e-14,2.576840612e-14
1.2265625,2.947765457e-14,6.304197599e-14,1.003473328e-13,1.457680799e-14,1.544447944e-14,7.288523695e-14,1.91148366e-14,2.164927516e-14,2.258082215e-14,3.874654836e-14,8.219766135e-14,7.95109992e-14,4.766656296e-14,9.724387858e-14,9.764322371e-14,1.090021313e-13,1.041015062e-13,1.022150583e-14,2.045353994e-14,8.112132548e-14,1.115561706e-14,2.367617642e-14,4.470963413e-14,1.597921794e-14,1.834815254e-14,4.70084791e-14,6.981665605e-14,3.723903839e-14,4.830075981e-14,2.087180403e-14,2.009056705e-14,2.579307598e-14
1.234375,2.776923789e-14,6.371167552e-14,9.610168577e-14,1.846793171e-14,1.683106966e-14,6.36294266e-14,2.018857931e-14,1.971590764e-14,2.187786119e-14,3.767623878e-14,7.744941607e-14,7.925019536e-14,4.765042021e-14,9.785063528e-14,9.664296579e-14,1.143468383e-13,1.119276716e-13,1.231833792e-14,2.085870343e-14,7.802325297e-14,1.002328647e-14,2.362595747e-14,4.51346203e-14,1.751704191e-14,2.225826386e-14,4.899799628e-14,7.11554718e-14,3.773674466e-14,5.50411362e-14,1.855059871e-14,2.088903509e-14,2.640950552e-14
1.2421875,2.644503165e-14,6.510575712e-14,9.205146991e-14,2.323824705e-14,1.853544356e-14,5.66512999e-14,2.129087004e-14,1.793359605e-14,2.187631229e-14,3.678612825e-14,7.209824689e-14,7.98320407e-14,4.933642722e-14,9.920122471e-14,9.565965867e-14,1.196482087e-13,1.205164044e-13,1.462103623e-14,2.121634788e-14,7.520146995e-14,8.830434369e-15,2.406201489e-14,4.581259973e-14,1.927159564e-14,2.6933931e-14,4.982511046e-14,7.047667267e-14,3.864757026e-14,6.17950294e-14,1.644540262e-14,2.189832249e-14,2.715844188e-14
1.25,2.554222213e-14,6.744490261e-14,8.783614711e-14,2.828615037e-14,2.068572036e-14,5.155002029e-14,2.22586875e-14,1.635844634e-14,2.234497709e-14,3.5866584e-14,6.648152946e-14,8.098840876e-14,5.20413183e-14,1.010784177e-13,9.497314271e-14,1.243202127e-13,1.293237216e-13,1.712550374e-14,2.162263461e-14,7.271856947e-14,7.668715883e-15,2.500634026e-14,4.70632139e-14,2.125291e-14,3.194901042e-14,4.937231658e-14,6.787728543e-14,3.943657458e-14,6.792955299e-14,1.490476468e-14,2.315870576e-14,2.779286748e-14
1.2578125,2.515144907e-14,7.050173359e-14,8.30962221e-14,3.384183847e-14,2.320495481e-14,4.73949471e-14,2.321086383e-14,1.509128764e-14,2.310607071e-14,3.530475274e-14,6.13987955e-14,8.30513122e-14,5.586336966e-14,1.035835044e-13,9.427438615e-14,1.271355406e-13,1.37544658e-13,1.995943674e-14,2.209921042e-14,6.994025595e-14,6.609526763e-15,2.636039846e-14,4.904656972e-14,2.354855952e-14,3.737727515e-14,4.763740111e-14,6.370927083e-14,3.973207747e-14,7.316595776e-14,1.3950455e-14,2.460319597e-14,2.809813414e-14
1.265625,2.508099958e-14,7.36360109e-14,7.769611517e-14,3.913679129e-14,2.582381016e-14,4.42085026e-14,2.414294302e-14,1.444278051e-14,2.399029088e-14,3.509665948e-14,5.672378039e-14,8.503697173e-14,6.057862382e-14,1.060458153e-13,9.266086542e-14,1.2752159e-13,1.45563911e-13,2.326417125e-14,2.277590884e-14,6.730926214e-14,5.690765963e-15,2.789001147e-14,5.210618644e-14,2.60358513e-14,4.352230874e-14,4.485268797e-14,5.923310559e-14,3.992650338e-14,7.817808609e-14,1.374449352e-14,2.606757019e-14,2.793969921e-14
1.2734375,2.480474879e-14,7.573571713e-14,7.135447628e-14,4.408423658e-14,2.809603211e-14,4.15999033e-14,2.511305285e-14,1.430516776e-14,2.453409407e-14,3.499993198e-14,5.204561773e-14,8.614114848e-14,6.488022939e-14,1.071169247e-13,8.897899043e-14,1.248642016e-13,1.516209383e-13,2.656824817e-14,2.337024742e-14,6.509990622e-14,4.877958435e-15,2.93045427e-14,5.594210472e-14,2.838842384e-14,4.956813583e-14,4.141882718e-14,5.424616359e-14,3.94772442e-14,8.196784812e-14,1.401254603e-14,2.71535382e-14,2.76043549e-14
1.28125,2.467149261e-14,7.690631549e-14,6.439472654e-14,4.807743334e-14,2.976054568e-14,3.941462017e-14,2.59189739e-14,1.481601684e-14,2.458529948e-14,3.52168066e-14,4.767186341e-14,8.680603048e-14,6.805222958e-14,1.069844734e-13,8.410167778e-14,1.190830892e-13,1.548784105e-13,2.950640105e-14,2.37557741e-14,6.329631906e-14,4.201230952e-15,3.022572801e-14,6.030149517e-14,3.032062781e-14,5.543080715e-14,3.730955562e-14,4.882806881e-14,3.87053536e-14,8.39909854e-14,1.479055946e-14,2.762482805e-14,2.664286432e-14
1.2890625,2.446770094e-14,7.759538005e-14,5.684538055e-14,5.146072268e-14,3.081653326e-14,3.750696677e-14,2.66339923e-14,1.595954686e-14,2.404260039e-14,3.576696462e-14,4.386090311e-14,8.657957268e-14,6.973540018e-14,1.052195452e-13,7.877233369e-14,1.110091692e-13,1.553843214e-13,3.20256793e-14,2.390213384e-14,6.17662918e-14,3.643837024e-15,3.073430766e-14,6.469599026e-14,3.210134249e-14,6.079970788e-14,3.323873308e-14,4.355236502e-14,3.749970049e-14,8.394467471e-14,1.584439424e-14,2.774775542e-14,2.544281179e-14
1.296875,2.397479178e-14,7.650087234e-14,4.876330952e-14,5.380933446e-14,3.123378219e-14,3.606732982e-14,2.767736948e-14,1.767553869e-14,2.291000679e-14,3.668042097e-14,4.063486446e-14,8.525042389e-14,7.014072423e-14,1.014931703e-13,7.23891506e-14,1.007309095e-13,1.523675901e-13,3.394181379e-14,2.382240948e-14,6.015269681e-14,3.224327238e-15,3.084402432e-14,6.88841666e-14,3.356513034e-14,6.595593264e-14,2.959261115e-14,3.848236467e-14,3.627220164e-14,8.2188024e-14,1.696961117e-14,2.730908643e-14,2.440044062e-14
1.3046875,2.316883857e-14,7.429982598e-14,4.066208701e-14,5.50705311e-14,3.083472393e-14,3.496817438e-14,2.896935946e-14,1.994142354e-14,2.120737229e-14,3.811183688e-14,3.801307392e-14,8.287420832e-14,6.862214937e-14,9.549048113e-14,6.48372832e-14,8.865827555e-14,1.452449177e-13,3.463036886e-14,2.350111826e-14,5.889301573e-14,2.954614492e-15,3.046309842e-14,7.271863402e-14,3.457106002e-14,7.035334084e-14,2.633900514e-14,3.366795195e-14,3.477431613e-14,7.852127922e-14,1.813819829e-14,2.613835758e-14,2.338797927e-14
1.3125,2.242808171e-14,7.168647055e-14,3.348455744e-14,5.536638859e-14,2.983307152e-14,3.505655609e-14,3.070194321e-14,2.275508367e-14,1.94154593e-14,4.01993249e-14,3.630008193e-14,7.996025783e-14,6.55939286e-14,8.790844196e-14,5.649534966e-14,7.613238236e-14,1.349006951e-13,3.416510764e-14,2.299249599e-14,5.829355235e-14,2.771039586e-15,2.991991736e-14,7.602303852e-14,3.5448145e-14,7.381532328e-14,2.386702027e-14,2.91515635e-14,3.327979993e-14,7.314391564e-14,1.958676991e-14,2.470182585e-14,2.270290168e-14
1.3203125,2.17946403e-14,6.926713707e-14,2.716708082e-14,5.523096284e-14,2.865254993e-14,3.606801958e-14,3.239278382e-14,2.571103195e-14,1.756194985e-14,4.275841953e-14,3.535043988e-14,7.666614998e-14,6.088072941e-14,7.919903176e-14,4.836370836e-14,6.393935468e-14,1.216995774e-13,3.26110547e-14,2.232705307e-14,5.794628119e-14,2.665162608e-15,2.920401893e-14,7.822136313e-14,3.602849656e-14,7.540842903e-14,2.204715692e-14,2.507284832e-14,3.201700913e-14,6.611286466e-14,2.136828427e-14,2.3292952e-14,2.22196224e-14
1.328125,2.126233755e-14,6.758213511e-14,2.191144815e-14,5.482409886e-14,2.761697828e-14,3.808705651e-14,3.354790068e-14,2.86074848e-14,1.579780513e-14,4.570322799e-14,3.513523036e-14,7.359044067e-14,5.449018755e-14,6.994671143e-14,4.100528676e-14,5.290297415e-14,1.064175915e-13,2.995305951e-14,2.148580536e-14,5.780564911e-14,2.651655895e-15,2.848042621e-14,7.908623717e-14,3.626549006e-14,7.458773656e-14,2.074926647e-14,2.131593051e-14,3.054088926e-14,5.757071066e-14,2.343452648e-14,2.214038062e-14,2.194436776e-14
1.3359375,2.114210249e-14,6.729117303e-14,1.808583048e-14,5.440778592e-14,2.692961817e-14,4.128570201e-14,3.39829241e-14,3.14198629e-14,1.446360566e-14,4.912314553e-14,3.580690974e-14,7.11635212e-14,4.772023795e-14,6.137830103e-14,3.485403277e-14,4.347454968e-14,9.046368609e-14,2.672640184e-14,2.054847583e-14,5.762051538e-14,2.726664427e-15,2.793767301e-14,7.88640345e-14,3.61069862e-14,7.187950607e-14,2.023333904e-14,1.804253906e-14,2.91422446e-14,4.849062028e-14,2.593803169e-14,2.160080427e-14,2.196894327e-14
1.34375,2.132089288e-14,6.815194758e-14,1.537255208e-14,5.367402745e-14,2.657105532e-14,4.554435093e-14,3.401137479e-14,3.403781341e-14,1.344648015e-14,5.252052077e-14,3.704927199e-14,6.880108728e-14,4.086656244e-14,5.329898021e-14,2.94876125e-14,3.575511785e-14,7.45786764e-14,2.328741734e-14,1.969030221e-14,5.715715224e-14,2.861039881e-15,2.763070385e-14,7.770365311e-14,3.553739346e-14,6.728949927e-14,2.030485701e-14,1.515334479e-14,2.768014039e-14,3.929762333e-14,2.912422848e-14,2.162370689e-14,2.217869398e-14
1.3515625,2.202058593e-14,7.007443686e-14,1.397521545e-14,5.239005195e-14,2.650718839e-14,5.085668905e-14,3.369276823e-14,3.645248725e-14,1.295755459e-14,5.562096798e-14,3.872191912e-14,6.701783341e-14,3.459501023e-14,4.648075466e-14,2.519905707e-14,3.014506325e-14,6.039433163e-14,2.011872458e-14,1.903600142e-14,5.711324119e-14,3.073658938e-15,2.776099819e-14,7.631997572e-14,3.482903115e-14,6.159252954e-14,2.100703436e-14,1.278331623e-14,2.625931559e-14,3.10107193e-14,3.341889866e-14,2.22640506e-14,2.287771899e-14
1.359375,2.338232876e-14,7.262368044e-14,1.377927883e-14,5.049924388e-14,2.671198082e-14,5.692503761e-14,3.262594841e-14,3.837631712e-14,1.302991265e-14,5.794244555e-14,4.019315443e-14,6.583054011e-14,2.936774654e-14,4.123986438e-14,2.211603598e-14,2.659441928e-14,4.935748513e-14,1.794665266e-14,1.885874455e-14,5.728968997e-14,3.369396621e-15,2.84443832e-14,7.508801509e-14,3.404078391e-14,5.525448123e-14,2.226412908e-14,1.112763874e-14,2.530578904e-14,2.443094942e-14,3.92376446e-14,2.3526128e-14,2.409950055e-14
1.3671875,2.527759326e-14,7.500645768e-14,1.46701302e-14,4.802156342e-14,2.708878169e-14,6.31557566e-14,3.102784821e-14,3.986971099e-14,1.358752134e-14,5.969963237e-14,4.174532637e-14,6.51347038e-14,2.516133695e-14,3.720816601e-14,1.986064791e-14,2.452391934e-14,4.195246318e-14,1.686799125e-14,1.918720057e-14,5.802918117e-14,3.810822842e-15,2.96403747e-14,7.436874824e-14,3.327123462e-14,4.911665086e-14,2.398475279e-14,1.029414745e-14,2.461982805e-14,2.01018132e-14,4.657979761e-14,2.52334676e-14,2.572057201e-14
1.375,2.783733353e-14,7.675954009e-14,1.675262701e-14,4.477573329e-14,2.756300324e-14,6.888828056e-14,2.92485959e-14,4.137312438e-14,1.462832481e-14,6.069437637e-14,4.381367232e-14,6.508479763e-14,2.218893486e-14,3.495616034e-14,1.869069677e-14,2.408811745e-14,3.862044902e-14,1.705390001e-14,1.986437279e-14,5.952633907e-14,4.43353473e-15,3.128733547e-14,7.445369853e-14,3.264037412e-14,4.396056154e-14,2.604768965e-14,1.040948974e-14,2.458841798e-14,1.835995645e-14,5.523431251e-14,2.742247561e-14,2.785814569e-14
1.3828125,3.113172754e-14,7.74191113e-14,1.991495189e-14,4.081903971e-14,2.772521073e-14,7.40294785e-14,2.794748907e-14,4.301220646e-14,1.604919029e-14,6.031154374e-14,4.622820259e-14,6.526442553e-14,2.039110226e-14,3.433303702e-14,1.845315636e-14,2.520628908e-14,3.921007959e-14,1.853059133e-14,2.093443663e-14,6.187741434e-14,5.243457952e-15,3.324416718e-14,7.547113245e-14,3.229024119e-14,4.037840898e-14,2.813189189e-14,1.118806556e-14,2.554711538e-14,1.888345616e-14,6.541782914e-14,2.972045667e-14,3.032985968e-14
1.390625,3.517771686e-14,7.626970534e-14,2.390439756e-14,3.668786813e-14,2.74363078e-14,7.796428894e-14,2.71543841e-14,4.489925137e-14,1.787681705e-14,5.885630339e-14,4.867514407e-14,6.556462862e-14,1.971348651e-14,3.488989716e-14,1.875192343e-14,2.726256419e-14,4.290921071e-14,2.101989434e-14,2.236796837e-14,6.482113604e-14,6.221453616e-15,3.546462184e-14,7.804011078e-14,3.231159571e-14,3.858291642e-14,2.974121469e-14,1.251985237e-14,2.724388637e-14,2.11836459e-14,7.697980394e-14,3.1691837e-14,3.293796366e-14
1.3984375,4.003961242e-14,7.391099496e-14,2.883779006e-14,3.299772981e-14,2.68805697e-14,8.135016674e-14,2.691213963e-14,4.676681486e-14,2.014914501e-14,5.694654669e-14,5.148273511e-14,6.588559353e-14,1.991163521e-14,3.670161995e-14,1.973872546e-14,3.057478078e-14,4.920440594e-14,2.45450999e-14,2.422495834e-14,6.79103112e-14,7.374968512e-15,3.792573329e-14,8.168338783e-14,3.288790433e-14,3.811249618e-14,3.108286641e-14,1.444335845e-14,3.007177525e-14,2.473287042e-14,8.952183738e-14,3.359998692e-14,3.586696588e-14
1.40625,4.511044416e-14,7.001518689e-14,3.384294667e-14,2.995698986e-14,2.594395281e-14,8.36076607e-14,2.727499711e-14,4.861127462e-14,2.242226162e-14,5.495764456e-14,5.423318238e-14,6.542667802e-14,2.038382077e-14,3.913895843e-14,2.121886423e-14,3.528368267e-14,5.667764584e-14,2.874311855e-14,2.625530599e-14,6.975341927e-14,8.599815837e-15,4.018694631e-14,8.564217395e-14,3.385457016e-14,3.836953761e-14,3.136460701e-14,1.652863539e-14,3.403590835e-14,2.855021671e-14,1.022290752e-13,3.500372397e-14,3.859136417e-14
1.4140625,5.008426699e-14,6.570776178e-14,3.850435573e-14,2.81601697e-14,2.488019999e-14,8.488486219e-14,2.819497235e-14,5.031859533e-14,2.459558219e-14,5.325808335e-14,5.744167284e-14,6.482004578e-14,2.104933856e-14,4.224840735e-14,2.303310564e-14,4.130073537e-14,6.507310396e-14,3.338078408e-14,2.817141157e-14,7.040043382e-14,9.71656018e-15,4.191405812e-14,8.938066484e-14,3.499087379e-14,3.922542211e-14,3.066880062e-14,1.885203824e-14,3.906033587e-14,3.253663866e-14,1.142993821e-13,3.606902881e-14,4.076696425e-14
1.421875,5.492040176e-14,6.190818428e-14,4.224063584e-14,2.797638929e-14,2.383609394e-14,8.439317509e-14,2.968322394e-14,5.15595643e-14,2.657208542e-14,5.209642905e-14,6.103710414e-14,6.435929561e-14,2.197762397e-14,4.590645461e-14,2.513382333e-14,4.87395858e-14,7.383097894e-14,3.846005846e-14,3.009193423e-14,6.97863739e-14,1.073261705e-14,4.280942291e-14,9.202382104e-14,3.636730945e-14,4.05996347e-14,2.933347221e-14,2.140716484e-14,4.53566786e-14,3.649757683e-14,1.256327269e-13,3.69005939e-14,4.202482875e-14
1.4296875,5.97600424e-14,5.976428218e-14,4.507391668e-14,2.920798959e-14,2.302308515e-14,8.287349289e-14,3.199070763e-14,5.187859509e-14,2.843390394e-14,5.173623141e-14,6.516721972e-14,6.453745225e-14,2.337444862e-14,5.025432844e-14,2.745492627e-14,5.722885392e-14,8.286014466e-14,4.416289371e-14,3.243784485e-14,6.814381289e-14,1.169976687e-14,4.29716466e-14,9.284870667e-14,3.810445033e-14,4.254055319e-14,2.775706272e-14,2.416841572e-14,5.2822992e-14,4.106628667e-14,1.366475063e-13,3.753984089e-14,4.251853543e-14
1.4375,6.444693551e-14,5.943793699e-14,4.688443166e-14,3.156105505e-14,2.2381567e-14,8.023569425e-14,3.510411243e-14,5.095482262e-14,3.010406058e-14,5.211651252e-14,7.003226669e-14,6.548616964e-14,2.503376151e-14,5.528246784e-14,3.026260326e-14,6.624440229e-14,9.084610693e-14,5.034753653e-14,3.51072018e-14,6.421018378e-14,1.25181391e-14,4.217652295e-14,9.086729485e-14,4.021899888e-14,4.43779313e-14,2.592295261e-14,2.685895695e-14,6.102725997e-14,4.568420657e-14,1.46663849e-13,3.772064892e-14,4.240983169e-14
1.4453125,6.895606354e-14,6.113684963e-14,4.791699843e-14,3.474023375e-14,2.200568428e-14,7.672872213e-14,3.854195734e-14,4.872408181e-14,3.172509905e-14,5.263731068e-14,7.508179883e-14,6.731995738e-14,2.721476862e-14,6.091629393e-14,3.342404892e-14,7.571886374e-14,9.793892472e-14,5.675844348e-14,3.831440629e-14,5.857002941e-14,1.319246538e-14,4.081037773e-14,8.648690685e-14,4.264349561e-14,4.61988084e-14,2.388603283e-14,2.943616602e-14,7.021586877e-14,5.056268924e-14,1.564855103e-13,3.782784602e-14,4.181704018e-14
1.453125,7.315909198e-14,6.470149676e-14,4.867152305e-14,3.84685784e-14,2.224893744e-14,7.179620271e-14,4.178792245e-14,4.530733698e-14,3.356647956e-14,5.325756061e-14,7.96558629e-14,6.992059888e-14,2.992910675e-14,6.708955162e-14,3.731966795e-14,8.558058024e-14,1.049179769e-13,6.359950454e-14,4.233386007e-14,5.274783669e-14,1.382172693e-14,3.936560504e-14,8.039839797e-14,4.52406788e-14,4.840392209e-14,2.220491143e-14,3.236674178e-14,8.029186517e-14,5.723031284e-14,1.67053263e-13,3.811202616e-14,4.123830387e-14
1.4609375,7.645641083e-14,6.915757305e-14,4.921436678e-14,4.187085783e-14,2.311813719e-14,6.620462887e-14,4.460354494e-14,4.084097094e-14,3.531354229e-14,5.376330569e-14,8.342298088e-14,7.299353111e-14,3.274711872e-14,7.336645359e-14,4.199906591e-14,9.542596213e-14,1.11570909e-13,7.046856743e-14,4.659542075e-14,4.702483614e-14,1.445038662e-14,3.779279081e-14,7.298037799e-14,4.75884481e-14,5.057163505e-14,2.114108322e-14,3.527591653e-14,9.089140299e-14,6.509231078e-14,1.774835874e-13,3.846324398e-14,4.086844235e-14
1.46875,7.939258523e-14,7.331767739e-14,5.070298516e-14,4.448134067e-14,2.450941815e-14,6.053563566e-14,4.732471034e-14,3.575111392e-14,3.740531895e-14,5.386349729e-14,8.640932554e-14,7.652244176e-14,3.589765168e-14,7.987672303e-14,4.699746857e-14,1.044405058e-13,1.174941763e-13,7.707231335e-14,5.092505957e-14,4.15101332e-14,1.505824432e-14,3.6471834e-14,6.469761345e-14,4.966626883e-14,5.258764744e-14,2.069608849e-14,3.763113247e-14,1.024921514e-13,7.350355065e-14,1.886746049e-13,3.870758597e-14,4.119545482e-14
1.4765625,8.201074684e-14,7.680650338e-14,5.30711687e-14,4.61697563e-14,2.648303198e-14,5.486737734e-14,4.983091063e-14,3.032744592e-14,3.970586527e-14,5.347139221e-14,8.823157839e-14,8.004748369e-14,3.924344952e-14,8.65797829e-14,5.238792031e-14,1.124416335e-13,1.223934459e-13,8.322344568e-14,5.494765286e-14,3.64548444e-14,1.56240694e-14,3.546958665e-14,5.61373867e-14,5.111800797e-14,5.389613439e-14,2.099784019e-14,3.931191736e-14,1.146741058e-13,8.188247146e-14,2.003360808e-13,3.927577862e-14,4.231138891e-14
1.484375,8.451783157e-14,7.938366022e-14,5.638805853e-14,4.699624507e-14,2.895303908e-14,4.978676298e-14,5.214427113e-14,2.523528328e-14,4.214058194e-14,5.290504395e-14,8.902810047e-14,8.350256035e-14,4.270762482e-14,9.338009992e-14,5.847877564e-14,1.194187139e-13,1.268369623e-13,8.880095937e-14,5.815488961e-14,3.246786611e-14,1.625118414e-14,3.482531432e-14,4.830702499e-14,5.190929445e-14,5.482424849e-14,2.214788345e-14,4.065725565e-14,1.273312808e-13,9.026230518e-14,2.120028613e-13,4.033711807e-14,4.416023608e-14
1.4921875,8.679531863e-14,8.027162328e-14,6.058008695e-14,4.67588908e-14,3.187544223e-14,4.573332039e-14,5.410560888e-14,2.088091679e-14,4.471931953e-14,5.216227404e-14,8.836773683e-14,8.622100663e-14,4.600206593e-14,9.958106094e-14,6.511066036e-14,1.249506997e-13,1.300950763e-13,9.324624592e-14,6.007871026e-14,2.898002287e-14,1.69160811e-14,3.464266453e-14,4.190776207e-14,5.192707724e-14,5.458500633e-14,2.388160229e-14,4.128127091e-14,1.393552218e-13,9.727540786e-14,2.230690509e-13,4.162971114e-14,4.663061683e-14
1.5,8.84086248e-14,7.847498433e-14,6.585637194e-14,4.56452762e-14,3.520278516e-14,4.297922597e-14,5.634039366e-14,1.766082371e-14,4.748127848e-14,5.138470911e-14,8.642181313e-14,8.784480508e-14,4.898536313e-14,1.047078915e-13,7.189540086e-14,1.28602818e-13,1.316665198e-13,9.603412604e-14,6.055542479e-14,2.606792398e-14,1.762468154e-14,3.495826582e-14,3.7143757e-14,5.120148055e-14,5.331068693e-14,2.60075241e-14,4.105463435e-14,1.505087098e-13,1.022278697e-13,2.326820378e-13,4.302309314e-14,4.991043806e-14
1.5078125,8.960513582e-14,7.473181951e-14,7.194979963e-14,4.401737259e-14,3.841302049e-14,4.163735229e-14,5.890809725e-14,1.56306471e-14,5.051520362e-14,5.079886333e-14,8.369819307e-14,8.855425004e-14,5.184293672e-14,1.093142707e-13,7.895770664e-14,1.31003239e-13,1.319044136e-13,9.714605352e-14,5.994991671e-14,2.363343009e-14,1.83631217e-14,3.574684261e-14,3.398955485e-14,4.977697539e-14,5.120710517e-14,2.817236589e-14,4.002070815e-14,1.611909663e-13,1.052599405e-13,2.416575708e-13,4.434425945e-14,5.359454195e-14
1.515625,9.059939332e-14,6.967663958e-14,7.81481953e-14,4.19782057e-14,4.074291096e-14,4.110764902e-14,6.129447449e-14,1.470105536e-14,5.349771785e-14,5.036792458e-14,8.012435551e-14,8.812688554e-14,5.44447621e-14,1.134382518e-13,8.639421051e-14,1.330292547e-13,1.313002103e-13,9.688461809e-14,5.815923844e-14,2.149531492e-14,1.90425236e-14,3.648625608e-14,3.196107967e-14,4.779858342e-14,4.834828245e-14,3.00590549e-14,3.825050869e-14,1.710698234e-13,1.060453352e-13,2.493433147e-13,4.53935342e-14,5.679213468e-14
1.5234375,9.190593848e-14,6.488543064e-14,8.426640635e-14,4.033417299e-14,4.153639925e-14,4.129141997e-14,6.324436582e-14,1.471967816e-14,5.661146621e-14,5.019088616e-14,7.578329589e-14,8.717166937e-14,5.727779357e-14,1.177883691e-13,9.4527888e-14,1.348295559e-13,1.301455352e-13,9.599236299e-14,5.569094959e-14,1.984101431e-14,1.965686748e-14,3.709588787e-14,3.103241928e-14,4.55432144e-14,4.527959462e-14,3.100922907e-14,3.633029704e-14,1.802625396e-13,1.05475507e-13,2.574122824e-13,4.553241256e-14,5.853642217e-14
1.53125,9.383474024e-14,6.035442808e-14,9.05945839e-14,3.924187079e-14,4.137014178e-14,4.213424025e-14,6.545944182e-14,1.568954733e-14,6.012193509e-14,5.007210296e-14,7.090113831e-14,8.602470343e-14,6.064073055e-14,1.230128318e-13,1.039520401e-13,1.372131762e-13,1.289695789e-13,9.532676014e-14,5.334337678e-14,1.88378972e-14,2.025074511e-14,3.795068225e-14,3.123417986e-14,4.339939769e-14,4.236575212e-14,3.13707947e-14,3.450342945e-14,1.904009791e-13,1.045650099e-13,2.681325114e-13,4.518887064e-14,5.935925323e-14
1.5390625,9.641418451e-14,5.62926157e-14,9.63705004e-14,3.891490919e-14,4.037303963e-14,4.328106084e-14,6.810247128e-14,1.746543975e-14,6.374861292e-14,4.996622785e-14,6.608606965e-14,8.485513785e-14,6.443779326e-14,1.292926786e-13,1.151452235e-13,1.41261018e-13,1.280112101e-13,9.542331054e-14,5.159750086e-14,1.87662807e-14,2.082546661e-14,3.90592097e-14,3.236406943e-14,4.14577469e-14,3.993475339e-14,3.108475122e-14,3.289723292e-14,2.018527721e-13,1.040125788e-13,2.824428577e-13,4.452953566e-14,5.916067051e-14
1.546875,1.000561393e-13,5.355472113e-14,1.021158224e-13,3.94188209e-14,3.83644128e-14,4.515285491e-14,7.051091515e-14,1.978024564e-14,6.749794908e-14,5.002587048e-14,6.158738606e-14,8.405685812e-14,6.894878257e-14,1.373586445e-13,1.283331163e-13,1.477718992e-13,1.275296858e-13,9.690327664e-14,5.095886614e-14,1.955519262e-14,2.126696854e-14,4.052376546e-14,3.416952506e-14,3.968380508e-14,3.804806706e-14,2.996996224e-14,3.180004305e-14,2.157884176e-13,1.051866796e-13,3.015459704e-13,4.339917994e-14,5.749848473e-14
1.5546875,1.048163752e-13,5.228046321e-14,1.076230057e-13,4.085220133e-14,3.51990073e-14,4.753815078e-14,7.24649791e-14,2.24808873e-14,7.119922609e-14,4.984682245e-14,5.698060109e-14,8.364095928e-14,7.439580146e-14,1.4733279e-13,1.430925344e-13,1.566110026e-13,1.282498785e-13,1.003667469e-13,5.167178946e-14,2.185070205e-14,2.161245638e-14,4.221159223e-14,3.650949849e-14,3.815014248e-14,3.729960015e-14,2.793405812e-14,3.164492282e-14,2.32662239e-13,1.0939567e-13,3.264479409e-13,4.17616935e-14,5.393727861e-14
1.5625,1.104068977e-13,5.252524006e-14,1.130478249e-13,4.332298139e-14,3.130837988e-14,5.105853631e-14,7.387749086e-14,2.530546413e-14,7.49864412e-14,4.910891835e-14,5.259662364e-14,8.357015767e-14,8.064598746e-14,1.592135861e-13,1.594842123e-13,1.679855582e-13,1.30877251e-13,1.063464543e-13,5.399133451e-14,2.555686926e-14,2.192523949e-14,4.453173168e-14,3.97358098e-14,3.673118922e-14,3.750538451e-14,2.53794247e-14,3.257211001e-14,2.525742336e-13,1.175474039e-13,3.583330925e-13,4.012712581e-14,4.930950733e-14
1.5703125,1.164867255e-13,5.41869659e-14,1.181635854e-13,4.68552096e-14,2.712208632e-14,5.536588016e-14,7.479540553e-14,2.824685417e-14,7.879997277e-14,4.782513539e-14,4.882927706e-14,8.391511787e-14,8.729416844e-14,1.726593354e-13,1.77410338e-13,1.819030383e-13,1.356483928e-13,1.148989458e-13,5.78994007e-14,3.096621353e-14,2.228542725e-14,4.754861016e-14,4.375330516e-14,3.507312999e-14,3.820807055e-14,2.263868033e-14,3.46788389e-14,2.752147615e-13,1.298066898e-13,3.973970809e-13,3.890361229e-14,4.382311055e-14
1.578125,1.233681876e-13,5.755130262e-14,1.239029187e-13,5.151339605e-14,2.301852302e-14,6.096959858e-14,7.518196117e-14,3.111054441e-14,8.274155345e-14,4.570568058e-14,4.641275424e-14,8.486642254e-14,9.435552714e-14,1.882379588e-13,1.973627446e-13,1.980390283e-13,1.42878598e-13,1.259539276e-13,6.331896506e-14,3.795589933e-14,2.273520921e-14,5.138933664e-14,4.856568488e-14,3.339668925e-14,3.911339535e-14,1.998038216e-14,3.798653756e-14,2.998627092e-13,1.460699951e-13,4.436738039e-13,3.887839698e-14,3.789754528e-14
1.5859375,1.309207881e-13,6.209031261e-14,1.300967695e-13,5.70437022e-14,1.941374363e-14,6.719494825e-14,7.527680777e-14,3.401515078e-14,8.650456289e-14,4.301808203e-14,4.547636457e-14,8.618874108e-14,1.012519661e-13,2.052662059e-13,2.190160317e-13,2.157873621e-13,1.531980048e-13,1.392234049e-13,6.991762246e-14,4.626234252e-14,2.321206614e-14,5.573036756e-14,5.398794637e-14,3.181776212e-14,4.009446143e-14,1.790427957e-14,4.225997755e-14,3.257902997e-13,1.651394684e-13,4.949095864e-13,4.046168426e-14,3.220071367e-14
1.59375,1.383901416e-13,6.689222894e-14,1.362601751e-13,6.285249662e-14,1.644558996e-14,7.362859196e-14,7.513384021e-14,3.685352081e-14,8.993778841e-14,3.994640813e-14,4.611194994e-14,8.788009947e-14,1.074778936e-13,2.222559395e-13,2.403786669e-13,2.334795046e-13,1.647301968e-13,1.53189562e-13,7.720669152e-14,5.499232312e-14,2.362765864e-14,6.050944812e-14,6.021607674e-14,3.02708499e-14,4.060380899e-14,1.635470069e-14,4.672994012e-14,3.509863271e-13,1.852522101e-13,5.484475399e-13,4.299680322e-14,2.709545832e-14
1.6015625,1.447780971e-13,7.145981694e-14,1.418740579e-13,6.885305125e-14,1.41346561e-14,7.913037663e-14,7.429544054e-14,3.989351506e-14,9.278406039e-14,3.709804476e-14,4.835025692e-14,8.989838605e-14,1.123965698e-13,2.379323876e-13,2.600108087e-13,2.497672196e-13,1.758688883e-13,1.65926367e-13,8.421598356e-14,6.305853938e-14,2.392230333e-14,6.529376879e-14,6.682293434e-14,2.876584651e-14,4.026949504e-14,1.525844462e-14,5.085815638e-14,3.725189048e-13,2.044704685e-13,6.001780852e-13,4.630636236e-14,2.265414849e-14
1.609375,1.493609334e-13,7.483093746e-14,1.461406091e-13,7.432778849e-14,1.242734698e-14,8.325880568e-14,7.280625043e-14,4.314111331e-14,9.451857868e-14,3.466237707e-14,5.173456644e-14,9.191398399e-14,1.151309829e-13,2.510561661e-13,2.771558068e-13,2.629225529e-13,1.849334261e-13,1.755917672e-13,8.998571037e-14,6.964139988e-14,2.401300914e-14,6.931249107e-14,7.310433319e-14,2.737096648e-14,3.898973503e-14,1.457358981e-14,5.400140066e-14,3.878620284e-13,2.198533602e-13,6.445746264e-13,4.996092402e-14,1.890476513e-14
1.6171875,1.525516098e-13,7.749865484e-14,1.493644811e-13,7.920005546e-14,1.113083242e-14,8.558556048e-14,7.03588236e-14,4.67245349e-14,9.533512265e-14,3.296446621e-14,5.605018249e-14,9.424920211e-14,1.155164209e-13,2.619480646e-13,2.914337438e-13,2.715842177e-13,1.901810316e-13,1.814536691e-13,9.38811815e-14,7.368981081e-14,2.375070447e-14,7.225528997e-14,7.921969064e-14,2.619496438e-14,3.657587131e-14,1.413543573e-14,5.575273029e-14,3.949191295e-13,2.29786778e-13,6.792196327e-13,5.363770917e-14,1.578828013e-14
1.625,1.536821576e-13,7.911399019e-14,1.507343177e-13,8.269799993e-14,1.022889013e-14,8.601285152e-14,6.735887709e-14,5.082187652e-14,9.504062451e-14,3.212001245e-14,6.018333418e-14,9.667886246e-14,1.135247367e-13,2.697026115e-13,3.011545841e-13,2.745118216e-13,1.906614662e-13,1.831527879e-13,9.585838438e-14,7.484133435e-14,2.314907095e-14,7.395618009e-14,8.513709835e-14,2.525131542e-14,3.375412435e-14,1.391890504e-14,5.571076112e-14,3.926564529e-13,2.336966877e-13,7.015471014e-13,5.652997368e-14,1.360383917e-14
1.6328125,1.522225993e-13,7.941207591e-14,1.502212042e-13,8.43520163e-14,9.710353011e-15,8.455529529e-14,6.370908649e-14,5.515549306e-14,9.338231051e-14,3.242765626e-14,6.419037018e-14,9.917283065e-14,1.089021558e-13,2.740163897e-13,3.060038098e-13,2.723952033e-13,1.858063525e-13,1.79546381e-13,9.481391613e-14,7.248841417e-14,2.213252672e-14,7.362756856e-14,9.015801069e-14,2.435372337e-14,3.072641485e-14,1.39011408e-14,5.378277766e-14,3.806064757e-13,2.30648263e-13,7.069498963e-13,5.804442682e-14,1.192771926e-14
1.640625,1.490300215e-13,7.978045936e-14,1.483665894e-13,8.479638697e-14,9.458433717e-15,8.164143937e-14,5.932075383e-14,5.956819925e-14,9.072906506e-14,3.363500486e-14,6.678582791e-14,1.022260696e-13,1.023806737e-13,2.765635718e-13,3.078382175e-13,2.680912676e-13,1.776127886e-13,1.718982598e-13,9.122473381e-14,6.749899481e-14,2.078048086e-14,7.152822401e-14,9.392434895e-14,2.385195211e-14,2.833949066e-14,1.427128246e-14,5.060754197e-14,3.611041731e-13,2.231910196e-13,6.97159353e-13,5.822779424e-14,1.067231835e-14
1.6484375,1.447614815e-13,8.036169516e-14,1.455183717e-13,8.378298053e-14,9.399726527e-15,7.797876145e-14,5.465503952e-14,6.403266852e-14,8.734277882e-14,3.517958101e-14,6.72187013e-14,1.052646668e-13,9.42695111e-14,2.777482867e-13,3.077180089e-13,2.632054339e-13,1.671029936e-13,1.616770617e-13,8.565484924e-14,6.116165693e-14,1.932093923e-14,6.792123528e-14,9.643556306e-14,2.371754005e-14,2.699821604e-14,1.491727564e-14,4.63348603e-14,3.362668682e-13,2.12318224e-13,6.750121059e-13,5.71478777e-14,9.967586687e-15
1.65625,1.397155563e-13,8.14114152e-14,1.426910945e-13,8.160975616e-14,9.66012304e-15,7.438391177e-14,5.035326009e-14,6.829847682e-14,8.349895678e-14,3.670933418e-14,6.549000993e-14,1.079591431e-13,8.517856787e-14,2.785593107e-13,3.069404898e-13,2.600237429e-13,1.55383652e-13,1.501508046e-13,7.870248058e-14,5.470420761e-14,1.775528113e-14,6.294344223e-14,9.750650733e-14,2.393780249e-14,2.689487531e-14,1.583626227e-14,4.13060561e-14,3.082841033e-13,1.99362767e-13,6.433045679e-13,5.503606126e-14,9.773267198e-15
1.6640625,1.343675699e-13,8.353052639e-14,1.398833812e-13,7.912250709e-14,1.038429791e-14,7.125176142e-14,4.645713387e-14,7.21862656e-14,7.934480045e-14,3.824079256e-14,6.218767288e-14,1.100539016e-13,7.581237773e-14,2.799033227e-13,3.074907786e-13,2.602854293e-13,1.442098301e-13,1.393294195e-13,7.1360695e-14,4.878696361e-14,1.618714534e-14,5.707490249e-14,9.712515756e-14,2.462640002e-14,2.815068876e-14,1.719751328e-14,3.638768294e-14,2.795620827e-13,1.869855719e-13,6.062162029e-13,5.262105841e-14,1.001821364e-14
1.671875,1.290430047e-13,8.663726806e-14,1.371480569e-13,7.696142664e-14,1.14875259e-14,6.899203893e-14,4.312308085e-14,7.509385385e-14,7.503238071e-14,3.939030035e-14,5.754043184e-14,1.110276295e-13,6.668780875e-14,2.817803449e-13,3.104707163e-13,2.648927737e-13,1.345453031e-13,1.303255154e-13,6.427350457e-14,4.420767487e-14,1.473385683e-14,5.086528779e-14,9.540151264e-14,2.591750314e-14,3.028295845e-14,1.880505352e-14,3.211134193e-14,2.51851983e-13,1.757215507e-13,5.674750022e-13,5.046937934e-14,1.069887623e-14
1.6796875,1.240296492e-13,9.119357614e-14,1.346407427e-13,7.573368373e-14,1.295957455e-14,6.784874635e-14,4.038110943e-14,7.682248576e-14,7.065562453e-14,3.989909675e-14,5.248989518e-14,1.111020882e-13,5.831762911e-14,2.848568037e-13,3.166644218e-13,2.743346956e-13,1.268353385e-13,1.234904137e-13,5.799600504e-14,4.139435313e-14,1.355429273e-14,4.476264636e-14,9.245938392e-14,2.770536109e-14,3.293817802e-14,2.049656144e-14,2.870739208e-14,2.26462389e-13,1.668937418e-13,5.3069496e-13,4.919145158e-14,1.190264572e-14
1.6875,1.198762025e-13,9.733138408e-14,1.322624859e-13,7.582083994e-14,1.48117852e-14,6.781226765e-14,3.842749819e-14,7.754441649e-14,6.633204855e-14,3.946245669e-14,4.754739925e-14,1.103688143e-13,5.103994971e-14,2.892478996e-13,3.262421435e-13,2.881714672e-13,1.210285808e-13,1.190190145e-13,5.301525058e-14,3.995945281e-14,1.274064816e-14,3.911597002e-14,8.852194608e-14,3.003227304e-14,3.561624942e-14,2.201027187e-14,2.615989286e-14,2.041553009e-13,1.605690217e-13,4.98518625e-13,4.923774029e-14,1.352625038e-14
1.6953125,1.164325384e-13,1.045758134e-13,1.299907976e-13,7.707952298e-14,1.683077588e-14,6.875855977e-14,3.703545564e-14,7.729385206e-14,6.235038045e-14,3.830257525e-14,4.293151214e-14,1.085069207e-13,4.513911289e-14,2.93794258e-13,3.373970957e-13,3.03793337e-13,1.163570796e-13,1.164293244e-13,4.952938969e-14,3.99080782e-14,1.225790536e-14,3.450352253e-14,8.441258705e-14,3.273232693e-14,3.808177678e-14,2.33063425e-14,2.448897429e-14,1.850619324e-13,1.555202849e-13,4.719974402e-13,5.03011277e-14,1.56192125e-14
1.703125,1.134726737e-13,1.126306713e-13,1.277959229e-13,7.901930734e-14,1.845299292e-14,7.03488499e-14,3.612522806e-14,7.582281192e-14,5.884479162e-14,3.688883721e-14,3.861290216e-14,1.058634811e-13,4.077338681e-14,2.977496416e-13,3.467950008e-13,3.160826499e-13,1.109998732e-13,1.146602723e-13,4.748343631e-14,4.103726401e-14,1.216721869e-14,3.098580503e-14,8.028054078e-14,3.569118463e-14,4.002372693e-14,2.392544082e-14,2.339628988e-14,1.686692365e-13,1.513307103e-13,4.513988383e-13,5.192660144e-14,1.795768734e-14
1.7109375,1.108678207e-13,1.215730216e-13,1.258005191e-13,8.132619958e-14,1.956607569e-14,7.266137665e-14,3.583581359e-14,7.335521496e-14,5.596625402e-14,3.487846358e-14,3.48643258e-14,1.027390433e-13,3.788656205e-14,3.005327891e-13,3.523449926e-13,3.229086366e-13,1.047460416e-13,1.129783264e-13,4.681692088e-14,4.296720243e-14,1.244915687e-14,2.881530329e-14,7.67912195e-14,3.883008934e-14,4.123933326e-14,2.40202923e-14,2.283655528e-14,1.542564804e-13,1.47375384e-13,4.361870152e-13,5.376395367e-14,2.068613443e-14
1.71875,1.084721332e-13,1.314783096e-13,1.240277778e-13,8.372088653e-14,2.023794125e-14,7.561580261e-14,3.606992223e-14,7.012217189e-14,5.383479393e-14,3.274330095e-14,3.236614305e-14,9.925429225e-14,3.64803095e-14,3.013420419e-13,3.529910427e-13,3.229639616e-13,9.721945877e-14,1.102897163e-13,4.697047392e-14,4.572026872e-14,1.301225528e-14,2.812342735e-14,7.444494797e-14,4.199172012e-14,4.21641998e-14,2.355409728e-14,2.283525902e-14,1.411041332e-13,1.439955326e-13,4.241633974e-13,5.543521617e-14,2.390904764e-14
1.7265625,1.059865426e-13,1.41690713e-13,1.21988007e-13,8.512652748e-14,2.02679117e-14,7.845103431e-14,3.669523596e-14,6.622232156e-14,5.232640759e-14,3.05250933e-14,3.03731223e-14,9.531903752e-14,3.617376276e-14,2.979489207e-13,3.469047657e-13,3.153455061e-13,8.804328829e-14,1.057408971e-13,4.730187092e-14,4.899840426e-14,1.364172277e-14,2.872949394e-14,7.316567667e-14,4.519321317e-14,4.291016684e-14,2.24200592e-14,2.267227941e-14,1.281921432e-13,1.395441873e-13,4.12158688e-13,5.639435842e-14,2.748464817e-14
1.734375,1.022923628e-13,1.515510341e-13,1.187561662e-13,8.456546456e-14,1.963705148e-14,8.070677542e-14,3.780272675e-14,6.203542637e-14,5.12118375e-14,2.837421069e-14,2.801924239e-14,9.071676699e-14,3.655929213e-14,2.885978128e-13,3.325280461e-13,2.992819564e-13,7.691463539e-14,9.905692093e-14,4.744768339e-14,5.243904368e-14,1.42353322e-14,3.058401947e-14,7.294276321e-14,4.841668769e-14,4.370694341e-14,2.057965049e-14,2.222709814e-14,1.147231523e-13,1.343429203e-13,3.973762705e-13,5.583546329e-14,3.156827274e-14
1.7421875,9.707678941e-14,1.616359562e-13,1.138035948e-13,8.203638599e-14,1.867522369e-14,8.123241657e-14,3.9572443e-14,5.770106926e-14,5.034803606e-14,2.69497584e-14,2.56663075e-14,8.60758628e-14,3.726513283e-14,2.739206077e-13,3.112809105e-13,2.765847815e-13,6.567813118e-14,9.062243717e-14,4.723457983e-14,5.635225924e-14,1.469057751e-14,3.346454162e-14,7.353323245e-14,5.143948268e-14,4.486252289e-14,1.862921921e-14,2.209478056e-14,1.008096765e-13,1.293152852e-13,3.798320921e-13,5.429047742e-14,3.641356901e-14
1.75,9.07398708e-14,1.721587737e-13,1.077674883e-13,7.805859817e-14,1.743610962e-14,8.031960602e-14,4.185689975e-14,5.306160217e-14,4.978714036e-14,2.640345479e-14,2.367127844e-14,8.183235778e-14,3.83758232e-14,2.554734769e-13,2.854834808e-13,2.507066385e-13,5.561302168e-14,8.124535079e-14,4.665550829e-14,6.050432497e-14,1.497348888e-14,3.716397233e-14,7.451937854e-14,5.405659693e-14,4.625990473e-14,1.657871685e-14,2.232354222e-14,8.770034363e-14,1.252068961e-13,3.595325201e-13,5.188983088e-14,4.163974478e-14
1.7578125,8.365360691e-14,1.808529928e-13,1.005666683e-13,7.220055007e-14,1.645077114e-14,7.776974967e-14,4.511000772e-14,4.851434512e-14,4.924001891e-14,2.662371969e-14,2.205115124e-14,7.75971561e-14,3.935163053e-14,2.332594848e-13,2.562553315e-13,2.235593602e-13,4.656946683e-14,7.108967034e-14,4.547484083e-14,6.419001328e-14,1.492279253e-14,4.135364945e-14,7.575191942e-14,5.635575804e-14,4.786131506e-14,1.47189996e-14,2.26272849e-14,7.513647211e-14,1.199417795e-13,3.339616651e-13,4.869505643e-14,4.72839748e-14
1.765625,7.638221039e-14,1.863958982e-13,9.272218412e-14,6.485138332e-14,1.606867011e-14,7.4244099e-14,4.898274202e-14,4.446445527e-14,4.850452427e-14,2.757994833e-14,2.134377261e-14,7.340523128e-14,3.985411935e-14,2.094443049e-13,2.271006666e-13,1.983963316e-13,3.907555321e-14,6.091248482e-14,4.36915496e-14,6.727525193e-14,1.463233861e-14,4.574813299e-14,7.725380625e-14,5.816794813e-14,4.940080009e-14,1.335043285e-14,2.333081563e-14,6.386767943e-14,1.137178301e-13,3.044047982e-13,4.526477259e-14,5.336895802e-14
1.7734375,6.927794386e-14,1.877320842e-13,8.451120062e-14,5.65470446e-14,1.625580158e-14,7.011893672e-14,5.298467514e-14,4.077576564e-14,4.723927183e-14,2.920263079e-14,2.132671126e-14,6.914554623e-14,3.934193122e-14,1.855500667e-13,1.998159695e-13,1.76996163e-13,3.408988488e-14,5.157061965e-14,4.149744518e-14,7.015041253e-14,1.420465621e-14,4.985307105e-14,7.85467769e-14,5.925760999e-14,5.070711472e-14,1.258326577e-14,2.45142592e-14,5.489482392e-14,1.066686341e-13,2.72756424e-13,4.219966642e-14,5.958567478e-14
1.78125,6.253788414e-14,1.847820629e-13,7.588257221e-14,4.782639706e-14,1.718846651e-14,6.500750934e-14,5.686285761e-14,3.754770657e-14,4.52702015e-14,3.163116397e-14,2.237346235e-14,6.481225427e-14,3.763503945e-14,1.621950479e-13,1.755724448e-13,1.595920497e-13,3.173447213e-14,4.331718524e-14,3.88411188e-14,7.333321965e-14,1.379352026e-14,5.322209802e-14,7.896907384e-14,5.95723022e-14,5.223669162e-14,1.251496748e-14,2.662441172e-14,4.796357237e-14,9.826056086e-14,2.390921392e-13,3.999113051e-14,6.599921908e-14
1.7890625,5.724359489e-14,1.774461896e-13,6.745771188e-14,4.008307037e-14,1.894986527e-14,5.956919773e-14,6.051998046e-14,3.511332697e-14,4.302516256e-14,3.447426606e-14,2.460837199e-14,6.044083073e-14,3.557517118e-14,1.415888956e-13,1.555490215e-13,1.474493592e-13,3.229092861e-14,3.728705626e-14,3.673102483e-14,7.693636926e-14,1.356270994e-14,5.575820657e-14,7.862961667e-14,5.916042975e-14,5.391463514e-14,1.327421275e-14,3.022277221e-14,4.406981331e-14,8.957670271e-14,2.086276653e-13,3.93717602e-14,7.247118787e-14
1.796875,5.385929326e-14,1.652279554e-13,6.000432514e-14,3.391745211e-14,2.164634595e-14,5.431204556e-14,6.383822334e-14,3.335570858e-14,4.076896918e-14,3.770634927e-14,2.808649981e-14,5.599099405e-14,3.338952948e-14,1.247401757e-13,1.396249369e-13,1.409138421e-13,3.582623956e-14,3.383933739e-14,3.542080695e-14,8.123239511e-14,1.349254446e-14,5.736124244e-14,7.774204787e-14,5.801537748e-14,5.560044602e-14,1.508118682e-14,3.524709753e-14,4.341346007e-14,8.07508768e-14,1.821269078e-13,4.036309071e-14,7.883327686e-14
1.8046875,5.245438065e-14,1.494671922e-13,5.387932081e-14,2.928562627e-14,2.537777249e-14,4.961375872e-14,6.688902789e-14,3.211226454e-14,3.855345749e-14,4.125836182e-14,3.283261783e-14,5.139875326e-14,3.120995329e-14,1.114518134e-13,1.280235608e-13,1.385983638e-13,4.173885405e-14,3.241285694e-14,3.493145353e-14,8.621279158e-14,1.357298325e-14,5.811883407e-14,7.61852455e-14,5.628712506e-14,5.697056029e-14,1.801697778e-14,4.097282667e-14,4.489488173e-14,7.159440151e-14,1.597753131e-13,4.314369253e-14,8.52278027e-14
