"Time","Fp1","AF3","F7","F3","FC1","FC5","T7","C3","CP1","CP5","P7","P3","Pz","PO3","O1","Oz","O2","PO4","P4","P8","CP6","CP2","C4","T8","FC6","FC2","F4","F8","AF4","Fp2","Fz","Cz"
0.0078125,3.460189102e-14,5.306567759e-15,4.154261638e-15,1.23202793e-14,1.608557829e-14,4.772916088e-14,1.976102959e-14,4.392346127e-14,7.408114989e-15,9.81592959e-15,1.277680545e-14,1.649724399e-14,2.689239879e-13,2.967288836e-14,4.978603781e-14,5.040054822e-14,3.558975105e-13,4.826243062e-14,1.725506952e-14,1.472484795e-13,7.720230097e-15,3.725584699e-15,4.958487957e-15,6.617026759e-14,1.208657651e-14,3.228754969e-14,9.987978849e-14,1.47924395e-13,6.900004213e-15,1.693915557e-13,5.861195666e-15,1.237157081e-15
0.015625,4.845036606e-14,6.938481616e-15,5.758515804e-15,1.440910305e-14,1.757202181e-14,5.002664142e-14,3.426774621e-14,4.853377472e-14,9.505760858e-15,1.388023416e-14,1.657775102e-14,2.046129116e-14,4.193540713e-13,2.806905958e-14,5.450315883e-14,6.317743868e-14,4.248779881e-13,6.485313317e-14,2.272190599e-14,1.861858595e-13,9.211050221e-15,3.787390384e-15,7.279602327e-15,7.700090065e-14,2.136725857e-14,4.191900011e-14,1.045351131e-13,2.006115192e-13,8.508917127e-15,2.71536357e-13,7.452237793e-15,1.29759039e-15
0.0234375,6.221283541e-14,8.624708796e-15,7.856912642e-15,1.588407262e-14,1.81702262e-14,5.0037232e-14,5.577538402e-14,5.07647086e-14,1.176715137e-14,1.877384782e-14,2.19902929e-14,2.448178509e-14,6.170951625e-13,2.47676167e-14,5.73209324e-14,7.358063759e-14,4.800734399e-13,8.138904763e-14,2.825996329e-14,2.283520593e-13,1.134056203e-14,3.913422787e-15,9.911307396e-15,8.647302816e-14,3.492442008e-14,5.13995598e-14,1.066175486e-13,2.640387984e-13,1.008800715e-14,4.091969394e-13,9.019364123e-15,1.372890225e-15
0.03125,7.484825085e-14,1.020379054e-14,1.086869415e-14,1.62259605e-14,1.772027569e-14,4.906178313e-14,8.617234631e-14,5.048363797e-14,1.365269913e-14,2.473816021e-14,2.857193207e-14,2.810943054e-14,8.517700983e-13,2.117522926e-14,5.815387767e-14,8.078909178e-14,5.167374355e-13,9.602345119e-14,3.386250845e-14,2.734244787e-13,1.496246618e-14,4.179166927e-15,1.269255367e-14,9.660653316e-14,5.284430754e-14,5.997666982e-14,1.07587776e-13,3.37376041e-13,1.158631836e-14,5.805573305e-13,1.046103387e-14,1.454077516e-15
0.0390625,8.288620311e-14,1.148894617e-14,1.473550635e-14,1.550467136e-14,1.716769358e-14,4.920088345e-14,1.265104222e-13,4.879505673e-14,1.558864707e-14,3.179620259e-14,3.649075104e-14,3.089905136e-14,1.106668374e-12,1.779507454e-14,5.597668822e-14,8.375226008e-14,5.345917134e-13,1.064368198e-13,3.896626964e-14,3.171644187e-13,2.014891321e-14,4.82189576e-15,1.526781158e-14,1.101277694e-13,7.473041148e-14,6.771645675e-14,1.099926168e-13,4.119078027e-13,1.283296999e-14,7.784284508e-13,1.160841295e-14,1.405031606e-15
0.046875,8.595769573e-14,1.281263244e-14,1.975501015e-14,1.470184084e-14,1.768275171e-14,5.21503387e-14,1.76612901e-13,4.681275057e-14,1.785820064e-14,3.95932009e-14,4.262050562e-14,3.217558487e-14,1.350271322e-12,1.615349428e-14,5.145159069e-14,8.491318087e-14,5.442164566e-13,1.127734053e-13,4.330438957e-14,3.562400516e-13,2.64328239e-14,5.728605205e-15,1.681271511e-14,1.286163486e-13,9.648513446e-14,7.410964371e-14,1.148227462e-13,4.838302042e-13,1.455722487e-14,9.872792045e-13,1.310501053e-14,1.366045847e-15
0.0546875,8.310254036e-14,1.376651082e-14,2.500929239e-14,1.417578499e-14,1.897287271e-14,5.765154253e-14,2.349523875e-13,4.458255083e-14,2.001554491e-14,4.71425327e-14,4.647091626e-14,3.213079311e-14,1.554503131e-12,1.608096885e-14,4.785287861e-14,8.249378995e-14,5.360462311e-13,1.118305624e-13,4.549458379e-14,3.793417084e-13,3.254399316e-14,6.909544176e-15,1.739559096e-14,1.52785172e-13,1.149210917e-13,7.744269714e-14,1.199645989e-13,5.34476912e-13,1.590474786e-14,1.17817765e-12,1.468710014e-14,1.497493505e-15
0.0625,7.633078176e-14,1.458585632e-14,3.029281537e-14,1.428581251e-14,2.15857339e-14,6.512356471e-14,2.953798478e-13,4.259608323e-14,2.143426718e-14,5.366635645e-14,4.8701523e-14,3.052748517e-14,1.685963315e-12,1.682396509e-14,4.47991278e-14,8.013608577e-14,5.162751739e-13,1.060921857e-13,4.57266567e-14,3.830895623e-13,3.733488846e-14,8.444387652e-15,1.717021743e-14,1.812143111e-13,1.26782577e-13,7.796435775e-14,1.225883519e-13,5.58851222e-13,1.749225803e-14,1.327636779e-12,1.691457517e-14,1.804257837e-15
0.0703125,6.746352358e-14,1.540548154e-14,3.541022726e-14,1.59260189e-14,2.589457277e-14,7.416034778e-14,3.522276657e-13,4.117337957e-14,2.23876648e-14,5.81431876e-14,4.990538934e-14,2.75609432e-14,1.721461127e-12,1.778182971e-14,4.325831445e-14,8.109897295e-14,4.974517963e-13,9.867730408e-14,4.374097208e-14,3.675691203e-13,3.96315567e-14,9.612523971e-15,1.606428675e-14,2.106501858e-13,1.30439286e-13,7.556905776e-14,1.195174218e-13,5.533614511e-13,1.962270679e-14,1.415988713e-12,2.037413952e-14,2.250552575e-15
0.078125,5.949257109e-14,1.677623128e-14,4.093856659e-14,1.958004732e-14,3.174178547e-14,8.333497947e-14,3.962870252e-13,3.967994686e-14,2.283405339e-14,5.963151395e-14,5.127283721e-14,2.388090277e-14,1.657263973e-12,1.883445209e-14,4.522620206e-14,8.8024875e-14,4.832795004e-13,9.230064635e-14,4.026382935e-14,3.321519858e-13,3.92403831e-14,1.064166905e-14,1.448957184e-14,2.357270169e-13,1.249446083e-13,7.033280803e-14,1.112608607e-13,5.254768003e-13,2.339828808e-14,1.428448113e-12,2.551675611e-14,2.923408614e-15
0.0859375,5.620573823e-14,1.953004469e-14,4.732075223e-14,2.550813145e-14,3.904992983e-14,9.003295526e-14,4.196722749e-13,3.828813091e-14,2.248936906e-14,5.781352029e-14,5.634571658e-14,2.00783537e-14,1.515079549e-12,2.059557759e-14,5.395535538e-14,1.059091382e-13,4.831942129e-13,9.12828477e-14,3.760506972e-14,2.830341131e-13,3.648153098e-14,1.181213407e-14,1.297679713e-14,2.528706413e-13,1.129492598e-13,6.364338597e-14,9.803022036e-14,4.95477189e-13,3.033880365e-14,1.364077367e-12,3.323148514e-14,3.750485179e-15
0.09375,6.050612255e-14,2.463150122e-14,5.712897173e-14,3.421240176e-14,4.787113124e-14,9.303696084e-14,4.172346404e-13,3.700963474e-14,2.143341797e-14,5.290470233e-14,6.802038207e-14,1.701481386e-14,1.313808389e-12,2.425397858e-14,7.286530426e-14,1.381313332e-13,5.062855606e-13,1.001072703e-13,3.718404927e-14,2.304573279e-13,3.347267281e-14,1.293484407e-14,1.207660562e-14,2.57071794e-13,9.670741283e-14,5.608642673e-14,8.199411873e-14,4.880587651e-13,4.176806398e-14,1.234609898e-12,4.41854839e-14,4.600848063e-15
0.1015625,7.422196482e-14,3.270086024e-14,7.215845341e-14,4.529744689e-14,5.721112694e-14,9.174799419e-14,3.887808598e-13,3.539533132e-14,1.990083233e-14,4.58770478e-14,8.771942157e-14,1.60170104e-14,1.082730709e-12,3.247406328e-14,1.053927903e-13,1.86447346e-13,5.55768565e-13,1.19962122e-13,4.097591278e-14,1.816580039e-13,3.217503569e-14,1.414983632e-14,1.236214174e-14,2.458975236e-13,8.210450276e-14,4.781923359e-14,6.657844094e-14,5.278063601e-13,5.9378042e-14,1.054392988e-12,5.837460961e-14,5.150868793e-15
0.109375,9.80411455e-14,4.336346664e-14,9.367457954e-14,5.758853926e-14,6.601419455e-14,8.612744731e-14,3.391965111e-13,3.29158414e-14,1.829203455e-14,3.776347212e-14,1.154388116e-13,1.782971205e-14,8.596296996e-13,4.752566507e-14,1.513101794e-13,2.48226005e-13,6.25230028e-13,1.507700947e-13,5.089316569e-14,1.457427718e-13,3.409738705e-14,1.537990986e-14,1.414588084e-14,2.204449796e-13,7.369655386e-14,3.986578865e-14,5.532226868e-14,6.312326853e-13,8.285739194e-14,8.539087753e-13,7.415442474e-14,5.296864921e-15
0.1171875,1.305546914e-13,5.614914606e-14,1.22518185e-13,7.057686456e-14,7.402601812e-14,7.730823611e-14,2.773067239e-13,3.015213167e-14,1.709833656e-14,2.992215772e-14,1.494086762e-13,2.22556315e-14,6.64744094e-13,6.952830787e-14,2.08254505e-13,3.208287602e-13,7.112250831e-13,1.919816685e-13,6.636489988e-14,1.251677581e-13,3.998595601e-14,1.666751826e-14,1.735128468e-14,1.846821673e-13,7.390592472e-14,3.28460642e-14,5.12701485e-14,7.981277729e-13,1.104140618e-13,6.552744074e-13,9.08615764e-14,5.315013898e-15
0.125,1.666645627e-13,6.935280746e-14,1.555884149e-13,8.281009244e-14,8.052622111e-14,6.654423599e-14,2.164645482e-13,2.726571871e-14,1.659045484e-14,2.319012086e-14,1.856799996e-13,2.893365921e-14,5.12680155e-13,9.622849345e-14,2.701897253e-13,3.940572967e-13,7.944422967e-13,2.352722498e-13,8.50938203e-14,1.187920538e-13,4.906342589e-14,1.755586768e-14,2.167907076e-14,1.454940221e-13,8.4094751e-14,2.67748474e-14,5.250204058e-14,1.005505185e-12,1.382231319e-13,4.747308668e-13,1.062889146e-13,5.370848686e-15
0.1328125,2.025305073e-13,8.155474634e-14,1.899036709e-13,9.309199003e-14,8.473803051e-14,5.576400843e-14,1.642796652e-13,2.427732784e-14,1.695037902e-14,1.797977887e-14,2.176929427e-13,3.662857924e-14,4.038370038e-13,1.257659489e-13,3.308420364e-13,4.617899285e-13,8.615617673e-13,2.796503223e-13,1.052459248e-13,1.242192239e-13,5.981743993e-14,1.782537325e-14,2.622542809e-14,1.081591285e-13,1.029472729e-13,2.201222932e-14,5.895107812e-14,1.223947357e-12,1.63431949e-13,3.279389251e-13,1.199548424e-13,5.666381604e-15
0.140625,2.300225604e-13,9.03227846e-14,2.187599609e-13,9.990727405e-14,8.605674441e-14,4.624147089e-14,1.289708447e-13,2.15270358e-14,1.770771161e-14,1.39355796e-14,2.39586405e-13,4.286025007e-14,3.319354975e-13,1.51070354e-13,3.801020887e-13,5.128019669e-13,8.973814096e-13,3.157122337e-13,1.230162152e-13,1.324692939e-13,6.944895488e-14,1.773163373e-14,3.006427426e-14,7.770232275e-14,1.27376099e-13,1.853783705e-14,6.896477267e-14,1.40960774e-12,1.809077133e-13,2.165606973e-13,1.29569886e-13,6.674808373e-15
0.1484375,2.439612351e-13,9.38035609e-14,2.38152413e-13,1.02237723e-13,8.467271266e-14,3.981486536e-14,1.112123943e-13,1.977926616e-14,1.816359193e-14,1.093784816e-14,2.487440634e-13,4.691400494e-14,2.916500528e-13,1.686448171e-13,4.093235093e-13,5.381549051e-13,8.906007369e-13,3.338030471e-13,1.33785976e-13,1.416120168e-13,7.664670299e-14,1.694900734e-14,3.219366459e-14,5.981943604e-14,1.516919535e-13,1.687809695e-14,7.950879841e-14,1.530548802e-12,1.872412896e-13,1.384840143e-13,1.33286042e-13,8.403550216e-15
0.15625,2.423978895e-13,9.267051704e-14,2.445834296e-13,1.010336601e-13,8.147819327e-14,3.662417839e-14,1.063494699e-13,1.877508369e-14,1.800258572e-14,8.799399944e-15,2.43786826e-13,4.867266483e-14,2.785141646e-13,1.76686304e-13,4.152813701e-13,5.385348938e-13,8.47253605e-13,3.355403242e-13,1.369732208e-13,1.484996701e-13,7.92480622e-14,1.530644538e-14,3.2161696e-14,5.421428577e-14,1.727966086e-13,1.750806122e-14,8.772780818e-14,1.553969217e-12,1.82505011e-13,9.031468887e-14,1.333811344e-13,1.055346366e-14
0.1640625,2.281713719e-13,8.787871571e-14,2.359031563e-13,9.720273691e-14,7.718397893e-14,3.653058256e-14,1.121471849e-13,1.872139644e-14,1.785623081e-14,7.201980196e-15,2.253168875e-13,4.820898879e-14,2.819014524e-13,1.73187473e-13,3.969323113e-13,5.190403398e-13,7.839869701e-13,3.202630383e-13,1.340596699e-13,1.523521542e-13,7.69931718e-14,1.369443326e-14,2.93711002e-14,6.167133361e-14,1.867559163e-13,2.104885961e-14,9.288196313e-14,1.483204617e-12,1.694162688e-13,6.417196363e-14,1.32115337e-13,1.344672431e-14
0.171875,2.011950974e-13,7.951515276e-14,2.127894077e-13,9.037594262e-14,7.075296786e-14,3.84611609e-14,1.179701247e-13,1.945563169e-14,1.634409248e-14,6.241854623e-15,1.953514039e-13,4.532185877e-14,2.911247105e-13,1.58751139e-13,3.570153688e-13,4.790397506e-13,7.078265305e-13,2.86253966e-13,1.220647576e-13,1.541333818e-13,7.125785197e-14,1.226769318e-14,2.512847268e-14,7.836537693e-14,1.90562121e-13,2.769391051e-14,9.700462269e-14,1.329144996e-12,1.49514217e-13,5.474828297e-14,1.284363566e-13,1.675079681e-14
0.1796875,1.689251052e-13,6.991205164e-14,1.806229761e-13,8.229900793e-14,6.358906578e-14,4.103358482e-14,1.185259462e-13,2.04983356e-14,1.344538423e-14,6.472543858e-15,1.603905529e-13,4.193695917e-14,3.021182973e-13,1.407288769e-13,3.05083081e-13,4.307516754e-13,6.38890457e-13,2.421321102e-13,1.043176389e-13,1.575494425e-13,6.266035817e-14,1.065377265e-14,2.013430508e-14,9.990086782e-14,1.851693331e-13,3.655770581e-14,1.023641807e-13,1.131264981e-12,1.281970605e-13,5.867771966e-14,1.244945856e-13,1.894272303e-14
0.1875,1.398809841e-13,6.094106976e-14,1.455578608e-13,7.453360185e-14,5.726402571e-14,4.311243496e-14,1.163092793e-13,2.210383756e-14,1.059957572e-14,7.826356412e-15,1.250896973e-13,3.945420202e-14,3.22472552e-13,1.245140443e-13,2.49992472e-13,3.873202861e-13,5.963867579e-13,1.978301296e-13,8.511787937e-14,1.640230595e-13,5.192397319e-14,9.344450507e-15,1.525973531e-14,1.223651602e-13,1.72090205e-13,4.746211708e-14,1.076504359e-13,9.209290652e-13,1.089864668e-13,7.411493315e-14,1.22248245e-13,2.055922039e-14
0.1953125,1.196355498e-13,5.332476637e-14,1.138708291e-13,6.75800912e-14,5.11466289e-14,4.473585245e-14,1.090440795e-13,2.343060652e-14,8.100155135e-15,9.881786967e-15,9.317791719e-14,3.840395865e-14,3.484633043e-13,1.123133825e-13,1.980787512e-13,3.566129521e-13,5.883092221e-13,1.577812982e-13,6.650438406e-14,1.746583325e-13,4.098458006e-14,8.787214255e-15,1.154666252e-14,1.397704613e-13,1.521373984e-13,6.056807698e-14,1.132530016e-13,7.376365433e-13,9.545390275e-14,9.960555403e-14,1.221564997e-13,2.210027326e-14
0.203125,1.101190058e-13,4.736847057e-14,8.957923098e-14,6.162814139e-14,4.480238826e-14,4.591218753e-14,9.936432097e-14,2.419365398e-14,5.950191624e-15,1.238584632e-14,6.525939373e-14,3.874081469e-14,3.832303827e-13,1.056427451e-13,1.537236561e-13,3.387629765e-13,6.08247035e-13,1.269930947e-13,5.053637118e-14,1.876357788e-13,3.127235094e-14,8.507104624e-15,9.323737579e-15,1.530805668e-13,1.294898891e-13,7.363861602e-14,1.202187514e-13,6.003136803e-13,8.755041976e-14,1.340363087e-13,1.227960756e-13,2.254590604e-14
0.2109375,1.111928196e-13,4.28298048e-14,7.571775837e-14,5.688275753e-14,3.952707298e-14,4.520952922e-14,8.877724238e-14,2.440661609e-14,4.222531254e-15,1.462637057e-14,4.396519979e-14,3.961963223e-14,4.31681086e-13,1.056806061e-13,1.215198486e-13,3.344631384e-13,6.43594967e-13,1.097111911e-13,3.941822821e-14,2.001254856e-13,2.332231372e-14,8.227163031e-15,8.604439142e-15,1.591371785e-13,1.07481053e-13,8.451604936e-14,1.258814583e-13,5.164803397e-13,8.387826399e-14,1.740722481e-13,1.232245129e-13,2.146228766e-14
0.21875,1.19619493e-13,3.953485035e-14,7.234928747e-14,5.335971704e-14,3.562008683e-14,4.324261181e-14,8.274121574e-14,2.42904476e-14,3.266381001e-15,1.583374826e-14,3.040304812e-14,3.992982325e-14,5.100024888e-13,1.109933347e-13,1.031700417e-13,3.38834238e-13,6.791832769e-13,1.03791527e-13,3.263575229e-14,2.069114216e-13,1.653639928e-14,7.909559436e-15,8.675964889e-15,1.604319741e-13,8.780795662e-14,9.277186693e-14,1.267565244e-13,4.803487065e-13,8.304985628e-14,2.1537639e-13,1.23158728e-13,1.980424025e-14
0.2265625,1.314553136e-13,3.693994936e-14,7.734321159e-14,5.057716185e-14,3.219138632e-14,4.101002365e-14,8.01729279e-14,2.322214462e-14,3.008192355e-15,1.522330128e-14,2.217952195e-14,4.017847715e-14,6.228341573e-13,1.185779771e-13,9.376718545e-14,3.427399105e-13,6.948620739e-13,1.065358301e-13,3.039537249e-14,2.043299783e-13,1.197170354e-14,7.749498623e-15,9.25768093e-15,1.57964356e-13,7.033190938e-14,9.783203495e-14,1.216026141e-13,4.718465146e-13,8.353528805e-14,2.570517463e-13,1.212684989e-13,1.753650464e-14
0.234375,1.441090276e-13,3.476789142e-14,8.696223036e-14,4.834265654e-14,2.941772539e-14,3.824608952e-14,8.04151653e-14,2.150945052e-14,3.491038367e-15,1.434169161e-14,1.867332466e-14,4.068367571e-14,7.709327794e-13,1.282564263e-13,9.270497876e-14,3.415101645e-13,6.850642305e-13,1.135472901e-13,3.111540236e-14,1.933666979e-13,9.182883993e-15,7.671088986e-15,1.008282154e-14,1.564389498e-13,5.779745305e-14,9.926843382e-14,1.157182002e-13,4.750771981e-13,8.434034575e-14,2.955065475e-13,1.173222165e-13,1.458142981e-14
0.2421875,1.51829655e-13,3.162627253e-14,9.745984089e-14,4.559045841e-14,2.7261717e-14,3.423246379e-14,8.287032633e-14,1.93189741e-14,4.500983017e-15,1.29809151e-14,1.982844659e-14,3.919131326e-14,9.572616304e-13,1.336866425e-13,9.566119532e-14,3.277320692e-13,6.389877534e-13,1.167720581e-13,3.249698755e-14,1.731592858e-13,7.497692129e-15,7.562426069e-15,1.076162565e-14,1.551771321e-13,4.981548625e-14,9.589460098e-14,1.076298713e-13,4.766401339e-13,8.250906618e-14,3.249885935e-13,1.09342413e-13,1.150750245e-14
0.25,1.5194335e-13,2.833580556e-14,1.039408041e-13,4.298155048e-14,2.586462983e-14,3.034319048e-14,8.699308546e-14,1.719713651e-14,6.063853615e-15,1.2119184e-14,2.30113849e-14,3.744994643e-14,1.164026428e-12,1.359307596e-13,1.017525806e-13,3.033535424e-13,5.755715738e-13,1.138032544e-13,3.332244069e-14,1.434386505e-13,6.990634181e-15,7.919670614e-15,1.191095652e-14,1.608415913e-13,4.699570813e-14,9.052008439e-14,9.649899683e-14,4.705496663e-13,7.935636257e-14,3.479801454e-13,9.928293865e-14,9.069623816e-15
0.2578125,1.462190667e-13,2.54595943e-14,1.051201596e-13,4.050108843e-14,2.512549884e-14,2.615022527e-14,8.928218785e-14,1.443671003e-14,7.891159366e-15,1.322703212e-14,3.101439015e-14,3.575663169e-14,1.372582128e-12,1.343703802e-13,1.112999549e-13,2.70488663e-13,5.062863827e-13,1.059635543e-13,3.347503957e-14,1.137710702e-13,6.849008297e-15,8.00226449e-15,1.351240649e-14,1.702689516e-13,4.965539447e-14,8.391087575e-14,8.612485849e-14,4.638655758e-13,7.718680009e-14,3.671651691e-13,8.868359176e-14,6.800822192e-15
0.265625,1.372058382e-13,2.251161621e-14,1.00996087e-13,3.725272947e-14,2.413637318e-14,2.151119704e-14,8.749311451e-14,1.1466129e-14,1.050951202e-14,1.602222473e-14,4.238679161e-14,3.346857287e-14,1.548877406e-12,1.274464206e-13,1.196519073e-13,2.319903145e-13,4.361544805e-13,9.244067018e-14,3.216872967e-14,8.814471256e-14,6.639642337e-15,8.20087576e-15,1.513842627e-14,1.803047594e-13,5.765017108e-14,7.496553589e-14,7.931680699e-14,4.588015312e-13,7.512418466e-14,3.761729241e-13,7.712933895e-14,5.143255009e-15
0.2734375,1.25112409e-13,1.927173381e-14,9.325680397e-14,3.377920902e-14,2.279679745e-14,1.701506846e-14,8.357214539e-14,9.383916473e-15,1.354998071e-14,2.052510047e-14,5.57777595e-14,3.077676137e-14,1.678356766e-12,1.168463031e-13,1.27342933e-13,1.921494844e-13,3.786609804e-13,7.389904123e-14,2.883279279e-14,7.009636113e-14,6.401964752e-15,9.444649978e-15,1.731554094e-14,1.904995871e-13,7.113214947e-14,6.591831217e-14,7.185583442e-14,4.640654494e-13,7.300932294e-14,3.761142896e-13,6.504015454e-14,4.156709046e-15
0.28125,1.131096558e-13,1.64676217e-14,8.391250376e-14,3.088495734e-14,2.196563948e-14,1.315225545e-14,7.759779019e-14,8.01072011e-15,1.58167346e-14,2.567237259e-14,7.205965852e-14,2.843885161e-14,1.729597262e-12,1.055343498e-13,1.389554359e-13,1.589041908e-13,3.442087663e-13,5.775472116e-14,2.492487802e-14,6.42599952e-14,6.005671842e-15,1.084229148e-14,2.002165258e-14,2.000952794e-13,9.04328411e-14,5.801851002e-14,6.543529707e-14,4.807703745e-13,7.162381925e-14,3.707048885e-13,5.432756617e-14,3.607820448e-15
0.2890625,1.014984819e-13,1.412004117e-14,7.74159194e-14,2.768152855e-14,2.085370224e-14,9.690249726e-15,7.101869194e-14,7.569253636e-15,1.745973262e-14,3.125463639e-14,9.138639378e-14,2.620073935e-14,1.715879196e-12,9.189690433e-14,1.480393189e-13,1.286660136e-13,3.149571185e-13,4.350745905e-14,2.051818463e-14,6.759949899e-14,6.062751776e-15,1.203083434e-14,2.226068991e-14,2.130165187e-13,1.11141851e-13,5.076487193e-14,6.111798167e-14,5.098165231e-13,6.986736495e-14,3.542633367e-13,4.468962043e-14,3.56597755e-15
0.296875,9.126998229e-14,1.19477877e-14,7.230838609e-14,2.383370394e-14,1.887525426e-14,7.024620024e-15,6.522336205e-14,8.242096662e-15,1.895110892e-14,3.584129489e-14,1.101449443e-13,2.389743748e-14,1.623490938e-12,7.770057102e-14,1.517819674e-13,1.025959238e-13,2.912567266e-13,3.251729055e-14,1.642521698e-14,7.832084939e-14,6.794148086e-15,1.393575383e-14,2.374582353e-14,2.337140697e-13,1.324862927e-13,4.373084972e-14,5.957079713e-14,5.408094186e-13,6.670974157e-14,3.262468251e-13,3.566141798e-14,3.56380762e-15
0.3046875,8.192180002e-14,9.929708216e-15,7.055643889e-14,2.001502538e-14,1.624737014e-14,5.805342573e-15,6.286403525e-14,9.159867995e-15,1.953543152e-14,3.840598625e-14,1.261956681e-13,2.120711558e-14,1.464584397e-12,6.32592184e-14,1.499286926e-13,8.11885521e-14,2.698152641e-13,2.545525532e-14,1.264089589e-14,9.33133265e-14,8.713212436e-15,1.667713444e-14,2.432293131e-14,2.673555355e-13,1.509714837e-13,3.709370342e-14,6.089213879e-14,5.751429608e-13,6.099383568e-14,2.909314304e-13,2.694189797e-14,3.342328836e-15
0.3125,7.160041701e-14,8.328944902e-15,7.229572125e-14,1.635307987e-14,1.340751475e-14,6.168416185e-15,6.562474225e-14,1.055869526e-14,1.897497302e-14,3.901387949e-14,1.385610375e-13,1.836607628e-14,1.266258717e-12,4.970404908e-14,1.42601981e-13,6.396665966e-14,2.556569974e-13,2.234662513e-14,9.420911698e-15,1.080584897e-13,1.235487049e-14,1.937702594e-14,2.349427666e-14,3.236620344e-13,1.630434585e-13,3.124607173e-14,6.725250656e-14,6.096697103e-13,5.274341839e-14,2.508863659e-13,1.929499756e-14,3.146254123e-15
0.3203125,6.162691236e-14,7.203197101e-15,7.500841713e-14,1.335957863e-14,1.037564244e-14,7.866028415e-15,7.637976318e-14,1.181897923e-14,1.783762902e-14,3.778034206e-14,1.440224139e-13,1.617772555e-14,1.067169045e-12,3.909146563e-14,1.282457558e-13,5.048313874e-14,2.52852084e-13,2.402700549e-14,7.484960073e-15,1.220624534e-13,1.769698842e-14,2.203683828e-14,2.150170644e-14,4.02783045e-13,1.676642225e-13,2.689008728e-14,7.796949353e-14,6.548105408e-13,4.325430352e-14,2.12517717e-13,1.28684831e-14,2.739451238e-15
0.328125,5.252993463e-14,6.482587997e-15,7.639140137e-14,1.181800149e-14,7.545703247e-15,1.092292324e-14,9.569726007e-14,1.215489346e-14,1.671338909e-14,3.505738015e-14,1.419305662e-13,1.542304631e-14,8.77421034e-13,3.357865292e-14,1.107209234e-13,4.341596796e-14,2.674489433e-13,2.918807703e-14,6.678327053e-15,1.342115189e-13,2.467679096e-14,2.49810167e-14,1.938881965e-14,5.042916295e-13,1.670559917e-13,2.407261232e-14,9.197314804e-14,7.172899297e-13,3.484057206e-14,1.780884252e-13,8.116350293e-15,2.095558445e-15
0.3359375,4.420676851e-14,6.189304382e-15,7.704551199e-14,1.129434115e-14,5.27563026e-15,1.480441169e-14,1.259375302e-13,1.166109879e-14,1.610055909e-14,3.157800119e-14,1.345524397e-13,1.644386483e-14,7.23088092e-13,3.316457558e-14,9.156435961e-14,4.17267877e-14,3.000465186e-13,3.664371841e-14,6.486151708e-15,1.426630686e-13,3.284155227e-14,2.742770379e-14,1.703213334e-14,6.191890671e-13,1.617298269e-13,2.183934787e-14,1.053191917e-13,8.006868137e-13,2.774841878e-14,1.49125766e-13,4.744348629e-15,1.602747215e-15
0.34375,3.729286133e-14,6.347343434e-15,7.587946513e-14,1.197758729e-14,3.445784263e-15,1.897460157e-14,1.666983277e-13,1.095524459e-14,1.735312197e-14,2.758701231e-14,1.223760626e-13,2.043295708e-14,6.388564826e-13,3.954114313e-14,7.167199217e-14,4.430653306e-14,3.566373593e-13,4.55640261e-14,6.839687807e-15,1.521292668e-13,4.179598349e-14,2.909821699e-14,1.472239482e-14,7.373058482e-13,1.576058376e-13,2.101174711e-14,1.163161469e-13,9.003229902e-13,2.332410943e-14,1.296131189e-13,2.582018779e-15,1.326941799e-15
0.3515625,3.339042566e-14,6.973427134e-15,7.447647661e-14,1.366717867e-14,2.277107001e-15,2.304987563e-14,2.184999252e-13,9.841213262e-15,2.107485667e-14,2.396951245e-14,1.087787318e-13,2.744888045e-14,6.264468075e-13,5.174096159e-14,5.374007552e-14,5.192296603e-14,4.375926445e-13,5.473934658e-14,7.274045077e-15,1.623886011e-13,5.112991502e-14,2.989999082e-14,1.359307587e-14,8.443155266e-13,1.583131883e-13,2.198463719e-14,1.244602403e-13,1.01911053e-12,2.252841672e-14,1.179567811e-13,1.540575533e-15,1.262428565e-15
0.359375,3.345713749e-14,7.859701217e-15,7.346484229e-14,1.594212425e-14,2.083860557e-15,2.66654974e-14,2.789946287e-13,8.793660485e-15,2.717959278e-14,2.086686839e-14,9.811669983e-14,3.706407074e-14,6.906289052e-13,6.919997368e-14,4.010741701e-14,6.16212537e-14,5.306234765e-13,6.267485283e-14,7.643358283e-15,1.729056307e-13,5.963444984e-14,2.901729228e-14,1.442730791e-14,9.220093816e-13,1.690990623e-13,2.421255776e-14,1.282491528e-13,1.128834334e-12,2.491467302e-14,1.134359302e-13,1.215240134e-15,1.672176289e-15
0.3671875,3.765957634e-14,9.321814497e-15,7.888592491e-14,1.77495605e-14,2.960467843e-15,2.866759775e-14,3.387885391e-13,8.365465947e-15,3.488644132e-14,1.758690963e-14,9.19124005e-14,4.805793147e-14,8.029371733e-13,8.788133913e-14,3.251039626e-14,7.194732412e-14,6.276926508e-13,6.83088316e-14,7.4270642e-15,1.826160312e-13,6.676124694e-14,2.652435094e-14,1.697043747e-14,9.643000021e-13,1.902066847e-13,2.659355332e-14,1.268833472e-13,1.213733416e-12,2.943730988e-14,1.114157891e-13,1.129933861e-15,2.422336546e-15
0.375,4.530715959e-14,1.122102555e-14,8.942249402e-14,1.886795774e-14,4.93425456e-15,2.909422951e-14,3.922009348e-13,8.307880429e-15,4.332315278e-14,1.422611126e-14,9.120615558e-14,5.862143743e-14,9.33887102e-13,1.039175678e-13,2.853660686e-14,8.029352188e-14,7.14764547e-13,7.395398964e-14,7.240532561e-15,1.896935036e-13,7.142164253e-14,2.345294176e-14,2.1266663e-14,9.69359304e-13,2.196026534e-13,2.925881292e-14,1.218804271e-13,1.254568542e-12,3.461320407e-14,1.109482633e-13,1.082233728e-15,3.372818569e-15
0.3828125,5.474514531e-14,1.34087433e-14,1.054731648e-13,1.964156712e-14,7.850129549e-15,2.831115451e-14,4.35288213e-13,8.953892518e-15,5.211738337e-14,1.185839509e-14,9.766554548e-14,6.76779671e-14,1.055446565e-12,1.169937215e-13,2.807928926e-14,8.399893121e-14,7.730614933e-13,7.661356451e-14,7.120539285e-15,1.92606937e-13,7.30416284e-14,1.997670698e-14,2.653256389e-14,9.353982111e-13,2.537918945e-13,3.156876973e-14,1.167401518e-13,1.245757117e-12,3.968790655e-14,1.067032327e-13,1.109049267e-15,4.602731123e-15
0.390625,6.576567899e-14,1.552821395e-14,1.263461098e-13,1.956748737e-14,1.178966851e-14,2.624231994e-14,4.579690367e-13,9.652637743e-15,5.859920961e-14,1.023729416e-14,1.044561233e-13,7.169119143e-14,1.112997516e-12,1.221154418e-13,2.97699434e-14,8.437734936e-14,7.992685272e-13,7.756307456e-14,7.233440292e-15,1.895896054e-13,7.10825097e-14,1.602163611e-14,3.15058764e-14,8.683487614e-13,2.877808049e-13,3.338377887e-14,1.084002525e-13,1.180451989e-12,4.350607723e-14,1.030727685e-13,1.03044312e-15,6.198959383e-15
0.3984375,7.755480373e-14,1.695436034e-14,1.46445093e-13,1.885455572e-14,1.649336477e-14,2.292833653e-14,4.536418947e-13,1.0356833e-14,6.057591996e-14,8.399114089e-15,1.0765562e-13,6.955897743e-14,1.088356808e-12,1.166823894e-13,3.077248258e-14,8.09901149e-14,7.916706417e-13,7.929096823e-14,7.667118411e-15,1.770190699e-13,6.6329022e-14,1.212965594e-14,3.656158285e-14,7.881163531e-13,3.148463271e-13,3.299423039e-14,9.458191096e-14,1.077378321e-12,4.51656114e-14,9.938597573e-14,9.749753773e-16,7.622230983e-15
0.40625,8.692699775e-14,1.841397634e-14,1.621418598e-13,1.865662365e-14,2.010615182e-14,2.014334538e-14,4.287984102e-13,1.068766426e-14,5.937937882e-14,7.095064991e-15,1.086724657e-13,6.450112983e-14,1.006358703e-12,1.063639104e-13,3.228578116e-14,7.154900028e-14,7.350606429e-13,7.673833487e-14,7.999879682e-15,1.599868377e-13,5.954441969e-14,9.15860367e-15,4.02813689e-14,6.987048171e-13,3.321950106e-13,2.997745954e-14,8.251262623e-14,9.484418619e-13,4.717507846e-14,1.016937097e-13,1.433765071e-15,8.385216323e-15
0.4140625,9.489092597e-14,1.936042991e-14,1.712326372e-13,1.927762901e-14,2.242641818e-14,1.827773643e-14,3.853209166e-13,1.069486879e-14,5.472127879e-14,6.400356611e-15,1.035969073e-13,5.633889372e-14,8.727819507e-13,9.110923439e-14,3.269116028e-14,6.201204866e-14,6.519772475e-13,7.134321453e-14,8.49180137e-15,1.409522982e-13,5.02805366e-14,6.981109477e-15,4.205326354e-14,6.062230222e-13,3.385132418e-13,2.586745872e-14,7.147103735e-14,8.112925326e-13,4.920383901e-14,1.153384899e-13,2.360023326e-15,8.519194117e-15
0.421875,1.024013013e-13,1.969468882e-14,1.700467252e-13,2.069517309e-14,2.443252717e-14,1.768070208e-14,3.285266726e-13,1.061632811e-14,4.705920368e-14,6.01770757e-15,9.049391484e-14,4.657866837e-14,7.240945997e-13,7.156542625e-14,2.984968435e-14,5.744890943e-14,5.757351641e-13,6.525824432e-14,8.832085019e-15,1.208416843e-13,4.020340528e-14,5.378049351e-15,4.209001652e-14,5.208528325e-13,3.343386168e-13,2.257096227e-14,6.134937726e-14,6.85064716e-13,5.192853486e-14,1.480050548e-13,3.840656412e-15,8.471294932e-15
0.4296875,1.084706127e-13,1.946428567e-14,1.585976232e-13,2.239908929e-14,2.514174522e-14,1.807478416e-14,2.681891525e-13,1.028369621e-14,3.713568043e-14,5.399361689e-15,7.355218188e-14,3.845521835e-14,6.044350056e-13,5.291560423e-14,2.517495592e-14,5.536497422e-14,5.097098787e-13,6.007467832e-14,9.147789719e-15,1.030916435e-13,3.152634386e-14,4.398149212e-15,4.140298606e-14,4.510309793e-13,3.200132863e-13,2.017098083e-14,5.583129632e-14,5.806657399e-13,5.522346218e-14,2.009768873e-13,5.987325144e-15,8.138071149e-15
0.4375,1.12910916e-13,1.935731774e-14,1.414168983e-13,2.427578567e-14,2.406024887e-14,2.034387177e-14,2.140357283e-13,1.044851228e-14,2.78840833e-14,5.127337794e-15,5.978638179e-14,3.496543295e-14,5.646301403e-13,3.945312216e-14,2.165076863e-14,5.680042532e-14,4.675525269e-13,5.742960762e-14,1.004826627e-14,8.971237187e-14,2.364272601e-14,3.903587606e-15,4.071350886e-14,3.954848635e-13,3.03941174e-13,2.006888609e-14,5.662935374e-14,5.085247316e-13,6.128853772e-14,2.802582993e-13,8.912148557e-15,7.573286407e-15
0.4453125,1.173571346e-13,1.940858589e-14,1.213910934e-13,2.618766508e-14,2.189723219e-14,2.415884073e-14,1.737387708e-13,1.079714162e-14,2.001957376e-14,5.457739121e-15,4.934853599e-14,3.508808994e-14,6.305325146e-13,3.065482109e-14,1.818715621e-14,6.423691128e-14,4.643864376e-13,5.773500656e-14,1.136754998e-14,8.088317746e-14,1.64811972e-14,3.839711945e-15,4.065842727e-14,3.524472247e-13,2.888761601e-13,2.340580501e-14,6.448095929e-14,4.766049354e-13,6.990180707e-14,3.898830339e-13,1.22289297e-14,6.763281326e-15
0.453125,1.233192967e-13,1.91848617e-14,1.021558558e-13,2.789720509e-14,1.914847164e-14,2.991904495e-14,1.509204833e-13,1.154239019e-14,1.410209597e-14,6.431001422e-15,4.35066779e-14,3.839688207e-14,8.03383642e-13,2.648577989e-14,1.510593465e-14,7.303252064e-14,4.873676893e-13,6.29639325e-14,1.390407684e-14,7.569833401e-14,1.133502801e-14,4.323472791e-15,4.083377642e-14,3.198197131e-13,2.755901287e-13,2.965103899e-14,7.62386817e-14,4.882483849e-13,7.803491064e-14,5.238303487e-13,1.52482203e-14,6.134542638e-15
0.4609375,1.294833488e-13,1.884574363e-14,8.90297248e-14,2.892625e-14,1.656545386e-14,3.660527906e-14,1.473917867e-13,1.297533304e-14,1.072735655e-14,8.037642902e-15,4.32107643e-14,4.460224707e-14,1.0723046e-12,2.596459403e-14,1.281756297e-14,8.039790568e-14,5.19965033e-13,7.186372831e-14,1.847710927e-14,7.153388767e-14,7.907074696e-15,5.152700772e-15,4.208844653e-14,2.958603338e-13,2.639906607e-13,3.814809093e-14,8.72405532e-14,5.459093685e-13,8.535046447e-14,6.718983036e-13,1.792862285e-14,6.008771538e-15
0.46875,1.338678839e-13,1.905721297e-14,8.425079701e-14,2.868119262e-14,1.426916822e-14,4.323297239e-14,1.611914894e-13,1.470310037e-14,9.542065516e-15,1.021404405e-14,4.572143834e-14,5.057493703e-14,1.386094644e-12,2.752452507e-14,1.184813142e-14,8.357425777e-14,5.415093025e-13,8.072755247e-14,2.360173765e-14,6.762264066e-14,5.551647584e-15,6.126197225e-15,4.451332015e-14,2.737212822e-13,2.547306114e-13,4.723446393e-14,9.434310133e-14,6.480462149e-13,9.225191481e-14,8.238334613e-13,2.031837999e-14,6.479938765e-15
0.4765625,1.366720572e-13,1.971862887e-14,8.64269917e-14,2.724051405e-14,1.202041725e-14,5.096722866e-14,1.876817361e-13,1.646955076e-14,9.813500106e-15,1.258772302e-14,4.739542154e-14,5.488565716e-14,1.693597038e-12,2.972266556e-14,1.196131963e-14,8.159898287e-14,5.449807877e-13,9.072456181e-14,2.967169598e-14,6.463454389e-14,4.205726124e-15,7.360343865e-15,4.749520906e-14,2.580390492e-13,2.474948747e-13,5.606970949e-14,9.735518926e-14,7.898207711e-13,9.775031359e-14,9.690047004e-13,2.244222202e-14,7.639461456e-15
0.484375,1.379765178e-13,2.041870408e-14,9.414004223e-14,2.495859917e-14,1.029696599e-14,5.86485962e-14,2.189804301e-13,1.927281468e-14,1.2016649e-14,1.485357975e-14,4.559550599e-14,5.858821255e-14,1.949631215e-12,3.227574514e-14,1.237506132e-14,7.597002303e-14,5.252901519e-13,9.798267913e-14,3.572582317e-14,5.969961195e-14,3.792299924e-15,8.749381158e-15,5.025246839e-14,2.453844493e-13,2.380347207e-13,6.249784051e-14,9.391141702e-14,9.667331796e-13,9.865470394e-14,1.08735007e-12,2.346005906e-14,9.414757361e-15
0.4921875,1.37103584e-13,2.10619269e-14,1.045970983e-13,2.222260107e-14,9.4757369e-15,6.526475829e-14,2.503864857e-13,2.297838671e-14,1.555696988e-14,1.746452112e-14,4.179031167e-14,6.17674359e-14,2.08934481e-12,3.618821188e-14,1.320885129e-14,6.573790535e-14,4.748235455e-13,9.943804374e-14,4.0011651e-14,5.232470552e-14,4.02867631e-15,9.902211685e-15,5.172540202e-14,2.337757556e-13,2.247477743e-13,6.388660186e-14,8.680884341e-14,1.176903145e-12,9.408790949e-14,1.148741764e-12,2.297552918e-14,1.13413815e-14
0.5,1.317813717e-13,2.204862665e-14,1.128892549e-13,1.848917769e-14,9.538620427e-15,6.898352252e-14,2.722271296e-13,2.670485064e-14,1.993954739e-14,1.880658292e-14,3.575376115e-14,6.288460147e-14,2.111363869e-12,4.017584138e-14,1.277372135e-14,5.29481114e-14,4.044443306e-13,9.72133227e-14,4.233904039e-14,4.503809284e-14,4.788032947e-15,1.0812871e-14,5.263904548e-14,2.204948106e-13,2.083458521e-13,6.273027026e-14,8.068193456e-14,1.385161051e-12,8.614440711e-14,1.154406605e-12,2.234165804e-14,1.369481611e-14
0.5078125,1.221771801e-13,2.335603896e-14,1.156093726e-13,1.449870907e-14,1.047189965e-14,7.038686434e-14,2.800925881e-13,3.110660675e-14,2.465155215e-14,1.871759553e-14,2.68365043e-14,6.192349462e-14,1.982847338e-12,4.250505351e-14,1.162782019e-14,4.081160766e-14,3.309056534e-13,9.266580836e-14,4.352000287e-14,3.950492298e-14,5.855294037e-15,1.126157271e-14,5.152160331e-14,2.090373264e-13,1.883938877e-13,5.822073727e-14,7.779528874e-14,1.580710496e-12,7.597537494e-14,1.101551779e-12,2.149613014e-14,1.6194645e-14
0.515625,1.101494645e-13,2.378790156e-14,1.107474499e-13,1.149882743e-14,1.23902739e-14,7.029899706e-14,2.751540399e-13,3.563420416e-14,2.934414515e-14,1.838422327e-14,1.914458463e-14,6.035460125e-14,1.724011233e-12,4.461186746e-14,1.049503164e-14,3.136713927e-14,2.622247283e-13,8.668538162e-14,4.311554195e-14,3.514542648e-14,7.054236275e-15,1.111533166e-14,4.754989417e-14,1.958248802e-13,1.62611072e-13,5.085880323e-14,8.268785958e-14,1.731077104e-12,6.270905299e-14,9.92909288e-13,1.994185739e-14,1.879889063e-14
0.5234375,9.896668668e-14,2.309357011e-14,1.010844749e-13,9.535327329e-15,1.514508307e-14,6.671764589e-14,2.581995072e-13,3.915117388e-14,3.400325633e-14,1.73139588e-14,1.366492958e-14,5.699543087e-14,1.388751009e-12,4.627547314e-14,8.97700396e-15,2.463317581e-14,2.022061582e-13,8.163536929e-14,4.184015364e-14,3.260226092e-14,7.962243336e-15,1.043382634e-14,4.180959933e-14,1.811508049e-13,1.374538251e-13,4.238404352e-14,9.441844855e-14,1.803426924e-12,4.883055743e-14,8.403366436e-13,1.819923342e-14,2.182351393e-14
0.53125,8.874883566e-14,2.128880182e-14,8.943055337e-14,8.719943278e-15,1.871921956e-14,6.081540657e-14,2.307865288e-13,4.10765662e-14,3.700954439e-14,1.519006483e-14,1.004057607e-14,5.07824724e-14,1.043560012e-12,4.534796554e-14,7.361527468e-15,2.118481677e-14,1.592258359e-13,7.751704644e-14,4.052127831e-14,3.372775344e-14,8.27922355e-15,9.068298914e-15,3.512206096e-14,1.638073004e-13,1.130744014e-13,3.493616116e-14,1.095303605e-13,1.795863994e-12,3.637242282e-14,6.720107156e-13,1.727386355e-14,2.527470358e-14
0.5390625,7.907574655e-14,1.895635791e-14,7.701171357e-14,9.781912103e-15,2.303559994e-14,5.42929055e-14,1.996524898e-13,4.160863968e-14,3.808302298e-14,1.258014606e-14,7.462052405e-15,4.39535195e-14,7.151366333e-13,4.16820453e-14,6.263705443e-15,2.264594029e-14,1.338753411e-13,7.41156471e-14,3.986514236e-14,4.101183411e-14,8.272387506e-15,7.475653575e-15,2.834193234e-14,1.448539287e-13,9.18579593e-14,2.963242356e-14,1.271076441e-13,1.692608509e-12,2.691849994e-14,5.096649997e-13,1.735341077e-14,2.976272232e-14
0.546875,7.176029882e-14,1.626031771e-14,6.726217996e-14,1.344113337e-14,2.821075947e-14,4.784031908e-14,1.699203008e-13,4.110915531e-14,3.784907789e-14,9.913524485e-15,6.518099942e-15,3.724766724e-14,4.460591066e-13,3.632573426e-14,6.380105228e-15,2.894089948e-14,1.291604389e-13,7.302877234e-14,4.073741343e-14,5.590493287e-14,7.96077915e-15,5.889029587e-15,2.250970959e-14,1.237199646e-13,7.375241662e-14,2.711323692e-14,1.431664594e-13,1.512487435e-12,2.114950962e-14,3.676871995e-13,1.931398168e-14,3.492408325e-14
0.5546875,6.806669578e-14,1.387370109e-14,6.439287501e-14,1.944819314e-14,3.346487348e-14,4.309625119e-14,1.461915052e-13,3.901105965e-14,3.592572465e-14,7.228269319e-15,7.002422114e-15,3.168232741e-14,2.585882555e-13,3.052350916e-14,7.506436377e-15,3.951054349e-14,1.419382066e-13,7.516965848e-14,4.32020318e-14,7.841674034e-14,7.855758236e-15,4.255831643e-15,1.77406112e-14,1.0306997e-13,6.041545307e-14,2.627305028e-14,1.512848094e-13,1.271401745e-12,1.862196626e-14,2.606768222e-13,2.229608648e-14,3.993079499e-14
0.5625,6.679240526e-14,1.2422913e-14,7.139683853e-14,2.816959742e-14,3.898982249e-14,4.269947123e-14,1.293920846e-13,3.640626358e-14,3.258913659e-14,4.880187198e-15,8.444220516e-15,2.845222926e-14,1.572532208e-13,2.49422469e-14,9.522870392e-15,5.744540142e-14,1.743681806e-13,8.009419888e-14,4.800932428e-14,1.115215218e-13,8.808038029e-15,2.965433755e-15,1.394860242e-14,8.419174625e-14,5.138359274e-14,2.774065042e-14,1.518589687e-13,1.01373741e-12,1.877959024e-14,1.913644814e-13,2.72520557e-14,4.461309426e-14
0.5703125,6.540282256e-14,1.260016252e-14,8.925054136e-14,4.02497318e-14,4.463195107e-14,4.917836793e-14,1.216598087e-13,3.338118748e-14,2.741033044e-14,3.358445105e-15,1.148273744e-14,2.803550374e-14,1.221635238e-13,1.9228292e-14,1.350468152e-14,8.036232611e-14,2.206607738e-13,8.479095829e-14,5.461909649e-14,1.537202369e-13,1.07955772e-14,2.055237969e-15,1.174288669e-14,6.821733766e-14,4.622103373e-14,2.975684109e-14,1.466980554e-13,7.631868467e-13,2.076385143e-14,1.571426617e-13,3.44289652e-14,4.733821823e-14
0.578125,6.427113701e-14,1.489348048e-14,1.187098836e-13,5.463721476e-14,4.953335184e-14,6.358586055e-14,1.239744175e-13,3.018311348e-14,2.23793647e-14,2.581069839e-15,1.596442844e-14,3.095189146e-14,1.336474338e-13,1.48296002e-14,1.898401206e-14,1.054651802e-13,2.759670602e-13,8.892058139e-14,6.217864277e-14,2.042288252e-13,1.430492381e-14,1.580183904e-15,1.123030259e-14,5.724866419e-14,4.487483032e-14,3.252660672e-14,1.375253099e-13,5.414109055e-13,2.374215835e-14,1.540661785e-13,4.303108229e-14,4.883388533e-14
0.5859375,6.407469356e-14,1.857301262e-14,1.606428111e-13,6.963849671e-14,5.31510502e-14,8.462527649e-14,1.361438134e-13,2.691029702e-14,1.789215531e-14,2.636368426e-15,2.256777626e-14,3.483564254e-14,1.868499864e-13,1.196430181e-14,2.532968851e-14,1.332580699e-13,3.397836132e-13,9.326679664e-14,6.850135991e-14,2.573814891e-13,1.87134457e-14,1.457069659e-15,1.186565736e-14,5.141830722e-14,4.717716817e-14,3.531999863e-14,1.244729318e-13,3.611438062e-13,2.602241065e-14,1.703719941e-13,5.157587054e-14,4.821866796e-14
0.59375,6.444576415e-14,2.341038865e-14,2.141678548e-13,8.46832489e-14,5.478013215e-14,1.121354418e-13,1.566028629e-13,2.341157149e-14,1.309571047e-14,4.040351371e-15,3.003656785e-14,3.919490103e-14,2.701180708e-13,1.055177094e-14,3.270552116e-14,1.62537715e-13,4.052159461e-13,9.809434274e-14,7.427541675e-14,3.069208583e-13,2.323010246e-14,1.337302091e-15,1.266594004e-14,5.215926801e-14,5.124534871e-14,3.633714951e-14,1.115184443e-13,2.311885177e-13,2.803667053e-14,2.045206881e-13,6.020424833e-14,4.394726704e-14
0.6015625,6.304029605e-14,2.876704376e-14,2.745183485e-13,9.87164473e-14,5.424655945e-14,1.429964337e-13,1.818598848e-13,1.989226413e-14,8.721944243e-15,6.472890612e-15,3.615696523e-14,4.304202411e-14,3.694965967e-13,9.774662934e-15,3.914865542e-14,1.87145679e-13,4.625197901e-13,1.008084855e-13,7.811139038e-14,3.481748186e-13,2.752322259e-14,1.552401345e-15,1.365884022e-14,5.784837636e-14,5.671197808e-14,3.589563391e-14,1.011820013e-13,1.444107325e-13,2.90984581e-14,2.440553195e-13,6.71823684e-14,3.783809896e-14
0.609375,6.025811869e-14,3.327208038e-14,3.314130615e-13,1.095386221e-13,5.184602026e-14,1.729485422e-13,2.139968489e-13,1.628184378e-14,5.612983407e-15,1.073056747e-14,4.280774147e-14,4.505820511e-14,4.684341182e-13,8.904137463e-15,4.383822309e-14,2.050061348e-13,5.060525691e-13,1.011365091e-13,7.760850742e-14,3.750656398e-13,3.029055426e-14,2.161699255e-15,1.394364057e-14,6.860082812e-14,6.204433669e-14,3.535353153e-14,9.34056072e-14,9.030631672e-14,2.93585724e-14,2.847130714e-13,7.147841492e-14,3.199478425e-14
0.6171875,5.665875077e-14,3.645706213e-14,3.787983301e-13,1.160831779e-13,4.844024894e-14,1.971308546e-13,2.53635723e-13,1.311992029e-14,3.577095198e-15,1.616634308e-14,4.854190306e-14,4.427393232e-14,5.580079872e-13,8.041297177e-15,4.612879795e-14,2.138401301e-13,5.305942844e-13,1.013385135e-13,7.290683434e-14,3.837670991e-13,3.151457152e-14,2.78449765e-15,1.334364471e-14,8.064402157e-14,6.640288625e-14,3.339801618e-14,8.762693899e-14,6.092840336e-14,2.893990981e-14,3.137734147e-13,7.302886097e-14,2.590059149e-14
0.625,5.258371057e-14,3.825910298e-14,4.08443709e-13,1.171118563e-13,4.308526069e-14,2.133081067e-13,2.9160915e-13,1.014167735e-14,2.23261679e-15,2.179733852e-14,4.987674116e-14,4.162516144e-14,6.233768225e-13,7.753189854e-15,4.480671784e-14,2.112316779e-13,5.340771302e-13,1.023804557e-13,6.646270977e-14,3.705712878e-13,3.058301757e-14,3.400090286e-15,1.225727485e-14,9.432206902e-14,6.78219623e-14,2.891783266e-14,8.455983133e-14,4.696321195e-14,2.824918154e-14,3.296788698e-13,7.104108876e-14,1.934466826e-14
0.6328125,4.639694443e-14,3.759970687e-14,4.159566913e-13,1.129071984e-13,3.640767891e-14,2.193130535e-13,3.244442041e-13,7.765949049e-15,1.593377037e-15,2.776338857e-14,4.787470893e-14,3.804438016e-14,6.608806723e-13,7.794559661e-15,4.040589104e-14,1.987979731e-13,5.146005936e-13,1.022849273e-13,5.764739296e-14,3.366232673e-13,2.782708139e-14,4.500164974e-15,1.106224026e-14,1.106888848e-13,6.701049607e-14,2.386163054e-14,8.250460642e-14,4.597001454e-14,2.68764985e-14,3.245259823e-13,6.51178177e-14,1.432431319e-14
0.640625,3.925834101e-14,3.475062259e-14,3.999402789e-13,1.049208034e-13,2.990200141e-14,2.152484706e-13,3.495136313e-13,6.029471289e-15,1.346953266e-15,3.321591135e-14,4.499157237e-14,3.368800374e-14,6.614224264e-13,8.234421121e-15,3.453885022e-14,1.798055814e-13,4.813499722e-13,1.017398121e-13,4.726921958e-14,2.912256838e-13,2.423887981e-14,6.057464071e-15,9.808886658e-15,1.254372252e-13,6.393587958e-14,1.968069839e-14,8.06249095e-14,5.664957867e-14,2.570667211e-14,3.038076831e-13,5.688523917e-14,1.091918401e-14
0.6484375,3.243994596e-14,3.065627741e-14,3.620354495e-13,9.327727247e-14,2.414887343e-14,1.991041285e-13,3.63183317e-13,4.6475494e-15,1.345756428e-15,3.673766482e-14,4.021202263e-14,2.956145608e-14,6.274814308e-13,9.451283448e-15,2.830996238e-14,1.552318741e-13,4.374015737e-13,1.004782067e-13,3.728131447e-14,2.378841788e-13,2.007527184e-14,7.59261084e-15,9.406024796e-15,1.371390081e-13,5.907977067e-14,1.657962879e-14,7.646030144e-14,7.893926919e-14,2.524092533e-14,2.71185672e-13,4.815182118e-14,9.100960813e-15
0.65625,2.67966417e-14,2.639955213e-14,3.075555789e-13,7.938810919e-14,1.878080726e-14,1.747254635e-13,3.590806309e-13,3.600206696e-15,1.608743745e-15,3.79440168e-14,3.388027729e-14,2.750389573e-14,5.707975246e-13,1.19038923e-14,2.233733246e-14,1.275230515e-13,3.871104604e-13,9.856354663e-14,2.957337714e-14,1.821629998e-13,1.587292249e-14,9.360571923e-15,9.847934543e-15,1.483025701e-13,5.325481146e-14,1.44067299e-14,7.100769927e-14,1.10870337e-13,2.586271339e-14,2.415696505e-13,3.992488838e-14,8.112699387e-15
0.6640625,2.295068063e-14,2.177271496e-14,2.481205371e-13,6.441528916e-14,1.375847666e-14,1.466120258e-13,3.369774272e-13,3.03945152e-15,2.033233766e-15,3.61342786e-14,2.670311652e-14,2.772718195e-14,5.108011492e-13,1.551468728e-14,1.791510579e-14,1.004993687e-13,3.359968669e-13,9.566568557e-14,2.427466574e-14,1.306150705e-13,1.214137936e-14,1.176643639e-14,1.153485775e-14,1.554189758e-13,4.784644356e-14,1.364455813e-14,6.555803252e-14,1.501309398e-13,2.708895643e-14,2.245084407e-13,3.201863596e-14,7.731603439e-15
0.671875,2.121697166e-14,1.749667394e-14,1.93430485e-13,5.060836318e-14,9.901854464e-15,1.178753266e-13,3.008794284e-13,2.895766811e-15,2.790307527e-15,3.257132107e-14,2.077350448e-14,3.030778177e-14,4.733398145e-13,2.031490541e-14,1.586192633e-14,7.725571745e-14,2.945006066e-13,9.040349572e-14,2.14543647e-14,8.872431914e-14,9.022747684e-15,1.463333836e-14,1.395266179e-14,1.589620732e-13,4.540042415e-14,1.514477196e-14,5.95568033e-14,1.896842362e-13,2.890394397e-14,2.292950157e-13,2.572336109e-14,8.28533164e-15
0.6796875,2.188201286e-14,1.439802516e-14,1.44064796e-13,3.886674918e-14,7.227554461e-15,9.034108473e-14,2.589020771e-13,3.18034043e-15,4.106529332e-15,2.935905764e-14,1.715603801e-14,3.504563833e-14,4.542601026e-13,2.569313622e-14,1.63461158e-14,5.827216961e-14,2.611445925e-13,8.19096449e-14,2.055472669e-14,5.767079568e-14,6.541054523e-15,1.809024533e-14,1.619717796e-14,1.594466243e-13,4.433934268e-14,1.665239023e-14,5.078706432e-14,2.230750015e-13,3.065799304e-14,2.592292028e-13,2.133834893e-14,8.400913028e-15
0.6875,2.489610332e-14,1.27192764e-14,1.066535584e-13,3.008044984e-14,5.453571386e-15,6.863050827e-14,2.104569276e-13,3.920527168e-15,6.184736354e-15,2.654483911e-14,1.473750933e-14,4.123310423e-14,4.659050517e-13,3.034228938e-14,1.769290023e-14,4.418068053e-14,2.394230088e-13,7.18636595e-14,2.10390536e-14,3.646909377e-14,4.806985427e-15,2.185440575e-14,1.871128925e-14,1.610274641e-13,4.652507577e-14,1.798853257e-14,4.180936619e-14,2.454330246e-13,3.320148034e-14,3.057273423e-13,1.837222044e-14,7.885452177e-15
0.6953125,2.908069759e-14,1.227461605e-14,8.154713725e-14,2.491026976e-14,4.686951105e-15,5.430464746e-14,1.642755363e-13,5.148240684e-15,9.186063322e-15,2.550967121e-14,1.312673765e-14,4.859821264e-14,5.146755179e-13,3.466712556e-14,2.006091074e-14,3.463841789e-14,2.30151469e-13,6.113703217e-14,2.240793495e-14,2.29376365e-14,3.375307135e-15,2.551556107e-14,2.092851256e-14,1.68726716e-13,5.204296689e-14,1.99214633e-14,3.491863087e-14,2.540883786e-13,3.613765769e-14,3.635326582e-13,1.697818618e-14,7.371539436e-15
0.703125,3.547731966e-14,1.287259705e-14,6.748588674e-14,2.3665073e-14,4.600721229e-15,4.767698081e-14,1.259115289e-13,6.77388373e-15,1.322164412e-14,2.708317429e-14,1.331723903e-14,5.562058439e-14,5.785316467e-13,3.874845538e-14,2.345844911e-14,2.980453813e-14,2.34769179e-13,5.050590509e-14,2.446257559e-14,1.579376878e-14,2.311254873e-15,2.899209478e-14,2.254884997e-14,1.865176099e-13,5.887172235e-14,2.090652729e-14,2.914587977e-14,2.590877685e-13,3.845999437e-14,4.196450421e-13,1.666058491e-14,6.824276628e-15
0.7109375,4.322979701e-14,1.409346561e-14,6.255095679e-14,2.617303969e-14,4.902587258e-15,4.859339037e-14,9.787802617e-14,8.139388652e-15,1.787795252e-14,3.044347911e-14,1.385431525e-14,5.968421971e-14,6.385733221e-13,4.030114892e-14,2.576784121e-14,2.806690808e-14,2.49843474e-13,4.041057876e-14,2.713906972e-14,1.284057409e-14,1.661111735e-15,3.212315566e-14,2.415961342e-14,2.170797425e-13,6.5726303e-14,2.043348115e-14,2.381806762e-14,2.532166979e-13,3.965388146e-14,4.565024658e-13,1.643920596e-14,6.286821681e-15
0.71875,4.954587125e-14,1.60869442e-14,6.227766471e-14,3.082454998e-14,5.720191334e-15,5.309754517e-14,8.042115916e-14,9.313989794e-15,2.205070469e-14,3.436299448e-14,1.285126367e-14,6.01634367e-14,6.961278615e-13,3.859519207e-14,2.60561207e-14,2.942700996e-14,2.804074259e-13,3.117044207e-14,2.972509848e-14,1.224907099e-14,1.228064629e-15,3.416963319e-14,2.58092765e-14,2.60490512e-13,7.20805058e-14,1.97490496e-14,2.138921547e-14,2.414047173e-13,4.115817533e-14,4.69414824e-13,1.662857254e-14,5.850937815e-15
0.7265625,5.451541606e-14,1.868649362e-14,6.304709938e-14,3.782310087e-14,7.092280705e-15,6.004588963e-14,7.376326012e-14,1.016438861e-14,2.585724904e-14,3.873553891e-14,1.305863135e-14,5.888638802e-14,7.127559513e-13,3.70254454e-14,2.683314414e-14,3.448407191e-14,3.259120985e-13,2.421725219e-14,3.269427574e-14,1.3532977e-14,1.099913036e-15,3.480671933e-14,2.719584296e-14,3.127872916e-13,7.618566542e-14,1.903530947e-14,2.13353051e-14,2.292394325e-13,4.270602683e-14,4.62285664e-13,1.813180203e-14,5.772898319e-15
0.734375,5.862248051e-14,2.057939433e-14,6.579996062e-14,4.58929005e-14,8.310250426e-15,6.806148947e-14,7.602629259e-14,1.053220736e-14,2.906541949e-14,4.154877745e-14,1.471918462e-14,5.476267464e-14,7.031520972e-13,3.430722962e-14,2.602961329e-14,4.165951622e-14,3.792939312e-13,1.98356465e-14,3.64255927e-14,1.599091185e-14,1.329579695e-15,3.482179271e-14,2.83904358e-14,3.672241485e-13,7.849974688e-14,1.756288075e-14,2.385842668e-14,2.133785876e-13,4.295628994e-14,4.310535319e-13,1.933843568e-14,5.88037443e-15
0.7421875,5.881820414e-14,2.157248609e-14,6.62334359e-14,5.237895899e-14,9.233175521e-15,7.214527368e-14,8.632609069e-14,1.011328904e-14,2.939663041e-14,4.13723347e-14,1.745601929e-14,4.695975105e-14,6.679763003e-13,2.847871946e-14,2.335620635e-14,5.028343731e-14,4.38765522e-13,1.736902055e-14,4.006369381e-14,1.83951854e-14,1.914591103e-15,3.364393692e-14,2.918723626e-14,4.15165294e-13,7.895384968e-14,1.568823494e-14,2.976355615e-14,1.936671995e-13,4.265710407e-14,3.793140306e-13,1.989780685e-14,5.862133289e-15
0.75,5.436939066e-14,2.245357866e-14,6.25217314e-14,5.727450726e-14,1.035924617e-14,7.252869988e-14,1.03711128e-13,9.519059128e-15,2.747361706e-14,4.080830644e-14,2.253144962e-14,3.884243718e-14,5.917406463e-13,2.242092931e-14,2.098226299e-14,6.179704488e-14,5.056760615e-13,1.695004228e-14,4.339959529e-14,2.078771214e-14,2.978159577e-15,3.121075104e-14,2.908911481e-14,4.538571101e-13,7.779102386e-14,1.402036754e-14,3.836944422e-14,1.733994181e-13,4.291420465e-14,3.206445509e-13,2.081995238e-14,5.786943387e-15
0.7578125,4.836691049e-14,2.284244313e-14,5.636321218e-14,6.078155971e-14,1.157608639e-14,7.079305214e-14,1.256757277e-13,9.344483093e-15,2.471170425e-14,4.06602534e-14,3.0219926e-14,3.22291102e-14,4.897580575e-13,1.743464007e-14,1.958315225e-14,7.61773962e-14,5.761386831e-13,1.908507829e-14,4.642826075e-14,2.400757796e-14,4.474351268e-15,2.82083861e-14,2.715733921e-14,4.75734236e-13,7.563433785e-14,1.211006736e-14,4.778709068e-14,1.554980508e-13,4.347512505e-14,2.637078094e-13,2.171951964e-14,5.360775097e-15
0.765625,4.192559704e-14,2.220871693e-14,4.836981683e-14,6.11437921e-14,1.245874338e-14,6.574138232e-14,1.48483553e-13,1.007629456e-14,2.117470419e-14,3.974337952e-14,4.073507718e-14,2.798547152e-14,3.910190501e-13,1.342959822e-14,1.987863123e-14,9.192223493e-14,6.420154478e-13,2.369946596e-14,4.842035556e-14,2.71911819e-14,6.273145261e-15,2.513666041e-14,2.423495114e-14,4.808934681e-13,7.412230756e-14,1.022431321e-14,5.792522462e-14,1.494994199e-13,4.458122452e-14,2.127374044e-13,2.152204956e-14,4.977678188e-15
0.7734375,3.600477579e-14,2.127095927e-14,3.921264179e-14,5.818993319e-14,1.313936059e-14,5.815997885e-14,1.714441666e-13,1.223704732e-14,1.728935216e-14,4.132277683e-14,5.409785475e-14,2.649660528e-14,3.040035122e-13,1.080886031e-14,2.282523635e-14,1.09057149e-13,7.019516956e-13,3.041891587e-14,4.888728309e-14,2.975246006e-14,8.000603747e-15,2.14820426e-14,2.056920553e-14,4.711325055e-13,7.385319242e-14,9.155349959e-15,6.867430937e-14,1.632706749e-13,4.721024755e-14,1.719369502e-13,2.104290398e-14,4.81996395e-15
0.78125,3.309812804e-14,2.08764598e-14,2.98532724e-14,5.291502427e-14,1.406343064e-14,4.891261865e-14,1.931166271e-13,1.663933805e-14,1.448341036e-14,4.515415539e-14,6.646763945e-14,2.69860068e-14,2.354742345e-13,9.223473822e-15,2.755623412e-14,1.277061274e-13,7.490961358e-13,3.954869873e-14,4.845671441e-14,3.235446475e-14,9.247621195e-15,1.786989361e-14,1.640632362e-14,4.468552368e-13,7.356942032e-14,8.972669995e-15,7.825534591e-14,1.964489204e-13,5.207055737e-14,1.412313738e-13,2.121255977e-14,5.157657264e-15
0.7890625,3.382183869e-14,2.12169678e-14,2.19426893e-14,4.59938525e-14,1.526817614e-14,3.994092862e-14,2.090426054e-13,2.324300426e-14,1.345965833e-14,4.982672834e-14,7.818287778e-14,2.949351967e-14,1.861919511e-13,9.113162413e-15,3.458952051e-14,1.469198157e-13,7.821957882e-13,5.049761567e-14,4.670713855e-14,3.572888574e-14,9.998602359e-15,1.474734116e-14,1.227725072e-14,4.151817574e-13,7.474015927e-14,9.858781376e-15,8.337097525e-14,2.467885238e-13,5.862423086e-14,1.220989216e-13,2.200718012e-14,6.331627259e-15
0.796875,3.873610258e-14,2.185716731e-14,1.733542964e-14,3.826942825e-14,1.613381327e-14,3.103640895e-14,2.200734948e-13,3.167990755e-14,1.438885214e-14,5.658831623e-14,8.683375674e-14,3.312916112e-14,1.590764097e-13,1.009329473e-14,4.234641147e-14,1.627811757e-13,7.855551844e-13,6.12199054e-14,4.31014039e-14,3.77181861e-14,1.018521013e-14,1.209020005e-14,8.555921903e-15,3.793309542e-13,7.675556944e-14,1.110016909e-14,8.285292977e-14,3.082328413e-13,6.48478932e-14,1.10086909e-13,2.24019463e-14,8.029228444e-15
0.8046875,4.668901539e-14,2.363770727e-14,1.707589912e-14,3.145637964e-14,1.711498543e-14,2.368872958e-14,2.241771329e-13,4.1517988e-14,1.731774548e-14,6.411088729e-14,8.844238753e-14,3.606985144e-14,1.510433118e-13,1.105863839e-14,4.870615152e-14,1.758233327e-13,7.665942818e-13,7.13903146e-14,3.943328823e-14,3.962052525e-14,9.606125434e-15,1.019876941e-14,5.600782427e-15,3.463063607e-13,7.626988426e-14,1.219153951e-14,7.946263978e-14,3.691012367e-13,7.136575496e-14,1.055334366e-13,2.307285945e-14,1.015672377e-14
0.8125,5.548619173e-14,2.657387116e-14,2.190295047e-14,2.532059454e-14,1.790109539e-14,1.851748581e-14,2.178316593e-13,5.115747593e-14,2.119888623e-14,6.84439383e-14,8.497098115e-14,3.791877915e-14,1.608077454e-13,1.16477451e-14,5.283335852e-14,1.851251718e-13,7.211344072e-13,7.953876138e-14,3.594329575e-14,4.139994924e-14,8.86026912e-15,9.673877899e-15,3.429482848e-15,3.140340156e-13,7.559924568e-14,1.308136774e-14,7.347246947e-14,4.178265351e-13,7.775733523e-14,1.122652268e-13,2.425317583e-14,1.226297177e-14
0.8203125,6.363003113e-14,3.034532033e-14,3.314571377e-14,2.062834893e-14,1.815048443e-14,1.584434627e-14,2.040920732e-13,5.921096691e-14,2.53131066e-14,7.053861245e-14,7.888057267e-14,3.96348075e-14,1.817185731e-13,1.224090579e-14,5.51711006e-14,1.897890731e-13,6.555102084e-13,8.378709256e-14,3.192334424e-14,4.199328139e-14,8.381027477e-15,1.038820879e-14,2.149594781e-15,2.871668686e-13,7.362091298e-14,1.35969415e-14,6.439348726e-14,4.52089044e-13,8.229084323e-14,1.323515127e-13,2.535746062e-14,1.39589533e-14
0.828125,6.976490245e-14,3.452189197e-14,5.120603272e-14,1.79484757e-14,1.789693763e-14,1.620095575e-14,1.886012971e-13,6.456381587e-14,2.883785556e-14,7.156767512e-14,7.15866093e-14,4.170436019e-14,2.066403343e-13,1.263592829e-14,5.567870672e-14,1.867570874e-13,5.683770636e-13,8.312730874e-14,2.81665189e-14,4.087775523e-14,8.047309859e-15,1.236312054e-14,1.690009451e-15,2.641855871e-13,7.010104365e-14,1.336004732e-14,5.478312159e-14,4.735758063e-13,8.342334281e-14,1.658109934e-13,2.556845107e-14,1.494048913e-14
0.8359375,7.31427657e-14,3.887852127e-14,7.6751588e-14,1.745664156e-14,1.729617046e-14,2.015198257e-14,1.808054224e-13,6.716643225e-14,3.12326155e-14,7.214988517e-14,6.584929642e-14,4.37790905e-14,2.264938449e-13,1.262035785e-14,5.45550345e-14,1.783302017e-13,4.776011739e-13,7.836398394e-14,2.546466274e-14,3.964395443e-14,8.259453296e-15,1.541896917e-14,1.935332144e-15,2.455723335e-13,6.504085387e-14,1.213386096e-14,4.741372516e-14,4.827497746e-13,8.189006038e-14,2.125902809e-13,2.500597252e-14,1.495007626e-14
0.84375,7.292778573e-14,4.24525054e-14,1.087060121e-13,1.788367119e-14,1.583752354e-14,2.644685481e-14,1.847717814e-13,6.622067565e-14,3.154554157e-14,7.250486292e-14,6.554642735e-14,4.637212372e-14,2.448455735e-13,1.270561732e-14,5.288085536e-14,1.647116713e-13,3.888524809e-13,6.972372484e-14,2.324790353e-14,3.800648469e-14,8.324841649e-15,1.895182692e-14,2.739252496e-15,2.235602042e-13,5.921216641e-14,1.071862117e-14,4.472228355e-14,4.809289438e-13,7.807973434e-14,2.69637962e-13,2.374675726e-14,1.371591955e-14
0.8515625,6.978662159e-14,4.558027187e-14,1.430186426e-13,1.87611475e-14,1.444317999e-14,3.324379951e-14,2.100663475e-13,6.209591656e-14,2.999743694e-14,7.558756563e-14,7.430447335e-14,4.959141486e-14,2.567693249e-13,1.333795944e-14,5.165276947e-14,1.478342087e-13,3.190557402e-13,5.949841211e-14,2.162754432e-14,3.785240796e-14,8.520235035e-15,2.155088936e-14,3.897112563e-15,1.982875688e-13,5.443733308e-14,1.052467219e-14,4.490048986e-14,4.725622152e-13,7.350499468e-14,3.30185587e-13,2.28109429e-14,1.221976962e-14
0.859375,6.417927761e-14,4.634050615e-14,1.768636594e-13,1.970767759e-14,1.329269482e-14,4.056349473e-14,2.58128378e-13,5.648860511e-14,2.733353216e-14,8.296524873e-14,9.060702064e-14,5.340858803e-14,2.518688835e-13,1.443354062e-14,5.156477491e-14,1.300064915e-13,2.772594819e-13,4.882217571e-14,2.08740603e-14,4.112850801e-14,9.1479099e-15,2.302884714e-14,5.355306439e-15,1.715101512e-13,5.302117038e-14,1.129226149e-14,4.600710049e-14,4.577039634e-13,6.603656251e-14,3.865132767e-13,2.154381394e-14,1.098612927e-14
0.8671875,5.769447606e-14,4.475439341e-14,2.059598727e-13,2.050263443e-14,1.241807242e-14,4.747316042e-14,3.242546167e-13,5.109592578e-14,2.431219648e-14,9.462214345e-14,1.102508507e-13,5.705343938e-14,2.462547071e-13,1.566769394e-14,5.060106297e-14,1.152843194e-13,2.759477046e-13,3.963180129e-14,2.191626231e-14,5.043196794e-14,1.016732211e-14,2.340136861e-14,6.744774642e-15,1.44262512e-13,5.477572951e-14,1.366897615e-14,5.070097656e-14,4.380277165e-13,5.760974295e-14,4.356745273e-13,2.093738767e-14,1.019311044e-14
0.875,5.061648797e-14,4.228148108e-14,2.24417759e-13,2.073600646e-14,1.26985659e-14,5.181657606e-14,3.970613896e-13,4.634145243e-14,2.087075695e-14,1.084572987e-13,1.298421871e-13,5.932423032e-14,2.524641935e-13,1.650522283e-14,4.81542747e-14,1.057134741e-13,3.215524208e-13,3.393396457e-14,2.487204905e-14,6.76273067e-14,1.177939609e-14,2.211881625e-14,8.063000146e-15,1.151248037e-13,6.00059322e-14,1.879625962e-14,5.676868846e-14,4.128541132e-13,5.17144583e-14,4.804852727e-13,2.294715246e-14,1.078120507e-14
0.8828125,4.378904428e-14,4.053041663e-14,2.263021047e-13,2.174282447e-14,1.550200985e-14,5.351578832e-14,4.672186889e-13,4.304450502e-14,1.779408811e-14,1.227767862e-13,1.460778825e-13,5.90549594e-14,2.826912941e-13,1.684452495e-14,4.472651355e-14,1.032114741e-13,4.129575711e-13,3.315922966e-14,3.058537646e-14,9.417521125e-14,1.477052632e-14,1.953702074e-14,9.038324865e-15,8.737029792e-14,6.815563712e-14,2.579515734e-14,5.870384054e-14,3.77948966e-13,4.910489086e-14,5.224032055e-13,2.884052115e-14,1.315094399e-14
0.890625,3.709666141e-14,3.951004421e-14,2.133705676e-13,2.482096481e-14,2.14743758e-14,5.448712682e-14,5.174465107e-13,4.144693235e-14,1.531101744e-14,1.319883852e-13,1.515392004e-13,5.555525704e-14,3.531417117e-13,1.620667733e-14,3.988641109e-14,1.101683506e-13,5.470096316e-13,3.803799812e-14,3.851659778e-14,1.302099332e-13,1.945046761e-14,1.707480474e-14,9.99425548e-15,6.340104124e-14,7.772355241e-14,3.446201539e-14,5.766144912e-14,3.413264203e-13,5.037753479e-14,5.689279062e-13,3.818144071e-14,1.722098056e-14
0.8984375,3.141789607e-14,4.170854582e-14,1.885047604e-13,3.173270578e-14,3.133568269e-14,5.555227221e-14,5.3530994e-13,4.091324195e-14,1.316653297e-14,1.345860831e-13,1.468968939e-13,5.014767171e-14,4.912474404e-13,1.465245292e-14,3.368177069e-14,1.26381311e-13,7.108370933e-13,4.700614333e-14,4.778042535e-14,1.727307525e-13,2.455416792e-14,1.535014295e-14,1.107277016e-14,4.681411577e-14,8.645648536e-14,4.551817089e-14,5.534545095e-14,3.100602962e-13,5.833906159e-14,6.270510911e-13,5.248011947e-14,2.320554191e-14
0.90625,2.693426718e-14,4.813170875e-14,1.553408554e-13,4.324526349e-14,4.401041481e-14,5.741688505e-14,5.248738482e-13,4.131825855e-14,1.140641572e-14,1.314855586e-13,1.359139606e-13,4.365206441e-14,6.905411693e-13,1.274263322e-14,2.728359914e-14,1.49648024e-13,8.843082497e-13,5.846031281e-14,5.597738505e-14,2.158379831e-13,2.946146917e-14,1.483589908e-14,1.231654936e-14,3.587206353e-14,9.275566184e-14,5.675580447e-14,4.933361942e-14,2.925369853e-13,7.327634194e-14,6.978518999e-13,7.002337917e-14,3.001600624e-14
0.9140625,2.347734436e-14,5.814469975e-14,1.196586137e-13,6.111090397e-14,5.999407714e-14,5.940366583e-14,4.922075579e-13,4.2287987e-14,1.003287146e-14,1.216022853e-13,1.191468351e-13,3.634095963e-14,9.520345958e-13,1.106924405e-14,2.17148724e-14,1.778297084e-13,1.051500836e-12,7.133841941e-14,6.307862502e-14,2.549770858e-13,3.420199807e-14,1.620864999e-14,1.374843964e-14,3.28238213e-14,9.359086908e-14,6.66628379e-14,4.014383648e-14,2.979903949e-13,9.437481809e-14,7.720230402e-13,8.958385198e-14,3.736867473e-14
0.921875,2.070814555e-14,7.01849853e-14,8.801661158e-14,8.424550174e-14,7.832059044e-14,6.104221997e-14,4.398530798e-13,4.19473064e-14,8.911561645e-15,1.056427535e-13,1.021311677e-13,3.015694657e-14,1.278167928e-12,1.065503278e-14,1.868471561e-14,2.049791117e-13,1.191304004e-12,8.252667047e-14,6.63518084e-14,2.861199741e-13,3.758519929e-14,1.94185931e-14,1.630941231e-14,3.766183743e-14,8.886755797e-14,7.569059238e-14,3.094209841e-14,3.40597799e-13,1.196497125e-13,8.44514657e-13,1.091979383e-13,4.567619064e-14
0.9296875,1.842826865e-14,8.249222442e-14,6.511918438e-14,1.088811262e-13,9.528669177e-14,6.198260619e-14,3.80462054e-13,3.977501267e-14,7.869180068e-15,8.779543856e-14,8.754300307e-14,2.548964125e-14,1.618624973e-12,1.092409529e-14,1.785069218e-14,2.25826506e-13,1.278999474e-12,8.962664349e-14,6.447612807e-14,3.023134905e-13,3.881784636e-14,2.440120599e-14,2.003159326e-14,4.977041988e-14,7.886296743e-14,8.281020622e-14,2.384863247e-14,4.239469423e-13,1.479305136e-13,8.985198525e-13,1.253037542e-13,5.360316434e-14
0.9375,1.663865919e-14,9.160586784e-14,5.168483941e-14,1.312496163e-13,1.090684536e-13,6.105439773e-14,3.262553421e-13,3.688424104e-14,7.112231906e-15,7.248274276e-14,7.749999431e-14,2.297509353e-14,1.939188861e-12,1.229363763e-14,1.852546323e-14,2.381716512e-13,1.309754876e-12,9.131812761e-14,5.853296457e-14,2.991302664e-13,3.881254855e-14,3.068220521e-14,2.502842675e-14,6.86350767e-14,6.508073783e-14,8.749718848e-14,1.857487873e-14,5.602270926e-13,1.721796558e-13,9.238678545e-13,1.355211428e-13,6.08901544e-14
0.9453125,1.526052578e-14,9.520166292e-14,4.601677998e-14,1.486297977e-13,1.193980013e-13,5.73195229e-14,2.840785185e-13,3.296874508e-14,6.7024346e-15,5.955297114e-14,7.093313905e-14,2.152798713e-14,2.199690526e-12,1.466441878e-14,2.072621141e-14,2.395952693e-13,1.281949372e-12,8.878962597e-14,5.145455446e-14,2.795635049e-13,3.923919424e-14,3.794009844e-14,3.146812829e-14,9.167188233e-14,5.025911082e-14,8.987653676e-14,1.671363019e-14,7.460065947e-13,1.892346916e-13,9.06992091e-13,1.393048732e-13,6.845495412e-14
0.953125,1.45317778e-14,9.281997996e-14,4.569449902e-14,1.568549576e-13,1.229849244e-13,5.157946834e-14,2.505611518e-13,2.750683274e-14,6.399655061e-15,4.909828122e-14,6.706384903e-14,2.122574226e-14,2.371230819e-12,1.674747335e-14,2.265288572e-14,2.265227892e-13,1.194335594e-12,8.082124468e-14,4.499305204e-14,2.484569799e-13,4.079071198e-14,4.519962166e-14,3.882289028e-14,1.159123491e-13,3.649237389e-14,8.895386949e-14,1.886064632e-14,9.759705437e-13,1.98390165e-13,8.542403163e-13,1.347093647e-13,7.431969845e-14
0.9609375,1.461808075e-14,8.485765564e-14,4.664376519e-14,1.532313986e-13,1.193075498e-13,4.483193699e-14,2.272213108e-13,2.180294944e-14,6.018458707e-15,4.386258071e-14,6.550247259e-14,2.150828607e-14,2.420473695e-12,1.811218613e-14,2.398104863e-14,2.019506456e-13,1.057607171e-12,6.840293134e-14,4.144779415e-14,2.080817284e-13,4.420780966e-14,5.336989619e-14,4.752544686e-14,1.371918627e-13,2.587410132e-14,8.608525892e-14,2.36666818e-14,1.230433163e-12,1.966767757e-13,7.702757041e-13,1.230745185e-13,7.842905306e-14
0.96875,1.590565346e-14,7.305705101e-14,4.667715359e-14,1.395901974e-13,1.099784452e-13,3.819251821e-14,2.122211785e-13,1.707252038e-14,5.610219471e-15,4.181961428e-14,6.284500372e-14,2.103056601e-14,2.345900912e-12,1.856877089e-14,2.408631076e-14,1.708419216e-13,8.955214417e-13,5.543049811e-14,4.338590389e-14,1.646506019e-13,5.130577079e-14,6.225446881e-14,5.719807244e-14,1.549167506e-13,1.883862314e-14,8.111511275e-14,2.984421386e-14,1.495988224e-12,1.836605758e-13,6.693589309e-13,1.063316531e-13,8.045400966e-14
0.9765625,1.85828631e-14,5.94552031e-14,4.583571003e-14,1.19479728e-13,9.668701894e-14,3.338170932e-14,1.954343556e-13,1.322676447e-14,5.227213789e-15,3.819945574e-14,5.683105265e-14,1.917858445e-14,2.160476976e-12,1.770440209e-14,2.270358228e-14,1.368887953e-13,7.257422236e-13,4.44822168e-14,5.073113192e-14,1.250202866e-13,6.045248379e-14,6.974803429e-14,6.625441204e-14,1.652462369e-13,1.461992758e-14,7.387349583e-14,3.507609955e-14,1.748338827e-12,1.617867731e-13,5.6653469e-13,8.679888797e-14,7.95917636e-14
0.984375,2.31045151e-14,4.798127566e-14,4.510579333e-14,9.650973221e-14,8.105181864e-14,3.163739265e-14,1.749648273e-13,1.022521855e-14,4.682038636e-15,3.488573779e-14,5.078577331e-14,1.742381721e-14,1.902378824e-12,1.623257716e-14,2.123147024e-14,1.047535259e-13,5.642741514e-13,3.616752858e-14,6.25908562e-14,9.407296812e-14,7.022731891e-14,7.586604096e-14,7.387356493e-14,1.68921193e-13,1.328421175e-14,6.52497344e-14,3.893079576e-14,1.960445506e-12,1.377560909e-13,4.780403618e-13,6.794145122e-14,7.549048391e-14
0.9921875,2.864826333e-14,4.027528763e-14,4.469862151e-14,7.390859945e-14,6.546739204e-14,3.186302231e-14,1.535077932e-13,8.614262913e-15,3.981439323e-15,3.226729161e-14,4.52933503e-14,1.602728826e-14,1.600570215e-12,1.510842924e-14,2.077618382e-14,7.833001804e-14,4.2398264e-13,3.033668921e-14,7.556459462e-14,7.281682467e-14,7.973116176e-14,8.048442048e-14,8.060112382e-14,1.666513844e-13,1.304448697e-14,5.694623621e-14,4.113671899e-14,2.106458393e-12,1.141522259e-13,4.091341637e-13,5.238868559e-14,6.904303899e-14
1,3.434667295e-14,3.724891283e-14,4.638296858e-14,5.607884626e-14,5.191067316e-14,3.412379109e-14,1.301837849e-13,7.850962815e-15,3.275904521e-15,2.944866778e-14,4.286486179e-14,1.582094495e-14,1.297860548e-12,1.556367781e-14,2.262987476e-14,6.0267247e-14,3.153573706e-13,2.713453047e-14,8.663333719e-14,6.190540584e-14,8.642872603e-14,8.160787228e-14,8.525520869e-14,1.61124736e-13,1.245820606e-14,4.865056878e-14,3.998397208e-14,2.176206934e-12,9.432039987e-14,3.654787437e-13,4.110883292e-14,6.042781734e-14
1.0078125,3.942031263e-14,3.900485502e-14,5.013343094e-14,4.458859842e-14,4.095509196e-14,3.725389104e-14,1.05761718e-13,7.281439957e-15,2.707504129e-15,2.659022749e-14,4.387859005e-14,1.707945984e-14,1.037993029e-12,1.714841091e-14,2.693244463e-14,5.061603689e-14,2.38555153e-13,2.596456769e-14,9.396420258e-14,6.068989767e-14,8.986875548e-14,7.930050356e-14,8.675793141e-14,1.539549869e-13,1.161096391e-14,4.06245885e-14,3.635707698e-14,2.172126773e-12,8.258876474e-14,3.461773365e-13,3.505752179e-14,4.990095031e-14
1.015625,4.320787711e-14,4.44164122e-14,5.550876493e-14,3.979037957e-14,3.369211045e-14,3.957927629e-14,8.587799022e-14,6.783687873e-15,2.337296689e-15,2.6490013e-14,5.095882962e-14,2.082636234e-14,8.426802301e-13,2.102053023e-14,3.499358937e-14,4.959056636e-14,1.934127032e-13,2.584664251e-14,9.473086392e-14,6.584031712e-14,8.831650115e-14,7.285432575e-14,8.436470062e-14,1.493484863e-13,1.090985089e-14,3.445274398e-14,3.290413571e-14,2.09859795e-12,8.036388863e-14,3.457296104e-13,3.459542723e-14,3.938719592e-14
1.0234375,4.441104028e-14,5.000600808e-14,6.126870167e-14,3.894559947e-14,2.948972252e-14,3.956711505e-14,7.234103758e-14,6.400331403e-15,2.335734268e-15,2.891762318e-14,6.219703777e-14,2.62133047e-14,7.093289466e-13,2.661348241e-14,4.509814692e-14,5.225881279e-14,1.706588304e-13,2.483966333e-14,8.791547982e-14,7.262783535e-14,8.127156134e-14,6.302604916e-14,7.905566611e-14,1.478629063e-13,1.084084073e-14,3.111440505e-14,3.130035026e-14,1.961175848e-12,8.177570649e-14,3.467414962e-13,3.670399875e-14,3.012087218e-14
1.03125,4.389709383e-14,5.589734377e-14,6.660786905e-14,4.121871322e-14,2.771147138e-14,3.769319626e-14,6.565780737e-14,6.211895848e-15,2.923555714e-15,3.375637747e-14,7.628262151e-14,3.319028602e-14,6.595479708e-13,3.343792798e-14,5.672635705e-14,5.795810327e-14,1.637793148e-13,2.384327838e-14,7.761184825e-14,8.133584496e-14,7.175857716e-14,5.17142356e-14,7.154579112e-14,1.519953929e-13,1.129487099e-14,3.04415106e-14,3.242132913e-14,1.798302145e-12,8.769923406e-14,3.529935207e-13,4.186246759e-14,2.223387596e-14
1.0390625,4.222471897e-14,5.965901431e-14,7.101109399e-14,4.367793616e-14,2.678124453e-14,3.401864481e-14,6.637299825e-14,6.137764061e-15,4.525844269e-15,4.046668651e-14,8.974106055e-14,4.133354745e-14,6.877831831e-13,4.09443981e-14,6.905594587e-14,6.376924526e-14,1.598391554e-13,2.223229704e-14,6.443530573e-14,8.536414053e-14,6.00393921e-14,4.027573208e-14,6.237197933e-14,1.63039831e-13,1.302251491e-14,3.220115226e-14,3.865918804e-14,1.622281886e-12,9.578982811e-14,3.560612144e-13,4.825157596e-14,1.619896063e-14
1.046875,3.908213808e-14,5.98245989e-14,7.657898775e-14,4.441680307e-14,2.565410065e-14,2.950502156e-14,7.183543137e-14,6.488132483e-15,7.353636517e-15,4.582453243e-14,9.805089553e-14,4.799507789e-14,7.90793715e-13,4.778947049e-14,7.880366389e-14,6.607482913e-14,1.536623274e-13,2.038726404e-14,5.029226637e-14,8.487281807e-14,4.759373347e-14,2.934428026e-14,5.226139723e-14,1.786605213e-13,1.537518859e-14,3.592399408e-14,5.092301427e-14,1.442828192e-12,1.013393168e-13,3.483259098e-13,5.274106867e-14,1.218948223e-14
1.0546875,3.517037072e-14,5.666772974e-14,8.479474314e-14,4.284731214e-14,2.433508919e-14,2.557439203e-14,8.036126311e-14,7.256979963e-15,1.120879446e-14,4.865192595e-14,9.962868172e-14,5.25312728e-14,9.486779871e-13,5.335052981e-14,8.492730741e-14,6.500536398e-14,1.434668814e-13,1.8662153e-14,3.733763654e-14,8.051303503e-14,3.628119663e-14,2.008872629e-14,4.321598665e-14,1.979564029e-13,1.836319375e-14,4.165270307e-14,6.882870913e-14,1.271328886e-12,1.022058226e-13,3.319731374e-13,5.54054813e-14,9.997870751e-15
1.0625,3.186004811e-14,5.206400902e-14,9.825505071e-14,4.008018442e-14,2.302145795e-14,2.380906401e-14,9.107081644e-14,8.337421281e-15,1.631995003e-14,4.997214991e-14,9.741541498e-14,5.573515584e-14,1.16187284e-12,5.866819084e-14,9.052013042e-14,6.388758755e-14,1.301776962e-13,1.835428219e-14,2.715675863e-14,7.311279711e-14,2.647326503e-14,1.33593822e-14,3.562772924e-14,2.204991421e-13,2.257010176e-14,4.999405589e-14,9.273041473e-14,1.133056874e-12,1.03124834e-13,3.143429569e-13,5.879789169e-14,9.487188586e-15
1.0703125,2.911677125e-14,4.583755138e-14,1.157794984e-13,3.563329716e-14,2.095759943e-14,2.452884917e-14,9.972820085e-14,9.662558689e-15,2.234571937e-14,4.776443543e-14,8.976228469e-14,5.575324808e-14,1.409380981e-12,6.204471231e-14,9.46610256e-14,6.285630607e-14,1.145073793e-13,1.973404127e-14,1.93972148e-14,6.36407843e-14,1.892321196e-14,8.816277959e-15,2.989071735e-14,2.414269753e-13,2.862473544e-14,5.927087081e-14,1.208874285e-13,1.028017614e-12,1.049224244e-13,2.962861996e-13,6.197490906e-14,9.6486627e-15
1.078125,2.693211457e-14,3.967904819e-14,1.405519864e-13,3.22297446e-14,1.957471566e-14,2.854455634e-14,1.06079525e-13,1.043025442e-14,2.761429458e-14,4.152443276e-14,8.116659349e-14,5.145592205e-14,1.681627244e-12,6.395642139e-14,1.001007628e-13,6.518724695e-14,1.039839496e-13,2.395132084e-14,1.436501596e-14,5.697581442e-14,1.427628611e-14,5.752034826e-15,2.63952767e-14,2.594975745e-13,3.832500775e-14,6.90335406e-14,1.471747773e-13,9.644053779e-13,1.099633126e-13,2.801037044e-13,6.569476535e-14,1.016973187e-14
1.0859375,2.537739511e-14,3.443269135e-14,1.689260658e-13,3.049654689e-14,1.90728835e-14,3.386555106e-14,1.096098631e-13,1.067971481e-14,3.19741496e-14,3.364803786e-14,7.69954363e-14,4.489952521e-14,1.939171479e-12,6.493450498e-14,1.084516518e-13,7.262593632e-14,1.023048268e-13,3.175227167e-14,1.140858369e-14,5.280423338e-14,1.183878282e-14,4.055013319e-15,2.459268481e-14,2.779823141e-13,5.445289696e-14,7.843669855e-14,1.672823412e-13,9.408900984e-13,1.214635499e-13,2.653745847e-13,7.025638615e-14,1.099822737e-14
1.09375,2.425589232e-14,3.168913267e-14,2.012513235e-13,3.212855105e-14,1.977053002e-14,4.006419295e-14,1.112041877e-13,1.072974051e-14,3.542450225e-14,2.654146433e-14,8.165185507e-14,3.871769742e-14,2.158572819e-12,6.657318219e-14,1.226113513e-13,8.632972091e-14,1.13577599e-13,4.411680484e-14,1.05207062e-14,5.432341743e-14,1.12718604e-14,3.45483572e-15,2.432739495e-14,2.966121079e-13,7.856635601e-14,8.660921895e-14,1.830728801e-13,9.608355047e-13,1.436461708e-13,2.521998532e-13,7.664635449e-14,1.183429187e-14
1.1015625,2.399168666e-14,3.258058038e-14,2.350927454e-13,3.783680353e-14,2.185157571e-14,4.65815312e-14,1.109645626e-13,1.007201182e-14,3.666533898e-14,2.04957203e-14,9.771436661e-14,3.278338955e-14,2.3324077e-12,6.966665987e-14,1.439569128e-13,1.061459512e-13,1.390127699e-13,6.15948354e-14,1.106627834e-14,6.296523966e-14,1.165248484e-14,3.253154396e-15,2.483395591e-14,3.094487587e-13,1.120117864e-13,9.27070148e-14,1.909521721e-13,1.019639828e-12,1.788011734e-13,2.417577821e-13,8.486243497e-14,1.219732115e-14
1.109375,2.439776203e-14,3.695852966e-14,2.666715707e-13,4.702529064e-14,2.523714433e-14,5.158742607e-14,1.108769393e-13,8.865475078e-15,3.564214991e-14,1.611809914e-14,1.237039821e-13,2.753203898e-14,2.442105994e-12,7.462808969e-14,1.712665588e-13,1.28427401e-13,1.719648106e-13,8.262502068e-14,1.259257735e-14,7.589100681e-14,1.240751882e-14,3.203149594e-15,2.550626911e-14,3.218535489e-13,1.522887372e-13,9.72966114e-14,1.851421644e-13,1.110366187e-12,2.242566985e-13,2.308399228e-13,9.440347225e-14,1.234235845e-14
1.1171875,2.542294957e-14,4.468691614e-14,2.90986069e-13,5.865548892e-14,2.985762409e-14,5.42744968e-14,1.108778956e-13,7.732406776e-15,3.327178899e-14,1.427344047e-14,1.576239963e-13,2.459447392e-14,2.445280882e-12,8.172343169e-14,2.041618401e-13,1.511058373e-13,2.083656858e-13,1.065089817e-13,1.448809418e-14,9.218583173e-14,1.340798654e-14,3.508875362e-15,2.629951167e-14,3.398857243e-13,1.951011067e-13,1.005838108e-13,1.677500643e-13,1.210060116e-12,2.765253206e-13,2.168522307e-13,1.054409419e-13,1.248339144e-14
1.125,2.675089126e-14,5.422121816e-14,3.066248505e-13,7.104718149e-14,3.493775588e-14,5.559659879e-14,1.111838037e-13,6.905173159e-15,2.97942827e-14,1.437452616e-14,1.935624202e-13,2.42486649e-14,2.365770421e-12,9.140589745e-14,2.398580127e-13,1.707079829e-13,2.401382619e-13,1.287122864e-13,1.642693641e-14,1.103020968e-13,1.452468681e-14,4.096570317e-15,2.712228443e-14,3.61214869e-13,2.363360172e-13,1.005913877e-13,1.440521557e-13,1.321373419e-12,3.280350032e-13,2.011393643e-13,1.146579309e-13,1.242933233e-14
1.1328125,2.76280316e-14,6.31761886e-14,3.100217744e-13,8.098165426e-14,3.864564296e-14,5.653772462e-14,1.105893809e-13,6.587397191e-15,2.62010869e-14,1.619754493e-14,2.280052165e-13,2.663334911e-14,2.218073188e-12,1.022975399e-13,2.751000554e-13,1.810376291e-13,2.589658883e-13,1.448820183e-13,1.746097682e-14,1.255216149e-13,1.565689747e-14,5.157941101e-15,2.833230494e-14,3.789616495e-13,2.704319777e-13,9.74615998e-14,1.180418377e-13,1.430745847e-12,3.700154907e-13,1.86219823e-13,1.193478334e-13,1.206076965e-14
1.140625,2.842756296e-14,7.034030225e-14,3.027100851e-13,8.760907195e-14,4.14524111e-14,5.783319786e-14,1.08852129e-13,7.011634409e-15,2.284254831e-14,1.984638355e-14,2.580392005e-13,3.130396741e-14,2.006486786e-12,1.140718731e-13,3.093032192e-13,1.813755986e-13,2.623927293e-13,1.518729112e-13,1.77249133e-14,1.379215102e-13,1.695058467e-14,6.600947197e-15,3.007830252e-14,3.979067596e-13,2.932795662e-13,9.271473291e-14,9.092849015e-14,1.523491069e-12,3.97693526e-13,1.7132467e-13,1.207081451e-13,1.169947167e-14
1.1484375,2.922781081e-14,7.394365906e-14,2.824900104e-13,8.807721412e-14,4.223917248e-14,5.864207663e-14,1.045172185e-13,7.953165755e-15,1.949916092e-14,2.475020827e-14,2.785073797e-13,3.738935017e-14,1.749342987e-12,1.267709866e-13,3.404387996e-13,1.725812799e-13,2.500220112e-13,1.482776226e-13,1.693154371e-14,1.435266219e-13,1.787266829e-14,8.515657317e-15,3.21678036e-14,4.16691421e-13,3.015771972e-13,8.642907508e-14,6.512643153e-14,1.59257282e-12,4.048659619e-13,1.60357365e-13,1.176012192e-13,1.138947408e-14
1.15625,2.976994252e-14,7.246760084e-14,2.515498632e-13,8.276370229e-14,4.089722521e-14,5.930831422e-14,9.956116342e-14,9.139503095e-15,1.650514235e-14,3.028961252e-14,2.888044195e-13,4.404573941e-14,1.467160104e-12,1.37953366e-13,3.648139627e-13,1.560135962e-13,2.281383909e-13,1.360813631e-13,1.606641833e-14,1.411758513e-13,1.855905792e-14,1.097361889e-14,3.427422198e-14,4.310819217e-13,2.929385665e-13,7.7899343e-14,4.499883317e-14,1.629087446e-12,3.865228604e-13,1.548571252e-13,1.087250635e-13,1.132560913e-14
1.1640625,3.030732364e-14,6.619375698e-14,2.150967351e-13,7.339342522e-14,3.826137233e-14,6.03441827e-14,9.239555841e-14,1.061532342e-14,1.452554366e-14,3.614625137e-14,2.89855963e-13,5.089804116e-14,1.196155546e-12,1.461846922e-13,3.806063898e-13,1.348586636e-13,2.098088892e-13,1.178652189e-13,1.619038353e-14,1.352464396e-13,1.945139121e-14,1.372047569e-14,3.5960863e-14,4.376280423e-13,2.697330301e-13,6.778347273e-14,3.295110453e-14,1.627039449e-12,3.475601673e-13,1.559518877e-13,9.541174236e-14,1.197006213e-14
1.171875,3.178854281e-14,5.678246645e-14,1.779088009e-13,6.163236763e-14,3.443221566e-14,6.085246517e-14,8.262833499e-14,1.221219364e-14,1.318798495e-14,4.243614838e-14,2.826753692e-13,5.666287691e-14,9.574066404e-13,1.520568627e-13,3.854553357e-13,1.126314472e-13,2.044269319e-13,9.868751833e-14,1.796019168e-14,1.287965198e-13,2.043257613e-14,1.583989624e-14,3.620240265e-14,4.3361248e-13,2.362614284e-13,5.690527633e-14,2.850540563e-14,1.590886945e-12,2.954389399e-13,1.643782893e-13,8.029363806e-14,1.282817833e-14
1.1796875,3.328104564e-14,4.659537144e-14,1.440451691e-13,4.857887118e-14,3.003546849e-14,5.990778286e-14,7.166877934e-14,1.316559612e-14,1.176644754e-14,4.792109703e-14,2.66997224e-13,5.918926322e-14,7.675598695e-13,1.533935833e-13,3.760039636e-13,9.580409624e-14,2.256145149e-13,8.329583296e-14,2.170331767e-14,1.231330987e-13,2.075202627e-14,1.731444349e-14,3.481145971e-14,4.138904907e-13,1.964693578e-13,4.663887428e-14,3.128978453e-14,1.513587644e-12,2.380826987e-13,1.802175392e-13,6.578129794e-14,1.366802378e-14
1.1875,3.439807327e-14,3.672685806e-14,1.158100093e-13,3.600781389e-14,2.59084271e-14,5.710023954e-14,6.215325156e-14,1.310453878e-14,1.017032779e-14,5.075665535e-14,2.40925514e-13,5.703233463e-14,6.31358244e-13,1.468060959e-13,3.48806277e-13,8.617670854e-14,2.793425563e-13,7.446026541e-14,2.706966827e-14,1.19447124e-13,1.972976697e-14,1.820748368e-14,3.128913069e-14,3.835195118e-13,1.541795078e-13,3.656645467e-14,4.184340427e-14,1.406777491e-12,1.803997226e-13,2.021543581e-13,5.279826784e-14,1.430385142e-14
1.1953125,3.534485152e-14,2.987043232e-14,9.612362086e-14,2.619078869e-14,2.322354809e-14,5.276037041e-14,5.3006008e-14,1.233214939e-14,8.642570906e-15,5.059928795e-14,2.068360278e-13,5.137631839e-14,5.439569401e-13,1.340212472e-13,3.080905669e-13,8.719484037e-14,3.682039099e-13,7.371471354e-14,3.30443665e-14,1.205160125e-13,1.791040448e-14,1.793384159e-14,2.613804834e-14,3.450246004e-13,1.157966465e-13,2.838649886e-14,5.891832968e-14,1.281627835e-12,1.331325974e-13,2.236671828e-13,4.514409859e-14,1.42234153e-14
1.203125,3.492084456e-14,2.764001068e-14,8.510158141e-14,1.953045309e-14,2.309433697e-14,4.745251399e-14,4.46671418e-14,1.125791933e-14,7.264033541e-15,4.817931111e-14,1.69639929e-13,4.298357746e-14,5.118848736e-13,1.171867557e-13,2.600325936e-13,9.873883798e-14,4.797883381e-13,7.921736634e-14,3.783400321e-14,1.255944371e-13,1.58860439e-14,1.696412403e-14,2.063590714e-14,3.004882716e-13,8.389558276e-14,2.361432677e-14,7.965532947e-14,1.155365999e-12,1.005757404e-13,2.441010651e-13,4.478160279e-14,1.362774554e-14
1.2109375,3.315342601e-14,2.993129463e-14,8.135369811e-14,1.574382696e-14,2.589743783e-14,4.184656864e-14,3.908437766e-14,1.01380094e-14,5.753824434e-15,4.373861048e-14,1.313971226e-13,3.296796068e-14,5.155620525e-13,9.786080676e-14,2.099286651e-13,1.184848621e-13,6.02290405e-13,8.796904447e-14,4.087109816e-14,1.337011466e-13,1.388364797e-14,1.609686718e-14,1.584763915e-14,2.52698218e-13,5.969251796e-14,2.275051901e-14,1.002634083e-13,1.038212375e-12,8.17053955e-14,2.560620103e-13,5.159018614e-14,1.282400197e-14
1.21875,3.019063947e-14,3.546775465e-14,8.128576935e-14,1.512391336e-14,3.125386369e-14,3.63470642e-14,3.643810257e-14,9.552556253e-15,4.180634874e-15,3.710524521e-14,9.502979113e-14,2.287204858e-14,5.489665693e-13,7.65012066e-14,1.617022449e-13,1.404199148e-13,7.113636089e-13,9.477889934e-14,4.128543655e-14,1.401219722e-13,1.238733552e-14,1.549535172e-14,1.180438397e-14,2.082405416e-13,4.23906024e-14,2.461195796e-14,1.223981464e-13,9.500740062e-13,7.366095622e-14,2.628711828e-13,6.360909344e-14,1.19234829e-14
1.2265625,2.618765158e-14,4.402584702e-14,8.245092294e-14,1.725985825e-14,3.897975198e-14,3.241214772e-14,3.84626773e-14,1.007576404e-14,2.809662063e-15,2.98056886e-14,6.450099704e-14,1.452380239e-14,5.843683599e-13,5.729263601e-14,1.237742222e-13,1.623536877e-13,7.961719498e-13,9.747637588e-14,3.906592992e-14,1.426046224e-13,1.284161485e-14,1.557770905e-14,9.672011897e-15,1.683850118e-13,3.260729951e-14,2.967702634e-14,1.453101392e-13,8.960924286e-13,7.463319168e-14,2.617125311e-13,8.044195036e-14,1.151952591e-14
1.234375,2.181128455e-14,5.360159866e-14,8.201447513e-14,2.120228875e-14,4.750666117e-14,3.055162405e-14,4.613844945e-14,1.170243663e-14,1.883671876e-15,2.375619334e-14,4.273426868e-14,8.885501317e-15,6.176757157e-13,4.264656679e-14,9.691953288e-14,1.768101131e-13,8.333999842e-13,9.544660794e-14,3.46060694e-14,1.386765125e-13,1.543688064e-14,1.649763533e-14,9.291553441e-15,1.349655847e-13,2.780650179e-14,3.651489725e-14,1.613956432e-13,8.865347119e-13,7.806508162e-14,2.538220254e-13,9.830820912e-14,1.198163957e-14
1.2421875,1.811762434e-14,6.21929469e-14,7.856754762e-14,2.679521415e-14,5.519695542e-14,3.142663768e-14,5.8402574e-14,1.406603504e-14,1.296718117e-15,1.941878047e-14,2.99017954e-14,6.607645399e-15,6.348573728e-13,3.394339175e-14,8.041543976e-14,1.80403235e-13,8.22041717e-13,8.750583527e-14,2.957355197e-14,1.282877729e-13,1.983758351e-14,1.794885735e-14,9.710198336e-15,1.080524421e-13,2.584744398e-14,4.309435635e-14,1.709437733e-13,9.175741953e-13,7.945455643e-14,2.422578085e-13,1.132272643e-13,1.326553498e-14
1.25,1.525677301e-14,6.841880911e-14,7.025049046e-14,3.366322754e-14,6.102163773e-14,3.49833212e-14,7.498962395e-14,1.689420807e-14,9.314046075e-16,1.674568805e-14,2.529843175e-14,7.453959203e-15,6.295214448e-13,3.058008021e-14,7.04227174e-14,1.708475002e-13,7.610898074e-13,7.549881564e-14,2.519350368e-14,1.117503632e-13,2.57297798e-14,1.9462968e-14,1.021708579e-14,8.732900001e-14,2.57591551e-14,4.756135477e-14,1.767603992e-13,9.887031922e-13,7.679089505e-14,2.373690443e-13,1.219099413e-13,1.535728782e-14
1.2578125,1.354332409e-14,7.288390241e-14,5.949188089e-14,4.114681551e-14,6.322103817e-14,4.038702778e-14,9.2908886e-14,1.953821068e-14,9.045056988e-16,1.585357218e-14,2.757541678e-14,1.159304987e-14,5.943494165e-13,3.299429025e-14,6.460032449e-14,1.519271746e-13,6.650352345e-13,6.329317899e-14,2.22956354e-14,9.257849009e-14,3.238846563e-14,2.059938608e-14,1.084940567e-14,7.322359406e-14,2.645340442e-14,4.975832504e-14,1.776166427e-13,1.090214096e-12,7.109405556e-14,2.415361284e-13,1.242637018e-13,1.714882323e-14
1.265625,1.324907307e-14,7.510315609e-14,4.92966519e-14,4.798312123e-14,6.071074873e-14,4.708938224e-14,1.086681646e-13,2.078849739e-14,1.207149004e-15,1.659372054e-14,3.504559258e-14,1.863158681e-14,5.464543266e-13,4.060256537e-14,6.106636702e-14,1.275780953e-13,5.528214856e-13,5.368898479e-14,2.213020281e-14,7.36718384e-14,3.842127345e-14,2.074762841e-14,1.107451834e-14,6.70020194e-14,2.818146595e-14,4.854755724e-14,1.686870699e-13,1.220135071e-12,6.249541696e-14,2.624793176e-13,1.186507313e-13,1.814652112e-14
1.2734375,1.355731404e-14,7.53129165e-14,4.23604661e-14,5.347974267e-14,5.509099185e-14,5.355328038e-14,1.190738095e-13,2.075077166e-14,1.752260493e-15,1.771754469e-14,4.627043987e-14,2.793090231e-14,5.081216686e-13,5.239207188e-14,6.040410219e-14,1.037283249e-13,4.436900283e-13,4.789086294e-14,2.403921829e-14,5.871803541e-14,4.20009233e-14,1.977112389e-14,1.11521676e-14,7.135370858e-14,2.986258766e-14,4.426461967e-14,1.533459125e-13,1.358588938e-12,5.293457568e-14,3.027128211e-13,1.068344378e-13,1.82901233e-14
1.28125,1.395787361e-14,7.422072598e-14,3.883169682e-14,5.743611572e-14,4.757807925e-14,5.995675325e-14,1.222326978e-13,1.993506517e-14,2.455408643e-15,1.810135428e-14,5.957370325e-14,3.797961883e-14,4.918124746e-13,6.791571912e-14,6.396479115e-14,8.477598095e-14,3.545699883e-13,4.7678339e-14,2.730921042e-14,4.913534649e-14,4.308177931e-14,1.800641391e-14,1.235891183e-14,8.717709733e-14,3.279919071e-14,3.850988449e-14,1.374561687e-13,1.503687851e-12,4.604124868e-14,3.648516618e-13,9.145383941e-14,1.747502693e-14
1.2890625,1.426800506e-14,7.299135163e-14,4.068509661e-14,5.989704059e-14,3.915506416e-14,6.480635826e-14,1.190484035e-13,1.818472571e-14,3.137198059e-15,1.793920521e-14,7.43814092e-14,4.791989494e-14,5.063716566e-13,8.620491361e-14,7.242047419e-14,7.394173919e-14,2.934789959e-13,5.232838529e-14,3.127991544e-14,4.648747891e-14,4.163141821e-14,1.527049438e-14,1.505584832e-14,1.155244835e-13,3.518396478e-14,3.275426931e-14,1.180463751e-13,1.639525135e-12,4.287065997e-14,4.406709078e-13,7.622876449e-14,1.542672286e-14
1.296875,1.447142365e-14,7.088110089e-14,4.464096818e-14,5.949693939e-14,3.019803993e-14,6.786801088e-14,1.09162233e-13,1.545830505e-14,3.771749742e-15,1.686329806e-14,8.783760629e-14,5.577828066e-14,5.702904691e-13,1.042934562e-13,8.628804629e-14,7.30068302e-14,2.659422747e-13,6.064466538e-14,3.443566972e-14,4.860557849e-14,3.812112614e-14,1.222812411e-14,2.034349739e-14,1.538569985e-13,3.758078395e-14,2.749067199e-14,9.742236335e-14,1.7429287e-12,4.350628362e-14,5.246811519e-13,6.158060642e-14,1.254793669e-14
1.3046875,1.475445726e-14,6.849878467e-14,4.993005154e-14,5.659828578e-14,2.238086147e-14,6.942199354e-14,9.484002875e-14,1.245088601e-14,4.443687071e-15,1.493550268e-14,9.742576935e-14,6.110797337e-14,6.697587895e-13,1.217701199e-13,1.052989142e-13,8.20949521e-14,2.731795005e-13,7.110587963e-14,3.652476755e-14,5.522842045e-14,3.243617793e-14,9.584988609e-15,2.777421711e-14,1.972271669e-13,4.016865492e-14,2.425552385e-14,8.30999008e-14,1.800475481e-12,4.8799855e-14,6.047402701e-13,4.960722257e-14,9.648517968e-15
1.3125,1.502867694e-14,6.512286477e-14,5.359442799e-14,5.143903281e-14,1.634719621e-14,7.042718973e-14,7.945736688e-14,9.774646338e-15,4.995188404e-15,1.224583395e-14,1.016942906e-13,6.236462875e-14,7.892753212e-13,1.370415193e-13,1.276882681e-13,9.892608523e-14,3.039197001e-13,7.987140043e-14,3.607130907e-14,6.220981273e-14,2.558387469e-14,7.351666507e-15,3.722051879e-14,2.388895193e-13,4.457409852e-14,2.383063796e-14,7.668219764e-14,1.801961216e-12,5.602028397e-14,6.68257179e-13,4.111605565e-14,7.193526395e-15
1.3203125,1.583831181e-14,6.120909856e-14,5.476642052e-14,4.634472428e-14,1.227078806e-14,7.119874387e-14,6.732008302e-14,7.571130418e-15,5.178598408e-15,9.862646613e-15,1.0079626e-13,5.987365664e-14,8.916538748e-13,1.482078331e-13,1.507181283e-13,1.205134123e-13,3.476970015e-13,8.436421151e-14,3.31211169e-14,6.673827708e-14,1.880833164e-14,5.752115958e-15,4.75878228e-14,2.69646068e-13,5.110006292e-14,2.604496338e-14,7.885808601e-14,1.732611164e-12,6.348621091e-14,6.967371195e-13,3.613640685e-14,5.354780765e-15
1.328125,1.794092858e-14,5.72885663e-14,5.467205538e-14,4.170973159e-14,9.728248129e-15,7.135060342e-14,5.987749469e-14,5.720325764e-15,5.279895798e-15,8.031466335e-15,9.589664749e-14,5.465249904e-14,9.701950832e-13,1.547150504e-13,1.726851793e-13,1.440059465e-13,3.912845542e-13,8.50831511e-14,2.874338018e-14,6.913594244e-14,1.30141811e-14,5.057334368e-15,5.767912856e-14,2.849402956e-13,6.03714841e-14,3.027848124e-14,8.91127596e-14,1.59650351e-12,7.102296103e-14,6.96247942e-13,3.432613522e-14,4.051918792e-15
1.3359375,2.146348496e-14,5.307476943e-14,5.438410446e-14,3.737296651e-14,8.156094755e-15,7.241285305e-14,6.091267133e-14,4.101792666e-15,5.588697486e-15,6.984950474e-15,8.622789214e-14,4.733607385e-14,1.011385033e-12,1.551992298e-13,1.888619434e-13,1.658430379e-13,4.207803079e-13,8.099688938e-14,2.371097295e-14,6.855957001e-14,8.238000212e-15,5.099292708e-15,6.638450615e-14,2.821364857e-13,7.43842557e-14,3.579260783e-14,1.046702993e-13,1.41324111e-12,7.674459614e-14,6.629705774e-13,3.412425252e-14,3.297729295e-15
1.34375,2.583944947e-14,4.903283127e-14,5.774332346e-14,3.443274602e-14,6.876802546e-15,7.403780769e-14,7.274116832e-14,3.005605514e-15,6.288261384e-15,6.744318188e-15,7.458580614e-14,3.904241023e-14,1.001579799e-12,1.495424721e-13,1.96692629e-13,1.816520063e-13,4.248839049e-13,7.28963158e-14,1.866871005e-14,6.459943565e-14,4.828882506e-15,5.765879272e-15,7.202006529e-14,2.634768736e-13,9.303807575e-14,3.976882136e-14,1.195055216e-13,1.197322682e-12,7.841272603e-14,6.033161512e-13,3.390428185e-14,2.842622347e-15
1.3515625,3.122619287e-14,4.589738767e-14,6.442511777e-14,3.319845496e-14,5.941236201e-15,7.345338216e-14,9.604342388e-14,2.239014902e-15,7.551548214e-15,7.645231269e-15,6.344454602e-14,3.08838057e-14,9.623344675e-13,1.39890992e-13,1.974791352e-13,1.91007576e-13,4.042838153e-13,6.20092669e-14,1.413469333e-14,5.970448761e-14,2.903533151e-15,6.956188974e-15,7.404372433e-14,2.312347722e-13,1.138522544e-13,4.167050508e-14,1.280136188e-13,9.682142245e-13,7.62598612e-14,5.283795765e-13,3.403465329e-14,2.619696529e-15
1.359375,3.657800114e-14,4.454015363e-14,7.506967616e-14,3.294051189e-14,5.442248468e-15,7.168562631e-14,1.312731691e-13,1.756435317e-15,9.473653431e-15,9.44380888e-15,5.487997387e-14,2.404581031e-14,9.328303771e-13,1.272151065e-13,1.921230082e-13,1.92758824e-13,3.611277289e-13,5.064596231e-14,1.049299717e-14,5.441421006e-14,2.000484494e-15,8.461720645e-15,7.282746794e-14,1.950322405e-13,1.353446078e-13,4.224574093e-14,1.317640387e-13,7.484316774e-13,7.234714699e-14,4.563032324e-13,3.466047948e-14,2.894840219e-15
1.3671875,4.111081942e-14,4.389774313e-14,9.018504988e-14,3.326612741e-14,4.834528057e-15,6.954435845e-14,1.770980476e-13,1.582441753e-15,1.249422498e-14,1.135854443e-14,4.618210015e-14,1.801630315e-14,9.435762171e-13,1.127033678e-13,1.77738543e-13,1.8415006e-13,3.002267635e-13,4.259262226e-14,8.357107054e-15,4.995427125e-14,2.083182168e-15,9.856552666e-15,6.80049653e-14,1.607937648e-13,1.553763272e-13,4.043432522e-14,1.269735096e-13,5.586916341e-13,6.468068867e-14,4.003129275e-13,3.401350387e-14,3.449305722e-15
1.375,4.408603072e-14,4.444208571e-14,1.084357364e-13,3.428692984e-14,4.109878696e-15,6.425512468e-14,2.274458611e-13,1.793404715e-15,1.622692177e-14,1.309006155e-14,3.884832089e-14,1.373752645e-14,1.013579631e-12,9.93723541e-14,1.57613584e-13,1.677518513e-13,2.389735591e-13,4.004512799e-14,7.440783151e-15,4.780666024e-14,3.05043953e-15,1.131769351e-14,5.963566057e-14,1.335356243e-13,1.683885887e-13,3.594716878e-14,1.098784963e-13,4.097528057e-13,5.450292941e-14,3.675429137e-13,3.16309824e-14,4.57624578e-15
1.3828125,4.518112801e-14,4.606068779e-14,1.26809389e-13,3.486889114e-14,3.712659248e-15,5.584860159e-14,2.804567451e-13,2.450793702e-15,2.010982706e-14,1.500977774e-14,3.384253214e-14,1.172183668e-14,1.15870464e-12,8.87677108e-14,1.362200564e-13,1.467299785e-13,1.896595359e-13,4.270259394e-14,7.464398436e-15,4.843718685e-14,4.525396792e-15,1.258992492e-14,4.96381392e-14,1.167504717e-13,1.729326309e-13,3.107284214e-14,8.864512287e-14,3.057069939e-13,4.481967013e-14,3.606467297e-13,2.924396934e-14,6.411487566e-15
1.390625,4.450104471e-14,4.786548275e-14,1.442005588e-13,3.493372087e-14,3.556278159e-15,4.755192257e-14,3.27495146e-13,3.650087212e-15,2.431226358e-14,1.682743067e-14,3.003032421e-14,1.191685128e-14,1.365983101e-12,8.212446479e-14,1.165837995e-13,1.241368772e-13,1.672341479e-13,5.213864783e-14,8.551725702e-15,5.097389988e-14,6.139876303e-15,1.282532878e-14,3.932096042e-14,1.110724765e-13,1.686232207e-13,2.782220989e-14,7.057160964e-14,2.418451705e-13,3.697529855e-14,3.73030469e-13,2.729486662e-14,8.990893711e-15
1.3984375,4.162194926e-14,4.826688565e-14,1.591661622e-13,3.405660511e-14,3.587599478e-15,4.010679835e-14,3.612108945e-13,5.542074213e-15,2.834505808e-14,1.771298316e-14,2.674408191e-14,1.376324969e-14,1.614712237e-12,7.893086891e-14,9.916306072e-14,1.024516253e-13,1.77488169e-13,6.659946262e-14,1.047503613e-14,5.429686697e-14,7.933335736e-15,1.258267195e-14,2.965151081e-14,1.147517706e-13,1.560987017e-13,2.667254671e-14,5.481896813e-14,2.056872855e-13,2.936450403e-14,3.976789981e-13,2.451669438e-14,1.213127375e-14
1.40625,3.632910174e-14,4.777950083e-14,1.707885214e-13,3.20195341e-14,3.69224324e-15,3.439337241e-14,3.749163351e-13,7.887334523e-15,3.039726061e-14,1.729821494e-14,2.498791305e-14,1.67641658e-14,1.857684963e-12,7.770921038e-14,8.410897047e-14,8.532004024e-14,2.270452112e-13,8.599355348e-14,1.342861456e-14,5.862422007e-14,9.873517299e-15,1.218727042e-14,2.178784418e-14,1.289767748e-13,1.348338659e-13,2.78295202e-14,4.221265995e-14,1.879746825e-13,2.354871501e-14,4.194811193e-13,2.121250287e-14,1.553457807e-14
1.4140625,3.082391354e-14,4.708742042e-14,1.779010996e-13,2.917983254e-14,4.076521734e-15,3.057312474e-14,3.703368551e-13,1.039131739e-14,3.033076448e-14,1.705344225e-14,2.666612161e-14,2.008641048e-14,2.037975648e-12,7.661651321e-14,7.240525229e-14,7.617043573e-14,3.153483091e-13,1.09321687e-13,1.771180197e-14,6.356502455e-14,1.138041935e-14,1.092015708e-14,1.640821131e-14,1.526276915e-13,1.108082639e-13,3.12266252e-14,3.521020054e-14,1.7212874e-13,2.166312128e-14,4.288826053e-13,1.954242957e-14,1.912114534e-14
1.421875,2.70479653e-14,4.454932956e-14,1.79608496e-13,2.577131857e-14,4.38639496e-15,2.899394611e-14,3.497750231e-13,1.310098802e-14,2.93741086e-14,1.739064262e-14,3.208346091e-14,2.477412835e-14,2.117485428e-12,7.540837161e-14,6.40806229e-14,7.527289892e-14,4.3131783e-13,1.322537361e-13,2.327600111e-14,6.720194214e-14,1.199356993e-14,9.21326772e-15,1.343833731e-14,1.806732475e-13,8.927835115e-14,3.464978007e-14,3.07463468e-14,1.534700719e-13,2.08164953e-14,4.203239514e-13,1.797207242e-14,2.252415534e-14
1.4296875,2.460565345e-14,3.982457823e-14,1.752357113e-13,2.180467845e-14,4.537626228e-15,2.849691047e-14,3.18656512e-13,1.554090048e-14,2.724841199e-14,1.802516884e-14,4.142598978e-14,2.982377611e-14,2.076584301e-12,7.36682415e-14,5.86430631e-14,7.948440982e-14,5.586169885e-13,1.54667342e-13,2.950597798e-14,6.91369645e-14,1.201744934e-14,7.675028111e-15,1.212997885e-14,2.115431052e-13,7.231064961e-14,3.685476316e-14,2.811807842e-14,1.296236882e-13,1.962191189e-14,3.993285488e-13,1.55176323e-14,2.530752092e-14
1.4375,2.444561232e-14,3.471888332e-14,1.649114203e-13,1.772387869e-14,4.843072629e-15,2.867174671e-14,2.854868032e-13,1.729837714e-14,2.398716569e-14,1.97069745e-14,5.283642665e-14,3.321056667e-14,1.931917866e-12,6.747284157e-14,5.235790372e-14,8.785806849e-14,6.854375541e-13,1.770171707e-13,3.577122962e-14,6.870394977e-14,1.168389074e-14,6.512703761e-15,1.198775795e-14,2.439584107e-13,6.228791557e-14,3.78517898e-14,2.872716461e-14,1.039902686e-13,1.954126251e-14,3.635939632e-13,1.335659512e-14,2.762185671e-14
1.4453125,2.607585817e-14,2.96692235e-14,1.50687938e-13,1.464914591e-14,5.566324796e-15,2.812713469e-14,2.609073793e-13,1.848677392e-14,2.053665285e-14,2.407694417e-14,6.589766427e-14,3.624931147e-14,1.692244881e-12,5.87996744e-14,4.604934785e-14,9.816774066e-14,7.974781963e-13,1.950242128e-13,4.197061404e-14,6.665573823e-14,1.063154098e-14,5.86583334e-15,1.187895614e-14,2.734515622e-13,6.184767835e-14,3.610616676e-14,2.928849272e-14,7.958455034e-14,2.053963151e-14,3.23356176e-13,1.175529409e-14,2.903574506e-14
1.453125,2.775523153e-14,2.481089818e-14,1.327868125e-13,1.308318814e-14,6.88507898e-15,2.681295192e-14,2.514111232e-13,1.928034729e-14,1.731587752e-14,3.209876191e-14,7.95882368e-14,3.910131861e-14,1.394841184e-12,4.908378955e-14,3.99886479e-14,1.056417884e-13,8.75368355e-13,2.08343538e-13,4.689847195e-14,6.183594914e-14,8.819023515e-15,5.660281789e-15,1.130107224e-14,2.929214864e-13,6.883012586e-14,3.285418211e-14,3.034533527e-14,6.96225178e-14,2.169904114e-14,2.892987493e-13,1.082097871e-14,2.974253983e-14
1.4609375,2.857984989e-14,2.069087389e-14,1.152312059e-13,1.338803559e-14,8.909771122e-15,2.544064554e-14,2.612686875e-13,1.929471749e-14,1.46029211e-14,4.440991112e-14,9.186014015e-14,4.089991211e-14,1.09551054e-12,3.884958303e-14,3.398254701e-14,1.087680226e-13,9.087916751e-13,2.170515127e-13,4.919857955e-14,5.482989919e-14,7.067920663e-15,5.992994063e-15,1.027679105e-14,2.996538921e-13,8.202453337e-14,2.909627018e-14,3.540627776e-14,7.880853002e-14,2.314831394e-14,2.688144174e-13,1.100096465e-14,2.93617304e-14
1.46875,2.788420988e-14,1.803064113e-14,1.000101284e-13,1.593196062e-14,1.15434469e-14,2.560322397e-14,2.906755999e-13,1.879648524e-14,1.231804164e-14,6.087247754e-14,9.966055261e-14,4.186961002e-14,8.247031101e-13,2.920283977e-14,2.818467367e-14,1.06741055e-13,8.99998747e-13,2.190536214e-13,4.889946003e-14,4.6542504e-14,5.658744252e-15,6.903220364e-15,8.898055916e-15,2.942090681e-13,1.008746989e-13,2.584211504e-14,4.641416441e-14,1.105602995e-13,2.554967974e-14,2.655548249e-13,1.236695386e-14,2.764221245e-14
1.4765625,2.487319172e-14,1.731108991e-14,8.847142853e-14,2.057528542e-14,1.473443438e-14,2.8161179e-14,3.367057677e-13,1.814815528e-14,1.050657713e-14,8.056951569e-14,1.026932252e-13,4.283437196e-14,6.009258529e-13,2.161279146e-14,2.395265508e-14,9.79459618e-14,8.450791102e-13,2.130321597e-13,4.620097257e-14,3.797280434e-14,4.510250179e-15,8.51594282e-15,7.187315114e-15,2.760669229e-13,1.230563336e-13,2.435753031e-14,6.453706536e-14,1.662011965e-13,2.918801319e-14,2.892056764e-13,1.515291231e-14,2.524876399e-14
1.484375,2.084076275e-14,1.841794953e-14,8.099844658e-14,2.684382304e-14,1.772708378e-14,3.366697826e-14,3.951666614e-13,1.732701295e-14,9.199404798e-15,1.024273184e-13,9.980468142e-14,4.350243786e-14,4.2852007e-13,1.579864275e-14,2.145819341e-14,8.658883884e-14,7.639712316e-13,2.036084109e-13,4.111593919e-14,2.927187776e-14,3.864395636e-15,1.108053165e-14,5.594134138e-15,2.488090598e-13,1.472779891e-13,2.402328901e-14,9.098038927e-14,2.42321712e-13,3.373637446e-14,3.393073372e-13,1.812609979e-14,2.22427977e-14
1.4921875,1.643672333e-14,2.128590297e-14,7.782383312e-14,3.395014544e-14,1.984375757e-14,4.209622317e-14,4.587483865e-13,1.652122198e-14,8.375340127e-15,1.258116847e-13,9.301039344e-14,4.415029691e-14,3.051622373e-13,1.191311339e-14,2.159561598e-14,7.298523646e-14,6.609347459e-13,1.91592945e-13,3.469428495e-14,2.133699483e-14,3.62299254e-15,1.486229705e-14,4.608744538e-15,2.204923329e-13,1.723647147e-13,2.499774542e-14,1.245202872e-13,3.319080432e-13,3.934917326e-14,4.09803666e-13,2.106794819e-14,1.881414652e-14
1.5,1.330891058e-14,2.515913671e-14,7.899558854e-14,4.187503867e-14,2.128579997e-14,5.219287343e-14,5.170777832e-13,1.59580009e-14,8.408436576e-15,1.45980288e-13,8.191326742e-14,4.415727281e-14,2.245839424e-13,9.585516997e-15,2.418297e-14,6.044097693e-14,5.582787266e-13,1.797998181e-13,2.84532416e-14,1.611267016e-14,3.879059691e-15,1.961494394e-14,4.387657279e-15,1.970498545e-13,2.010018506e-13,2.601677463e-14,1.60298541e-13,4.205835711e-13,4.48915276e-14,4.965874655e-13,2.298302353e-14,1.548896964e-14
1.5078125,1.159760582e-14,2.911735053e-14,8.215794548e-14,4.886102205e-14,2.082830508e-14,6.285818971e-14,5.631830052e-13,1.560043472e-14,9.050910659e-15,1.605401465e-13,6.889071341e-14,4.360243842e-14,1.725170856e-13,8.403876043e-15,2.9507646e-14,4.925055501e-14,4.636192282e-13,1.685230298e-13,2.321404725e-14,1.349442573e-14,4.398432963e-15,2.517851514e-14,4.970452639e-15,1.86372077e-13,2.335937068e-13,2.55662095e-14,2.006082523e-13,5.000799695e-13,5.019120158e-14,5.844529697e-13,2.237920774e-14,1.215207892e-14
1.515625,1.07912578e-14,3.289831871e-14,8.727707795e-14,5.348703538e-14,1.882893563e-14,7.200639928e-14,5.912923749e-13,1.560959952e-14,1.068215595e-14,1.683585264e-13,5.776590487e-14,4.292423349e-14,1.501839033e-13,7.867246287e-15,3.614932487e-14,4.013249248e-14,3.801509625e-13,1.54932246e-13,1.8913411e-14,1.370563413e-14,4.8429195e-15,3.135877693e-14,6.293182593e-15,1.917512266e-13,2.667803924e-13,2.533774349e-14,2.399656317e-13,5.624297433e-13,5.599251781e-14,6.675203073e-13,2.020671986e-14,9.611886782e-15
1.5234375,1.105658025e-14,3.642241471e-14,9.60867429e-14,5.775608071e-14,1.663308436e-14,7.762362111e-14,5.998633076e-13,1.560358976e-14,1.278226222e-14,1.694573054e-13,5.077464142e-14,4.178888236e-14,1.561288978e-13,7.583254957e-15,4.286506483e-14,3.314301653e-14,3.156156574e-13,1.409511842e-13,1.578832828e-14,1.883818521e-14,5.245214623e-15,3.66177504e-14,8.241540557e-15,2.129829075e-13,2.994212553e-13,2.56252751e-14,2.701577766e-13,5.901837064e-13,6.147084414e-14,7.323026559e-13,1.788984169e-14,7.856575781e-15
1.53125,1.228220888e-14,3.906722857e-14,1.102463887e-13,6.044500411e-14,1.42234933e-14,7.997399839e-14,5.806799626e-13,1.528945073e-14,1.453669884e-14,1.611816693e-13,4.729444712e-14,3.947405094e-14,1.96483954e-13,7.378653165e-15,4.923367146e-14,2.854088464e-14,2.707612001e-13,1.280558253e-13,1.445721828e-14,2.94186395e-14,6.260341153e-15,4.04216731e-14,1.097584571e-14,2.426994629e-13,3.322578283e-13,2.679305081e-14,2.882441259e-13,5.780965417e-13,6.704506672e-14,7.71033618e-13,1.541111923e-14,6.318060546e-15
1.5390625,1.461463173e-14,4.204029438e-14,1.318044958e-13,6.134704668e-14,1.194431715e-14,7.959290351e-14,5.37718106e-13,1.509797018e-14,1.562260747e-14,1.464808695e-13,4.985343145e-14,3.697657189e-14,2.746793109e-13,6.675111104e-15,5.42559731e-14,2.659710124e-14,2.44500604e-13,1.119772818e-13,1.482447017e-14,4.90465553e-14,8.054615898e-15,4.205460721e-14,1.451811756e-14,2.735852125e-13,3.60522044e-13,2.992863164e-14,2.93751636e-13,5.275542805e-13,7.399048753e-14,7.745266565e-13,1.42638003e-14,4.9274038e-15
1.546875,1.922724117e-14,4.626800697e-14,1.636849824e-13,6.204118786e-14,1.118471795e-14,7.701221512e-14,4.786683325e-13,1.483358899e-14,1.631416298e-14,1.285705002e-13,5.8799957e-14,3.457878121e-14,3.87521568e-13,5.873615212e-15,5.837136267e-14,2.808344688e-14,2.360420106e-13,9.548267747e-14,1.778158827e-14,7.976671443e-14,1.137145256e-14,4.188673946e-14,1.857796612e-14,2.973320629e-13,3.783083216e-13,3.569791632e-14,2.863877035e-13,4.536970697e-13,8.158845433e-14,7.508793637e-13,1.581969197e-14,4.184177195e-15
1.5546875,2.724727529e-14,5.179240972e-14,2.076796809e-13,6.482040846e-14,1.260265941e-14,7.515553364e-14,4.09069103e-13,1.425927301e-14,1.579717125e-14,1.096374567e-13,7.179129383e-14,3.270854377e-14,5.269144216e-13,5.149059384e-15,6.16172303e-14,3.464820627e-14,2.523944597e-13,8.211244971e-14,2.420620433e-14,1.217841103e-13,1.72588059e-14,3.94605564e-14,2.310307528e-14,3.038487866e-13,3.889796052e-13,4.264239181e-14,2.665718122e-13,3.597489252e-13,9.0142555e-14,6.989880977e-13,1.98450395e-14,3.419962621e-15
1.5625,4.03333058e-14,5.896912905e-14,2.614086737e-13,6.832827602e-14,1.475250276e-14,7.499584689e-14,3.369497092e-13,1.369900446e-14,1.405603638e-14,9.220412098e-14,8.697363382e-14,3.147884062e-14,6.752945839e-13,4.922790012e-15,6.5351543e-14,4.635640311e-14,2.943598341e-13,7.460983275e-14,3.511183893e-14,1.749091069e-13,2.609146858e-14,3.564921309e-14,2.801341152e-14,2.912537017e-13,3.90551482e-13,4.916791989e-14,2.324845386e-13,2.689356758e-13,9.965390403e-14,6.247988282e-13,2.500816478e-14,2.32719197e-15
1.5703125,5.677889131e-14,6.618909692e-14,3.265561623e-13,7.194738079e-14,1.775903205e-14,7.805957178e-14,2.726088494e-13,1.390296685e-14,1.230425892e-14,7.909524e-14,1.047893759e-13,3.14357732e-14,8.245995648e-13,5.093296156e-15,7.065847468e-14,6.255594703e-14,3.601314272e-13,7.740761336e-14,5.153697251e-14,2.382528096e-13,3.833186864e-14,3.260844074e-14,3.313258147e-14,2.635724976e-13,3.783757851e-13,5.586130184e-14,1.943835196e-13,1.959362428e-13,1.060603399e-13,5.386786754e-13,3.096295352e-14,1.704199662e-15
1.578125,7.561930357e-14,7.318311091e-14,3.94613887e-13,7.663695886e-14,2.220984788e-14,8.383072322e-14,2.254501782e-13,1.505178898e-14,1.088231139e-14,7.327140403e-14,1.250535952e-13,3.303038521e-14,9.545116227e-13,6.011187714e-15,7.830103183e-14,8.304811983e-14,4.503192913e-13,9.14020454e-14,7.223073965e-14,3.055665895e-13,5.325506749e-14,3.064527226e-14,3.763627597e-14,2.270714295e-13,3.566628084e-13,5.992458526e-14,1.563783064e-13,1.497590633e-13,1.097670907e-13,4.551008871e-13,3.743718388e-14,1.325689827e-15
1.5859375,9.331917262e-14,7.830384205e-14,4.593148352e-13,8.085119822e-14,2.622888604e-14,9.067343911e-14,1.977449657e-13,1.671479984e-14,9.855797681e-15,7.188797188e-14,1.417276037e-13,3.536116625e-14,1.050022608e-12,7.528423584e-15,8.668459314e-14,1.056671068e-13,5.572994217e-13,1.163133194e-13,9.557226885e-14,3.70083459e-13,6.822276892e-14,3.064390969e-14,4.046998265e-14,1.870006144e-13,3.282480761e-13,5.8632435e-14,1.201536331e-13,1.266692355e-13,1.097551947e-13,3.823359627e-13,4.189832534e-14,1.049993383e-15
1.59375,1.065882886e-13,7.965211708e-14,5.175890667e-13,8.286694801e-14,2.832738956e-14,9.861726058e-14,1.934041016e-13,1.90060587e-14,9.395061204e-15,7.559335699e-14,1.562470067e-13,3.667615122e-14,1.119481091e-12,9.095904048e-15,9.428496168e-14,1.25355775e-13,6.633062626e-13,1.493808363e-13,1.203800251e-13,4.22534093e-13,8.205334868e-14,3.355576616e-14,4.212393003e-14,1.518299349e-13,2.949488997e-13,5.434740626e-14,9.187359493e-14,1.204178469e-13,1.043720515e-13,3.350776744e-13,4.304537073e-14,9.286876196e-16
1.6015625,1.144358259e-13,7.695717568e-14,5.623189088e-13,8.245913547e-14,2.954082662e-14,1.059944927e-13,2.09887021e-13,2.186568606e-14,9.730608599e-15,8.327071565e-14,1.732912465e-13,3.829806234e-14,1.178993055e-12,1.086157153e-14,1.025790905e-13,1.405721527e-13,7.54375555e-13,1.859975959e-13,1.429234001e-13,4.585788606e-13,9.359009416e-14,3.900424518e-14,4.250805579e-14,1.251569443e-13,2.575443597e-13,4.865572618e-14,7.442252238e-14,1.233778215e-13,9.450375405e-14,3.19274165e-13,4.258074301e-14,9.28067534e-16
1.609375,1.148133093e-13,7.071450015e-14,5.889262124e-13,7.944191914e-14,2.975021434e-14,1.104266613e-13,2.425577446e-13,2.482654387e-14,1.089174148e-14,9.265616851e-14,1.915988024e-13,4.001645698e-14,1.244062676e-12,1.25993011e-14,1.103125298e-13,1.50455782e-13,8.246526987e-13,2.200139719e-13,1.591245838e-13,4.761669707e-13,1.005069954e-13,4.584669641e-14,4.07963953e-14,1.066109243e-13,2.182974023e-13,4.12356427e-14,6.762068049e-14,1.240010044e-13,8.210092857e-14,3.383159997e-13,4.088232954e-14,1.082415266e-15
1.6171875,1.068016848e-13,6.158639542e-14,5.912280071e-13,7.443465984e-14,2.870843372e-14,1.11034449e-13,2.835762242e-13,2.74710293e-14,1.232935057e-14,1.017689682e-13,2.088726358e-13,4.084472353e-14,1.320468461e-12,1.437974262e-14,1.147329944e-13,1.529205059e-13,8.654833594e-13,2.461110219e-13,1.665963028e-13,4.694862384e-13,1.003962339e-13,5.237185412e-14,3.681060646e-14,9.628401937e-14,1.798903402e-13,3.224949618e-14,7.226001178e-14,1.172077481e-13,6.802669672e-14,3.838650117e-13,3.734037649e-14,1.247479663e-15
1.625,9.370409195e-14,5.011542164e-14,5.710217748e-13,6.738050767e-14,2.591755954e-14,1.09381501e-13,3.219825008e-13,2.907872736e-14,1.378173334e-14,1.091752671e-13,2.264094464e-13,4.044665271e-14,1.428858823e-12,1.569936734e-14,1.144259267e-13,1.459957689e-13,8.676277641e-13,2.59058374e-13,1.646859285e-13,4.39021985e-13,9.416050037e-14,5.66220542e-14,3.228038666e-14,9.343754384e-14,1.445717322e-13,2.491779654e-14,8.792124869e-14,1.074476384e-13,5.281335895e-14,4.399722609e-13,3.192643303e-14,1.439324621e-15
1.6328125,7.932200727e-14,3.921150359e-14,5.331927887e-13,6.030703304e-14,2.299222234e-14,1.079034021e-13,3.501656741e-13,2.959986591e-14,1.523728277e-14,1.135523722e-13,2.459916779e-13,4.170930553e-14,1.54755471e-12,1.730514947e-14,1.126571523e-13,1.347148307e-13,8.5008454e-13,2.616114531e-13,1.562228247e-13,3.970037559e-13,8.446496046e-14,5.847723727e-14,2.849870718e-14,9.818153017e-14,1.153994606e-13,1.986941272e-14,1.096489817e-13,9.681934631e-14,3.987880314e-14,4.876795231e-13,2.71014849e-14,1.585387202e-15
1.640625,6.405113188e-14,3.005245538e-14,4.748680235e-13,5.285875494e-14,2.006978249e-14,1.037502658e-13,3.671944982e-13,2.90221574e-14,1.640364636e-14,1.14120137e-13,2.65189118e-13,4.540006633e-14,1.625913047e-12,1.998838172e-14,1.09657526e-13,1.209198733e-13,8.254466065e-13,2.54151373e-13,1.414191507e-13,3.471402333e-13,7.140113353e-14,5.715817162e-14,2.475926481e-14,1.113854573e-13,9.214342078e-14,1.677134748e-14,1.368045169e-13,8.955341133e-14,3.028694824e-14,5.173595689e-13,2.297971118e-14,1.616688002e-15
1.6484375,4.96795794e-14,2.307283096e-14,4.025328635e-13,4.635667869e-14,1.766933186e-14,9.851962704e-14,3.646182901e-13,2.703493533e-14,1.718727298e-14,1.095225491e-13,2.786805042e-13,5.042867621e-14,1.653268994e-12,2.358415827e-14,1.045382229e-13,1.061446592e-13,8.010425434e-13,2.358451423e-13,1.21724626e-13,2.936298754e-13,5.686105384e-14,5.16550726e-14,2.194041876e-14,1.339723377e-13,7.651343718e-14,1.564486395e-14,1.664495147e-13,8.662480898e-14,2.343151147e-14,5.159629978e-13,1.942258844e-14,1.645529935e-15
1.65625,3.887748055e-14,1.862700427e-14,3.265687264e-13,4.106035297e-14,1.624245327e-14,9.43664311e-14,3.465885745e-13,2.396406473e-14,1.782304584e-14,1.021965276e-13,2.871494242e-13,5.866843276e-14,1.608507147e-12,2.845784278e-14,9.861284469e-14,9.327619624e-14,7.863236893e-13,2.105261954e-13,1.010069899e-13,2.433853355e-13,4.344348576e-14,4.352593189e-14,2.124909822e-14,1.656665343e-13,6.90777533e-14,1.689624043e-14,1.927488553e-13,8.748381011e-14,1.974816481e-14,4.766137176e-13,1.69951567e-14,1.834914853e-15
1.6640625,3.197643935e-14,1.711116127e-14,2.525998359e-13,3.632895845e-14,1.674426463e-14,8.997195228e-14,3.144681829e-13,2.018389783e-14,1.847242954e-14,9.136447583e-14,2.911416753e-13,7.168538707e-14,1.472504496e-12,3.601691925e-14,9.570315371e-14,8.569477779e-14,7.912429709e-13,1.842927728e-13,8.264790598e-14,2.025928943e-13,3.281794432e-14,3.501617628e-14,2.11313741e-14,2.075246013e-13,6.630975041e-14,1.966311817e-14,2.105416384e-13,8.764086743e-14,1.939367084e-14,4.143316114e-13,1.67590715e-14,2.273545535e-15
1.671875,2.858419323e-14,1.804925051e-14,1.847459498e-13,3.147270338e-14,1.95629567e-14,8.341260197e-14,2.724937535e-13,1.62552344e-14,1.907978128e-14,7.793068561e-14,2.857484513e-13,8.865668723e-14,1.253439339e-12,4.651648792e-14,9.619383808e-14,8.420217355e-14,8.144856953e-13,1.593141175e-13,6.713463142e-14,1.731097316e-13,2.511990244e-14,2.604145994e-14,2.126111931e-14,2.577503838e-13,6.588675356e-14,2.344958471e-14,2.208380494e-13,8.505563056e-14,2.153365859e-14,3.422536314e-13,1.898887537e-14,3.083129287e-15
1.6796875,2.749451079e-14,2.097759958e-14,1.277768243e-13,2.688566128e-14,2.559436667e-14,7.613715531e-14,2.249829559e-13,1.276142586e-14,1.994816234e-14,6.351420058e-14,2.70288529e-13,1.062143065e-13,1.003993859e-12,5.783614814e-14,9.787831505e-14,8.855614795e-14,8.529265962e-13,1.371440093e-13,5.551979372e-14,1.567162844e-13,2.096934363e-14,1.804058783e-14,2.20019929e-14,3.105319354e-13,6.69565949e-14,2.864302625e-14,2.227811068e-13,8.380641154e-14,2.59209796e-14,2.736361319e-13,2.406909452e-14,4.67702275e-15
1.6875,2.809714829e-14,2.484797331e-14,8.572803201e-14,2.308532618e-14,3.531635859e-14,6.957697434e-14,1.771997082e-13,1.017180503e-14,2.094458095e-14,5.061427035e-14,2.488382169e-13,1.222508324e-13,7.61780243e-13,6.965954859e-14,1.021003166e-13,9.737569476e-14,8.933882797e-13,1.183083267e-13,4.823516205e-14,1.511309813e-13,2.006186666e-14,1.185375675e-14,2.214885431e-14,3.558688818e-13,6.677366346e-14,3.495597095e-14,2.157005621e-13,8.55055685e-14,3.094958898e-14,2.163134335e-13,3.197969988e-14,7.214042122e-15
1.6953125,2.982951516e-14,2.924690232e-14,5.66427525e-14,1.946274942e-14,4.909008172e-14,6.203419193e-14,1.343040197e-13,8.742446319e-15,2.204325177e-14,4.020353218e-14,2.233777121e-13,1.348020833e-13,5.508977182e-13,8.154224113e-14,1.086540737e-13,1.104221611e-13,9.271669327e-13,1.040849342e-13,4.51806955e-14,1.537334879e-13,2.155051344e-14,7.556891609e-15,2.042123687e-14,3.880910143e-13,6.263010286e-14,4.141874257e-14,1.980726956e-13,9.233691826e-14,3.615072011e-14,1.84078328e-13,4.303441412e-14,1.075029913e-14
1.703125,3.185026002e-14,3.349659609e-14,3.837154123e-14,1.719855551e-14,6.621501874e-14,5.445607868e-14,9.763427295e-14,8.569017802e-15,2.320046993e-14,3.235320395e-14,1.939243005e-13,1.420799981e-13,4.000532763e-13,9.079710424e-14,1.1511127e-13,1.25227604e-13,9.393047894e-13,9.440471791e-14,4.543226064e-14,1.609410256e-13,2.492245026e-14,4.574967704e-15,1.795939726e-14,4.007904538e-13,5.722297134e-14,4.774984018e-14,1.749515218e-13,1.141177168e-13,4.08870522e-14,1.764728767e-13,5.62370903e-14,1.53733756e-14
1.7109375,3.399767252e-14,3.694535133e-14,3.017410826e-14,1.692194226e-14,8.542308618e-14,4.880519931e-14,6.956611005e-14,9.606123374e-15,2.409441477e-14,2.65910946e-14,1.620425399e-13,1.409325076e-13,3.251437138e-13,9.561968735e-14,1.188481762e-13,1.394280479e-13,9.251627412e-13,8.831981534e-14,4.820362098e-14,1.698832085e-13,2.975201199e-14,3.095134176e-15,1.531962694e-14,3.90526507e-13,5.138616844e-14,5.371059893e-14,1.501377624e-13,1.479363164e-13,4.468250511e-14,1.915305108e-13,7.00820508e-14,2.062761558e-14
1.71875,3.710639111e-14,3.895856793e-14,2.854459866e-14,1.848370445e-14,1.056231649e-13,4.470005999e-14,5.034591789e-14,1.189506851e-14,2.378532294e-14,2.263232638e-14,1.306089236e-13,1.307881573e-13,3.218733485e-13,9.526566887e-14,1.19389239e-13,1.513201903e-13,8.783524844e-13,8.494990329e-14,5.19495058e-14,1.741308844e-13,3.435505702e-14,2.611289668e-15,1.214168516e-14,3.561213258e-13,4.474533718e-14,5.914473212e-14,1.252894841e-13,1.96569878e-13,4.724348159e-14,2.243601822e-13,8.370396969e-14,2.600393778e-14
1.7265625,4.115413358e-14,3.908387166e-14,3.076509831e-14,2.176444326e-14,1.24466685e-13,4.121833297e-14,3.877506556e-14,1.519357615e-14,2.232543008e-14,1.941793435e-14,1.015039266e-13,1.130129492e-13,3.756572227e-13,8.855825777e-14,1.145476717e-13,1.587302657e-13,8.004506462e-13,8.363930827e-14,5.627187926e-14,1.732190531e-13,3.856603312e-14,3.007146848e-15,9.573699823e-15,3.016793956e-13,3.93108687e-14,6.285955644e-14,1.02176252e-13,2.556296898e-13,4.767291082e-14,2.681389933e-13,9.5215791e-14,3.106544701e-14
1.734375,4.671478812e-14,3.72227593e-14,3.593661095e-14,2.583532165e-14,1.384750505e-13,3.814584234e-14,3.394072599e-14,1.929200086e-14,2.03645485e-14,1.665964708e-14,7.664526637e-14,9.242129727e-14,4.791504149e-13,7.726667448e-14,1.058173721e-13,1.602884145e-13,6.954185726e-13,8.371819818e-14,5.995409357e-14,1.668436348e-13,4.276048219e-14,4.199421835e-15,8.190824309e-15,2.396434542e-13,3.727553937e-14,6.449420441e-14,8.174513592e-14,3.185657006e-13,4.621563832e-14,3.16915411e-13,1.015035714e-13,3.525726161e-14
1.7421875,5.484944707e-14,3.384475119e-14,4.198699246e-14,2.942670139e-14,1.460522423e-13,3.498143374e-14,3.300865488e-14,2.334906435e-14,1.771869758e-14,1.440808614e-14,5.852110561e-14,7.217517608e-14,6.211628868e-13,6.395005479e-14,9.566350606e-14,1.557924612e-13,5.765069375e-13,8.64715857e-14,6.294238685e-14,1.53637256e-13,4.632748483e-14,6.279395138e-15,7.786331316e-15,1.799797057e-13,3.874912566e-14,6.389004379e-14,6.366131617e-14,3.725179878e-13,4.330465522e-14,3.614637403e-13,1.019416846e-13,3.771392886e-14
1.75,6.622365047e-14,2.906281187e-14,4.800929429e-14,3.198370547e-14,1.474530041e-13,3.150397024e-14,3.460785002e-14,2.686970698e-14,1.438626422e-14,1.234287889e-14,4.965481624e-14,5.460926124e-14,8.074436471e-13,5.05618785e-14,8.718469474e-14,1.459464321e-13,4.554782164e-13,9.025060463e-14,6.495435596e-14,1.354551715e-13,4.775759713e-14,9.249086539e-15,8.49153707e-15,1.29222737e-13,4.361334163e-14,6.20299613e-14,4.816182854e-14,4.183141004e-13,3.887716307e-14,4.002511423e-13,9.812678202e-14,3.853840677e-14
1.7578125,7.857416149e-14,2.370936718e-14,5.354477712e-14,3.229245824e-14,1.408703892e-13,2.703538119e-14,3.727807506e-14,2.973389e-14,1.160617621e-14,1.125539608e-14,5.148482192e-14,4.268132933e-14,1.020589807e-12,3.874411277e-14,8.196394682e-14,1.298785871e-13,3.391577013e-13,9.310280442e-14,6.465940129e-14,1.140232118e-13,4.779121342e-14,1.26401481e-14,9.832227216e-15,9.212465636e-14,5.040964998e-14,5.840646781e-14,3.56233745e-14,4.501767564e-13,3.38964248e-14,4.284920755e-13,8.8777332e-14,3.768123647e-14
1.765625,8.816755141e-14,1.857115869e-14,5.953519991e-14,2.988115096e-14,1.266036984e-13,2.203762117e-14,3.933580816e-14,3.018112134e-14,9.688963036e-15,1.112402899e-14,6.314435404e-14,3.673012419e-14,1.236321186e-12,3.035934474e-14,8.234479629e-14,1.10105009e-13,2.372123776e-13,9.43724047e-14,6.13263222e-14,9.028047794e-14,4.673858284e-14,1.622494341e-14,1.12282913e-14,7.193143275e-14,5.754419027e-14,5.35018625e-14,2.527335551e-14,4.565882418e-13,2.910204031e-14,4.450142508e-13,7.498943654e-14,3.533249935e-14
1.7734375,9.373503424e-14,1.458585224e-14,6.692753175e-14,2.586815018e-14,1.083974691e-13,1.742274589e-14,4.216040743e-14,2.873644849e-14,8.746696412e-15,1.217560214e-14,8.405157356e-14,3.487487487e-14,1.44734022e-12,2.53970828e-14,8.833961144e-14,8.961211448e-14,1.586447592e-13,9.613334557e-14,5.79034623e-14,6.808006537e-14,4.435627116e-14,2.075469188e-14,1.234129346e-14,6.374337924e-14,6.450887601e-14,4.840345115e-14,1.619799406e-14,4.302755818e-13,2.547919823e-14,4.42361691e-13,6.077186434e-14,3.187218934e-14
1.78125,9.594404788e-14,1.160134192e-14,7.508774479e-14,2.174831325e-14,8.933222359e-14,1.395409253e-14,4.649298089e-14,2.630942109e-14,8.866529862e-15,1.397605835e-14,1.102766403e-13,3.546632902e-14,1.635587258e-12,2.309173709e-14,9.822623778e-14,7.024529027e-14,1.02117216e-13,9.562766623e-14,5.444675096e-14,4.918397477e-14,4.030539352e-14,2.577966516e-14,1.317063628e-14,6.787450909e-14,7.094728959e-14,4.377990027e-14,9.774989062e-15,3.835489468e-13,2.330366761e-14,4.242381756e-13,4.908694676e-14,2.800030657e-14
1.7890625,9.258016283e-14,9.425395903e-15,8.2685825e-14,1.744324613e-14,6.969087382e-14,1.192553686e-14,5.420717356e-14,2.276076272e-14,1.008972274e-14,1.672191991e-14,1.388659351e-13,3.733410137e-14,1.762176419e-12,2.254691985e-14,1.097362428e-13,5.259574489e-14,6.585056576e-14,9.151322983e-14,4.968476515e-14,3.410487455e-14,3.537115007e-14,3.058307117e-14,1.345862056e-14,8.284971786e-14,7.448230278e-14,3.960006831e-14,6.432961069e-15,3.265381824e-13,2.169994477e-14,3.918524304e-13,3.950646269e-14,2.421907932e-14
1.796875,8.294217071e-14,8.657668057e-15,8.752145726e-14,1.420476577e-14,5.1787508e-14,1.109888862e-14,6.479826891e-14,1.832925242e-14,1.189563602e-14,1.955126427e-14,1.633993879e-13,3.726892006e-14,1.805293896e-12,2.136580378e-14,1.177067969e-13,3.710628128e-14,4.533800702e-14,8.264791257e-14,4.333840151e-14,2.322601324e-14,2.986083469e-14,3.500022576e-14,1.325157826e-14,1.065080048e-13,7.386786936e-14,3.643721392e-14,4.686671962e-15,2.624934128e-13,2.204405439e-14,3.489863132e-13,3.396850136e-14,2.103791814e-14
1.8046875,7.107304774e-14,8.486940052e-15,8.932942071e-14,1.276556295e-14,3.853705622e-14,1.16144248e-14,7.967109288e-14,1.441507317e-14,1.38798966e-14,2.233217589e-14,1.794398827e-13,3.493596886e-14,1.7592424e-12,1.90169917e-14,1.183636765e-13,2.603726223e-14,3.939547763e-14,7.325562771e-14,3.833163731e-14,1.707000283e-14,2.430379047e-14,4.010225414e-14,1.275783602e-14,1.422118242e-13,7.143352588e-14,3.606197459e-14,5.536210597e-15,2.019706149e-13,2.390877055e-14,2.989964249e-13,3.394133255e-14,1.959737621e-14
