"Time","Fp1","AF3","F7","F3","FC1","FC5","T7","C3","CP1","CP5","P7","P3","Pz","PO3","O1","Oz","O2","PO4","P4","P8","CP6","CP2","C4","T8","FC6","FC2","F4","F8","AF4","Fp2","Fz","Cz"
0.0078125,4.173268838e-13,9.138746409e-13,9.602420602e-14,6.275922303e-13,1.542044637e-13,1.152963327e-13,6.666312864e-14,5.632070847e-14,1.186661367e-13,4.997933244e-14,9.869663287e-14,2.144287185e-13,4.75305375e-13,3.680622932e-13,3.337607247e-13,6.96358884e-13,5.141776533e-13,6.767918785e-13,4.804356482e-13,4.856687085e-13,3.516498753e-13,1.332117819e-13,1.752015476e-13,2.142786707e-13,1.192035725e-13,9.154863291e-14,3.550242017e-13,3.946963575e-14,7.170529409e-13,3.227674276e-13,2.104133866e-12,8.71006092e-14
0.015625,4.33176299e-13,9.534594276e-13,1.001089669e-13,6.60353723e-13,1.630896924e-13,1.226929578e-13,6.858613619e-14,5.812406989e-14,1.21811651e-13,5.010335546e-14,1.02458579e-13,2.21525255e-13,4.904635889e-13,3.794665608e-13,3.472422045e-13,7.270892664e-13,5.400373426e-13,7.052038709e-13,4.995687749e-13,5.133380657e-13,3.708129768e-13,1.385076431e-13,1.837427109e-13,2.192324332e-13,1.232158126e-13,9.644212428e-14,3.719324567e-13,3.950611241e-14,7.482214728e-13,3.346387994e-13,2.199274901e-12,8.947412111e-14
0.0234375,4.484482717e-13,9.92718519e-13,1.042098387e-13,6.932574049e-13,1.719182701e-13,1.302472131e-13,7.05607478e-14,5.983347883e-14,1.247292835e-13,5.011318366e-14,1.062079688e-13,2.282704617e-13,5.047978353e-13,3.900452938e-13,3.603646192e-13,7.571548537e-13,5.658805686e-13,7.329478327e-13,5.181877531e-13,5.420681915e-13,3.903595622e-13,1.436898865e-13,1.921986728e-13,2.239130052e-13,1.270570363e-13,1.012146896e-13,3.88711882e-13,3.937416466e-14,7.788523536e-13,3.463029151e-13,2.294346196e-12,9.174502666e-14
0.03125,4.631484765e-13,1.031648297e-12,1.083447608e-13,7.264512137e-13,1.80752925e-13,1.379641113e-13,7.265419473e-14,6.152853192e-14,1.274686234e-13,5.009343695e-14,1.101131996e-13,2.347393893e-13,5.183974375e-13,3.99880511e-13,3.732237099e-13,7.864583913e-13,5.913157747e-13,7.599334666e-13,5.362279227e-13,5.717091519e-13,4.098615118e-13,1.487641919e-13,2.004387379e-13,2.282642213e-13,1.306788011e-13,1.059089245e-13,4.054701941e-13,3.912561194e-14,8.091134618e-13,3.578375161e-13,2.388975335e-12,9.393240098e-14
0.0390625,4.772537546e-13,1.069885293e-12,1.124925613e-13,7.595774643e-13,1.895332468e-13,1.458487603e-13,7.483506137e-14,6.31712062e-14,1.300545e-13,5.004478191e-14,1.14294113e-13,2.409615672e-13,5.311151817e-13,4.091353395e-13,3.859064237e-13,8.148221414e-13,6.161506368e-13,7.858761268e-13,5.533444582e-13,6.019021377e-13,4.291022749e-13,1.536943644e-13,2.085200132e-13,2.323118446e-13,1.341033429e-13,1.105584683e-13,4.221462564e-13,3.881658662e-14,8.390494932e-13,3.690045507e-13,2.481840901e-12,9.602656666e-14
0.046875,4.906975548e-13,1.107229222e-12,1.166059821e-13,7.92339855e-13,1.981379949e-13,1.538846132e-13,7.703113678e-14,6.473701841e-14,1.324482977e-13,4.991907621e-14,1.185207112e-13,2.46771567e-13,5.42623477e-13,4.174939526e-13,3.980054101e-13,8.416081576e-13,6.400796591e-13,8.104418711e-13,5.694135847e-13,6.325316455e-13,4.481932434e-13,1.584236353e-13,2.164082971e-13,2.36032595e-13,1.371703772e-13,1.150299778e-13,4.383732851e-13,3.83820883e-14,8.683024436e-13,3.795998707e-13,2.572803444e-12,9.810515562e-14
0.0546875,5.034086021e-13,1.143615379e-12,1.207444292e-13,8.248653229e-13,2.065645292e-13,1.62054769e-13,7.935946323e-14,6.624714177e-14,1.346291908e-13,4.972234868e-14,1.226978785e-13,2.519697968e-13,5.529539033e-13,4.245633244e-13,4.09256628e-13,8.667723998e-13,6.631433252e-13,8.336235708e-13,5.846727712e-13,6.636938012e-13,4.668727492e-13,1.629704698e-13,2.238912705e-13,2.394081766e-13,1.397687401e-13,1.192166041e-13,4.540338859e-13,3.781005074e-14,8.966001175e-13,3.896464184e-13,2.661684448e-12,1.001492471e-13
0.0625,5.153260205e-13,1.17888189e-12,1.248554715e-13,8.570488259e-13,2.146671064e-13,1.702294587e-13,8.1904954e-14,6.763992044e-14,1.366118962e-13,4.950298777e-14,1.269699388e-13,2.565717754e-13,5.621850548e-13,4.304129115e-13,4.197474856e-13,8.904680212e-13,6.853684038e-13,8.553220739e-13,5.990641533e-13,6.951006682e-13,4.850429076e-13,1.672874003e-13,2.309731948e-13,2.424825866e-13,1.420824241e-13,1.231247239e-13,4.692252837e-13,3.714786861e-14,9.240126468e-13,3.991758719e-13,2.747658559e-12,1.020794737e-13
0.0703125,5.263738032e-13,1.212859151e-12,1.288750053e-13,8.88613996e-13,2.223787501e-13,1.783489052e-13,8.458792724e-14,6.89249933e-14,1.384031518e-13,4.925506446e-14,1.314150605e-13,2.606535892e-13,5.702324832e-13,4.353175576e-13,4.294639058e-13,9.12429126e-13,7.063801365e-13,8.754287156e-13,6.123182634e-13,7.265577142e-13,5.027754275e-13,1.713471696e-13,2.378359655e-13,2.452540217e-13,1.44198368e-13,1.268430691e-13,4.839069516e-13,3.641902878e-14,9.505129457e-13,4.080901983e-13,2.830252989e-12,1.040251941e-13
0.078125,5.36400558e-13,1.2452043e-12,1.33034117e-13,9.193232704e-13,2.297838851e-13,1.864372539e-13,8.737830307e-14,7.017657876e-14,1.399701627e-13,4.894777909e-14,1.359175935e-13,2.641013908e-13,5.770500102e-13,4.392086258e-13,4.383296953e-13,9.325010892e-13,7.261675402e-13,8.939210669e-13,6.243367234e-13,7.578966573e-13,5.197212599e-13,1.751759834e-13,2.443857467e-13,2.478013163e-13,1.45957699e-13,1.303704892e-13,4.97947305e-13,3.56391566e-14,9.757949899e-13,4.162404448e-13,2.908147842e-12,1.060470883e-13
0.0859375,5.453592633e-13,1.275657823e-12,1.374920657e-13,9.488464739e-13,2.367128191e-13,1.944009299e-13,9.033486675e-14,7.132509061e-14,1.413304537e-13,4.863284207e-14,1.403554465e-13,2.668818898e-13,5.825357303e-13,4.418130371e-13,4.462209372e-13,9.502703164e-13,7.443427266e-13,9.104886697e-13,6.350519488e-13,7.888823895e-13,5.356998839e-13,1.786961313e-13,2.502814977e-13,2.499661462e-13,1.472651085e-13,1.335257342e-13,5.112139343e-13,3.480331689e-14,9.997195407e-13,4.235803737e-13,2.979895448e-12,1.07996809e-13
0.09375,5.534353929e-13,1.304311305e-12,1.421094089e-13,9.771112482e-13,2.431101883e-13,2.023512267e-13,9.346437255e-14,7.232271879e-14,1.425460299e-13,4.83372057e-14,1.44810257e-13,2.691199289e-13,5.866658512e-13,4.432321382e-13,4.531426256e-13,9.655935341e-13,7.605312303e-13,9.251575253e-13,6.445265365e-13,8.199248244e-13,5.508807372e-13,1.819677649e-13,2.555708099e-13,2.513116305e-13,1.482088101e-13,1.363234278e-13,5.236896327e-13,3.394174551e-14,1.022436281e-12,4.302740287e-13,3.045543218e-12,1.099293146e-13
0.1015625,5.605482799e-13,1.330871236e-12,1.46780745e-13,1.003933541e-12,2.490197364e-13,2.103006682e-13,9.663128613e-14,7.322629522e-14,1.435865368e-13,4.79648404e-14,1.492474958e-13,2.70668045e-13,5.894918225e-13,4.434764691e-13,4.589785045e-13,9.786427534e-13,7.75096523e-13,9.37966859e-13,6.527803852e-13,8.506303144e-13,5.650890113e-13,1.851238035e-13,2.606118418e-13,2.519856979e-13,1.48813382e-13,1.388550908e-13,5.351956825e-13,3.306663157e-14,1.043696291e-12,4.364244321e-13,3.105159865e-12,1.120439934e-13
0.109375,5.662749333e-13,1.354814856e-12,1.515225654e-13,1.028766134e-12,2.541918757e-13,2.178238798e-13,9.976791581e-14,7.403766608e-14,1.444474601e-13,4.75027154e-14,1.534417761e-13,2.71366158e-13,5.909150544e-13,4.422042643e-13,4.632678354e-13,9.888032835e-13,7.875338064e-13,9.482374919e-13,6.594179894e-13,8.796393612e-13,5.779697641e-13,1.879905302e-13,2.652736083e-13,2.525254e-13,1.489888669e-13,1.409719522e-13,5.454282511e-13,3.211350092e-14,1.063031248e-12,4.418088848e-13,3.15868395e-12,1.143804581e-13
0.1171875,5.70575819e-13,1.376275764e-12,1.564457107e-13,1.051551362e-12,2.586612529e-13,2.249692511e-13,1.030563373e-13,7.475693778e-14,1.452275745e-13,4.706794931e-14,1.574453953e-13,2.714048011e-13,5.909707119e-13,4.395964611e-13,4.662390437e-13,9.961100875e-13,7.975030574e-13,9.559557309e-13,6.642076351e-13,9.072260944e-13,5.894142197e-13,1.904249318e-13,2.692498214e-13,2.52886759e-13,1.488210897e-13,1.427286426e-13,5.546517725e-13,3.11213094e-14,1.08073657e-12,4.462471456e-13,3.206648827e-12,1.169064053e-13
0.125,5.737035501e-13,1.395328144e-12,1.617479043e-13,1.072273224e-12,2.625130248e-13,2.319953626e-13,1.065136323e-13,7.536607732e-14,1.458931122e-13,4.666244665e-14,1.614088681e-13,2.707656399e-13,5.897523972e-13,4.358760849e-13,4.682716685e-13,1.001040973e-12,8.055860721e-13,9.616267443e-13,6.673725117e-13,9.341589977e-13,5.99421882e-13,1.925692125e-13,2.726502113e-13,2.527616412e-13,1.483609163e-13,1.442115217e-13,5.629903715e-13,3.017746374e-14,1.09699119e-12,4.498301135e-13,3.248683664e-12,1.195732198e-13
0.1328125,5.756808657e-13,1.411591041e-12,1.674907033e-13,1.090580272e-12,2.654665426e-13,2.386187096e-13,1.099095973e-13,7.584990112e-14,1.463375889e-13,4.61989085e-14,1.652404136e-13,2.692368469e-13,5.87130302e-13,4.30747501e-13,4.688583205e-13,1.002909642e-12,8.113485539e-13,9.649332658e-13,6.690412391e-13,9.598734238e-13,6.080428084e-13,1.945320539e-13,2.755289243e-13,2.52161657e-13,1.474017907e-13,1.451809137e-13,5.698763249e-13,2.925554986e-14,1.111079704e-12,4.526608304e-13,3.283326459e-12,1.224055761e-13
0.140625,5.765163093e-13,1.425127053e-12,1.735780412e-13,1.106709577e-12,2.677030034e-13,2.448812538e-13,1.133046249e-13,7.631951983e-14,1.466473548e-13,4.57009481e-14,1.688464883e-13,2.670000938e-13,5.831703825e-13,4.244837924e-13,4.68049946e-13,1.001910863e-12,8.147211112e-13,9.658026056e-13,6.692152155e-13,9.840379079e-13,6.152349003e-13,1.963197978e-13,2.778424188e-13,2.51138815e-13,1.459635942e-13,1.457181203e-13,5.753608807e-13,2.837113364e-14,1.12298542e-12,4.548155293e-13,3.309738208e-12,1.25536295e-13
0.1484375,5.762350929e-13,1.436085172e-12,1.800140434e-13,1.120733321e-12,2.694556926e-13,2.510122519e-13,1.168607113e-13,7.678361811e-14,1.469310508e-13,4.523920654e-14,1.722283291e-13,2.642587388e-13,5.780908924e-13,4.175881374e-13,4.663436274e-13,9.987956857e-13,8.163600003e-13,9.645186081e-13,6.678838906e-13,1.006561165e-12,6.207367108e-13,1.978944023e-13,2.796849613e-13,2.496601991e-13,1.442629134e-13,1.460498693e-13,5.798486829e-13,2.760433223e-14,1.133376568e-12,4.563083517e-13,3.3281546e-12,1.289471904e-13
0.15625,5.747744755e-13,1.444145789e-12,1.869781517e-13,1.132020211e-12,2.703595772e-13,2.567524046e-13,1.204433724e-13,7.715509618e-14,1.471427389e-13,4.481278476e-14,1.754133845e-13,2.608961001e-13,5.71863647e-13,4.098086615e-13,4.633962441e-13,9.928787713e-13,8.157465884e-13,9.608282164e-13,6.650089157e-13,1.027066032e-12,6.244908503e-13,1.992384608e-13,2.809703391e-13,2.477981515e-13,1.422923457e-13,1.459685097e-13,5.829785613e-13,2.696288439e-14,1.141997297e-12,4.570669749e-13,3.338647993e-12,1.325683901e-13
0.1640625,5.72265927e-13,1.449195113e-12,1.94654848e-13,1.140411702e-12,2.702978038e-13,2.620263432e-13,1.23983825e-13,7.749533032e-14,1.472902099e-13,4.441274798e-14,1.783903111e-13,2.568908615e-13,5.645438494e-13,4.009412577e-13,4.59028779e-13,9.838881661e-13,8.126282288e-13,9.547373771e-13,6.607076971e-13,1.045569108e-12,6.266375033e-13,2.004607113e-13,2.816699862e-13,2.456184683e-13,1.400369065e-13,1.453663328e-13,5.845001773e-13,2.644259607e-14,1.148402192e-12,4.571763235e-13,3.340683899e-12,1.364579252e-13
0.171875,5.688932607e-13,1.451342886e-12,2.030853874e-13,1.145923407e-12,2.69356893e-13,2.668961104e-13,1.275746492e-13,7.782943081e-14,1.474624176e-13,4.407587369e-14,1.810687054e-13,2.523845724e-13,5.56297513e-13,3.912156044e-13,4.534190223e-13,9.72167238e-13,8.072079305e-13,9.463938611e-13,6.550382351e-13,1.061878919e-12,6.271298224e-13,2.015950261e-13,2.820487174e-13,2.431348313e-13,1.375726449e-13,1.443449384e-13,5.845476612e-13,2.606812084e-14,1.152744463e-12,4.566696696e-13,3.334540121e-12,1.406280237e-13
0.1796875,5.646830319e-13,1.450604333e-12,2.122105926e-13,1.148391848e-12,2.674685148e-13,2.713405187e-13,1.311545461e-13,7.813748754e-14,1.476358296e-13,4.380002578e-14,1.83437105e-13,2.473911105e-13,5.471098429e-13,3.808322187e-13,4.465454895e-13,9.576943309e-13,7.992795704e-13,9.357170833e-13,6.480284964e-13,1.075823845e-12,6.260783335e-13,2.026015285e-13,2.822283723e-13,2.405314011e-13,1.348981987e-13,1.428990782e-13,5.830219277e-13,2.584945452e-14,1.155049384e-12,4.553534298e-13,3.321337813e-12,1.451309854e-13
0.1875,5.596774327e-13,1.447127587e-12,2.219558398e-13,1.148081153e-12,2.647586989e-13,2.754893781e-13,1.345809629e-13,7.844326266e-14,1.477677241e-13,4.35261301e-14,1.854699839e-13,2.418468054e-13,5.371367037e-13,3.69915915e-13,4.385878666e-13,9.408364665e-13,7.891880804e-13,9.230923936e-13,6.40010837e-13,1.087670961e-12,6.236221092e-13,2.035989051e-13,2.821129793e-13,2.379464263e-13,1.320058376e-13,1.41070344e-13,5.79981916e-13,2.579836315e-14,1.155378809e-12,4.532989294e-13,3.301232632e-12,1.500613848e-13
0.1953125,5.538949793e-13,1.440923374e-12,2.32313915e-13,1.145079667e-12,2.612554575e-13,2.791647088e-13,1.377740604e-13,7.869214294e-14,1.479324295e-13,4.326137591e-14,1.870544673e-13,2.358360333e-13,5.266401492e-13,3.585018136e-13,4.296219272e-13,9.217231735e-13,7.769813783e-13,9.088165107e-13,6.310642819e-13,1.097237585e-12,6.194328457e-13,2.046100161e-13,2.815804055e-13,2.351089857e-13,1.289666782e-13,1.38892948e-13,5.756665255e-13,2.594740732e-14,1.153977176e-12,4.507472673e-13,3.27326726e-12,1.553311845e-13
0.203125,5.474064454e-13,1.431839538e-12,2.434534602e-13,1.139258533e-12,2.569198238e-13,2.822737776e-13,1.406943372e-13,7.894323771e-14,1.481575742e-13,4.303627129e-14,1.882456604e-13,2.294676277e-13,5.154619484e-13,3.467022678e-13,4.197465007e-13,9.004795655e-13,7.626943682e-13,8.927842344e-13,6.209048296e-13,1.104474129e-12,6.134507843e-13,2.054686364e-13,2.806429232e-13,2.318300599e-13,1.259019412e-13,1.364087078e-13,5.701024425e-13,2.633434365e-14,1.150771061e-12,4.476480106e-13,3.236918685e-12,1.608538567e-13
0.2109375,5.404309866e-13,1.420085405e-12,2.555350772e-13,1.130862055e-12,2.519231952e-13,2.851385654e-13,1.433185441e-13,7.926122517e-14,1.483751064e-13,4.278841265e-14,1.891171739e-13,2.226786458e-13,5.035122956e-13,3.347117397e-13,4.092402261e-13,8.77590118e-13,7.469664986e-13,8.751084052e-13,6.096706753e-13,1.109413631e-12,6.059949208e-13,2.06230764e-13,2.794786669e-13,2.284071305e-13,1.227640569e-13,1.337050687e-13,5.631808882e-13,2.695618239e-14,1.145684143e-12,4.440036878e-13,3.192850813e-12,1.666763471e-13
0.21875,5.330336117e-13,1.405964626e-12,2.684898131e-13,1.119915332e-12,2.462685064e-13,2.876176574e-13,1.456263422e-13,7.948628449e-14,1.48637415e-13,4.252546955e-14,1.895992183e-13,2.15502503e-13,4.912520588e-13,3.225563787e-13,3.978131017e-13,8.526232459e-13,7.291670009e-13,8.558628156e-13,5.976855991e-13,1.111255631e-12,5.970133302e-13,2.071090418e-13,2.781140776e-13,2.250135642e-13,1.194254109e-13,1.307432471e-13,5.548270785e-13,2.779380281e-14,1.13896318e-12,4.400338739e-13,3.141942038e-12,1.728745304e-13
0.2265625,5.252512946e-13,1.38966148e-12,2.823023263e-13,1.106366959e-12,2.399645803e-13,2.895482288e-13,1.477015061e-13,7.963414043e-14,1.491008659e-13,4.239049142e-14,1.897230847e-13,2.081638343e-13,4.789916918e-13,3.103691746e-13,3.853313113e-13,8.255594063e-13,7.090239091e-13,8.35232202e-13,5.850180339e-13,1.109955605e-12,5.866509358e-13,2.081057234e-13,2.765549748e-13,2.215164082e-13,1.160872465e-13,1.276074699e-13,5.453296781e-13,2.890748513e-14,1.13098403e-12,4.358080627e-13,3.084938899e-12,1.794907222e-13
0.234375,5.173185903e-13,1.371531844e-12,2.9712023e-13,1.090601634e-12,2.332006383e-13,2.912074852e-13,1.496599094e-13,7.98233011e-14,1.497684096e-13,4.239351596e-14,1.895685952e-13,2.007202922e-13,4.666000118e-13,2.984229927e-13,3.723043412e-13,7.97442621e-13,6.878710017e-13,8.136867366e-13,5.717656061e-13,1.106389444e-12,5.752118523e-13,2.091184281e-13,2.749995547e-13,2.180191012e-13,1.129358275e-13,1.244983611e-13,5.350888173e-13,3.035187587e-14,1.122019984e-12,4.312869246e-13,3.023110075e-12,1.864243699e-13
0.2421875,5.092824902e-13,1.351743744e-12,3.128905596e-13,1.072804474e-12,2.260188482e-13,2.92520057e-13,1.514252208e-13,7.996375312e-14,1.505064117e-13,4.239087181e-14,1.891405688e-13,1.930792444e-13,4.540207534e-13,2.867588517e-13,3.588887179e-13,7.684230256e-13,6.657876189e-13,7.912760928e-13,5.579346072e-13,1.100485383e-12,5.623410684e-13,2.101395012e-13,2.734194058e-13,2.146960528e-13,1.098216917e-13,1.21402366e-13,5.240343795e-13,3.205934721e-14,1.111931898e-12,4.264480601e-13,2.956794146e-12,1.936007051e-13
0.25,5.010775165e-13,1.330190759e-12,3.295567886e-13,1.052934899e-12,2.184286928e-13,2.9341657e-13,1.529464582e-13,8.005180869e-14,1.512780306e-13,4.235266934e-14,1.884690421e-13,1.852503685e-13,4.413230801e-13,2.753004615e-13,3.450413248e-13,7.383542414e-13,6.42307547e-13,7.679581659e-13,5.434986331e-13,1.092028586e-12,5.480391863e-13,2.112139142e-13,2.717082146e-13,2.114223093e-13,1.06736192e-13,1.182917732e-13,5.120342376e-13,3.39914007e-14,1.100473739e-12,4.212804171e-13,2.885337238e-12,2.010664054e-13
0.2578125,4.928945959e-13,1.307026749e-12,3.474027927e-13,1.031173328e-12,2.104371441e-13,2.941356794e-13,1.543381681e-13,8.012876809e-14,1.521474516e-13,4.237235865e-14,1.875889972e-13,1.773520938e-13,4.286381011e-13,2.641044147e-13,3.308759544e-13,7.076019125e-13,6.179563144e-13,7.440743694e-13,5.287684449e-13,1.081375707e-12,5.329893607e-13,2.123940799e-13,2.700776517e-13,2.081423411e-13,1.038284136e-13,1.152024964e-13,4.991645357e-13,3.621127175e-14,1.087765441e-12,4.159047802e-13,2.809570161e-12,2.08741792e-13
0.265625,4.847892744e-13,1.282372394e-12,3.665618917e-13,1.007664822e-12,2.020547913e-13,2.945864345e-13,1.555522628e-13,8.013691407e-14,1.531362771e-13,4.246652226e-14,1.865120205e-13,1.695511284e-13,4.162441448e-13,2.533620867e-13,3.1642214e-13,6.762543339e-13,5.928148057e-13,7.197408542e-13,5.139323969e-13,1.068249488e-12,5.171863858e-13,2.137172848e-13,2.685495539e-13,2.049931677e-13,1.011103281e-13,1.121055815e-13,4.854534476e-13,3.872674266e-14,1.073929693e-12,4.104308938e-13,2.730214001e-12,2.165432468e-13
0.2734375,4.765763194e-13,1.256148208e-12,3.868712823e-13,9.824618524e-13,1.934560633e-13,2.947113597e-13,1.565281396e-13,8.008887744e-14,1.542354204e-13,4.257492207e-14,1.852363113e-13,1.619450432e-13,4.042349763e-13,2.432249353e-13,3.018504458e-13,6.44433469e-13,5.668619566e-13,6.949041001e-13,4.988557134e-13,1.052341109e-12,5.003535762e-13,2.151736689e-13,2.669005242e-13,2.019460319e-13,9.858595593e-14,1.090351842e-13,4.710854232e-13,4.151001141e-14,1.058999044e-12,4.04826303e-13,2.646931429e-12,2.245072548e-13
0.28125,4.684145648e-13,1.228783905e-12,4.083783927e-13,9.557609769e-13,1.84671693e-13,2.947277902e-13,1.574254424e-13,7.99910021e-14,1.554731123e-13,4.272807395e-14,1.83769362e-13,1.545092295e-13,3.924036855e-13,2.336471252e-13,2.873099777e-13,6.124054876e-13,5.405433889e-13,6.698460144e-13,4.836194109e-13,1.034451707e-12,4.829355594e-13,2.167136403e-13,2.653565373e-13,1.989795362e-13,9.631961256e-14,1.060502079e-13,4.562520754e-13,4.457931157e-14,1.043193951e-12,3.991194138e-13,2.561840807e-12,2.326520059e-13
0.2890625,4.607003825e-13,1.200884637e-12,4.3114659e-13,9.278593718e-13,1.756204613e-13,2.946363718e-13,1.581901517e-13,7.985975182e-14,1.568309441e-13,4.299468306e-14,1.821637823e-13,1.472562265e-13,3.806469205e-13,2.246291258e-13,2.72770491e-13,5.803690215e-13,5.140854019e-13,6.448988208e-13,4.684652714e-13,1.015372293e-12,4.654166409e-13,2.182830802e-13,2.642987378e-13,1.963255511e-13,9.441902188e-14,1.031495829e-13,4.408286104e-13,4.793197037e-14,1.026602473e-12,3.933492919e-13,2.477605313e-12,2.409734056e-13
0.296875,4.534498921e-13,1.172266856e-12,4.548648422e-13,8.989680799e-13,1.664578748e-13,2.94397323e-13,1.58676156e-13,7.969656112e-14,1.581708821e-13,4.331528236e-14,1.803904764e-13,1.402996856e-13,3.691641983e-13,2.164025281e-13,2.584032266e-13,5.486101747e-13,4.87589865e-13,6.201710941e-13,4.535677868e-13,9.949429554e-13,4.478863253e-13,2.198937581e-13,2.635581591e-13,1.941175217e-13,9.291691998e-14,1.003301874e-13,4.248408601e-13,5.154140788e-14,1.009129736e-12,3.874604155e-13,2.392994647e-12,2.492648671e-13
0.3046875,4.464002496e-13,1.142487618e-12,4.791168926e-13,8.691445584e-13,1.573216254e-13,2.940358902e-13,1.590859728e-13,7.937345748e-14,1.594250643e-13,4.363797748e-14,1.783396429e-13,1.336428783e-13,3.582528932e-13,2.089802938e-13,2.443121942e-13,5.171501445e-13,4.61015112e-13,5.957315995e-13,4.391503909e-13,9.7286403e-13,4.30335164e-13,2.216276897e-13,2.628660737e-13,1.92302449e-13,9.169293109e-14,9.759755591e-14,4.085760073e-13,5.537262359e-14,9.908201586e-13,3.814892363e-13,2.306031099e-12,2.572402848e-13
0.3125,4.395807855e-13,1.111856248e-12,5.038270718e-13,8.385591665e-13,1.481797581e-13,2.935018281e-13,1.59467732e-13,7.889540339e-14,1.607110888e-13,4.402577506e-14,1.760739231e-13,1.271595885e-13,3.4795563e-13,2.020380148e-13,2.302677833e-13,4.85950814e-13,4.344375853e-13,5.717255593e-13,4.253143297e-13,9.493385657e-13,4.127345066e-13,2.235064763e-13,2.623604792e-13,1.908896495e-13,9.075521817e-14,9.499182645e-14,3.921180202e-13,5.941579408e-14,9.71744494e-13,3.755078507e-13,2.21796145e-12,2.649736389e-13
0.3203125,4.332985327e-13,1.081129536e-12,5.292919561e-13,8.077118466e-13,1.39089182e-13,2.929869765e-13,1.596281453e-13,7.831758452e-14,1.620620987e-13,4.446219247e-14,1.738170909e-13,1.209546043e-13,3.38134636e-13,1.957021081e-13,2.164329115e-13,4.554972272e-13,4.08410502e-13,5.484345708e-13,4.120291508e-13,9.249640734e-13,3.951630029e-13,2.254575243e-13,2.621273734e-13,1.898295355e-13,9.019359008e-14,9.258912947e-14,3.755435725e-13,6.371229868e-14,9.520938647e-13,3.695065379e-13,2.131123018e-12,2.72598049e-13
0.328125,4.275851435e-13,1.050602691e-12,5.55452712e-13,7.770450032e-13,1.302293541e-13,2.926954828e-13,1.597039121e-13,7.75496576e-14,1.633569539e-13,4.487961086e-14,1.716662715e-13,1.152331863e-13,3.288501076e-13,1.904966487e-13,2.034598518e-13,4.263923358e-13,3.833538892e-13,5.261782584e-13,3.993802443e-13,9.002680246e-13,3.77800937e-13,2.274537415e-13,2.620706549e-13,1.889639981e-13,8.994691773e-14,9.04861735e-14,3.59139344e-13,6.821390441e-14,9.322598529e-13,3.635360209e-13,2.045997005e-12,2.800225756e-13
0.3359375,4.222282899e-13,1.020059776e-12,5.817946619e-13,7.46530796e-13,1.216808828e-13,2.924423269e-13,1.598334758e-13,7.66441316e-14,1.64597364e-13,4.535328566e-14,1.695304762e-13,1.098694228e-13,3.201476845e-13,1.862974191e-13,1.912883953e-13,3.985441001e-13,3.592120744e-13,5.048950986e-13,3.873967898e-13,8.751096742e-13,3.6076771e-13,2.29516951e-13,2.62236501e-13,1.882793933e-13,8.998667173e-14,8.867327701e-14,3.429091147e-13,7.285679081e-14,9.122789907e-13,3.576261999e-13,1.961878767e-12,2.871607436e-13
0.34375,4.1723397e-13,9.894652328e-13,6.083442597e-13,7.16048474e-13,1.13368488e-13,2.921917812e-13,1.599800581e-13,7.569538809e-14,1.658324764e-13,4.59852971e-14,1.673369826e-13,1.047392444e-13,3.119187171e-13,1.826395835e-13,1.79220413e-13,3.713749433e-13,3.356477758e-13,4.843419856e-13,3.760324085e-13,8.493329449e-13,3.441203373e-13,2.31601158e-13,2.626126027e-13,1.879121422e-13,9.034823607e-14,8.697654953e-14,3.266534452e-13,7.76893468e-14,8.918920037e-13,3.516878655e-13,1.878906967e-12,2.938630004e-13
0.3515625,4.126384305e-13,9.59050507e-13,6.352568497e-13,6.858110555e-13,1.052838267e-13,2.921167734e-13,1.603338772e-13,7.462338145e-14,1.669726857e-13,4.675933656e-14,1.65092464e-13,9.991880036e-14,3.042897651e-13,1.79552547e-13,1.673464915e-13,3.450098835e-13,3.126461259e-13,4.647391262e-13,3.653998125e-13,8.234658937e-13,3.277918472e-13,2.337002853e-13,2.63097557e-13,1.879228064e-13,9.10638942e-14,8.540472664e-14,3.105628459e-13,8.264942549e-14,8.711577991e-13,3.457309092e-13,1.797653526e-12,2.999786594e-13
0.359375,4.08372258e-13,9.288524022e-13,6.621068136e-13,6.560159786e-13,9.747022121e-14,2.920842807e-13,1.609105621e-13,7.339008696e-14,1.679782675e-13,4.760035261e-14,1.627622545e-13,9.534397296e-14,2.973220872e-13,1.771131855e-13,1.561300379e-13,3.199915421e-13,2.907322561e-13,4.463282744e-13,3.55525458e-13,7.976166735e-13,3.11773395e-13,2.35910478e-13,2.638148895e-13,1.882283578e-13,9.215219336e-14,8.412068044e-14,2.94792792e-13,8.764765062e-14,8.501988549e-13,3.398602105e-13,1.71784508e-12,3.05563988e-13
0.3671875,4.045415678e-13,8.988233982e-13,6.888527118e-13,6.266470178e-13,8.988146093e-14,2.920657349e-13,1.614305447e-13,7.202480179e-14,1.688817968e-13,4.844953215e-14,1.603314822e-13,9.101417708e-14,2.906445307e-13,1.752204421e-13,1.454160785e-13,2.96161605e-13,2.700263903e-13,4.288529263e-13,3.461984079e-13,7.714324658e-13,2.963302639e-13,2.381590159e-13,2.648310532e-13,1.887876444e-13,9.343615156e-14,8.302940284e-14,2.79098935e-13,9.275258867e-14,8.288870862e-13,3.340536522e-13,1.639158907e-12,3.106145594e-13
0.375,4.010449878e-13,8.68928902e-13,7.15584312e-13,5.976863399e-13,8.254859187e-14,2.922551138e-13,1.619697388e-13,7.053404135e-14,1.6962854e-13,4.932274875e-14,1.578725353e-13,8.706034734e-14,2.841316892e-13,1.738881331e-13,1.351443891e-13,2.733905939e-13,2.50271334e-13,4.121680205e-13,3.372965591e-13,7.453047584e-13,2.815318158e-13,2.402398025e-13,2.659149251e-13,1.89631711e-13,9.482250536e-14,8.201423111e-14,2.635413677e-13,9.793279262e-14,8.071785199e-13,3.281537928e-13,1.561746202e-12,3.149701786e-13
0.3828125,3.97448206e-13,8.389735693e-13,7.416805413e-13,5.690695331e-13,7.55485555e-14,2.924621299e-13,1.62783053e-13,6.891179908e-14,1.702017307e-13,5.031787644e-14,1.553713397e-13,8.341127663e-14,2.781281501e-13,1.730613005e-13,1.254680525e-13,2.519292731e-13,2.315182541e-13,3.964519795e-13,3.289226153e-13,7.1965862e-13,2.671871743e-13,2.421758458e-13,2.670071734e-13,1.907093937e-13,9.656880254e-14,8.118498236e-14,2.484319695e-13,1.031024263e-13,7.851043859e-13,3.220149301e-13,1.486038334e-12,3.186199791e-13
0.390625,3.938325971e-13,8.091693746e-13,7.669352797e-13,5.40952214e-13,6.887560769e-14,2.924531505e-13,1.638803017e-13,6.716295529e-14,1.706515061e-13,5.150771533e-14,1.527683881e-13,8.001809306e-14,2.727545552e-13,1.726280158e-13,1.162296461e-13,2.316389147e-13,2.137770205e-13,3.818302539e-13,3.212700836e-13,6.942874497e-13,2.534775756e-13,2.440635657e-13,2.68349306e-13,1.920620843e-13,9.876531872e-14,8.058334208e-14,2.33735293e-13,1.082839355e-13,7.62729021e-13,3.157333547e-13,1.413366465e-12,3.216960699e-13
0.3984375,3.906976482e-13,7.802672487e-13,7.917240672e-13,5.138846929e-13,6.258835476e-14,2.924622839e-13,1.652161614e-13,6.53275421e-14,1.709239494e-13,5.284825992e-14,1.501751238e-13,7.697127289e-14,2.678308617e-13,1.72663758e-13,1.075042989e-13,2.125356765e-13,1.971568731e-13,3.68410514e-13,3.144138463e-13,6.692759896e-13,2.406523368e-13,2.458197875e-13,2.699282018e-13,1.937729965e-13,1.011761148e-13,8.012974541e-14,2.194715704e-13,1.134419887e-13,7.404736585e-13,3.096385041e-13,1.344603893e-12,3.241748497e-13
0.40625,3.880192007e-13,7.524483377e-13,8.158853087e-13,4.880710442e-13,5.675516751e-14,2.927937723e-13,1.667814315e-13,6.336525353e-14,1.709486343e-13,5.425327508e-14,1.476626653e-13,7.427713438e-14,2.632886092e-13,1.733585959e-13,9.959984687e-14,1.949855945e-13,1.820200798e-13,3.562482301e-13,3.082246024e-13,6.451024396e-13,2.285389377e-13,2.474269774e-13,2.71446475e-13,1.956256936e-13,1.036516245e-13,7.978947713e-14,2.058712196e-13,1.185423309e-13,7.18738839e-13,3.038896525e-13,1.278480306e-12,3.259080438e-13
0.4140625,3.854013483e-13,7.252307556e-13,8.389924802e-13,4.632194801e-13,5.133678165e-14,2.934014476e-13,1.686114889e-13,6.122933855e-14,1.707453278e-13,5.573364467e-14,1.450837896e-13,7.189056229e-14,2.591261437e-13,1.745867517e-13,9.236023633e-14,1.788343822e-13,1.68249407e-13,3.452141785e-13,3.025871883e-13,6.220209457e-13,2.170603169e-13,2.489562469e-13,2.729006332e-13,1.974633267e-13,1.062064213e-13,7.958585105e-14,1.929082559e-13,1.235505316e-13,6.972980865e-13,2.983826314e-13,1.214108721e-12,3.269166539e-13
0.421875,3.827120592e-13,6.984333172e-13,8.609259206e-13,4.392097504e-13,4.628686622e-14,2.939812624e-13,1.707557762e-13,5.902013433e-14,1.702863476e-13,5.735971477e-14,1.424535659e-13,6.967661428e-14,2.552442925e-13,1.758106385e-13,8.551479688e-14,1.63750133e-13,1.555067509e-13,3.351230461e-13,2.974611114e-13,5.999433853e-13,2.063331403e-13,2.503231181e-13,2.744972933e-13,1.993800814e-13,1.089519361e-13,7.955936916e-14,1.804649471e-13,1.283424378e-13,6.757049402e-13,2.929837367e-13,1.152471369e-12,3.273082453e-13
0.4296875,3.799558917e-13,6.720791357e-13,8.817988385e-13,4.160430548e-13,4.157437777e-14,2.944190394e-13,1.731577855e-13,5.678112955e-14,1.694958227e-13,5.916086596e-14,1.399679646e-13,6.750678927e-14,2.515808275e-13,1.769055073e-13,7.919123341e-14,1.498035487e-13,1.438423047e-13,3.258482527e-13,2.92774652e-13,5.786507329e-13,1.963044329e-13,2.514090818e-13,2.761926009e-13,2.013302364e-13,1.119799344e-13,7.971277922e-14,1.685439122e-13,1.329292005e-13,6.538387745e-13,2.875596314e-13,1.093710613e-12,3.270684423e-13
0.4375,3.770294208e-13,6.460562368e-13,9.014951372e-13,3.936531384e-13,3.717897681e-14,2.947968835e-13,1.758194956e-13,5.44558652e-14,1.683945632e-13,6.113667996e-14,1.375057966e-13,6.545688161e-14,2.481855761e-13,1.781926251e-13,7.346791034e-14,1.370255018e-13,1.332930454e-13,3.173666923e-13,2.885158158e-13,5.581619956e-13,1.869392845e-13,2.522369589e-13,2.778638909e-13,2.032943878e-13,1.15190776e-13,8.002196106e-14,1.571168236e-13,1.373836051e-13,6.317998703e-13,2.821126931e-13,1.037059938e-12,3.261920858e-13
0.4453125,3.739244515e-13,6.205021131e-13,9.193733895e-13,3.721299423e-13,3.309534192e-14,2.950345986e-13,1.787615758e-13,5.204164236e-14,1.670392756e-13,6.324312012e-14,1.348225188e-13,6.357592849e-14,2.450118193e-13,1.795853718e-13,6.809819283e-14,1.252668785e-13,1.237963617e-13,3.096752115e-13,2.846855912e-13,5.387271942e-13,1.78230217e-13,2.528714856e-13,2.794713371e-13,2.052984894e-13,1.184304098e-13,8.047426609e-14,1.462116319e-13,1.416582805e-13,6.097715898e-13,2.768327673e-13,9.827946224e-13,3.24738221e-13
0.453125,3.707216262e-13,5.956477335e-13,9.351613975e-13,3.515482448e-13,2.930669094e-14,2.951248767e-13,1.81825719e-13,4.956557336e-14,1.65405387e-13,6.543211457e-14,1.320407578e-13,6.181583227e-14,2.419088828e-13,1.808942807e-13,6.295964288e-14,1.144932688e-13,1.154801956e-13,3.027287826e-13,2.812274564e-13,5.20486176e-13,1.701008075e-13,2.533057558e-13,2.809213286e-13,2.072023763e-13,1.216202556e-13,8.105564022e-14,1.359015653e-13,1.457016955e-13,5.879014397e-13,2.717018037e-13,9.312948513e-13,3.227421929e-13
0.4609375,3.673287749e-13,5.713810882e-13,9.491878856e-13,3.318227375e-13,2.582541204e-14,2.951219026e-13,1.850283477e-13,4.708292482e-14,1.63441667e-13,6.774955745e-14,1.293344989e-13,6.018122173e-14,2.389132999e-13,1.821566836e-13,5.814354323e-14,1.046852259e-13,1.083443769e-13,2.965501868e-13,2.781955273e-13,5.033573978e-13,1.626069711e-13,2.535268512e-13,2.822378191e-13,2.090869002e-13,1.247171079e-13,8.176789848e-14,1.261361913e-13,1.494204352e-13,5.66139249e-13,2.665551662e-13,8.824081861e-13,3.202019932e-13
0.46875,3.637807942e-13,5.476690856e-13,9.615103101e-13,3.130481054e-13,2.269383427e-14,2.948963257e-13,1.88643599e-13,4.46360985e-14,1.611516273e-13,7.023101508e-14,1.266036041e-13,5.86429151e-14,2.361607686e-13,1.833278203e-13,5.369441097e-14,9.577705642e-14,1.021030107e-13,2.911594553e-13,2.756878772e-13,4.87189665e-13,1.557891839e-13,2.536344823e-13,2.8360433e-13,2.110327983e-13,1.277628738e-13,8.262567626e-14,1.168955928e-13,1.527948342e-13,5.444908455e-13,2.615892655e-13,8.359289837e-13,3.17064201e-13
0.4765625,3.60427965e-13,5.248915211e-13,9.721554419e-13,2.955176857e-13,1.99392815e-14,2.945666359e-13,1.926136891e-13,4.222179379e-14,1.586169806e-13,7.280316944e-14,1.237965321e-13,5.7200869e-14,2.336264873e-13,1.845287077e-13,4.974074837e-14,8.786255011e-14,9.664364864e-14,2.864687618e-13,2.736386136e-13,4.71993492e-13,1.495673967e-13,2.536834502e-13,2.850310006e-13,2.127832255e-13,1.308322745e-13,8.359776572e-14,1.083521941e-13,1.560042542e-13,5.232903437e-13,2.571791846e-13,7.913368686e-13,3.132949784e-13
0.484375,3.572359955e-13,5.032436347e-13,9.810446982e-13,2.792359468e-13,1.752948268e-14,2.942838838e-13,1.965340868e-13,3.985710401e-14,1.559423692e-13,7.541653466e-14,1.210518937e-13,5.594033667e-14,2.313076313e-13,1.85893579e-13,4.634262788e-14,8.098219137e-14,9.210915344e-14,2.823667307e-13,2.718716169e-13,4.578022101e-13,1.438472479e-13,2.535532929e-13,2.862335722e-13,2.143655176e-13,1.338438406e-13,8.458390525e-14,1.00629062e-13,1.590911622e-13,5.028372787e-13,2.533662276e-13,7.484271395e-13,3.089090541e-13
0.4921875,3.537601639e-13,4.823782708e-13,9.87642305e-13,2.638279545e-13,1.53740753e-14,2.937302755e-13,2.003387172e-13,3.753702944e-14,1.531204988e-13,7.812137321e-14,1.184317455e-13,5.481645281e-14,2.292414823e-13,1.871766335e-13,4.319046413e-14,7.487004996e-14,8.846195178e-14,2.787534765e-13,2.702541593e-13,4.444889415e-13,1.384357701e-13,2.532542943e-13,2.870040138e-13,2.159084363e-13,1.366075846e-13,8.554768222e-14,9.35594213e-14,1.619193448e-13,4.829848439e-13,2.499002214e-13,7.074657982e-13,3.039871661e-13
0.5,3.500447921e-13,4.620813352e-13,9.922016048e-13,2.491610022e-13,1.344379321e-14,2.926975292e-13,2.043810439e-13,3.526339299e-14,1.500609488e-13,8.095201416e-14,1.158748666e-13,5.367585512e-14,2.272623134e-13,1.880915384e-13,4.012810953e-14,6.931839768e-14,8.546503723e-14,2.755263048e-13,2.687835059e-13,4.319712522e-13,1.333310753e-13,2.529526897e-13,2.876922737e-13,2.17175527e-13,1.391875875e-13,8.663997821e-14,8.698130836e-14,1.643814598e-13,4.634607232e-13,2.46597704e-13,6.68534577e-13,2.987494319e-13
0.5078125,3.464164133e-13,4.426610163e-13,9.95387436e-13,2.35515976e-13,1.177534476e-14,2.912995244e-13,2.087257749e-13,3.309770891e-14,1.467605368e-13,8.385884695e-14,1.133755243e-13,5.248240476e-14,2.252696922e-13,1.884983611e-13,3.736047707e-14,6.43582135e-14,8.304736382e-14,2.725464799e-13,2.674801674e-13,4.201513523e-13,1.28799326e-13,2.525814199e-13,2.887366573e-13,2.182338033e-13,1.419014275e-13,8.797847625e-14,8.102546056e-14,1.663846347e-13,4.443268215e-13,2.434952556e-13,6.32119578e-13,2.932982676e-13
0.515625,3.427220177e-13,4.242443823e-13,9.963995558e-13,2.229569969e-13,1.037175394e-14,2.895334652e-13,2.130138801e-13,3.106112169e-14,1.432762787e-13,8.683522587e-14,1.109712794e-13,5.13150895e-14,2.234425108e-13,1.885014605e-13,3.490244357e-14,6.000982976e-14,8.126663754e-14,2.697112005e-13,2.662694203e-13,4.088492723e-13,1.247307414e-13,2.519768554e-13,2.897736799e-13,2.193277039e-13,1.44693911e-13,8.946480442e-14,7.580456213e-14,1.67981565e-13,4.25771604e-13,2.407086557e-13,5.982752276e-13,2.875007231e-13
0.5234375,3.387745333e-13,4.065949562e-13,9.942556035e-13,2.113459169e-13,9.222713388e-15,2.873352542e-13,2.171335406e-13,2.913739198e-14,1.396232231e-13,8.995060784e-14,1.08648822e-13,5.020702545e-14,2.218709347e-13,1.883823052e-13,3.265945169e-14,5.625809106e-14,8.002231213e-14,2.670603122e-13,2.651234297e-13,3.980361845e-13,1.207723534e-13,2.512238221e-13,2.902729975e-13,2.201620433e-13,1.4714106e-13,9.101197474e-14,7.126210149e-14,1.693281633e-13,4.078639734e-13,2.383527222e-13,5.656720736e-13,2.813483927e-13
0.53125,3.348347661e-13,3.898121552e-13,9.896013318e-13,2.007704251e-13,8.319198552e-15,2.847728973e-13,2.212736727e-13,2.732212548e-14,1.358219387e-13,9.31638879e-14,1.064276631e-13,4.913459134e-14,2.204529125e-13,1.88162398e-13,3.073003572e-14,5.310362254e-14,7.919756634e-14,2.645773035e-13,2.640731808e-13,3.876794498e-13,1.169609246e-13,2.504606533e-13,2.904766984e-13,2.205155894e-13,1.491893866e-13,9.268303495e-14,6.740127374e-14,1.704274408e-13,3.907323188e-13,2.365530016e-13,5.340094927e-13,2.749549824e-13
0.5390625,3.31073602e-13,3.741462051e-13,9.832476419e-13,1.912020273e-13,7.646403508e-15,2.819505123e-13,2.254327471e-13,2.563836621e-14,1.319100115e-13,9.637551779e-14,1.044008926e-13,4.813837618e-14,2.1915278e-13,1.878420023e-13,2.915992832e-14,5.050077335e-14,7.882076426e-14,2.621637654e-13,2.630754865e-13,3.77665124e-13,1.134226808e-13,2.496707965e-13,2.906766839e-13,2.207077103e-13,1.510416206e-13,9.454449924e-14,6.422701557e-14,1.712232692e-13,3.744965496e-13,2.352867253e-13,5.044488986e-13,2.683826015e-13
0.546875,3.27371273e-13,3.594834863e-13,9.749688089e-13,1.824495111e-13,7.20981675e-15,2.787779191e-13,2.294787486e-13,2.41408122e-14,1.279038941e-13,9.959549511e-14,1.026218292e-13,4.727588781e-14,2.180223633e-13,1.875193364e-13,2.791853238e-14,4.834134947e-14,7.878412638e-14,2.598180427e-13,2.621066733e-13,3.680303746e-13,1.100521648e-13,2.488297218e-13,2.907213992e-13,2.208565198e-13,1.52670428e-13,9.660197599e-14,6.168971353e-14,1.716825074e-13,3.590814315e-13,2.344910967e-13,4.770297147e-13,2.61806307e-13
0.5546875,3.237518743e-13,3.456961854e-13,9.64740911e-13,1.744151252e-13,7.007559796e-15,2.751616599e-13,2.332836754e-13,2.282611208e-14,1.238327679e-13,1.027209974e-13,1.010017686e-13,4.652562023e-14,2.171033654e-13,1.870645745e-13,2.701143729e-14,4.653926118e-14,7.892881871e-14,2.574659408e-13,2.611867885e-13,3.588399084e-13,1.068756583e-13,2.480109529e-13,2.906230342e-13,2.206666943e-13,1.540529582e-13,9.889212149e-14,5.97719671e-14,1.717951533e-13,3.44415131e-13,2.34337728e-13,4.511348533e-13,2.554035184e-13
0.5625,3.20348114e-13,3.330132737e-13,9.523381787e-13,1.673648514e-13,7.004300968e-15,2.713122561e-13,2.369501531e-13,2.16559904e-14,1.196699855e-13,1.058371175e-13,9.957868908e-14,4.584701478e-14,2.164189438e-13,1.86428657e-13,2.635463715e-14,4.51194767e-14,7.934910863e-14,2.549514435e-13,2.602916463e-13,3.499094012e-13,1.038359925e-13,2.472711611e-13,2.904867662e-13,2.199633854e-13,1.553163043e-13,1.013958383e-13,5.856845804e-14,1.716581595e-13,3.306623582e-13,2.349670002e-13,4.269230189e-13,2.490159697e-13
0.5703125,3.170575617e-13,3.214113263e-13,9.378595167e-13,1.61267678e-13,7.180920332e-15,2.673071506e-13,2.406997546e-13,2.068706264e-14,1.154171211e-13,1.090433301e-13,9.833722013e-14,4.522953282e-14,2.159941578e-13,1.858296306e-13,2.583271656e-14,4.412626169e-14,7.997897033e-14,2.524778637e-13,2.595020527e-13,3.411305585e-13,1.008715414e-13,2.465463907e-13,2.901255598e-13,2.189473423e-13,1.564796755e-13,1.040012445e-13,5.808118778e-14,1.712800975e-13,3.17951367e-13,2.361492775e-13,4.04613102e-13,2.425180323e-13
0.578125,3.139091062e-13,3.11023367e-13,9.215286455e-13,1.562015823e-13,7.548038214e-15,2.6307549e-13,2.443808528e-13,1.993723067e-14,1.11202891e-13,1.123396288e-13,9.725275337e-14,4.472694965e-14,2.159029838e-13,1.852659881e-13,2.555354866e-14,4.350811843e-14,8.071026264e-14,2.501624395e-13,2.589207063e-13,3.325868719e-13,9.798752794e-14,2.458113684e-13,2.895287702e-13,2.177410399e-13,1.574802467e-13,1.066197032e-13,5.825712975e-14,1.706262564e-13,3.063400576e-13,2.378171911e-13,3.842985649e-13,2.361039711e-13
0.5859375,3.112169647e-13,3.02120326e-13,9.038456178e-13,1.522411351e-13,8.135576734e-15,2.588050283e-13,2.476643359e-13,1.937014609e-14,1.070874837e-13,1.155114887e-13,9.63037047e-14,4.440725778e-14,2.161493702e-13,1.847648521e-13,2.558472504e-14,4.324185767e-14,8.162408179e-14,2.47831862e-13,2.585075086e-13,3.243944312e-13,9.53107218e-14,2.451810536e-13,2.889437752e-13,2.162967139e-13,1.582509336e-13,1.093450139e-13,5.903930605e-14,1.697847369e-13,2.95898823e-13,2.401803047e-13,3.663322156e-13,2.299484351e-13
0.59375,3.090364063e-13,2.947617389e-13,8.849186552e-13,1.495080367e-13,8.991009663e-15,2.544860152e-13,2.508047948e-13,1.900046956e-14,1.029499724e-13,1.185811075e-13,9.55873445e-14,4.428077756e-14,2.166780513e-13,1.844513071e-13,2.598016966e-14,4.335811966e-14,8.266836619e-14,2.454047974e-13,2.581798584e-13,3.165078909e-13,9.283789695e-14,2.446547746e-13,2.883003276e-13,2.145659311e-13,1.588486993e-13,1.122524377e-13,6.054750618e-14,1.687036219e-13,2.866746169e-13,2.433854703e-13,3.50416368e-13,2.239037096e-13
0.6015625,3.070431655e-13,2.887766494e-13,8.643058088e-13,1.480562612e-13,1.015880264e-14,2.498781585e-13,2.539461297e-13,1.883283559e-14,9.876450838e-14,1.217381119e-13,9.524849535e-14,4.43782915e-14,2.175293552e-13,1.8433628e-13,2.689478697e-14,4.386266861e-14,8.376825607e-14,2.429556303e-13,2.579034125e-13,3.089277952e-13,9.032849839e-14,2.440773286e-13,2.872100922e-13,2.124067128e-13,1.592734937e-13,1.152604452e-13,6.288211444e-14,1.672591918e-13,2.785670546e-13,2.47273226e-13,3.360080536e-13,2.178237539e-13
0.609375,3.051934347e-13,2.841065937e-13,8.420380879e-13,1.476456209e-13,1.163119386e-14,2.450855082e-13,2.567002296e-13,1.886504876e-14,9.469578166e-14,1.24890976e-13,9.519433459e-14,4.47927227e-14,2.187531682e-13,1.844825395e-13,2.827138628e-14,4.474261467e-14,8.501957015e-14,2.405065632e-13,2.577056031e-13,3.017716974e-13,8.773142573e-14,2.43430072e-13,2.856364062e-13,2.098036379e-13,1.593651181e-13,1.183063778e-13,6.597775275e-14,1.655608063e-13,2.716262637e-13,2.516730899e-13,3.238273733e-13,2.118395695e-13
0.6171875,3.038740187e-13,2.810126577e-13,8.185533792e-13,1.482996064e-13,1.337772375e-14,2.402853355e-13,2.590225305e-13,1.912041483e-14,9.083671089e-14,1.278422601e-13,9.529583123e-14,4.556376565e-14,2.203055502e-13,1.849002899e-13,2.994364849e-14,4.597968029e-14,8.639848769e-14,2.379904165e-13,2.5763953e-13,2.948859109e-13,8.524777109e-14,2.428221518e-13,2.840280266e-13,2.070539132e-13,1.592341216e-13,1.214791256e-13,6.979440775e-14,1.636645192e-13,2.660701831e-13,2.567649136e-13,3.144666125e-13,2.060921956e-13
0.625,3.032758355e-13,2.796632792e-13,7.946132006e-13,1.501827791e-13,1.539413004e-14,2.35433002e-13,2.611007e-13,1.955484151e-14,8.704765662e-14,1.305741845e-13,9.563953626e-14,4.660603167e-14,2.221770288e-13,1.856205672e-13,3.194210653e-14,4.763594678e-14,8.78396094e-14,2.355002637e-13,2.577758739e-13,2.883400832e-13,8.299156196e-14,2.422500852e-13,2.825338932e-13,2.042054537e-13,1.592253838e-13,1.248634169e-13,7.442099615e-14,1.614657916e-13,2.619760768e-13,2.626756417e-13,3.075160516e-13,2.004680804e-13
0.6328125,3.030084207e-13,2.79813581e-13,7.700111377e-13,1.533511364e-13,1.776034509e-14,2.305422241e-13,2.630321473e-13,2.018708843e-14,8.328106682e-14,1.333016568e-13,9.633594059e-14,4.787129929e-14,2.24375974e-13,1.866234975e-13,3.433919424e-14,4.971876732e-14,8.941047824e-14,2.330817089e-13,2.580900776e-13,2.82295507e-13,8.085652157e-14,2.416649306e-13,2.808253037e-13,2.011741378e-13,1.593777739e-13,1.284319118e-13,7.992917709e-14,1.590021696e-13,2.592044591e-13,2.691346129e-13,3.030925942e-13,1.949431748e-13
0.640625,3.030991042e-13,2.813992637e-13,7.449217747e-13,1.575769427e-13,2.049466757e-14,2.257533077e-13,2.648486903e-13,2.10385075e-14,7.960218787e-14,1.360532213e-13,9.723554329e-14,4.946929992e-14,2.268645194e-13,1.881271143e-13,3.714319766e-14,5.230036883e-14,9.110065853e-14,2.309136571e-13,2.586163416e-13,2.767850702e-13,7.881326037e-14,2.410708652e-13,2.787042867e-13,1.979439663e-13,1.594612837e-13,1.321103015e-13,8.630901942e-14,1.564873917e-13,2.578643676e-13,2.761619296e-13,3.015803114e-13,1.89514271e-13
0.6484375,3.037757016e-13,2.844353773e-13,7.196754392e-13,1.626715678e-13,2.356227164e-14,2.21107011e-13,2.665056951e-13,2.205342162e-14,7.602272338e-14,1.38738922e-13,9.841782182e-14,5.14012964e-14,2.295452177e-13,1.903089416e-13,4.04729299e-14,5.538741672e-14,9.280121994e-14,2.290408534e-13,2.593646703e-13,2.71622409e-13,7.690523718e-14,2.404508828e-13,2.763160255e-13,1.945615366e-13,1.593833834e-13,1.359359854e-13,9.345835314e-14,1.538701406e-13,2.57936935e-13,2.837273145e-13,3.022078478e-13,1.841420364e-13
0.65625,3.047969873e-13,2.887707438e-13,6.943224255e-13,1.686230686e-13,2.698831549e-14,2.165439541e-13,2.680926082e-13,2.327233839e-14,7.25418763e-14,1.414102885e-13,1.000320054e-13,5.359343742e-14,2.32410843e-13,1.931242148e-13,4.437249974e-14,5.888391274e-14,9.445318396e-14,2.273473968e-13,2.602236458e-13,2.668446514e-13,7.514631542e-14,2.397667877e-13,2.737223469e-13,1.912965589e-13,1.592251926e-13,1.399675652e-13,1.014115015e-13,1.510344455e-13,2.593508219e-13,2.914650603e-13,3.055328907e-13,1.789345416e-13
0.6640625,3.062593268e-13,2.94554946e-13,6.689520941e-13,1.755365669e-13,3.080598908e-14,2.121224455e-13,2.696690605e-13,2.476448212e-14,6.921581936e-14,1.441115383e-13,1.018946872e-13,5.612293477e-14,2.356439712e-13,1.964891148e-13,4.868388976e-14,6.272640845e-14,9.595173089e-14,2.257403644e-13,2.611970781e-13,2.624913821e-13,7.359705276e-14,2.391243419e-13,2.709201908e-13,1.882593165e-13,1.590876153e-13,1.441960044e-13,1.102178069e-13,1.481200248e-13,2.622159852e-13,2.997061747e-13,3.125825583e-13,1.740318826e-13
0.671875,3.086170322e-13,3.020366869e-13,6.436511491e-13,1.835849569e-13,3.501805202e-14,2.079518421e-13,2.711450675e-13,2.646109724e-14,6.604303491e-14,1.468435192e-13,1.040260551e-13,5.901388605e-14,2.393202755e-13,2.004358634e-13,5.33820309e-14,6.691751851e-14,9.727998627e-14,2.242255606e-13,2.624658592e-13,2.583698895e-13,7.233640363e-14,2.386106093e-13,2.680434466e-13,1.851780255e-13,1.589705972e-13,1.486403411e-13,1.19791684e-13,1.451644961e-13,2.665046458e-13,3.089262229e-13,3.223713469e-13,1.694318128e-13
0.6796875,3.115402803e-13,3.110824002e-13,6.18364063e-13,1.92886759e-13,3.965494021e-14,2.039516768e-13,2.728799078e-13,2.829371643e-14,6.296865807e-14,1.49793373e-13,1.067427528e-13,6.234169795e-14,2.43318893e-13,2.050894809e-13,5.870623826e-14,7.155627561e-14,9.862214082e-14,2.229021836e-13,2.640488024e-13,2.544705234e-13,7.126809742e-14,2.380604468e-13,2.650663385e-13,1.820203177e-13,1.588870946e-13,1.533557334e-13,1.302724693e-13,1.419631776e-13,2.721223301e-13,3.18575595e-13,3.349064391e-13,1.650948364e-13
0.6875,3.145792539e-13,3.21588186e-13,5.934218252e-13,2.033652106e-13,4.480702963e-14,2.000338433e-13,2.750349868e-13,3.021842985e-14,6.000436517e-14,1.529937071e-13,1.099860264e-13,6.629681208e-14,2.47704262e-13,2.106747304e-13,6.484328033e-14,7.693671565e-14,1.002411296e-13,2.220248383e-13,2.659066645e-13,2.51338303e-13,7.022556656e-14,2.373746204e-13,2.61670838e-13,1.786966012e-13,1.58988703e-13,1.583965798e-13,1.420116641e-13,1.385646075e-13,2.792580483e-13,3.283364764e-13,3.511998329e-13,1.609345439e-13
0.6953125,3.179886313e-13,3.334902705e-13,5.691963577e-13,2.148379002e-13,5.04984109e-14,1.963488921e-13,2.770109302e-13,3.224082218e-14,5.725481275e-14,1.560745122e-13,1.135821257e-13,7.080254163e-14,2.52544875e-13,2.1724071e-13,7.169861925e-14,8.299701818e-14,1.021152044e-13,2.215242856e-13,2.679356641e-13,2.488043439e-13,6.922340784e-14,2.367016802e-13,2.577878535e-13,1.752122231e-13,1.592579751e-13,1.636764751e-13,1.547711154e-13,1.352118457e-13,2.879874362e-13,3.38540757e-13,3.702717704e-13,1.569352009e-13
0.703125,3.223828325e-13,3.472057661e-13,5.456267056e-13,2.275869791e-13,5.675013982e-14,1.931239972e-13,2.789230809e-13,3.443127418e-14,5.4682677e-14,1.590828418e-13,1.176822691e-13,7.585409641e-14,2.577972716e-13,2.249589129e-13,7.942240787e-14,8.980433323e-14,1.042160914e-13,2.215390737e-13,2.702159931e-13,2.467747065e-13,6.84928365e-14,2.361151249e-13,2.538425342e-13,1.719242205e-13,1.596357456e-13,1.692785871e-13,1.685411505e-13,1.319287627e-13,2.984278633e-13,3.495346605e-13,3.924289277e-13,1.531674819e-13
0.7109375,3.274901233e-13,3.625684418e-13,5.223105256e-13,2.415782425e-13,6.357330438e-14,1.903308224e-13,2.813824084e-13,3.676981144e-14,5.217235715e-14,1.624625037e-13,1.224606108e-13,8.151757013e-14,2.634625851e-13,2.336346991e-13,8.808343746e-14,9.723540312e-14,1.062811806e-13,2.219736077e-13,2.728861888e-13,2.450643648e-13,6.805054736e-14,2.356368735e-13,2.501422022e-13,1.688570944e-13,1.602420402e-13,1.75311736e-13,1.833026467e-13,1.284510441e-13,3.101675854e-13,3.61060526e-13,4.177390458e-13,1.497473061e-13
0.71875,3.326948619e-13,3.789820127e-13,4.990083065e-13,2.565508009e-13,7.102311367e-14,1.878490804e-13,2.840903648e-13,3.924253917e-14,4.974864685e-14,1.662255175e-13,1.27782171e-13,8.760834884e-14,2.6944583e-13,2.429683719e-13,9.760290998e-14,1.052148869e-13,1.084848358e-13,2.227284108e-13,2.759190021e-13,2.437395808e-13,6.77077138e-14,2.351976996e-13,2.463267068e-13,1.656311835e-13,1.609771633e-13,1.816612317e-13,1.988174247e-13,1.247641504e-13,3.228240391e-13,3.726104963e-13,4.449763202e-13,1.466907858e-13
0.7265625,3.379382431e-13,3.963350089e-13,4.761237736e-13,2.723982399e-13,7.900292272e-14,1.857415582e-13,2.868685743e-13,4.186296553e-14,4.750619551e-14,1.701202138e-13,1.33555907e-13,9.421224376e-14,2.753234445e-13,2.529127663e-13,1.078168283e-13,1.13634935e-13,1.111041123e-13,2.236704269e-13,2.78918278e-13,2.428651967e-13,6.739382699e-14,2.345478428e-13,2.41989421e-13,1.623963662e-13,1.614430135e-13,1.881758876e-13,2.148679554e-13,1.210190952e-13,3.363557211e-13,3.837576349e-13,4.746880625e-13,1.438680984e-13
0.734375,3.432320903e-13,4.144037713e-13,4.543573684e-13,2.887050295e-13,8.738493569e-14,1.83992263e-13,2.900700837e-13,4.447767098e-14,4.542747732e-14,1.741330047e-13,1.398579596e-13,1.014569824e-13,2.809223898e-13,2.634198016e-13,1.185116964e-13,1.224735769e-13,1.141233333e-13,2.247909478e-13,2.816637232e-13,2.425496515e-13,6.711952226e-14,2.336350076e-13,2.373366665e-13,1.591981476e-13,1.617839084e-13,1.950312907e-13,2.314779568e-13,1.172126709e-13,3.505119412e-13,3.943984805e-13,5.073655794e-13,1.411940932e-13
0.7421875,3.484854816e-13,4.327854424e-13,4.336751339e-13,3.052012554e-13,9.627180763e-14,1.82432622e-13,2.935487277e-13,4.707199977e-14,4.347474201e-14,1.782789562e-13,1.466200949e-13,1.089231494e-13,2.864768297e-13,2.745082503e-13,1.298486512e-13,1.320327432e-13,1.176131916e-13,2.264284771e-13,2.844525325e-13,2.430623126e-13,6.699656182e-14,2.326535271e-13,2.327105225e-13,1.559086188e-13,1.624564159e-13,2.024201696e-13,2.488582278e-13,1.133834626e-13,3.653240846e-13,4.046924968e-13,5.419655988e-13,1.38741506e-13
0.75,3.539487629e-13,4.518205426e-13,4.138562308e-13,3.222216439e-13,1.057346757e-13,1.811209676e-13,2.973292588e-13,4.977777071e-14,4.166096457e-14,1.825844394e-13,1.537777635e-13,1.164959769e-13,2.920246897e-13,2.862697553e-13,1.420882059e-13,1.424176138e-13,1.21579264e-13,2.286847265e-13,2.87452069e-13,2.443333407e-13,6.726069289e-14,2.316858521e-13,2.281679129e-13,1.530059514e-13,1.633668013e-13,2.103445547e-13,2.671428133e-13,1.096203955e-13,3.812379769e-13,4.14797817e-13,5.789038255e-13,1.365685561e-13
0.7578125,3.595655332e-13,4.716067171e-13,3.952237306e-13,3.399016319e-13,1.157611033e-13,1.80163011e-13,3.017707161e-13,5.247987918e-14,3.994863005e-14,1.871962123e-13,1.61486681e-13,1.244948993e-13,2.973866423e-13,2.985651653e-13,1.550482155e-13,1.533576656e-13,1.258058656e-13,2.312381132e-13,2.904355291e-13,2.46069053e-13,6.783639555e-14,2.30713939e-13,2.236468995e-13,1.505070689e-13,1.642133285e-13,2.188342765e-13,2.861375099e-13,1.057872229e-13,3.980040749e-13,4.245737398e-13,6.183679174e-13,1.346776552e-13
0.765625,3.647816744e-13,4.915506478e-13,3.776162615e-13,3.580733933e-13,1.263639994e-13,1.794081344e-13,3.066385814e-13,5.513688177e-14,3.82996317e-14,1.921490409e-13,1.698357898e-13,1.329127251e-13,3.025549609e-13,3.113319506e-13,1.686945302e-13,1.647863864e-13,1.302879713e-13,2.339848253e-13,2.932353417e-13,2.48304536e-13,6.837732024e-14,2.296640126e-13,2.188852458e-13,1.479445516e-13,1.650652039e-13,2.277809792e-13,3.056673934e-13,1.017611844e-13,4.151410032e-13,4.336711678e-13,6.594308216e-13,1.329814765e-13
0.7734375,3.695282234e-13,5.115646392e-13,3.607538372e-13,3.764777911e-13,1.373694963e-13,1.78763329e-13,3.117279109e-13,5.78675162e-14,3.675313605e-14,1.972919723e-13,1.788904208e-13,1.417524055e-13,3.076076277e-13,3.246806278e-13,1.832502907e-13,1.768015364e-13,1.351869085e-13,2.369868568e-13,2.957755332e-13,2.510699752e-13,6.885388952e-14,2.284242999e-13,2.136314018e-13,1.457991668e-13,1.660874005e-13,2.37051344e-13,3.258390262e-13,9.77005444e-14,4.328207323e-13,4.421546456e-13,7.026675856e-13,1.313683539e-13
0.78125,3.743911097e-13,5.32024257e-13,3.446094778e-13,3.950963284e-13,1.488642786e-13,1.783167785e-13,3.172728085e-13,6.059223916e-14,3.536655457e-14,2.026157309e-13,1.886688313e-13,1.511025561e-13,3.125460732e-13,3.387208108e-13,1.987974715e-13,1.897132015e-13,1.408313421e-13,2.404629771e-13,2.982775596e-13,2.547169266e-13,6.948924184e-14,2.270816809e-13,2.082879292e-13,1.440693952e-13,1.673182474e-13,2.470704733e-13,3.469536084e-13,9.379015151e-14,4.513711109e-13,4.506828281e-13,7.482897588e-13,1.30050121e-13
0.7890625,3.795061303e-13,5.529091912e-13,3.297090473e-13,4.14247564e-13,1.610749621e-13,1.781307624e-13,3.23110613e-13,6.323766287e-14,3.411124958e-14,2.082467265e-13,1.993442301e-13,1.608569657e-13,3.173578112e-13,3.535753164e-13,2.156474341e-13,2.038482195e-13,1.47499411e-13,2.446784463e-13,3.011519803e-13,2.595676239e-13,7.040484778e-14,2.258256336e-13,2.033246967e-13,1.422011595e-13,1.68808703e-13,2.579769527e-13,3.689972096e-13,9.001630572e-14,4.708445346e-13,4.591387293e-13,7.962105161e-13,1.29215799e-13
0.796875,3.84538477e-13,5.74302546e-13,3.16096441e-13,4.341078831e-13,1.739705367e-13,1.782299054e-13,3.292062566e-13,6.584141628e-14,3.294588893e-14,2.142805721e-13,2.110028378e-13,1.710499834e-13,3.221932637e-13,3.692937679e-13,2.339715761e-13,2.192564602e-13,1.551636892e-13,2.499621525e-13,3.045130118e-13,2.656284194e-13,7.15841944e-14,2.246563814e-13,1.984241753e-13,1.405834193e-13,1.707251666e-13,2.69552123e-13,3.91929511e-13,8.64403272e-14,4.911252518e-13,4.6686386e-13,8.47170581e-13,1.286174616e-13
0.8046875,3.893570515e-13,5.95945319e-13,3.037861403e-13,4.543134647e-13,1.87485766e-13,1.785512238e-13,3.35947449e-13,6.839135783e-14,3.18790168e-14,2.205457884e-13,2.234815022e-13,1.817154644e-13,3.270354585e-13,3.856498218e-13,2.533064749e-13,2.354848147e-13,1.634141468e-13,2.561509101e-13,3.080494721e-13,2.724694324e-13,7.288941628e-14,2.23551009e-13,1.933217132e-13,1.39602691e-13,1.728536081e-13,2.818885647e-13,4.155854586e-13,8.311456542e-14,5.118588763e-13,4.737270386e-13,9.005137211e-13,1.281904408e-13
0.8125,3.942822337e-13,6.175782626e-13,2.92504217e-13,4.748336255e-13,2.01660039e-13,1.789592242e-13,3.431561566e-13,7.090883538e-14,3.095560909e-14,2.269464454e-13,2.366637355e-13,1.92841749e-13,3.317709772e-13,4.026868793e-13,2.737868859e-13,2.525542698e-13,1.724160479e-13,2.629422294e-13,3.116490113e-13,2.799214766e-13,7.420882863e-14,2.226026251e-13,1.884917199e-13,1.387216864e-13,1.749346047e-13,2.951037915e-13,4.39742997e-13,7.992366737e-14,5.328351209e-13,4.801608003e-13,9.551046077e-13,1.282177526e-13
0.8203125,3.993016638e-13,6.391583617e-13,2.817379566e-13,4.95604077e-13,2.163378358e-13,1.795006927e-13,3.50321008e-13,7.338492027e-14,3.014717813e-14,2.33607963e-13,2.506526297e-13,2.045777654e-13,3.363639631e-13,4.205406173e-13,2.959350537e-13,2.708618832e-13,1.827024855e-13,2.703148398e-13,3.153553302e-13,2.881448617e-13,7.562003436e-14,2.218900889e-13,1.841658992e-13,1.3789524e-13,1.771305001e-13,3.090329328e-13,4.642021339e-13,7.680437097e-14,5.537949365e-13,4.862875328e-13,1.0106819e-12,1.287193952e-13
0.828125,4.038332317e-13,6.599969838e-13,2.717491968e-13,5.158339629e-13,2.312309434e-13,1.80217015e-13,3.576113826e-13,7.574936982e-14,2.938124554e-14,2.405106248e-13,2.653104352e-13,2.166735157e-13,3.40475916e-13,4.387316898e-13,3.192372838e-13,2.9003995e-13,1.93895516e-13,2.780095282e-13,3.188924803e-13,2.971014629e-13,7.717756135e-14,2.213792794e-13,1.799753679e-13,1.375015255e-13,1.794501138e-13,3.234875379e-13,4.887327981e-13,7.38898019e-14,5.743288709e-13,4.917628517e-13,1.066706679e-12,1.295700349e-13
0.8359375,4.077048315e-13,6.795585786e-13,2.630871548e-13,5.350308358e-13,2.460457376e-13,1.809189246e-13,3.650305562e-13,7.787304833e-14,2.868937528e-14,2.47328525e-13,2.802645328e-13,2.285509252e-13,3.43762012e-13,4.567005914e-13,3.432131693e-13,3.096736974e-13,2.055181568e-13,2.857094864e-13,3.220412304e-13,3.066634581e-13,7.884962234e-14,2.209391195e-13,1.757601646e-13,1.374844616e-13,1.816732668e-13,3.382563086e-13,5.131405477e-13,7.130677857e-14,5.943164572e-13,4.963523467e-13,1.123439376e-12,1.308070365e-13
0.84375,4.109912583e-13,6.979113782e-13,2.552396589e-13,5.533283953e-13,2.607756817e-13,1.815504392e-13,3.719583066e-13,7.963012773e-14,2.814389758e-14,2.536847519e-13,2.952124107e-13,2.399920997e-13,3.4653443e-13,4.743561268e-13,3.680509023e-13,3.301977378e-13,2.182968525e-13,2.938306981e-13,3.250566712e-13,3.170721513e-13,8.063145154e-14,2.206126393e-13,1.716442856e-13,1.379313612e-13,1.839148636e-13,3.534652535e-13,5.373478132e-13,6.899802161e-14,6.135917433e-13,5.000090338e-13,1.180821348e-12,1.324799783e-13
0.8515625,4.135827966e-13,7.149414519e-13,2.475080977e-13,5.707593921e-13,2.75658055e-13,1.822130173e-13,3.786693227e-13,8.11916406e-14,2.775830201e-14,2.596877813e-13,3.101479865e-13,2.51114388e-13,3.491154961e-13,4.918217168e-13,3.935954601e-13,3.515879705e-13,2.323769373e-13,3.026126535e-13,3.280438899e-13,3.285006386e-13,8.239725455e-14,2.206386341e-13,1.676077583e-13,1.387771447e-13,1.862057202e-13,3.694354495e-13,5.615281996e-13,6.683330168e-14,6.321506416e-13,5.0289086e-13,1.237586553e-12,1.346262066e-13
0.859375,4.159133887e-13,7.308181668e-13,2.403426035e-13,5.872239354e-13,2.905199009e-13,1.828915072e-13,3.858947473e-13,8.267924753e-14,2.756046747e-14,2.657876137e-13,3.254993364e-13,2.621989229e-13,3.512191728e-13,5.092866395e-13,4.20048983e-13,3.732391295e-13,2.467177511e-13,3.112967869e-13,3.305843576e-13,3.403671953e-13,8.406874818e-14,2.210798794e-13,1.637533822e-13,1.395293991e-13,1.88180644e-13,3.86012474e-13,5.857803135e-13,6.480977929e-14,6.503668633e-13,5.05457163e-13,1.29405097e-12,1.373330143e-13
0.8671875,4.182076984e-13,7.454453527e-13,2.344031559e-13,6.023656359e-13,3.049895617e-13,1.835689176e-13,3.932335081e-13,8.387384813e-14,2.756484603e-14,2.71903323e-13,3.412944224e-13,2.731551379e-13,3.525900695e-13,5.264310901e-13,4.476324472e-13,3.951759613e-13,2.613425583e-13,3.194639737e-13,3.325667932e-13,3.520879777e-13,8.585422052e-14,2.219557177e-13,1.604325665e-13,1.403882379e-13,1.896909035e-13,4.030458155e-13,6.096245438e-13,6.297359582e-14,6.678487722e-13,5.077045091e-13,1.350467e-12,1.40616205e-13
0.875,4.19606447e-13,7.579632088e-13,2.295621646e-13,6.157846228e-13,3.190178274e-13,1.842054085e-13,4.003663492e-13,8.480506096e-14,2.769572368e-14,2.777546428e-13,3.571034306e-13,2.834288182e-13,3.533277195e-13,5.425558607e-13,4.756063521e-13,4.175004769e-13,2.768304071e-13,3.275484771e-13,3.34428422e-13,3.642302594e-13,8.781130652e-14,2.23384145e-13,1.57620834e-13,1.417712038e-13,1.909730953e-13,4.206550064e-13,6.329591477e-13,6.126594913e-14,6.84159678e-13,5.089957602e-13,1.406147117e-12,1.443308682e-13
0.8828125,4.196404024e-13,7.685305298e-13,2.254733141e-13,6.279358227e-13,3.32768955e-13,1.84832016e-13,4.076726017e-13,8.562553687e-14,2.791478201e-14,2.835201937e-13,3.73244683e-13,2.931386538e-13,3.53497759e-13,5.580070556e-13,5.04479468e-13,4.403998678e-13,2.932552572e-13,3.358038879e-13,3.362047382e-13,3.77780389e-13,8.974787936e-14,2.251666617e-13,1.548988599e-13,1.433215891e-13,1.922643994e-13,4.388677474e-13,6.565516721e-13,5.963811926e-14,7.001118294e-13,5.09104562e-13,1.462457047e-12,1.484002271e-13
0.890625,4.187684079e-13,7.779184406e-13,2.220621786e-13,6.394447706e-13,3.465492472e-13,1.856294409e-13,4.148808245e-13,8.616220483e-14,2.827458342e-14,2.892098519e-13,3.902375486e-13,3.027394967e-13,3.531117835e-13,5.735382676e-13,5.355013284e-13,4.64571856e-13,3.111870868e-13,3.4425721e-13,3.375897692e-13,3.925103954e-13,9.16702869e-14,2.270477196e-13,1.521899754e-13,1.448679203e-13,1.935062335e-13,4.578405572e-13,6.805151196e-13,5.813994204e-14,7.161752987e-13,5.084109401e-13,1.520398083e-12,1.529160644e-13
0.8984375,4.173896288e-13,7.861117375e-13,2.193435853e-13,6.501215656e-13,3.604860534e-13,1.863950021e-13,4.218563455e-13,8.641187061e-14,2.875739769e-14,2.947466667e-13,4.080673974e-13,3.121137561e-13,3.523515039e-13,5.89016303e-13,5.680655067e-13,4.900219503e-13,3.306661042e-13,3.530509829e-13,3.388074247e-13,4.075517862e-13,9.366929702e-14,2.29252954e-13,1.498023734e-13,1.466739659e-13,1.945968435e-13,4.777647588e-13,7.045917852e-13,5.683647407e-14,7.320494126e-13,5.073018492e-13,1.579419255e-12,1.578922895e-13
0.90625,4.156837257e-13,7.933137168e-13,2.172200822e-13,6.598448688e-13,3.744305042e-13,1.868618469e-13,4.291269483e-13,8.660541238e-14,2.929531589e-14,3.004747578e-13,4.268485055e-13,3.214300905e-13,3.513903019e-13,6.043985167e-13,6.018044184e-13,5.163119775e-13,3.509259568e-13,3.621905599e-13,3.40178884e-13,4.231749566e-13,9.578637467e-14,2.31965009e-13,1.478905224e-13,1.487081635e-13,1.957940442e-13,4.985750627e-13,7.29244582e-13,5.576406673e-14,7.479295561e-13,5.058410425e-13,1.640542481e-12,1.633118252e-13
0.9140625,4.136242266e-13,7.997957315e-13,2.155084531e-13,6.687564648e-13,3.882827026e-13,1.87281269e-13,4.362442096e-13,8.670457303e-14,2.991642649e-14,3.062967836e-13,4.464475899e-13,3.308709021e-13,3.501637905e-13,6.1960696e-13,6.370813797e-13,5.43268825e-13,3.719926719e-13,3.715089118e-13,3.415773277e-13,4.398876257e-13,9.81671353e-14,2.350096242e-13,1.462851767e-13,1.509311095e-13,1.971235761e-13,5.199046556e-13,7.541330909e-13,5.490306481e-14,7.637845433e-13,5.038728783e-13,1.704586731e-12,1.690536666e-13
0.921875,4.111148334e-13,8.052848965e-13,2.141757123e-13,6.767548307e-13,4.018920852e-13,1.877149789e-13,4.425454742e-13,8.654079454e-14,3.065877292e-14,3.116195267e-13,4.664130836e-13,3.399248447e-13,3.486696873e-13,6.341860051e-13,6.735504725e-13,5.707472921e-13,3.940383206e-13,3.810386473e-13,3.430649406e-13,4.573052923e-13,1.008083025e-13,2.384511076e-13,1.448773686e-13,1.534237023e-13,1.982875736e-13,5.414713597e-13,7.785259927e-13,5.426566714e-14,7.793149084e-13,5.015777007e-13,1.770000573e-12,1.748509057e-13
0.9296875,4.081991516e-13,8.098367405e-13,2.134749236e-13,6.840915081e-13,4.152925138e-13,1.880632893e-13,4.485853058e-13,8.610945023e-14,3.149849804e-14,3.164248928e-13,4.869396537e-13,3.485814364e-13,3.470641275e-13,6.48650614e-13,7.12032326e-13,5.995745927e-13,4.174203558e-13,3.911506948e-13,3.448717166e-13,4.756203662e-13,1.035532036e-13,2.425418044e-13,1.439383938e-13,1.56024804e-13,1.995301791e-13,5.637769007e-13,8.031695622e-13,5.392720341e-14,7.948723757e-13,4.99230302e-13,1.835181858e-12,1.808780175e-13
0.9375,4.047884534e-13,8.13511789e-13,2.13574938e-13,6.90848228e-13,4.285321809e-13,1.884781015e-13,4.544554253e-13,8.546106875e-14,3.243873921e-14,3.210101599e-13,5.083253355e-13,3.57105088e-13,3.45205243e-13,6.632026455e-13,7.528271009e-13,6.301001875e-13,4.425996284e-13,4.017198522e-13,3.466980225e-13,4.950441778e-13,1.064022817e-13,2.471649799e-13,1.435077821e-13,1.584832394e-13,2.008703356e-13,5.868204769e-13,8.281145876e-13,5.380727622e-14,8.10329112e-13,4.966870075e-13,1.900130437e-12,1.872812511e-13
0.9453125,4.009880071e-13,8.16059122e-13,2.140442626e-13,6.963765778e-13,4.410663549e-13,1.887901918e-13,4.592600933e-13,8.459807226e-14,3.347196035e-14,3.252716912e-13,5.302191873e-13,3.65149976e-13,3.429148241e-13,6.768699745e-13,7.941805181e-13,6.606334909e-13,4.683470471e-13,4.119299165e-13,3.482673371e-13,5.144487596e-13,1.093786637e-13,2.521164813e-13,1.431463473e-13,1.608261288e-13,2.016642313e-13,6.094198527e-13,8.519950653e-13,5.382573673e-14,8.249473381e-13,4.941391313e-13,1.964950478e-12,1.935618969e-13
0.953125,3.970422556e-13,8.174963799e-13,2.14413108e-13,7.00667794e-13,4.527748192e-13,1.889383832e-13,4.629448771e-13,8.359750161e-14,3.455190661e-14,3.290353709e-13,5.520223146e-13,3.727482751e-13,3.404927212e-13,6.898162234e-13,8.363089938e-13,6.90925749e-13,4.940673539e-13,4.218188518e-13,3.499863224e-13,5.336814965e-13,1.125309838e-13,2.575337445e-13,1.428793543e-13,1.632885186e-13,2.021351684e-13,6.315469866e-13,8.748999465e-13,5.414937768e-14,8.388339249e-13,4.919967796e-13,2.028427523e-12,1.996939894e-13
0.9609375,3.926094814e-13,8.177518167e-13,2.150746951e-13,7.04082281e-13,4.640383062e-13,1.892388803e-13,4.660266265e-13,8.255349382e-14,3.567578273e-14,3.323538628e-13,5.733480456e-13,3.800275907e-13,3.381188353e-13,7.024987577e-13,8.801639813e-13,7.222696548e-13,5.211417189e-13,4.320642002e-13,3.520729904e-13,5.536546733e-13,1.159508753e-13,2.634797726e-13,1.429462798e-13,1.658221813e-13,2.028610106e-13,6.537709697e-13,8.975466014e-13,5.482537474e-14,8.523182085e-13,4.899248589e-13,2.089877766e-12,2.059914094e-13
0.96875,3.875252724e-13,8.166394163e-13,2.163924885e-13,7.062508336e-13,4.74397277e-13,1.895617865e-13,4.68289168e-13,8.14008814e-14,3.68696074e-14,3.350686062e-13,5.94149274e-13,3.864701957e-13,3.355970727e-13,7.142963296e-13,9.245761827e-13,7.539344003e-13,5.492985242e-13,4.422541712e-13,3.541168908e-13,5.73778743e-13,1.194647263e-13,2.697758036e-13,1.430393232e-13,1.682409298e-13,2.03381388e-13,6.753788209e-13,9.193611544e-13,5.574870953e-14,8.650406778e-13,4.877734934e-13,2.149036375e-12,2.121274191e-13
0.9765625,3.822947683e-13,8.141365194e-13,2.179348237e-13,7.071148488e-13,4.835586151e-13,1.898640413e-13,4.693912805e-13,8.015989456e-14,3.81767061e-14,3.367785792e-13,6.142689708e-13,3.919694337e-13,3.330612985e-13,7.251906153e-13,9.691635785e-13,7.850841878e-13,5.775051902e-13,4.518459825e-13,3.561665782e-13,5.933928966e-13,1.22982686e-13,2.766273756e-13,1.432250481e-13,1.704876502e-13,2.033583278e-13,6.962778183e-13,9.3993408e-13,5.701069763e-14,8.767422088e-13,4.862243197e-13,2.204312554e-12,2.181334891e-13
0.984375,3.770271793e-13,8.102128421e-13,2.196924646e-13,7.071284962e-13,4.92074864e-13,1.905048813e-13,4.695209652e-13,7.901640674e-14,3.961525691e-14,3.37624558e-13,6.336065636e-13,3.968566906e-13,3.308045438e-13,7.35453929e-13,1.014499509e-12,8.165497566e-13,6.064840991e-13,4.61289094e-13,3.587967191e-13,6.129850952e-13,1.267899651e-13,2.844033147e-13,1.439481723e-13,1.722665446e-13,2.030938818e-13,7.169914389e-13,9.595533302e-13,5.864175828e-14,8.876854313e-13,4.856195426e-13,2.255951378e-12,2.243462286e-13
0.9921875,3.714961886e-13,8.051228878e-13,2.221051129e-13,7.064423922e-13,5.000122714e-13,1.915109963e-13,4.688217457e-13,7.796881332e-14,4.111264289e-14,3.380951916e-13,6.526209891e-13,4.01282695e-13,3.287849513e-13,7.451064421e-13,1.060714317e-12,8.485025651e-13,6.363040472e-13,4.707092053e-13,3.620126932e-13,6.324986057e-13,1.30965512e-13,2.928379003e-13,1.449375348e-13,1.736156836e-13,2.026102668e-13,7.369747749e-13,9.783028887e-13,6.052820093e-14,8.98191856e-13,4.857706736e-13,2.305034029e-12,2.303941878e-13
1,3.658671234e-13,7.990977057e-13,2.249623216e-13,7.050621867e-13,5.071291191e-13,1.928400245e-13,4.671981602e-13,7.690063831e-14,4.269787406e-14,3.380015827e-13,6.711977061e-13,4.053283001e-13,3.270974133e-13,7.543801385e-13,1.107656737e-12,8.802966496e-13,6.662208913e-13,4.798465994e-13,3.656468814e-13,6.516175924e-13,1.353379422e-13,3.016429327e-13,1.459280605e-13,1.751259723e-13,2.018606082e-13,7.560693159e-13,9.961135746e-13,6.276056326e-14,9.082636314e-13,4.865890735e-13,2.349993316e-12,2.3615301e-13
1.0078125,3.60393713e-13,7.920292597e-13,2.281954877e-13,7.028502371e-13,5.134719273e-13,1.944360736e-13,4.648701476e-13,7.581174646e-14,4.450507681e-14,3.370455981e-13,6.887173219e-13,4.088567667e-13,3.260572368e-13,7.629863222e-13,1.154592595e-12,9.119767717e-13,6.967714553e-13,4.89104575e-13,3.7002392e-13,6.704536876e-13,1.39902795e-13,3.111051424e-13,1.472453715e-13,1.767523499e-13,2.009781923e-13,7.748218385e-13,1.013283175e-12,6.551268198e-14,9.179864967e-13,4.881062092e-13,2.391827043e-12,2.419246841e-13
1.015625,3.55135118e-13,7.842181549e-13,2.322032641e-13,6.9988179e-13,5.191030684e-13,1.961948426e-13,4.623082532e-13,7.473268493e-14,4.643750176e-14,3.356945882e-13,7.057136221e-13,4.120918317e-13,3.256652764e-13,7.712919521e-13,1.202369623e-12,9.442190912e-13,7.283847861e-13,4.987793072e-13,3.751800799e-13,6.889948606e-13,1.447440845e-13,3.212408523e-13,1.489780258e-13,1.782529227e-13,2.001181242e-13,7.933617176e-13,1.030598202e-12,6.880913499e-14,9.280018718e-13,4.90534426e-13,2.432893038e-12,2.475564081e-13
1.0234375,3.500834099e-13,7.760527652e-13,2.367874402e-13,6.966436509e-13,5.241131543e-13,1.984660276e-13,4.595190185e-13,7.371711242e-14,4.835845777e-14,3.342295905e-13,7.226260522e-13,4.154861328e-13,3.257456558e-13,7.800792015e-13,1.251828583e-12,9.768847846e-13,7.603422733e-13,5.085144647e-13,3.80841659e-13,7.07380604e-13,1.499528049e-13,3.317531929e-13,1.509867155e-13,1.798453677e-13,1.993863027e-13,8.115807632e-13,1.047984112e-12,7.252861303e-14,9.384541735e-13,4.940466344e-13,2.470415171e-12,2.528922336e-13
1.03125,3.452298206e-13,7.67421807e-13,2.418199004e-13,6.930879295e-13,5.283698485e-13,2.013535985e-13,4.563106127e-13,7.281175993e-14,5.043884488e-14,3.322636597e-13,7.386693213e-13,4.185314134e-13,3.262842662e-13,7.881845413e-13,1.30044883e-12,1.008791692e-12,7.923809859e-13,5.181570067e-13,3.87060201e-13,7.257895264e-13,1.554794506e-13,3.427620765e-13,1.532664091e-13,1.812662874e-13,1.984793627e-13,8.290659724e-13,1.064422068e-12,7.655857353e-14,9.486667551e-13,4.985391633e-13,2.503441951e-12,2.57931851e-13
1.0390625,3.405805048e-13,7.584467173e-13,2.478491885e-13,6.889580115e-13,5.317856277e-13,2.04416055e-13,4.530210807e-13,7.196508665e-14,5.280238472e-14,3.2982188e-13,7.539756723e-13,4.209534788e-13,3.273788696e-13,7.950458132e-13,1.347711877e-12,1.039940479e-12,8.248804623e-13,5.27863689e-13,3.938202882e-13,7.439030648e-13,1.611611012e-13,3.54369246e-13,1.558404649e-13,1.822788172e-13,1.972428374e-13,8.458005475e-13,1.080271018e-12,8.100619379e-14,9.588253082e-13,5.041561958e-13,2.5357375e-12,2.626042249e-13
1.046875,3.361292416e-13,7.495586966e-13,2.548790395e-13,6.84530617e-13,5.347268529e-13,2.0754563e-13,4.498959963e-13,7.115508858e-14,5.53049245e-14,3.273875723e-13,7.694711684e-13,4.232649754e-13,3.290681116e-13,8.018481448e-13,1.396056584e-12,1.071326421e-12,8.575875403e-13,5.377351538e-13,4.009950924e-13,7.613485547e-13,1.671237342e-13,3.662925104e-13,1.587314078e-13,1.833105433e-13,1.96139109e-13,8.623220195e-13,1.096404601e-12,8.589073822e-14,9.695788872e-13,5.110263751e-13,2.567429879e-12,2.670123814e-13
1.0546875,3.317918572e-13,7.408372154e-13,2.624576003e-13,6.800136914e-13,5.372692725e-13,2.109446123e-13,4.466977378e-13,7.049315163e-14,5.78562801e-14,3.249372643e-13,7.846885146e-13,4.251943244e-13,3.311165064e-13,8.083436443e-13,1.444929537e-12,1.102782207e-12,8.9030287e-13,5.478132522e-13,4.085134376e-13,7.783462395e-13,1.734215441e-13,3.783066537e-13,1.617903461e-13,1.844803832e-13,1.95264302e-13,8.783266542e-13,1.112233323e-12,9.097086698e-14,9.804696362e-13,5.186708934e-13,2.596466757e-12,2.711195303e-13
1.0625,3.274594738e-13,7.320573174e-13,2.706011469e-13,6.754317531e-13,5.392214303e-13,2.148171294e-13,4.436265588e-13,7.004996909e-14,6.047283152e-14,3.223045635e-13,7.989001923e-13,4.265833e-13,3.33327851e-13,8.139666343e-13,1.492935186e-12,1.133732122e-12,9.234692494e-13,5.578046562e-13,4.161120065e-13,7.952785447e-13,1.798230327e-13,3.904327222e-13,1.649988286e-13,1.85674985e-13,1.944314229e-13,8.935501079e-13,1.127457264e-12,9.624388407e-14,9.911259357e-13,5.270467791e-13,2.622829429e-12,2.747965994e-13
1.0703125,3.232944352e-13,7.231711661e-13,2.793083155e-13,6.706989339e-13,5.40561734e-13,2.191210487e-13,4.410826941e-13,6.974875223e-14,6.315691301e-14,3.198728008e-13,8.124277885e-13,4.278567036e-13,3.359636386e-13,8.189810207e-13,1.539923767e-12,1.163870385e-12,9.566676693e-13,5.674001746e-13,4.239436909e-13,8.116510535e-13,1.86443279e-13,4.028750872e-13,1.686821466e-13,1.86873581e-13,1.938095567e-13,9.082638465e-13,1.142352819e-12,1.018655555e-13,1.001863204e-12,5.367834395e-13,2.645968237e-12,2.781584479e-13
1.078125,3.194725231e-13,7.143677401e-13,2.883573387e-13,6.655976683e-13,5.411900048e-13,2.235042913e-13,4.387299974e-13,6.960779746e-14,6.593020441e-14,3.177784522e-13,8.252242304e-13,4.28627416e-13,3.392096705e-13,8.230072467e-13,1.585145154e-12,1.192849345e-12,9.893338919e-13,5.768992248e-13,4.3244707e-13,8.270188889e-13,1.933557853e-13,4.155959863e-13,1.727044399e-13,1.878231772e-13,1.93312214e-13,9.219532261e-13,1.156421771e-12,1.077662946e-13,1.012418039e-12,5.477141194e-13,2.665498535e-12,2.810814905e-13
1.0859375,3.157621468e-13,7.05619144e-13,2.977346965e-13,6.603500231e-13,5.412860379e-13,2.280709249e-13,4.36220322e-13,6.973183319e-14,6.878824137e-14,3.155371699e-13,8.369282807e-13,4.288846644e-13,3.429972181e-13,8.263184108e-13,1.629128963e-12,1.220970032e-12,1.021957403e-12,5.865032783e-13,4.413775977e-13,8.41984827e-13,2.002138622e-13,4.282401606e-13,1.767121969e-13,1.884749872e-13,1.928168075e-13,9.344466625e-13,1.169609837e-12,1.139038638e-13,1.02258546e-12,5.593135075e-13,2.682519684e-12,2.833592974e-13
1.09375,3.123940178e-13,6.970462779e-13,3.076496318e-13,6.553531781e-13,5.410957269e-13,2.332141778e-13,4.339330876e-13,7.005755223e-14,7.173559544e-14,3.130849229e-13,8.479706438e-13,4.293705861e-13,3.476174033e-13,8.296671475e-13,1.672606212e-12,1.248523973e-12,1.054350165e-12,5.960857388e-13,4.507152705e-13,8.563590514e-13,2.071475463e-13,4.410218521e-13,1.809900921e-13,1.889576047e-13,1.926020652e-13,9.462766035e-13,1.182354505e-12,1.203746134e-13,1.032884291e-12,5.720225406e-13,2.697412616e-12,2.851506785e-13
1.1015625,3.100473734e-13,6.892668239e-13,3.18428178e-13,6.507177575e-13,5.403386596e-13,2.390074555e-13,4.323138265e-13,7.059387603e-14,7.48180523e-14,3.108820989e-13,8.58473865e-13,4.299748952e-13,3.533549561e-13,8.327483438e-13,1.714314272e-12,1.274948881e-12,1.085959511e-12,6.058945078e-13,4.609985101e-13,8.692780204e-13,2.14560139e-13,4.544089982e-13,1.857058505e-13,1.892041545e-13,1.926047982e-13,9.570769106e-13,1.194301666e-12,1.272361242e-13,1.043345007e-12,5.863193475e-13,2.708942514e-12,2.8648706e-13
1.109375,3.083613066e-13,6.821137413e-13,3.299825924e-13,6.463796723e-13,5.388789741e-13,2.454525749e-13,4.31389369e-13,7.142299359e-14,7.797422392e-14,3.090601236e-13,8.677172973e-13,4.305662662e-13,3.599457869e-13,8.353529383e-13,1.753283489e-12,1.299542648e-12,1.11680366e-12,6.158590393e-13,4.719782801e-13,8.81019217e-13,2.221901083e-13,4.680444487e-13,1.905755166e-13,1.892919953e-13,1.925977621e-13,9.663831577e-13,1.205007349e-12,1.344360023e-13,1.053411673e-12,6.017498222e-13,2.715685557e-12,2.872428281e-13
1.1171875,3.066944233e-13,6.747242987e-13,3.418441181e-13,6.419381551e-13,5.367669013e-13,2.522290637e-13,4.310279556e-13,7.23362454e-14,8.11700746e-14,3.074800982e-13,8.754852136e-13,4.314586207e-13,3.671872898e-13,8.373990848e-13,1.789237165e-12,1.32203296e-12,1.146174454e-12,6.253947755e-13,4.832094795e-13,8.915762995e-13,2.296224426e-13,4.815300088e-13,1.956413176e-13,1.892906005e-13,1.927471963e-13,9.743972549e-13,1.214501485e-12,1.418738183e-13,1.062889817e-12,6.176983439e-13,2.718033501e-12,2.874844521e-13
1.125,3.054630436e-13,6.673214702e-13,3.540632066e-13,6.372463959e-13,5.338917039e-13,2.589493013e-13,4.312628718e-13,7.322418026e-14,8.454686348e-14,3.062003239e-13,8.82271819e-13,4.326353387e-13,3.752724431e-13,8.388487015e-13,1.822093237e-12,1.34257927e-12,1.173584985e-12,6.345486454e-13,4.949353056e-13,9.001062095e-13,2.370185837e-13,4.95115074e-13,2.010799783e-13,1.891489718e-13,1.932040606e-13,9.812276614e-13,1.223055006e-12,1.496461721e-13,1.072075768e-12,6.342193008e-13,2.71712638e-12,2.872521045e-13
1.1328125,3.04927831e-13,6.605194623e-13,3.666926881e-13,6.326613866e-13,5.304160316e-13,2.658827568e-13,4.323043712e-13,7.426417902e-14,8.814116062e-14,3.053935692e-13,8.882870472e-13,4.342996097e-13,3.843291823e-13,8.402466404e-13,1.851918488e-12,1.36095884e-12,1.199152938e-12,6.434979952e-13,5.071605048e-13,9.064331517e-13,2.446201664e-13,5.088664754e-13,2.067954204e-13,1.889714391e-13,1.939630522e-13,9.86833751e-13,1.230731752e-12,1.578197766e-13,1.08112823e-12,6.516366025e-13,2.713266478e-12,2.865709637e-13
1.140625,3.047176806e-13,6.5397933e-13,3.793836038e-13,6.280350986e-13,5.26430447e-13,2.732071253e-13,4.342486891e-13,7.541517906e-14,9.186963534e-14,3.050353541e-13,8.931845057e-13,4.365434875e-13,3.942198109e-13,8.413477972e-13,1.87825234e-12,1.376804527e-12,1.222480833e-12,6.520162611e-13,5.195838761e-13,9.107644194e-13,2.520610729e-13,5.225732731e-13,2.127296907e-13,1.88728721e-13,1.949496582e-13,9.91078956e-13,1.237028985e-12,1.661709072e-13,1.089564437e-12,6.695436339e-13,2.707386446e-12,2.85555347e-13
1.1484375,3.049642524e-13,6.475489121e-13,3.924834852e-13,6.232053247e-13,5.218702833e-13,2.807154631e-13,4.370665857e-13,7.656844485e-14,9.578014687e-14,3.050329561e-13,8.969393427e-13,4.391928268e-13,4.047878016e-13,8.418391388e-13,1.901679572e-12,1.390882105e-12,1.244118661e-12,6.603638285e-13,5.321848148e-13,9.133819175e-13,2.591103679e-13,5.362047402e-13,2.190778742e-13,1.884481596e-13,1.961863471e-13,9.941767884e-13,1.242067536e-12,1.747531142e-13,1.097215692e-12,6.874848082e-13,2.699585845e-12,2.842420443e-13
1.15625,3.059997582e-13,6.417852545e-13,4.064408538e-13,6.186925801e-13,5.170627134e-13,2.884214347e-13,4.408055587e-13,7.782739679e-14,9.993304616e-14,3.056214783e-13,9.003332414e-13,4.426576052e-13,4.159915207e-13,8.423510611e-13,1.922672627e-12,1.403498032e-12,1.264679383e-12,6.687876096e-13,5.44990091e-13,9.146210492e-13,2.663311317e-13,5.496754818e-13,2.259373493e-13,1.884603825e-13,1.978919349e-13,9.966376874e-13,1.246460897e-12,1.837956364e-13,1.104653322e-12,7.059244831e-13,2.688348997e-12,2.826538122e-13
1.1640625,3.074155939e-13,6.366315359e-13,4.206454246e-13,6.145416256e-13,5.120968731e-13,2.963133219e-13,4.453066647e-13,7.92196037e-14,1.042967723e-13,3.0690873e-13,9.036174998e-13,4.4688004e-13,4.276410496e-13,8.425297131e-13,1.93946616e-12,1.413532842e-12,1.283084005e-12,6.767610686e-13,5.577824784e-13,9.144698032e-13,2.736270251e-13,5.626019975e-13,2.328864174e-13,1.886887424e-13,1.999451914e-13,9.980347932e-13,1.249622842e-12,1.930090636e-13,1.111502345e-12,7.246060424e-13,2.673993645e-12,2.807758806e-13
1.171875,3.086363423e-13,6.313823412e-13,4.345614302e-13,6.101981402e-13,5.066904422e-13,3.04281613e-13,4.50278355e-13,8.067696835e-14,1.088635939e-13,3.08481693e-13,9.060245852e-13,4.512359737e-13,4.394138649e-13,8.418236123e-13,1.951658069e-12,1.420673988e-12,1.298874471e-12,6.839414332e-13,5.701417086e-13,9.12775941e-13,2.802122236e-13,5.745989442e-13,2.397593835e-13,1.889351027e-13,2.021719274e-13,9.978088835e-13,1.250975432e-12,2.02133647e-13,1.116730535e-12,7.423533009e-13,2.656519966e-12,2.785330234e-13
1.1796875,3.098114218e-13,6.259349756e-13,4.484922601e-13,6.055427252e-13,5.009491023e-13,3.123440959e-13,4.561143303e-13,8.222960463e-14,1.136130127e-13,3.104174907e-13,9.074025303e-13,4.559903538e-13,4.512073836e-13,8.408565377e-13,1.960529003e-12,1.425375761e-12,1.312423238e-12,6.905485563e-13,5.819530786e-13,9.090750425e-13,2.864768146e-13,5.858079482e-13,2.471790394e-13,1.895271948e-13,2.048420862e-13,9.964659103e-13,1.250989904e-12,2.113467811e-13,1.12048915e-12,7.593975228e-13,2.634151976e-12,2.76065739e-13
1.1875,3.111185643e-13,6.205904228e-13,4.626604669e-13,6.00716874e-13,4.949826172e-13,3.20459322e-13,4.633940761e-13,8.396901166e-14,1.18458867e-13,3.134007778e-13,9.083218326e-13,4.613815478e-13,4.629590101e-13,8.395348835e-13,1.965634056e-12,1.427555886e-12,1.32360963e-12,6.966004715e-13,5.933741137e-13,9.032166316e-13,2.928694938e-13,5.965734229e-13,2.551488215e-13,1.905137995e-13,2.078174958e-13,9.942640934e-13,1.249597732e-12,2.205858806e-13,1.123130671e-12,7.764890791e-13,2.608848367e-12,2.735299095e-13
1.1953125,3.120677532e-13,6.150683773e-13,4.767460072e-13,5.955286518e-13,4.88531804e-13,3.284561718e-13,4.716360155e-13,8.589831548e-14,1.233397887e-13,3.173585649e-13,9.088171781e-13,4.669709148e-13,4.745410181e-13,8.37115015e-13,1.966310146e-12,1.427091697e-12,1.332520325e-12,7.017599657e-13,6.0412535e-13,8.958149661e-13,2.987288447e-13,6.066583182e-13,2.629613987e-13,1.915561208e-13,2.10735179e-13,9.907836593e-13,1.246277633e-12,2.295883065e-13,1.124196561e-12,7.929641115e-13,2.583801197e-12,2.707359904e-13
1.203125,3.124569024e-13,6.090076687e-13,4.904521778e-13,5.896478456e-13,4.814493678e-13,3.361594027e-13,4.801683166e-13,8.790488253e-14,1.283159756e-13,3.216839873e-13,9.086108583e-13,4.727606964e-13,4.85999213e-13,8.336170422e-13,1.962589848e-12,1.423775385e-12,1.33889098e-12,7.058322159e-13,6.139540888e-13,8.868228286e-13,3.039949299e-13,6.156940842e-13,2.707860195e-13,1.927333521e-13,2.138926638e-13,9.859577911e-13,1.24098916e-12,2.383704363e-13,1.123441022e-12,8.081421127e-13,2.557334123e-12,2.674975644e-13
1.2109375,3.125875996e-13,6.026213655e-13,5.039174376e-13,5.831027018e-13,4.738153904e-13,3.437416169e-13,4.892792403e-13,8.997266347e-14,1.334927449e-13,3.264059156e-13,9.076106385e-13,4.791170825e-13,4.972829379e-13,8.294227021e-13,1.954396366e-12,1.417387178e-12,1.34230059e-12,7.088406443e-13,6.229538976e-13,8.760173955e-13,3.090295817e-13,6.236434061e-13,2.790871381e-13,1.942798993e-13,2.174337626e-13,9.79947361e-13,1.233732882e-12,2.470058984e-13,1.120863395e-12,8.223394244e-13,2.527172988e-12,2.638983994e-13
1.21875,3.123763175e-13,5.960550491e-13,5.170817779e-13,5.760070173e-13,4.656979369e-13,3.514824184e-13,4.993162006e-13,9.215718658e-14,1.388030284e-13,3.318683926e-13,9.057460416e-13,4.860695367e-13,5.082444073e-13,8.247728629e-13,1.942233705e-12,1.408100053e-12,1.343001025e-12,7.106903411e-13,6.309148657e-13,8.637259955e-13,3.135818914e-13,6.304033582e-13,2.875975672e-13,1.962112188e-13,2.210573048e-13,9.727071064e-13,1.224434194e-12,2.554208782e-13,1.116236977e-12,8.357897485e-13,2.493690803e-12,2.600700702e-13
1.2265625,3.116581618e-13,5.890438268e-13,5.293367083e-13,5.680115227e-13,4.570189054e-13,3.590263887e-13,5.101067129e-13,9.436129489e-14,1.441340028e-13,3.380973541e-13,9.030848458e-13,4.931936604e-13,5.18981806e-13,8.192880172e-13,1.925623248e-12,1.395725147e-12,1.340865391e-12,7.113151066e-13,6.376959424e-13,8.497672089e-13,3.176188307e-13,6.36071577e-13,2.961841986e-13,1.984322825e-13,2.247939519e-13,9.642091184e-13,1.213031667e-12,2.635424259e-13,1.10938816e-12,8.480407776e-13,2.457009767e-12,2.561343789e-13
1.234375,3.10600667e-13,5.814306103e-13,5.40488516e-13,5.589574339e-13,4.477017266e-13,3.659633545e-13,5.214636962e-13,9.650556418e-14,1.496094783e-13,3.449674652e-13,9.000699136e-13,5.003404078e-13,5.294639039e-13,8.12537134e-13,1.903672173e-12,1.37997247e-12,1.335656675e-12,7.107564354e-13,6.433945726e-13,8.341694417e-13,3.212374861e-13,6.409321163e-13,3.050479752e-13,2.008976077e-13,2.287278078e-13,9.545664056e-13,1.199596664e-12,2.713964523e-13,1.100353803e-12,8.586959021e-13,2.417512436e-12,2.52138985e-13
1.2421875,3.093202984e-13,5.734513785e-13,5.509842495e-13,5.494037251e-13,4.379658958e-13,3.724618955e-13,5.331772232e-13,9.867497805e-14,1.553244388e-13,3.524503313e-13,8.973556428e-13,5.082241039e-13,5.394821804e-13,8.052193088e-13,1.878105943e-12,1.361431401e-12,1.32738227e-12,7.089386214e-13,6.479045493e-13,8.171283059e-13,3.243578607e-13,6.447303355e-13,3.139436311e-13,2.037459158e-13,2.326929551e-13,9.43813421e-13,1.184528136e-12,2.789943849e-13,1.089536189e-12,8.681658992e-13,2.376683194e-12,2.479581895e-13
1.25,3.077416127e-13,5.653284861e-13,5.608492086e-13,5.396786862e-13,4.281792869e-13,3.786445281e-13,5.449411804e-13,1.009035021e-13,1.61121745e-13,3.604507087e-13,8.948315199e-13,5.170141097e-13,5.491085904e-13,7.979210588e-13,1.850397952e-12,1.340898192e-12,1.31615844e-12,7.061362641e-13,6.513352204e-13,7.985002388e-13,3.269853625e-13,6.4709745e-13,3.224837913e-13,2.069258411e-13,2.366762275e-13,9.320479403e-13,1.168034391e-12,2.862261016e-13,1.077322579e-12,8.765332753e-13,2.334682238e-12,2.436044581e-13
1.2578125,3.056710898e-13,5.567821563e-13,5.695962249e-13,5.294050432e-13,4.184182226e-13,3.843948738e-13,5.566957201e-13,1.031042649e-13,1.669505026e-13,3.68623826e-13,8.912264588e-13,5.259576817e-13,5.583074975e-13,7.901383323e-13,1.819183416e-12,1.318369811e-12,1.302949787e-12,7.027083009e-13,6.537608836e-13,7.791432961e-13,3.289903124e-13,6.481206888e-13,3.309737638e-13,2.104567091e-13,2.408577176e-13,9.196617652e-13,1.149940709e-12,2.930758992e-13,1.063386986e-12,8.82887623e-13,2.290488911e-12,2.392941596e-13
1.265625,3.030752237e-13,5.475322926e-13,5.769986865e-13,5.183548216e-13,4.084373423e-13,3.895557842e-13,5.686836019e-13,1.052563317e-13,1.729242095e-13,3.770375991e-13,8.8617123e-13,5.351237401e-13,5.666324909e-13,7.814434161e-13,1.783302622e-12,1.293130786e-12,1.287820665e-12,6.98059096e-13,6.548321285e-13,7.593575639e-13,3.306266033e-13,6.478926791e-13,3.398828777e-13,2.148178296e-13,2.452387406e-13,9.066309726e-13,1.129981087e-12,2.995568148e-13,1.047252596e-12,8.869616706e-13,2.244743549e-12,2.350025291e-13
1.2734375,2.999804646e-13,5.377473454e-13,5.829654201e-13,5.068153138e-13,3.981765542e-13,3.940021975e-13,5.808864976e-13,1.074325496e-13,1.78971076e-13,3.862463849e-13,8.811843177e-13,5.448870742e-13,5.738085463e-13,7.719391258e-13,1.743377029e-12,1.264995409e-12,1.269595984e-12,6.916225659e-13,6.544395489e-13,7.380553765e-13,3.320047511e-13,6.462893407e-13,3.487277111e-13,2.196778072e-13,2.495072716e-13,8.925039062e-13,1.108085903e-12,3.054218835e-13,1.029056862e-12,8.890920486e-13,2.199118546e-12,2.305546482e-13
1.28125,2.961116196e-13,5.273885551e-13,5.874080877e-13,4.948804813e-13,3.878999555e-13,3.977987351e-13,5.927506025e-13,1.095691373e-13,1.849536424e-13,3.959098738e-13,8.769342107e-13,5.547449017e-13,5.799830029e-13,7.619031369e-13,1.701025532e-12,1.235059414e-12,1.248641418e-12,6.839060165e-13,6.525585071e-13,7.152454794e-13,3.323200929e-13,6.431417818e-13,3.570033384e-13,2.243000936e-13,2.536114184e-13,8.774873251e-13,1.084687321e-12,3.105851413e-13,1.009159229e-12,8.889809496e-13,2.152775695e-12,2.2605026e-13
1.2890625,2.915714851e-13,5.162953912e-13,5.908094936e-13,4.82276784e-13,3.77666743e-13,4.008197893e-13,6.039999114e-13,1.115034257e-13,1.909735398e-13,4.051728592e-13,8.723351871e-13,5.644103865e-13,5.853413756e-13,7.513031581e-13,1.656925793e-12,1.203819264e-12,1.225632322e-12,6.752262673e-13,6.491506977e-13,6.913074378e-13,3.318755304e-13,6.384729782e-13,3.65283058e-13,2.293485884e-13,2.578844565e-13,8.6198598e-13,1.060014912e-12,3.152789825e-13,9.876420676e-13,8.865741532e-13,2.103978033e-12,2.216877599e-13
1.296875,2.868566729e-13,5.04745699e-13,5.934758632e-13,4.690218849e-13,3.674362751e-13,4.027802655e-13,6.148115399e-13,1.132603914e-13,1.971342539e-13,4.142260157e-13,8.671088678e-13,5.741148111e-13,5.897943825e-13,7.398083352e-13,1.609720169e-12,1.170441733e-12,1.200206744e-12,6.652687418e-13,6.445339569e-13,6.66430238e-13,3.316943267e-13,6.325819546e-13,3.73760377e-13,2.352601677e-13,2.622315389e-13,8.459566842e-13,1.033912357e-12,3.194977894e-13,9.645623183e-13,8.823797513e-13,2.054460121e-12,2.175068416e-13
1.3046875,2.817032946e-13,4.927621595e-13,5.945050916e-13,4.552026881e-13,3.574330054e-13,4.038164129e-13,6.249695878e-13,1.149540231e-13,2.032461104e-13,4.234578859e-13,8.6183727e-13,5.838056104e-13,5.930660122e-13,7.27660856e-13,1.55958651e-12,1.135314951e-12,1.172823325e-12,6.540150188e-13,6.385414735e-13,6.414470707e-13,3.309595112e-13,6.255020655e-13,3.817974936e-13,2.410905544e-13,2.66390588e-13,8.295843656e-13,1.006819645e-12,3.23095819e-13,9.401898848e-13,8.763406799e-13,2.006711877e-12,2.134330558e-13
1.3125,2.755446636e-13,4.799604527e-13,5.932392988e-13,4.405462386e-13,3.476502378e-13,4.041117169e-13,6.341563225e-13,1.16611964e-13,2.091338677e-13,4.326108977e-13,8.563200044e-13,5.933509689e-13,5.950462571e-13,7.15166921e-13,1.508582749e-12,1.099717468e-12,1.144029221e-12,6.41649226e-13,6.306644194e-13,6.162221789e-13,3.288909092e-13,6.169023552e-13,3.894317817e-13,2.466171858e-13,2.705365695e-13,8.130211474e-13,9.790808186e-13,3.260603304e-13,9.145183429e-13,8.679623102e-13,1.960435528e-12,2.093304975e-13
1.3203125,2.686076538e-13,4.66461383e-13,5.905084656e-13,4.252118635e-13,3.378729048e-13,4.035600206e-13,6.42511436e-13,1.182135621e-13,2.149503262e-13,4.415756712e-13,8.505077844e-13,6.028377084e-13,5.959050899e-13,7.020509006e-13,1.456478329e-12,1.063320212e-12,1.113587836e-12,6.281991383e-13,6.212330364e-13,5.904607592e-13,3.262746938e-13,6.068274199e-13,3.96962716e-13,2.524591127e-13,2.746240513e-13,7.960892257e-13,9.503483971e-13,3.284141811e-13,8.873161666e-13,8.573994839e-13,1.915075685e-12,2.052073446e-13
1.328125,2.61448577e-13,4.526894456e-13,5.87251268e-13,4.097920048e-13,3.281905072e-13,4.021180544e-13,6.500877131e-13,1.196596159e-13,2.208159872e-13,4.503317997e-13,8.449378651e-13,6.122760543e-13,5.958237982e-13,6.884632272e-13,1.402500017e-12,1.025496253e-12,1.081364232e-12,6.136538059e-13,6.106966546e-13,5.646800239e-13,3.233976741e-13,5.956294041e-13,4.040256044e-13,2.587266587e-13,2.783981968e-13,7.788381566e-13,9.206548642e-13,3.303345941e-13,8.589059371e-13,8.455264965e-13,1.870299086e-12,2.012093559e-13
1.3359375,2.541696853e-13,4.38655774e-13,5.834009713e-13,3.942566597e-13,3.18649166e-13,3.9991384e-13,6.566645735e-13,1.209249251e-13,2.265462397e-13,4.586521718e-13,8.392716635e-13,6.21361571e-13,5.947775227e-13,6.747672183e-13,1.347539188e-12,9.866581106e-13,1.047302113e-12,5.980539877e-13,5.98891776e-13,5.386964503e-13,3.199480464e-13,5.833190038e-13,4.103806909e-13,2.651876085e-13,2.819410111e-13,7.612274707e-13,8.901615042e-13,3.31900552e-13,8.296381482e-13,8.325359886e-13,1.825201753e-12,1.972939462e-13
1.34375,2.465091686e-13,4.241608703e-13,5.786627408e-13,3.782632501e-13,3.092308207e-13,3.972052373e-13,6.622922577e-13,1.221546714e-13,2.32053199e-13,4.664712076e-13,8.326983864e-13,6.299072317e-13,5.926970348e-13,6.608415398e-13,1.291975602e-12,9.472230535e-13,1.012029805e-12,5.816469142e-13,5.858012768e-13,5.128292203e-13,3.159827797e-13,5.698660296e-13,4.162399712e-13,2.716257605e-13,2.851981907e-13,7.432282915e-13,8.587666652e-13,3.329438861e-13,7.992051485e-13,8.177741202e-13,1.780416611e-12,1.934118662e-13
1.3515625,2.384658742e-13,4.092669451e-13,5.733405988e-13,3.619413444e-13,3.00184245e-13,3.940505745e-13,6.674132692e-13,1.234097535e-13,2.374849805e-13,4.74115077e-13,8.255201443e-13,6.382920891e-13,5.896900674e-13,6.467705801e-13,1.23629139e-12,9.076827168e-13,9.763581177e-13,5.646606889e-13,5.717403242e-13,4.87585515e-13,3.115894426e-13,5.555988242e-13,4.217284829e-13,2.780499586e-13,2.879972004e-13,7.253364907e-13,8.268329344e-13,3.335405039e-13,7.675636974e-13,8.013950466e-13,1.736611643e-12,1.89694177e-13
1.359375,2.303509854e-13,3.943605048e-13,5.677452887e-13,3.456676449e-13,2.915895684e-13,3.902412576e-13,6.72146075e-13,1.246345887e-13,2.428457663e-13,4.819939424e-13,8.184369979e-13,6.468013447e-13,5.858736527e-13,6.328237412e-13,1.18123578e-12,8.683196722e-13,9.399577915e-13,5.470880433e-13,5.569290545e-13,4.623452933e-13,3.069145553e-13,5.407428522e-13,4.267806275e-13,2.844705431e-13,2.904971692e-13,7.077118632e-13,7.947747361e-13,3.337860783e-13,7.353415179e-13,7.839657216e-13,1.693012909e-12,1.861149631e-13
1.3671875,2.222385495e-13,3.797368045e-13,5.616793779e-13,3.297089762e-13,2.833365502e-13,3.857930733e-13,6.758808682e-13,1.257180753e-13,2.480444513e-13,4.895271129e-13,8.109254382e-13,6.55237209e-13,5.812496775e-13,6.191231493e-13,1.126291049e-12,8.287910492e-13,9.028050887e-13,5.290390695e-13,5.414084603e-13,4.375972028e-13,3.020201737e-13,5.252199444e-13,4.313590704e-13,2.907407626e-13,2.927683828e-13,6.899962192e-13,7.625832595e-13,3.336068656e-13,7.030334367e-13,7.654046009e-13,1.650212077e-12,1.825919304e-13
1.375,2.141684058e-13,3.652683366e-13,5.552232603e-13,3.140384251e-13,2.754595042e-13,3.807489938e-13,6.779827845e-13,1.265211821e-13,2.531184429e-13,4.956079686e-13,8.021290661e-13,6.63396148e-13,5.758496821e-13,6.057236324e-13,1.071512847e-12,7.893132145e-13,8.65510517e-13,5.106058491e-13,5.251542942e-13,4.138564849e-13,2.96789377e-13,5.089365565e-13,4.353391116e-13,2.971143714e-13,2.946015222e-13,6.720555684e-13,7.30238005e-13,3.3324098e-13,6.707152777e-13,7.459849449e-13,1.608805247e-12,1.791536026e-13
1.3828125,2.063521558e-13,3.507802109e-13,5.484801823e-13,2.984705246e-13,2.678558769e-13,3.752720412e-13,6.782948102e-13,1.271358612e-13,2.579921932e-13,5.004132167e-13,7.923938113e-13,6.709857495e-13,5.696307261e-13,5.923408353e-13,1.017777961e-12,7.504291033e-13,8.282092445e-13,4.917331907e-13,5.082065815e-13,3.903168311e-13,2.913632576e-13,4.918749563e-13,4.383400561e-13,3.035580148e-13,2.958646474e-13,6.538105981e-13,6.978218155e-13,3.327604766e-13,6.383800054e-13,7.260323903e-13,1.567795747e-12,1.756265344e-13
1.390625,1.986615524e-13,3.363557935e-13,5.408726533e-13,2.830570013e-13,2.604306838e-13,3.698886493e-13,6.772133002e-13,1.277382722e-13,2.624904267e-13,5.045854258e-13,7.822119904e-13,6.777377424e-13,5.624908237e-13,5.788097972e-13,9.65015951e-13,7.122381992e-13,7.912803926e-13,4.726865172e-13,4.90623285e-13,3.674366069e-13,2.85822172e-13,4.742445746e-13,4.404793005e-13,3.095792368e-13,2.966490221e-13,6.353889449e-13,6.655820955e-13,3.318154225e-13,6.06096915e-13,7.050903983e-13,1.528220382e-12,1.719218843e-13
1.3984375,1.90869923e-13,3.220176058e-13,5.324923254e-13,2.679019013e-13,2.533822663e-13,3.642317302e-13,6.75229075e-13,1.282249613e-13,2.667011753e-13,5.080054933e-13,7.714037579e-13,6.838755155e-13,5.545976438e-13,5.654266622e-13,9.132276518e-13,6.74882077e-13,7.548279751e-13,4.536078419e-13,4.723844559e-13,3.456132703e-13,2.799694325e-13,4.56300848e-13,4.42420828e-13,3.156185663e-13,2.972106998e-13,6.171981952e-13,6.337185161e-13,3.305427113e-13,5.738526514e-13,6.832844294e-13,1.491510501e-12,1.683095709e-13
1.40625,1.832577943e-13,3.077746319e-13,5.243056224e-13,2.530677529e-13,2.467292011e-13,3.574327806e-13,6.717455505e-13,1.284521197e-13,2.707956795e-13,5.104963336e-13,7.600313543e-13,6.896655528e-13,5.46162181e-13,5.523839839e-13,8.630429328e-13,6.384351778e-13,7.183609797e-13,4.342241231e-13,4.53551312e-13,3.240814518e-13,2.73777375e-13,4.379270013e-13,4.439652754e-13,3.219928916e-13,2.976338375e-13,5.99058386e-13,6.022879047e-13,3.293666235e-13,5.418405448e-13,6.613845856e-13,1.455864631e-12,1.647856197e-13
1.4140625,1.762145351e-13,2.939550884e-13,5.163035339e-13,2.388360852e-13,2.403223942e-13,3.500575242e-13,6.660702041e-13,1.284718039e-13,2.746713894e-13,5.117992201e-13,7.480612035e-13,6.950766001e-13,5.371237691e-13,5.39755175e-13,8.147590172e-13,6.030989537e-13,6.825651059e-13,4.148211383e-13,4.344536716e-13,3.033183991e-13,2.673946892e-13,4.191582228e-13,4.444538162e-13,3.278866288e-13,2.976421572e-13,5.806120681e-13,5.716028378e-13,3.281944928e-13,5.107854874e-13,6.39484613e-13,1.420516466e-12,1.61098955e-13
1.421875,1.697091011e-13,2.807620496e-13,5.077798697e-13,2.252904228e-13,2.342787742e-13,3.428556601e-13,6.588907727e-13,1.283472536e-13,2.781208661e-13,5.117574531e-13,7.351508578e-13,6.999181344e-13,5.275104418e-13,5.273760668e-13,7.68114961e-13,5.692390413e-13,6.482719209e-13,3.959576632e-13,4.154014746e-13,2.838644761e-13,2.609496469e-13,4.004373e-13,4.441020575e-13,3.332984747e-13,2.969899636e-13,5.621527228e-13,5.417854989e-13,3.267899441e-13,4.810155806e-13,6.174461168e-13,1.38747306e-12,1.573784347e-13
1.4296875,1.635707658e-13,2.679898447e-13,4.987733138e-13,2.121823642e-13,2.286261806e-13,3.354176255e-13,6.504724665e-13,1.280467094e-13,2.811239835e-13,5.107960432e-13,7.215833579e-13,7.039153218e-13,5.175519437e-13,5.148825207e-13,7.227654955e-13,5.365603951e-13,6.147812211e-13,3.774746567e-13,3.963023001e-13,2.653372506e-13,2.545312414e-13,3.818424525e-13,4.432362642e-13,3.388543503e-13,2.958240076e-13,5.438761124e-13,5.126600049e-13,3.251839541e-13,4.521631848e-13,5.954633813e-13,1.357487757e-12,1.537463604e-13
1.4375,1.579252231e-13,2.55697393e-13,4.897530929e-13,1.995813922e-13,2.231247867e-13,3.276067306e-13,6.403419922e-13,1.275553863e-13,2.839075155e-13,5.090205075e-13,7.074655202e-13,7.073062515e-13,5.073930511e-13,5.026014173e-13,6.790032557e-13,5.048619494e-13,5.815851854e-13,3.591572706e-13,3.770037058e-13,2.477231598e-13,2.480670343e-13,3.632182771e-13,4.416791037e-13,3.440148459e-13,2.94499026e-13,5.256159978e-13,4.845928917e-13,3.235264573e-13,4.243513646e-13,5.738066632e-13,1.330488511e-12,1.499441021e-13
1.4453125,1.530070108e-13,2.442502047e-13,4.809627136e-13,1.878019121e-13,2.178083495e-13,3.196646637e-13,6.290661797e-13,1.269904497e-13,2.867044217e-13,5.063167358e-13,6.922029478e-13,7.107393655e-13,4.971251648e-13,4.91123698e-13,6.371971341e-13,4.744892659e-13,5.492882814e-13,3.412434104e-13,3.576542009e-13,2.30894477e-13,2.412800485e-13,3.4476242e-13,4.392309355e-13,3.481895373e-13,2.930577186e-13,5.074195274e-13,4.580276829e-13,3.220085152e-13,3.9804521e-13,5.527150639e-13,1.307043913e-12,1.458833241e-13
1.453125,1.488678166e-13,2.336546826e-13,4.726079968e-13,1.769360177e-13,2.129067417e-13,3.115299755e-13,6.16953826e-13,1.264009588e-13,2.893566803e-13,5.027992168e-13,6.760253971e-13,7.14058766e-13,4.867859095e-13,4.802466394e-13,5.9721834e-13,4.455073586e-13,5.184677344e-13,3.239957362e-13,3.385484351e-13,2.15003406e-13,2.342114769e-13,3.266884897e-13,4.358088606e-13,3.518113348e-13,2.91251061e-13,4.893228919e-13,4.328390743e-13,3.207080733e-13,3.732185718e-13,5.321308608e-13,1.286624016e-12,1.417758711e-13
1.4609375,1.456077971e-13,2.238121365e-13,4.649433256e-13,1.669929604e-13,2.083670423e-13,3.034757841e-13,6.034498346e-13,1.256073502e-13,2.91468275e-13,4.982994831e-13,6.597715626e-13,7.164607653e-13,4.762948921e-13,4.695037197e-13,5.59314452e-13,4.182059802e-13,4.893528374e-13,3.07684888e-13,3.200649484e-13,2.006114896e-13,2.2752056e-13,3.090731117e-13,4.316834785e-13,3.550836038e-13,2.890636542e-13,4.713798811e-13,4.089659821e-13,3.19480954e-13,3.499070399e-13,5.120010334e-13,1.268145741e-12,1.377228555e-13
1.46875,1.433415343e-13,2.148544349e-13,4.578107526e-13,1.58010242e-13,2.041151658e-13,2.958967044e-13,5.889094743e-13,1.245549928e-13,2.929422482e-13,4.929973339e-13,6.433620688e-13,7.176642857e-13,4.656103783e-13,4.589145902e-13,5.238282044e-13,3.929884982e-13,4.619800602e-13,2.923989627e-13,3.023229133e-13,1.873163406e-13,2.214418125e-13,2.920612372e-13,4.272028586e-13,3.575754459e-13,2.865743999e-13,4.539902369e-13,3.865413115e-13,3.181609376e-13,3.283691214e-13,4.926264797e-13,1.251559222e-12,1.337185077e-13
1.4765625,1.418447572e-13,2.066850494e-13,4.506249581e-13,1.498968379e-13,2.002493804e-13,2.886718644e-13,5.738027452e-13,1.233825886e-13,2.939578432e-13,4.873480578e-13,6.264271328e-13,7.179264571e-13,4.547751613e-13,4.487395562e-13,4.905217173e-13,3.693891827e-13,4.359946009e-13,2.778519916e-13,2.850043367e-13,1.746532364e-13,2.15375984e-13,2.757355028e-13,4.222839245e-13,3.592823852e-13,2.837376424e-13,4.372230983e-13,3.655008418e-13,3.167520879e-13,3.084540744e-13,4.739320673e-13,1.23727953e-12,1.297778256e-13
1.484375,1.41000068e-13,1.991699311e-13,4.432794683e-13,1.425502882e-13,1.967088624e-13,2.81489403e-13,5.576375228e-13,1.220379764e-13,2.946850702e-13,4.811031231e-13,6.091834723e-13,7.176073946e-13,4.439912776e-13,4.390221843e-13,4.591904952e-13,3.470056592e-13,4.10981135e-13,2.639322431e-13,2.680878918e-13,1.628438484e-13,2.09105917e-13,2.601189138e-13,4.168607284e-13,3.605755475e-13,2.80733338e-13,4.206304079e-13,3.457313746e-13,3.154879549e-13,2.89906407e-13,4.556812516e-13,1.225851383e-12,1.258854346e-13
1.4921875,1.41203874e-13,1.926218198e-13,4.364104766e-13,1.361261858e-13,1.934122906e-13,2.742690795e-13,5.402190217e-13,1.203758721e-13,2.95202458e-13,4.740877565e-13,5.9154176e-13,7.16971067e-13,4.334821107e-13,4.296963725e-13,4.298790337e-13,3.263091926e-13,3.873585868e-13,2.509128495e-13,2.51902381e-13,1.519484014e-13,2.029311334e-13,2.452878126e-13,4.108784027e-13,3.612982944e-13,2.776659772e-13,4.041801183e-13,3.273003518e-13,3.146553795e-13,2.729246487e-13,4.382251129e-13,1.217825241e-12,1.220373642e-13
1.5,1.426276955e-13,1.872202333e-13,4.30391445e-13,1.307904109e-13,1.904673884e-13,2.672575586e-13,5.220663031e-13,1.184288577e-13,2.953387091e-13,4.664793498e-13,5.731975511e-13,7.158414024e-13,4.230007219e-13,4.208608293e-13,4.026944573e-13,3.076855978e-13,3.658319926e-13,2.390023355e-13,2.365175142e-13,1.419510453e-13,1.969521284e-13,2.312826646e-13,4.04117544e-13,3.611054847e-13,2.74202158e-13,3.882356031e-13,3.103487642e-13,3.141721001e-13,2.577562505e-13,4.216825185e-13,1.212911436e-12,1.182657824e-13
1.5078125,1.449881201e-13,1.827434082e-13,4.249688148e-13,1.263849568e-13,1.878924955e-13,2.606158058e-13,5.037239601e-13,1.162859573e-13,2.948724383e-13,4.584280149e-13,5.549363368e-13,7.14004872e-13,4.123485534e-13,4.126108556e-13,3.776847659e-13,2.908147872e-13,3.460243594e-13,2.28127428e-13,2.219494582e-13,1.328553665e-13,1.912518291e-13,2.181070176e-13,3.967886809e-13,3.601013988e-13,2.703135495e-13,3.728708212e-13,2.948635278e-13,3.137575136e-13,2.442497984e-13,4.058196713e-13,1.210226148e-12,1.145903293e-13
1.515625,1.482554775e-13,1.791821783e-13,4.200845761e-13,1.22850797e-13,1.856331672e-13,2.542372495e-13,4.854609309e-13,1.139970127e-13,2.939898855e-13,4.50549297e-13,5.376744081e-13,7.118665689e-13,4.020614932e-13,4.050302216e-13,3.547589594e-13,2.753358933e-13,3.27460789e-13,2.182189591e-13,2.082686426e-13,1.246836047e-13,1.858759468e-13,2.057875544e-13,3.8930665e-13,3.585620379e-13,2.66520209e-13,3.580620409e-13,2.808049887e-13,3.135462904e-13,2.322495983e-13,3.908402272e-13,1.21001458e-12,1.110237711e-13
1.5234375,1.525002524e-13,1.766912721e-13,4.159758621e-13,1.203711705e-13,1.837349257e-13,2.48150211e-13,4.672111439e-13,1.115391675e-13,2.92923409e-13,4.430611677e-13,5.208608637e-13,7.096881419e-13,3.924442615e-13,3.98171262e-13,3.339428025e-13,2.614520478e-13,3.105546394e-13,2.094296056e-13,1.953651219e-13,1.174786518e-13,1.806735255e-13,1.943036593e-13,3.816986704e-13,3.567217221e-13,2.630476319e-13,3.439288079e-13,2.682529691e-13,3.138134856e-13,2.218692306e-13,3.767779379e-13,1.213542393e-12,1.07564118e-13
1.53125,1.57625575e-13,1.752619249e-13,4.125097691e-13,1.189052015e-13,1.822543687e-13,2.423035759e-13,4.487215028e-13,1.087766788e-13,2.915492566e-13,4.351684701e-13,5.036739808e-13,7.071978832e-13,3.831743821e-13,3.919008795e-13,3.152076043e-13,2.493265488e-13,2.952524457e-13,2.018257709e-13,1.832060485e-13,1.108352141e-13,1.755263332e-13,1.836068304e-13,3.737440672e-13,3.545979418e-13,2.596122661e-13,3.305032385e-13,2.571725812e-13,3.145294251e-13,2.131665921e-13,3.634230292e-13,1.220512543e-12,1.04214153e-13
1.5390625,1.638072392e-13,1.749006314e-13,4.094013643e-13,1.183575116e-13,1.812118543e-13,2.365255255e-13,4.298370185e-13,1.056809533e-13,2.898570247e-13,4.265461441e-13,4.86262059e-13,7.045813404e-13,3.743129486e-13,3.862650298e-13,2.982730628e-13,2.386728513e-13,2.81169013e-13,1.952958022e-13,1.719375493e-13,1.045415771e-13,1.704163126e-13,1.737635012e-13,3.65185534e-13,3.520093013e-13,2.559592703e-13,3.177335518e-13,2.475147082e-13,3.156603051e-13,2.061484553e-13,3.510780475e-13,1.229736813e-12,1.010063717e-13
1.546875,1.711635632e-13,1.755935277e-13,4.06652329e-13,1.187281238e-13,1.80514915e-13,2.310750934e-13,4.107896866e-13,1.024458759e-13,2.880046184e-13,4.176901676e-13,4.689701574e-13,7.021128758e-13,3.660651647e-13,3.812949393e-13,2.829400954e-13,2.293912059e-13,2.687066511e-13,1.898617521e-13,1.616390171e-13,9.908212136e-14,1.656256653e-13,1.648505183e-13,3.560577961e-13,3.489886912e-13,2.520465622e-13,3.056056777e-13,2.39346807e-13,3.170833432e-13,2.008809091e-13,3.398793597e-13,1.241877602e-12,9.793670557e-14
1.5546875,1.794137894e-13,1.772594965e-13,4.044103197e-13,1.19877307e-13,1.800623996e-13,2.262107453e-13,3.920784037e-13,9.924742245e-14,2.859387223e-13,4.090666818e-13,4.51978216e-13,6.994824324e-13,3.581433083e-13,3.767435309e-13,2.692404859e-13,2.216151787e-13,2.58044391e-13,1.855133476e-13,1.522199325e-13,9.470266095e-14,1.61431105e-13,1.567892962e-13,3.466503437e-13,3.454811559e-13,2.479753279e-13,2.941246889e-13,2.325695061e-13,3.185323778e-13,1.972388891e-13,3.294337812e-13,1.257648852e-12,9.49689622e-14
1.5625,1.883861637e-13,1.798514497e-13,4.027699115e-13,1.217591757e-13,1.798978061e-13,2.216726135e-13,3.738862704e-13,9.61290387e-14,2.836471814e-13,4.008246888e-13,4.355525009e-13,6.967209681e-13,3.504283861e-13,3.726988852e-13,2.572778533e-13,2.151899764e-13,2.486531462e-13,1.82048782e-13,1.43508238e-13,9.108287325e-14,1.575252479e-13,1.495257619e-13,3.370483249e-13,3.414127964e-13,2.439995655e-13,2.831844363e-13,2.269980102e-13,3.201526503e-13,1.949379846e-13,3.19607015e-13,1.276206524e-12,9.207330698e-14
1.5703125,1.980358426e-13,1.831959277e-13,4.014579426e-13,1.244034749e-13,1.799098788e-13,2.172787548e-13,3.558958251e-13,9.305115214e-14,2.812044914e-13,3.92601594e-13,4.195921506e-13,6.938861975e-13,3.431484024e-13,3.691092354e-13,2.467747634e-13,2.097854327e-13,2.403041643e-13,1.794232911e-13,1.35475667e-13,8.783610225e-14,1.536497229e-13,1.431143396e-13,3.272220639e-13,3.371641974e-13,2.402227227e-13,2.725452547e-13,2.224588205e-13,3.22170895e-13,1.937578224e-13,3.105375488e-13,1.296929336e-12,8.920677554e-14
1.578125,2.083447832e-13,1.871374336e-13,4.002078801e-13,1.276927695e-13,1.799142749e-13,2.132711549e-13,3.378633341e-13,8.990291391e-14,2.784861095e-13,3.841207922e-13,4.036262151e-13,6.904195522e-13,3.362589959e-13,3.654614849e-13,2.372951778e-13,2.053103602e-13,2.3319304e-13,1.77729538e-13,1.281746607e-13,8.488806807e-14,1.499465924e-13,1.375433889e-13,3.170547677e-13,3.325692836e-13,2.363474488e-13,2.622535466e-13,2.18714315e-13,3.243814033e-13,1.936048001e-13,3.022750018e-13,1.319177125e-12,8.641567779e-14
1.5859375,2.193255761e-13,1.917336078e-13,3.993724377e-13,1.315609563e-13,1.800636606e-13,2.097854122e-13,3.202585789e-13,8.665362904e-14,2.754252506e-13,3.759346784e-13,3.877949475e-13,6.86472808e-13,3.294884645e-13,3.619920419e-13,2.290935563e-13,2.018844449e-13,2.273645354e-13,1.76858205e-13,1.215320956e-13,8.241191921e-14,1.464163768e-13,1.327096336e-13,3.064482426e-13,3.27051001e-13,2.321782346e-13,2.526869785e-13,2.157900135e-13,3.266270975e-13,1.944878762e-13,2.946868154e-13,1.34275184e-12,8.384514424e-14
1.59375,2.306889383e-13,1.969250525e-13,3.989666014e-13,1.359162002e-13,1.805213419e-13,2.065670362e-13,3.036841123e-13,8.341234022e-14,2.721221888e-13,3.685722434e-13,3.72777549e-13,6.828433259e-13,3.228119885e-13,3.592888462e-13,2.224029206e-13,1.993867993e-13,2.225063969e-13,1.766073219e-13,1.155533224e-13,8.035219612e-14,1.431984448e-13,1.28506048e-13,2.958948663e-13,3.213163294e-13,2.28012462e-13,2.439238819e-13,2.138529239e-13,3.289475118e-13,1.963288814e-13,2.875318351e-13,1.368845556e-12,8.150419231e-14
1.6015625,2.421894794e-13,2.025087094e-13,3.98375221e-13,1.406363312e-13,1.811878988e-13,2.034401112e-13,2.878900512e-13,8.023425349e-14,2.686658296e-13,3.618715716e-13,3.586874548e-13,6.796279057e-13,3.165033254e-13,3.571613919e-13,2.167404084e-13,1.975137275e-13,2.183829437e-13,1.769478441e-13,1.103481735e-13,7.852817923e-14,1.405309095e-13,1.249370674e-13,2.858845643e-13,3.161930501e-13,2.241448764e-13,2.357587762e-13,2.127354348e-13,3.3139627e-13,1.989389904e-13,2.80892947e-13,1.396849978e-12,7.928342487e-14
1.609375,2.538612512e-13,2.084513569e-13,3.976934931e-13,1.457601654e-13,1.819878977e-13,2.004245349e-13,2.725046299e-13,7.70888194e-14,2.651603947e-13,3.556630836e-13,3.452641425e-13,6.764978552e-13,3.106468474e-13,3.552892154e-13,2.119947705e-13,1.96334607e-13,2.151652226e-13,1.779427681e-13,1.057974851e-13,7.692942652e-14,1.380428624e-13,1.220569114e-13,2.759833282e-13,3.109326452e-13,2.204555039e-13,2.282107834e-13,2.121962792e-13,3.340595236e-13,2.021846342e-13,2.749635363e-13,1.425172968e-12,7.720325781e-14
1.6171875,2.656182899e-13,2.148865986e-13,3.974052693e-13,1.512798583e-13,1.829408757e-13,1.9742851e-13,2.577744153e-13,7.391096104e-14,2.615211875e-13,3.499633666e-13,3.32413805e-13,6.731138646e-13,3.049870936e-13,3.536710077e-13,2.083329307e-13,1.960534212e-13,2.129292891e-13,1.795985917e-13,1.017179479e-13,7.556379993e-14,1.35404511e-13,1.197544052e-13,2.656703185e-13,3.047482079e-13,2.167243594e-13,2.21389992e-13,2.121707173e-13,3.368251892e-13,2.060006911e-13,2.694861135e-13,1.455117861e-12,7.534792938e-14
1.625,2.774910664e-13,2.218514415e-13,3.972752599e-13,1.571289319e-13,1.840395094e-13,1.945610098e-13,2.437995911e-13,7.060126689e-14,2.575107344e-13,3.4459564e-13,3.198882042e-13,6.692647352e-13,2.994523966e-13,3.522783621e-13,2.053332848e-13,1.96450979e-13,2.114784417e-13,1.818696706e-13,9.82248e-14,7.45270304e-14,1.330369252e-13,1.179455491e-13,2.552662076e-13,2.979740085e-13,2.129343876e-13,2.151903958e-13,2.125800065e-13,3.3954305e-13,2.103601662e-13,2.642741698e-13,1.487917438e-12,7.36787322e-14
1.6328125,2.894710882e-13,2.290907284e-13,3.968887596e-13,1.631912079e-13,1.851975044e-13,1.920390303e-13,2.304165233e-13,6.718987742e-14,2.531960737e-13,3.393949221e-13,3.076866646e-13,6.651313164e-13,2.941601228e-13,3.510198773e-13,2.02927325e-13,1.972927695e-13,2.107036575e-13,1.845932746e-13,9.540952291e-14,7.377817017e-14,1.312329059e-13,1.167061106e-13,2.452227379e-13,2.91190869e-13,2.09155551e-13,2.09494677e-13,2.133773121e-13,3.422966504e-13,2.151667362e-13,2.595402955e-13,1.522881479e-12,7.212159749e-14
1.640625,3.011047778e-13,2.364185793e-13,3.962264188e-13,1.692712912e-13,1.863953094e-13,1.896415981e-13,2.176462379e-13,6.380216524e-14,2.487998712e-13,3.344171775e-13,2.962606506e-13,6.609704594e-13,2.891190573e-13,3.500456743e-13,2.016824964e-13,1.988267453e-13,2.106037307e-13,1.875777439e-13,9.302374553e-14,7.301030935e-14,1.296525605e-13,1.159499252e-13,2.35410763e-13,2.846955098e-13,2.055829992e-13,2.044776835e-13,2.146917529e-13,3.451498137e-13,2.203414894e-13,2.552679123e-13,1.560012521e-12,7.070621467e-14
1.6484375,3.122419816e-13,2.439968137e-13,3.953066214e-13,1.754741209e-13,1.877849045e-13,1.871589263e-13,2.054853355e-13,6.039560089e-14,2.443967917e-13,3.297699651e-13,2.857084737e-13,6.570454099e-13,2.844479025e-13,3.497171156e-13,2.014567126e-13,2.011557404e-13,2.111018793e-13,1.908331917e-13,9.09256649e-14,7.233039782e-14,1.281136916e-13,1.155151487e-13,2.257072564e-13,2.784431183e-13,2.02538523e-13,2.002879327e-13,2.165946248e-13,3.482109271e-13,2.259998738e-13,2.512874266e-13,1.599308805e-12,6.948923342e-14
1.65625,3.231679452e-13,2.518282935e-13,3.940878413e-13,1.819451019e-13,1.893402679e-13,1.845730543e-13,1.939446905e-13,5.688503083e-14,2.399885387e-13,3.255533417e-13,2.758455309e-13,6.532430422e-13,2.801118158e-13,3.496230387e-13,2.014596934e-13,2.037403314e-13,2.119042209e-13,1.943534835e-13,8.925355793e-14,7.19542207e-14,1.269156741e-13,1.15445497e-13,2.163315021e-13,2.722112293e-13,1.998042157e-13,1.967131167e-13,2.187062014e-13,3.514846913e-13,2.319976974e-13,2.477093385e-13,1.640749828e-12,6.844267337e-14
1.6640625,3.338054546e-13,2.595926064e-13,3.928351195e-13,1.883860946e-13,1.908546631e-13,1.817582639e-13,1.831812867e-13,5.337298718e-14,2.354415835e-13,3.217325094e-13,2.664905302e-13,6.487751733e-13,2.756007693e-13,3.488759814e-13,2.015010443e-13,2.063037346e-13,2.129154323e-13,1.979269799e-13,8.794358429e-14,7.156615751e-14,1.261364458e-13,1.157811431e-13,2.071839969e-13,2.65930488e-13,1.966835264e-13,1.937746099e-13,2.205826219e-13,3.545043721e-13,2.378501381e-13,2.444941262e-13,1.68478227e-12,6.754743884e-14
1.671875,3.437290718e-13,2.670146721e-13,3.918026712e-13,1.944825507e-13,1.923560428e-13,1.78892811e-13,1.73205944e-13,4.999626228e-14,2.306113212e-13,3.180192461e-13,2.5732084e-13,6.433583519e-13,2.707137648e-13,3.476435858e-13,2.019438274e-13,2.09199832e-13,2.144593781e-13,2.014822145e-13,8.680769989e-14,7.110585424e-14,1.255296728e-13,1.164329672e-13,1.980061996e-13,2.596067563e-13,1.932294793e-13,1.918065694e-13,2.223332429e-13,3.570629209e-13,2.43378312e-13,2.412820173e-13,1.729729537e-12,6.687423878e-14
1.6796875,3.526545581e-13,2.739817336e-13,3.906626494e-13,2.001943022e-13,1.939312785e-13,1.761530666e-13,1.638940505e-13,4.679562404e-14,2.256060074e-13,3.142721288e-13,2.483255854e-13,6.373397076e-13,2.658074405e-13,3.463234342e-13,2.028585592e-13,2.124238444e-13,2.163553446e-13,2.050684222e-13,8.589897214e-14,7.084342828e-14,1.252455061e-13,1.173238068e-13,1.890456137e-13,2.534736297e-13,1.900715909e-13,1.90621109e-13,2.240049031e-13,3.595145669e-13,2.485718903e-13,2.379296041e-13,1.773700607e-12,6.643846524e-14
1.6875,3.606859508e-13,2.805335328e-13,3.892749479e-13,2.056072726e-13,1.95498037e-13,1.732542799e-13,1.553704278e-13,4.380409916e-14,2.206336127e-13,3.108243225e-13,2.397995184e-13,6.30951705e-13,2.609527653e-13,3.446324531e-13,2.039077941e-13,2.155895799e-13,2.180586757e-13,2.084752386e-13,8.52199833e-14,7.058739313e-14,1.255504006e-13,1.183885126e-13,1.805432092e-13,2.479929625e-13,1.872223783e-13,1.898425443e-13,2.252844425e-13,3.619564822e-13,2.533505183e-13,2.346094051e-13,1.817213949e-12,6.616492866e-14
1.6953125,3.679748044e-13,2.866413242e-13,3.879979387e-13,2.107722461e-13,1.969569052e-13,1.701788765e-13,1.478766509e-13,4.10278445e-14,2.157999439e-13,3.079734296e-13,2.317328259e-13,6.245209452e-13,2.559322978e-13,3.42619413e-13,2.047414967e-13,2.186554279e-13,2.197999913e-13,2.115358093e-13,8.463010554e-14,7.018627349e-14,1.26154008e-13,1.195420534e-13,1.723354373e-13,2.430676312e-13,1.844061295e-13,1.895120635e-13,2.262475726e-13,3.642835077e-13,2.578163427e-13,2.314556617e-13,1.86007809e-12,6.601959931e-14
1.703125,3.744163196e-13,2.922160314e-13,3.866280314e-13,2.15552691e-13,1.982165679e-13,1.671017182e-13,1.411312341e-13,3.840156679e-14,2.11043988e-13,3.054196777e-13,2.239289434e-13,6.177899465e-13,2.508020702e-13,3.403574636e-13,2.05370239e-13,2.217298447e-13,2.219393879e-13,2.145008319e-13,8.418276126e-14,6.982151671e-14,1.268956855e-13,1.207541785e-13,1.642942182e-13,2.382410653e-13,1.816766439e-13,1.895407759e-13,2.269679785e-13,3.665445619e-13,2.618839885e-13,2.284147966e-13,1.901800612e-12,6.595886686e-14
1.7109375,3.80120025e-13,2.973719297e-13,3.847994374e-13,2.198557683e-13,1.992632051e-13,1.639057145e-13,1.347157891e-13,3.592232172e-14,2.062158084e-13,3.027453774e-13,2.164008914e-13,6.100994905e-13,2.45692827e-13,3.376332197e-13,2.062909447e-13,2.248224136e-13,2.241285979e-13,2.175064938e-13,8.398602068e-14,6.937166835e-14,1.281246286e-13,1.220971658e-13,1.564537772e-13,2.33702458e-13,1.790661716e-13,1.897916111e-13,2.271256864e-13,3.686936808e-13,2.652747427e-13,2.254890109e-13,1.943369468e-12,6.59197272e-14
1.71875,3.850918193e-13,3.020004866e-13,3.827593973e-13,2.237057406e-13,2.001739585e-13,1.606277904e-13,1.288862716e-13,3.36685372e-14,2.013449685e-13,3.000145061e-13,2.092124047e-13,6.018637533e-13,2.405572888e-13,3.34748271e-13,2.078789959e-13,2.279834794e-13,2.261479688e-13,2.203019719e-13,8.399435115e-14,6.863686464e-14,1.298659584e-13,1.235941629e-13,1.489395483e-13,2.298348488e-13,1.764549913e-13,1.905705534e-13,2.268399488e-13,3.706367927e-13,2.681203274e-13,2.228585488e-13,1.983985615e-12,6.596722616e-14
1.7265625,3.886952015e-13,3.057763232e-13,3.805631759e-13,2.270740945e-13,2.009401166e-13,1.573184765e-13,1.23844367e-13,3.164353049e-14,1.965659984e-13,2.973708532e-13,2.021530538e-13,5.935055441e-13,2.353349564e-13,3.317918915e-13,2.098064117e-13,2.311978165e-13,2.282857661e-13,2.228420987e-13,8.414026791e-14,6.770861945e-14,1.31827198e-13,1.250966561e-13,1.417878929e-13,2.264148272e-13,1.737586852e-13,1.920163921e-13,2.263979377e-13,3.722819905e-13,2.705649193e-13,2.204410209e-13,2.022021837e-12,6.615069136e-14
1.734375,3.907981879e-13,3.088148875e-13,3.780262954e-13,2.300397213e-13,2.014694981e-13,1.53860693e-13,1.192461985e-13,2.979632169e-14,1.918469941e-13,2.947274476e-13,1.951988285e-13,5.846216506e-13,2.299589372e-13,3.284205037e-13,2.116857282e-13,2.342796675e-13,2.305389698e-13,2.252368077e-13,8.434820669e-14,6.673826482e-14,1.340036301e-13,1.265217186e-13,1.348098596e-13,2.23171859e-13,1.710967574e-13,1.937773308e-13,2.25598133e-13,3.736306947e-13,2.724160924e-13,2.179565393e-13,2.058278705e-12,6.63576042e-14
1.7421875,3.920812111e-13,3.112503151e-13,3.752809206e-13,2.325955683e-13,2.016434536e-13,1.503993278e-13,1.150178769e-13,2.811144412e-14,1.871309669e-13,2.92046223e-13,1.887301438e-13,5.752199795e-13,2.243789814e-13,3.247556072e-13,2.135073049e-13,2.370245294e-13,2.325784356e-13,2.273170207e-13,8.462634804e-14,6.590310655e-14,1.365549307e-13,1.279926574e-13,1.280655468e-13,2.202666308e-13,1.687315932e-13,1.956766392e-13,2.242756754e-13,3.750046487e-13,2.735820681e-13,2.154992343e-13,2.093636241e-12,6.654888198e-14
1.75,3.925557011e-13,3.128627633e-13,3.724279532e-13,2.344278137e-13,2.014145773e-13,1.46940018e-13,1.113341812e-13,2.659750356e-14,1.824843387e-13,2.892803335e-13,1.825199484e-13,5.653233841e-13,2.187138707e-13,3.206754171e-13,2.150959165e-13,2.394341751e-13,2.345359329e-13,2.290406281e-13,8.51169177e-14,6.518689313e-14,1.39557689e-13,1.295488804e-13,1.217872768e-13,2.17883354e-13,1.66557435e-13,1.978924553e-13,2.223573401e-13,3.764477016e-13,2.7395999e-13,2.131867269e-13,2.128295857e-12,6.678784019e-14
1.7578125,3.915906701e-13,3.135924064e-13,3.695024098e-13,2.353705096e-13,2.0087127e-13,1.43173541e-13,1.081526391e-13,2.527823667e-14,1.779102221e-13,2.862688281e-13,1.759892455e-13,5.54469819e-13,2.130694339e-13,3.156823212e-13,2.163631174e-13,2.415854466e-13,2.365341542e-13,2.305130007e-13,8.575260018e-14,6.426979117e-14,1.429579249e-13,1.310314245e-13,1.157869754e-13,2.161269754e-13,1.642791771e-13,2.004821605e-13,2.197238064e-13,3.775434495e-13,2.734275837e-13,2.108685066e-13,2.162584417e-12,6.70420364e-14
1.765625,3.891864622e-13,3.135497242e-13,3.666913435e-13,2.355707549e-13,2.00053083e-13,1.3913973e-13,1.05415597e-13,2.415885646e-14,1.733311217e-13,2.829507098e-13,1.694112978e-13,5.426406561e-13,2.073968409e-13,3.099329259e-13,2.17675647e-13,2.434022849e-13,2.380507989e-13,2.315877671e-13,8.635728613e-14,6.314779099e-14,1.46694772e-13,1.323620836e-13,1.099399785e-13,2.15199076e-13,1.620505077e-13,2.033753565e-13,2.166015159e-13,3.782878294e-13,2.722346657e-13,2.085934772e-13,2.195441698e-12,6.72945997e-14
1.7734375,3.858181562e-13,3.128331841e-13,3.640513022e-13,2.351687559e-13,1.989585445e-13,1.350553412e-13,1.030410885e-13,2.325444403e-14,1.68812309e-13,2.793688305e-13,1.631698038e-13,5.301453825e-13,2.016992611e-13,3.037549365e-13,2.191697091e-13,2.449614971e-13,2.391448919e-13,2.323145171e-13,8.704082695e-14,6.213220521e-14,1.508618122e-13,1.336122575e-13,1.045388822e-13,2.150691993e-13,1.601074519e-13,2.066083464e-13,2.131664129e-13,3.789764104e-13,2.705011692e-13,2.065224016e-13,2.226277852e-12,6.75944903e-14
1.78125,3.816457802e-13,3.115431507e-13,3.613691243e-13,2.342379238e-13,1.976513426e-13,1.309004033e-13,1.008688601e-13,2.260837574e-14,1.644710446e-13,2.755032622e-13,1.570983125e-13,5.170549847e-13,1.959753322e-13,2.971499573e-13,2.206288711e-13,2.464500568e-13,2.405624102e-13,2.329549347e-13,8.790588091e-14,6.120606908e-14,1.555206276e-13,1.347630465e-13,9.962780747e-14,2.154577898e-13,1.58399722e-13,2.100287219e-13,2.091859612e-13,3.796301142e-13,2.679529289e-13,2.047347776e-13,2.255740424e-12,6.789015905e-14
1.7890625,3.767242979e-13,3.096889071e-13,3.586381825e-13,2.32941269e-13,1.961630579e-13,1.266923141e-13,9.891420606e-14,2.220090854e-14,1.602584193e-13,2.712843825e-13,1.511701416e-13,5.03369798e-13,1.901334228e-13,2.902059326e-13,2.219247856e-13,2.477367302e-13,2.421835282e-13,2.334053449e-13,8.890100476e-14,6.025981941e-14,1.606716511e-13,1.357617607e-13,9.49973625e-14,2.164357374e-13,1.568825699e-13,2.13411403e-13,2.046101122e-13,3.802685775e-13,2.646639529e-13,2.033880107e-13,2.28268592e-12,6.815700515e-14
1.796875,3.710997122e-13,3.071778465e-13,3.563718078e-13,2.313222282e-13,1.945294367e-13,1.225713317e-13,9.739724446e-14,2.202988264e-14,1.561216908e-13,2.668104695e-13,1.454311609e-13,4.892618243e-13,1.842517985e-13,2.829764549e-13,2.231235303e-13,2.48807657e-13,2.435770434e-13,2.335364602e-13,9.008919666e-14,5.943710366e-14,1.662732591e-13,1.36702125e-13,9.062666809e-14,2.182405997e-13,1.554975846e-13,2.17015955e-13,1.996702853e-13,3.808913653e-13,2.609212807e-13,2.024545378e-13,2.30589086e-12,6.851569439e-14
1.8046875,3.644403026e-13,3.038292981e-13,3.54709004e-13,2.290596596e-13,1.927522977e-13,1.186003004e-13,9.643263814e-14,2.215665092e-14,1.520945668e-13,2.622850342e-13,1.397797321e-13,4.748355575e-13,1.784620725e-13,2.75346689e-13,2.244782487e-13,2.499735335e-13,2.450025031e-13,2.335547562e-13,9.146471752e-14,5.879535165e-14,1.721378565e-13,1.375551184e-13,8.653802817e-14,2.207278391e-13,1.541551751e-13,2.210800702e-13,1.944358805e-13,3.812750889e-13,2.566139715e-13,2.016747798e-13,2.326003624e-12,6.898772647e-14
