"Time","Fp1","AF3","F7","F3","FC1","FC5","T7","C3","CP1","CP5","P7","P3","Pz","PO3","O1","Oz","O2","PO4","P4","P8","CP6","CP2","C4","T8","FC6","FC2","F4","F8","AF4","Fp2","Fz","Cz"
0.0078125,1.486723324e-13,9.676932229e-14,2.562468193e-13,2.153124854e-14,2.677793639e-15,1.472047676e-14,9.507101063e-14,2.296390103e-14,1.425039353e-14,8.148869457e-14,1.810330176e-13,2.01026587e-14,1.511576157e-14,2.475454567e-14,2.661388011e-14,1.287225848e-14,3.589522084e-14,2.929980477e-14,4.058001986e-14,4.323357706e-14,5.528436956e-14,1.777342495e-14,1.470681358e-14,1.018316787e-13,2.242446187e-14,7.552378099e-15,3.039572284e-13,2.366278955e-14,8.100846524e-13,8.240736034e-14,1.165926242e-14,1.190265983e-15
0.015625,1.599568247e-13,1.3984135e-13,2.67065731e-13,2.406792179e-14,2.943649039e-15,1.987856561e-14,1.02075673e-13,2.798654263e-14,1.91612626e-14,1.063537788e-13,2.316308888e-13,2.876264351e-14,1.490954392e-14,3.130575249e-14,3.457600675e-14,1.859104003e-14,3.95403194e-14,2.86733005e-14,3.928859379e-14,5.623231921e-14,5.361261919e-14,1.598523981e-14,1.567283638e-14,1.003099584e-13,2.465612573e-14,1.079100856e-14,3.158370251e-13,3.089914134e-14,7.883843477e-13,8.102215815e-14,1.68982629e-14,1.240060805e-15
0.0234375,1.581440622e-13,1.851359146e-13,2.5489768e-13,2.749160161e-14,3.356668777e-15,2.425276199e-14,1.027452153e-13,3.198797853e-14,2.3799394e-14,1.284787465e-13,2.732150267e-13,3.782338582e-14,1.433358598e-14,3.700049479e-14,4.281644356e-14,2.542459425e-14,4.549659106e-14,2.609002861e-14,3.694635013e-14,7.772772476e-14,4.776712589e-14,1.332804931e-14,1.622865478e-14,9.038229032e-14,2.773498368e-14,1.522400486e-14,3.065784134e-13,3.925936576e-14,7.038360526e-13,8.076008298e-14,2.420814196e-14,1.204722603e-15
0.03125,1.437537068e-13,2.231540562e-13,2.233261439e-13,3.108705273e-14,3.987896593e-15,2.682482666e-14,9.688349771e-14,3.428956889e-14,2.713161564e-14,1.431412342e-13,2.956465254e-13,4.492099167e-14,1.396906814e-14,4.033904839e-14,5.001469587e-14,3.335393997e-14,5.751434583e-14,2.364558136e-14,3.651948102e-14,1.114573824e-13,4.040131306e-14,1.098209866e-14,1.617335693e-14,7.526737615e-14,3.378239539e-14,2.070914488e-14,2.865766378e-13,4.994819944e-14,5.923540099e-13,8.706719702e-14,3.335981247e-14,1.332078785e-15
0.0390625,1.199853731e-13,2.455005367e-13,1.806423922e-13,3.517480462e-14,4.900053232e-15,2.664252898e-14,8.58561387e-14,3.43635734e-14,2.803264671e-14,1.47413441e-13,2.950487912e-13,4.849162343e-14,1.466122856e-14,4.082028232e-14,5.52605319e-14,4.283400842e-14,7.828808573e-14,2.33975647e-14,4.073004296e-14,1.585693944e-13,3.469725118e-14,1.02543649e-14,1.589924938e-14,5.821480939e-14,4.494286118e-14,2.726460103e-14,2.687766284e-13,6.272570024e-14,5.002764232e-13,1.033293188e-13,4.344859117e-14,1.838324265e-15
0.046875,9.251224597e-14,2.496226633e-13,1.368505686e-13,3.94914732e-14,6.293320282e-15,2.367283723e-14,7.234615678e-14,3.241422478e-14,2.641923327e-14,1.417729719e-13,2.746181007e-13,4.824429436e-14,1.65778377e-14,3.885265178e-14,5.833194877e-14,5.443909867e-14,1.070460221e-13,2.563446882e-14,4.91811241e-14,2.154807832e-13,3.189783878e-14,1.087079483e-14,1.574098205e-14,4.392371963e-14,6.138482547e-14,3.468651908e-14,2.596508477e-13,7.635308347e-14,4.496568039e-13,1.262562572e-13,5.313992277e-14,2.641727713e-15
0.0546875,6.576950299e-14,2.396358606e-13,9.715819249e-14,4.602062948e-14,7.946917295e-15,1.917570711e-14,5.841178023e-14,2.893082506e-14,2.333081452e-14,1.277928437e-13,2.391205401e-13,4.421899711e-14,2.088412299e-14,3.492057669e-14,5.980169585e-14,6.969800429e-14,1.426850795e-13,3.208522975e-14,6.205999295e-14,2.745293471e-13,3.272121433e-14,1.310443182e-14,1.579412401e-14,3.399663831e-14,8.311562728e-14,4.186162675e-14,2.679587533e-13,9.247268753e-14,4.587099949e-13,1.567327528e-13,6.125483222e-14,3.995629182e-15
0.0625,4.332219879e-14,2.273566654e-13,6.555346192e-14,5.640955174e-14,9.808112478e-15,1.441749586e-14,4.664631484e-14,2.485317459e-14,1.965254128e-14,1.105072348e-13,2.017073288e-13,3.831266118e-14,2.770537943e-14,3.107076437e-14,6.12930328e-14,8.91421335e-14,1.810800962e-13,4.247288377e-14,7.672086412e-14,3.254617503e-13,3.593008192e-14,1.608345451e-14,1.609508548e-14,2.806144274e-14,1.073514658e-13,4.828716508e-14,2.931099065e-13,1.091602227e-13,5.193728611e-13,1.904183944e-13,6.718870415e-14,5.750421625e-15
0.0703125,2.705248246e-14,2.280402361e-13,4.224560393e-14,7.322874683e-14,1.183320883e-14,1.104689419e-14,3.907293399e-14,2.122454828e-14,1.67534673e-14,9.560895557e-14,1.743608527e-13,3.361355453e-14,3.671321974e-14,2.97711747e-14,6.451439163e-14,1.130439272e-13,2.180844233e-13,5.607768367e-14,9.107366971e-14,3.598748676e-13,3.987463965e-14,1.89778139e-14,1.686053671e-14,2.514189545e-14,1.310940683e-13,5.367930982e-14,3.300270042e-13,1.255522075e-13,6.113686036e-13,2.259254369e-13,7.094310121e-14,7.722195345e-15
0.078125,1.605733807e-14,2.501138749e-13,2.653634748e-14,9.615074089e-14,1.397569031e-14,1.050394729e-14,3.615159768e-14,1.88035388e-14,1.481499888e-14,8.600062632e-14,1.616710082e-13,3.098214295e-14,4.623097286e-14,3.113567771e-14,7.019315012e-14,1.384287783e-13,2.485946285e-13,7.117816137e-14,1.032471778e-13,3.715244754e-13,4.301167258e-14,2.106448548e-14,1.825390037e-14,2.341624419e-14,1.494048573e-13,5.752560292e-14,3.698443695e-13,1.376907279e-13,7.064630621e-13,2.591146789e-13,7.277028735e-14,9.610123103e-15
0.0859375,9.5008297e-15,2.949115002e-13,1.735009227e-14,1.230383036e-13,1.615850845e-14,1.44288974e-14,3.803801932e-14,1.754457427e-14,1.378451852e-14,8.287509182e-14,1.646282253e-13,3.053707812e-14,5.432099047e-14,3.47119838e-14,7.836693008e-14,1.61738318e-13,2.70108179e-13,8.55997366e-14,1.116775265e-13,3.603804106e-13,4.438786549e-14,2.186051826e-14,1.99284448e-14,2.199189343e-14,1.601811093e-13,5.981594559e-14,4.036535122e-13,1.437974024e-13,7.801686254e-13,2.872751039e-13,7.319027329e-14,1.133619993e-14
0.09375,6.106011478e-15,3.550209878e-13,1.454766408e-14,1.494269901e-13,1.820896988e-14,2.380781183e-14,4.266992333e-14,1.734799272e-14,1.325895999e-14,8.469831859e-14,1.754444387e-13,3.160774808e-14,5.902077862e-14,3.861262441e-14,8.61346065e-14,1.777464279e-13,2.803738955e-13,9.717497571e-14,1.153365749e-13,3.306190326e-13,4.394338667e-14,2.133133177e-14,2.179471954e-14,2.02499264e-14,1.625698004e-13,6.030952144e-14,4.22625475e-13,1.420037963e-13,8.138394619e-13,3.055480833e-13,7.173392771e-14,1.297351099e-14
0.1015625,4.77620861e-15,4.164865971e-13,1.709494463e-14,1.701652484e-13,2.003284979e-14,3.888498862e-14,4.784946757e-14,1.772200589e-14,1.287027598e-14,8.885490989e-14,1.869440873e-13,3.280937903e-14,5.92210611e-14,4.130170321e-14,9.104307871e-14,1.83702646e-13,2.806442061e-13,1.045720931e-13,1.141012681e-13,2.883986137e-13,4.200457977e-14,1.988781527e-14,2.366540002e-14,1.817647276e-14,1.571839987e-13,5.91391342e-14,4.217656722e-13,1.335732642e-13,7.991549707e-13,3.122284213e-13,6.838865543e-14,1.480774608e-14
0.109375,5.177384547e-15,4.668655786e-13,2.418603463e-14,1.820806263e-13,2.1808299e-14,6.052824849e-14,5.212621363e-14,1.788729398e-14,1.281053419e-14,9.304541246e-14,1.945474323e-13,3.288711922e-14,5.503589803e-14,4.21605027e-14,9.223212488e-14,1.794538118e-13,2.736397066e-13,1.071577662e-13,1.086465986e-13,2.411298067e-13,3.943131425e-14,1.862730215e-14,2.542699505e-14,1.638663822e-14,1.463723237e-13,5.690456232e-14,4.011425452e-13,1.222447585e-13,7.404035369e-13,3.078158435e-13,6.387372197e-14,1.714038592e-14
0.1171875,7.021595824e-15,4.980253903e-13,3.50686715e-14,1.831887549e-13,2.321887704e-14,8.720086295e-14,5.368512334e-14,1.75767151e-14,1.364308122e-14,9.487572253e-14,1.923109549e-13,3.272353537e-14,4.845905501e-14,4.123290881e-14,8.903901766e-14,1.659884867e-13,2.620234122e-13,1.044386941e-13,9.93951197e-14,1.959634647e-13,3.676826709e-14,1.825624243e-14,2.686751246e-14,1.582776124e-14,1.343240573e-13,5.34818162e-14,3.668512654e-13,1.125158336e-13,6.573706512e-13,2.929801667e-13,5.849467619e-14,2.006848164e-14
0.125,1.079320662e-14,5.051640978e-13,4.801679258e-14,1.712766879e-13,2.356819878e-14,1.170859192e-13,5.049534344e-14,1.769998173e-14,1.590224774e-14,9.443091332e-14,1.812788885e-13,3.262593568e-14,4.053033201e-14,3.886441915e-14,8.072317569e-14,1.454230986e-13,2.453306428e-13,9.538924735e-14,8.638312391e-14,1.55030499e-13,3.36565063e-14,1.93079728e-14,2.863309033e-14,1.665157894e-14,1.230445328e-13,4.819881018e-14,3.158368893e-13,1.076939601e-13,5.46318865e-13,2.651573555e-13,5.055090738e-14,2.401542375e-14
0.1328125,1.663565911e-14,4.92277432e-13,6.397086538e-14,1.483739797e-13,2.319501407e-14,1.449620726e-13,4.512221846e-14,1.78536315e-14,2.073167849e-14,9.318295083e-14,1.680935588e-13,3.471407165e-14,3.412935219e-14,3.842252338e-14,6.983250083e-14,1.228789567e-13,2.27661087e-13,8.480084149e-14,7.438992608e-14,1.226986552e-13,3.173949559e-14,2.268899281e-14,3.108288407e-14,1.883043199e-14,1.153135665e-13,4.211060015e-14,2.626470703e-13,1.128307577e-13,4.400782853e-13,2.402059397e-13,4.117024695e-14,2.890203154e-14
0.140625,2.419504535e-14,4.864991183e-13,8.209584993e-14,1.252963582e-13,2.30066998e-14,1.660308962e-13,4.00837803e-14,1.890407975e-14,2.796431277e-14,9.435118988e-14,1.621583809e-13,4.160062599e-14,3.140615375e-14,4.339857362e-14,6.307104596e-14,1.053850514e-13,2.134114253e-13,7.523672419e-14,6.440866799e-14,9.934671097e-14,3.078233799e-14,2.731457768e-14,3.408970849e-14,2.324213373e-14,1.127849799e-13,3.654347357e-14,2.183887081e-13,1.280393129e-13,3.611826773e-13,2.220894054e-13,3.352843461e-14,3.383839422e-14
0.1484375,3.321615055e-14,4.839085865e-13,1.022215978e-13,1.049821772e-13,2.250101315e-14,1.785651835e-13,3.529954315e-14,2.08391635e-14,3.67407274e-14,9.628972123e-14,1.601918048e-13,5.265313091e-14,3.199963685e-14,5.332725172e-14,6.147818974e-14,9.336665596e-14,1.988955179e-13,6.372466602e-14,5.479468298e-14,8.029186538e-14,2.929945841e-14,3.170521348e-14,3.769104647e-14,2.971603859e-14,1.122287828e-13,3.038745593e-14,1.76660447e-13,1.485009321e-13,2.997406619e-13,2.039262647e-13,2.674795533e-14,3.789382803e-14
0.15625,4.301459925e-14,4.920589141e-13,1.244277248e-13,9.07397795e-14,2.138066854e-14,1.782962357e-13,3.323181767e-14,2.382397903e-14,4.580599118e-14,1.004194155e-13,1.67830924e-13,6.757759903e-14,3.525129881e-14,6.870933515e-14,6.538955756e-14,8.675767016e-14,1.801090648e-13,5.194115631e-14,4.66734134e-14,6.460895571e-14,2.897376963e-14,3.540127622e-14,4.149052467e-14,3.656240867e-14,1.106073581e-13,2.374964573e-14,1.40939565e-13,1.678085367e-13,2.560525702e-13,1.889634089e-13,2.009386812e-14,4.016855576e-14
0.1640625,5.236741528e-14,5.145048173e-13,1.458976433e-13,8.478869181e-14,2.033455173e-14,1.663712942e-13,3.547864649e-14,2.607520865e-14,5.342670911e-14,1.054985875e-13,1.821559639e-13,8.363903542e-14,4.007324066e-14,8.779875799e-14,7.567055006e-14,8.591481073e-14,1.62985107e-13,4.448502705e-14,4.174571495e-14,5.381361554e-14,2.920230717e-14,3.726175969e-14,4.37365735e-14,4.310391401e-14,1.080920543e-13,1.841634121e-14,1.186568084e-13,1.827020926e-13,2.395705651e-13,1.817154716e-13,1.514015283e-14,4.03206756e-14
0.171875,6.062202202e-14,5.458153099e-13,1.671509418e-13,8.98192619e-14,2.007168197e-14,1.463118015e-13,4.13835883e-14,2.78570536e-14,5.777472698e-14,1.097189537e-13,1.979955585e-13,9.751615937e-14,4.369276513e-14,1.066954645e-13,8.988102442e-14,8.836505888e-14,1.464777808e-13,3.77949696e-14,3.62939137e-14,4.390603402e-14,2.83007882e-14,3.531582801e-14,4.425137799e-14,4.934244755e-14,1.021677314e-13,1.444273363e-14,1.01373649e-13,1.877379393e-13,2.272698138e-13,1.678763171e-13,1.251255304e-14,3.81793247e-14
0.1796875,6.686529404e-14,5.701784361e-13,1.846876004e-13,1.035837315e-13,2.060212198e-14,1.230229628e-13,5.053731359e-14,2.91603701e-14,5.801729387e-14,1.109345856e-13,2.107586457e-13,1.063111675e-13,4.439199613e-14,1.212588515e-13,1.016083912e-13,8.940276802e-14,1.258536135e-13,2.961362118e-14,3.01225936e-14,3.478783092e-14,2.719443019e-14,3.115255805e-14,4.38960588e-14,5.413935522e-14,9.063477387e-14,1.14882768e-14,8.543660349e-14,1.783037227e-13,2.099815194e-13,1.456024037e-13,1.152251132e-14,3.384598779e-14
0.1875,7.116034349e-14,5.889112008e-13,1.928017778e-13,1.259797069e-13,2.142074002e-14,1.001890641e-13,6.168965449e-14,2.894641191e-14,5.503346063e-14,1.091039355e-13,2.197878503e-13,1.096060832e-13,4.339503409e-14,1.310886908e-13,1.1013303e-13,8.903317156e-14,1.044971223e-13,2.318828943e-14,2.547910927e-14,2.720380854e-14,2.65283776e-14,2.699324351e-14,4.174324806e-14,5.606129604e-14,7.564179203e-14,9.888302827e-15,7.605273483e-14,1.588865261e-13,1.975873655e-13,1.228343829e-13,1.236983629e-14,2.843543963e-14
0.1953125,7.274980034e-14,6.007341734e-13,1.904381586e-13,1.508705908e-13,2.161092644e-14,8.295158333e-14,7.127479873e-14,2.844914751e-14,4.93102783e-14,1.041835038e-13,2.230480316e-13,1.065882531e-13,4.028100594e-14,1.33876141e-13,1.147206743e-13,8.640123479e-14,8.682897795e-14,1.826125512e-14,2.203069553e-14,2.223977556e-14,2.514618478e-14,2.276881247e-14,3.849248718e-14,5.486671203e-14,6.008375383e-14,9.438523336e-15,6.961246485e-14,1.342584337e-13,1.822715512e-13,9.851710591e-14,1.391689912e-14,2.257983644e-14
0.203125,7.21257039e-14,6.015922538e-13,1.810846575e-13,1.756320251e-13,2.140221011e-14,7.245509803e-14,7.796526895e-14,2.833286073e-14,4.145167989e-14,9.772556534e-14,2.240514676e-13,9.834449695e-14,3.474158408e-14,1.313572986e-13,1.152609988e-13,8.229936553e-14,7.177587308e-14,1.345551019e-14,1.961071857e-14,1.988449113e-14,2.340771434e-14,1.954119571e-14,3.603326035e-14,5.13122886e-14,4.477083596e-14,1.016497534e-14,6.321586785e-14,1.070113198e-13,1.600193699e-13,7.36044063e-14,1.582496643e-14,1.677130313e-14
0.2109375,6.983348659e-14,5.894815909e-13,1.660578001e-13,1.968283173e-13,2.05543334e-14,6.989069959e-14,8.10753018e-14,2.845895536e-14,3.285947206e-14,8.995067948e-14,2.203915194e-13,8.670975515e-14,2.794952726e-14,1.240453754e-13,1.112083062e-13,7.668460378e-14,5.936574019e-14,9.352156055e-15,1.958240286e-14,2.085421697e-14,2.224187877e-14,1.858175709e-14,3.516612184e-14,4.565744322e-14,3.104357495e-14,1.171657063e-14,5.87523714e-14,8.06221038e-14,1.384335885e-13,5.244560185e-14,1.795175734e-14,1.188017668e-14
0.21875,6.587592566e-14,5.718751739e-13,1.457996707e-13,2.131989177e-13,1.886666055e-14,7.302394073e-14,8.021519701e-14,2.888275094e-14,2.507901917e-14,8.084792392e-14,2.128411388e-13,7.366761154e-14,2.17411924e-14,1.130146372e-13,1.053339224e-13,7.053134556e-14,5.124012863e-14,6.70301748e-15,2.109477836e-14,2.476967709e-14,2.117410898e-14,1.934255801e-14,3.547626915e-14,3.852297704e-14,2.066721194e-14,1.356273873e-14,5.486987616e-14,5.911187811e-14,1.208844719e-13,3.802686754e-14,2.016171087e-14,8.58607533e-15
0.2265625,6.058732792e-14,5.457121387e-13,1.246444499e-13,2.228244319e-13,1.640965875e-14,8.157678309e-14,7.515455873e-14,2.904650484e-14,1.846950031e-14,7.114779771e-14,2.017384076e-13,6.02686462e-14,1.608552478e-14,1.003084322e-13,9.899334542e-14,6.396869015e-14,4.57129205e-14,5.373358429e-15,2.349143778e-14,3.211287693e-14,2.028298147e-14,2.129935568e-14,3.649824253e-14,3.107565574e-14,1.360685858e-14,1.514788499e-14,4.910668411e-14,4.51689891e-14,1.011092127e-13,3.029862325e-14,2.171150145e-14,6.458011294e-15
0.234375,5.465228079e-14,5.124424e-13,1.061341743e-13,2.257633268e-13,1.356152793e-14,9.311434247e-14,6.653026991e-14,2.876107076e-14,1.311778097e-14,6.187124931e-14,1.88734889e-13,4.835572381e-14,1.129563598e-14,8.836110541e-14,9.174470266e-14,5.698916066e-14,4.03761674e-14,5.075068535e-15,2.689672951e-14,4.202492189e-14,2.011180063e-14,2.377009134e-14,3.815935599e-14,2.427715726e-14,9.309662832e-15,1.655591984e-14,4.284758479e-14,3.810241957e-14,8.153041374e-14,2.859851171e-14,2.260625637e-14,5.391751161e-15
0.2421875,4.883757632e-14,4.740235591e-13,9.076042075e-14,2.233178036e-13,1.036580368e-14,1.078152906e-13,5.588856143e-14,2.788932693e-14,9.115279534e-15,5.179525111e-14,1.69596669e-13,3.771373341e-14,7.592079812e-15,7.64156916e-14,8.306189979e-14,4.993685446e-14,3.590514784e-14,5.842828705e-15,3.027879306e-14,5.353465502e-14,2.052819121e-14,2.49146119e-14,3.872277668e-14,1.879736614e-14,7.302302469e-15,1.72391876e-14,3.881323329e-14,3.780190721e-14,6.695957492e-14,3.247098132e-14,2.259845563e-14,4.933891874e-15
0.25,4.345696926e-14,4.360635994e-13,7.844302349e-14,2.191097577e-13,7.385767206e-15,1.242757044e-13,4.583770586e-14,2.744701378e-14,6.541592188e-15,4.179948546e-14,1.465408713e-13,2.864905341e-14,5.135523132e-15,6.476614505e-14,7.409875556e-14,4.289339574e-14,3.196525801e-14,7.668383202e-15,3.224125898e-14,6.67439562e-14,2.071908127e-14,2.39272811e-14,3.689194879e-14,1.553300674e-14,7.265465632e-15,1.685899418e-14,3.501949544e-14,4.54970389e-14,5.277767228e-14,4.006225642e-14,2.182040097e-14,4.554467288e-15
0.2578125,3.808890913e-14,3.952772409e-13,6.723126649e-14,2.138374956e-13,5.354024463e-15,1.430815527e-13,3.710578746e-14,2.769626789e-14,4.885211972e-15,3.247858786e-14,1.232663595e-13,2.06968655e-14,3.407829383e-15,5.332404468e-14,6.281290155e-14,3.489436061e-14,2.718330566e-14,1.078879296e-14,3.496340962e-14,7.938155594e-14,2.091412401e-14,2.259925285e-14,3.386442219e-14,1.339497361e-14,8.050520838e-15,1.571403945e-14,3.35499568e-14,5.996125768e-14,4.045135038e-14,5.232126023e-14,2.049822282e-14,4.382211434e-15
0.265625,3.252209344e-14,3.574775005e-13,5.763841489e-14,2.094738285e-13,4.077903261e-15,1.592891131e-13,2.881603073e-14,2.988044858e-14,3.652240511e-15,2.496037461e-14,1.01448679e-13,1.475675874e-14,2.371031425e-15,4.339086552e-14,5.132501424e-14,2.856224506e-14,2.323236922e-14,1.459375407e-14,3.725876161e-14,8.898170226e-14,2.077561474e-14,2.026769295e-14,2.978408378e-14,1.234689501e-14,8.767901024e-15,1.451952422e-14,3.431570088e-14,7.530083289e-14,3.215832189e-14,6.622948878e-14,1.937859547e-14,4.503137767e-15
0.2734375,2.732293058e-14,3.203444936e-13,4.905660289e-14,2.044445354e-13,3.597618118e-15,1.711375282e-13,2.257969563e-14,3.416654293e-14,2.802491499e-15,1.979040094e-14,8.089605639e-14,1.01997767e-14,1.834801061e-15,3.383875965e-14,3.972299836e-14,2.339784886e-14,2.081036828e-14,1.835895877e-14,3.771521392e-14,9.372957965e-14,1.972250909e-14,1.681872658e-14,2.45874635e-14,1.22998038e-14,9.174654607e-15,1.301090671e-14,3.498390961e-14,8.933564158e-14,2.588957915e-14,7.859037677e-14,1.840982822e-14,4.391231897e-15
0.28125,2.212233095e-14,2.860510066e-13,4.013933181e-14,2.002687746e-13,4.111571518e-15,1.759215593e-13,1.879303796e-14,3.963249054e-14,2.244607292e-15,1.745985077e-14,6.604814746e-14,7.129898128e-15,1.682992639e-15,2.542079785e-14,3.090210212e-14,2.1083982e-14,2.111399978e-14,2.224802302e-14,3.718350173e-14,9.329752402e-14,1.779503511e-14,1.358874332e-14,1.956663097e-14,1.189601233e-14,9.06068961e-15,1.127303845e-14,3.493648077e-14,1.003438832e-13,2.176627488e-14,9.029467914e-14,1.775682812e-14,3.97950109e-15
0.2890625,1.721512927e-14,2.525478071e-13,3.258178491e-14,1.925948772e-13,5.039609674e-15,1.728994953e-13,1.638871846e-14,4.608014045e-14,1.830017006e-15,1.894335807e-14,5.745404575e-14,5.863093723e-15,2.0588618e-15,1.910868459e-14,2.528691453e-14,2.117960027e-14,2.411050428e-14,2.555683636e-14,3.502724402e-14,8.681218548e-14,1.507624829e-14,1.078489359e-14,1.54379033e-14,1.148505322e-14,8.34808266e-15,9.808710343e-15,3.289991588e-14,1.033692992e-13,1.827223052e-14,9.748070531e-14,1.763257867e-14,3.633866298e-15
0.296875,1.285756529e-14,2.16527264e-13,2.615433417e-14,1.793772423e-13,6.171088185e-15,1.624632813e-13,1.533499621e-14,5.150709341e-14,1.5193673e-15,2.333290779e-14,5.310267347e-14,5.676563968e-15,2.729381045e-15,1.476304365e-14,2.261033429e-14,2.311938068e-14,2.932142067e-14,2.868994688e-14,3.117666712e-14,7.552633142e-14,1.202213291e-14,8.43137388e-15,1.168378957e-14,1.081717668e-14,7.485461852e-15,8.777457564e-15,2.916294445e-14,9.887093083e-14,1.595985248e-14,1.004662188e-13,1.819610688e-14,3.399789293e-15
0.3046875,9.439594169e-15,1.807848947e-13,2.113134547e-14,1.623799038e-13,7.625923654e-15,1.470567135e-13,1.579941908e-14,5.439740725e-14,1.387353241e-15,3.005858605e-14,5.412567522e-14,6.478979267e-15,3.755232372e-15,1.225687563e-14,2.285134398e-14,2.646983913e-14,3.646364152e-14,3.143436754e-14,2.625316131e-14,6.214355509e-14,8.970038487e-15,6.762049449e-15,8.696487535e-15,9.516038859e-15,7.142756838e-15,8.368804811e-15,2.403269904e-14,8.796200294e-14,1.498121585e-14,9.889966762e-14,1.965872466e-14,3.197704732e-15
0.3125,6.812876549e-15,1.459350442e-13,1.725974622e-14,1.408624764e-13,9.011091086e-15,1.318077361e-13,1.707917586e-14,5.400696601e-14,1.358636995e-15,3.807135367e-14,5.768520146e-14,7.811539586e-15,5.004131266e-15,1.03988427e-14,2.286105504e-14,2.838204993e-14,4.235189738e-14,3.251425048e-14,2.068780938e-14,4.783455327e-14,6.338339046e-15,5.608791834e-15,6.470075551e-15,7.926116088e-15,7.19797811e-15,8.269281566e-15,1.860196121e-14,7.190119444e-14,1.516941017e-14,9.256652755e-14,2.107595162e-14,3.040377916e-15
0.3203125,4.952884906e-15,1.14233031e-13,1.435504201e-14,1.16665291e-13,1.011629379e-14,1.192687948e-13,1.881474139e-14,5.085925846e-14,1.418973947e-15,4.538129403e-14,6.150018285e-14,9.211868893e-15,6.137891617e-15,9.109644891e-15,2.237942899e-14,2.911757325e-14,4.705253656e-14,3.292951702e-14,1.586403686e-14,3.520537662e-14,4.474562665e-15,4.929177137e-15,4.775005857e-15,6.43838164e-15,7.781227664e-15,8.479897333e-15,1.454030894e-14,5.556971662e-14,1.74676887e-14,8.575580682e-14,2.208641584e-14,3.14744998e-15
0.328125,3.731094971e-15,8.849341059e-14,1.247399545e-14,9.28489193e-14,1.116772929e-14,1.075158848e-13,2.132718572e-14,4.499649479e-14,1.652636597e-15,5.090799897e-14,6.689583294e-14,1.027933801e-14,7.08041286e-15,8.413872622e-15,2.163946071e-14,2.874192317e-14,4.989845054e-14,3.330513856e-14,1.218531317e-14,2.549819058e-14,3.455326907e-15,4.684142544e-15,3.451649773e-15,5.264251674e-15,8.533849721e-15,8.921822555e-15,1.227963829e-14,4.129896047e-14,2.228739669e-14,8.004972615e-14,2.268522066e-14,3.752547227e-15
0.3359375,3.032296025e-15,6.925876636e-14,1.151444831e-14,7.200513986e-14,1.242205093e-14,1.011244126e-13,2.476167063e-14,3.687278424e-14,2.28850263e-15,5.378539038e-14,7.278792623e-14,1.094447997e-14,8.141310034e-15,8.092533811e-15,1.956500733e-14,2.70162106e-14,5.085995204e-14,3.355224068e-14,1.036733211e-14,1.920845404e-14,3.476048649e-15,5.212609305e-15,2.744226004e-15,4.410382085e-15,9.2428806e-15,9.583305529e-15,1.267607529e-14,3.177591136e-14,3.177662652e-14,7.691518285e-14,2.288503874e-14,5.073000428e-15
0.34375,2.480709183e-15,5.55920493e-14,1.083628891e-14,5.337538057e-14,1.386433657e-14,9.627095103e-14,2.861183003e-14,2.85064685e-14,3.586225229e-15,5.273817938e-14,7.706487237e-14,1.153489044e-14,9.492106676e-15,7.919527861e-15,1.618428793e-14,2.41019431e-14,4.819407294e-14,3.270193459e-14,1.029111752e-14,1.555501818e-14,4.436047171e-15,6.491958666e-15,2.543160541e-15,4.181051008e-15,9.973836634e-15,1.035588328e-14,1.561850073e-14,2.817042769e-14,4.52084139e-14,7.7454491e-14,2.19811145e-14,7.825011242e-15
0.3515625,2.069409702e-15,4.712090544e-14,1.125440346e-14,3.922091068e-14,1.567561706e-14,9.268105781e-14,3.22719216e-14,2.112059001e-14,5.972207263e-15,4.767313197e-14,8.05503499e-14,1.253111374e-14,1.153975624e-14,8.889335637e-15,1.357389337e-14,2.18180712e-14,4.45048094e-14,3.218918001e-14,1.212878537e-14,1.411944186e-14,6.186477856e-15,8.784613201e-15,2.950714128e-15,4.311670081e-15,1.054558851e-14,1.143527311e-14,2.106411335e-14,3.148199224e-14,6.328375366e-14,8.432845987e-14,2.047743503e-14,1.226380606e-14
0.359375,1.847010676e-15,4.337310733e-14,1.321596038e-14,2.995098173e-14,1.839068468e-14,9.194163411e-14,3.699187487e-14,1.521884947e-14,9.698984238e-15,4.148269303e-14,8.775754147e-14,1.446341137e-14,1.491479907e-14,1.180273734e-14,1.284619609e-14,2.066397092e-14,4.05706569e-14,3.254366029e-14,1.554869423e-14,1.444283838e-14,8.9897488e-15,1.205112123e-14,4.103612123e-15,4.916756425e-15,1.117594754e-14,1.357890101e-14,2.985435338e-14,4.055100376e-14,8.829412143e-14,9.712677524e-14,1.976139648e-14,1.858996755e-14
0.3671875,1.853844901e-15,4.387119311e-14,1.756911876e-14,2.481681428e-14,2.260120806e-14,9.64289727e-14,4.27193021e-14,1.084517705e-14,1.503022684e-14,3.492206893e-14,9.740773589e-14,1.804661056e-14,2.029470456e-14,1.699786782e-14,1.430199222e-14,2.060760131e-14,3.744540738e-14,3.283451763e-14,2.011688675e-14,1.537637221e-14,1.215771476e-14,1.657766015e-14,6.065333343e-15,5.877383179e-15,1.247882561e-14,1.720262869e-14,4.081937287e-14,5.420513912e-14,1.19600196e-13,1.118586705e-13,1.986947199e-14,2.763347356e-14
0.375,2.185306199e-15,4.755970065e-14,2.565244464e-14,2.324544158e-14,2.781941782e-14,1.06524365e-13,4.698269605e-14,8.85394006e-15,2.17191148e-14,2.912571927e-14,1.080458875e-13,2.367234595e-14,2.708301838e-14,2.436291777e-14,1.860633628e-14,2.113385048e-14,3.452530489e-14,3.173636312e-14,2.443378222e-14,1.676875172e-14,1.482446487e-14,2.169326306e-14,8.806424918e-15,6.617054383e-15,1.412092428e-14,2.206217202e-14,5.211063228e-14,6.869017859e-14,1.506732374e-13,1.24998224e-13,2.041800575e-14,3.861686351e-14
0.3828125,2.888333079e-15,5.398737366e-14,3.712901277e-14,2.531668098e-14,3.393020826e-14,1.229152629e-13,5.157426681e-14,8.556065815e-15,2.899981634e-14,2.517310085e-14,1.216791568e-13,3.087588469e-14,3.393816875e-14,3.394420835e-14,2.601185304e-14,2.263228285e-14,3.467714339e-14,3.03033928e-14,2.743821609e-14,2.010297571e-14,1.706387923e-14,2.661057269e-14,1.281882847e-14,7.37713494e-15,1.534132143e-14,2.87563175e-14,6.206960464e-14,8.073390797e-14,1.77465967e-13,1.363881719e-13,2.239126423e-14,5.053583972e-14
0.390625,4.028142988e-15,6.332333736e-14,5.191017879e-14,3.031412872e-14,4.132638462e-14,1.436349566e-13,5.699598981e-14,9.115335998e-15,3.626029166e-14,2.35495822e-14,1.375702616e-13,3.916223698e-14,4.050297807e-14,4.537574637e-14,3.622767676e-14,2.545381367e-14,4.099792637e-14,2.939688308e-14,2.920550278e-14,2.615731864e-14,1.832630705e-14,3.084523328e-14,1.745328636e-14,8.339393736e-15,1.634617247e-14,3.76398646e-14,6.914329884e-14,8.811586777e-14,1.966671414e-13,1.421952853e-13,2.683262066e-14,6.344942172e-14
0.3984375,5.264310138e-15,7.453784484e-14,6.832079511e-14,3.709942297e-14,4.97303566e-14,1.63028144e-13,6.198084613e-14,1.045286392e-14,4.208337471e-14,2.338933187e-14,1.5110745e-13,4.684787696e-14,4.593276037e-14,5.704936871e-14,4.843393617e-14,2.928987453e-14,5.488309787e-14,2.880910152e-14,2.939722858e-14,3.692381283e-14,1.797538903e-14,3.316582934e-14,2.146811034e-14,8.811817113e-15,1.835637235e-14,4.795350069e-14,7.230373009e-14,8.975650104e-14,2.04193719e-13,1.382516685e-13,3.331944282e-14,7.586163256e-14
0.40625,6.331788571e-15,8.614769244e-14,8.528936946e-14,4.403755818e-14,5.840167019e-14,1.771433048e-13,6.63230785e-14,1.250694995e-14,4.580543443e-14,2.472890469e-14,1.603291787e-13,5.260406365e-14,4.826737845e-14,6.687761552e-14,6.117889113e-14,3.355334715e-14,7.8921132e-14,2.950053116e-14,2.764826972e-14,5.345540698e-14,1.629660528e-14,3.291100874e-14,2.536896011e-14,8.778227087e-15,2.13196961e-14,5.907053721e-14,7.082738171e-14,8.305785489e-14,1.958337477e-13,1.257635227e-13,4.108096466e-14,8.669575288e-14
0.4140625,7.083397543e-15,9.576601546e-14,1.003400535e-13,4.938665338e-14,6.57328197e-14,1.814577465e-13,7.06215934e-14,1.467239691e-14,4.68679929e-14,2.676256872e-14,1.631399679e-13,5.546968649e-14,4.68047068e-14,7.249076551e-14,6.98592097e-14,3.689214576e-14,1.12982553e-13,3.344435556e-14,2.580128985e-14,7.806100759e-14,1.435620656e-14,3.043963191e-14,2.856267878e-14,8.627197353e-15,2.744492762e-14,6.898325798e-14,6.568593497e-14,7.129041214e-14,1.751051082e-13,1.092391322e-13,4.866315144e-14,9.410752737e-14
0.421875,7.500762987e-15,1.0280719e-13,1.114591176e-13,5.260293882e-14,7.085369141e-14,1.738021221e-13,7.391230445e-14,1.792578903e-14,4.524492054e-14,2.898626298e-14,1.56585159e-13,5.478737791e-14,4.311690293e-14,7.38918364e-14,7.28883628e-14,3.918698991e-14,1.53330126e-13,4.116586453e-14,2.56178339e-14,1.088178546e-13,1.28508023e-14,2.608755165e-14,2.958631904e-14,8.527802135e-15,3.810471632e-14,7.610337779e-14,6.050699487e-14,5.905527412e-14,1.516054735e-13,9.273893482e-14,5.537926538e-14,9.713669337e-14
0.4296875,7.542886025e-15,1.06613314e-13,1.190480758e-13,5.402170437e-14,7.358414525e-14,1.558162942e-13,7.611769525e-14,2.263104062e-14,4.144397037e-14,3.188048796e-14,1.428612021e-13,5.031052303e-14,3.772405324e-14,7.10659314e-14,7.18911108e-14,4.028302074e-14,1.968053686e-13,5.23628637e-14,2.786369712e-14,1.433887611e-13,1.215819374e-14,2.063336355e-14,2.871399176e-14,8.254145703e-15,5.369922584e-14,8.014725087e-14,5.704298603e-14,4.985620077e-14,1.30274324e-13,7.910717731e-14,6.064777172e-14,9.617630326e-14
0.4375,7.219254629e-15,1.068954718e-13,1.236114805e-13,5.557712238e-14,7.338982724e-14,1.308145759e-13,7.645239255e-14,2.932259721e-14,3.648377866e-14,3.579960465e-14,1.234012948e-13,4.310048116e-14,3.128160593e-14,6.403224083e-14,6.656976175e-14,3.959391522e-14,2.384424833e-13,6.573076731e-14,3.268761346e-14,1.79046394e-13,1.276047308e-14,1.522871371e-14,2.681596009e-14,7.766659323e-15,7.343313289e-14,8.018764466e-14,5.549900154e-14,4.482976016e-14,1.146903541e-13,7.047757951e-14,6.313196746e-14,9.164601646e-14
0.4453125,6.679037263e-15,1.02756851e-13,1.243204304e-13,5.802230225e-14,6.949749194e-14,1.02673821e-13,7.432050089e-14,3.762470216e-14,3.122960372e-14,4.062012837e-14,9.982093198e-14,3.458873698e-14,2.449269424e-14,5.329399818e-14,5.549549024e-14,3.614971954e-14,2.713841124e-13,7.835035611e-14,3.966774394e-14,2.098653376e-13,1.456885826e-14,1.077462444e-14,2.467025642e-14,7.175759168e-15,9.473466469e-14,7.559772228e-14,5.55200832e-14,4.524721123e-14,1.075282289e-13,6.886598929e-14,6.141365154e-14,8.346467102e-14
0.453125,6.130765572e-15,9.7731651e-14,1.223070927e-13,6.595797996e-14,6.253507205e-14,7.615761307e-14,6.943433132e-14,4.693447474e-14,2.638554012e-14,4.607799183e-14,7.552866923e-14,2.599299977e-14,1.846115427e-14,4.165045309e-14,4.313484347e-14,3.069436325e-14,2.870918711e-13,8.594426025e-14,4.61432699e-14,2.293709086e-13,1.686959979e-14,7.452415653e-15,2.286612283e-14,6.438362808e-15,1.132921038e-13,6.732663852e-14,5.466588733e-14,4.756317875e-14,1.052498731e-13,7.070800871e-14,5.614195818e-14,7.281769874e-14
0.4609375,5.816755524e-15,9.232375198e-14,1.171581933e-13,8.170394159e-14,5.372378746e-14,5.386048237e-14,6.300562495e-14,5.619598043e-14,2.226316255e-14,5.208560805e-14,5.346594405e-14,1.797976118e-14,1.369024807e-14,3.052160504e-14,3.170064974e-14,2.499115888e-14,2.866816474e-13,8.889930276e-14,5.134250948e-14,2.367796986e-13,1.898147868e-14,5.45975918e-15,2.195377299e-14,5.66245613e-15,1.263350556e-13,5.692751527e-14,5.25901296e-14,5.048041738e-14,1.048979891e-13,7.571285226e-14,4.87684566e-14,6.127124432e-14
0.46875,5.537354547e-15,8.7493719e-14,1.107140897e-13,1.060576935e-13,4.416615106e-14,3.841777357e-14,5.584686832e-14,6.380734013e-14,1.931321374e-14,5.766205197e-14,3.582344218e-14,1.152213718e-14,1.020482616e-14,2.097936223e-14,2.265481616e-14,1.963361948e-14,2.712757756e-13,8.589034087e-14,5.350746541e-14,2.294066119e-13,2.051635889e-14,4.411704202e-15,2.178602998e-14,4.913784078e-15,1.313284299e-13,4.530501348e-14,4.81451473e-14,5.214983855e-14,1.026815727e-13,7.999471432e-14,4.007112327e-14,5.004488797e-14
0.4765625,5.607334615e-15,8.377301247e-14,1.021064755e-13,1.37698833e-13,3.501603338e-14,2.880351814e-14,4.692321184e-14,6.802504996e-14,1.760017946e-14,6.128679455e-14,2.239904956e-14,6.944400484e-15,8.422584187e-15,1.382507005e-14,1.691870708e-14,1.594430681e-14,2.406201068e-13,7.644080229e-14,5.183788787e-14,2.068426927e-13,2.092412085e-14,3.969715496e-15,2.222888261e-14,4.110798841e-15,1.260046411e-13,3.423064349e-14,4.159817627e-14,4.85937397e-14,9.505481475e-14,8.047684182e-14,3.142451079e-14,4.010151875e-14
0.484375,6.137069325e-15,8.118357628e-14,8.944943048e-14,1.744624704e-13,2.681673779e-14,2.502487863e-14,3.781944736e-14,6.784491906e-14,1.636645624e-14,6.246907286e-14,1.325666534e-14,3.931480385e-15,8.293815067e-15,9.070570155e-15,1.398854752e-14,1.478707622e-14,2.024402629e-13,6.350938238e-14,4.723456192e-14,1.758042911e-13,2.005200953e-14,4.042960446e-15,2.305853299e-14,3.361201233e-15,1.131202648e-13,2.443730668e-14,3.432040311e-14,4.237977975e-14,8.230182964e-14,7.863056969e-14,2.406442056e-14,3.139814192e-14
0.4921875,6.798605394e-15,7.989554161e-14,7.530224006e-14,2.122117989e-13,2.072812344e-14,2.515949462e-14,3.065150081e-14,6.356940332e-14,1.561578255e-14,6.16836722e-14,8.292458027e-15,2.185216133e-15,9.848528206e-15,6.620014064e-15,1.368339447e-14,1.691312155e-14,1.625437149e-13,5.044533904e-14,4.063609307e-14,1.406329773e-13,1.839199291e-14,4.577158957e-15,2.380125545e-14,2.923987936e-15,9.533628225e-14,1.675105734e-14,2.809278708e-14,3.589173503e-14,6.723806926e-14,7.535975745e-14,1.8999415e-14,2.477703601e-14
0.5,7.592239406e-15,7.875695956e-14,6.140299937e-14,2.437846286e-13,1.709119285e-14,2.871660421e-14,2.520166941e-14,5.579398522e-14,1.548876019e-14,5.852225226e-14,5.877409249e-15,1.359307153e-15,1.276524013e-14,5.950547135e-15,1.400121695e-14,2.180801109e-14,1.244049832e-13,3.941191445e-14,3.324395085e-14,1.054596984e-13,1.644977686e-14,5.404094209e-15,2.348849829e-14,2.748339111e-15,7.478045577e-14,1.142584182e-14,2.465775865e-14,3.046538683e-14,5.382559822e-14,7.145186288e-14,1.615805075e-14,2.056512705e-14
0.5078125,8.548200914e-15,7.764101857e-14,4.851761393e-14,2.647175228e-13,1.536461292e-14,3.369877867e-14,2.031560627e-14,4.567680651e-14,1.56249525e-14,5.327887427e-14,5.801347136e-15,1.124137986e-15,1.650784832e-14,6.317100753e-15,1.433376219e-14,2.721085311e-14,9.057098044e-14,3.137381158e-14,2.67953923e-14,7.426474176e-14,1.438788416e-14,6.787075857e-15,2.241401493e-14,2.808316336e-15,5.444720453e-14,7.846771666e-15,2.381161406e-14,2.69774711e-14,4.39272877e-14,6.84450886e-14,1.492644119e-14,1.846326082e-14
0.515625,9.446777975e-15,7.620324199e-14,3.72079752e-14,2.734898122e-13,1.519950852e-14,4.019186701e-14,1.70666534e-14,3.473659583e-14,1.52821863e-14,4.671886588e-14,8.194785158e-15,1.225708357e-15,2.012670359e-14,7.602468567e-15,1.535475374e-14,3.266027898e-14,6.370147441e-14,2.679612459e-14,2.182782151e-14,4.999859639e-14,1.25956127e-14,8.435112995e-15,2.080730914e-14,2.958881987e-15,3.723676419e-14,5.762226195e-15,2.557281527e-14,2.728844991e-14,3.910757925e-14,6.697744598e-14,1.503347968e-14,1.746053558e-14
0.5234375,9.788707651e-15,7.434757393e-14,2.913374812e-14,2.674633999e-13,1.534695538e-14,4.637268137e-14,1.60159806e-14,2.486453979e-14,1.457677367e-14,3.987104417e-14,1.241049202e-14,1.436233772e-15,2.317511983e-14,9.602527156e-15,1.666049313e-14,3.757511395e-14,4.289756325e-14,2.549068711e-14,1.842277057e-14,3.319974446e-14,1.121068329e-14,9.930955531e-15,1.82851311e-14,3.018931043e-15,2.404893887e-14,4.675111757e-15,2.880985501e-14,2.973601457e-14,3.893605477e-14,6.636709004e-14,1.520488047e-14,1.729912329e-14
0.53125,9.800204541e-15,7.044600625e-14,2.53143475e-14,2.453102615e-13,1.527509636e-14,5.40871809e-14,1.674712121e-14,1.722403637e-14,1.385702257e-14,3.280538933e-14,1.812474578e-14,1.757851054e-15,2.524978285e-14,1.151372103e-14,1.718901876e-14,3.965491376e-14,2.798777421e-14,2.538060084e-14,1.654187385e-14,2.302260237e-14,1.008949242e-14,1.126157102e-14,1.527147117e-14,3.220187116e-15,1.503191998e-14,4.14082529e-15,3.18383078e-14,3.375686962e-14,4.108291109e-14,6.587132732e-14,1.464313916e-14,1.805288564e-14
0.5390625,9.25155826e-15,6.426939014e-14,2.559167352e-14,2.12786271e-13,1.504028638e-14,6.069880317e-14,1.790334975e-14,1.18353904e-14,1.296517816e-14,2.651283231e-14,2.472969433e-14,2.090597117e-15,2.540935503e-14,1.293241767e-14,1.783655172e-14,3.807153834e-14,1.821707168e-14,2.430517579e-14,1.482624915e-14,1.74451725e-14,8.836245809e-15,1.192677722e-14,1.259686811e-14,3.593082909e-15,9.17131184e-15,4.153499244e-15,3.321268475e-14,3.621946671e-14,4.129351545e-14,6.180457309e-14,1.403752449e-14,1.915781004e-14
0.546875,8.421559736e-15,5.674830401e-14,3.070076544e-14,1.750067833e-13,1.420974273e-14,6.914080239e-14,2.037135423e-14,8.489478546e-15,1.187127753e-14,2.080529796e-14,3.321893857e-14,2.721192059e-15,2.419645804e-14,1.490939709e-14,1.891551242e-14,3.473513396e-14,1.284124328e-14,2.386469862e-14,1.396195352e-14,1.674689422e-14,7.828872366e-15,1.184396122e-14,1.01539687e-14,4.209404217e-15,6.019943468e-15,4.531031967e-15,3.424953058e-14,3.664517875e-14,4.056251248e-14,5.666224376e-14,1.350125296e-14,1.982190764e-14
0.5546875,7.197038387e-15,4.85497554e-14,4.10021356e-14,1.348145958e-13,1.270520232e-14,8.005712798e-14,2.395826851e-14,6.967550313e-15,1.102738179e-14,1.62322177e-14,4.253807215e-14,3.66942085e-15,2.213513662e-14,1.72830879e-14,2.018555427e-14,2.984881426e-14,1.137746376e-14,2.326742107e-14,1.348163555e-14,1.973796079e-14,6.851376957e-15,1.134374306e-14,7.9837475e-15,5.343561119e-15,4.779325999e-15,5.383830202e-15,3.458725308e-14,3.452885404e-14,3.785242132e-14,5.0493725e-14,1.302202517e-14,2.058550496e-14
0.5625,6.206779671e-15,4.023130177e-14,5.726478849e-14,9.647426784e-14,1.134808327e-14,9.480046861e-14,2.798003834e-14,6.183483571e-15,1.061127627e-14,1.263625726e-14,5.166964715e-14,5.372641554e-15,1.922795301e-14,1.961611891e-14,2.074056785e-14,2.442960437e-14,1.416071416e-14,2.303074212e-14,1.326509693e-14,2.811942312e-14,5.784343573e-15,1.042986986e-14,6.450978763e-15,7.190312659e-15,4.891024179e-15,6.86899926e-15,3.471144427e-14,2.977420381e-14,3.110335832e-14,4.307856031e-14,1.376315001e-14,2.120999342e-14
0.5703125,5.60173411e-15,3.314834505e-14,8.073358306e-14,6.453036759e-14,1.077163386e-14,1.151411421e-13,3.200675915e-14,5.896666874e-15,1.060931535e-14,9.995128006e-15,6.211586726e-14,8.268923419e-15,1.589745157e-14,2.270288785e-14,1.945452648e-14,1.943136752e-14,2.1453851e-14,2.564300777e-14,1.448119141e-14,4.385421872e-14,5.072888765e-15,9.555965052e-15,5.640472384e-15,9.586825255e-15,6.238939226e-15,8.761795582e-15,3.545385051e-14,2.298031242e-14,2.320746586e-14,3.708332563e-14,1.626083708e-14,2.165182557e-14
0.578125,5.409592813e-15,2.966123519e-14,1.090338579e-13,4.093619654e-14,1.092547725e-14,1.427021908e-13,3.664687994e-14,6.391302573e-15,1.1020286e-14,8.900911678e-15,7.439976901e-14,1.22681551e-14,1.356344633e-14,2.779120984e-14,1.760422585e-14,1.633263492e-14,3.150402768e-14,3.170178238e-14,1.752276935e-14,6.67432021e-14,5.026860461e-15,9.343878797e-15,5.666574817e-15,1.244881411e-14,8.532013925e-15,1.066063523e-14,3.690206343e-14,1.628911193e-14,1.743685256e-14,3.566609069e-14,2.012874121e-14,2.203992681e-14
0.5859375,5.813805964e-15,3.075814928e-14,1.404325285e-13,2.42477668e-14,1.1565341e-14,1.763808588e-13,4.138923471e-14,7.475270605e-15,1.166146769e-14,9.314431272e-15,8.730348159e-14,1.727814316e-14,1.204451985e-14,3.511601618e-14,1.659528277e-14,1.495259872e-14,4.171930996e-14,3.902691083e-14,2.098829669e-14,9.615698091e-14,5.372926587e-15,9.292328131e-15,6.552147041e-15,1.544540501e-14,1.125336758e-14,1.197569005e-14,3.91789942e-14,1.128681802e-14,1.303428949e-14,3.749367085e-14,2.441970959e-14,2.182729184e-14
0.59375,6.324403763e-15,3.575379986e-14,1.712570495e-13,1.421866288e-14,1.272093194e-14,2.135299641e-13,4.597079401e-14,9.35633825e-15,1.211366255e-14,1.144440554e-14,1.011784285e-13,2.297814162e-14,1.084800422e-14,4.303197737e-14,1.608645985e-14,1.501736652e-14,5.154972737e-14,4.698510093e-14,2.45246667e-14,1.294024812e-13,6.11203066e-15,9.227346318e-15,8.335979047e-15,1.764654494e-14,1.412238278e-14,1.264449963e-14,4.160538656e-14,8.459449613e-15,1.005998787e-14,4.196584096e-14,2.907061864e-14,2.083265458e-14
0.6015625,7.060514342e-15,4.51650092e-14,1.986612221e-13,9.616148403e-15,1.396263866e-14,2.519349383e-13,5.10805098e-14,1.28956748e-14,1.265979663e-14,1.524928557e-14,1.163914464e-13,2.923322683e-14,1.100872549e-14,5.261210353e-14,1.651283318e-14,1.640834065e-14,5.92216469e-14,5.451282293e-14,2.781787894e-14,1.635013329e-13,7.10812526e-15,9.288158945e-15,1.089586585e-14,1.895165754e-14,1.765371355e-14,1.224094608e-14,4.269685064e-14,8.717679482e-15,8.75149422e-15,4.857936383e-14,3.277633926e-14,1.927404459e-14
0.609375,7.695456209e-15,5.629030081e-14,2.167727175e-13,8.106904641e-15,1.425861078e-14,2.869114048e-13,5.709501722e-14,1.839681185e-14,1.309170607e-14,2.073909708e-14,1.313303098e-13,3.525597262e-14,1.263841828e-14,6.409060046e-14,1.950341596e-14,1.810356477e-14,6.019345159e-14,5.692651992e-14,2.863779109e-14,1.906049802e-13,7.594360711e-15,8.860291831e-15,1.395648485e-14,1.936294806e-14,2.103645821e-14,1.089582922e-14,4.199616136e-14,1.29520026e-14,7.556277862e-15,5.295252015e-14,3.352441514e-14,1.6924221e-14
0.6171875,8.207441899e-15,6.644337277e-14,2.235431605e-13,8.211337186e-15,1.403282459e-14,3.126185148e-13,6.320322544e-14,2.520742464e-14,1.332148205e-14,2.695527825e-14,1.419260823e-13,4.005995143e-14,1.519173664e-14,7.508961909e-14,2.4466303e-14,1.92711267e-14,5.578638668e-14,5.410686799e-14,2.670297893e-14,2.077563177e-13,7.492554189e-15,7.731502449e-15,1.759784762e-14,1.864868173e-14,2.514187757e-14,9.496064065e-15,4.124857948e-14,2.191186879e-14,6.355851253e-15,5.323056893e-14,3.226625884e-14,1.413626595e-14
0.625,9.307003264e-15,7.451736028e-14,2.197892617e-13,9.415692531e-15,1.369592834e-14,3.260741878e-13,6.963661021e-14,3.298339387e-14,1.380897131e-14,3.349955304e-14,1.475213114e-13,4.376772431e-14,1.894989206e-14,8.400008337e-14,2.932986668e-14,2.099742047e-14,4.893833129e-14,4.923838279e-14,2.339852009e-14,2.146396314e-13,7.136039787e-15,6.414136659e-15,2.143395902e-14,1.762372391e-14,3.057458288e-14,8.626129267e-15,4.03497623e-14,3.506984639e-14,5.984478133e-15,5.149618006e-14,3.016385017e-14,1.155008518e-14
0.6328125,1.157124986e-14,7.988981477e-14,2.079561356e-13,1.059438049e-14,1.291716906e-14,3.265218351e-13,7.589403286e-14,4.129359426e-14,1.510136462e-14,4.055251524e-14,1.492684279e-13,4.699965105e-14,2.439124857e-14,9.263165532e-14,3.500744443e-14,2.411861611e-14,3.995973741e-14,4.205460057e-14,1.918901085e-14,2.104643298e-13,6.342200505e-15,5.076442923e-15,2.495212978e-14,1.668343464e-14,3.685099533e-14,8.373540871e-15,3.856131781e-14,5.106840037e-14,6.095620057e-15,4.757783208e-14,2.661294946e-14,9.239804852e-15
0.640625,1.527015973e-14,7.990342774e-14,1.894607368e-13,1.098876878e-14,1.164495306e-14,3.12513633e-13,8.047088045e-14,4.921542094e-14,1.707830897e-14,4.693244382e-14,1.448422766e-13,4.909749063e-14,3.118466913e-14,1.007151998e-13,4.089802998e-14,2.862885041e-14,2.904621372e-14,3.235716612e-14,1.432061663e-14,1.937439593e-13,5.170416278e-15,3.739712619e-15,2.832145612e-14,1.634718125e-14,4.295931994e-14,9.258036195e-15,3.692588873e-14,6.765961459e-14,6.33070739e-15,4.132343817e-14,2.184922726e-14,7.679770285e-15
0.6484375,2.082297026e-14,7.553471797e-14,1.693053433e-13,1.033281395e-14,1.002625284e-14,2.861008772e-13,8.197413162e-14,5.536213526e-14,1.973721339e-14,5.211717249e-14,1.341591946e-13,5.014854507e-14,3.854473338e-14,1.068899684e-13,4.378348853e-14,3.469180201e-14,1.973515364e-14,2.446911378e-14,1.044624508e-14,1.709300601e-13,4.207518145e-15,2.797034139e-15,3.15509861e-14,1.665941578e-14,4.875821862e-14,1.114670344e-14,3.683191127e-14,8.394648814e-14,7.359675562e-15,3.561379175e-14,1.737581022e-14,6.796756921e-15
0.65625,2.775057695e-14,6.990102237e-14,1.520703897e-13,9.994928888e-15,8.460337214e-15,2.508402807e-13,7.984807663e-14,5.945259369e-14,2.265963251e-14,5.64305927e-14,1.203484665e-13,5.050438956e-14,4.438208899e-14,1.100446396e-13,4.370579648e-14,4.166891276e-14,1.298188491e-14,1.890706762e-14,7.795874475e-15,1.464985493e-13,3.64230787e-15,2.202181573e-15,3.47424089e-14,1.758455307e-14,5.256203009e-14,1.273222966e-14,3.53197784e-14,9.527252172e-14,8.111179452e-15,3.245308911e-14,1.388258403e-14,6.208045505e-15
0.6640625,3.540357404e-14,6.446682047e-14,1.391227793e-13,9.854172324e-15,7.059465633e-15,2.118019528e-13,7.500425624e-14,6.155250671e-14,2.554618053e-14,5.983903915e-14,1.063687572e-13,5.028390413e-14,4.82585019e-14,1.114522461e-13,4.347779299e-14,4.888734833e-14,8.225565306e-15,1.437952881e-14,6.343585195e-15,1.212974446e-13,3.514931642e-15,1.831189382e-15,3.776757311e-14,1.921234219e-14,5.353138738e-14,1.391551149e-14,3.233300708e-14,9.936116643e-14,9.283914229e-15,3.202319492e-14,1.134076802e-14,5.870227922e-15
0.671875,4.325261003e-14,6.115065374e-14,1.3093122e-13,1.071268951e-14,5.915841082e-15,1.720392858e-13,6.652519523e-14,6.156168707e-14,2.788350695e-14,6.147270626e-14,9.251210737e-14,4.91140139e-14,4.973993742e-14,1.115482008e-13,4.356590675e-14,5.607541346e-14,5.317945081e-15,1.116316704e-14,6.050270478e-15,9.762949969e-14,3.792510819e-15,1.703934807e-15,4.021046466e-14,2.09884151e-14,5.072851989e-14,1.437610678e-14,2.842884876e-14,9.671667459e-14,1.148970586e-14,3.487003861e-14,9.802037675e-15,5.556911187e-15
0.6796875,4.970628604e-14,6.159201987e-14,1.265246939e-13,1.297200392e-14,5.295822115e-15,1.357717682e-13,5.634190632e-14,5.92169541e-14,2.913546971e-14,6.131396903e-14,8.095704813e-14,4.6597071e-14,4.86037067e-14,1.099531121e-13,4.385301972e-14,6.210079773e-14,4.046184527e-15,9.6179111e-15,6.693998422e-15,7.789014405e-14,4.513458927e-15,1.736743e-15,4.197154972e-14,2.241910326e-14,4.557829201e-14,1.399176161e-14,2.470117817e-14,9.097966628e-14,1.545861549e-14,3.986637955e-14,8.961939946e-15,5.193959093e-15
0.6875,5.338354021e-14,6.594051833e-14,1.259170571e-13,1.695541742e-14,5.628613513e-15,1.06220084e-13,4.568805133e-14,5.527014408e-14,2.891473704e-14,5.97261626e-14,7.207377324e-14,4.294695482e-14,4.402300011e-14,1.057484896e-13,4.527495448e-14,6.475068094e-14,3.833849231e-15,8.802732347e-15,8.110661008e-15,6.395754613e-14,5.488113221e-15,1.829847572e-15,4.329800005e-14,2.33609514e-14,3.961864878e-14,1.256935477e-14,2.134972536e-14,8.348506723e-14,2.144576513e-14,4.583998644e-14,8.532686095e-15,4.764891407e-15
0.6953125,5.408010708e-14,7.374672226e-14,1.266037952e-13,2.198538035e-14,6.849095934e-15,8.467025828e-14,3.522480083e-14,5.053558564e-14,2.746735448e-14,5.699937025e-14,6.589448659e-14,3.855641768e-14,3.730182672e-14,9.950087794e-14,4.934407364e-14,6.406148051e-14,4.360181048e-15,8.635085105e-15,1.049926049e-14,5.564017319e-14,6.82374764e-15,2.240941029e-15,4.415083084e-14,2.326981605e-14,3.412954986e-14,1.046905351e-14,1.942601274e-14,7.710226464e-14,3.10577342e-14,5.331229356e-14,8.358461813e-15,4.760666303e-15
0.703125,5.268415611e-14,8.260291808e-14,1.259056367e-13,2.730602646e-14,8.970715109e-15,7.148524321e-14,2.705196766e-14,4.520323735e-14,2.525494322e-14,5.182984085e-14,6.04055672e-14,3.320238807e-14,2.998843142e-14,9.246248271e-14,5.674889691e-14,6.21944444e-14,6.176994436e-15,9.994822988e-15,1.397156846e-14,5.19838073e-14,8.667948503e-15,3.091960614e-15,4.42081126e-14,2.239325736e-14,3.133784527e-14,8.234743579e-15,2.00101121e-14,7.778410229e-14,4.459184729e-14,6.340696363e-14,8.211682394e-15,5.673761135e-15
0.7109375,4.944782454e-14,9.138297247e-14,1.225657228e-13,3.194472974e-14,1.10524413e-14,6.577820636e-14,2.101686548e-14,3.908742163e-14,2.2616518e-14,4.504048521e-14,5.56382673e-14,2.772764888e-14,2.313671825e-14,8.596197498e-14,6.771185555e-14,5.936527952e-14,9.373583495e-15,1.268265137e-14,1.845623739e-14,5.270334345e-14,1.083271531e-14,4.244754959e-15,4.281417684e-14,2.035987437e-14,3.226708957e-14,6.268869792e-15,2.342754977e-14,8.462695129e-14,5.996429934e-14,7.379449639e-14,7.776109404e-15,7.089495889e-15
0.71875,4.638003804e-14,9.751259963e-14,1.159067363e-13,3.530490064e-14,1.239250009e-14,6.581164963e-14,1.763288578e-14,3.324303255e-14,2.042181973e-14,3.825692048e-14,5.103117726e-14,2.356775529e-14,1.850393346e-14,8.124540818e-14,8.142845491e-14,5.70897407e-14,1.415991967e-14,1.68494442e-14,2.342751454e-14,5.66184344e-14,1.303271376e-14,5.837665915e-15,4.114153605e-14,1.813628153e-14,3.770761453e-14,5.209889999e-15,2.99639153e-14,9.74009043e-14,7.560393925e-14,8.389781429e-14,7.341639975e-15,9.442108294e-15
0.7265625,4.388044775e-14,9.857582068e-14,1.047461236e-13,3.656177925e-14,1.301338853e-14,6.881941293e-14,1.635281009e-14,2.748176575e-14,1.84615632e-14,3.196625305e-14,4.569505323e-14,2.076757331e-14,1.554977683e-14,7.721216239e-14,9.5802059e-14,5.521262626e-14,1.998902606e-14,2.17069333e-14,2.815130322e-14,6.268866525e-14,1.522821757e-14,7.469181197e-15,3.978895773e-14,1.597503778e-14,4.662884731e-14,5.50522726e-15,3.897433713e-14,1.125390083e-13,9.042945846e-14,9.331962329e-14,7.236294988e-15,1.293656868e-14
0.734375,4.353645159e-14,9.432536436e-14,9.144884334e-14,3.486656629e-14,1.27845977e-14,7.407972205e-14,1.672082469e-14,2.200372423e-14,1.718248832e-14,2.66627449e-14,4.015611963e-14,1.965445046e-14,1.477843666e-14,7.485421345e-14,1.09474812e-13,5.377645724e-14,2.688077431e-14,2.719734008e-14,3.246652129e-14,6.913399049e-14,1.718915432e-14,9.236026914e-15,3.854289548e-14,1.48835987e-14,5.833795832e-14,7.604042275e-15,5.0283613e-14,1.274939623e-13,1.035287026e-13,1.020956382e-13,7.816561668e-15,1.77476165e-14
0.7421875,4.624749407e-14,8.629243052e-14,7.853009998e-14,3.159010155e-14,1.163612701e-14,7.858278336e-14,1.895669136e-14,1.722689645e-14,1.713035633e-14,2.388398174e-14,3.622776266e-14,2.077024434e-14,1.646862047e-14,7.587408825e-14,1.223234517e-13,5.478825757e-14,3.408106474e-14,3.241514029e-14,3.548827694e-14,7.380806772e-14,1.843924853e-14,1.061762432e-14,3.753163786e-14,1.547298849e-14,7.020195507e-14,1.218277219e-14,6.345767912e-14,1.40274394e-13,1.127467903e-13,1.091916812e-13,1.00613022e-14,2.361011699e-14
0.75,5.045929983e-14,7.529367742e-14,6.839606657e-14,2.853233154e-14,1.081747891e-14,8.223675739e-14,2.19505122e-14,1.270197118e-14,1.757232898e-14,2.381395354e-14,3.410271347e-14,2.336319142e-14,1.901513169e-14,7.790127047e-14,1.316091313e-13,5.69449701e-14,3.985498683e-14,3.603733726e-14,3.64280288e-14,7.616149627e-14,1.874301627e-14,1.138637188e-14,3.69748123e-14,1.777204016e-14,8.062798782e-14,1.926106796e-14,7.699572888e-14,1.470449574e-13,1.172926645e-13,1.116937652e-13,1.502925985e-14,3.076763992e-14
0.7578125,5.544222726e-14,6.229236619e-14,6.300199154e-14,2.566534355e-14,1.072895984e-14,8.384457348e-14,2.495120852e-14,9.316744462e-15,1.80470351e-14,2.678608844e-14,3.587678863e-14,2.702232029e-14,2.164250193e-14,7.913499262e-14,1.341172457e-13,5.773124547e-14,4.446587037e-14,3.849153056e-14,3.567147787e-14,7.697479274e-14,1.849115143e-14,1.148749063e-14,3.67713351e-14,2.141853268e-14,8.768018412e-14,2.81991316e-14,9.10760078e-14,1.480105704e-13,1.186618785e-13,1.114528318e-13,2.191873761e-14,3.774740215e-14
0.765625,5.986470792e-14,5.045826286e-14,6.368122523e-14,2.462612381e-14,1.1811331e-14,8.371426636e-14,2.823308387e-14,6.673482199e-15,1.83979293e-14,3.19178069e-14,4.269412587e-14,3.045110407e-14,2.395300842e-14,7.983741197e-14,1.316206028e-13,5.75994234e-14,4.673222222e-14,3.951100894e-14,3.326051797e-14,7.424290056e-14,1.736963268e-14,1.111692885e-14,3.646519033e-14,2.56652662e-14,8.922169537e-14,3.84921751e-14,1.035346772e-13,1.426118673e-13,1.162363661e-13,1.083605482e-13,3.08964799e-14,4.443580725e-14
0.7734375,6.177295344e-14,3.954015764e-14,6.976220121e-14,2.598023457e-14,1.389644579e-14,8.057841168e-14,3.098832708e-14,5.047130567e-15,1.845189302e-14,3.805025076e-14,5.225364316e-14,3.246318342e-14,2.550075452e-14,7.79128591e-14,1.224087108e-13,5.522275898e-14,4.587716715e-14,3.882311438e-14,2.995365919e-14,6.873427792e-14,1.571157391e-14,1.042225392e-14,3.564370758e-14,2.967444477e-14,8.485730776e-14,4.835199402e-14,1.122438332e-13,1.307270413e-13,1.106087426e-13,1.01975638e-13,4.03282049e-14,4.933799501e-14
0.78125,6.106952218e-14,3.067001692e-14,7.887954707e-14,2.943665039e-14,1.630532646e-14,7.666473666e-14,3.228648262e-14,4.358166551e-15,1.81434494e-14,4.4158865e-14,6.389897888e-14,3.344988136e-14,2.586776069e-14,7.366404061e-14,1.088396183e-13,5.128677833e-14,4.290636358e-14,3.733657989e-14,2.685627974e-14,6.289014061e-14,1.413151051e-14,9.790151713e-15,3.397138266e-14,3.21383406e-14,7.668095296e-14,5.600285098e-14,1.172577087e-13,1.161443308e-13,1.044106413e-13,9.552265594e-14,4.869101692e-14,5.12101878e-14
0.7890625,5.647316512e-14,2.425233086e-14,8.717549361e-14,3.345074926e-14,1.835420829e-14,7.050038272e-14,3.270097288e-14,4.822467957e-15,1.697379168e-14,4.872802472e-14,7.565144665e-14,3.273631903e-14,2.457705535e-14,6.607606411e-14,9.259002355e-14,4.528976652e-14,3.734944338e-14,3.545503517e-14,2.43834897e-14,5.815766908e-14,1.297193923e-14,9.566927735e-15,3.168358886e-14,3.285023947e-14,6.496847748e-14,6.05219601e-14,1.181118885e-13,9.82864347e-14,9.808283496e-14,8.985182605e-14,5.470086165e-14,4.950609131e-14
0.796875,4.889976345e-14,1.947696737e-14,9.090868954e-14,3.688662374e-14,1.928625047e-14,6.15998973e-14,3.270645574e-14,6.50353862e-15,1.515654944e-14,5.034643789e-14,8.245522651e-14,2.950799015e-14,2.291082473e-14,5.627515308e-14,7.512463502e-14,3.796165173e-14,3.107543917e-14,3.446848933e-14,2.317613528e-14,5.455823152e-14,1.231911657e-14,1.04201681e-14,2.885630334e-14,3.230934068e-14,5.354507431e-14,6.066027649e-14,1.126147353e-13,8.078974479e-14,9.215872296e-14,8.510477049e-14,5.665169337e-14,4.504079827e-14
0.8046875,3.981180059e-14,1.521286585e-14,9.003620078e-14,3.876218524e-14,1.91080392e-14,5.162591472e-14,3.162209754e-14,9.565522461e-15,1.324261644e-14,4.824350777e-14,8.305141569e-14,2.470009559e-14,2.168712234e-14,4.551606251e-14,5.961093365e-14,3.126431778e-14,2.499226951e-14,3.46632631e-14,2.325057803e-14,5.230859348e-14,1.229286412e-14,1.279550876e-14,2.672680649e-14,3.035638515e-14,4.395312435e-14,5.675546e-14,1.025362521e-13,6.596005149e-14,8.856477923e-14,8.254709441e-14,5.428228862e-14,3.951413084e-14
0.8125,3.048553237e-14,1.196893718e-14,8.403482406e-14,3.873643426e-14,1.793339975e-14,4.203594249e-14,2.980216327e-14,1.418864094e-14,1.15454882e-14,4.429781844e-14,7.999509143e-14,2.029082165e-14,2.135707986e-14,3.512045557e-14,4.763240045e-14,2.618545782e-14,2.013098648e-14,3.647819227e-14,2.468528695e-14,5.301526483e-14,1.296550799e-14,1.665246207e-14,2.54137603e-14,2.732439453e-14,3.869576543e-14,4.997310652e-14,9.043737546e-14,5.573013965e-14,8.889837259e-14,8.276697949e-14,4.852056782e-14,3.412606962e-14
0.8203125,2.176963223e-14,9.164062969e-15,7.231010057e-14,3.632791341e-14,1.621135927e-14,3.277040277e-14,2.844172201e-14,1.966333857e-14,9.984116479e-15,3.831609961e-14,7.217314326e-14,1.626549143e-14,2.17686877e-14,2.563610942e-14,3.962157652e-14,2.337076107e-14,1.769608157e-14,3.90726739e-14,2.656823202e-14,5.6406079e-14,1.416018076e-14,2.169718533e-14,2.627345705e-14,2.466133018e-14,3.877029392e-14,4.205748691e-14,7.827439208e-14,5.161346643e-14,9.282875651e-14,8.37099318e-14,4.058867316e-14,3.073929195e-14
0.828125,1.491656319e-14,6.796957585e-15,5.74889897e-14,3.218178899e-14,1.470755245e-14,2.482184529e-14,2.707723615e-14,2.518554635e-14,9.053244986e-15,3.099640863e-14,5.929335979e-14,1.352893727e-14,2.353204936e-14,1.862453353e-14,3.647409367e-14,2.388189524e-14,1.793302293e-14,4.223205399e-14,2.830534453e-14,6.145098808e-14,1.573728833e-14,2.750731309e-14,2.921820603e-14,2.196989554e-14,4.37008575e-14,3.492097777e-14,6.881800158e-14,5.429759732e-14,1.010939057e-13,8.560923803e-14,3.189583645e-14,3.098501124e-14
0.8359375,1.022420738e-14,4.779911291e-15,4.404601831e-14,2.710811602e-14,1.349812013e-14,1.937276804e-14,2.559767535e-14,3.063665905e-14,8.577066345e-15,2.377747467e-14,4.602097417e-14,1.249441319e-14,2.65328678e-14,1.413679273e-14,3.707927806e-14,2.705333208e-14,2.007160629e-14,4.592737097e-14,2.969847473e-14,6.714979505e-14,1.747040488e-14,3.302794857e-14,3.409484548e-14,1.954127107e-14,5.159170189e-14,3.030503763e-14,6.463065951e-14,6.163222931e-14,1.131015329e-13,8.670458699e-14,2.377055995e-14,3.501925257e-14
0.84375,7.650731324e-15,3.525657213e-15,3.309674166e-14,2.259527141e-14,1.308037316e-14,1.622967907e-14,2.471477297e-14,3.409475894e-14,8.486927122e-15,1.847092051e-14,3.530305324e-14,1.30157024e-14,3.007883833e-14,1.193760975e-14,3.978394356e-14,3.200017268e-14,2.305673492e-14,4.929986797e-14,3.048148455e-14,7.318563926e-14,1.936621706e-14,3.714917063e-14,3.995571026e-14,1.751057197e-14,6.023439859e-14,2.923298693e-14,6.62365196e-14,7.111348114e-14,1.283066948e-13,8.654939501e-14,1.761627343e-14,4.238390953e-14
0.8515625,6.480816614e-15,3.240110981e-15,2.519389746e-14,1.843205765e-14,1.30830344e-14,1.481044126e-14,2.451021815e-14,3.470532482e-14,8.332218704e-15,1.43566819e-14,2.602166198e-14,1.376069887e-14,3.241054295e-14,1.093626853e-14,4.299826044e-14,3.755304581e-14,2.544516441e-14,4.968704035e-14,2.927795623e-14,7.710638581e-14,2.070507059e-14,3.897474036e-14,4.561855094e-14,1.640372698e-14,6.722964451e-14,3.11844597e-14,7.092822819e-14,7.882615346e-14,1.407281209e-13,8.13781638e-14,1.371187042e-14,5.150927906e-14
0.859375,7.149328937e-15,4.256732355e-15,2.153999376e-14,1.429009711e-14,1.286569782e-14,1.464328185e-14,2.478017495e-14,3.271241874e-14,8.459491348e-15,1.160224399e-14,1.852451059e-14,1.442912459e-14,3.379642647e-14,1.056545471e-14,4.453162353e-14,4.229469005e-14,2.666502707e-14,4.778278885e-14,2.698777774e-14,7.76838741e-14,2.1310845e-14,3.87926608e-14,5.016495985e-14,1.638881308e-14,7.108327181e-14,3.502134203e-14,7.702913885e-14,8.272360697e-14,1.496839751e-13,7.403951497e-14,1.135671347e-14,6.096399119e-14
0.8671875,9.011902637e-15,6.715139842e-15,2.190865568e-14,1.111698738e-14,1.253323724e-14,1.449674923e-14,2.608330221e-14,2.916498413e-14,8.229786717e-15,1.06825835e-14,1.402555317e-14,1.484095471e-14,3.368106525e-14,1.032877659e-14,4.410986999e-14,4.480509602e-14,2.593354656e-14,4.403577154e-14,2.403853092e-14,7.437513423e-14,2.119476834e-14,3.604654935e-14,5.217451603e-14,1.759852301e-14,7.07529766e-14,3.959597839e-14,8.235356853e-14,8.022568044e-14,1.530393212e-13,6.519044925e-14,1.053363362e-14,6.852434307e-14
0.875,1.206868969e-14,1.113532289e-14,2.552146906e-14,8.868190367e-15,1.227216533e-14,1.401605053e-14,2.900708049e-14,2.456605512e-14,7.865016156e-15,1.12222786e-14,1.161205526e-14,1.471058285e-14,3.175315934e-14,1.052630496e-14,4.207559592e-14,4.610891694e-14,2.475719255e-14,3.897677973e-14,2.069968621e-14,6.935695431e-14,2.063950051e-14,3.101503191e-14,5.127209403e-14,2.013313029e-14,6.822711139e-14,4.333621041e-14,8.515349204e-14,7.492435155e-14,1.518024267e-13,5.790646379e-14,1.069751034e-14,7.249357852e-14
0.8828125,1.693850225e-14,1.809079605e-14,3.236698042e-14,7.120475169e-15,1.18517717e-14,1.341943246e-14,3.266899178e-14,2.054406923e-14,7.698224302e-15,1.307185754e-14,1.009250249e-14,1.401011323e-14,2.774293784e-14,1.129701451e-14,3.991306684e-14,4.713651371e-14,2.343212543e-14,3.238948773e-14,1.694028861e-14,6.104174121e-14,1.92397722e-14,2.523040202e-14,4.916838244e-14,2.365438705e-14,6.257648885e-14,4.450724872e-14,8.226609995e-14,6.736793098e-14,1.424890047e-13,5.440277058e-14,1.063708944e-14,7.352971664e-14
0.890625,2.385021199e-14,2.685949326e-14,4.061505809e-14,6.063480111e-15,1.129846108e-14,1.326319246e-14,3.702827981e-14,1.843580989e-14,8.273684999e-15,1.630579176e-14,9.630394735e-15,1.361929087e-14,2.34506526e-14,1.296551146e-14,3.709791916e-14,4.698498747e-14,2.312371956e-14,2.662642315e-14,1.402946056e-14,5.137481545e-14,1.707700034e-14,2.004503985e-14,4.615273059e-14,2.7778167e-14,5.564469498e-14,4.274266618e-14,7.52653755e-14,6.089059259e-14,1.285475826e-13,5.979910376e-14,1.015022596e-14,7.098672434e-14
0.8984375,3.277378367e-14,3.805141627e-14,4.897907711e-14,6.34406085e-15,1.080912969e-14,1.427854483e-14,4.189179447e-14,1.903242817e-14,9.788940826e-15,1.973975393e-14,1.079818001e-14,1.483975156e-14,1.988582367e-14,1.693729652e-14,3.60930771e-14,4.819750909e-14,2.68485602e-14,2.374072257e-14,1.283091906e-14,4.2880658e-14,1.454072468e-14,1.586231119e-14,4.371776606e-14,3.185662367e-14,4.989625628e-14,3.833467565e-14,6.661181759e-14,6.125900218e-14,1.147598001e-13,7.822360634e-14,9.650192302e-15,6.46570017e-14
0.90625,4.27538052e-14,5.073560649e-14,5.632065445e-14,8.185125668e-15,1.092008735e-14,1.68632622e-14,4.594945204e-14,2.198397088e-14,1.240229957e-14,2.37174119e-14,1.385389067e-14,1.816904506e-14,1.751938971e-14,2.41273072e-14,3.944286852e-14,5.35896872e-14,3.519754883e-14,2.385415877e-14,1.306509654e-14,3.886186278e-14,1.207633504e-14,1.314021733e-14,4.395675514e-14,3.439134535e-14,4.592150268e-14,3.34274621e-14,6.018602823e-14,7.069547898e-14,1.055880585e-13,1.095547714e-13,9.706759668e-15,5.654496168e-14
0.9140625,5.522359644e-14,6.652197948e-14,6.37038013e-14,1.20017933e-14,1.084228838e-14,2.114839971e-14,4.910283612e-14,2.679797705e-14,1.688348457e-14,2.72274762e-14,1.884270087e-14,2.449965012e-14,1.704166326e-14,3.564164908e-14,4.844337663e-14,6.470024554e-14,4.886068165e-14,2.766164953e-14,1.513499052e-14,3.845820577e-14,9.712881416e-15,1.250855825e-14,4.705064359e-14,3.552303858e-14,4.297371246e-14,2.798562127e-14,5.683583232e-14,9.074546412e-14,1.03474114e-13,1.557875932e-13,1.043262476e-14,4.870755915e-14
0.921875,6.980944945e-14,8.409584281e-14,6.877172244e-14,1.811655602e-14,1.059868425e-14,2.672856581e-14,5.079628593e-14,3.233097076e-14,2.291470496e-14,3.106563431e-14,2.574023405e-14,3.402042036e-14,1.970681175e-14,5.241485492e-14,6.335624977e-14,8.311506752e-14,7.034737354e-14,3.681527514e-14,1.986659869e-14,4.501608271e-14,7.65012718e-15,1.346531169e-14,5.200899397e-14,3.513113651e-14,4.311784792e-14,2.339027589e-14,6.12185016e-14,1.229742994e-13,1.135100447e-13,2.164013979e-13,1.280761277e-14,4.006631965e-14
0.9296875,8.57131631e-14,1.031978268e-13,7.128726467e-14,2.744915523e-14,1.060572878e-14,3.240810601e-14,5.105872315e-14,3.653443216e-14,3.078404482e-14,3.625588782e-14,3.454486446e-14,4.694591152e-14,2.595778463e-14,7.364418855e-14,8.353089509e-14,1.086884377e-13,9.868137771e-14,5.048996918e-14,2.673585686e-14,5.916257404e-14,6.046034445e-15,1.577811242e-14,5.804601512e-14,3.305794989e-14,4.679480458e-14,2.10753921e-14,7.516193272e-14,1.642909054e-13,1.376153262e-13,2.839920121e-13,1.774998222e-14,3.221429066e-14
0.9375,1.02233845e-13,1.222793224e-13,7.057334294e-14,3.913070281e-14,1.130805241e-14,3.6856433e-14,5.026651229e-14,3.92949417e-14,3.964188555e-14,4.478216267e-14,4.465579613e-14,6.312559187e-14,3.5855639e-14,9.829295804e-14,1.080946302e-13,1.418204127e-13,1.329180366e-13,6.757787472e-14,3.517255376e-14,7.959401947e-14,5.200191343e-15,1.807254929e-14,6.261954278e-14,3.009455318e-14,5.412539504e-14,2.187169692e-14,9.995097261e-14,2.106020058e-13,1.746379215e-13,3.498894639e-13,2.598013639e-14,2.510067847e-14
0.9453125,1.192332295e-13,1.428045046e-13,6.821238463e-14,5.341600346e-14,1.349327011e-14,3.970539238e-14,4.836348854e-14,3.966060353e-14,4.882774648e-14,5.774068404e-14,5.651057773e-14,8.219251324e-14,4.857335281e-14,1.265806611e-13,1.378578426e-13,1.83328936e-13,1.734760374e-13,8.739996914e-14,4.436073489e-14,1.052025022e-13,4.836264599e-15,1.999978148e-14,6.450903397e-14,2.665231155e-14,6.454365376e-14,2.621085605e-14,1.341641521e-13,2.586537406e-13,2.216473743e-13,4.104225929e-13,3.807018613e-14,1.917679612e-14
0.953125,1.371932175e-13,1.646574708e-13,6.468307328e-14,7.040714732e-14,1.788972892e-14,4.028698511e-14,4.598769156e-14,3.791584445e-14,5.859573822e-14,7.751916122e-14,7.003383608e-14,1.037219239e-13,6.488511984e-14,1.574397797e-13,1.711899698e-13,2.316319612e-13,2.202258846e-13,1.093454191e-13,5.39390779e-14,1.353039722e-13,4.911953798e-15,2.131053758e-14,6.306155695e-14,2.352181934e-14,7.967260264e-14,3.402112667e-14,1.764355193e-13,3.065417765e-13,2.744818406e-13,4.602270175e-13,5.440516323e-14,1.468934404e-14
0.9609375,1.533607268e-13,1.844205027e-13,5.940869058e-14,8.682726312e-14,2.532608313e-14,3.778105684e-14,4.375945045e-14,3.466436256e-14,6.698113628e-14,1.033554585e-13,8.347002597e-14,1.247580319e-13,8.261201065e-14,1.848590614e-13,2.006831991e-13,2.811796991e-13,2.684233757e-13,1.302824907e-13,6.236951639e-14,1.662784674e-13,5.052948809e-15,2.132648015e-14,5.83438524e-14,2.135674027e-14,9.818950212e-14,4.451816346e-14,2.203441439e-13,3.459973717e-13,3.20915762e-13,4.876374662e-13,7.332848414e-14,1.161888929e-14
0.96875,1.659888969e-13,2.01387263e-13,5.365528234e-14,1.007738075e-13,3.504767532e-14,3.340037725e-14,4.214816913e-14,3.055047966e-14,7.300063089e-14,1.337397476e-13,9.598458585e-14,1.446770988e-13,9.909962191e-14,2.059429407e-13,2.244364548e-13,3.270280171e-13,3.118997783e-13,1.462344179e-13,6.788838433e-14,1.927548313e-13,5.004664242e-15,1.987259037e-14,5.156031851e-14,2.083573621e-14,1.180729752e-13,5.612072714e-14,2.595675974e-13,3.723513558e-13,3.523236953e-13,4.877014105e-13,9.225938217e-14,9.815801875e-15
0.9765625,1.748878617e-13,2.18955104e-13,4.934194904e-14,1.13193162e-13,4.628093916e-14,2.828407725e-14,4.052642354e-14,2.67337914e-14,7.672359096e-14,1.65303851e-13,1.085045512e-13,1.620881735e-13,1.134031354e-13,2.204112018e-13,2.428147954e-13,3.644851163e-13,3.470115278e-13,1.570930733e-13,7.003427572e-14,2.110565403e-13,4.8105304e-15,1.78006068e-14,4.484955019e-14,2.213943827e-14,1.365633679e-13,6.648920008e-14,2.882538909e-13,3.825960894e-13,3.671991058e-13,4.657336954e-13,1.106898785e-13,9.016060286e-15
0.984375,1.791465742e-13,2.361183513e-13,4.678475594e-14,1.23492213e-13,5.805701887e-14,2.265341895e-14,3.849590081e-14,2.347915829e-14,7.769474215e-14,1.935183249e-13,1.206261484e-13,1.741496483e-13,1.246429358e-13,2.263922973e-13,2.521426457e-13,3.888653557e-13,3.705986236e-13,1.62205287e-13,6.870668183e-14,2.201064453e-13,4.475493625e-15,1.532953244e-14,3.943868532e-14,2.520092159e-14,1.515279142e-13,7.473872365e-14,3.024281334e-13,3.757563739e-13,3.621149737e-13,4.251333825e-13,1.266627759e-13,9.419456118e-15
0.9921875,1.758884264e-13,2.498394104e-13,4.610001629e-14,1.295244116e-13,6.690267399e-14,1.788433327e-14,3.650547146e-14,2.108181128e-14,7.575838273e-14,2.142189962e-13,1.284205837e-13,1.795220848e-13,1.307289941e-13,2.202176096e-13,2.471479438e-13,3.938941997e-13,3.759141149e-13,1.591151589e-13,6.43146491e-14,2.169815302e-13,4.124275731e-15,1.297916511e-14,3.580930053e-14,3.008146795e-14,1.612637607e-13,7.767200284e-14,2.979912164e-13,3.521421474e-13,3.382447944e-13,3.686072826e-13,1.343320807e-13,1.019985822e-14
1,1.657004101e-13,2.611705475e-13,4.710832137e-14,1.32249425e-13,7.207506021e-14,1.422223648e-14,3.40876627e-14,1.975966536e-14,7.117526202e-14,2.249908775e-13,1.328846507e-13,1.79335709e-13,1.307611751e-13,2.0432026e-13,2.320813408e-13,3.812804696e-13,3.630829164e-13,1.483565606e-13,5.716492535e-14,2.022047642e-13,3.958393745e-15,1.071985272e-14,3.421046972e-14,3.629520137e-14,1.640756671e-13,7.551525417e-14,2.778491759e-13,3.148840419e-13,3.001439461e-13,3.038016487e-13,1.347556277e-13,1.104648725e-14
1.0078125,1.497650949e-13,2.698470318e-13,4.933439026e-14,1.329206726e-13,7.291953272e-14,1.160085197e-14,3.049923709e-14,1.909468985e-14,6.413503793e-14,2.230275516e-13,1.344182897e-13,1.730278222e-13,1.247388185e-13,1.810241798e-13,2.085581218e-13,3.49965307e-13,3.330004815e-13,1.324142988e-13,4.791650328e-14,1.779016226e-13,4.1009017e-15,8.883736087e-15,3.369639163e-14,4.280903113e-14,1.588873441e-13,6.821166925e-14,2.432835058e-13,2.664850056e-13,2.536560938e-13,2.382365772e-13,1.276977886e-13,1.156789052e-14
1.015625,1.281689358e-13,2.723950168e-13,5.100461179e-14,1.310454007e-13,6.917175135e-14,1.027366596e-14,2.57548076e-14,1.827991918e-14,5.476883289e-14,2.082740986e-13,1.316808244e-13,1.601254537e-13,1.135404894e-13,1.525020829e-13,1.784631176e-13,3.040711e-13,2.901075633e-13,1.130654663e-13,3.797137319e-14,1.488655647e-13,4.557394692e-15,7.495938797e-15,3.32546137e-14,4.820731017e-14,1.470450362e-13,5.775399781e-14,2.001964259e-13,2.129361238e-13,2.060444142e-13,1.777873696e-13,1.137671626e-13,1.21398933e-14
1.0234375,1.038147711e-13,2.674256893e-13,5.043927639e-14,1.265303477e-13,6.154930379e-14,1.024851658e-14,2.090893222e-14,1.739537781e-14,4.460333824e-14,1.84865835e-13,1.232761556e-13,1.425986641e-13,9.920674857e-14,1.221510318e-13,1.448966872e-13,2.514329791e-13,2.402457114e-13,9.237195204e-14,2.864292669e-14,1.186588654e-13,5.25346283e-15,6.43956085e-15,3.258098611e-14,5.182617345e-14,1.310974722e-13,4.600436712e-14,1.556389901e-13,1.610493039e-13,1.638093097e-13,1.27384533e-13,9.551616684e-14,1.222627014e-14
1.03125,7.99981246e-14,2.554852384e-13,4.831448304e-14,1.2044481e-13,5.188488081e-14,1.035357001e-14,1.609346253e-14,1.630682429e-14,3.486126889e-14,1.563821717e-13,1.114923816e-13,1.235544519e-13,8.370847179e-14,9.351036879e-14,1.127784625e-13,1.987123963e-13,1.897749966e-13,7.242349691e-14,2.062869389e-14,9.099231517e-14,5.87349931e-15,5.806213797e-15,3.125267222e-14,5.322429135e-14,1.131798656e-13,3.541535464e-14,1.150153987e-13,1.158209927e-13,1.296636932e-13,8.910872466e-14,7.611386931e-14,1.253665072e-14
1.0390625,5.881648269e-14,2.360819002e-13,4.444244716e-14,1.118473578e-13,4.204993202e-14,1.05001486e-14,1.169718317e-14,1.460488127e-14,2.578545865e-14,1.255825781e-13,9.691008705e-14,1.036261927e-13,6.763786626e-14,6.819329154e-14,8.395721686e-14,1.483771315e-13,1.421676694e-13,5.482885029e-14,1.420337228e-14,6.651370303e-14,6.286906941e-15,5.330033412e-15,2.876275181e-14,5.236633277e-14,9.463131368e-14,2.756613749e-14,8.031385857e-14,7.809277444e-14,1.034382584e-13,6.173542623e-14,5.774620792e-14,1.342329498e-14
1.046875,4.122930409e-14,2.091947102e-13,3.822821039e-14,1.011473758e-13,3.33662998e-14,1.078790899e-14,8.058992237e-15,1.247149105e-14,1.782668645e-14,9.548730197e-14,8.003083813e-14,8.350019282e-14,5.268058832e-14,4.741784857e-14,5.946118617e-14,1.043287432e-13,1.007855761e-13,4.027845252e-14,9.284216534e-15,4.693060065e-14,6.196688453e-15,4.891113506e-15,2.544386872e-14,4.921065538e-14,7.690278532e-14,2.352975776e-14,5.353601151e-14,4.937229786e-14,8.448629468e-14,4.413497833e-14,4.249148559e-14,1.527285013e-14
1.0546875,2.83529054e-14,1.767084226e-13,3.120784738e-14,8.980721239e-14,2.685632312e-14,1.090969784e-14,5.70629634e-15,1.032571009e-14,1.146821288e-14,6.932192588e-14,6.291536555e-14,6.458980415e-14,3.997365831e-14,3.17603953e-14,4.018081287e-14,7.030048298e-14,6.886875995e-14,2.892854098e-14,5.858601332e-15,3.335949496e-14,5.727150599e-15,4.624843715e-15,2.204730767e-14,4.475964697e-14,6.196695361e-14,2.328316559e-14,3.465574199e-14,2.991655354e-14,7.132815401e-14,3.383095977e-14,3.188123098e-14,1.83794184e-14
1.0625,2.064825413e-14,1.426263751e-13,2.526123673e-14,7.982622222e-14,2.282387809e-14,1.075831159e-14,4.258698944e-15,8.108819017e-15,6.969215546e-15,4.868559897e-14,4.883807539e-14,4.819941971e-14,3.002379542e-14,2.155078434e-14,2.744244843e-14,4.667379062e-14,4.682739631e-14,2.06057077e-14,3.677703021e-15,2.390369405e-14,5.072053906e-15,4.608671026e-15,1.912074756e-14,3.98555411e-14,5.038619511e-14,2.614480435e-14,2.301684868e-14,1.839897058e-14,6.222434074e-14,2.94364221e-14,2.658629556e-14,2.230927244e-14
1.0703125,1.690234053e-14,1.111264636e-13,2.038436388e-14,7.249383913e-14,2.117167611e-14,1.131155988e-14,3.460763998e-15,6.197003266e-15,4.070858266e-15,3.386166883e-14,3.949627783e-14,3.48505288e-14,2.299956993e-14,1.582518031e-14,2.004333001e-14,3.085116262e-14,3.307018266e-14,1.48347673e-14,2.372060087e-15,1.800572456e-14,4.307520246e-15,4.968282828e-15,1.676114957e-14,3.522888197e-14,4.178145507e-14,3.108616837e-14,1.730039227e-14,1.215415119e-14,5.460292475e-14,2.774347681e-14,2.617840941e-14,2.685345217e-14
1.078125,1.574259003e-14,8.563469942e-14,1.610182849e-14,6.939797359e-14,2.107180768e-14,1.377523574e-14,3.439399684e-15,4.591673888e-15,2.35576232e-15,2.389597667e-14,3.506355168e-14,2.445111805e-14,1.854169673e-14,1.341119745e-14,1.74018819e-14,2.218089905e-14,2.629136559e-14,1.111567313e-14,1.681649027e-15,1.579588347e-14,3.543626359e-15,5.726049577e-15,1.499235734e-14,3.081737118e-14,3.570958068e-14,3.639807706e-14,1.597134183e-14,9.751252141e-15,4.838741549e-14,2.749670555e-14,2.867932908e-14,3.10630653e-14
1.0859375,1.610671098e-14,6.709009401e-14,1.342693361e-14,6.907714555e-14,2.193241834e-14,1.905972324e-14,4.05794586e-15,3.439580278e-15,1.48053138e-15,1.823152129e-14,3.560759384e-14,1.701228511e-14,1.656488454e-14,1.3331342e-14,1.859729859e-14,1.840995838e-14,2.457797072e-14,8.881328337e-15,1.271102871e-15,1.643085571e-14,3.116182399e-15,6.945908432e-15,1.398644158e-14,2.749997086e-14,3.22791357e-14,4.160581788e-14,1.783220586e-14,1.013393406e-14,4.16201555e-14,2.65946665e-14,3.295036347e-14,3.452277869e-14
1.09375,1.735997655e-14,5.610391007e-14,1.168349944e-14,7.10711485e-14,2.287064038e-14,2.790189132e-14,5.096580671e-15,2.686378036e-15,1.197799561e-15,1.546017933e-14,4.057680354e-14,1.17455288e-14,1.652951945e-14,1.484534386e-14,2.287214668e-14,1.774550318e-14,2.696217497e-14,7.682829942e-15,1.25569851e-15,2.051259528e-14,3.038371227e-15,8.378941551e-15,1.374108774e-14,2.536649185e-14,3.130748504e-14,4.588397035e-14,2.288048037e-14,1.296077329e-14,3.508252865e-14,2.633455169e-14,3.845973359e-14,3.624877983e-14
1.1015625,1.864122468e-14,5.367657364e-14,1.075810813e-14,7.451757274e-14,2.279884779e-14,4.082466714e-14,6.485254715e-15,2.359316523e-15,1.352417001e-15,1.445004183e-14,4.812006343e-14,8.361150584e-15,1.787271418e-14,1.715616076e-14,2.977036836e-14,1.915926631e-14,3.188056097e-14,7.144081847e-15,1.559824285e-15,2.739046822e-14,3.075409751e-15,9.806954827e-15,1.418361693e-14,2.373861822e-14,3.256013657e-14,4.836674775e-14,3.000814578e-14,1.862706677e-14,3.050958341e-14,2.612136234e-14,4.256231717e-14,3.588541925e-14
1.109375,1.846102411e-14,5.680865078e-14,1.075222033e-14,7.675333816e-14,2.169020205e-14,5.624526726e-14,7.845471979e-15,2.367848361e-15,1.677788164e-15,1.438979071e-14,5.538870864e-14,6.525812871e-15,1.999921015e-14,1.888108734e-14,3.714741524e-14,2.00682814e-14,3.700448138e-14,6.994771278e-15,1.936744919e-15,3.576216135e-14,3.16678047e-15,1.126501359e-14,1.513318455e-14,2.238858764e-14,3.530549456e-14,4.847993461e-14,3.760831032e-14,2.578352736e-14,2.915260732e-14,2.485297368e-14,4.345396229e-14,3.377423177e-14
1.1171875,1.85963366e-14,5.963194431e-14,1.152590349e-14,7.434605808e-14,2.04262983e-14,7.287422218e-14,9.242131843e-15,2.568298342e-15,2.193923225e-15,1.45875589e-14,6.134435898e-14,5.758622835e-15,2.312134945e-14,2.045970641e-14,4.46584312e-14,2.041608907e-14,4.144583006e-14,7.517234925e-15,2.4827946e-15,4.421759385e-14,3.33329892e-15,1.25168526e-14,1.615543017e-14,2.144729008e-14,3.952004526e-14,4.709828599e-14,4.600674158e-14,3.476952951e-14,3.052141523e-14,2.267827276e-14,4.282380625e-14,3.033307577e-14
1.125,1.811382358e-14,6.402093017e-14,1.352332896e-14,7.014236697e-14,1.864110451e-14,8.711363892e-14,1.038053626e-14,2.844530876e-15,2.709072063e-15,1.441887093e-14,6.64321999e-14,5.702733587e-15,2.589401769e-14,2.199579392e-14,5.39687091e-14,2.113996519e-14,4.617558325e-14,8.172499086e-15,3.174192183e-15,5.253988298e-14,3.486845621e-15,1.300765656e-14,1.729212538e-14,2.011037084e-14,4.42185253e-14,4.48513124e-14,5.525172188e-14,4.5127129e-14,3.546735057e-14,2.141519611e-14,4.074379223e-14,2.60304701e-14
1.1328125,1.611193512e-14,6.669609661e-14,1.523042251e-14,6.302287084e-14,1.625938723e-14,9.505363264e-14,1.074608614e-14,3.091863344e-15,3.028186797e-15,1.379983296e-14,6.69055719e-14,5.81079037e-15,2.734994415e-14,2.178839386e-14,6.087346243e-14,2.007699967e-14,4.819388612e-14,8.451907464e-15,3.654569282e-15,5.812928482e-14,3.491656026e-15,1.277658497e-14,1.860883003e-14,1.842759222e-14,4.804680351e-14,4.148008135e-14,6.247450612e-14,5.296779828e-14,4.175126897e-14,2.014046811e-14,3.637982157e-14,2.145359195e-14
1.140625,1.333106955e-14,6.473427044e-14,1.637198773e-14,5.336060339e-14,1.37517425e-14,9.631389025e-14,1.03448675e-14,3.407035071e-15,3.099749078e-15,1.300468448e-14,6.226751582e-14,5.61724779e-15,2.721464594e-14,1.967553219e-14,6.270822945e-14,1.716613764e-14,4.640995426e-14,8.51884148e-15,3.773210519e-15,5.972684028e-14,3.363997895e-15,1.192490095e-14,1.977065179e-14,1.665602405e-14,5.028300623e-14,3.712206602e-14,6.639172611e-14,5.668322357e-14,4.827158999e-14,1.823386518e-14,3.033941394e-14,1.729423693e-14
1.1484375,1.121618879e-14,5.818814978e-14,1.746736323e-14,4.271960683e-14,1.178490494e-14,9.117664229e-14,9.580805041e-15,3.579810641e-15,3.160941172e-15,1.231957696e-14,5.6237015e-14,5.873471373e-15,2.62371919e-14,1.760375372e-14,6.251492138e-14,1.442583197e-14,4.339376681e-14,8.861769539e-15,3.717145986e-15,5.795580887e-14,3.083545781e-15,1.059886721e-14,2.088110927e-14,1.515494523e-14,5.127848159e-14,3.244824458e-14,6.816042569e-14,5.791946143e-14,5.406881788e-14,1.670459159e-14,2.419362884e-14,1.373147717e-14
1.15625,9.41588711e-15,5.101791012e-14,1.7385176e-14,3.35043576e-14,1.039101869e-14,8.016591343e-14,8.571897821e-15,3.681763817e-15,3.194797165e-15,1.132573386e-14,4.92543907e-14,6.411140288e-15,2.394283507e-14,1.570181861e-14,6.124630852e-14,1.217262752e-14,3.948493184e-14,9.035053425e-15,3.516777299e-15,5.332577907e-14,2.74488335e-15,9.04965181e-15,2.203787962e-14,1.364884092e-14,4.995065803e-14,2.812832869e-14,6.729088071e-14,5.52879238e-14,5.676282854e-14,1.675948512e-14,1.859014742e-14,1.093761767e-14
1.1640625,8.293141281e-15,4.358614213e-14,1.694371575e-14,2.607060428e-14,9.432577309e-15,6.582357898e-14,7.475709143e-15,3.828855065e-15,3.502987769e-15,1.046859834e-14,4.125703978e-14,7.325644512e-15,2.081329522e-14,1.376886141e-14,5.682162838e-14,1.048464667e-14,3.444969566e-14,8.974142276e-15,3.384887158e-15,4.8010851e-14,2.521607843e-15,7.688535363e-15,2.319672652e-14,1.233155269e-14,4.679296252e-14,2.43592068e-14,6.363642416e-14,4.91106007e-14,5.643606458e-14,1.864677699e-14,1.381682177e-14,8.922750359e-15
1.171875,8.134351204e-15,3.716615439e-14,1.738541695e-14,2.073069053e-14,8.693792219e-15,5.258108107e-14,6.408253321e-15,3.890940491e-15,4.314026763e-15,9.801356513e-15,3.357858594e-14,8.851763594e-15,1.74752544e-14,1.241268376e-14,4.955935504e-14,9.1609785e-15,2.912023502e-14,8.867550415e-15,3.470865239e-15,4.239770425e-14,2.360532215e-15,6.726838668e-15,2.411982165e-14,1.118389698e-14,4.171923967e-14,2.105732138e-14,5.778139837e-14,4.182514937e-14,5.295665277e-14,2.255044474e-14,9.965001095e-15,7.501458294e-15
1.1796875,9.038562947e-15,3.251102521e-14,1.92832e-14,1.770735815e-14,8.04814131e-15,4.322323383e-14,5.414726756e-15,3.841654365e-15,5.634070629e-15,9.413166565e-15,2.839426016e-14,1.173792079e-14,1.488558943e-14,1.242979172e-14,4.21576338e-14,8.98335806e-15,2.436542452e-14,8.742167986e-15,3.868102996e-15,3.656957952e-14,2.301984779e-15,6.317213926e-15,2.459291397e-14,1.036842366e-14,3.524617725e-14,1.813221425e-14,5.104461749e-14,3.569203748e-14,4.712350756e-14,2.808833823e-14,7.137331397e-15,6.45846649e-15
1.1875,1.08029412e-14,3.159984502e-14,2.285524796e-14,1.670368935e-14,7.615005263e-15,3.903354471e-14,4.716431765e-15,3.686591374e-15,7.58894822e-15,9.395027927e-15,2.678740348e-14,1.638496208e-14,1.375502276e-14,1.423040941e-14,3.662209456e-14,1.068805064e-14,2.158662196e-14,8.940168399e-15,5.024376964e-15,3.21232527e-14,2.332072653e-15,6.70509923e-15,2.4693387e-14,9.817747555e-15,2.902479521e-14,1.603870245e-14,4.516492032e-14,3.37935084e-14,4.092078886e-14,3.58554937e-14,5.456901999e-15,5.946784551e-15
1.1953125,1.266754666e-14,3.43393358e-14,2.746576344e-14,1.71042222e-14,6.994942541e-15,3.954154688e-14,4.031841477e-15,3.436096393e-15,9.679074461e-15,9.900332282e-15,2.838311375e-14,2.254529427e-14,1.363884812e-14,1.722490917e-14,3.278700235e-14,1.426322918e-14,2.143815058e-14,9.311975448e-15,6.704462576e-15,3.001043037e-14,2.427111991e-15,7.338781368e-15,2.407039269e-14,9.211106249e-15,2.383743565e-14,1.487991899e-14,4.161545677e-14,3.583859873e-14,3.680003126e-14,4.444450246e-14,4.75773011e-15,5.746068221e-15
1.203125,1.434795559e-14,4.067250383e-14,3.274663271e-14,1.859976122e-14,6.197796409e-15,4.396832357e-14,3.294987549e-15,3.064363917e-15,1.161800052e-14,1.077920762e-14,3.327541118e-14,3.007364458e-14,1.47100322e-14,2.10540066e-14,3.141308655e-14,2.024540381e-14,2.441987725e-14,9.508414745e-15,8.718916697e-15,2.844946891e-14,2.428218173e-15,7.974331669e-15,2.281226349e-14,8.306025695e-15,1.959736316e-14,1.47715093e-14,4.105550465e-14,4.229045108e-14,3.506320432e-14,5.244016197e-14,5.060868315e-15,6.069451704e-15
1.2109375,1.534474073e-14,4.980166735e-14,3.679570371e-14,2.074130785e-14,5.475781562e-15,4.973628861e-14,2.534227416e-15,2.67659382e-15,1.326315514e-14,1.2209997e-14,3.981075623e-14,3.799686969e-14,1.679607784e-14,2.511060016e-14,3.314244703e-14,2.888146891e-14,3.141248325e-14,9.86768273e-15,1.130740403e-14,2.848404838e-14,2.308320248e-15,8.470728617e-15,2.090130016e-14,7.165962545e-15,1.745996862e-14,1.564276642e-14,4.403412119e-14,5.253670171e-14,3.78492298e-14,5.941073397e-14,6.436151155e-15,6.885885378e-15
1.21875,1.567751176e-14,6.113982368e-14,4.072524717e-14,2.30059884e-14,5.237582217e-15,5.664770377e-14,2.078287753e-15,2.383355621e-15,1.481214061e-14,1.383881195e-14,4.607618193e-14,4.615075495e-14,1.929908823e-14,2.916612861e-14,3.754966535e-14,3.923901511e-14,4.14005658e-14,1.008339383e-14,1.431906653e-14,3.001516148e-14,2.106906366e-15,9.042991607e-15,1.87737389e-14,6.069334404e-15,1.737237002e-14,1.749396057e-14,4.950287383e-14,6.461874572e-14,4.450225352e-14,6.501992377e-14,8.7419283e-15,8.928300597e-15
1.2265625,1.576852232e-14,7.490707877e-14,4.419177109e-14,2.505833597e-14,5.440185285e-15,6.309500131e-14,1.806406493e-15,2.217918629e-15,1.605697558e-14,1.528862986e-14,5.208059177e-14,5.438610168e-14,2.15917971e-14,3.32536535e-14,4.456090111e-14,5.087234785e-14,5.401806931e-14,1.035642864e-14,1.733755972e-14,3.259247559e-14,1.787178131e-15,9.454842539e-15,1.65442327e-14,5.133190374e-15,1.940815418e-14,2.012543856e-14,5.639237561e-14,7.636354538e-14,5.427337008e-14,6.867344437e-14,1.208963327e-14,1.214182698e-14
1.234375,1.55327678e-14,8.972162857e-14,4.636325154e-14,2.678399618e-14,6.64474479e-15,6.793120179e-14,1.795858141e-15,2.055484151e-15,1.719356919e-14,1.649623656e-14,5.581627782e-14,6.12647604e-14,2.363367604e-14,3.663775371e-14,5.232327764e-14,6.142146454e-14,6.606196664e-14,1.027131557e-14,2.011531024e-14,3.492998341e-14,1.435570673e-15,9.997610468e-15,1.448118484e-14,4.443563009e-15,2.223652585e-14,2.327098213e-14,6.24896698e-14,8.462596913e-14,6.430816916e-14,6.963537808e-14,1.661603517e-14,1.656945186e-14
1.2421875,1.495837869e-14,1.031080337e-13,4.718210775e-14,2.754921149e-14,8.979142527e-15,7.057121708e-14,2.133549362e-15,2.032387077e-15,1.830740411e-14,1.740856222e-14,5.552966018e-14,6.583260932e-14,2.51458406e-14,3.917503454e-14,5.9285263e-14,7.006500643e-14,7.655457639e-14,9.893604447e-15,2.255388763e-14,3.712928677e-14,1.105702486e-15,1.079793947e-14,1.276375697e-14,4.282665338e-15,2.566719672e-14,2.647614659e-14,6.613461367e-14,8.91765726e-14,7.310559745e-14,6.824655571e-14,2.183385772e-14,2.190714517e-14
1.25,1.455361055e-14,1.142672488e-13,4.781080741e-14,2.7115758e-14,1.235746087e-14,7.258962307e-14,2.676957272e-15,1.919053314e-15,1.948959569e-14,1.755297522e-14,5.219086521e-14,6.853739023e-14,2.552787288e-14,4.110194378e-14,6.429240237e-14,7.542404031e-14,8.322619429e-14,9.156160073e-15,2.431801733e-14,3.793028063e-14,8.308996761e-16,1.224900026e-14,1.15972796e-14,4.682812039e-15,2.805900239e-14,2.934092158e-14,6.534215862e-14,8.883235732e-14,7.758374359e-14,6.514389569e-14,2.731140687e-14,2.79799937e-14
1.2578125,1.479599541e-14,1.229983213e-13,4.740089672e-14,2.573628502e-14,1.625549514e-14,7.176244433e-14,3.311183881e-15,1.709767483e-15,2.055990074e-14,1.681071167e-14,4.756392093e-14,6.917554109e-14,2.465925849e-14,4.275631689e-14,6.788722881e-14,7.697869097e-14,8.510994945e-14,8.27303281e-15,2.542781634e-14,3.709088577e-14,6.469604264e-16,1.398165821e-14,1.10675979e-14,5.712296359e-15,2.845234163e-14,3.137070938e-14,6.032982944e-14,8.320221329e-14,7.636771514e-14,6.175549074e-14,3.243696377e-14,3.343389991e-14
1.265625,1.51256107e-14,1.287728836e-13,4.475532247e-14,2.410648036e-14,2.064152934e-14,6.804275621e-14,3.952658738e-15,1.575734364e-15,2.113693212e-14,1.567202156e-14,4.202309972e-14,6.706193201e-14,2.34440137e-14,4.427650972e-14,6.922325759e-14,7.561354454e-14,8.275926326e-14,7.529285488e-15,2.537236749e-14,3.389217021e-14,5.536766996e-16,1.560385006e-14,1.154441346e-14,6.988808531e-15,2.723555285e-14,3.272123865e-14,5.254099914e-14,7.351904633e-14,7.061318963e-14,5.690684452e-14,3.743964666e-14,3.768535524e-14
1.2734375,1.510684043e-14,1.288155021e-13,4.045673163e-14,2.235872478e-14,2.511732408e-14,6.123182257e-14,4.848685625e-15,1.583879699e-15,2.104070631e-14,1.396934155e-14,3.565381578e-14,6.180335385e-14,2.170398274e-14,4.528390556e-14,6.717327013e-14,7.259030432e-14,7.777930184e-14,7.185431757e-15,2.421925187e-14,3.029627955e-14,5.431702647e-16,1.689337401e-14,1.318895811e-14,8.378962202e-15,2.500226732e-14,3.343162416e-14,4.290963242e-14,6.202452563e-14,6.178458956e-14,5.082000786e-14,4.155493967e-14,4.057581857e-14
1.28125,1.496844973e-14,1.240451323e-13,3.542556631e-14,2.063464718e-14,2.843504397e-14,5.300481641e-14,5.820377823e-15,1.845509755e-15,2.033142771e-14,1.187055886e-14,2.967823449e-14,5.457575841e-14,1.982701926e-14,4.571834735e-14,6.212994353e-14,6.870375525e-14,7.192194461e-14,7.587570279e-15,2.22855697e-14,2.691751e-14,5.938433666e-16,1.757525517e-14,1.574296323e-14,9.701377528e-15,2.283090753e-14,3.317313619e-14,3.32817792e-14,5.140417263e-14,5.245988503e-14,4.465951677e-14,4.366135154e-14,4.135822367e-14
1.2890625,1.46848246e-14,1.161867987e-13,2.964478818e-14,1.933774256e-14,3.010217479e-14,4.298588019e-14,7.165511481e-15,2.428169239e-15,1.89522228e-14,9.851074802e-15,2.57074978e-14,4.648839807e-14,1.824767651e-14,4.610450572e-14,5.647098883e-14,6.525572626e-14,6.763614338e-14,9.181405845e-15,1.974355384e-14,2.492538067e-14,7.27877357e-16,1.720836108e-14,1.885279032e-14,1.059581445e-14,2.211046871e-14,3.241957118e-14,2.590281276e-14,4.320430523e-14,4.575938276e-14,3.851365564e-14,4.374585969e-14,4.004921939e-14
1.296875,1.392259779e-14,1.061718596e-13,2.35938227e-14,1.824380532e-14,3.047055248e-14,3.256596241e-14,9.649045778e-15,3.380542014e-15,1.690881029e-14,7.966063842e-15,2.327223803e-14,3.823459772e-14,1.745843542e-14,4.605454397e-14,5.033743548e-14,6.307799836e-14,6.63898653e-14,1.205337878e-14,1.691085853e-14,2.578487817e-14,9.125338718e-16,1.586546721e-14,2.234521024e-14,1.128327005e-14,2.418416553e-14,3.176353182e-14,2.128157999e-14,3.951132774e-14,4.337473434e-14,3.236063457e-14,4.251092115e-14,3.738758179e-14
1.3046875,1.266742268e-14,9.390918029e-14,1.818220576e-14,1.706359911e-14,2.933931629e-14,2.299416358e-14,1.3205353e-14,4.592155792e-15,1.45793669e-14,6.272493409e-15,2.182934757e-14,3.031176927e-14,1.732162964e-14,4.50988148e-14,4.369134283e-14,6.19891372e-14,6.785701902e-14,1.594907554e-14,1.396265416e-14,2.94689698e-14,1.156205189e-15,1.382424862e-14,2.5634579e-14,1.185734936e-14,2.910951562e-14,3.105977291e-14,1.928083703e-14,4.043442962e-14,4.601277777e-14,2.634758919e-14,3.973639086e-14,3.361279976e-14
1.3125,1.092628815e-14,8.13676454e-14,1.361021654e-14,1.572393373e-14,2.658433589e-14,1.525324563e-14,1.737738062e-14,5.854891915e-15,1.206144023e-14,5.152811384e-15,2.143450615e-14,2.343941833e-14,1.757104992e-14,4.307160206e-14,3.712726804e-14,6.176938906e-14,7.096990575e-14,2.051821262e-14,1.126206897e-14,3.528021541e-14,1.538984184e-15,1.129285e-14,2.830794309e-14,1.224778492e-14,3.615639597e-14,3.041901201e-14,1.95653895e-14,4.549900449e-14,5.252608391e-14,2.097602689e-14,3.566427666e-14,2.895129639e-14
1.3203125,9.074764504e-15,7.016235474e-14,1.03390838e-14,1.45313565e-14,2.317188021e-14,9.66040646e-15,2.259440145e-14,7.119922902e-15,9.666797786e-15,4.689458156e-15,2.215486362e-14,1.818886361e-14,1.785603013e-14,3.984351763e-14,3.151456757e-14,6.171854541e-14,7.425468333e-14,2.534241697e-14,9.216229875e-15,4.194475822e-14,1.945141602e-15,8.77046982e-15,2.962463994e-14,1.277395435e-14,4.398817569e-14,3.021520581e-14,2.078740065e-14,5.378413352e-14,6.06878474e-14,1.688637312e-14,3.116904342e-14,2.422285161e-14
1.328125,7.338856798e-15,6.151095554e-14,8.274913469e-15,1.435136791e-14,1.984676291e-14,6.418108461e-15,2.774737581e-14,8.034241474e-15,7.567905271e-15,5.070910825e-15,2.337887653e-14,1.457754492e-14,1.74855027e-14,3.564299626e-14,2.682142706e-14,6.12477644e-14,7.599934778e-14,2.949410094e-14,7.947557164e-15,4.719420853e-14,2.451024703e-15,6.556977951e-15,2.90885495e-14,1.349297731e-14,5.004717885e-14,3.05099324e-14,2.208399304e-14,6.312760818e-14,6.842336315e-14,1.431750692e-14,2.690565661e-14,1.976230094e-14
1.3359375,5.801386773e-15,5.560411027e-14,7.478031211e-15,1.563702028e-14,1.670462736e-14,6.175396222e-15,3.113231552e-14,8.568262405e-15,5.852133003e-15,6.137518174e-15,2.387279986e-14,1.262710978e-14,1.660929351e-14,3.080955071e-14,2.279635558e-14,5.916246919e-14,7.480728455e-14,3.272750223e-14,7.271602365e-15,4.965960012e-14,2.950312316e-15,4.876819956e-15,2.679471872e-14,1.374844901e-14,5.301555296e-14,3.120325588e-14,2.258769623e-14,7.143714703e-14,7.395038468e-14,1.377011646e-14,2.305784814e-14,1.558471052e-14
1.34375,4.56788964e-15,5.334916301e-14,8.069142254e-15,1.908978162e-14,1.432900328e-14,9.217519619e-15,3.247007162e-14,8.98360644e-15,4.437687509e-15,8.013011432e-15,2.389484332e-14,1.178864952e-14,1.536957076e-14,2.569772208e-14,1.919948939e-14,5.571989788e-14,7.022597615e-14,3.507873404e-14,7.535088567e-15,4.836843673e-14,3.37942728e-15,3.922126042e-15,2.308494333e-14,1.357955215e-14,5.229062329e-14,3.27225969e-14,2.2182381e-14,7.766409563e-14,7.612255474e-14,1.544837013e-14,2.055177784e-14,1.206760452e-14
1.3515625,3.709378525e-15,5.456284924e-14,9.96388725e-15,2.493656754e-14,1.334961986e-14,1.624580096e-14,3.228083611e-14,9.81401236e-15,3.316584701e-15,1.070418651e-14,2.378996371e-14,1.180345532e-14,1.360035205e-14,2.077511236e-14,1.625426144e-14,5.130991822e-14,6.362787811e-14,3.675120578e-14,8.814061922e-15,4.480488128e-14,3.820841904e-15,3.845302598e-15,1.879962436e-14,1.326745806e-14,4.840397492e-14,3.461868412e-14,2.090775056e-14,8.14069357e-14,7.527899507e-14,1.946968588e-14,1.949727987e-14,9.551422968e-15
1.359375,3.483442012e-15,5.909305866e-14,1.349013367e-14,3.202950181e-14,1.338496165e-14,2.8360391e-14,2.967624155e-14,1.152526136e-14,2.615305323e-15,1.34591125e-14,2.233549798e-14,1.253177478e-14,1.157466935e-14,1.658027273e-14,1.402542154e-14,4.586306091e-14,5.670393265e-14,3.730216983e-14,1.07186331e-14,3.939284204e-14,4.173436545e-15,4.602745196e-15,1.485311232e-14,1.255789118e-14,4.209719628e-14,3.708243137e-14,1.920560721e-14,8.142759221e-14,7.264649542e-14,2.582472772e-14,1.981901911e-14,8.03979323e-15
1.3671875,3.694753833e-15,6.537004533e-14,1.883069479e-14,3.925862125e-14,1.40121287e-14,4.559444981e-14,2.491668057e-14,1.445976331e-14,2.311832019e-15,1.579307896e-14,1.964623321e-14,1.373895975e-14,1.003787198e-14,1.328230886e-14,1.192937777e-14,3.962797907e-14,5.087032348e-14,3.771706265e-14,1.338496411e-14,3.413497656e-14,4.450876736e-15,6.163332145e-15,1.222054981e-14,1.134917287e-14,3.559460229e-14,3.99164425e-14,1.753022927e-14,7.806153278e-14,6.958038285e-14,3.417223783e-14,2.120301618e-14,7.341233511e-15
1.375,4.452547054e-15,7.303920152e-14,2.565793464e-14,4.538010125e-14,1.509818889e-14,6.778199304e-14,1.976020847e-14,1.917201521e-14,2.400811777e-15,1.807903246e-14,1.634599371e-14,1.523932613e-14,8.998199698e-15,1.085979105e-14,1.014985989e-14,3.407963828e-14,4.843588141e-14,3.850603266e-14,1.674357077e-14,3.20355253e-14,4.809539635e-15,8.425330421e-15,1.184058373e-14,1.023630793e-14,3.126359527e-14,4.322399887e-14,1.657001316e-14,7.36046292e-14,6.699184144e-14,4.409593101e-14,2.360994046e-14,7.774822842e-15
1.3828125,5.769426526e-15,8.055283211e-14,3.419916597e-14,4.863921606e-14,1.599637656e-14,9.375426353e-14,1.503607868e-14,2.59586942e-14,2.919462061e-15,1.96501355e-14,1.286545581e-14,1.634908455e-14,8.202534958e-15,9.369630175e-15,8.555779636e-15,2.821493204e-14,4.853335844e-14,3.896451438e-14,2.047210894e-14,3.38481194e-14,5.274127318e-15,1.116608228e-14,1.37190222e-14,9.442416628e-15,2.943434706e-14,4.552111272e-14,1.602565681e-14,6.802675637e-14,6.501608082e-14,5.451954985e-14,2.628853511e-14,8.953127502e-15
1.390625,7.039575275e-15,8.684235015e-14,4.327008838e-14,4.89711316e-14,1.641799299e-14,1.208214089e-13,1.140125078e-14,3.460607243e-14,3.723015642e-15,1.99343723e-14,9.610902819e-15,1.694408023e-14,7.739213487e-15,8.575793606e-15,6.990378561e-15,2.262112739e-14,5.170612503e-14,3.874623021e-14,2.418068647e-14,3.973920385e-14,5.74243481e-15,1.412395988e-14,1.785435861e-14,8.623987768e-15,3.072932727e-14,4.657498692e-14,1.609106387e-14,6.152743583e-14,6.435850001e-14,6.427163122e-14,2.895961202e-14,1.051867007e-14
1.3984375,8.130159666e-15,9.110947523e-14,5.182869001e-14,4.666795116e-14,1.651858047e-14,1.461301253e-13,9.121996248e-15,4.447167126e-14,4.752453933e-15,1.965818076e-14,7.073515811e-15,1.733507432e-14,7.736364218e-15,8.529689184e-15,5.457417654e-15,1.802328938e-14,5.670706924e-14,3.797372079e-14,2.777475114e-14,4.902726208e-14,6.231154909e-15,1.709154302e-14,2.367203121e-14,7.921991958e-15,3.480172971e-14,4.688143097e-14,1.67608645e-14,5.497852455e-14,6.472803239e-14,7.236023043e-14,3.164068825e-14,1.24666095e-14
1.40625,9.014490589e-15,9.269804833e-14,5.905224535e-14,4.19279094e-14,1.592848953e-14,1.672844501e-13,8.236432154e-15,5.454504336e-14,5.761262913e-15,1.906540873e-14,5.098653582e-15,1.719057121e-14,7.965206798e-15,9.049970867e-15,4.374951764e-15,1.495761869e-14,6.287704616e-14,3.701161107e-14,3.119716541e-14,6.059506827e-14,6.773823838e-15,1.969933031e-14,3.019839404e-14,7.520660305e-15,4.084114997e-14,4.583686935e-14,1.817331512e-14,4.934440152e-14,6.600125745e-14,7.777018657e-14,3.377090327e-14,1.435427162e-14
1.4140625,9.143069952e-15,9.137936685e-14,6.309376178e-14,3.567652156e-14,1.452276343e-14,1.805224295e-13,8.657302335e-15,6.395045013e-14,6.43702712e-15,1.829246878e-14,3.86895519e-15,1.631054352e-14,8.221249216e-15,9.558789779e-15,3.395404283e-15,1.24196611e-14,6.81956916e-14,3.551807936e-14,3.42436396e-14,7.127088506e-14,7.148801576e-15,2.160990421e-14,3.614699503e-14,7.11416811e-15,4.708725263e-14,4.256568695e-14,1.984361895e-14,4.483870761e-14,6.766944784e-14,8.018918233e-14,3.485233245e-14,1.559842591e-14
1.421875,8.509081547e-15,8.824765185e-14,6.292883546e-14,2.935948241e-14,1.294920667e-14,1.836921971e-13,1.007269842e-14,7.201440219e-14,6.770170668e-15,1.763536592e-14,3.218307012e-15,1.53844502e-14,8.694341089e-15,1.01273896e-14,2.452893404e-15,1.067312688e-14,7.20600781e-14,3.350497023e-14,3.704291363e-14,7.942844373e-14,7.1939279e-15,2.263460923e-14,4.060079331e-14,6.780534248e-15,5.304166192e-14,3.804435012e-14,2.164552244e-14,4.128211893e-14,6.980624414e-14,7.987116203e-14,3.531063925e-14,1.613286472e-14
1.4296875,7.368440132e-15,8.327159769e-14,5.974053199e-14,2.365533006e-14,1.143815521e-14,1.775470784e-13,1.163116203e-14,7.775382456e-14,6.879806469e-15,1.74683052e-14,2.878132695e-15,1.470158338e-14,9.43134898e-15,1.069699084e-14,1.740243116e-15,9.860463861e-15,7.329424421e-14,3.140589557e-14,3.976184267e-14,8.475284311e-14,7.060530658e-15,2.291676109e-14,4.289075584e-14,6.612448699e-15,5.798977869e-14,3.314740891e-14,2.400260912e-14,3.911757716e-14,7.324663976e-14,7.683509314e-14,3.532060348e-14,1.640555587e-14
1.4375,5.864292824e-15,7.736990182e-14,5.302229474e-14,1.894072183e-14,9.757187691e-15,1.626187627e-13,1.358960369e-14,8.002328372e-14,6.533578786e-15,1.77607689e-14,2.994147348e-15,1.425289843e-14,1.026349182e-14,1.103557882e-14,1.333046472e-15,9.68347958e-15,7.173947749e-14,2.942132183e-14,4.191312855e-14,8.626782627e-14,6.708164047e-15,2.198823711e-14,4.250513513e-14,6.625862538e-15,6.113314661e-14,2.789721714e-14,2.627931626e-14,3.746079607e-14,7.702299607e-14,7.125590618e-14,3.434489273e-14,1.604361004e-14
1.4453125,4.349331471e-15,7.123385823e-14,4.361501563e-14,1.592990077e-14,8.223895389e-15,1.401595169e-13,1.618683673e-14,7.851087755e-14,6.203901248e-15,1.811278145e-14,3.44730208e-15,1.430413992e-14,1.155299545e-14,1.128396273e-14,1.087016267e-15,9.974643339e-15,6.81313375e-14,2.802857746e-14,4.429209609e-14,8.369777096e-14,6.038024534e-15,2.033723758e-14,3.931119271e-14,7.313974202e-15,6.26205055e-14,2.263349941e-14,2.796473865e-14,3.748351858e-14,8.082623926e-14,6.56689866e-14,3.264839887e-14,1.551599841e-14
1.453125,3.206526377e-15,6.586767271e-14,3.423057708e-14,1.472328543e-14,7.491842948e-15,1.140562379e-13,1.873631176e-14,7.440792943e-14,6.379833454e-15,1.849437787e-14,4.302462787e-15,1.51196398e-14,1.322501264e-14,1.166912158e-14,9.965022488e-16,1.090581962e-14,6.317590422e-14,2.73162103e-14,4.728576158e-14,7.909650155e-14,5.253569895e-15,1.893374948e-14,3.451216618e-14,8.658574867e-15,6.277499882e-14,1.844649077e-14,2.943004767e-14,3.955682591e-14,8.525971317e-14,6.201518547e-14,3.110175694e-14,1.588671374e-14
1.4609375,2.629586445e-15,6.150948864e-14,2.641935636e-14,1.497590332e-14,7.365766446e-15,8.765528999e-14,2.129569519e-14,6.776238327e-14,7.165413153e-15,1.886156695e-14,5.836018056e-15,1.683264932e-14,1.514502301e-14,1.228956784e-14,1.147651539e-15,1.2046694e-14,5.616915326e-14,2.71163854e-14,5.004650316e-14,7.301086568e-14,4.569314245e-15,1.780200099e-14,2.849910579e-14,1.061105264e-14,6.141223009e-14,1.541117411e-14,3.054644271e-14,4.288568956e-14,8.994169359e-14,5.975389585e-14,2.963662539e-14,1.752308517e-14
1.46875,2.646643105e-15,5.724566568e-14,2.100408566e-14,1.618859283e-14,7.694182596e-15,6.335968774e-14,2.444517041e-14,5.904724452e-14,8.645615825e-15,1.851121015e-14,7.840511321e-15,1.890834197e-14,1.707994199e-14,1.284689692e-14,1.507510984e-15,1.316583655e-14,4.761779824e-14,2.70500972e-14,5.204898998e-14,6.590770997e-14,3.821298571e-15,1.706885942e-14,2.216455579e-14,1.323978225e-14,5.827039144e-14,1.346540579e-14,3.02511142e-14,4.666989515e-14,9.291663284e-14,5.918826148e-14,2.754283212e-14,2.044552301e-14
1.4765625,3.101320164e-15,5.342154679e-14,1.856734015e-14,1.755252801e-14,9.187608306e-15,4.281419401e-14,2.83985855e-14,4.928442272e-14,1.089263021e-14,1.742066013e-14,1.010479246e-14,2.092101897e-14,1.891752122e-14,1.292575345e-14,1.86625278e-15,1.406940943e-14,3.879900457e-14,2.662781207e-14,5.30779451e-14,5.908664153e-14,3.125217765e-15,1.724743028e-14,1.656775919e-14,1.65396106e-14,5.407444812e-14,1.313639941e-14,2.824978913e-14,5.145452913e-14,9.354933785e-14,6.025826302e-14,2.618344062e-14,2.502587855e-14
1.484375,3.996198712e-15,5.083134097e-14,1.904998778e-14,1.846679821e-14,1.173132305e-14,2.684652031e-14,3.23410245e-14,3.942953855e-14,1.358824207e-14,1.572248529e-14,1.288100761e-14,2.284201037e-14,2.059401056e-14,1.291652845e-14,2.055990194e-15,1.496376865e-14,3.102464513e-14,2.578554853e-14,5.278344102e-14,5.311211861e-14,2.587094231e-15,1.825640427e-14,1.24885413e-14,2.001159114e-14,4.918787355e-14,1.431172932e-14,2.553244202e-14,5.67163843e-14,9.265158585e-14,6.236431904e-14,2.622076499e-14,3.096789913e-14
1.4921875,5.270694313e-15,4.942474144e-14,2.217095417e-14,1.898601719e-14,1.448918037e-14,1.66565106e-14,3.540609079e-14,3.043858289e-14,1.654578066e-14,1.375202945e-14,1.510123711e-14,2.449545453e-14,2.233800791e-14,1.313352942e-14,2.419050221e-15,1.571633882e-14,2.409831075e-14,2.480984583e-14,5.092363019e-14,4.754378235e-14,2.244035797e-15,1.973738103e-14,1.00074585e-14,2.326575174e-14,4.354775618e-14,1.63868691e-14,2.259640863e-14,6.176944797e-14,9.037014017e-14,6.454301869e-14,2.677824198e-14,3.750599512e-14
1.5,6.314955864e-15,4.735132013e-14,2.641375432e-14,1.787129778e-14,1.714839133e-14,1.157547006e-14,3.717261342e-14,2.277554382e-14,1.912486345e-14,1.1313235e-14,1.551729716e-14,2.508597439e-14,2.346826935e-14,1.229872153e-14,3.063767214e-15,1.54670002e-14,1.742278267e-14,2.286464139e-14,4.686200175e-14,4.183354224e-14,2.13530327e-15,2.111241814e-14,8.889218905e-15,2.576691237e-14,3.702330724e-14,1.878878555e-14,1.874298806e-14,6.42141405e-14,8.533162249e-14,6.385160954e-14,2.710200188e-14,4.346094334e-14
1.5078125,6.991513104e-15,4.402693823e-14,3.129467744e-14,1.58043673e-14,2.033733446e-14,1.097794872e-14,3.834347642e-14,1.644954702e-14,2.129067089e-14,9.097491872e-15,1.552682432e-14,2.406084287e-14,2.407411931e-14,1.065513134e-14,3.274840028e-15,1.442665054e-14,1.263893822e-14,1.970555587e-14,4.104908404e-14,3.689796355e-14,2.324066073e-15,2.240704855e-14,9.116178243e-15,2.758317502e-14,3.050091282e-14,2.211035971e-14,1.450055738e-14,6.443018613e-14,7.771898418e-14,6.023893521e-14,2.87129109e-14,4.883490592e-14
1.515625,7.375076569e-15,4.016514267e-14,3.615967503e-14,1.372549529e-14,2.319161583e-14,1.403864713e-14,3.791044665e-14,1.168402162e-14,2.286361501e-14,7.566193175e-15,1.559295272e-14,2.190340557e-14,2.443873346e-14,9.26551106e-15,3.167690622e-15,1.306391465e-14,1.048691571e-14,1.663084884e-14,3.436250041e-14,3.259264931e-14,2.835780185e-15,2.320828204e-14,1.020846606e-14,2.827276117e-14,2.465377281e-14,2.553827074e-14,1.110413539e-14,6.315173059e-14,6.980863183e-14,5.48924122e-14,3.129768605e-14,5.271828945e-14
1.5234375,7.591013532e-15,3.65889678e-14,4.066415775e-14,1.241549577e-14,2.430624916e-14,2.026310657e-14,3.499296493e-14,8.423758393e-15,2.382381471e-14,6.904942202e-15,1.417115215e-14,1.923260482e-14,2.494700366e-14,8.130213418e-15,3.664770421e-15,1.163189809e-14,9.943074068e-15,1.417715935e-14,2.738450838e-14,2.895771877e-14,3.521609869e-15,2.309495303e-14,1.118208615e-14,2.753852232e-14,1.969791642e-14,2.795078825e-14,8.664943766e-15,5.991445822e-14,6.199718745e-14,4.769054222e-14,3.299641111e-14,5.410472772e-14
1.53125,7.621994204e-15,3.230219021e-14,4.473337373e-14,1.261465552e-14,2.41639112e-14,2.876612256e-14,3.073519574e-14,6.313867836e-15,2.457285219e-14,7.310067741e-15,1.203904838e-14,1.633927519e-14,2.609539118e-14,7.494359691e-15,4.105261107e-15,9.999649577e-15,1.068223882e-14,1.282856593e-14,2.131908458e-14,2.570940757e-14,4.264657033e-15,2.256443101e-14,1.183632293e-14,2.576560635e-14,1.590758937e-14,2.917832851e-14,7.358961942e-15,5.552343084e-14,5.56280573e-14,4.033224152e-14,3.368972199e-14,5.329190415e-14
1.5390625,7.591873731e-15,2.769896016e-14,4.909415352e-14,1.463172042e-14,2.32914532e-14,3.906508107e-14,2.633042865e-14,5.358357202e-15,2.549915111e-14,8.799554434e-15,1.015705073e-14,1.357036034e-14,2.805105809e-14,7.733759395e-15,4.40397844e-15,8.636115595e-15,1.317322266e-14,1.332317119e-14,1.658783588e-14,2.408286989e-14,4.961049311e-15,2.198857108e-14,1.212763999e-14,2.342917175e-14,1.368805041e-14,2.989787041e-14,7.070294493e-15,5.120642509e-14,5.09203169e-14,3.432466866e-14,3.420421257e-14,5.145338448e-14
1.546875,7.941569164e-15,2.409622822e-14,5.34446967e-14,1.868255781e-14,2.137183843e-14,4.97591171e-14,2.190945051e-14,5.300271229e-15,2.670709657e-14,1.13268806e-14,8.519498563e-15,1.145494813e-14,3.091657673e-14,9.065026475e-15,4.852953277e-15,7.656565574e-15,1.653973032e-14,1.600366258e-14,1.362129321e-14,2.398766476e-14,5.472371163e-15,2.151683855e-14,1.168482954e-14,2.072668234e-14,1.302889331e-14,2.955166937e-14,7.592335519e-15,4.745899015e-14,4.804115057e-14,3.109898241e-14,3.384729202e-14,4.85608857e-14
1.5546875,9.293843329e-15,2.263636937e-14,5.833930066e-14,2.478799546e-14,1.834632621e-14,6.034974997e-14,1.841870819e-14,6.068623703e-15,2.83974402e-14,1.470406132e-14,7.294414993e-15,1.085719368e-14,3.513562006e-14,1.219260008e-14,5.631865026e-15,7.647269109e-15,2.075843991e-14,2.16318177e-14,1.292543326e-14,2.656897616e-14,5.693382424e-15,2.131848663e-14,1.065389316e-14,1.824273029e-14,1.417515125e-14,2.792647261e-14,8.993231257e-15,4.568459098e-14,4.773762847e-14,3.244955537e-14,3.269848815e-14,4.47645463e-14
1.5625,1.222145782e-14,2.40016842e-14,6.398660814e-14,3.249752304e-14,1.513010022e-14,6.960457355e-14,1.683603551e-14,7.42990485e-15,3.069816134e-14,1.856684362e-14,7.02296086e-15,1.196543498e-14,4.064635891e-14,1.727589678e-14,6.654429823e-15,9.270669063e-15,2.678168176e-14,3.059990097e-14,1.463796868e-14,3.288850755e-14,5.567145275e-15,2.166628816e-14,9.355976883e-15,1.661161087e-14,1.715754499e-14,2.594772214e-14,1.119880597e-14,4.678946605e-14,5.023952594e-14,4.001764685e-14,3.184451143e-14,4.108775871e-14
1.5703125,1.664005174e-14,2.897613144e-14,7.004107346e-14,4.101918461e-14,1.211521134e-14,7.702310228e-14,1.718389712e-14,9.165398407e-15,3.349136016e-14,2.244596855e-14,7.961560637e-15,1.470940609e-14,4.716808415e-14,2.415700265e-14,8.717202446e-15,1.302592634e-14,3.472777896e-14,4.265355149e-14,1.840105064e-14,4.306912808e-14,5.199732826e-15,2.277099087e-14,7.972496865e-15,1.597584221e-14,2.172710183e-14,2.395318869e-14,1.417718245e-14,5.091715122e-14,5.579543551e-14,5.347560554e-14,3.154098326e-14,3.815289874e-14
1.578125,2.291101188e-14,3.797509079e-14,7.68821548e-14,5.037437975e-14,9.434599337e-15,8.163410326e-14,1.919269713e-14,1.122405228e-14,3.677648974e-14,2.59518204e-14,1.015137799e-14,1.920100499e-14,5.443903715e-14,3.258341908e-14,1.300782063e-14,1.965901548e-14,4.485282745e-14,5.76118869e-14,2.417468038e-14,5.737275428e-14,4.804839249e-15,2.46447688e-14,6.612007001e-15,1.660397837e-14,2.769216229e-14,2.206318616e-14,1.823511024e-14,5.867684115e-14,6.452198768e-14,7.350695955e-14,3.226853196e-14,3.581889695e-14
1.5859375,3.067499504e-14,5.034412542e-14,8.408511714e-14,5.980443596e-14,7.186237331e-15,8.351897313e-14,2.227757769e-14,1.316113125e-14,3.957006578e-14,2.864373298e-14,1.40346939e-14,2.449060895e-14,6.141532407e-14,4.200911319e-14,1.967184368e-14,2.967168357e-14,5.714006647e-14,7.422122194e-14,3.135236334e-14,7.591630658e-14,4.414160861e-15,2.668944783e-14,5.479808095e-15,1.868887263e-14,3.454664738e-14,2.048130891e-14,2.318629201e-14,6.969462202e-14,7.582715701e-14,9.84916225e-14,3.439509387e-14,3.381262872e-14
1.59375,3.939855661e-14,6.504179004e-14,9.102326497e-14,6.831964178e-14,5.747759384e-15,8.226518316e-14,2.525869906e-14,1.493231118e-14,4.148499043e-14,3.041645761e-14,1.992156122e-14,3.034300778e-14,6.731168898e-14,5.201632112e-14,2.980674896e-14,4.252456921e-14,7.194589676e-14,9.115649714e-14,3.877613536e-14,9.805098116e-14,4.1513736e-15,2.837708927e-14,4.696179214e-15,2.174548449e-14,4.197838945e-14,1.968581823e-14,2.915027144e-14,8.285659002e-14,8.88243232e-14,1.25141377e-13,3.812930196e-14,3.200902247e-14
1.6015625,4.805154394e-14,8.125832498e-14,9.628547875e-14,7.573807153e-14,5.036085851e-15,7.775127961e-14,2.717293772e-14,1.628555651e-14,4.224598141e-14,3.126356329e-14,2.74431377e-14,3.616578497e-14,7.166121613e-14,6.138369122e-14,4.393209048e-14,5.833712961e-14,8.843252146e-14,1.069163859e-13,4.604531723e-14,1.21226332e-13,4.149313955e-15,2.975610666e-14,4.496564874e-15,2.530332611e-14,4.922896857e-14,1.923119187e-14,3.626874847e-14,9.680916667e-14,1.032426223e-13,1.516368281e-13,4.296421001e-14,3.004598161e-14
1.609375,5.497216171e-14,9.571665088e-14,9.935694112e-14,8.164692673e-14,5.087152422e-15,7.049652516e-14,2.732214246e-14,1.714806133e-14,4.143749777e-14,3.175636107e-14,3.67479753e-14,4.122381443e-14,7.343480105e-14,6.831889216e-14,5.946499739e-14,7.51235077e-14,1.036853902e-13,1.180091719e-13,5.186030298e-14,1.429932195e-13,4.379443126e-15,3.028343136e-14,4.933698457e-15,2.861175269e-14,5.541798262e-14,1.920214129e-14,4.416660236e-14,1.091934473e-13,1.165285851e-13,1.73047947e-13,4.837747761e-14,2.755040856e-14
1.6171875,5.948311139e-14,1.073267234e-13,9.907958088e-14,8.53757707e-14,5.946951819e-15,6.124944958e-14,2.566000413e-14,1.763595495e-14,3.871529685e-14,3.162959438e-14,4.738763151e-14,4.501798664e-14,7.213860455e-14,7.25252849e-14,7.608724984e-14,9.176238613e-14,1.167455282e-13,1.238152933e-13,5.557087424e-14,1.625054092e-13,4.804817189e-15,2.951760832e-14,6.110677396e-15,3.127682126e-14,6.044908915e-14,1.987401029e-14,5.260102242e-14,1.187219809e-13,1.270406986e-13,1.858993207e-13,5.360673037e-14,2.458175655e-14
1.625,6.091509913e-14,1.145655409e-13,9.563637332e-14,8.615234577e-14,7.446643846e-15,5.128130541e-14,2.284810261e-14,1.791230483e-14,3.472122404e-14,3.098895478e-14,5.814835385e-14,4.681358946e-14,6.795289482e-14,7.350760045e-14,9.190056042e-14,1.050529918e-13,1.25934887e-13,1.231607978e-13,5.656337667e-14,1.772907328e-13,5.463177171e-15,2.753148702e-14,8.335127226e-15,3.260955277e-14,6.392481621e-14,2.108365665e-14,6.083300646e-14,1.237031033e-13,1.334486087e-13,1.888345908e-13,5.783831944e-14,2.197181264e-14
1.6328125,5.825441909e-14,1.166531618e-13,8.76942834e-14,8.358315394e-14,9.296502612e-15,4.066862404e-14,1.914971866e-14,1.790910663e-14,2.938101154e-14,3.052434616e-14,6.844546036e-14,4.670635646e-14,6.097436092e-14,7.050764526e-14,1.029947052e-13,1.136098083e-13,1.295974356e-13,1.1524818e-13,5.432027625e-14,1.846094373e-13,6.18651928e-15,2.439690113e-14,1.170746511e-14,3.220730001e-14,6.608615271e-14,2.211659102e-14,6.805916704e-14,1.224330151e-13,1.355143844e-13,1.793546546e-13,5.962946924e-14,1.891101571e-14
1.640625,5.205490629e-14,1.132327894e-13,7.643737715e-14,7.864304024e-14,1.183605367e-14,3.075321066e-14,1.53559212e-14,1.762390012e-14,2.342439765e-14,3.049761975e-14,7.737677408e-14,4.447185653e-14,5.193244885e-14,6.448020245e-14,1.094957575e-13,1.20041793e-13,1.296324384e-13,1.020556488e-13,4.919919849e-14,1.851834456e-13,6.832279922e-15,2.036897355e-14,1.609986584e-14,3.024303326e-14,6.71995045e-14,2.39802504e-14,7.464632433e-14,1.161132642e-13,1.33549153e-13,1.582342794e-13,5.917053389e-14,1.602455951e-14
1.6484375,4.385123678e-14,1.064920047e-13,6.382399256e-14,7.163441599e-14,1.476126767e-14,2.231475333e-14,1.236028168e-14,1.737379814e-14,1.79159372e-14,3.067525269e-14,8.302313341e-14,4.066723635e-14,4.196943984e-14,5.71991923e-14,1.120696467e-13,1.243133675e-13,1.269950234e-13,8.686300691e-14,4.217304519e-14,1.810608784e-13,7.247723246e-15,1.608673928e-14,2.084571288e-14,2.695195556e-14,6.736052581e-14,2.678772904e-14,8.032383079e-14,1.060689154e-13,1.297939941e-13,1.298593618e-13,5.666815278e-14,1.407077737e-14
1.65625,3.537654186e-14,9.811542741e-14,5.168597139e-14,6.332580899e-14,1.791982961e-14,1.578505955e-14,1.071441301e-14,1.739056075e-14,1.349593863e-14,3.082708824e-14,8.488602545e-14,3.627628948e-14,3.2443219e-14,5.036910307e-14,1.120743707e-13,1.282459828e-13,1.241200252e-13,7.22630392e-14,3.479740495e-14,1.729881405e-13,7.506593898e-15,1.22392556e-14,2.553940429e-14,2.300731553e-14,6.70491668e-14,3.044947402e-14,8.467382045e-14,9.426075016e-14,1.268375591e-13,1.005483184e-13,5.306554065e-14,1.343385474e-14
1.6640625,2.661549018e-14,8.844362131e-14,4.030827403e-14,5.42969659e-14,2.113060556e-14,1.092724006e-14,1.037817021e-14,1.780884072e-14,1.010196059e-14,3.150819568e-14,8.30985845e-14,3.111655316e-14,2.367250071e-14,4.379049141e-14,1.101390054e-13,1.342544371e-13,1.228497035e-13,5.941024312e-14,2.752766372e-14,1.616637411e-13,7.735828096e-15,8.900989122e-15,2.971890818e-14,1.839244698e-14,6.624703351e-14,3.46836429e-14,8.84288486e-14,8.226245309e-14,1.277790592e-13,7.233455782e-14,4.825283136e-14,1.364362157e-14
1.671875,1.892877942e-14,7.802399248e-14,3.169771058e-14,4.547978016e-14,2.433546983e-14,7.66465193e-15,1.132272394e-14,1.838286573e-14,8.301769357e-15,3.283695128e-14,7.72730553e-14,2.538828539e-14,1.635517828e-14,3.808217807e-14,1.076192012e-13,1.423994963e-13,1.231895136e-13,4.990051847e-14,2.094636017e-14,1.483809117e-13,7.832630482e-15,6.373570801e-15,3.259906667e-14,1.404998635e-14,6.441265479e-14,3.938782947e-14,9.156267577e-14,7.136325676e-14,1.325235787e-13,4.865034937e-14,4.310204534e-14,1.516172914e-14
1.6796875,1.331186063e-14,6.911457769e-14,2.655484579e-14,3.785606266e-14,2.713073833e-14,5.982899676e-15,1.299890017e-14,1.893286691e-14,7.773421436e-15,3.45690272e-14,6.852798141e-14,2.028718664e-14,1.081720388e-14,3.456603328e-14,1.063498038e-13,1.52370757e-13,1.248030471e-13,4.50302059e-14,1.598593149e-14,1.345820247e-13,7.779386684e-15,4.74011659e-15,3.359871926e-14,1.025389721e-14,6.125677958e-14,4.354697354e-14,9.365179164e-14,6.304873749e-14,1.407494718e-13,3.290801012e-14,3.847544258e-14,1.752059907e-14
1.6875,9.918075568e-15,6.296138044e-14,2.527254316e-14,3.230249185e-14,2.96336845e-14,5.667723425e-15,1.523943783e-14,1.899575982e-14,8.333068539e-15,3.628635564e-14,5.922201254e-14,1.652698731e-14,7.004603124e-15,3.348844066e-14,1.074370868e-13,1.632479076e-13,1.286989483e-13,4.434089646e-14,1.315233897e-14,1.219266501e-13,7.956215348e-15,3.631708976e-15,3.278009202e-14,7.1436968e-15,5.697272328e-14,4.724302856e-14,9.584382677e-14,5.778939907e-14,1.527106826e-13,2.662917931e-14,3.553057286e-14,2.009066687e-14
1.6953125,8.844378756e-15,6.071787673e-14,2.726623662e-14,2.919618225e-14,3.131000936e-14,6.30566174e-15,1.75926731e-14,1.844637484e-14,9.72946021e-15,3.813580416e-14,5.045511679e-14,1.400943763e-14,4.81825805e-15,3.443884538e-14,1.094005264e-13,1.715757579e-13,1.322218598e-13,4.639371324e-14,1.213731829e-14,1.099000847e-13,8.442704809e-15,2.957597207e-15,3.019296658e-14,5.045210264e-15,5.181057487e-14,4.941667571e-14,9.878234383e-14,5.558685097e-14,1.669493641e-13,3.023171544e-14,3.39284323e-14,2.227216619e-14
1.703125,1.000564495e-14,6.340493475e-14,3.244429732e-14,2.782383789e-14,3.11702138e-14,8.211044758e-15,1.920107591e-14,1.69892511e-14,1.186509033e-14,4.022557364e-14,4.190868541e-14,1.272728283e-14,3.898609737e-15,3.747395107e-14,1.094272856e-13,1.727357943e-13,1.300082607e-13,4.920255541e-14,1.218880204e-14,9.692312515e-14,9.098068889e-15,2.482955436e-15,2.626799626e-14,3.647494727e-15,4.47611453e-14,4.833813351e-14,9.93342597e-14,5.478169263e-14,1.769368232e-13,4.303294769e-14,3.242013468e-14,2.374580931e-14
1.7109375,1.317543891e-14,7.404788026e-14,4.032323987e-14,2.858793178e-14,2.969750955e-14,1.144107391e-14,1.998344524e-14,1.489528259e-14,1.483911984e-14,4.217306286e-14,3.573657025e-14,1.29196191e-14,4.445729732e-15,4.380156036e-14,1.093345708e-13,1.67105385e-13,1.239473255e-13,5.288356696e-14,1.333199664e-14,8.44281725e-14,9.758247961e-15,2.178724375e-15,2.26597168e-14,2.802876137e-15,3.717079181e-14,4.498598924e-14,9.856100917e-14,5.529615237e-14,1.840217585e-13,6.440004513e-14,3.131520286e-14,2.419957971e-14
1.71875,1.772461857e-14,9.458740617e-14,4.903561932e-14,3.165270295e-14,2.728333016e-14,1.545386846e-14,2.00481248e-14,1.230463293e-14,1.82741214e-14,4.344829904e-14,3.315050908e-14,1.470252157e-14,6.430700397e-15,5.376791472e-14,1.10716502e-13,1.566137574e-13,1.167533808e-13,5.685894398e-14,1.538246143e-14,7.402161691e-14,1.038182702e-14,2.064836399e-15,2.003244934e-14,2.447747259e-15,3.02029481e-14,4.052243734e-14,9.822592804e-14,5.745452966e-14,1.902100245e-13,9.3497525e-14,3.091216319e-14,2.37478207e-14
1.7265625,2.38255087e-14,1.256655086e-13,5.913631138e-14,3.66036853e-14,2.376612918e-14,2.05639716e-14,1.929632138e-14,9.720822339e-15,2.269188585e-14,4.431433445e-14,3.434529599e-14,1.807381567e-14,9.847829873e-15,6.725428768e-14,1.115702904e-13,1.416748968e-13,1.066413202e-13,6.000494129e-14,1.768155911e-14,6.470609808e-14,1.095099256e-14,2.233375378e-15,1.875139928e-14,2.282361933e-15,2.401152713e-14,3.439593139e-14,9.762660859e-14,6.077859716e-14,1.942529143e-13,1.290863472e-13,3.025378726e-14,2.252673381e-14
1.734375,3.001144633e-14,1.645339577e-13,6.901434438e-14,4.186452242e-14,1.925538785e-14,2.619668675e-14,1.783002918e-14,7.759420801e-15,2.727957849e-14,4.406590201e-14,3.768188277e-14,2.200903903e-14,1.441583835e-14,8.14683027e-14,1.09284956e-13,1.226317843e-13,9.221817404e-14,6.106766724e-14,1.961909099e-14,5.482236985e-14,1.101854491e-14,2.675682513e-15,1.886422714e-14,2.239835384e-15,1.848606325e-14,2.688370207e-14,9.473565184e-14,6.273307189e-14,1.942938915e-13,1.638864926e-13,2.821445025e-14,2.090919992e-14
1.7421875,3.505114582e-14,2.097317651e-13,7.719527195e-14,4.748157097e-14,1.474663406e-14,3.148169627e-14,1.58772291e-14,6.834548973e-15,3.173334037e-14,4.308044995e-14,4.338820058e-14,2.693538241e-14,1.97172055e-14,9.550596893e-14,1.074175757e-13,1.047983133e-13,7.896732668e-14,6.180024321e-14,2.15196353e-14,4.68890731e-14,1.05754274e-14,3.441208844e-15,2.025724445e-14,2.221100255e-15,1.454113036e-14,2.007310918e-14,9.214700923e-14,6.450893447e-14,1.953003682e-13,1.964893029e-13,2.564820832e-14,1.964412073e-14
1.75,3.848483982e-14,2.574923547e-13,8.204146064e-14,5.27998427e-14,1.088542402e-14,3.537431367e-14,1.407938228e-14,7.039999921e-15,3.52515411e-14,4.13792754e-14,5.093116697e-14,3.225820057e-14,2.55327671e-14,1.092942709e-13,1.080066016e-13,9.157655712e-14,6.928605733e-14,6.231752369e-14,2.313656453e-14,4.037975194e-14,9.630190833e-15,4.376250777e-15,2.185790715e-14,2.215996554e-15,1.229097184e-14,1.45229257e-14,8.996468077e-14,6.71500581e-14,1.986672004e-13,2.24728416e-13,2.296625626e-14,1.884419386e-14
1.7578125,3.949898611e-14,3.012201457e-13,8.285061446e-14,5.647234789e-14,7.716775198e-15,3.711928404e-14,1.251274607e-14,8.083221224e-15,3.670660554e-14,3.883213798e-14,6.010710844e-14,3.734050338e-14,3.055911226e-14,1.19443706e-13,1.091089559e-13,8.326163419e-14,6.280582559e-14,6.207156887e-14,2.39087448e-14,3.507554511e-14,8.353745476e-15,4.960290359e-15,2.228100253e-14,2.024975583e-15,1.176956142e-14,1.020762528e-14,8.833026011e-14,6.962133797e-14,2.028886675e-13,2.409529138e-13,2.007998484e-14,1.830525031e-14
1.765625,3.861525606e-14,3.338001595e-13,8.064999059e-14,5.834339221e-14,5.651922944e-15,3.758893668e-14,1.140286945e-14,9.581580236e-15,3.644712019e-14,3.548160567e-14,6.95149888e-14,4.242723058e-14,3.465022651e-14,1.248418786e-13,1.093509962e-13,8.036431992e-14,5.918708833e-14,6.14601345e-14,2.42968682e-14,3.080433836e-14,6.91548349e-15,5.350751129e-15,2.178706473e-14,1.771007049e-15,1.262535841e-14,7.473092766e-15,8.768988488e-14,7.242650146e-14,2.076807503e-13,2.452498783e-13,1.719088776e-14,1.89453183e-14
1.7734375,3.568662329e-14,3.489352575e-13,7.642654384e-14,5.81727333e-14,4.558393014e-15,3.774198457e-14,1.065154399e-14,1.101892438e-14,3.426604487e-14,3.154336176e-14,7.767194803e-14,4.585451467e-14,3.696630745e-14,1.244491059e-13,1.076837559e-13,8.254651675e-14,5.870134268e-14,6.047462862e-14,2.417606583e-14,2.814917328e-14,5.384880493e-15,5.377791394e-15,2.003404251e-14,1.594127447e-15,1.448920189e-14,6.20664932e-15,8.716430978e-14,7.522080369e-14,2.098473644e-13,2.370433883e-13,1.454577227e-14,2.056831672e-14
1.78125,3.077622076e-14,3.45244306e-13,6.971007832e-14,5.485257644e-14,4.136148002e-15,3.76912653e-14,1.040613818e-14,1.191631827e-14,3.007961923e-14,2.706782489e-14,8.39309852e-14,4.688343317e-14,3.646174039e-14,1.176690485e-13,1.053480883e-13,8.853282403e-14,6.108259996e-14,5.862520681e-14,2.289888597e-14,2.701636284e-14,4.05937166e-15,4.853655308e-15,1.705773458e-14,1.314657762e-15,1.693393912e-14,5.818862123e-15,8.647308216e-14,7.731452806e-14,2.072408957e-13,2.16201693e-13,1.219110747e-14,2.220257512e-14
1.7890625,2.621526963e-14,3.248111568e-13,6.373325546e-14,4.976812966e-14,4.368083465e-15,3.92498587e-14,1.03466881e-14,1.223380897e-14,2.519827049e-14,2.257824711e-14,8.990759542e-14,4.674121873e-14,3.40497398e-14,1.077318722e-13,1.035630925e-13,9.909607009e-14,6.685842274e-14,5.718215023e-14,2.116698012e-14,2.768120854e-14,3.269354932e-15,3.965293956e-15,1.337135422e-14,9.929794298e-16,1.990684467e-14,6.283961826e-15,8.645295055e-14,8.0073481e-14,1.997455817e-13,1.878407082e-13,1.061320994e-14,2.424037636e-14
1.796875,2.239695515e-14,2.884318727e-13,5.933487117e-14,4.387972241e-14,5.01565995e-15,4.33731588e-14,1.044817796e-14,1.197252489e-14,2.07688257e-14,1.819120431e-14,9.380128379e-14,4.465488995e-14,3.077610215e-14,9.520889563e-14,9.776430696e-14,1.114207454e-13,7.377501125e-14,5.620500239e-14,1.977197649e-14,2.969157008e-14,2.981111531e-15,3.212963526e-15,1.021278998e-14,7.897419552e-16,2.30646335e-14,7.408094016e-15,8.612601449e-14,8.250535317e-14,1.87399216e-13,1.566699327e-13,9.509886923e-15,2.708170913e-14
1.8046875,1.883117956e-14,2.40763269e-13,5.581174301e-14,3.729494194e-14,5.830587683e-15,4.849159313e-14,1.07362078e-14,1.101751317e-14,1.694887591e-14,1.437264241e-14,9.361176431e-14,3.996045479e-14,2.650389578e-14,7.955777968e-14,8.800554954e-14,1.220747736e-13,8.048462677e-14,5.489753455e-14,1.848835625e-14,3.286778858e-14,3.112684152e-15,2.610683871e-15,7.757146666e-15,6.673426346e-16,2.549716853e-14,8.945486879e-15,8.408464958e-14,8.301530909e-14,1.684894493e-13,1.246456701e-13,8.913236942e-15,2.951448647e-14
