"Time","Fp1","AF3","F7","F3","FC1","FC5","T7","C3","CP1","CP5","P7","P3","Pz","PO3","O1","Oz","O2","PO4","P4","P8","CP6","CP2","C4","T8","FC6","FC2","F4","F8","AF4","Fp2","Fz","Cz"
0.0078125,1.663654296e-14,3.108334587e-15,2.47207269e-14,1.575890786e-14,1.053420975e-14,3.96652104e-15,4.329538077e-14,1.988605599e-14,2.241738941e-14,7.887340918e-15,1.698251719e-14,1.824215785e-14,5.05231589e-16,4.581771866e-15,6.20648081e-15,8.650057197e-15,2.517167311e-14,3.556874879e-15,1.515063416e-14,2.939954114e-14,3.943490278e-14,3.37633596e-15,2.787200921e-14,1.31500956e-13,4.89620098e-14,1.326079368e-14,1.408580427e-14,1.942825915e-14,8.345271487e-15,9.599476609e-15,8.012849292e-14,2.039813062e-15
0.015625,1.99779391e-14,3.825395092e-15,2.459382826e-14,1.462860398e-14,1.047912303e-14,4.943157874e-15,5.259221525e-14,2.453466374e-14,2.549119495e-14,1.127624102e-14,1.643274233e-14,2.436553699e-14,9.211422434e-16,6.378325142e-15,5.16819275e-15,1.275461559e-14,3.568174993e-14,3.766578754e-15,1.688043134e-14,3.024804353e-14,4.377157796e-14,4.06550398e-15,3.607748748e-14,1.56635728e-13,6.38959283e-14,1.346653003e-14,1.609463392e-14,2.659635432e-14,9.914885862e-15,1.142446927e-14,1.076825729e-13,2.149388321e-15
0.0234375,2.212149077e-14,4.650767781e-15,2.254801287e-14,1.266906822e-14,9.640288283e-15,5.776029628e-15,5.938005921e-14,2.822974875e-14,2.708545492e-14,1.544608939e-14,1.647139928e-14,3.026337761e-14,1.576919451e-15,7.808650902e-15,3.776088333e-15,1.73851989e-14,4.670447892e-14,3.608534724e-15,1.772036481e-14,2.946842645e-14,4.549524236e-14,4.648122835e-15,4.443870821e-14,1.763236367e-13,7.922587871e-14,1.318480252e-14,1.78706935e-14,3.409934384e-14,1.131160426e-14,1.27459917e-14,1.429115391e-13,2.392443013e-15
0.03125,2.294674484e-14,5.867227344e-15,1.914594286e-14,1.093683427e-14,8.330198943e-15,6.411486018e-15,6.274265227e-14,3.04424861e-14,2.71046552e-14,2.006492996e-14,1.827553341e-14,3.535838568e-14,2.684327552e-15,9.132492187e-15,2.470260446e-15,2.216318829e-14,5.690763275e-14,3.696217903e-15,1.821816996e-14,2.753381211e-14,4.499042729e-14,5.154255119e-15,5.185710899e-14,1.895488872e-13,9.283272969e-14,1.249565859e-14,1.924326409e-14,4.154872792e-14,1.248643432e-14,1.387283813e-14,1.854245807e-13,2.875007776e-15
0.0390625,2.237461478e-14,7.234782949e-15,1.524039101e-14,1.014092268e-14,6.925285073e-15,6.761396633e-15,6.209491833e-14,3.043239925e-14,2.535053897e-14,2.451758848e-14,2.274191538e-14,3.864727168e-14,4.263858636e-15,1.017222767e-14,1.681914287e-15,2.582473496e-14,6.459671765e-14,4.263872779e-15,1.87519649e-14,2.492074889e-14,4.160911455e-14,5.547949041e-15,5.677712007e-14,1.941559462e-13,1.017531848e-13,1.167037304e-14,1.979368912e-14,4.767348297e-14,1.31548326e-14,1.488659925e-14,2.345504168e-13,3.629485714e-15
0.046875,2.083840717e-14,8.619746132e-15,1.215980133e-14,1.05986202e-14,5.560305262e-15,6.764605591e-15,5.843196283e-14,2.835315582e-14,2.225510596e-14,2.844424004e-14,2.962233369e-14,4.011971084e-14,6.344603286e-15,1.052257815e-14,1.517973171e-15,2.736235845e-14,6.799003538e-14,5.532787337e-15,2.009762251e-14,2.167565756e-14,3.569491024e-14,6.140986657e-15,5.88575903e-14,1.866924977e-13,1.0491472e-13,1.081823586e-14,1.94137839e-14,5.08600119e-14,1.311475604e-14,1.586998433e-14,2.846043676e-13,4.628856377e-15
0.0546875,1.869276657e-14,9.434824233e-15,1.033913458e-14,1.236160595e-14,4.608784031e-15,6.586324428e-15,5.185332961e-14,2.469680344e-14,1.852095646e-14,3.136404857e-14,3.809043298e-14,3.994152503e-14,8.819025119e-15,1.056759231e-14,2.01705504e-15,2.695628664e-14,6.785483498e-14,7.592984335e-15,2.28139895e-14,1.842771834e-14,2.894941842e-14,7.08887454e-15,5.757389046e-14,1.709556997e-13,1.024382117e-13,9.821969123e-15,1.798295636e-14,5.155807897e-14,1.202999742e-14,1.685543181e-14,3.335459765e-13,5.646140762e-15
0.0625,1.626259674e-14,9.297116017e-15,1.008297316e-14,1.482370943e-14,4.29068242e-15,6.317751559e-15,4.575225425e-14,2.047210117e-14,1.48933867e-14,3.304771642e-14,4.604932349e-14,3.892146606e-14,1.145628204e-14,1.051902319e-14,3.034896759e-15,2.429871872e-14,6.334883544e-14,1.034201877e-14,2.703904312e-14,1.621353573e-14,2.233636187e-14,8.472241154e-15,5.328526089e-14,1.501141276e-13,9.418381672e-14,8.935210673e-15,1.613646993e-14,4.996882828e-14,1.0357083e-14,1.747074468e-14,3.773838678e-13,6.230521986e-15
0.0703125,1.381962157e-14,8.756447339e-15,1.201408135e-14,1.805529901e-14,4.486448797e-15,6.014536134e-15,4.339830194e-14,1.616816619e-14,1.165026835e-14,3.390283237e-14,5.217459587e-14,3.810242764e-14,1.408139678e-14,1.048007542e-14,4.403133894e-15,2.069318519e-14,5.648179788e-14,1.406420419e-14,3.297562162e-14,1.551599448e-14,1.634473597e-14,1.029402951e-14,4.701168955e-14,1.26560383e-13,8.208191482e-14,8.545106186e-15,1.504689489e-14,4.567833684e-14,8.892846538e-15,1.760790684e-14,4.08574137e-13,6.411324759e-15
0.078125,1.141784271e-14,7.968070704e-15,1.540419183e-14,2.179720879e-14,5.158025417e-15,5.844107673e-15,4.626197874e-14,1.270347289e-14,9.237166102e-15,3.454876759e-14,5.63547695e-14,3.878960316e-14,1.630745188e-14,1.094185846e-14,5.951566479e-15,1.69731296e-14,4.871922335e-14,1.826612394e-14,3.955060666e-14,1.623946377e-14,1.144256888e-14,1.232827126e-14,4.039875894e-14,1.026354209e-13,6.840102996e-14,8.861527885e-15,1.541759453e-14,3.918899611e-14,7.912660297e-15,1.695569117e-14,4.208384289e-13,6.497373265e-15
0.0859375,9.294323895e-15,6.806419618e-15,2.020110005e-14,2.510312967e-14,6.119779427e-15,5.704878309e-15,5.552551853e-14,1.08089704e-14,7.889029533e-15,3.546184612e-14,5.807544669e-14,4.174337332e-14,1.756982306e-14,1.212636932e-14,7.608935037e-15,1.330444572e-14,4.027045959e-14,2.257114246e-14,4.592064815e-14,1.849646219e-14,8.220516279e-15,1.433558757e-14,3.343436794e-14,8.299837014e-14,5.393757605e-14,9.692241343e-15,1.754502535e-14,3.204448116e-14,7.68520621e-15,1.554635928e-14,4.167674031e-13,6.193533336e-15
0.09375,7.421627745e-15,5.551555866e-15,2.601009057e-14,2.667215488e-14,6.681284197e-15,5.628287836e-15,7.099581523e-14,1.035855142e-14,7.33941604e-15,3.62349904e-14,5.593762106e-14,4.654567192e-14,1.783858088e-14,1.36669692e-14,8.767271266e-15,1.049862944e-14,3.207312605e-14,2.680292056e-14,5.096431006e-14,2.167320923e-14,6.400949944e-15,1.602114921e-14,2.716332514e-14,6.927138831e-14,4.03984378e-14,1.076098111e-14,2.13906099e-14,2.473578759e-14,8.585796676e-15,1.34394128e-14,3.976992792e-13,5.602365546e-15
0.1015625,6.126170038e-15,4.564497853e-15,3.286031389e-14,2.668653961e-14,6.738164224e-15,5.513828923e-15,9.073113603e-14,1.144426519e-14,7.488442877e-15,3.722221987e-14,5.092359635e-14,5.28422224e-14,1.750687983e-14,1.517926857e-14,9.058759246e-15,9.485915177e-15,2.672883646e-14,3.154631433e-14,5.479999764e-14,2.371666604e-14,5.79307631e-15,1.728616726e-14,2.243693242e-14,6.19286609e-14,2.921678814e-14,1.162563972e-14,2.569605455e-14,1.838995991e-14,1.001602931e-14,1.13808379e-14,3.63336139e-13,5.166496463e-15
0.109375,5.479655004e-15,3.831286455e-15,3.987142992e-14,2.575692495e-14,6.81610457e-15,5.327418414e-15,1.128848158e-13,1.380774744e-14,8.092976234e-15,3.878864747e-14,4.544714451e-14,6.021666516e-14,1.654370666e-14,1.667622587e-14,9.054000227e-15,1.048996942e-14,2.57271581e-14,3.679737122e-14,5.698340388e-14,2.482918923e-14,6.216435465e-15,1.820423209e-14,1.974014343e-14,6.164756366e-14,2.05166797e-14,1.254394878e-14,2.983676884e-14,1.363643201e-14,1.168196183e-14,9.961333214e-15,3.210748073e-13,5.17533411e-15
0.1171875,5.559174352e-15,3.385369997e-15,4.839571824e-14,2.322894059e-14,6.478454397e-15,5.02243474e-15,1.378782521e-13,1.723819874e-14,9.012739902e-15,4.154987616e-14,3.98576099e-14,6.840616547e-14,1.484258477e-14,1.841502015e-14,8.912165359e-15,1.32729526e-14,2.994335391e-14,4.211377539e-14,5.748198944e-14,2.458617007e-14,7.493357905e-15,1.912588598e-14,1.906711916e-14,6.733959828e-14,1.393369655e-14,1.335213804e-14,3.350161298e-14,1.079758193e-14,1.371747358e-14,9.746591378e-15,2.790377844e-13,5.720367278e-15
0.125,6.693228433e-15,3.058702187e-15,5.912986094e-14,1.970553044e-14,6.189062605e-15,4.717491439e-15,1.618350809e-13,2.146734485e-14,1.003604793e-14,4.432388758e-14,3.441752977e-14,7.568348157e-14,1.314410768e-14,1.974846419e-14,8.483938118e-15,1.845680998e-14,4.136428313e-14,4.840969251e-14,5.758122326e-14,2.354053043e-14,1.003382945e-14,2.031186886e-14,2.046323856e-14,7.854808406e-14,9.024781296e-15,1.342359062e-14,3.456299326e-14,1.026289076e-14,1.482819748e-14,1.141337933e-14,2.380396469e-13,7.22879073e-15
0.1328125,8.798826313e-15,3.30190172e-15,7.396007127e-14,1.691835206e-14,6.42172363e-15,4.639014077e-15,1.851468137e-13,2.652378601e-14,1.091394534e-14,4.760124225e-14,3.040905527e-14,8.063455313e-14,1.209027028e-14,2.012545225e-14,9.037085207e-15,2.613977517e-14,6.048807221e-14,5.604282624e-14,5.859480045e-14,2.476403855e-14,1.397677765e-14,2.232785942e-14,2.397283434e-14,9.588621421e-14,5.722070909e-15,1.334884893e-14,3.33454539e-14,1.168679567e-14,1.468102004e-14,1.523453019e-14,2.089464455e-13,1.000339602e-14
0.140625,1.204238121e-14,4.215087674e-15,9.273068407e-14,1.456900573e-14,6.927470171e-15,4.951952439e-15,2.086705122e-13,3.205094798e-14,1.178086126e-14,5.184870947e-14,2.809469656e-14,8.416399322e-14,1.140806864e-14,2.032948643e-14,1.059718373e-14,3.492732958e-14,8.470002907e-14,6.387501552e-14,6.085478785e-14,2.844673187e-14,1.982211274e-14,2.522171676e-14,3.039620965e-14,1.175248068e-13,3.752933408e-15,1.385829575e-14,3.076854628e-14,1.48182293e-14,1.391928346e-14,2.089296895e-14,1.907973738e-13,1.430326736e-14
0.1484375,1.678834915e-14,5.846730879e-15,1.195402345e-13,1.323009692e-14,7.677856399e-15,5.725510362e-15,2.312488171e-13,3.769050554e-14,1.230001071e-14,5.664593605e-14,2.693721864e-14,8.526789266e-14,1.140612499e-14,2.036513626e-14,1.352252854e-14,4.489554752e-14,1.13207547e-13,7.169314166e-14,6.420760816e-14,3.538253589e-14,2.800308351e-14,2.896568664e-14,3.921463237e-14,1.424010532e-13,2.798574998e-15,1.484534797e-14,2.676747011e-14,1.961795855e-14,1.246956393e-14,2.825891078e-14,1.746502905e-13,2.008700892e-14
0.15625,2.381209445e-14,8.976339501e-15,1.572098959e-13,1.395535279e-14,8.624460493e-15,7.172530074e-15,2.518783866e-13,4.246774088e-14,1.21501119e-14,6.118591966e-14,2.603541221e-14,8.267387729e-14,1.270587746e-14,1.995072605e-14,1.859751957e-14,5.504102586e-14,1.409361866e-13,7.9628681e-14,7.015218993e-14,4.683493172e-14,3.912494265e-14,3.382253357e-14,5.089592565e-14,1.709812962e-13,2.558718053e-15,1.6481121e-14,2.152196764e-14,2.639311112e-14,1.007934661e-14,3.702812516e-14,1.63445649e-13,2.830902973e-14
0.1640625,3.251787139e-14,1.329805574e-14,2.059637833e-13,1.582379948e-14,9.486276826e-15,9.018628077e-15,2.709707215e-13,4.621931067e-14,1.172158522e-14,6.523558435e-14,2.478718282e-14,7.607425928e-14,1.45340605e-14,1.847502775e-14,2.509544021e-14,6.418523031e-14,1.633024594e-13,8.639356976e-14,7.753243932e-14,5.979620464e-14,5.284281334e-14,3.907386143e-14,6.411824361e-14,2.003158351e-13,3.460944285e-15,1.93420358e-14,1.644957628e-14,3.436764317e-14,7.478893926e-15,4.490187458e-14,1.536989751e-13,3.843482036e-14
0.171875,4.302729744e-14,1.813449025e-14,2.647536425e-13,1.807311335e-14,9.758767496e-15,1.11422146e-14,2.872411762e-13,4.845868201e-14,1.129484687e-14,6.993337731e-14,2.37427494e-14,6.847946402e-14,1.616037592e-14,1.723927454e-14,3.181449647e-14,6.994204722e-14,1.756713722e-13,8.941735813e-14,8.374063402e-14,7.172187594e-14,6.811694873e-14,4.437938253e-14,7.928844416e-14,2.253074794e-13,5.155332674e-15,2.4251618e-14,1.26761104e-14,4.3455925e-14,5.414224324e-15,5.183845246e-14,1.426224287e-13,4.983343197e-14
0.1796875,5.589938944e-14,2.327123295e-14,3.330932429e-13,2.000000099e-14,9.451471288e-15,1.32549271e-14,2.963173572e-13,4.800848086e-14,1.084152133e-14,7.446183559e-14,2.228564834e-14,6.007652674e-14,1.803956289e-14,1.674455039e-14,3.859788153e-14,7.125314472e-14,1.74160894e-13,8.714027432e-14,8.732272847e-14,8.014044818e-14,8.356029353e-14,4.941559349e-14,9.512210178e-14,2.46875249e-13,7.448056638e-15,3.112531674e-14,9.815563664e-15,5.447134992e-14,3.770401189e-15,5.771185582e-14,1.253096049e-13,6.307661968e-14
0.1875,7.184519687e-14,2.923568197e-14,4.095217736e-13,2.21109531e-14,9.694431839e-15,1.511100411e-14,2.988775438e-13,4.534748667e-14,1.104651482e-14,7.75967518e-14,1.978578652e-14,5.001586904e-14,2.085586589e-14,1.654233018e-14,4.527696264e-14,7.053403929e-14,1.620302906e-13,8.3086181e-14,9.025494332e-14,8.368891748e-14,9.682854146e-14,5.467278783e-14,1.100967926e-13,2.601053663e-13,1.037471024e-14,3.906283657e-14,7.527798979e-15,6.813818366e-14,2.496413564e-15,6.245177989e-14,1.125762927e-13,7.818832466e-14
0.1953125,8.914582615e-14,3.475928114e-14,4.869612599e-13,2.301179456e-14,9.727090963e-15,1.686511372e-14,2.938233268e-13,4.207341608e-14,1.306074885e-14,7.936899937e-14,1.619496196e-14,4.141204967e-14,2.258635903e-14,1.691958449e-14,4.85316599e-14,6.460315316e-14,1.402409614e-13,7.484017969e-14,8.965514116e-14,8.169381399e-14,1.070641782e-13,5.929495029e-14,1.229115486e-13,2.624231312e-13,1.475883995e-14,4.758624717e-14,6.598238712e-15,8.349717093e-14,1.954062131e-15,6.464093306e-14,1.098483565e-13,9.25319653e-14
0.203125,1.059630321e-13,3.800892401e-14,5.554330568e-13,2.223079997e-14,1.03459074e-14,1.776785171e-14,2.806793492e-13,3.862836718e-14,1.697483259e-14,8.048218008e-14,1.307883079e-14,3.645456393e-14,2.40948538e-14,1.873087038e-14,4.845845764e-14,5.526947055e-14,1.123696744e-13,6.264542931e-14,8.440840478e-14,7.384839582e-14,1.117188588e-13,6.299500197e-14,1.327923515e-13,2.542711819e-13,1.995429936e-14,5.682574911e-14,6.464135674e-15,9.942094546e-14,1.594136074e-15,6.572368027e-14,1.176713093e-13,1.049746046e-13
0.2109375,1.250041721e-13,4.252527077e-14,6.166102821e-13,2.274532809e-14,1.15452038e-14,1.787086144e-14,2.612946521e-13,3.56629631e-14,2.327492129e-14,8.06809196e-14,1.028436253e-14,3.469557553e-14,2.727494562e-14,2.251704049e-14,4.801496221e-14,4.714722648e-14,8.514329092e-14,5.224378031e-14,7.919448522e-14,6.363287171e-14,1.10778305e-13,6.715347516e-14,1.394024874e-13,2.376971004e-13,2.606146289e-14,6.429022934e-14,5.992729915e-15,1.177367658e-13,1.620790276e-15,6.816722209e-14,1.461959177e-13,1.158239765e-13
0.21875,1.442434837e-13,4.766674678e-14,6.64165636e-13,2.362075849e-14,1.214018894e-14,1.826402075e-14,2.366223219e-13,3.399154672e-14,3.148935559e-14,7.904151786e-14,7.50057203e-15,3.715607554e-14,3.053204811e-14,2.804076268e-14,4.512873296e-14,3.808718119e-14,6.178726146e-14,4.296210863e-14,7.369619168e-14,5.473855553e-14,1.046643177e-13,7.10314276e-14,1.420658725e-13,2.122951419e-13,3.510880411e-14,6.844715427e-14,5.558392753e-15,1.369686134e-13,2.252073193e-15,7.149892178e-14,1.929967464e-13,1.228697843e-13
0.2265625,1.589258059e-13,5.085673129e-14,6.84019499e-13,2.376905168e-14,1.249436185e-14,1.840718142e-14,2.066100795e-13,3.382057547e-14,4.019233646e-14,7.538472047e-14,5.459025699e-15,4.318421003e-14,3.281208375e-14,3.414638589e-14,3.94881957e-14,2.795097932e-14,4.208623532e-14,3.287335995e-14,6.552434479e-14,4.881261808e-14,9.413825556e-14,7.326533142e-14,1.415225194e-13,1.812643628e-13,4.639421029e-14,7.005761552e-14,5.383445731e-15,1.528050448e-13,3.056449481e-15,7.464075496e-14,2.546580865e-13,1.247845252e-13
0.234375,1.698165802e-13,5.346189683e-14,6.788482491e-13,2.507671332e-14,1.261735457e-14,1.8492819e-14,1.76346697e-13,3.488081933e-14,4.818302625e-14,7.018104552e-14,4.266744105e-15,5.128663864e-14,3.58772135e-14,4.133817278e-14,3.480353827e-14,2.059817758e-14,2.792292346e-14,2.526129224e-14,5.765363659e-14,4.614455903e-14,8.173047373e-14,7.443099154e-14,1.381098946e-13,1.514791406e-13,5.904050805e-14,6.83313233e-14,5.031343206e-15,1.641982451e-13,4.157419208e-15,7.977561806e-14,3.273962873e-13,1.209067882e-13
0.2421875,1.766667863e-13,5.589025131e-14,6.508773908e-13,2.770704911e-14,1.224179173e-14,1.928618848e-14,1.473595565e-13,3.719050127e-14,5.468507577e-14,6.412639412e-14,3.271146336e-15,6.069892692e-14,4.033731201e-14,5.004454434e-14,3.224671724e-14,1.622520118e-14,1.936936279e-14,2.115858093e-14,5.172146608e-14,4.730032332e-14,6.899254796e-14,7.461740458e-14,1.308586117e-13,1.250673165e-13,7.295420311e-14,6.217441314e-14,4.137339793e-15,1.712806267e-13,5.876645728e-15,8.721867208e-14,3.984465573e-13,1.125043688e-13
0.25,1.783003491e-13,5.719600881e-14,6.020689503e-13,3.034051175e-14,1.198623152e-14,2.109302849e-14,1.208067383e-13,4.000740992e-14,5.808426005e-14,5.703933892e-14,2.488759203e-15,6.780810431e-14,4.435292243e-14,5.804541806e-14,3.093523397e-14,1.386254408e-14,1.548952258e-14,1.918890628e-14,4.706391257e-14,5.273518903e-14,5.702494879e-14,7.341908851e-14,1.224655717e-13,1.026561152e-13,8.818721957e-14,5.403950451e-14,3.059358353e-15,1.722463382e-13,7.767371514e-15,9.51259696e-14,4.567534239e-13,1.016624322e-13
0.2578125,1.735678438e-13,5.641206098e-14,5.365692647e-13,3.252974028e-14,1.218552343e-14,2.324477991e-14,9.645050741e-14,4.214561212e-14,5.727569637e-14,4.861860289e-14,2.05983035e-15,7.091686876e-14,4.657760886e-14,6.29703883e-14,3.065228788e-14,1.364227745e-14,1.42799851e-14,1.821656379e-14,4.288362165e-14,6.052820553e-14,4.958566291e-14,7.044224588e-14,1.12969329e-13,8.988224029e-14,1.011725648e-13,4.507586634e-14,2.141770052e-15,1.648101861e-13,9.667950108e-15,1.018616155e-13,4.875796223e-13,8.806167435e-14
0.265625,1.596851116e-13,5.149381113e-14,4.572834441e-13,3.326370139e-14,1.387918442e-14,2.527562667e-14,7.686777676e-14,4.388281535e-14,5.235700627e-14,3.929283312e-14,1.927549328e-15,6.861778713e-14,4.684786317e-14,6.395636139e-14,3.1584037e-14,1.531108158e-14,1.497998359e-14,1.783727403e-14,3.871367554e-14,7.08401727e-14,4.679331483e-14,6.504371086e-14,1.004592814e-13,8.757866848e-14,1.089556261e-13,3.674654012e-14,1.637393131e-15,1.486780238e-13,1.060963319e-14,1.054410274e-13,4.91158519e-13,7.425582716e-14
0.2734375,1.398783772e-13,4.405885435e-14,3.75004453e-13,3.221557992e-14,1.659563426e-14,2.677173148e-14,6.206329583e-14,4.527231043e-14,4.522059404e-14,3.038822689e-14,1.975132831e-15,6.208026392e-14,4.533153233e-14,6.190225376e-14,3.387936667e-14,1.823248787e-14,1.624724579e-14,1.772451595e-14,3.448116573e-14,8.442496131e-14,4.61198111e-14,5.76791828e-14,8.629815153e-14,9.120662324e-14,1.111307438e-13,2.970220215e-14,1.552658785e-15,1.281243908e-13,1.074165364e-14,1.049180955e-13,4.740214914e-13,6.274095831e-14
0.28125,1.168237271e-13,3.603055425e-14,2.965915581e-13,2.978781572e-14,1.912012452e-14,2.725617998e-14,5.079874186e-14,4.580561287e-14,3.704210461e-14,2.265311406e-14,2.193971698e-15,5.287675623e-14,4.15973145e-14,5.665747675e-14,3.720198432e-14,2.151751739e-14,1.860003396e-14,1.737145458e-14,3.02809588e-14,1.011649667e-13,4.71653577e-14,4.897330477e-14,7.174092252e-14,9.801801768e-14,1.078222563e-13,2.35299208e-14,2.342747471e-15,1.050795703e-13,1.075941388e-14,9.948279283e-14,4.390978268e-13,5.257300963e-14
0.2890625,9.201779593e-14,2.797743364e-14,2.229025959e-13,2.668931212e-14,2.136094e-14,2.653777731e-14,4.117151538e-14,4.466810884e-14,2.881376065e-14,1.625792165e-14,3.051670224e-15,4.396575529e-14,3.582868853e-14,4.978057238e-14,4.264297694e-14,2.462549115e-14,2.127068497e-14,1.644540597e-14,2.616997881e-14,1.207694007e-13,4.943881276e-14,3.944924889e-14,5.726602337e-14,1.08660801e-13,9.873383038e-14,1.886810369e-14,4.62550735e-15,8.125887747e-14,1.118801531e-14,8.943986824e-14,3.82643751e-13,4.401007015e-14
0.296875,6.795791479e-14,2.013505987e-14,1.614558129e-13,2.269753707e-14,2.303125971e-14,2.517585946e-14,3.4907899e-14,4.305785322e-14,2.244164401e-14,1.130917203e-14,4.044513861e-15,3.697402033e-14,2.940697474e-14,4.277526389e-14,5.019800844e-14,2.831142707e-14,2.648586221e-14,1.548532714e-14,2.261536914e-14,1.443264568e-13,5.097076289e-14,3.052265944e-14,4.466053948e-14,1.173459791e-13,8.682034283e-14,1.610119971e-14,8.690196908e-15,6.082906719e-14,1.186015856e-14,7.626332321e-14,3.206306269e-13,3.82428605e-14
0.3046875,4.749453197e-14,1.429894372e-14,1.151779929e-13,1.853092766e-14,2.254107659e-14,2.397123813e-14,3.141777322e-14,4.005492938e-14,1.83121554e-14,8.771354487e-15,5.023193251e-15,3.418573612e-14,2.360121313e-14,3.737423444e-14,6.026977395e-14,3.182191584e-14,3.350260519e-14,1.477842546e-14,2.004787205e-14,1.744205074e-13,4.986700402e-14,2.307058535e-14,3.466864318e-14,1.197011651e-13,7.497226937e-14,1.391140434e-14,1.534627611e-14,4.672184602e-14,1.399296632e-14,6.189307016e-14,2.665479979e-13,3.343696496e-14
0.3125,3.17384147e-14,1.167898451e-14,8.318703554e-14,1.660294235e-14,2.043423065e-14,2.431509275e-14,2.8328231e-14,3.53318001e-14,1.638261318e-14,8.687914917e-15,6.607089595e-15,3.67335732e-14,1.9313706e-14,3.54913109e-14,7.500272122e-14,3.734899915e-14,4.646603189e-14,1.615531137e-14,1.899657865e-14,2.054891727e-13,4.643606614e-14,1.735619189e-14,2.707606176e-14,1.163368344e-13,6.662852246e-14,1.222364505e-14,2.545249209e-14,3.980346914e-14,1.933588238e-14,4.804947213e-14,2.194834741e-13,2.824626395e-14
0.3203125,2.081789347e-14,1.14367437e-14,6.267741611e-14,1.774398422e-14,1.897719796e-14,2.678085224e-14,2.469018664e-14,2.968872018e-14,1.570048012e-14,1.010796136e-14,8.024904012e-15,4.330886646e-14,1.726447268e-14,3.791833754e-14,9.392561748e-14,4.746078089e-14,6.770288253e-14,2.071333894e-14,1.94782472e-14,2.342734233e-13,4.057614149e-14,1.346640765e-14,2.225624758e-14,1.086551817e-13,6.423206168e-14,1.253320388e-14,3.777449773e-14,3.899073461e-14,2.692051979e-14,3.709605105e-14,1.801244681e-13,2.403968027e-14
0.328125,1.417176392e-14,1.304288988e-14,5.198595955e-14,2.171117724e-14,1.877581729e-14,3.228689504e-14,2.203600122e-14,2.40966848e-14,1.524233108e-14,1.240272514e-14,8.333168797e-15,5.087394671e-14,1.72705175e-14,4.220000165e-14,1.123517024e-13,6.07904605e-14,9.644314462e-14,2.874040862e-14,2.190635885e-14,2.605930665e-13,3.410564322e-14,1.111358242e-14,1.998511466e-14,9.784644149e-14,6.770127751e-14,1.490542904e-14,5.135010518e-14,4.176012411e-14,3.516576485e-14,2.99722308e-14,1.521797392e-13,2.090494251e-14
0.3359375,1.071899991e-14,1.632597955e-14,4.780399541e-14,2.841612366e-14,2.025053361e-14,3.9285283e-14,1.994345261e-14,1.853304183e-14,1.463760784e-14,1.550330911e-14,8.178362573e-15,5.804059207e-14,1.895143075e-14,4.671309797e-14,1.293873049e-13,7.76471795e-14,1.338522004e-13,4.067714209e-14,2.599345825e-14,2.81976983e-13,2.81132742e-14,9.854449985e-15,1.96768061e-14,8.607996166e-14,7.6257923e-14,1.952436851e-14,6.631981459e-14,4.608522193e-14,4.429068057e-14,2.561585627e-14,1.354316635e-13,1.893377687e-14
0.34375,9.29368062e-15,2.026566921e-14,4.56554734e-14,3.736469325e-14,2.453277995e-14,4.703147439e-14,1.708033042e-14,1.400243806e-14,1.36635498e-14,1.847662094e-14,7.972441848e-15,6.366653381e-14,2.168446831e-14,5.111690792e-14,1.436093778e-13,9.747839019e-14,1.777733053e-13,5.583576123e-14,3.140066526e-14,2.951454206e-13,2.383491541e-14,9.256410284e-15,2.057668281e-14,7.774455119e-14,8.709182554e-14,2.688171191e-14,8.039469781e-14,4.944562408e-14,5.343126992e-14,2.365979097e-14,1.292977107e-13,1.934621245e-14
0.3515625,8.814744767e-15,2.362332168e-14,4.583231954e-14,4.641235835e-14,3.101277875e-14,5.4741448e-14,1.392955579e-14,1.079629316e-14,1.206406566e-14,2.009308607e-14,7.152314558e-15,6.555516615e-14,2.418200801e-14,5.375644798e-14,1.50969042e-13,1.174339083e-13,2.227605726e-13,7.282806441e-14,3.71130099e-14,2.986600471e-13,2.162184496e-14,8.602238457e-15,2.116124392e-14,7.322686923e-14,9.629618688e-14,3.575065613e-14,9.009257319e-14,5.013296216e-14,5.954705887e-14,2.329883752e-14,1.314061619e-13,2.236508554e-14
0.359375,8.205365583e-15,2.59353021e-14,4.463625218e-14,5.370063032e-14,3.846575957e-14,6.015909643e-14,1.156434952e-14,9.029644405e-15,1.028486532e-14,2.099500206e-14,5.676062836e-15,6.29008829e-14,2.511046596e-14,5.198019145e-14,1.490704348e-13,1.341566756e-13,2.648402561e-13,8.88027788e-14,4.181941972e-14,2.921004871e-13,2.205845699e-14,7.389236077e-15,2.088905449e-14,7.338879225e-14,1.012098711e-13,4.500187842e-14,9.497849635e-14,4.677874883e-14,6.178670474e-14,2.247234027e-14,1.417356916e-13,2.725175707e-14
0.3671875,7.429946249e-15,2.741545561e-14,4.132405748e-14,5.898362989e-14,4.629896796e-14,6.234279289e-14,9.52153657e-15,8.428787365e-15,8.900329088e-15,2.176449725e-14,4.433319804e-15,5.839396192e-14,2.517052469e-14,4.856768293e-14,1.420481267e-13,1.47249295e-13,2.990714759e-13,1.027390889e-13,4.593098221e-14,2.752194876e-13,2.454290001e-14,5.987145943e-15,2.038382316e-14,7.742755628e-14,1.02979901e-13,5.478684116e-14,9.598491974e-14,4.098762293e-14,6.211409809e-14,2.091445134e-14,1.564719679e-13,3.399283205e-14
0.375,6.690478965e-15,2.812159907e-14,3.696384214e-14,6.207228107e-14,5.321485678e-14,6.228821232e-14,7.510666164e-15,8.447400429e-15,8.118026979e-15,2.195466349e-14,3.746045035e-15,5.30334596e-14,2.424663176e-14,4.465246132e-14,1.312025626e-13,1.558703843e-13,3.228206303e-13,1.136163495e-13,4.89275687e-14,2.509873368e-13,2.842142e-14,4.748135114e-15,1.937503743e-14,8.268595998e-14,9.979066209e-14,6.287130476e-14,9.235525957e-14,3.358169315e-14,6.06339146e-14,1.881358798e-14,1.774327514e-13,4.088259012e-14
0.3828125,5.53199889e-15,2.766667465e-14,3.227522953e-14,6.1887151e-14,5.707653497e-14,6.045468166e-14,5.844648483e-15,8.901635273e-15,7.698790787e-15,2.123156966e-14,3.479129344e-15,4.574875306e-14,2.130250406e-14,3.892114927e-14,1.163114677e-13,1.575300117e-13,3.313490253e-13,1.182367899e-13,4.913984937e-14,2.195860016e-13,3.240091204e-14,3.542058831e-15,1.705563432e-14,8.801366192e-14,9.036338107e-14,6.66263074e-14,8.307454979e-14,2.520844509e-14,5.588424177e-14,1.61883497e-14,1.98914939e-13,4.621716876e-14
0.390625,4.531365205e-15,2.592646897e-14,2.677439926e-14,5.847093888e-14,5.710408985e-14,5.715929527e-14,4.56472664e-15,9.350915828e-15,7.894972505e-15,2.066587805e-14,3.982849862e-15,3.898015683e-14,1.752374181e-14,3.257958647e-14,1.003381863e-13,1.514644557e-13,3.239232211e-13,1.155216905e-13,4.68391924e-14,1.845425061e-13,3.453519791e-14,2.833028196e-15,1.423518722e-14,8.930108805e-14,7.702220633e-14,6.613572853e-14,7.087635672e-14,1.778234524e-14,4.942695218e-14,1.313157377e-14,2.161208218e-13,4.871086547e-14
0.3984375,4.017183386e-15,2.429193666e-14,2.215407753e-14,5.461577718e-14,5.548961683e-14,5.413684874e-14,3.603957918e-15,9.96750509e-15,8.02985353e-15,2.077843152e-14,5.171971385e-15,3.468806281e-14,1.473596802e-14,2.902168635e-14,8.757232829e-14,1.426457044e-13,3.04128287e-13,1.096524502e-13,4.425063733e-14,1.481209531e-13,3.498064576e-14,2.547247337e-15,1.171788209e-14,8.569629807e-14,6.440940859e-14,6.369727221e-14,5.905182334e-14,1.25241334e-14,4.394035391e-14,1.100755776e-14,2.278417106e-13,4.90011681e-14
0.40625,3.410718816e-15,2.207088973e-14,1.845039357e-14,4.89496448e-14,5.105459758e-14,5.085802003e-14,2.949591717e-15,1.073134585e-14,7.650754151e-15,2.078375825e-14,7.530661269e-15,2.955505558e-14,1.175641054e-14,2.52633335e-14,7.50155725e-14,1.287250461e-13,2.721566818e-13,9.930212766e-14,3.986092503e-14,1.136496263e-13,3.329273703e-14,2.497477739e-15,9.580471092e-15,7.912173107e-14,5.084632544e-14,5.785865076e-14,4.701881256e-14,8.467838358e-15,3.787576372e-14,9.348801143e-15,2.323923539e-13,4.648975794e-14
0.4140625,2.921820003e-15,1.860324235e-14,1.567768166e-14,4.108523243e-14,4.36911188e-14,4.768916129e-14,2.557769537e-15,1.190100602e-14,7.320016054e-15,2.047036381e-14,1.14935634e-14,2.371183754e-14,8.623541945e-15,2.12404687e-14,6.262214383e-14,1.095158228e-13,2.298587987e-13,8.358833202e-14,3.328238591e-14,8.329149187e-14,2.961921514e-14,2.62513581e-15,7.96870315e-15,7.045625053e-14,3.729365284e-14,4.925056349e-14,3.49497828e-14,5.891612879e-15,3.056173819e-14,8.195499195e-15,2.196965853e-13,4.188491107e-14
0.421875,3.08349796e-15,1.49850007e-14,1.407107574e-14,3.328243561e-14,3.571417846e-14,4.538779166e-14,2.446027224e-15,1.347249963e-14,7.013032602e-15,2.09476486e-14,1.643157734e-14,1.939864251e-14,6.565045328e-15,1.952817429e-14,5.453953816e-14,8.899265792e-14,1.829015007e-13,6.641658078e-14,2.664402873e-14,6.038210535e-14,2.533330305e-14,2.801221075e-15,7.145413053e-15,6.123081558e-14,2.572872091e-14,4.065376717e-14,2.531329232e-14,4.590476565e-15,2.458652423e-14,8.551378407e-15,1.971845434e-13,3.651255317e-14
0.4296875,3.791330081e-15,1.242133915e-14,1.386344889e-14,2.68810576e-14,2.915345476e-14,4.316175748e-14,2.522664262e-15,1.538136715e-14,6.582439174e-15,2.243106236e-14,2.264814003e-14,1.613327595e-14,5.741060152e-15,2.057775998e-14,5.2060166e-14,7.195248945e-14,1.396975318e-13,5.244138597e-14,2.168398846e-14,4.821731681e-14,2.17690658e-14,2.713469226e-15,7.186570572e-15,5.438260604e-14,1.733823791e-14,3.457595324e-14,1.905384263e-14,3.830078619e-15,2.094902583e-14,1.055838595e-14,1.717489699e-13,3.236837866e-14
0.4375,5.234257745e-15,1.031589462e-14,1.460925448e-14,2.047902238e-14,2.379846505e-14,3.976821317e-14,2.888738518e-15,1.741119046e-14,6.473230531e-15,2.476341602e-14,3.059131243e-14,1.284319296e-14,5.686574362e-15,2.423104737e-14,5.524466569e-14,5.791330593e-14,1.016035293e-13,4.08637299e-14,1.77544679e-14,4.554013985e-14,2.001604471e-14,2.506554388e-15,7.997144511e-15,5.28854589e-14,1.086480561e-14,3.123819062e-14,1.508054153e-14,3.385819173e-15,1.876623321e-14,1.434331629e-14,1.439009651e-13,3.080770342e-14
0.4453125,7.727575801e-15,9.083741878e-15,1.541674774e-14,1.529426548e-14,2.028090017e-14,3.724445991e-14,3.557235072e-15,1.95889242e-14,6.965667581e-15,2.754123346e-14,4.020140376e-14,1.033456885e-14,6.666659773e-15,3.148178746e-14,6.633301383e-14,4.887049886e-14,7.173312541e-14,3.26415326e-14,1.554622989e-14,5.262965966e-14,2.032166979e-14,2.32366877e-15,9.546706123e-15,5.634364501e-14,6.549072057e-15,3.138403369e-14,1.357400531e-14,3.328651545e-15,1.898635171e-14,2.015075745e-14,1.165121592e-13,3.228153223e-14
0.453125,1.106195364e-14,9.249124215e-15,1.579731844e-14,1.220653454e-14,1.9028852e-14,3.431934375e-14,4.256694077e-15,2.14040768e-14,8.100046041e-15,3.004370577e-14,4.880034125e-14,9.047204662e-15,8.186749672e-15,4.072312918e-14,8.283594511e-14,4.563808536e-14,5.351177014e-14,2.900634811e-14,1.573266086e-14,6.996714285e-14,2.261474668e-14,2.113174572e-15,1.135831387e-14,6.407932343e-14,3.899028614e-15,3.44334638e-14,1.370490491e-14,3.179577988e-15,2.117207836e-14,2.666807193e-14,9.991067249e-14,3.667170595e-14
0.4609375,1.486019657e-14,1.058599033e-14,1.556044116e-14,1.07587503e-14,1.972960113e-14,3.070930258e-14,4.964425199e-15,2.290110544e-14,9.676376463e-15,3.235556969e-14,5.698198106e-14,8.751614359e-15,1.008373549e-14,5.127510591e-14,1.029962205e-13,4.79028833e-14,4.662153087e-14,2.957078043e-14,1.828112893e-14,9.266873105e-14,2.610720669e-14,1.899376525e-15,1.337050123e-14,7.380337271e-14,2.437702371e-15,3.980211181e-14,1.479264251e-14,2.786613051e-15,2.461856261e-14,3.355086944e-14,9.577927081e-14,4.364771157e-14
0.46875,1.938381369e-14,1.276771795e-14,1.464885686e-14,1.039975102e-14,2.152476016e-14,2.731562939e-14,5.675161115e-15,2.43457239e-14,1.123162688e-14,3.434300923e-14,6.491165442e-14,9.066044505e-15,1.246407074e-14,6.148600135e-14,1.225007899e-13,5.344583088e-14,5.018029391e-14,3.312983563e-14,2.254332232e-14,1.159960908e-13,2.956210907e-14,1.947235158e-15,1.48458368e-14,8.271987093e-14,1.681231977e-15,4.589784623e-14,1.648101973e-14,2.538591741e-15,2.894188594e-14,3.995640195e-14,9.719995946e-14,5.072553732e-14
0.4765625,2.459817754e-14,1.587045123e-14,1.282495559e-14,1.104991986e-14,2.324935809e-14,2.456605847e-14,6.114884845e-15,2.491788854e-14,1.238202175e-14,3.477176244e-14,7.108866223e-14,9.563083869e-15,1.511828328e-14,6.876133304e-14,1.371300776e-13,5.99822716e-14,6.121821198e-14,3.8841697e-14,2.834720523e-14,1.377633959e-13,3.236382468e-14,2.26627985e-15,1.571563553e-14,8.770858176e-14,1.332356793e-15,5.086386537e-14,1.822449836e-14,2.387772497e-15,3.295382734e-14,4.424474791e-14,1.020459196e-13,5.57346684e-14
0.484375,2.899026145e-14,1.870667594e-14,1.036694201e-14,1.146918303e-14,2.377909474e-14,2.217114808e-14,6.146501351e-15,2.454860612e-14,1.319736548e-14,3.314564814e-14,7.387397316e-14,1.025063374e-14,1.717072695e-14,7.0692279e-14,1.41255745e-13,6.421438378e-14,7.645452841e-14,4.444915421e-14,3.412738992e-14,1.538186184e-13,3.306348149e-14,2.959170272e-15,1.621449965e-14,8.658703154e-14,1.25219016e-15,5.29448885e-14,1.860429318e-14,2.160932802e-15,3.399367867e-14,4.454999203e-14,1.112495076e-13,5.831694173e-14
0.4921875,3.181431748e-14,1.979621358e-14,8.252453145e-15,1.099521388e-14,2.266327278e-14,2.119945357e-14,5.977366202e-15,2.412289633e-14,1.340886202e-14,3.098988429e-14,7.516029592e-14,1.152391056e-14,1.847644937e-14,6.715753228e-14,1.341859345e-13,6.430811463e-14,9.220508879e-14,4.776397984e-14,3.853532489e-14,1.614970133e-13,3.13142778e-14,3.869303638e-15,1.583093676e-14,7.915808621e-14,1.268545142e-15,5.124502889e-14,1.74469925e-14,2.143557001e-15,3.20690885e-14,4.172947655e-14,1.165922272e-13,5.709407406e-14
0.5,3.436207974e-14,2.009012602e-14,7.06674066e-15,1.013912138e-14,2.019469737e-14,2.205089034e-14,5.798163852e-15,2.266780503e-14,1.242884761e-14,2.889578094e-14,7.663106765e-14,1.320384623e-14,1.952709844e-14,6.003718742e-14,1.190991654e-13,6.0567401e-14,1.039686759e-13,4.851979292e-14,4.13331992e-14,1.574049343e-13,2.839024094e-14,5.101726981e-15,1.452821588e-14,7.0530679e-14,1.468094368e-15,4.638122079e-14,1.601111565e-14,2.574133344e-15,2.940589998e-14,3.702355184e-14,1.104558449e-13,5.154291901e-14
0.5078125,3.645614512e-14,2.010424517e-14,6.511995057e-15,9.153880906e-15,1.674798554e-14,2.478011437e-14,5.232884468e-15,2.015207652e-14,1.061674315e-14,2.574358028e-14,7.728641264e-14,1.496824202e-14,2.000188458e-14,4.998260356e-14,9.769540643e-14,5.358513625e-14,1.107057513e-13,4.719172238e-14,4.209851333e-14,1.448643394e-13,2.512892406e-14,6.6931979e-15,1.287682385e-14,6.191485829e-14,1.982303443e-15,3.898092695e-14,1.401955731e-14,3.544338066e-15,2.528451315e-14,3.054156238e-14,9.982633779e-14,4.306469207e-14
0.515625,3.715189529e-14,1.88751653e-14,6.72556063e-15,8.184412424e-15,1.347599619e-14,2.920680161e-14,4.563215778e-15,1.751014757e-14,8.625051437e-15,2.232795546e-14,7.721395611e-14,1.702889111e-14,1.996839874e-14,3.886599466e-14,7.364864377e-14,4.417233184e-14,1.100551623e-13,4.355620112e-14,4.098359776e-14,1.256825264e-13,2.296454497e-14,8.34260555e-15,1.130898167e-14,5.705735661e-14,2.86948106e-15,3.054963591e-14,1.142021742e-14,5.055970266e-15,1.989913665e-14,2.377650413e-14,8.923409102e-14,3.473581043e-14
0.5234375,3.655575209e-14,1.649248894e-14,7.342379253e-15,7.683849767e-15,1.090635364e-14,3.466332491e-14,4.313444331e-15,1.537210121e-14,6.674837403e-15,2.015976798e-14,7.99205083e-14,1.899480457e-14,1.968543593e-14,2.833082173e-14,5.113707662e-14,3.3733146e-14,1.035403504e-13,3.805737571e-14,3.815154924e-14,1.035001312e-13,2.276103167e-14,1.014545976e-14,9.925901227e-15,5.812064858e-14,4.384543599e-15,2.207622159e-14,8.637098645e-15,7.016259237e-15,1.446933093e-14,1.822295235e-14,7.901553219e-14,2.757661724e-14
0.53125,3.529075876e-14,1.415423252e-14,7.674121425e-15,7.930591887e-15,9.663683216e-15,4.012859271e-14,4.363434879e-15,1.373951341e-14,5.018876473e-15,1.87398572e-14,8.479609115e-14,2.019227749e-14,1.882979068e-14,1.985731156e-14,3.362314072e-14,2.43259782e-14,9.089137014e-14,3.134733895e-14,3.349177717e-14,8.000062054e-14,2.551623115e-14,1.180679163e-14,8.968715458e-15,6.579596226e-14,6.638435807e-15,1.51970334e-14,6.337807337e-15,9.422949627e-15,1.01938017e-14,1.429577979e-14,6.909806453e-14,2.274100648e-14
0.5390625,3.368778893e-14,1.23371002e-14,7.646042412e-15,9.179803374e-15,1.014814571e-14,4.562614661e-14,4.5557826e-15,1.290588761e-14,3.788136519e-15,1.711120876e-14,8.95727352e-14,2.116592083e-14,1.740020845e-14,1.424507944e-14,2.150499254e-14,1.680309789e-14,7.595888188e-14,2.44136041e-14,2.777444614e-14,5.974336803e-14,3.149033141e-14,1.267222298e-14,8.490737941e-15,7.904729875e-14,9.669252347e-15,1.038066193e-14,4.546022076e-15,1.186873758e-14,7.267423766e-15,1.256457983e-14,6.263374887e-14,2.064606354e-14
0.546875,3.192898644e-14,1.111735966e-14,7.292603258e-15,1.127739787e-14,1.193828319e-14,4.964737609e-14,5.382150882e-15,1.2927772e-14,3.009103649e-15,1.573515103e-14,9.424992405e-14,2.07520613e-14,1.662314457e-14,1.129247737e-14,1.476872986e-14,1.20146755e-14,5.998619216e-14,1.847139329e-14,2.290603211e-14,4.416339736e-14,4.040279763e-14,1.286581991e-14,8.338350431e-15,9.673133328e-14,1.372411564e-14,7.554774299e-15,3.338429524e-15,1.433221897e-14,5.749554164e-15,1.280677553e-14,5.944854079e-14,2.060440888e-14
0.5546875,3.031806364e-14,1.072488451e-14,7.180269578e-15,1.350014559e-14,1.436558684e-14,5.235993563e-14,7.055307171e-15,1.383269617e-14,2.719466554e-15,1.458301872e-14,9.829023102e-14,1.913818759e-14,1.593616594e-14,9.937118446e-15,1.188049094e-14,9.615905549e-15,4.554816804e-14,1.370192209e-14,1.864051272e-14,3.351779666e-14,5.134040134e-14,1.295262144e-14,8.471594373e-15,1.163536387e-13,1.853256868e-14,6.333563136e-15,2.601750027e-15,1.666174499e-14,5.078629657e-15,1.394608127e-14,5.837547723e-14,2.186847834e-14
0.5625,2.87163841e-14,1.145433191e-14,7.798882132e-15,1.597160765e-14,1.697199157e-14,5.48937012e-14,9.296318634e-15,1.546096545e-14,2.555883001e-15,1.347281428e-14,9.968316771e-14,1.781319184e-14,1.420858725e-14,1.026571964e-14,1.151686504e-14,9.121498364e-15,3.376537487e-14,9.809116664e-15,1.440924643e-14,2.719421383e-14,6.371173797e-14,1.216486532e-14,8.6301769e-15,1.346717619e-13,2.367940476e-14,6.064063899e-15,2.178769263e-15,1.80627105e-14,5.489003798e-15,1.631509009e-14,5.654146233e-14,2.321310302e-14
0.5703125,2.67066365e-14,1.296505047e-14,9.627168571e-15,1.852887733e-14,1.933756174e-14,5.724802751e-14,1.244170963e-14,1.731180259e-14,2.38466572e-15,1.216347191e-14,9.793024581e-14,1.671024026e-14,1.224350476e-14,1.13357662e-14,1.241918843e-14,9.824136158e-15,2.471971036e-14,6.84810601e-15,1.091514201e-14,2.41021176e-14,7.59019376e-14,1.037830939e-14,8.537180912e-15,1.511619808e-13,2.869249911e-14,6.042586529e-15,2.023092227e-15,1.848380202e-14,6.582684657e-15,1.909406273e-14,5.292157944e-14,2.367707843e-14
0.578125,2.502682859e-14,1.543465969e-14,1.283022384e-14,2.031697613e-14,2.083336848e-14,5.83239183e-14,1.665720807e-14,1.9256598e-14,2.316690502e-15,1.076562133e-14,9.28539304e-14,1.513401474e-14,1.079566724e-14,1.239974846e-14,1.335720026e-14,1.100014425e-14,1.81659165e-14,5.279500447e-15,8.756274745e-15,2.299149138e-14,8.67564389e-14,8.862196937e-15,8.154212779e-15,1.659362463e-13,3.301195761e-14,6.150777379e-15,2.223894982e-15,1.846633565e-14,7.971580025e-15,2.140967007e-14,4.742430883e-14,2.321135278e-14
0.5859375,2.406595675e-14,1.891365904e-14,1.809513011e-14,2.14440692e-14,2.132960257e-14,5.897368123e-14,2.104348325e-14,2.068520921e-14,2.192883378e-15,9.378570423e-15,8.425856769e-14,1.39911277e-14,9.178380207e-15,1.342185944e-14,1.373079973e-14,1.182848545e-14,1.429126313e-14,4.755361848e-15,6.978349613e-15,2.345145398e-14,9.489686058e-14,7.912239304e-15,7.980267739e-15,1.745102548e-13,3.62591682e-14,6.428534023e-15,2.758392088e-15,1.772780805e-14,9.919685411e-15,2.363953137e-14,4.003659574e-14,2.159432447e-14
0.59375,2.335082874e-14,2.297567056e-14,2.421281183e-14,2.324640488e-14,2.215133467e-14,6.021465287e-14,2.468180984e-14,2.163568367e-14,1.998330584e-15,8.21391229e-15,7.383286709e-14,1.377257204e-14,7.362258494e-15,1.505409525e-14,1.374084253e-14,1.212379577e-14,1.214114326e-14,5.2065156e-15,5.415588573e-15,2.481341505e-14,1.007842638e-13,7.376365273e-15,8.092842845e-15,1.773898755e-13,3.798515989e-14,7.549501211e-15,3.709335799e-15,1.609541975e-14,1.261231276e-14,2.644485204e-14,3.206170098e-14,2.003319831e-14
0.6015625,2.226619482e-14,2.607061277e-14,3.008396277e-14,2.41592774e-14,2.294201376e-14,6.004283231e-14,2.760999907e-14,2.180221963e-14,1.914199347e-15,7.235907394e-15,6.3170121e-14,1.33094725e-14,6.136267526e-15,1.621276235e-14,1.319212511e-14,1.241171001e-14,1.224892004e-14,6.893021991e-15,4.781387878e-15,2.823120092e-14,1.01670684e-13,7.84093366e-15,8.770657978e-15,1.722278508e-13,3.802611995e-14,9.758042557e-15,5.032489847e-15,1.412086309e-14,1.488592344e-14,2.911771911e-14,2.6087519e-14,1.853245678e-14
0.609375,2.085702387e-14,2.811807248e-14,3.632278933e-14,2.383014162e-14,2.411019817e-14,5.823531119e-14,2.954307365e-14,2.127137946e-14,2.019498077e-15,6.321981527e-15,5.277644526e-14,1.224251508e-14,5.68509931e-15,1.689892412e-14,1.282083986e-14,1.294940922e-14,1.440951871e-14,9.765049815e-15,4.702130421e-15,3.286846976e-14,9.768581809e-14,9.354766319e-15,1.065488383e-14,1.617460932e-13,3.650465826e-14,1.391040026e-14,6.895169901e-15,1.209954215e-14,1.63552748e-14,3.118531345e-14,2.136435675e-14,1.835877223e-14
0.6171875,1.942095251e-14,2.908360642e-14,4.15294079e-14,2.30401909e-14,2.622751135e-14,5.514135684e-14,3.015907557e-14,1.978785055e-14,2.319059392e-15,5.432312126e-15,4.325772205e-14,1.121721323e-14,5.867962957e-15,1.763270416e-14,1.291352141e-14,1.444181554e-14,1.94773681e-14,1.38681363e-14,5.13183565e-15,3.948861232e-14,8.943231429e-14,1.186903899e-14,1.369605721e-14,1.469903277e-13,3.404685116e-14,1.97130942e-14,8.980199884e-15,1.026241308e-14,1.725325764e-14,3.257573017e-14,1.853333461e-14,1.943299473e-14
0.625,1.795693809e-14,2.874085227e-14,4.479471237e-14,2.213197257e-14,3.026986532e-14,5.113236544e-14,2.923570264e-14,1.76786415e-14,2.850976261e-15,4.794170371e-15,3.662456052e-14,1.039750361e-14,6.844464569e-15,1.980891424e-14,1.529942441e-14,1.811289352e-14,2.682382091e-14,1.909922682e-14,6.246560525e-15,4.675195856e-14,7.854126611e-14,1.523431348e-14,1.837347199e-14,1.303975271e-13,3.113016834e-14,2.714893709e-14,1.126817031e-14,8.713491086e-15,1.780305009e-14,3.31549852e-14,1.752765082e-14,2.266763302e-14
0.6328125,1.581960657e-14,2.619045241e-14,4.617445842e-14,2.030681473e-14,3.471572665e-14,4.697207593e-14,2.757183118e-14,1.512224667e-14,3.477865474e-15,4.339329064e-15,3.231382769e-14,9.201448799e-15,8.294198917e-15,2.292343408e-14,2.021620198e-14,2.416209308e-14,3.635623041e-14,2.470594825e-14,7.687601516e-15,5.428526933e-14,6.482548975e-14,1.893208303e-14,2.452730998e-14,1.152690355e-13,2.820638111e-14,3.47073256e-14,1.292190171e-14,7.747112587e-15,1.699196381e-14,3.239684159e-14,1.677237318e-14,2.673229312e-14
0.640625,1.321205349e-14,2.255607804e-14,4.645217987e-14,1.854145393e-14,3.95845721e-14,4.347663142e-14,2.679453374e-14,1.248619091e-14,4.243683699e-15,3.752784132e-15,3.064044245e-14,8.155955958e-15,9.700830481e-15,2.834692854e-14,2.870567175e-14,3.282086479e-14,4.693174954e-14,3.029736528e-14,8.89954424e-15,6.037135639e-14,5.050753304e-14,2.231534502e-14,3.196969844e-14,1.066172683e-13,2.562930349e-14,4.237445946e-14,1.40463186e-14,7.538322648e-15,1.528958874e-14,3.009676284e-14,1.628852172e-14,3.205987341e-14
0.6484375,1.050905383e-14,1.894719291e-14,4.590900644e-14,1.835624851e-14,4.581400243e-14,4.226154373e-14,2.662627504e-14,1.007887393e-14,5.147487913e-15,3.199371874e-15,3.035224499e-14,8.064992251e-15,1.096942688e-14,3.729657364e-14,4.166122706e-14,4.518158507e-14,5.856000548e-14,3.639318567e-14,9.572277657e-15,6.472958371e-14,3.779086168e-14,2.484451674e-14,4.03673876e-14,1.049617719e-13,2.377384728e-14,5.020630573e-14,1.537658571e-14,8.078135989e-15,1.405076294e-14,2.638228441e-14,1.638967733e-14,3.872677642e-14
0.65625,8.248379407e-15,1.597552584e-14,4.46372966e-14,2.019501566e-14,5.178931973e-14,4.345021889e-14,2.70936799e-14,8.262318667e-15,6.153062322e-15,2.86602968e-15,3.112121262e-14,8.724182589e-15,1.20888793e-14,4.947354714e-14,5.830892026e-14,6.040455334e-14,7.017506168e-14,4.243921904e-14,9.876897794e-15,6.564645793e-14,2.803392805e-14,2.676698751e-14,4.91981429e-14,1.108039632e-13,2.266648789e-14,5.650584439e-14,1.686906447e-14,9.351714115e-15,1.397713349e-14,2.182290467e-14,1.750806774e-14,4.550648823e-14
0.6640625,6.349057884e-15,1.418095902e-14,4.27294685e-14,2.464258634e-14,5.717419043e-14,4.849753038e-14,2.868166842e-14,7.319253787e-15,7.132283387e-15,2.870826712e-15,3.24259487e-14,9.96805952e-15,1.280344248e-14,6.45671896e-14,7.872191933e-14,7.866144069e-14,8.138045111e-14,4.83510933e-14,9.351668662e-15,6.473768496e-14,2.203799333e-14,2.766452255e-14,5.777228294e-14,1.239595493e-13,2.236970571e-14,6.147240372e-14,1.880608215e-14,1.117142243e-14,1.540739225e-14,1.720663213e-14,2.012541348e-14,5.16258519e-14
0.671875,5.297774552e-15,1.433012521e-14,3.996684237e-14,3.21781322e-14,6.269242432e-14,5.615773259e-14,3.209604855e-14,7.148838921e-15,8.029855432e-15,3.130278525e-15,3.384888518e-14,1.164084806e-14,1.334885338e-14,8.115279993e-14,1.014944851e-13,9.975712708e-14,9.26264445e-14,5.468164737e-14,8.328663641e-15,6.182597093e-14,2.020604236e-14,2.769428934e-14,6.56376445e-14,1.407894854e-13,2.286002165e-14,6.671097192e-14,2.222236355e-14,1.326058948e-14,1.917212455e-14,1.341361012e-14,2.503908396e-14,5.759166676e-14
0.6796875,5.057896378e-15,1.606710061e-14,3.747672373e-14,4.163014033e-14,6.713363089e-14,6.359806387e-14,3.583528478e-14,7.194510364e-15,8.661376696e-15,3.952004344e-15,3.452033373e-14,1.329602991e-14,1.384625192e-14,9.629051856e-14,1.235726145e-13,1.210502599e-13,1.026298466e-13,6.044646665e-14,7.132697046e-15,5.743125265e-14,2.170278657e-14,2.698020176e-14,7.265437508e-14,1.59103654e-13,2.426423448e-14,7.186522093e-14,2.728578603e-14,1.536985877e-14,2.505553429e-14,1.123901186e-14,3.361213066e-14,6.238507641e-14
0.6875,5.659833426e-15,1.896981932e-14,3.519983913e-14,5.166804864e-14,7.017395325e-14,7.073574253e-14,3.866393854e-14,7.635095642e-15,8.995996275e-15,5.499993851e-15,3.497839426e-14,1.481080893e-14,1.440717491e-14,1.088060822e-13,1.432251478e-13,1.402478428e-13,1.098561011e-13,6.48810386e-14,6.130847124e-15,5.16522766e-14,2.637616055e-14,2.565965759e-14,7.738595662e-14,1.770306866e-13,2.551385115e-14,7.579234253e-14,3.281055159e-14,1.72409398e-14,3.177612182e-14,1.065690671e-14,4.56476041e-14,6.541673e-14
0.6953125,6.901890769e-15,2.297885946e-14,3.206571004e-14,6.112534095e-14,7.153677059e-14,7.570759717e-14,4.21773234e-14,7.93290977e-15,8.955092753e-15,7.944736459e-15,3.527734042e-14,1.574013885e-14,1.530992914e-14,1.163881379e-13,1.572165096e-13,1.552394835e-13,1.144604248e-13,6.778851926e-14,5.621650839e-15,4.618957066e-14,3.292992705e-14,2.392966623e-14,7.885917341e-14,1.918462189e-13,2.643163128e-14,7.896611213e-14,3.873664401e-14,1.841966955e-14,3.897702466e-14,1.206758327e-14,6.023345481e-14,6.553073749e-14
0.703125,8.547948058e-15,2.692492859e-14,2.77343665e-14,6.828791652e-14,7.056613997e-14,7.56655011e-14,4.501025381e-14,7.992843715e-15,8.706925491e-15,1.17268052e-14,3.661649572e-14,1.586257095e-14,1.643170664e-14,1.17203993e-13,1.632482211e-13,1.626132797e-13,1.139453052e-13,6.721845091e-14,5.559162761e-15,4.151358794e-14,4.014033355e-14,2.193507235e-14,7.724507504e-14,2.006253159e-13,2.713891349e-14,8.055697592e-14,4.393034751e-14,1.862514809e-14,4.562121446e-14,1.503364311e-14,7.564298138e-14,6.314252755e-14
0.7109375,1.010783495e-14,2.980732454e-14,2.348504411e-14,7.143754341e-14,6.669959877e-14,7.068267152e-14,4.575729433e-14,8.241348905e-15,8.27611677e-15,1.617376931e-14,3.953082619e-14,1.531000772e-14,1.761479425e-14,1.104938463e-13,1.5971537e-13,1.609547507e-13,1.095593104e-13,6.352362282e-14,6.331520058e-15,3.965245555e-14,4.766160244e-14,1.938444692e-14,7.23547031e-14,2.047597777e-13,2.66782983e-14,7.910804786e-14,4.669522997e-14,1.789989442e-14,4.971872717e-14,1.825478012e-14,9.049926322e-14,5.815340273e-14
0.71875,1.142876504e-14,3.162033065e-14,1.976835342e-14,7.071470991e-14,6.025163736e-14,6.336159293e-14,4.531405591e-14,9.206927948e-15,8.009109053e-15,2.138526016e-14,4.496449861e-14,1.478978149e-14,1.868343331e-14,9.914664018e-14,1.483084922e-13,1.505511572e-13,1.024050307e-13,5.621561447e-14,7.435085062e-15,4.235704385e-14,5.506234711e-14,1.649692113e-14,6.446244981e-14,2.045399189e-13,2.437261885e-14,7.434729406e-14,4.665315606e-14,1.625999328e-14,5.117228286e-14,2.153045385e-14,1.041431796e-13,5.111443519e-14
0.7265625,1.238140068e-14,3.262997832e-14,1.649619111e-14,6.7166711e-14,5.20306754e-14,5.445342792e-14,4.417026602e-14,1.154292286e-14,8.042903478e-15,2.707179675e-14,5.354301227e-14,1.421336072e-14,1.93706675e-14,8.434645942e-14,1.304914154e-13,1.338302004e-13,9.604952145e-14,4.672173008e-14,8.880589087e-15,5.20992882e-14,6.169714744e-14,1.352861014e-14,5.418292915e-14,1.991136043e-13,2.11156996e-14,6.687100483e-14,4.391098011e-14,1.379638315e-14,4.967168204e-14,2.454683017e-14,1.132744444e-13,4.257846425e-14
0.734375,1.327872028e-14,3.266697252e-14,1.388398887e-14,6.126009861e-14,4.3178173e-14,4.695221312e-14,4.207971528e-14,1.572618305e-14,8.548022581e-15,3.299146003e-14,6.45557996e-14,1.40266417e-14,1.97564492e-14,6.863166827e-14,1.097585514e-13,1.141008395e-13,9.374116009e-14,3.750644332e-14,1.098991233e-14,6.950168221e-14,6.742654763e-14,1.079835388e-14,4.334009766e-14,1.866133921e-13,1.747017384e-14,5.762378059e-14,3.923048366e-14,1.10405516e-14,4.620466745e-14,2.678023852e-14,1.189020845e-13,3.410362646e-14
0.7421875,1.37521307e-14,3.135010471e-14,1.313058164e-14,5.347046937e-14,3.401560113e-14,4.216253345e-14,4.011152924e-14,2.19100869e-14,9.623344629e-15,3.829850852e-14,7.69088574e-14,1.476152616e-14,1.995448993e-14,5.399678718e-14,8.836474201e-14,9.381178118e-14,9.738095535e-14,2.964660867e-14,1.359644846e-14,9.361257121e-14,7.174831323e-14,8.613651994e-15,3.317763348e-14,1.706990575e-13,1.380899148e-14,4.718531432e-14,3.306726244e-14,8.594913291e-15,4.08963489e-14,2.779033528e-14,1.207355325e-13,2.661611756e-14
0.75,1.365766815e-14,2.946799399e-14,1.385020345e-14,4.541685061e-14,2.57174776e-14,4.15235489e-14,3.952967997e-14,2.981681641e-14,1.121108471e-14,4.334257009e-14,8.923576498e-14,1.684730498e-14,2.000285749e-14,4.241735863e-14,6.99958935e-14,7.588635412e-14,1.068367436e-13,2.366050245e-14,1.634262248e-14,1.210516287e-13,7.445257049e-14,7.375248772e-15,2.485824245e-14,1.506176697e-13,1.081254652e-14,3.700123214e-14,2.68138776e-14,6.443571131e-15,3.503704736e-14,2.89898494e-14,1.180671244e-13,2.107713067e-14
0.7578125,1.297395436e-14,2.684633336e-14,1.570078676e-14,3.754056663e-14,1.905937312e-14,4.532779264e-14,4.085072444e-14,3.80780449e-14,1.294850245e-14,4.73006909e-14,1.003484176e-13,2.055344993e-14,1.990490618e-14,3.516140391e-14,5.621402833e-14,6.236895274e-14,1.221795657e-13,2.069636288e-14,1.933611775e-14,1.483450507e-13,7.492488301e-14,7.106366594e-15,1.931405906e-14,1.273858442e-13,9.080481564e-15,2.850365121e-14,2.124649954e-14,4.891371194e-15,2.910286304e-14,2.978927199e-14,1.095898158e-13,1.832081553e-14
0.765625,1.205622898e-14,2.364161411e-14,1.897093856e-14,3.001702631e-14,1.394826835e-14,5.24866584e-14,4.49699471e-14,4.554110711e-14,1.464766287e-14,5.018153758e-14,1.073053472e-13,2.618785432e-14,1.985020691e-14,3.268524526e-14,4.754089547e-14,5.28627157e-14,1.380297865e-13,2.018329623e-14,2.271134921e-14,1.687287206e-13,7.386417086e-14,8.074164304e-15,1.688076282e-14,1.023189517e-13,8.833634432e-15,2.227482774e-14,1.735683252e-14,4.032400085e-15,2.426330833e-14,2.99157424e-14,9.898416297e-14,1.828344727e-14
0.7734375,1.072750855e-14,2.043896466e-14,2.26798988e-14,2.358152581e-14,1.100476128e-14,6.207341251e-14,5.227785729e-14,5.12072062e-14,1.602074746e-14,5.228546853e-14,1.09260649e-13,3.391536445e-14,1.999274661e-14,3.554804977e-14,4.550718053e-14,4.761512998e-14,1.51712242e-13,2.103001677e-14,2.587061369e-14,1.794528423e-13,7.185669323e-14,1.018569036e-14,1.783186742e-14,7.833150114e-14,1.026157729e-14,1.951855901e-14,1.60875264e-14,4.021869716e-15,2.126863384e-14,2.949953429e-14,8.991642952e-14,2.115315957e-14
0.78125,9.261339085e-15,1.733767968e-14,2.603717432e-14,1.799295013e-14,9.67919902e-15,7.219280419e-14,6.352014248e-14,5.381914934e-14,1.684637161e-14,5.453629236e-14,1.067757906e-13,4.415632265e-14,2.031864957e-14,4.362224528e-14,4.88729919e-14,4.417040365e-14,1.571570701e-13,2.190415004e-14,2.825245193e-14,1.764888582e-13,6.938237334e-14,1.30493558e-14,2.202795622e-14,5.725813488e-14,1.37284239e-14,2.00019132e-14,1.764657644e-14,4.854712892e-15,2.096479709e-14,2.878305704e-14,8.284813068e-14,2.624312415e-14
0.7890625,7.881893692e-15,1.425332476e-14,2.81183343e-14,1.288287761e-14,9.766849198e-15,8.142693311e-14,7.814008588e-14,5.27075499e-14,1.686715901e-14,5.713973189e-14,1.002862442e-13,5.652158027e-14,2.015062311e-14,5.61808778e-14,5.804105926e-14,4.272324324e-14,1.537539575e-13,2.205842219e-14,2.945062899e-14,1.630398612e-13,6.655824498e-14,1.644387385e-14,2.933315338e-14,3.940254184e-14,1.922600455e-14,2.396268931e-14,2.240746112e-14,6.506703769e-15,2.344028994e-14,2.650217438e-14,8.002715139e-14,3.310063973e-14
0.796875,7.546221022e-15,1.234046392e-14,2.904059055e-14,9.255389156e-15,1.090374927e-14,8.930626947e-14,9.520444495e-14,4.908312522e-14,1.638035115e-14,6.08867924e-14,8.950461647e-14,6.933752513e-14,1.962838747e-14,7.08955837e-14,7.168936761e-14,4.330951566e-14,1.445175609e-13,2.153485023e-14,3.023547366e-14,1.426165287e-13,6.577510597e-14,2.021391086e-14,3.939370087e-14,2.628816441e-14,2.686830529e-14,3.05821315e-14,2.99502726e-14,8.903073964e-15,2.868451696e-14,2.307764643e-14,8.660279259e-14,4.071129e-14
0.8046875,8.387073738e-15,1.158840795e-14,2.8166747e-14,6.58406496e-15,1.202163362e-14,9.406357196e-14,1.141765268e-13,4.323735839e-14,1.56825466e-14,6.644634385e-14,7.673976127e-14,8.198229642e-14,1.902203507e-14,8.567129717e-14,8.690731463e-14,4.432755189e-14,1.289826262e-13,1.959221786e-14,3.013610083e-14,1.189255609e-13,6.645898006e-14,2.404807156e-14,5.131463214e-14,1.728864226e-14,3.62941515e-14,3.881557801e-14,3.967953611e-14,1.21390455e-14,3.632202328e-14,1.955614285e-14,1.034394819e-13,4.746002984e-14
0.8125,1.079730608e-14,1.237084342e-14,2.589459663e-14,5.156221731e-15,1.333832813e-14,9.632755171e-14,1.340007479e-13,3.620950702e-14,1.501931917e-14,7.393505926e-14,6.371541925e-14,9.453619182e-14,1.771755861e-14,9.952741349e-14,1.027427421e-13,4.679063592e-14,1.116087084e-13,1.707591358e-14,2.858831595e-14,9.725418735e-14,6.8042654e-14,2.710398102e-14,6.353098431e-14,1.184953229e-14,4.649660998e-14,4.824680215e-14,5.143405618e-14,1.595469187e-14,4.66699828e-14,1.577050221e-14,1.30560513e-13,5.282135917e-14
0.8203125,1.525395044e-14,1.54786687e-14,2.260838775e-14,5.159682808e-15,1.416433963e-14,9.62331756e-14,1.528713232e-13,2.945426552e-14,1.466835393e-14,8.278681414e-14,5.221369644e-14,1.056193398e-13,1.584700749e-14,1.098191288e-13,1.157884819e-13,5.01833019e-14,9.59028703e-14,1.509588118e-14,2.672233337e-14,8.258235348e-14,7.064640298e-14,2.963608836e-14,7.53937006e-14,9.300904181e-15,5.726043311e-14,5.711051715e-14,6.349653427e-14,2.002558866e-14,5.826605512e-14,1.234044607e-14,1.691195495e-13,5.597993723e-14
0.828125,2.109005055e-14,2.025139584e-14,1.89491213e-14,5.920871211e-15,1.370160112e-14,9.393328321e-14,1.685278111e-13,2.428304849e-14,1.508104623e-14,9.219710436e-14,4.363801844e-14,1.141234931e-13,1.383988329e-14,1.146282229e-13,1.230982333e-13,5.295240169e-14,8.279078669e-14,1.40266195e-14,2.477730301e-14,7.80405955e-14,7.325274031e-14,3.110272618e-14,8.460848675e-14,8.727344243e-15,6.695465973e-14,6.330412834e-14,7.412816543e-14,2.424960336e-14,6.937209001e-14,1.003730249e-14,2.141283153e-13,5.564658129e-14
0.8359375,2.762903009e-14,2.601992954e-14,1.641436811e-14,7.370736299e-15,1.251132935e-14,9.037607528e-14,1.817797853e-13,2.110425938e-14,1.644520943e-14,1.018115586e-13,3.906886635e-14,1.20817497e-13,1.182305126e-14,1.148385946e-13,1.244097859e-13,5.585921222e-14,7.411305736e-14,1.416359161e-14,2.255330539e-14,8.289610425e-14,7.405458084e-14,3.15748978e-14,9.005424862e-14,1.011828957e-14,7.450479165e-14,6.729310062e-14,8.325791629e-14,2.830377449e-14,7.990543182e-14,8.960596755e-15,2.585041146e-13,5.242631047e-14
0.84375,3.440499777e-14,3.289977579e-14,1.573508512e-14,9.732509259e-15,1.082655316e-14,8.695914115e-14,1.898020665e-13,2.009821281e-14,1.869139116e-14,1.098717623e-13,3.80561239e-14,1.252146534e-13,9.756279331e-15,1.107587187e-13,1.198544425e-13,5.890141335e-14,7.022665255e-14,1.618019921e-14,1.993542108e-14,9.74345385e-14,7.245261064e-14,3.064765443e-14,9.034611729e-14,1.363666163e-14,7.919658357e-14,6.834643614e-14,8.987222879e-14,3.216373057e-14,8.923258793e-14,8.691724767e-15,3.019288596e-13,4.678951131e-14
0.8515625,4.033637687e-14,3.96251435e-14,1.782718457e-14,1.227403524e-14,8.395009028e-15,8.356834615e-14,1.900983187e-13,2.089945551e-14,2.149866873e-14,1.134868338e-13,3.974180848e-14,1.259374777e-13,8.025052546e-15,1.026796472e-13,1.095652712e-13,6.141247255e-14,6.987313516e-14,1.975658109e-14,1.736825427e-14,1.194947712e-13,6.854449011e-14,2.84418607e-14,8.570450902e-14,1.943400797e-14,8.133772597e-14,6.530548061e-14,9.173052834e-14,3.586462613e-14,9.424075651e-14,8.848903528e-15,3.367918664e-13,3.91734171e-14
0.859375,4.442350617e-14,4.511025076e-14,2.34230444e-14,1.451635363e-14,5.93178978e-15,8.116922053e-14,1.846861519e-13,2.286026345e-14,2.477422493e-14,1.13076144e-13,4.223287428e-14,1.243931777e-13,6.635351022e-15,9.3287515e-14,9.629529025e-14,6.409165124e-14,7.271152582e-14,2.425927437e-14,1.511563115e-14,1.452581234e-13,6.254951706e-14,2.534784336e-14,7.751486363e-14,2.687137262e-14,8.175840468e-14,5.968448733e-14,9.013276267e-14,3.965977738e-14,9.553787218e-14,9.047457581e-15,3.592752669e-13,3.069864327e-14
0.8671875,4.607223148e-14,4.926004311e-14,3.219161979e-14,1.680375646e-14,4.051583748e-15,7.955239907e-14,1.762535667e-13,2.526540089e-14,2.809234436e-14,1.101980967e-13,4.475945059e-14,1.20891149e-13,5.812036617e-15,8.372100712e-14,8.266243835e-14,6.811249217e-14,7.964359153e-14,2.920492204e-14,1.287050312e-14,1.698219045e-13,5.450155555e-14,2.200647041e-14,6.715108676e-14,3.534473964e-14,8.061033263e-14,5.377007601e-14,8.699255087e-14,4.328293122e-14,9.428800058e-14,9.021877711e-15,3.697330731e-13,2.291483534e-14
0.875,4.568803348e-14,5.186404723e-14,4.377962797e-14,1.89929219e-14,2.542365549e-15,7.853032746e-14,1.616460838e-13,2.731746215e-14,3.110213948e-14,1.035918647e-13,4.683528363e-14,1.148128292e-13,5.754684104e-15,7.437914713e-14,6.962940456e-14,7.31063039e-14,9.018568756e-14,3.389088731e-14,1.074567681e-14,1.892714588e-13,4.598382965e-14,1.862500112e-14,5.540818448e-14,4.204972646e-14,7.825297106e-14,4.738763641e-14,8.158866279e-14,4.667617828e-14,9.027351716e-14,8.765472508e-15,3.670214066e-13,1.619592726e-14
0.8828125,4.281185404e-14,5.159248831e-14,5.721894146e-14,2.022585748e-14,1.50409527e-15,7.710586466e-14,1.413286065e-13,2.85230901e-14,3.333398711e-14,9.278129338e-14,4.660253776e-14,1.058185638e-13,6.644626804e-15,6.492440522e-14,5.767318523e-14,7.789945783e-14,1.031523848e-13,3.711928942e-14,8.999420678e-15,1.997117927e-13,3.739301627e-14,1.584909261e-14,4.37827014e-14,4.631891818e-14,7.534219663e-14,4.041170768e-14,7.337192775e-14,4.940654288e-14,8.272891786e-14,8.377256755e-15,3.479819255e-13,1.084568244e-14
0.890625,3.808019839e-14,4.863931365e-14,7.112406154e-14,2.028200649e-14,9.185084686e-16,7.487145621e-14,1.186836335e-13,2.81731625e-14,3.446273153e-14,7.930167579e-14,4.403308966e-14,9.490594841e-14,8.796540439e-15,5.563511373e-14,4.697932032e-14,8.106043645e-14,1.165801944e-13,3.810830303e-14,7.759132074e-15,1.982693062e-13,2.941855333e-14,1.418433687e-14,3.357746097e-14,4.683269652e-14,7.19739126e-14,3.371292186e-14,6.393405842e-14,5.096227936e-14,7.315873654e-14,8.322881419e-15,3.160002102e-13,7.018317397e-15
0.8984375,3.232690034e-14,4.423110664e-14,8.30601371e-14,1.972111147e-14,7.121886134e-16,7.094824186e-14,9.665284786e-14,2.677777916e-14,3.424161734e-14,6.586822687e-14,3.992834699e-14,8.23723355e-14,1.243549803e-14,4.660930182e-14,3.803164949e-14,8.251484146e-14,1.301463584e-13,3.73165873e-14,7.346442552e-15,1.86319222e-13,2.255906526e-14,1.390650932e-14,2.526398061e-14,4.393693363e-14,6.761948828e-14,2.831137232e-14,5.495128067e-14,5.100078588e-14,6.352682769e-14,9.199810575e-15,2.742284213e-13,4.48882494e-15
0.90625,2.640385899e-14,3.858855667e-14,9.002378461e-14,1.846678526e-14,8.733596605e-16,6.430228852e-14,7.518142238e-14,2.458913265e-14,3.267806168e-14,5.289067542e-14,3.538168613e-14,6.868378256e-14,1.759254432e-14,3.801177392e-14,3.030455507e-14,8.136033376e-14,1.410147269e-13,3.456549809e-14,7.771757422e-15,1.650023451e-13,1.686663019e-14,1.503469986e-14,1.899112837e-14,3.801506466e-14,6.184998309e-14,2.403639458e-14,4.631393948e-14,4.893294908e-14,5.413652453e-14,1.088677753e-14,2.27371416e-13,2.955985754e-15
0.9140625,2.082535909e-14,3.197867802e-14,9.232949859e-14,1.643051636e-14,1.348317689e-15,5.609520783e-14,5.490149788e-14,2.196138886e-14,2.990467673e-14,4.038235682e-14,3.072704209e-14,5.52150336e-14,2.413218587e-14,3.051721369e-14,2.380367378e-14,7.662430274e-14,1.469551247e-13,3.056851541e-14,9.118329733e-15,1.39298112e-13,1.263634501e-14,1.729914175e-14,1.431002865e-14,3.11192431e-14,5.413650858e-14,2.019931557e-14,3.787191727e-14,4.486465385e-14,4.492175998e-14,1.302885644e-14,1.798765571e-13,2.08671071e-15
0.921875,1.606559906e-14,2.519536154e-14,9.068916632e-14,1.384565e-14,2.162814187e-15,4.78799827e-14,3.81980515e-14,1.940572467e-14,2.624816654e-14,2.940835622e-14,2.657140973e-14,4.337865827e-14,3.18927906e-14,2.538923218e-14,1.902245579e-14,6.852925323e-14,1.463221451e-13,2.596043389e-14,1.10988614e-14,1.134966077e-13,9.723110289e-15,2.012587311e-14,1.111638216e-14,2.542691033e-14,4.550156774e-14,1.67773465e-14,3.048148326e-14,3.928748581e-14,3.718990442e-14,1.561682737e-14,1.371002013e-13,1.646801081e-15
0.9296875,1.282483288e-14,2.020088338e-14,8.389999373e-14,1.15845921e-14,3.290540997e-15,4.092880359e-14,2.604220756e-14,1.784986455e-14,2.231169326e-14,2.114533163e-14,2.326790164e-14,3.349659535e-14,4.047800177e-14,2.358429784e-14,1.627003114e-14,5.828486237e-14,1.391367663e-13,2.192194288e-14,1.365573482e-14,9.392901156e-14,8.074986159e-15,2.309446926e-14,8.894399452e-15,2.371530907e-14,3.668953636e-14,1.392317954e-14,2.509863674e-14,3.291513685e-14,3.230999887e-14,1.830514742e-14,1.060523601e-13,1.497775141e-15
0.9375,1.131107727e-14,1.702368885e-14,7.248289533e-14,9.962483796e-15,4.800877411e-15,3.704343528e-14,1.727348574e-14,1.732011027e-14,1.806693546e-14,1.55149439e-14,2.111402822e-14,2.622046297e-14,4.870678015e-14,2.546804369e-14,1.595357625e-14,4.756103625e-14,1.262587067e-13,1.908868685e-14,1.634069326e-14,8.48889352e-14,8.085491343e-15,2.538399381e-14,7.439319264e-15,2.732243439e-14,2.828910756e-14,1.192040122e-14,2.149030326e-14,2.638793028e-14,2.942668502e-14,1.978686754e-14,8.986875138e-14,1.353191824e-15
0.9453125,1.103965001e-14,1.540330036e-14,5.96624875e-14,8.770591977e-15,6.280758814e-15,3.755115227e-14,1.189786219e-14,1.789933978e-14,1.414775072e-14,1.211346434e-14,1.934349325e-14,2.141808126e-14,5.573738341e-14,3.02115411e-14,1.716827309e-14,3.690114268e-14,1.090318801e-13,1.761262462e-14,1.863972381e-14,8.753583444e-14,9.645116572e-15,2.674190368e-14,6.841822956e-15,3.724367488e-14,2.132227993e-14,1.013510095e-14,1.892459541e-14,2.064397636e-14,2.773523138e-14,2.008046673e-14,8.596175956e-14,1.39212512e-15
0.953125,1.229748911e-14,1.631395213e-14,4.85388844e-14,8.62764546e-15,7.773115841e-15,4.303950799e-14,9.099467297e-15,1.947492259e-14,1.078697038e-14,1.116235771e-14,1.802133953e-14,1.913141301e-14,6.101171499e-14,3.76430499e-14,1.999831933e-14,2.798998696e-14,8.966716917e-14,1.72189192e-14,1.996794987e-14,1.013544302e-13,1.308357107e-14,2.687236813e-14,7.250663308e-15,5.441572185e-14,1.646216693e-14,8.679393053e-15,1.783713297e-14,1.623322197e-14,2.743578939e-14,1.959438699e-14,9.543086367e-14,1.583537168e-15
0.9609375,1.448106746e-14,1.877904939e-14,3.972202486e-14,9.490248313e-15,9.242927644e-15,5.256592325e-14,7.902403829e-15,2.187499662e-14,7.915425437e-15,1.248279865e-14,1.619895211e-14,1.775155882e-14,6.333925722e-14,4.566699301e-14,2.343396502e-14,2.132047457e-14,6.995016612e-14,1.750903816e-14,2.009453227e-14,1.229640586e-13,1.834675531e-14,2.551457779e-14,8.557294207e-15,7.664822674e-14,1.368497658e-14,7.645806141e-15,1.738607577e-14,1.286499567e-14,2.723498056e-14,1.791277633e-14,1.102084136e-13,1.747108664e-15
0.96875,1.744487597e-14,2.208888322e-14,3.406338803e-14,1.090139826e-14,1.035432505e-14,6.413273732e-14,7.41002035e-15,2.442838387e-14,5.820601275e-15,1.58566837e-14,1.38721678e-14,1.748360302e-14,6.302156413e-14,5.274139681e-14,2.60067369e-14,1.736469692e-14,5.23714903e-14,1.794814452e-14,1.939736418e-14,1.45634501e-13,2.593570951e-14,2.310099985e-14,1.165461598e-14,1.033456754e-13,1.271438781e-14,7.282229698e-15,1.729258527e-14,1.076873779e-14,2.675889004e-14,1.555153574e-14,1.28956545e-13,1.945080797e-15
0.9765625,2.072624327e-14,2.582333006e-14,3.26967096e-14,1.275667276e-14,1.085645508e-14,7.550731431e-14,7.189067093e-15,2.69623284e-14,4.356912251e-15,2.057316207e-14,1.134910951e-14,1.678232953e-14,5.957191783e-14,5.690437925e-14,2.735937992e-14,1.566112837e-14,3.799944101e-14,1.780698152e-14,1.782708867e-14,1.657111119e-13,3.56484747e-14,1.986092657e-14,1.685081588e-14,1.328328709e-13,1.271143629e-14,7.292139123e-15,1.692075121e-14,9.231215769e-15,2.519563324e-14,1.301306685e-14,1.476558123e-13,2.296239764e-15
0.984375,2.436768163e-14,2.919276652e-14,3.565734046e-14,1.440746703e-14,1.078582781e-14,8.447227677e-14,7.087821109e-15,2.946874035e-14,3.5124386e-15,2.596342259e-14,9.01263632e-15,1.507687139e-14,5.357929719e-14,5.699894971e-14,2.666399657e-14,1.472923157e-14,2.705218814e-14,1.656521826e-14,1.584778653e-14,1.767313027e-13,4.732588783e-14,1.613292481e-14,2.524554798e-14,1.610049057e-13,1.337252217e-14,7.959119487e-15,1.555438442e-14,8.03595347e-15,2.228400979e-14,1.094676677e-14,1.61486073e-13,3.083620779e-15
0.9921875,2.883992654e-14,3.264634922e-14,4.326589437e-14,1.601852144e-14,1.036659122e-14,8.97616958e-14,7.11093431e-15,3.108659079e-14,3.255757474e-15,3.123725391e-14,7.693779506e-15,1.285258453e-14,4.594559208e-14,5.386211849e-14,2.504056968e-14,1.437786992e-14,1.934254604e-14,1.473351025e-14,1.431007322e-14,1.784503117e-13,6.097177634e-14,1.250042298e-14,3.708303799e-14,1.853832615e-13,1.453556285e-14,9.35064699e-15,1.377177019e-14,7.212174389e-15,1.935362562e-14,9.853142574e-15,1.774089347e-13,4.569392637e-15
1,3.420429358e-14,3.600218136e-14,5.500626029e-14,1.727952379e-14,9.864568868e-15,8.954402926e-14,7.628994697e-15,3.189177426e-14,3.60255962e-15,3.557595755e-14,7.505407937e-15,1.05511083e-14,3.859716431e-14,4.860382073e-14,2.333172743e-14,1.432259713e-14,1.473883998e-14,1.296901911e-14,1.421410649e-14,1.692694415e-13,7.613262273e-14,9.773473743e-15,5.306054278e-14,2.032790069e-13,1.637237451e-14,1.186025456e-14,1.199269643e-14,6.935986888e-15,1.695698598e-14,1.028191292e-14,1.988746363e-13,7.116391471e-15
1.0078125,3.965260918e-14,3.893704082e-14,6.968870468e-14,1.733705947e-14,9.240750744e-15,8.515074367e-14,8.967085668e-15,3.261991454e-14,4.617728113e-15,3.862420998e-14,8.532925649e-15,8.471343094e-15,3.220113645e-14,4.249762257e-14,2.281926757e-14,1.406400855e-14,1.249293327e-14,1.113688096e-14,1.511689398e-14,1.522234478e-13,9.104737403e-14,7.944920108e-15,7.27950986e-14,2.130332969e-13,1.954873025e-14,1.571746468e-14,1.027643411e-14,7.333119834e-15,1.490024795e-14,1.188312202e-14,2.290473683e-13,1.150841704e-14
1.015625,4.577323839e-14,4.155374627e-14,8.672129255e-14,1.650750059e-14,8.686260276e-15,7.653087652e-14,1.119578815e-14,3.402360837e-14,6.234506985e-15,4.032436314e-14,1.069448819e-14,6.708388331e-15,2.714362251e-14,3.679403813e-14,2.48027467e-14,1.350611487e-14,1.181289934e-14,9.364151077e-15,1.66995327e-14,1.282086551e-13,1.046515563e-13,7.049566563e-15,9.556567638e-14,2.114448603e-13,2.450136225e-14,2.082498499e-14,8.559587363e-15,8.55316835e-15,1.318966519e-14,1.474086553e-14,2.655425521e-13,1.786108182e-14
1.0234375,5.302222643e-14,4.521951611e-14,1.055428834e-13,1.588698449e-14,8.804901407e-15,6.694533579e-14,1.431553402e-14,3.652845662e-14,8.429310435e-15,4.026186862e-14,1.349506246e-14,5.908593531e-15,2.435469639e-14,3.433647005e-14,3.097608837e-14,1.425091453e-14,1.319927818e-14,8.656015229e-15,1.972177387e-14,1.047062792e-13,1.171787695e-13,7.527835991e-15,1.198132933e-13,2.000501301e-13,3.144489091e-14,2.660891885e-14,7.814857505e-15,1.063015029e-14,1.297142475e-14,1.84002137e-14,3.120472322e-13,2.609764429e-14
1.03125,5.932974255e-14,4.858095855e-14,1.23826636e-13,1.477477871e-14,9.709338109e-15,5.679776366e-14,1.766144396e-14,4.073045483e-14,1.08736733e-14,3.921418895e-14,1.597771312e-14,5.561711654e-15,2.376909524e-14,3.527302638e-14,4.137626055e-14,1.729394459e-14,1.689966958e-14,8.361249686e-15,2.259216793e-14,8.424076466e-14,1.263865573e-13,8.665068e-15,1.433017457e-13,1.805673751e-13,4.014458357e-14,3.283643759e-14,8.156675701e-15,1.295112107e-14,1.277535679e-14,2.151886026e-14,3.684793185e-13,3.591565513e-14
1.0390625,6.317898007e-14,4.970127268e-14,1.394413165e-13,1.313554816e-14,1.169618185e-14,4.882879058e-14,2.092163829e-14,4.72696574e-14,1.344962521e-14,3.779182139e-14,1.748712683e-14,5.435332293e-15,2.525898767e-14,4.114083919e-14,5.877966029e-14,2.44291246e-14,2.415830775e-14,8.184346066e-15,2.409312898e-14,6.868667031e-14,1.300191163e-13,1.040390728e-14,1.633857915e-13,1.54628452e-13,4.9707503e-14,3.952980942e-14,9.787670317e-15,1.509294745e-14,1.188202113e-14,2.353282833e-14,4.215904776e-13,4.708131278e-14
1.046875,6.566579039e-14,4.956931902e-14,1.489343388e-13,1.202002513e-14,1.411194781e-14,4.426672857e-14,2.28155659e-14,5.588356985e-14,1.617890775e-14,3.685240674e-14,1.852348446e-14,5.723479736e-15,2.816352513e-14,5.076102435e-14,8.360588993e-14,3.649205939e-14,3.612160264e-14,8.416293995e-15,2.47746623e-14,5.958026294e-14,1.290202493e-13,1.281947976e-14,1.783281366e-13,1.254036377e-13,5.870640795e-14,4.566115495e-14,1.245039543e-14,1.661257717e-14,1.110937545e-14,2.513016989e-14,4.587622691e-13,5.803589166e-14
1.0546875,6.67760816e-14,4.897179991e-14,1.517821283e-13,1.233611104e-14,1.679374962e-14,4.513348368e-14,2.336465614e-14,6.585432928e-14,1.864811484e-14,3.666869828e-14,1.924940514e-14,5.898007248e-15,3.063989765e-14,6.400845315e-14,1.176429568e-13,5.506871111e-14,5.48152646e-14,9.455140383e-15,2.456774921e-14,5.863859647e-14,1.242656542e-13,1.518491527e-14,1.866496479e-13,9.697094977e-14,6.589993601e-14,5.016707258e-14,1.627432842e-14,1.684458956e-14,1.058002749e-14,2.505990173e-14,4.777759517e-13,6.724923377e-14
1.0625,6.49542285e-14,4.61273994e-14,1.478566295e-13,1.367157436e-14,1.975685564e-14,5.165494612e-14,2.311031157e-14,7.587244681e-14,2.031138474e-14,3.740594734e-14,1.971815334e-14,6.246285798e-15,3.310652192e-14,8.062439221e-14,1.59487704e-13,8.072681842e-14,8.111853512e-14,1.174936516e-14,2.272090671e-14,6.318176402e-14,1.150950032e-13,1.727867605e-14,1.874625301e-13,7.134603485e-14,7.095439036e-14,5.415646284e-14,2.181815232e-14,1.604330839e-14,1.040093416e-14,2.321378034e-14,4.710875327e-13,7.430724417e-14
1.0703125,6.072044033e-14,4.114565874e-14,1.365895983e-13,1.563162478e-14,2.238684542e-14,6.290698084e-14,2.214270766e-14,8.464192801e-14,2.136276365e-14,3.925910999e-14,2.071341532e-14,7.243128622e-15,3.517898415e-14,9.860729599e-14,2.076753827e-13,1.11352294e-13,1.128497214e-13,1.585887859e-14,2.012754147e-14,7.27829447e-14,1.020696918e-13,1.939398981e-14,1.805886515e-13,5.016425834e-14,7.284324979e-14,5.774868363e-14,2.849163564e-14,1.463026188e-14,1.107370537e-14,2.068290725e-14,4.335909429e-13,7.855926563e-14
1.078125,5.689070528e-14,3.641063253e-14,1.204025684e-13,1.796297057e-14,2.361406167e-14,7.781289291e-14,2.20177861e-14,9.029572147e-14,2.150233397e-14,4.193255173e-14,2.32167973e-14,9.483843364e-15,3.620465607e-14,1.158755265e-13,2.573874003e-13,1.445486128e-13,1.483333111e-13,2.222825641e-14,1.857337288e-14,8.440192226e-14,8.819466597e-14,2.181105985e-14,1.692536422e-13,3.430683832e-14,7.23350585e-14,6.0827744e-14,3.602900056e-14,1.318322341e-14,1.303151201e-14,1.795144051e-14,3.732178939e-13,7.900116671e-14
1.0859375,5.342139063e-14,3.219651509e-14,1.014213371e-13,2.085817564e-14,2.418537378e-14,9.491091392e-14,2.353446564e-14,9.193655102e-14,2.056360564e-14,4.441938231e-14,2.683231243e-14,1.372025371e-14,3.5973745e-14,1.339491854e-13,3.092149813e-13,1.788761743e-13,1.843694886e-13,3.046952542e-14,1.732737055e-14,9.548777948e-14,7.44298219e-14,2.384109199e-14,1.553806896e-13,2.340249323e-14,7.178786349e-14,6.47347e-14,4.544895195e-14,1.246149288e-14,1.644497844e-14,1.487511396e-14,2.983012959e-13,7.653291496e-14
1.09375,5.073761037e-14,2.887008996e-14,8.156411729e-14,2.382152423e-14,2.406049553e-14,1.124466687e-13,2.663707693e-14,8.929926601e-14,1.871667138e-14,4.668371335e-14,3.149506237e-14,1.964205221e-14,3.543594087e-14,1.50173218e-13,3.566741751e-13,2.096339089e-13,2.16295798e-13,4.035298034e-14,1.719689536e-14,1.035540457e-13,6.19321368e-14,2.537814906e-14,1.396038753e-13,1.747038265e-14,7.158788837e-14,6.960486971e-14,5.578243459e-14,1.341491394e-14,2.110273916e-14,1.254176263e-14,2.247553559e-13,7.225548603e-14
1.1015625,4.921436641e-14,2.677965975e-14,6.28305411e-14,2.615961781e-14,2.342623453e-14,1.281473764e-13,3.208030094e-14,8.252357118e-14,1.618568673e-14,4.84879104e-14,3.76144327e-14,2.735902091e-14,3.407696232e-14,1.637348191e-13,3.946590378e-13,2.313154126e-13,2.382195984e-13,4.991660977e-14,1.814116228e-14,1.078830473e-13,5.116489526e-14,2.657625851e-14,1.239002284e-13,1.521421877e-14,7.210944209e-14,7.472493887e-14,6.595530212e-14,1.608511982e-14,2.595589056e-14,1.102892649e-14,1.581123061e-13,6.661430168e-14
1.109375,4.92511072e-14,2.607678869e-14,4.788497952e-14,2.888970517e-14,2.345946748e-14,1.406138485e-13,3.883335827e-14,7.2816954e-14,1.326034959e-14,4.835645283e-14,4.477138231e-14,3.590356578e-14,3.246084079e-14,1.757787735e-13,4.239277711e-13,2.429101e-13,2.471586582e-13,5.745633973e-14,1.947225931e-14,1.062444047e-13,4.254080995e-14,2.717706713e-14,1.099506025e-13,1.588283547e-14,7.473816241e-14,7.954323065e-14,7.631265972e-14,2.01806617e-14,3.09717714e-14,1.037413502e-14,1.036091951e-13,6.064688501e-14
1.1171875,4.97924105e-14,2.59788373e-14,3.728009577e-14,3.184580634e-14,2.454952412e-14,1.489174366e-13,4.535828112e-14,6.190358908e-14,1.046132929e-14,4.607567906e-14,5.227104669e-14,4.359548194e-14,3.156484989e-14,1.861223765e-13,4.474073087e-13,2.438895339e-13,2.427709087e-13,6.225827214e-14,2.099438863e-14,1.00282663e-13,3.592787697e-14,2.71707598e-14,9.79450626e-14,1.809648606e-14,7.876030303e-14,8.316871315e-14,8.510094473e-14,2.497864649e-14,3.527127074e-14,1.051234651e-14,6.55188799e-14,5.529424372e-14
1.125,5.112969362e-14,2.66971464e-14,3.132128722e-14,3.524762357e-14,2.67693117e-14,1.514479799e-13,5.016406234e-14,5.008605858e-14,8.162618428e-15,4.227479243e-14,6.119656246e-14,4.936467147e-14,3.090851106e-14,1.930477904e-13,4.642177247e-13,2.341754643e-13,2.242184799e-13,6.25330925e-14,2.163767481e-14,8.945019043e-14,3.184478362e-14,2.642461e-14,8.763710829e-14,2.15091241e-14,8.221821734e-14,8.460817516e-14,9.064718142e-14,2.945666885e-14,3.824620404e-14,1.15452493e-14,4.236971137e-14,5.103046954e-14
1.1328125,5.240054012e-14,2.818418332e-14,2.927982854e-14,3.943387487e-14,3.03597044e-14,1.483399912e-13,5.232617961e-14,3.977732104e-14,6.997484983e-15,3.725878191e-14,7.128691126e-14,5.296756579e-14,3.035618496e-14,1.975236794e-13,4.801980722e-13,2.175605088e-13,1.957404496e-13,5.886166841e-14,2.138456285e-14,7.64299372e-14,2.952801561e-14,2.469341411e-14,7.902584011e-14,2.508421795e-14,8.391894647e-14,8.368559733e-14,9.323318583e-14,3.25404822e-14,4.0233801e-14,1.310082223e-14,3.066258626e-14,4.810712082e-14
1.140625,5.23820001e-14,2.905059477e-14,3.080723189e-14,4.277166882e-14,3.362011131e-14,1.401816509e-13,5.128963441e-14,3.148811565e-14,7.153508455e-15,3.093833127e-14,8.062524127e-14,5.303399402e-14,3.09529159e-14,1.970424316e-13,4.928652611e-13,1.961178792e-13,1.621758286e-13,5.276571137e-14,2.055507442e-14,6.297895415e-14,2.81821815e-14,2.248724938e-14,7.189113354e-14,2.751746869e-14,8.361332318e-14,7.915943587e-14,9.162130283e-14,3.362203203e-14,4.055664734e-14,1.433906035e-14,2.769905052e-14,4.547796546e-14
1.1484375,5.041992138e-14,2.843521014e-14,3.551694024e-14,4.414646389e-14,3.54584876e-14,1.258236685e-13,4.809373272e-14,2.49705849e-14,8.94779054e-15,2.428978827e-14,8.886314025e-14,4.9320545e-14,3.231227548e-14,1.87929713e-13,4.956872351e-13,1.70861227e-13,1.261517977e-13,4.448451032e-14,1.877505223e-14,5.041228321e-14,2.743530215e-14,2.057666226e-14,6.631795191e-14,2.84726692e-14,8.039640951e-14,7.127005378e-14,8.446713668e-14,3.186124932e-14,3.796257873e-14,1.437708904e-14,3.082091766e-14,4.331833696e-14
1.15625,4.784719265e-14,2.722985297e-14,4.306657317e-14,4.413775919e-14,3.612614323e-14,1.073219396e-13,4.367591865e-14,2.024510899e-14,1.221314159e-14,1.805773029e-14,9.614321001e-14,4.36301292e-14,3.316345528e-14,1.711477538e-13,4.878072557e-13,1.450565488e-13,9.218464631e-14,3.581853457e-14,1.607852769e-14,4.101510617e-14,2.799545355e-14,1.837514848e-14,6.188960545e-14,2.81931865e-14,7.364169113e-14,6.161152968e-14,7.34768736e-14,2.773259027e-14,3.354482697e-14,1.369050389e-14,3.817077245e-14,4.176266949e-14
1.1640625,4.432671149e-14,2.552631557e-14,5.214151783e-14,4.177840285e-14,3.470830891e-14,8.708001554e-14,3.937283725e-14,1.665533005e-14,1.615744651e-14,1.274371089e-14,1.023892657e-13,3.803230528e-14,3.372767066e-14,1.491170079e-13,4.68772691e-13,1.209755819e-13,6.41930264e-14,2.883073683e-14,1.355459476e-14,3.591433216e-14,2.885207166e-14,1.595004487e-14,5.881732876e-14,2.611992749e-14,6.498164457e-14,5.128873553e-14,6.114598043e-14,2.253629457e-14,2.855545845e-14,1.304512211e-14,4.761865278e-14,3.957721778e-14
1.171875,4.014990539e-14,2.231091381e-14,6.206723398e-14,3.664154511e-14,3.046152293e-14,6.628484318e-14,3.698464595e-14,1.367110616e-14,2.04095165e-14,8.367618541e-15,1.05177234e-13,3.326070004e-14,3.451806062e-14,1.216774191e-13,4.311833911e-13,9.765468635e-14,4.299850273e-14,2.434252251e-14,1.164411375e-14,3.438178828e-14,2.999652237e-14,1.391126116e-14,5.737037944e-14,2.279791986e-14,5.560891393e-14,3.997604025e-14,4.721578342e-14,1.685680572e-14,2.231059275e-14,1.238299598e-14,5.911720962e-14,3.625977703e-14
1.1796875,3.662470899e-14,1.847719219e-14,7.284314205e-14,3.046387019e-14,2.506512407e-14,4.732375027e-14,3.754697565e-14,1.109602471e-14,2.434541157e-14,5.297100874e-15,1.053424593e-13,3.084561944e-14,3.488332941e-14,9.354678445e-14,3.793194849e-13,7.698653919e-14,2.820815309e-14,2.272154005e-14,1.013920436e-14,3.561257716e-14,3.135713519e-14,1.226237681e-14,5.744666964e-14,1.913500335e-14,4.752619935e-14,2.964716184e-14,3.383916014e-14,1.196327292e-14,1.609382335e-14,1.218609164e-14,7.096332413e-14,3.289759954e-14
1.1875,3.49958708e-14,1.545589474e-14,8.485024448e-14,2.449605023e-14,1.972980238e-14,3.182939401e-14,4.195247002e-14,8.748324188e-15,2.678293421e-14,3.200043592e-15,1.037980412e-13,3.064638702e-14,3.475784632e-14,6.803756079e-14,3.203983407e-13,6.037132944e-14,2.0045102e-14,2.49766565e-14,9.841838896e-15,3.958934275e-14,3.38875579e-14,1.078739666e-14,5.922461083e-14,1.638071229e-14,4.10059267e-14,2.136226012e-14,2.296511668e-14,8.430524073e-15,1.132327177e-14,1.412514157e-14,8.297417734e-14,2.971954889e-14
1.1953125,3.462171071e-14,1.270976323e-14,9.739512339e-14,1.890451796e-14,1.465184529e-14,2.002849753e-14,5.074248446e-14,6.757336299e-15,2.755789329e-14,2.044785727e-15,9.982392428e-14,3.312919248e-14,3.46162717e-14,4.692425972e-14,2.578949127e-13,4.626072909e-14,1.557057796e-14,2.952699889e-14,1.074846607e-14,4.351362664e-14,3.723021667e-14,9.945535032e-15,6.297193118e-14,1.554677936e-14,3.767811262e-14,1.536563087e-14,1.481776117e-14,6.34103207e-15,7.517310956e-15,1.796540996e-14,8.961419321e-14,2.666357e-14
1.203125,3.626214576e-14,1.072472849e-14,1.095438384e-13,1.478122955e-14,1.058516734e-14,1.216518138e-14,6.33445491e-14,5.016182039e-15,2.648950981e-14,1.631509375e-15,9.312013077e-14,3.717568306e-14,3.477082164e-14,3.141303496e-14,1.970276654e-13,3.520536398e-14,1.33549066e-14,3.60206385e-14,1.300518319e-14,4.520792292e-14,4.098764681e-14,1.00950997e-14,6.814466551e-14,1.746848039e-14,3.742218904e-14,1.108704041e-14,9.07121419e-15,5.71210926e-15,5.053726743e-15,2.332894352e-14,9.054523139e-14,2.353090977e-14
1.2109375,4.020524677e-14,1.035428894e-14,1.211618332e-13,1.294946746e-14,8.090448887e-15,7.788542303e-15,7.869215141e-14,3.624857769e-15,2.388996916e-14,1.861748613e-15,8.458050216e-14,4.204920589e-14,3.476314035e-14,2.14430459e-14,1.429947738e-13,2.718487431e-14,1.234862604e-14,4.32176343e-14,1.630345034e-14,4.495305911e-14,4.576802909e-14,1.132569266e-14,7.459196093e-14,2.328468219e-14,4.042263714e-14,8.697702034e-15,5.610201907e-15,5.937314368e-15,3.719036736e-15,2.948483416e-14,8.798055544e-14,2.068859328e-14
1.21875,4.575001092e-14,1.197881767e-14,1.309919303e-13,1.335356159e-14,7.061594756e-15,6.173434976e-15,9.500327286e-14,2.593760928e-15,2.04010066e-14,2.759875933e-15,7.577404851e-14,4.691792827e-14,3.494673948e-14,1.627613641e-14,1.008573097e-13,2.241227112e-14,1.180986779e-14,4.947523157e-14,2.006134966e-14,4.27077487e-14,5.222521069e-14,1.409043624e-14,8.195815009e-14,3.416036751e-14,4.640407458e-14,8.173352527e-15,4.122232e-15,6.516409091e-15,3.239444855e-15,3.558697751e-14,8.508002869e-14,1.874988681e-14
1.2265625,5.222079254e-14,1.551985382e-14,1.393829361e-13,1.551692627e-14,6.971286791e-15,6.875769702e-15,1.115085573e-13,1.955061619e-15,1.701991774e-14,4.24554177e-15,6.642528094e-14,5.145362396e-14,3.524859655e-14,1.373716566e-14,6.776909161e-14,1.895654914e-14,1.073418889e-14,5.318853437e-14,2.388691077e-14,3.777490815e-14,6.038588115e-14,1.834599714e-14,9.070937747e-14,5.107817732e-14,5.443576688e-14,8.905028294e-15,3.626799062e-15,7.082712397e-15,3.202592508e-15,4.057233373e-14,8.235570021e-14,1.777297005e-14
1.234375,6.057560193e-14,2.21892443e-14,1.451396984e-13,1.96048062e-14,7.726615287e-15,9.457912775e-15,1.263834785e-13,1.619006665e-15,1.439603867e-14,6.50096267e-15,5.637475836e-14,5.54365075e-14,3.51867963e-14,1.283008945e-14,4.481820338e-14,1.725864353e-14,9.867126191e-15,5.443813604e-14,2.74252073e-14,3.111428185e-14,7.128124122e-14,2.41235516e-14,1.009361102e-13,7.473589301e-14,6.2991791e-14,1.076366406e-14,3.762986815e-15,7.662912474e-15,3.938029386e-15,4.44973412e-14,8.484048797e-14,1.780423241e-14
1.2421875,7.080006093e-14,3.238532337e-14,1.471813172e-13,2.487786958e-14,8.879855119e-15,1.397794246e-14,1.357119778e-13,1.659309463e-15,1.313261211e-14,9.23304699e-15,4.647545134e-14,5.822558285e-14,3.380524199e-14,1.236045495e-14,2.973018148e-14,1.691697121e-14,9.451237829e-15,5.208374941e-14,2.966682444e-14,2.373228769e-14,8.500745455e-14,3.061924238e-14,1.120669841e-13,1.044638673e-13,7.114722371e-14,1.356011932e-14,4.482025567e-15,7.935701804e-15,5.457006849e-15,4.701519785e-14,1.019732054e-13,1.891051719e-14
1.25,8.17180755e-14,4.591797243e-14,1.450544532e-13,3.045476041e-14,1.032401353e-14,2.007357014e-14,1.373547506e-13,2.065739495e-15,1.402327772e-14,1.219094072e-14,3.780300286e-14,6.014726002e-14,3.157471681e-14,1.200443578e-14,2.106667154e-14,1.786805188e-14,9.664514641e-15,4.693185795e-14,3.026156785e-14,1.748983215e-14,1.017979792e-13,3.635897676e-14,1.237619355e-13,1.376424247e-13,7.72751467e-14,1.688021853e-14,5.197686353e-15,7.824839483e-15,7.965044483e-15,4.82257838e-14,1.350267499e-13,2.158409e-14
1.2578125,9.29171469e-14,6.195028885e-14,1.405560843e-13,3.474226287e-14,1.173179291e-14,2.653176246e-14,1.323813582e-13,3.071338556e-15,1.689306962e-14,1.510926177e-14,3.058220817e-14,6.026836151e-14,2.915559697e-14,1.108838872e-14,1.635861096e-14,1.919628776e-14,1.028646035e-14,4.012202254e-14,2.962547904e-14,1.245573401e-14,1.2191033e-13,4.083613144e-14,1.361596636e-13,1.734250642e-13,7.983753514e-14,2.072227594e-14,5.704208996e-15,7.720859418e-15,1.122245024e-14,4.953081136e-14,1.856631734e-13,2.620704113e-14
1.265625,1.045573962e-13,8.003564459e-14,1.328504176e-13,3.762818507e-14,1.297441586e-14,3.368304296e-14,1.202128236e-13,4.942201536e-15,2.153565757e-14,1.758583311e-14,2.465510906e-14,5.895343534e-14,2.604216914e-14,9.841556935e-15,1.432782544e-14,2.013813243e-14,1.150756676e-14,3.214886496e-14,2.781955545e-14,8.58707084e-15,1.435687157e-13,4.441741354e-14,1.472934157e-13,2.079475305e-13,7.686651317e-14,2.472788342e-14,5.751812611e-15,7.965830778e-15,1.526553919e-14,5.240098268e-14,2.557256881e-13,3.264686971e-14
1.2734375,1.160703343e-13,9.805787391e-14,1.227001786e-13,3.835790129e-14,1.415202645e-14,4.014997541e-14,1.025197117e-13,7.898793508e-15,2.797933256e-14,1.956844612e-14,2.005441782e-14,5.672190537e-14,2.198404862e-14,8.618937216e-15,1.484013554e-14,2.17907233e-14,1.284731064e-14,2.421133137e-14,2.498120054e-14,5.818252174e-15,1.648435216e-13,4.587669181e-14,1.574278526e-13,2.351661748e-13,7.027622508e-14,2.924628795e-14,5.659863998e-15,8.405675884e-15,1.974638227e-14,5.71688371e-14,3.326859109e-13,4.093904152e-14
1.28125,1.254118576e-13,1.133456111e-13,1.12849824e-13,3.672249893e-14,1.518513639e-14,4.492952811e-14,8.340075656e-14,1.193580551e-14,3.487364884e-14,2.053457716e-14,1.596709696e-14,5.3121206e-14,1.78514784e-14,7.531231629e-15,1.667124496e-14,2.262412819e-14,1.379766205e-14,1.737338493e-14,2.162899654e-14,4.648361039e-15,1.846892548e-13,4.453767792e-14,1.646749379e-13,2.545140463e-13,6.057784539e-14,3.372715897e-14,5.543362082e-15,9.041136478e-15,2.403488101e-14,6.391668144e-14,4.077828769e-13,4.977128982e-14
1.2890625,1.316822832e-13,1.238888639e-13,1.053607436e-13,3.258896965e-14,1.610372327e-14,4.77253009e-14,6.553212277e-14,1.692879858e-14,4.108437883e-14,2.02084533e-14,1.229355732e-14,4.813926249e-14,1.439523171e-14,6.546740474e-15,1.917025833e-14,2.246965735e-14,1.456949878e-14,1.208656113e-14,1.813205032e-14,4.939992327e-15,2.00379253e-13,4.118191854e-14,1.682297771e-13,2.629305398e-13,4.941128904e-14,3.804299894e-14,5.666652007e-15,9.991752428e-15,2.748811913e-14,7.326325829e-14,4.746984691e-13,5.823100074e-14
1.296875,1.340428503e-13,1.279331327e-13,1.00272689e-13,2.697372256e-14,1.674560106e-14,4.785563081e-14,5.159821297e-14,2.268658506e-14,4.62718899e-14,1.910370275e-14,9.111293437e-15,4.262730715e-14,1.160772476e-14,6.205876565e-15,2.346875616e-14,2.168120594e-14,1.534837401e-14,8.583808302e-15,1.510447421e-14,6.514355345e-15,2.09647645e-13,3.780585765e-14,1.672523087e-13,2.600031869e-13,3.776127242e-14,4.184670054e-14,5.97193263e-15,1.118453984e-14,2.941506913e-14,8.387149798e-14,5.334736408e-13,6.586117225e-14
1.3046875,1.341668566e-13,1.271629369e-13,9.746205786e-14,2.17304844e-14,1.680439045e-14,4.590735656e-14,4.415559584e-14,2.865266199e-14,5.060858215e-14,1.810693555e-14,6.423621452e-15,3.850618689e-14,9.463059202e-15,6.63598909e-15,2.854275992e-14,1.972906428e-14,1.593306234e-14,6.183762265e-15,1.285335487e-14,9.399316524e-15,2.119128003e-13,3.507837911e-14,1.623544487e-13,2.464406628e-13,2.814007071e-14,4.434032734e-14,7.586386625e-15,1.264115929e-14,3.129302674e-14,9.601461791e-14,5.802508535e-13,7.113818566e-14
1.3125,1.313169925e-13,1.198754931e-13,9.631118606e-14,1.65666955e-14,1.669620164e-14,4.214318624e-14,4.308132941e-14,3.395431993e-14,5.247484899e-14,1.656588654e-14,4.309019184e-15,3.490527298e-14,7.890899114e-15,7.430878641e-15,3.375312511e-14,1.777943594e-14,1.653038278e-14,5.011378685e-15,1.148236228e-14,1.381933259e-14,2.062048745e-13,3.372566487e-14,1.531147055e-13,2.233133848e-13,2.131514077e-14,4.559994085e-14,1.006431257e-14,1.439693551e-14,3.195350165e-14,1.086393981e-13,6.10139867e-13,7.286390499e-14
1.3203125,1.256327836e-13,1.065522404e-13,9.689350046e-14,1.198998038e-14,1.63571691e-14,3.697884954e-14,4.789789013e-14,3.812182826e-14,5.21363991e-14,1.46873344e-14,2.479185431e-15,3.229133851e-14,6.704963614e-15,8.570048045e-15,3.949436642e-14,1.600789762e-14,1.741720434e-14,4.71856477e-15,1.092882622e-14,1.954857785e-14,1.937294598e-13,3.418819503e-14,1.413094755e-13,1.94755217e-13,1.761986174e-14,4.635325536e-14,1.298896907e-14,1.604553243e-14,3.09079256e-14,1.191673501e-13,6.358002827e-13,7.146319759e-14
1.328125,1.186983393e-13,9.074497085e-14,9.672671773e-14,8.959313648e-15,1.504122424e-14,3.129123439e-14,5.7203995e-14,4.054672825e-14,5.012730375e-14,1.333261858e-14,1.408113381e-15,3.161184561e-14,5.947446034e-15,9.611105866e-15,4.384757416e-14,1.386187631e-14,1.819181705e-14,4.684855681e-15,1.112995769e-14,2.662465119e-14,1.759678132e-13,3.67301132e-14,1.276125636e-13,1.642821031e-13,1.699287137e-14,4.566300763e-14,1.698443491e-14,1.749343933e-14,2.99675071e-14,1.275460068e-13,6.643360937e-13,6.647557475e-14
1.3359375,1.134898598e-13,7.479740875e-14,9.491436523e-14,7.640957541e-15,1.276886655e-14,2.614012178e-14,6.793065451e-14,4.102313953e-14,4.663341429e-14,1.23224413e-14,1.321245196e-15,3.207509128e-14,5.309308026e-15,9.926380055e-15,4.462687941e-14,1.15367569e-14,1.837190287e-14,4.611704403e-15,1.196388437e-14,3.438818281e-14,1.547433124e-13,4.079728216e-14,1.138247814e-13,1.338654296e-13,1.873784279e-14,4.298457816e-14,2.114153274e-14,1.912508417e-14,2.974432122e-14,1.346374003e-13,6.923471567e-13,5.857003692e-14
1.34375,1.10355734e-13,5.946803804e-14,9.093356282e-14,8.251384821e-15,1.049314941e-14,2.181708642e-14,7.786327723e-14,3.985453703e-14,4.208907875e-14,1.11345564e-14,2.155932897e-15,3.379332378e-14,4.606724559e-15,1.018092879e-14,4.386418971e-14,1.01315001e-14,1.891283308e-14,4.597987393e-15,1.338842459e-14,4.188586941e-14,1.318849067e-13,4.512193795e-14,1.00871332e-13,1.048448312e-13,2.248677637e-14,3.946573162e-14,2.469094486e-14,2.080781357e-14,2.986673823e-14,1.400541827e-13,7.140699691e-13,4.907550752e-14
1.3515625,1.102585737e-13,4.678247067e-14,8.510450045e-14,1.03969583e-14,8.307044141e-15,1.848417727e-14,8.472672845e-14,3.662231131e-14,3.694829308e-14,1.018296577e-14,4.128095506e-15,3.618476657e-14,3.9155046e-15,1.085839049e-14,4.248767598e-14,9.767316319e-15,1.950439524e-14,4.478979734e-15,1.46745854e-14,4.915102175e-14,1.10431098e-13,4.842031947e-14,8.945958882e-14,7.985318495e-14,2.677859605e-14,3.58976993e-14,2.787526327e-14,2.283702847e-14,3.110977693e-14,1.445792426e-13,7.380055044e-13,3.929331081e-14
1.359375,1.136948306e-13,3.755985922e-14,7.881557938e-14,1.396023199e-14,6.691639656e-15,1.62869834e-14,8.920564324e-14,3.227328349e-14,3.143867664e-14,9.623420261e-15,7.449911961e-15,3.841592011e-14,3.204069843e-15,1.302148947e-14,4.153358104e-14,1.062770451e-14,1.957958026e-14,4.286773876e-15,1.594723839e-14,5.517264752e-14,9.162669829e-14,5.032799595e-14,8.028949226e-14,5.987344454e-14,3.13993248e-14,3.226344131e-14,3.10901559e-14,2.533957048e-14,3.428194554e-14,1.491555164e-13,7.571000702e-13,3.071705342e-14
1.3671875,1.207374744e-13,3.198580594e-14,7.200295453e-14,1.945806362e-14,6.441556002e-15,1.504922947e-14,8.950318032e-14,2.746776232e-14,2.578613044e-14,9.389680342e-15,1.223096261e-14,4.005378132e-14,2.358795615e-15,1.836867364e-14,4.569942519e-14,1.390360131e-14,2.031391114e-14,4.339133111e-15,1.731111169e-14,5.769180974e-14,7.52276471e-14,4.939039592e-14,7.37332971e-14,4.362557277e-14,3.481303792e-14,2.898603678e-14,3.360101333e-14,2.863062129e-14,3.921901256e-14,1.528863749e-13,7.601403299e-13,2.483716728e-14
1.375,1.296535879e-13,3.044831801e-14,6.533506396e-14,2.555146675e-14,7.033504133e-15,1.510620097e-14,8.657756201e-14,2.225580014e-14,2.063218965e-14,9.759823215e-15,1.798379294e-14,4.217336666e-14,1.704113509e-15,2.696541926e-14,5.631249374e-14,1.992636834e-14,2.209240592e-14,4.595432899e-15,1.806921108e-14,5.767353263e-14,6.166228139e-14,4.517315874e-14,6.934362462e-14,3.126201085e-14,3.698620989e-14,2.650468702e-14,3.647381382e-14,3.276837165e-14,4.577840092e-14,1.556629496e-13,7.566969809e-13,2.105309646e-14
1.3828125,1.403552232e-13,3.270574027e-14,6.103882053e-14,3.206894014e-14,8.600925705e-15,1.634685611e-14,8.125942937e-14,1.714011269e-14,1.599954168e-14,1.101991934e-14,2.519012428e-14,4.465937412e-14,1.404299966e-15,3.96823108e-14,7.526968347e-14,2.920794068e-14,2.48777392e-14,4.839227434e-15,1.783895627e-14,5.560651812e-14,5.225384197e-14,3.939046018e-14,6.635208198e-14,2.26818115e-14,3.687749122e-14,2.469163151e-14,4.055502119e-14,3.873847828e-14,5.423201191e-14,1.603284526e-13,7.641313835e-13,2.016749443e-14
1.390625,1.535047413e-13,3.832440174e-14,6.08850802e-14,3.945751942e-14,1.108508244e-14,1.846767078e-14,7.535817751e-14,1.258249988e-14,1.172309427e-14,1.327888651e-14,3.328153302e-14,4.72406423e-14,1.142283729e-15,5.627663755e-14,1.04042144e-13,4.238226152e-14,2.955753001e-14,5.521328392e-15,1.792683091e-14,4.990200015e-14,4.695980666e-14,3.320437092e-14,6.494661443e-14,1.699642228e-14,3.567023929e-14,2.297694523e-14,4.564482373e-14,4.635302612e-14,6.432359551e-14,1.665331638e-13,7.619378563e-13,2.161309847e-14
1.3984375,1.647019983e-13,4.576451485e-14,6.230682718e-14,4.569879736e-14,1.33081909e-14,2.077541224e-14,6.920733655e-14,9.00344516e-15,8.231189959e-15,1.651716558e-14,4.162629232e-14,4.918508665e-14,1.128862664e-15,7.369901128e-14,1.403155021e-13,5.934935647e-14,3.738849345e-14,6.666418847e-15,1.791672611e-14,4.156607058e-14,4.427189786e-14,2.599435763e-14,6.443081568e-14,1.329462941e-14,3.39027953e-14,2.093760517e-14,5.056960519e-14,5.437722419e-14,7.25664399e-14,1.683314207e-13,7.569301596e-13,2.424296824e-14
1.40625,1.723541331e-13,5.255691911e-14,6.596901306e-14,4.954417255e-14,1.462954386e-14,2.337287321e-14,6.418938962e-14,6.359253765e-15,5.733674301e-15,2.078502077e-14,4.920416217e-14,5.153337134e-14,1.572137132e-15,9.08336084e-14,1.791191556e-13,7.759913639e-14,4.608337237e-14,7.464728673e-15,1.687965561e-14,3.365504869e-14,4.382840011e-14,1.892189577e-14,6.448554557e-14,1.18883235e-14,3.301735721e-14,1.915016198e-14,5.62877215e-14,6.334857193e-14,7.839791287e-14,1.670875257e-13,7.567599227e-13,2.670520919e-14
1.4140625,1.776875049e-13,5.848833809e-14,7.224601937e-14,5.220895973e-14,1.558740955e-14,2.603903231e-14,6.053872988e-14,4.832592967e-15,4.095020181e-15,2.622641902e-14,5.660055653e-14,5.427967042e-14,2.405164098e-15,1.067818883e-13,2.180601111e-13,9.620566904e-14,5.528641024e-14,7.928662668e-15,1.545035786e-14,2.618113241e-14,4.586699778e-14,1.326288415e-14,6.512139496e-14,1.302133865e-14,3.349860443e-14,1.764248672e-14,6.289856527e-14,7.305822742e-14,8.261152302e-14,1.646115129e-13,7.472543407e-13,2.881313509e-14
1.421875,1.801079259e-13,6.386255614e-14,7.927815055e-14,5.398182055e-14,1.607824669e-14,2.826597677e-14,5.85561707e-14,4.322932685e-15,3.167069778e-15,3.300008867e-14,6.416480475e-14,5.697758575e-14,3.719836495e-15,1.200648689e-13,2.553120496e-13,1.155735871e-13,6.530307129e-14,8.436485882e-15,1.463285422e-14,1.896185073e-14,5.05005543e-14,9.037262067e-15,6.706171731e-14,1.714215209e-14,3.707097316e-14,1.601570988e-14,6.981995499e-14,8.226594407e-14,8.46630419e-14,1.593854972e-13,7.125420722e-13,3.055060054e-14
1.4296875,1.763048861e-13,6.610910608e-14,8.524187059e-14,5.262066749e-14,1.499757457e-14,2.908240484e-14,5.706917511e-14,4.792664669e-15,2.977977309e-15,4.090167306e-14,7.101983721e-14,5.862529969e-14,5.782787361e-15,1.2749508e-13,2.824176808e-13,1.313807819e-13,7.444986768e-14,8.833194004e-15,1.412928935e-14,1.350040177e-14,5.594438921e-14,5.985945256e-15,6.918544369e-14,2.447158511e-14,4.34082554e-14,1.380463124e-14,7.423673063e-14,8.977584956e-14,8.187129829e-14,1.488235206e-13,6.65994623e-13,3.040781277e-14
1.4375,1.670268912e-13,6.376064539e-14,9.052916221e-14,4.879135994e-14,1.305254436e-14,2.8777634e-14,5.507543215e-14,6.147940415e-15,3.374269616e-15,4.862327085e-14,7.553162386e-14,5.9317591e-14,8.93601105e-15,1.299976734e-13,2.963569119e-13,1.413011372e-13,7.90786288e-14,8.789310022e-15,1.385357369e-14,1.063313868e-14,6.14763785e-14,4.35079822e-15,7.262521644e-14,3.546964406e-14,5.200704743e-14,1.24485207e-14,7.625726314e-14,9.582579973e-14,7.553078134e-14,1.35845845e-13,6.035583539e-13,2.863155822e-14
1.4453125,1.546422252e-13,5.936458546e-14,9.400492042e-14,4.46637414e-14,1.17036294e-14,2.720095952e-14,5.311383254e-14,8.331456312e-15,4.414787442e-15,5.645431529e-14,7.984467142e-14,6.007487451e-14,1.297478833e-14,1.30473944e-13,3.022909566e-13,1.484975228e-13,8.161018989e-14,9.668811169e-15,1.415709217e-14,1.055608394e-14,6.662699961e-14,3.448637047e-15,7.796664503e-14,4.92913286e-14,6.231738801e-14,1.294010105e-14,7.751812368e-14,1.000264733e-13,6.796298227e-14,1.21081767e-13,5.182259924e-13,2.720601858e-14
1.453125,1.388722227e-13,5.370647439e-14,9.428736951e-14,4.003393859e-14,1.076576982e-14,2.440950199e-14,5.019461816e-14,1.124133368e-14,5.894886029e-15,6.357012736e-14,8.292016185e-14,5.990754771e-14,1.781008387e-14,1.281086476e-13,2.986682503e-13,1.540496742e-13,8.412258526e-14,1.208047716e-14,1.517508168e-14,1.33664888e-14,7.153340375e-14,3.208975812e-15,8.466559034e-14,6.557031748e-14,7.310608111e-14,1.460725571e-14,7.734600602e-14,1.009239782e-13,5.921745823e-14,1.052684976e-13,4.245328962e-13,2.598049478e-14
1.4609375,1.206208639e-13,4.666512398e-14,9.167318699e-14,3.522386068e-14,1.027045698e-14,2.063190246e-14,4.535925676e-14,1.509077051e-14,7.897207218e-15,6.831168644e-14,8.289961171e-14,5.860744584e-14,2.351691708e-14,1.241901519e-13,2.881337729e-13,1.584584874e-13,8.760935012e-14,1.685311158e-14,1.717229846e-14,1.93790787e-14,7.508000078e-14,3.498743368e-15,9.205995065e-14,8.248334992e-14,8.362854489e-14,1.776650028e-14,7.551792066e-14,9.903203942e-14,5.059298574e-14,8.965794958e-14,3.352273082e-13,2.449334254e-14
1.46875,1.018020326e-13,3.907779071e-14,8.681089489e-14,3.091608526e-14,1.074399475e-14,1.724912131e-14,3.844374882e-14,1.93013187e-14,1.02240201e-14,6.953879381e-14,7.922207771e-14,5.572547525e-14,2.949752766e-14,1.191110595e-13,2.72238799e-13,1.651737533e-13,9.682730695e-14,2.507202579e-14,1.930111225e-14,2.946512231e-14,7.713267558e-14,3.741614775e-15,1.009288529e-13,9.840620234e-14,9.340675428e-14,2.339635233e-14,7.313233299e-14,9.512214606e-14,4.258706549e-14,7.474219599e-14,2.57821085e-13,2.406596416e-14
1.4765625,8.380290951e-14,3.140708741e-14,7.883511977e-14,2.673800249e-14,1.220146801e-14,1.419338261e-14,3.165620389e-14,2.415312076e-14,1.287836116e-14,6.876188083e-14,7.404686671e-14,5.195017177e-14,3.479877535e-14,1.134354113e-13,2.533867082e-13,1.737268642e-13,1.127505315e-13,3.579326413e-14,2.117631456e-14,4.380099023e-14,7.749322402e-14,3.742423705e-15,1.109157e-13,1.11079904e-13,1.011217256e-13,3.140782685e-14,7.04276787e-14,8.847248238e-14,3.507153585e-14,5.998881432e-14,1.930824467e-13,2.59347226e-14
1.484375,6.845032091e-14,2.478446032e-14,6.83926874e-14,2.329241937e-14,1.473437415e-14,1.191406548e-14,2.523603263e-14,3.005879992e-14,1.5450179e-14,6.59166143e-14,6.818739542e-14,4.657790842e-14,3.95078877e-14,1.068761534e-13,2.334822602e-13,1.860534227e-13,1.384274916e-13,4.964593001e-14,2.294741867e-14,6.195182893e-14,7.572259239e-14,3.705027992e-15,1.211300331e-13,1.186855614e-13,1.056583779e-13,4.13167153e-14,6.840739651e-14,7.881974616e-14,2.918621915e-14,4.71422432e-14,1.494890552e-13,2.965117913e-14
1.4921875,5.647894291e-14,1.95852401e-14,5.613817366e-14,2.070907048e-14,1.801705576e-14,1.104923609e-14,1.98896458e-14,3.644086078e-14,1.812356102e-14,6.177898354e-14,6.296711378e-14,4.100978718e-14,4.372983777e-14,1.007291158e-13,2.148996937e-13,2.020840759e-13,1.74714046e-13,6.57973587e-14,2.413050367e-14,8.21493118e-14,7.22367014e-14,3.66108114e-15,1.306661688e-13,1.213646411e-13,1.094847536e-13,5.245774328e-14,6.759146891e-14,6.827753528e-14,2.480523602e-14,3.685647737e-14,1.309384632e-13,3.475462379e-14
1.5,4.961060207e-14,1.590416424e-14,4.468694434e-14,1.858108789e-14,2.170324482e-14,1.181759949e-14,1.552983765e-14,4.354118542e-14,2.121626708e-14,5.768320215e-14,5.960070241e-14,3.522197367e-14,4.591598913e-14,9.348827594e-14,1.95971474e-13,2.189160038e-13,2.191001555e-13,8.278712451e-14,2.424038791e-14,1.022293534e-13,6.757154881e-14,3.42122092e-15,1.384904497e-13,1.201948871e-13,1.098676365e-13,6.385798464e-14,6.624424599e-14,5.79008253e-14,2.110449796e-14,2.87455085e-14,1.354588721e-13,4.187942064e-14
1.5078125,4.810180844e-14,1.38449351e-14,3.494296109e-14,1.64243589e-14,2.548963027e-14,1.379494946e-14,1.355293724e-14,5.209351845e-14,2.467255697e-14,5.500806405e-14,5.973490252e-14,2.978425859e-14,4.542995616e-14,8.395401196e-14,1.747072967e-13,2.328207142e-13,2.681394626e-13,9.91024324e-14,2.362979785e-14,1.206961005e-13,6.100483646e-14,2.943803671e-15,1.435411951e-13,1.138176552e-13,1.060485837e-13,7.439995879e-14,6.346630505e-14,4.722354279e-14,1.752512622e-14,2.262824468e-14,1.582582963e-13,5.070623731e-14
1.515625,5.186745771e-14,1.397882216e-14,2.611786105e-14,1.448250474e-14,2.945238402e-14,1.650999819e-14,1.439437462e-14,6.166549063e-14,2.797798811e-14,5.446170234e-14,6.361922419e-14,2.587308011e-14,4.334992339e-14,7.344792735e-14,1.531571959e-13,2.442750153e-13,3.21160968e-13,1.144690581e-13,2.270009167e-14,1.348659694e-13,5.360727165e-14,2.395046034e-15,1.464509517e-13,1.046932009e-13,9.917414254e-14,8.394369385e-14,6.011335821e-14,3.673235716e-14,1.458179532e-14,1.925774849e-14,1.912995554e-13,5.979157649e-14
1.5234375,5.994948325e-14,1.675163013e-14,1.94297886e-14,1.286264907e-14,3.28395859e-14,1.952276255e-14,1.769857183e-14,7.15708858e-14,3.180849149e-14,5.718227903e-14,7.163837807e-14,2.542305152e-14,4.029471869e-14,6.288811968e-14,1.308966136e-13,2.492573602e-13,3.710113816e-13,1.277988468e-13,2.16461783e-14,1.429834995e-13,4.565784324e-14,1.902817717e-15,1.452713156e-13,9.451022045e-14,9.017397067e-14,9.015296132e-14,5.585191527e-14,2.838218231e-14,1.242504985e-14,1.899073679e-14,2.362155345e-13,6.693996526e-14
1.53125,7.165535457e-14,2.225268533e-14,1.573453022e-14,1.106276416e-14,3.477503731e-14,2.246871293e-14,2.392658501e-14,8.170730056e-14,3.673292153e-14,6.389330048e-14,8.408713383e-14,2.921455526e-14,3.594356735e-14,5.250707522e-14,1.084619963e-13,2.47874167e-13,4.161308678e-13,1.394369757e-13,2.070289492e-14,1.44316392e-13,3.776096192e-14,1.54092759e-15,1.40377008e-13,8.474088988e-14,7.895875593e-14,9.199886435e-14,5.004536044e-14,2.30932417e-14,1.080005286e-14,2.172991813e-14,2.866362778e-13,7.251798922e-14
1.5390625,8.57228446e-14,3.009098436e-14,1.353035776e-14,9.377886946e-15,3.525822783e-14,2.470546898e-14,3.325915063e-14,9.150492421e-14,4.255510088e-14,7.341287925e-14,9.843242708e-14,3.760820874e-14,3.044594738e-14,4.331016231e-14,8.925789005e-14,2.411198776e-13,4.537342564e-13,1.486909277e-13,1.991526451e-14,1.397197699e-13,3.010432124e-14,1.283439751e-15,1.325684241e-13,7.588728643e-14,6.640157791e-14,8.978483846e-14,4.351118154e-14,2.059883732e-14,1.023485234e-14,2.687756413e-14,3.27312161e-13,7.587264063e-14
1.546875,1.007276814e-13,3.935021854e-14,1.209918183e-14,8.370452059e-15,3.552842177e-14,2.568256529e-14,4.492562244e-14,9.973923409e-14,4.869030651e-14,8.421560511e-14,1.115734405e-13,5.083688146e-14,2.46593054e-14,3.760508828e-14,7.703036575e-14,2.333496289e-13,4.847193999e-13,1.560357426e-13,1.92933115e-14,1.301037219e-13,2.313024818e-14,1.204827936e-15,1.23472897e-13,6.765168973e-14,5.429663921e-14,8.578925105e-14,3.829909958e-14,2.107722364e-14,1.115636001e-14,3.396570928e-14,3.511283035e-13,7.644999687e-14
1.5546875,1.141939403e-13,4.92905718e-14,1.142900448e-14,7.670723547e-15,3.455949649e-14,2.534944474e-14,5.834997007e-14,1.056283973e-13,5.499965559e-14,9.593196081e-14,1.231002177e-13,6.855635714e-14,1.93456568e-14,3.554114869e-14,7.279582771e-14,2.260697392e-13,5.061242687e-13,1.616252149e-13,1.898679573e-14,1.16355397e-13,1.760642922e-14,1.526298363e-15,1.145067019e-13,5.96023549e-14,4.349420877e-14,7.965027103e-14,3.513324572e-14,2.439532222e-14,1.345506639e-14,4.208221605e-14,3.658745174e-13,7.38542479e-14
1.5625,1.252861519e-13,5.953971209e-14,1.128208991e-14,7.489442534e-15,3.151356636e-14,2.409930257e-14,7.380123282e-14,1.084417364e-13,6.113758953e-14,1.090365897e-13,1.340188657e-13,8.964319016e-14,1.451307036e-14,3.778907952e-14,7.910558192e-14,2.218835662e-13,5.185777957e-13,1.648768937e-13,1.870035689e-14,9.952592481e-14,1.402605324e-14,2.451068631e-15,1.081152977e-13,5.264795472e-14,3.524428636e-14,7.169694016e-14,3.418348268e-14,2.94649787e-14,1.703014034e-14,5.096772298e-14,3.63574244e-13,6.927475358e-14
1.5703125,1.324093715e-13,6.730699442e-14,1.098412157e-14,7.92823148e-15,2.793007092e-14,2.212324482e-14,9.071990581e-14,1.081989151e-13,6.63336964e-14,1.2139327e-13,1.399721288e-13,1.112623151e-13,1.039514871e-14,4.389619484e-14,9.596451858e-14,2.23448488e-13,5.22848549e-13,1.660292154e-13,1.853737542e-14,8.266638237e-14,1.279628752e-14,4.164399947e-15,1.066850355e-13,4.821303608e-14,2.979145267e-14,6.501494062e-14,3.600302582e-14,3.487999259e-14,2.107391358e-14,5.908345234e-14,3.386600414e-13,6.457167615e-14
1.578125,1.355231182e-13,7.11693782e-14,1.021992839e-14,8.530624083e-15,2.508544306e-14,2.001091762e-14,1.045039712e-13,1.05550048e-13,7.002295387e-14,1.299371406e-13,1.393553947e-13,1.306333828e-13,7.094359736e-15,5.247492311e-14,1.202900019e-13,2.31873686e-13,5.22062983e-13,1.649077304e-13,1.822002913e-14,6.771205728e-14,1.392920454e-14,6.663497343e-15,1.11637965e-13,4.593093176e-14,2.746296367e-14,6.213618926e-14,4.051843694e-14,4.004707351e-14,2.463797922e-14,6.571315533e-14,2.933978018e-13,6.088661928e-14
1.5859375,1.346520327e-13,7.138065419e-14,9.965150999e-15,8.999633558e-15,2.257131042e-14,1.816581705e-14,1.161600808e-13,1.001808983e-13,7.150779713e-14,1.349145424e-13,1.338509191e-13,1.463994382e-13,4.735317874e-15,6.273924568e-14,1.491057033e-13,2.45548359e-13,5.154801472e-13,1.612036166e-13,1.79736376e-14,5.295028856e-14,1.810361348e-14,1.02777496e-14,1.242089181e-13,4.460017847e-14,2.823752747e-14,6.349416963e-14,4.765465481e-14,4.372303275e-14,2.776163231e-14,7.106448895e-14,2.456951358e-13,5.871580416e-14
1.59375,1.313425315e-13,6.913117756e-14,1.031706512e-14,9.602208924e-15,2.029476695e-14,1.750850288e-14,1.251757695e-13,9.231190897e-14,7.018699559e-14,1.367992062e-13,1.250390609e-13,1.555798347e-13,3.118918744e-15,7.262815021e-14,1.787634263e-13,2.599249968e-13,4.988160535e-13,1.529065639e-13,1.724345722e-14,4.024388042e-14,2.549636525e-14,1.482526263e-14,1.430080901e-13,4.545924875e-14,3.241543128e-14,6.841608126e-14,5.619802939e-14,4.520436277e-14,3.039002088e-14,7.514730603e-14,1.978667499e-13,5.816507327e-14
1.6015625,1.265578142e-13,6.392424672e-14,1.140366885e-14,9.767221618e-15,1.860617554e-14,1.775382902e-14,1.303384524e-13,8.34527248e-14,6.645049507e-14,1.347467535e-13,1.119097165e-13,1.577044312e-13,2.276288905e-15,8.02448358e-14,2.025207639e-13,2.696639922e-13,4.720222409e-13,1.407109754e-13,1.653917019e-14,3.135388783e-14,3.655475416e-14,2.006585021e-14,1.673898643e-13,4.910907e-14,3.965931661e-14,7.626662651e-14,6.393092016e-14,4.410421095e-14,3.13724273e-14,7.649594623e-14,1.506005663e-13,5.970747122e-14
1.609375,1.230644136e-13,5.731705044e-14,1.346223884e-14,9.429113232e-15,1.729134798e-14,1.882820208e-14,1.307044509e-13,7.443026804e-14,6.142913438e-14,1.288006149e-13,9.597417625e-14,1.541843104e-13,1.954783627e-15,8.550735598e-14,2.16458163e-13,2.711320421e-13,4.370329148e-13,1.250356727e-13,1.593131164e-14,2.627999932e-14,5.090414151e-14,2.541948398e-14,1.940787526e-13,5.329844097e-14,5.008448466e-14,8.524396972e-14,6.981640397e-14,4.198323642e-14,3.087758869e-14,7.727193709e-14,1.095951463e-13,6.206505e-14
1.6171875,1.214722986e-13,5.064183417e-14,1.661189092e-14,8.940493749e-15,1.649256369e-14,2.040039194e-14,1.274880992e-13,6.595723418e-14,5.512442445e-14,1.192135572e-13,7.92794941e-14,1.452550734e-13,2.08955725e-15,8.714562884e-14,2.195002986e-13,2.630451253e-13,3.948601487e-13,1.07273308e-13,1.554411051e-14,2.466650902e-14,6.70150127e-14,3.113129384e-14,2.190082333e-13,5.571044227e-14,6.330102308e-14,9.418758753e-14,7.346581987e-14,3.894518185e-14,2.92887153e-14,7.73218857e-14,8.12032227e-14,6.453439398e-14
1.625,1.221813206e-13,4.577825187e-14,2.164539968e-14,8.393567643e-15,1.566092511e-14,2.117514219e-14,1.220243707e-13,5.803743686e-14,4.764571769e-14,1.077017436e-13,6.348291494e-14,1.326675501e-13,2.723559125e-15,8.403695426e-14,2.090520171e-13,2.425347258e-13,3.436823997e-13,8.79797324e-14,1.559887045e-14,2.55113761e-14,8.307610996e-14,3.660738771e-14,2.371781902e-13,5.557477016e-14,7.7404797e-14,9.984029889e-14,7.402130664e-14,3.533034155e-14,2.708115003e-14,7.624626886e-14,6.377624508e-14,6.559738544e-14
1.6328125,1.255872581e-13,4.351341302e-14,2.911814775e-14,8.450604981e-15,1.506708537e-14,2.12437974e-14,1.150487166e-13,5.152072863e-14,4.012018357e-14,9.498161743e-14,4.916231589e-14,1.184273892e-13,3.784983265e-15,7.848550488e-14,1.902565457e-13,2.137738902e-13,2.88385485e-13,6.942892549e-14,1.634043408e-14,2.88075543e-14,9.810566639e-14,4.113965455e-14,2.47290067e-13,5.332845783e-14,9.07879458e-14,1.015849686e-13,7.163254454e-14,3.185013719e-14,2.467657154e-14,7.399298615e-14,5.556911301e-14,6.5131745e-14
1.640625,1.31612501e-13,4.394735807e-14,3.849299231e-14,9.314091754e-15,1.43674128e-14,2.078348097e-14,1.068412236e-13,4.649353525e-14,3.368149585e-14,8.238924736e-14,3.719676676e-14,1.045615207e-13,5.460477196e-15,7.096846645e-14,1.651547902e-13,1.789264377e-13,2.313889126e-13,5.230109438e-14,1.728594957e-14,3.363206494e-14,1.093081377e-13,4.415880647e-14,2.462657863e-13,4.822553075e-14,1.013139641e-13,9.763382798e-14,6.635115624e-14,3.026336267e-14,2.267950627e-14,7.263105167e-14,5.269819496e-14,6.243569385e-14
1.6484375,1.39788498e-13,4.645291017e-14,5.0134211e-14,1.092020725e-14,1.367323093e-14,1.945555305e-14,9.837677657e-14,4.246541358e-14,2.766277989e-14,6.961527908e-14,2.733929857e-14,9.00381511e-14,7.459969299e-15,6.087234538e-14,1.395657867e-13,1.440615094e-13,1.789316324e-13,3.938550641e-14,1.943513018e-14,3.938292319e-14,1.156283222e-13,4.718032136e-14,2.353610007e-13,4.149087569e-14,1.059004815e-13,8.902612209e-14,5.902667768e-14,3.019821062e-14,2.090692806e-14,7.306394669e-14,5.186108665e-14,5.792155659e-14
1.65625,1.467930565e-13,4.995196613e-14,6.377006667e-14,1.299095042e-14,1.3258578e-14,1.732611094e-14,9.123233381e-14,3.871128087e-14,2.198524577e-14,5.785987647e-14,1.999655994e-14,7.619549571e-14,9.402155781e-15,5.062766631e-14,1.190346174e-13,1.145210765e-13,1.343491308e-13,3.122742127e-14,2.227622818e-14,4.431595305e-14,1.161336304e-13,4.994580384e-14,2.150246452e-13,3.624856657e-14,1.043433461e-13,7.716344703e-14,5.185247811e-14,3.178411322e-14,1.990116375e-14,7.442868857e-14,5.278505094e-14,5.176604915e-14
1.6640625,1.508565153e-13,5.321529256e-14,7.778720448e-14,1.447911533e-14,1.29712135e-14,1.563213592e-14,8.434283155e-14,3.512534691e-14,1.723182954e-14,4.818404616e-14,1.542588152e-14,6.409069054e-14,1.13708618e-14,4.261119486e-14,1.100354146e-13,9.535586812e-14,1.015043699e-13,2.759370237e-14,2.478336635e-14,4.758858984e-14,1.11772098e-13,5.149211617e-14,1.880304982e-13,3.451000232e-14,9.662951586e-14,6.407436254e-14,4.64807154e-14,3.57503138e-14,2.022381633e-14,7.746854298e-14,5.848330846e-14,4.470673529e-14
1.671875,1.525379624e-13,5.590572244e-14,8.955718693e-14,1.508319726e-14,1.232419416e-14,1.472458977e-14,7.627680894e-14,3.095933258e-14,1.335911211e-14,3.998877737e-14,1.318031991e-14,5.27361144e-14,1.335781219e-14,3.758589812e-14,1.147103467e-13,8.708981807e-14,8.034166413e-14,2.773978171e-14,2.675813357e-14,4.810637904e-14,1.039411372e-13,5.214933752e-14,1.582475989e-13,3.854943595e-14,8.377438884e-14,5.143093039e-14,4.38003853e-14,4.256486357e-14,2.202995435e-14,8.337973863e-14,6.923688094e-14,3.719797912e-14
1.6796875,1.530100425e-13,5.786099001e-14,9.827552725e-14,1.522914128e-14,1.176324855e-14,1.474560134e-14,6.828083022e-14,2.630535075e-14,1.037610625e-14,3.365075652e-14,1.349431169e-14,4.306314925e-14,1.514155032e-14,3.772424606e-14,1.352626695e-13,9.076133337e-14,7.186182752e-14,3.082844954e-14,2.846801421e-14,4.604224606e-14,9.514489446e-14,5.325988476e-14,1.316358706e-13,4.773936089e-14,6.882012886e-14,4.237366051e-14,4.532585883e-14,5.212898481e-14,2.546723711e-14,9.280383033e-14,8.655162838e-14,3.071146897e-14
1.6875,1.505739973e-13,5.829133272e-14,1.030628618e-13,1.480555401e-14,1.120091574e-14,1.604896411e-14,6.073110147e-14,2.139745995e-14,8.443485891e-15,3.025786298e-14,1.675498119e-14,3.632822872e-14,1.68285087e-14,4.385263928e-14,1.688040912e-13,1.027414009e-13,7.228305829e-14,3.485160871e-14,2.953217881e-14,4.174523384e-14,8.74101902e-14,5.468434729e-14,1.104496202e-13,6.213881744e-14,5.455702947e-14,3.780385446e-14,5.132953463e-14,6.390239374e-14,3.055788811e-14,1.055816696e-13,1.15230864e-13,2.529098646e-14
1.6953125,1.466344814e-13,5.876624756e-14,1.02723136e-13,1.424148989e-14,1.088596789e-14,1.893206375e-14,5.28287422e-14,1.69421433e-14,7.653405303e-15,2.998624229e-14,2.316337325e-14,3.228468019e-14,1.834311862e-14,5.547983497e-14,2.116803568e-13,1.198541098e-13,7.970415707e-14,3.892294705e-14,2.965051724e-14,3.735087785e-14,8.201238178e-14,5.572936273e-14,9.584858419e-14,7.866119363e-14,4.276137546e-14,3.812778843e-14,6.095421219e-14,7.633833359e-14,3.700912132e-14,1.221242006e-13,1.530708874e-13,2.133380184e-14
1.703125,1.414076921e-13,5.851352777e-14,9.603423687e-14,1.41339407e-14,1.113905168e-14,2.338968332e-14,4.561156062e-14,1.299623759e-14,7.869014629e-15,3.285813237e-14,3.222538786e-14,3.190349298e-14,1.970833711e-14,7.079649666e-14,2.553982612e-13,1.368467171e-13,8.978882559e-14,4.142260972e-14,2.911286837e-14,3.508324818e-14,8.081504174e-14,5.650111873e-14,8.894107287e-14,9.366752396e-14,3.516514698e-14,4.312536405e-14,7.268373777e-14,8.774907374e-14,4.39915152e-14,1.396032044e-13,1.899165191e-13,1.898041518e-14
1.7109375,1.364989389e-13,5.780979478e-14,8.551133867e-14,1.48628631e-14,1.204818649e-14,2.898318386e-14,4.093698098e-14,1.051021192e-14,8.918537391e-15,3.927778198e-14,4.338340439e-14,3.504186096e-14,2.092345887e-14,8.763007549e-14,2.949385025e-13,1.503085021e-13,1.000378432e-13,4.183838311e-14,2.866336739e-14,3.571466979e-14,8.342772961e-14,5.736816963e-14,8.862708955e-14,1.061741321e-13,3.164001744e-14,5.074067364e-14,8.405119126e-14,9.780156467e-14,5.09282909e-14,1.575906601e-13,2.275267882e-13,1.781648384e-14
1.71875,1.325433593e-13,5.704264881e-14,7.348629994e-14,1.608308045e-14,1.327054379e-14,3.453710289e-14,3.915419587e-14,9.41801874e-15,1.086687439e-14,4.925879216e-14,5.63140035e-14,4.158466075e-14,2.204990879e-14,1.028923829e-13,3.226844272e-13,1.573684424e-13,1.07983068e-13,4.049437111e-14,2.8606768e-14,4.013676581e-14,8.954471359e-14,5.864619024e-14,9.355985386e-14,1.152835682e-13,3.177290055e-14,5.893149996e-14,9.318758227e-14,1.054902119e-13,5.699646381e-14,1.747283696e-13,2.595341264e-13,1.752901821e-14
1.7265625,1.294401271e-13,5.635856997e-14,6.032359174e-14,1.717847252e-14,1.490333585e-14,3.943728832e-14,4.014240442e-14,1.010843505e-14,1.339289197e-14,6.229186692e-14,6.974809146e-14,4.974184851e-14,2.258230637e-14,1.122863475e-13,3.347946972e-13,1.567058547e-13,1.122794108e-13,3.711840236e-14,2.882069419e-14,4.717849739e-14,9.743280874e-14,5.937129897e-14,1.008789935e-13,1.180814011e-13,3.42570755e-14,6.612089507e-14,9.837562978e-14,1.082867007e-13,6.129308719e-14,1.888344757e-13,2.720811586e-13,1.773482793e-14
1.734375,1.259655094e-13,5.46314131e-14,4.73477026e-14,1.767137741e-14,1.643172047e-14,4.343915587e-14,4.320847916e-14,1.209039049e-14,1.552514947e-14,7.617993449e-14,8.16751026e-14,5.708631504e-14,2.184465897e-14,1.140760738e-13,3.311873417e-13,1.488844775e-13,1.118374995e-13,3.243247153e-14,2.906130011e-14,5.388349319e-14,1.063097978e-13,5.860372209e-14,1.08108817e-13,1.16875391e-13,3.742171057e-14,6.997053141e-14,9.760023375e-14,1.054830283e-13,6.246795313e-14,1.965987579e-13,2.640696972e-13,1.757062883e-14
1.7421875,1.235456347e-13,5.263710965e-14,3.665246185e-14,1.737517387e-14,1.713272767e-14,4.570572573e-14,4.6768163e-14,1.521490418e-14,1.779605707e-14,9.026452997e-14,9.102871915e-14,6.383780154e-14,2.038300329e-14,1.092403656e-13,3.126685255e-13,1.344953482e-13,1.051278359e-13,2.720864924e-14,2.905410932e-14,5.806753277e-14,1.129177389e-13,5.602371003e-14,1.12191147e-13,1.138598353e-13,4.048121989e-14,6.862870033e-14,9.147366358e-14,1.003128943e-13,6.135911403e-14,1.989476146e-13,2.387657783e-13,1.652413269e-14
1.75,1.215644285e-13,4.972263823e-14,2.938152317e-14,1.603067933e-14,1.74175139e-14,4.557184758e-14,5.002063373e-14,1.953808261e-14,2.009139095e-14,1.017255033e-13,9.613893695e-14,6.748760183e-14,1.829893079e-14,9.745950458e-14,2.852860012e-13,1.175867745e-13,9.514135825e-14,2.197121479e-14,2.891977174e-14,5.858244884e-14,1.160671031e-13,5.283697339e-14,1.133791313e-13,1.097905624e-13,4.210345947e-14,6.348686278e-14,8.061398849e-14,9.280648582e-14,5.748035492e-14,1.95569408e-13,2.021459903e-13,1.564150602e-14
1.7578125,1.181571459e-13,4.638153446e-14,2.486831193e-14,1.437030641e-14,1.749578e-14,4.331729863e-14,5.26162789e-14,2.442708953e-14,2.140010501e-14,1.099206105e-13,9.810621127e-14,6.765978785e-14,1.542104952e-14,8.193248599e-14,2.554474862e-13,1.003883634e-13,8.211522734e-14,1.690104432e-14,2.813229288e-14,5.498337154e-14,1.138112382e-13,4.842987632e-14,1.10250586e-13,1.037490429e-13,4.197211902e-14,5.579288762e-14,6.73976044e-14,8.256035084e-14,5.169452607e-14,1.873390861e-13,1.577991336e-13,1.452822278e-14
1.765625,1.124024916e-13,4.271243957e-14,2.225866545e-14,1.306383952e-14,1.679723948e-14,3.977822826e-14,5.366562724e-14,2.903393695e-14,2.141728438e-14,1.139258299e-13,9.7052288e-14,6.482229741e-14,1.19351141e-14,6.595416765e-14,2.280971947e-13,8.457130373e-14,6.727396422e-14,1.256979887e-14,2.644845244e-14,4.836951718e-14,1.08259634e-13,4.223736148e-14,1.033841076e-13,9.879468363e-14,3.977557476e-14,4.630498399e-14,5.373016628e-14,7.07245146e-14,4.470357536e-14,1.754547018e-13,1.122783632e-13,1.280846148e-14
1.7734375,1.057959734e-13,4.001708736e-14,2.188869249e-14,1.32952201e-14,1.56139985e-14,3.591298519e-14,5.285339191e-14,3.365876591e-14,2.117694734e-14,1.153341699e-13,9.497560651e-14,6.170470268e-14,8.867362495e-15,5.29854165e-14,2.101439468e-13,7.275972306e-14,5.271785791e-14,9.180319554e-15,2.370796468e-14,4.248444232e-14,9.936573412e-14,3.509474528e-14,9.303521886e-14,9.656300854e-14,3.621510472e-14,3.651088965e-14,4.183886656e-14,6.060792037e-14,3.818722949e-14,1.621610813e-13,7.306115101e-14,1.110735109e-14
1.78125,9.957731304e-14,3.873847271e-14,2.395648098e-14,1.559602934e-14,1.480124686e-14,3.22779047e-14,5.068859607e-14,3.717168916e-14,2.027147624e-14,1.145464521e-13,9.38027683e-14,5.94898432e-14,6.515158723e-15,4.567946046e-14,2.063809353e-13,6.649242451e-14,4.10885185e-14,6.578832668e-15,2.075793234e-14,3.938962617e-14,8.988911464e-14,2.87666716e-14,8.247654978e-14,9.714418927e-14,3.213164837e-14,2.908719012e-14,3.360986669e-14,5.303070867e-14,3.304152419e-14,1.505847541e-13,4.350128318e-14,1.000852894e-14
1.7890625,9.356901193e-14,3.947044609e-14,2.868916848e-14,1.99890757e-14,1.364145007e-14,2.893661486e-14,4.896347943e-14,3.893065025e-14,1.860605758e-14,1.143714693e-13,9.744949496e-14,5.999430917e-14,4.947754678e-15,4.391750338e-14,2.156113001e-13,6.506080696e-14,3.315875332e-14,4.675641271e-15,1.792252371e-14,4.007482288e-14,8.189982154e-14,2.364856836e-14,7.217323826e-14,9.967919857e-14,2.804068525e-14,2.422192097e-14,2.960038272e-14,4.791681839e-14,3.017976201e-14,1.427024796e-13,2.540773151e-14,8.902907082e-15
1.796875,8.99491787e-14,4.332289424e-14,3.588520362e-14,2.68217218e-14,1.212704505e-14,2.709931295e-14,4.831549578e-14,3.884451939e-14,1.645165288e-14,1.177114125e-13,1.069493425e-13,6.535673409e-14,3.975258256e-15,4.889603014e-14,2.391591655e-13,6.811779649e-14,2.919033051e-14,3.17085977e-15,1.594840445e-14,4.583314897e-14,8.049813315e-14,2.018168382e-14,6.530653134e-14,1.073304451e-13,2.495812884e-14,2.226623868e-14,2.977680882e-14,4.54256119e-14,3.020552152e-14,1.400288072e-13,1.907460453e-14,8.11031062e-15
1.8046875,8.872390567e-14,4.972955898e-14,4.478468254e-14,3.572895745e-14,1.149310943e-14,2.689802884e-14,4.815605726e-14,3.781589984e-14,1.459799342e-14,1.262886603e-13,1.235443872e-13,7.608236779e-14,3.71175231e-15,5.959383419e-14,2.768854216e-13,7.633819822e-14,3.024958528e-14,2.274496135e-15,1.489921523e-14,5.642938887e-14,8.634597433e-14,1.823449938e-14,6.290348629e-14,1.213714459e-13,2.390457547e-14,2.381964995e-14,3.376808205e-14,4.599876997e-14,3.271655813e-14,1.402766289e-13,2.658838809e-14,8.289497076e-15
