"Time","Fp1","AF3","F7","F3","FC1","FC5","T7","C3","CP1","CP5","P7","P3","Pz","PO3","O1","Oz","O2","PO4","P4","P8","CP6","CP2","C4","T8","FC6","FC2","F4","F8","AF4","Fp2","Fz","Cz"
0.0078125,2.570942979e-13,2.620646992e-13,4.04572835e-13,3.10430532e-13,1.203485664e-13,1.996671891e-13,3.563622619e-14,4.227840509e-14,1.652548022e-13,8.52381997e-14,1.332521431e-13,1.385773976e-13,2.365422261e-13,2.008809271e-13,2.30280689e-13,1.496184846e-13,3.535236303e-14,1.266989513e-13,7.829606811e-14,1.740635354e-13,1.546115158e-13,9.626199665e-14,1.965470445e-14,2.926121417e-13,2.109887104e-13,2.132557017e-13,1.105434968e-13,1.571794506e-13,2.023397337e-13,1.520548463e-13,2.898202824e-13,1.124423252e-13
0.015625,2.697699143e-13,2.723462773e-13,4.333463263e-13,3.230238893e-13,1.21221985e-13,2.123873456e-13,3.63641548e-14,4.325414975e-14,1.750386398e-13,8.736932144e-14,1.364962021e-13,1.434260789e-13,2.505263174e-13,2.081039776e-13,2.373285305e-13,1.56525787e-13,3.667078109e-14,1.339695944e-13,8.160096098e-14,1.771637585e-13,1.56286121e-13,1.042491659e-13,2.056792346e-14,3.020698535e-13,2.215224389e-13,2.183157879e-13,1.15347115e-13,1.707768257e-13,2.129223895e-13,1.539609802e-13,2.952376826e-13,1.216529706e-13
0.0234375,2.823165534e-13,2.824813241e-13,4.623297861e-13,3.355302638e-13,1.218360795e-13,2.252247881e-13,3.710208461e-14,4.431254827e-14,1.850322617e-13,8.927679933e-14,1.392355241e-13,1.48141808e-13,2.648543103e-13,2.151353409e-13,2.44231364e-13,1.636214935e-13,3.803045643e-14,1.413691227e-13,8.485399358e-14,1.797312591e-13,1.574663564e-13,1.126446472e-13,2.153083818e-14,3.110506227e-13,2.318465582e-13,2.229168515e-13,1.199851735e-13,1.849530329e-13,2.234746351e-13,1.558913832e-13,2.999121591e-13,1.312834648e-13
0.03125,2.950777313e-13,2.923312456e-13,4.925420471e-13,3.4780684e-13,1.221504383e-13,2.382731875e-13,3.780915664e-14,4.544645267e-14,1.952512684e-13,9.095475342e-14,1.41559482e-13,1.527985275e-13,2.796125929e-13,2.219839671e-13,2.50643173e-13,1.706488603e-13,3.941728157e-14,1.489069674e-13,8.801987838e-14,1.818080135e-13,1.58186803e-13,1.214716401e-13,2.257692458e-14,3.193494606e-13,2.421774243e-13,2.270786955e-13,1.243887277e-13,1.997956201e-13,2.339620081e-13,1.576901065e-13,3.037380545e-13,1.414096587e-13
0.0390625,3.080007375e-13,3.017422536e-13,5.24169696e-13,3.595391505e-13,1.220617254e-13,2.516829423e-13,3.844176434e-14,4.662613992e-14,2.057587056e-13,9.263948823e-14,1.436790652e-13,1.57369188e-13,2.946536536e-13,2.284083562e-13,2.565779122e-13,1.775907216e-13,4.077590559e-14,1.563920866e-13,9.099503564e-14,1.832616307e-13,1.583396272e-13,1.306883844e-13,2.372242268e-14,3.26771867e-13,2.525880354e-13,2.307576065e-13,1.285693454e-13,2.152035868e-13,2.4443413e-13,1.586152078e-13,3.065393551e-13,1.521261224e-13
0.046875,3.207539817e-13,3.108017606e-13,5.562225667e-13,3.708692528e-13,1.216755979e-13,2.65425311e-13,3.915794808e-14,4.780486822e-14,2.16376429e-13,9.416730235e-14,1.455607934e-13,1.617039957e-13,3.097729226e-13,2.345058907e-13,2.623044113e-13,1.847317325e-13,4.227141087e-14,1.639104149e-13,9.393307184e-14,1.842776903e-13,1.580278012e-13,1.402933508e-13,2.493399305e-14,3.333470907e-13,2.63005758e-13,2.339557896e-13,1.327188333e-13,2.311156003e-13,2.553026077e-13,1.588997299e-13,3.086847099e-13,1.633933275e-13
0.0546875,3.336795574e-13,3.196478437e-13,5.894882936e-13,3.819790328e-13,1.210818098e-13,2.792760565e-13,3.996116529e-14,4.901789638e-14,2.272578091e-13,9.543563332e-14,1.472166929e-13,1.659890467e-13,3.253563559e-13,2.405718389e-13,2.676259204e-13,1.91940239e-13,4.396070534e-14,1.716865655e-13,9.704049009e-14,1.8504697e-13,1.574377081e-13,1.504381948e-13,2.616915848e-14,3.393083658e-13,2.73650265e-13,2.367657223e-13,1.369427706e-13,2.48042377e-13,2.666292911e-13,1.593133203e-13,3.104640025e-13,1.752442849e-13
0.0625,3.466213559e-13,3.28001997e-13,6.236828996e-13,3.925811642e-13,1.203095126e-13,2.92981774e-13,4.076306308e-14,5.031103318e-14,2.384461766e-13,9.682446756e-14,1.486118879e-13,1.702487043e-13,3.412512617e-13,2.462761557e-13,2.724459596e-13,1.991730452e-13,4.575406547e-14,1.794892281e-13,1.001191843e-13,1.853575531e-13,1.56511709e-13,1.609109468e-13,2.741090251e-14,3.447636243e-13,2.843460238e-13,2.390996898e-13,1.409877414e-13,2.655588797e-13,2.777063673e-13,1.596762491e-13,3.115651484e-13,1.875874109e-13
0.0703125,3.590381836e-13,3.355991658e-13,6.573131313e-13,4.024439962e-13,1.194512193e-13,3.064416496e-13,4.165576603e-14,5.165790614e-14,2.494973836e-13,9.831690255e-14,1.497071356e-13,1.741947328e-13,3.567689513e-13,2.513182878e-13,2.769921148e-13,2.066088761e-13,4.772461265e-14,1.871030756e-13,1.029735997e-13,1.851437833e-13,1.553142707e-13,1.713421999e-13,2.867530857e-14,3.496009992e-13,2.946462242e-13,2.408619479e-13,1.446725159e-13,2.82965212e-13,2.882483301e-13,1.597220485e-13,3.118896862e-13,2.00083784e-13
0.078125,3.710942578e-13,3.425740095e-13,6.908677149e-13,4.116259321e-13,1.185729046e-13,3.198780667e-13,4.269513348e-14,5.306468707e-14,2.602809765e-13,9.963295559e-14,1.507285947e-13,1.777887653e-13,3.719265776e-13,2.558768e-13,2.813822912e-13,2.142095145e-13,4.991581313e-14,1.946802007e-13,1.057051139e-13,1.845655385e-13,1.539555961e-13,1.817745897e-13,2.99826598e-14,3.537193466e-13,3.047881399e-13,2.420817032e-13,1.479782995e-13,3.007326306e-13,2.983808843e-13,1.595348804e-13,3.115945679e-13,2.126383141e-13
0.0859375,3.829673435e-13,3.490046646e-13,7.24814424e-13,4.204306887e-13,1.176722076e-13,3.334916291e-13,4.387866075e-14,5.455036932e-14,2.708490936e-13,1.008889511e-13,1.517588324e-13,1.811176262e-13,3.868902784e-13,2.600872718e-13,2.855475772e-13,2.220367237e-13,5.23085007e-14,2.024017165e-13,1.084151067e-13,1.837819912e-13,1.522736883e-13,1.923244176e-13,3.134458497e-14,3.568398523e-13,3.151919425e-13,2.42782999e-13,1.509776631e-13,3.189122837e-13,3.081780459e-13,1.589171281e-13,3.106988879e-13,2.253134501e-13
0.09375,3.946366486e-13,3.547910079e-13,7.590111149e-13,4.288888403e-13,1.167125043e-13,3.46959312e-13,4.521811554e-14,5.611408295e-14,2.810711373e-13,1.021565791e-13,1.525970631e-13,1.841664829e-13,4.015286786e-13,2.6394553e-13,2.89137306e-13,2.299652622e-13,5.497447878e-14,2.102449884e-13,1.111353997e-13,1.828128036e-13,1.50215576e-13,2.030014576e-13,3.277030745e-14,3.58708767e-13,3.25566518e-13,2.430913532e-13,1.538850561e-13,3.372202482e-13,3.178580412e-13,1.58122713e-13,3.092071216e-13,2.380731385e-13
0.1015625,4.058601024e-13,3.59788729e-13,7.932606135e-13,4.363774493e-13,1.157160494e-13,3.599660412e-13,4.664744327e-14,5.773992081e-14,2.908964215e-13,1.033794514e-13,1.530518431e-13,1.868683627e-13,4.157259581e-13,2.672256899e-13,2.917241548e-13,2.374517129e-13,5.783253351e-14,2.178838226e-13,1.137849023e-13,1.812911418e-13,1.479136499e-13,2.137768884e-13,3.423751508e-14,3.596709493e-13,3.354012504e-13,2.431389731e-13,1.566323238e-13,3.558127158e-13,3.272008206e-13,1.575763102e-13,3.071095299e-13,2.509299149e-13
0.109375,4.1618603e-13,3.639128208e-13,8.26512787e-13,4.428199845e-13,1.147208246e-13,3.726421459e-13,4.816263637e-14,5.935319902e-14,3.002630865e-13,1.046401387e-13,1.528641085e-13,1.891767842e-13,4.293591604e-13,2.697489539e-13,2.932355224e-13,2.444111814e-13,6.073058147e-14,2.252170799e-13,1.162322485e-13,1.790965336e-13,1.453755134e-13,2.245094627e-13,3.572121236e-14,3.600744059e-13,3.447618926e-13,2.428705767e-13,1.590817264e-13,3.742123609e-13,3.359418473e-13,1.567773518e-13,3.045034428e-13,2.637975551e-13
0.1171875,4.258011468e-13,3.674909916e-13,8.588398074e-13,4.488217275e-13,1.136606685e-13,3.849971266e-13,4.980793408e-14,6.097581306e-14,3.091761301e-13,1.058900152e-13,1.520225145e-13,1.911947267e-13,4.426021462e-13,2.718222473e-13,2.939659238e-13,2.510745164e-13,6.36910853e-14,2.326409925e-13,1.185966761e-13,1.766765401e-13,1.426037112e-13,2.352478167e-13,3.723623242e-14,3.597319888e-13,3.540000841e-13,2.422061891e-13,1.614585311e-13,3.924713215e-13,3.445232347e-13,1.556336689e-13,3.016046258e-13,2.765310163e-13
0.125,4.348968829e-13,3.708514157e-13,8.907969521e-13,4.54330041e-13,1.1253062e-13,3.968897801e-13,5.153937245e-14,6.268933649e-14,3.176240169e-13,1.070106841e-13,1.508887491e-13,1.92952997e-13,4.555517972e-13,2.736467009e-13,2.941063461e-13,2.572671854e-13,6.67152544e-14,2.401382772e-13,1.209945698e-13,1.740486886e-13,1.397122298e-13,2.460831425e-13,3.877776303e-14,3.586269712e-13,3.630509632e-13,2.41167911e-13,1.637867266e-13,4.114011181e-13,3.53108917e-13,1.547834459e-13,2.985699592e-13,2.890829415e-13
0.1328125,4.432227536e-13,3.7356333e-13,9.219681209e-13,4.589293307e-13,1.113578205e-13,4.083870259e-13,5.331836518e-14,6.441304618e-14,3.253471487e-13,1.0809222e-13,1.494642405e-13,1.943516533e-13,4.678167038e-13,2.750159065e-13,2.933803795e-13,2.62883592e-13,6.976979567e-14,2.472917948e-13,1.23227366e-13,1.708224905e-13,1.367296686e-13,2.567853774e-13,4.031839469e-14,3.569673594e-13,3.716660679e-13,2.3982327e-13,1.658056692e-13,4.305696952e-13,3.61271411e-13,1.538304096e-13,2.953569977e-13,3.013411663e-13
0.140625,4.509052667e-13,3.750801163e-13,9.526312657e-13,4.624325706e-13,1.100423742e-13,4.195586741e-13,5.51020904e-14,6.611605602e-14,3.323598145e-13,1.092294494e-13,1.475643041e-13,1.954171224e-13,4.793044867e-13,2.758272846e-13,2.917482376e-13,2.68109729e-13,7.28772868e-14,2.541472674e-13,1.251615291e-13,1.670484034e-13,1.335284669e-13,2.672299546e-13,4.186799922e-14,3.545819643e-13,3.799473625e-13,2.381458745e-13,1.673977852e-13,4.49451399e-13,3.686046877e-13,1.522510037e-13,2.915318648e-13,3.132737119e-13
0.1484375,4.580036505e-13,3.756641579e-13,9.825356139e-13,4.647977942e-13,1.085807173e-13,4.303562323e-13,5.690690471e-14,6.790373405e-14,3.38905139e-13,1.103699603e-13,1.452938634e-13,1.961840717e-13,4.902371366e-13,2.761656929e-13,2.895836349e-13,2.728813975e-13,7.601138699e-14,2.608656901e-13,1.269258279e-13,1.62929473e-13,1.300861906e-13,2.775087636e-13,4.343648139e-14,3.512773729e-13,3.879848766e-13,2.35991587e-13,1.68513829e-13,4.683065135e-13,3.749513631e-13,1.506506994e-13,2.869639518e-13,3.249267753e-13
0.15625,4.643848334e-13,3.757355121e-13,1.011123765e-12,4.662542109e-13,1.070386224e-13,4.406453805e-13,5.882997516e-14,6.978753337e-14,3.45016832e-13,1.115203464e-13,1.425430906e-13,1.967145807e-13,5.006929601e-13,2.76136779e-13,2.866767503e-13,2.769784952e-13,7.916906711e-14,2.673855985e-13,1.286275662e-13,1.585062045e-13,1.265784663e-13,2.876279173e-13,4.499634905e-14,3.471531154e-13,3.955892586e-13,2.33347017e-13,1.692267675e-13,4.869266774e-13,3.806316325e-13,1.493844547e-13,2.821617379e-13,3.362127597e-13
0.1640625,4.700838795e-13,3.750869035e-13,1.039225053e-12,4.667774717e-13,1.05380886e-13,4.503269962e-13,6.080767652e-14,7.173935371e-14,3.507801876e-13,1.127153909e-13,1.393226769e-13,1.971634096e-13,5.107384178e-13,2.757952314e-13,2.829220948e-13,2.805084751e-13,8.239864309e-14,2.73754512e-13,1.302723064e-13,1.539024917e-13,1.230967894e-13,2.975999772e-13,4.652755324e-14,3.422079827e-13,4.028034896e-13,2.303321637e-13,1.696701235e-13,5.052397388e-13,3.859235868e-13,1.48340136e-13,2.772253811e-13,3.471126196e-13
0.171875,4.749975096e-13,3.735983385e-13,1.066433075e-12,4.662486678e-13,1.037259662e-13,4.594607039e-13,6.28238503e-14,7.374107214e-14,3.562600182e-13,1.138836823e-13,1.361434107e-13,1.975495681e-13,5.203352101e-13,2.752057226e-13,2.789473957e-13,2.837172899e-13,8.570490907e-14,2.79932208e-13,1.318691744e-13,1.4918918e-13,1.196544254e-13,3.07415411e-13,4.804780693e-14,3.363882066e-13,4.098373827e-13,2.270110588e-13,1.698537154e-13,5.236010167e-13,3.907344868e-13,1.476463599e-13,2.721378281e-13,3.576543636e-13
0.1796875,4.792409009e-13,3.716019511e-13,1.091817949e-12,4.650574396e-13,1.023066404e-13,4.680009399e-13,6.504822595e-14,7.574590011e-14,3.614385367e-13,1.150975587e-13,1.32973747e-13,1.979013248e-13,5.295119979e-13,2.74522948e-13,2.747058236e-13,2.865851466e-13,8.905160242e-14,2.857480824e-13,1.334112286e-13,1.442905584e-13,1.163363218e-13,3.170059638e-13,4.957177809e-14,3.29815754e-13,4.164167318e-13,2.234543248e-13,1.69796613e-13,5.41927241e-13,3.950363074e-13,1.471932658e-13,2.673946095e-13,3.678056836e-13
0.1875,4.829129538e-13,3.691434552e-13,1.11613061e-12,4.633000044e-13,1.010954079e-13,4.759578352e-13,6.742148033e-14,7.773868335e-14,3.664236475e-13,1.164463456e-13,1.294370711e-13,1.983137751e-13,5.384514008e-13,2.738300327e-13,2.698429457e-13,2.890462655e-13,9.233800411e-14,2.913529489e-13,1.349168903e-13,1.392530184e-13,1.131313172e-13,3.263743298e-13,5.106631251e-14,3.226889687e-13,4.222243081e-13,2.196529833e-13,1.694925228e-13,5.599154474e-13,3.987403719e-13,1.468428604e-13,2.63030703e-13,3.775057155e-13
0.1953125,4.857439179e-13,3.662380266e-13,1.139500204e-12,4.608969928e-13,9.991599599e-14,4.835849952e-13,6.983436897e-14,7.972172168e-14,3.711550052e-13,1.177785795e-13,1.258286199e-13,1.987536342e-13,5.471577957e-13,2.732143754e-13,2.648044329e-13,2.911275533e-13,9.551467892e-14,2.970728612e-13,1.365507272e-13,1.343069941e-13,1.099936593e-13,3.355193045e-13,5.249048497e-14,3.151977515e-13,4.276359626e-13,2.154620578e-13,1.690928596e-13,5.774771342e-13,4.020173935e-13,1.467729177e-13,2.588857827e-13,3.865038983e-13
0.203125,4.876236146e-13,3.63091588e-13,1.161124361e-12,4.580181333e-13,9.878987365e-14,4.906833535e-13,7.242034849e-14,8.171298886e-14,3.754030568e-13,1.191254534e-13,1.223762702e-13,1.991469227e-13,5.554744992e-13,2.726609429e-13,2.596773399e-13,2.926806062e-13,9.867209555e-14,3.027670423e-13,1.383531421e-13,1.296001905e-13,1.070117809e-13,3.443397079e-13,5.382798358e-14,3.072523626e-13,4.328814896e-13,2.109513365e-13,1.688590792e-13,5.947748574e-13,4.051764618e-13,1.469571224e-13,2.553398216e-13,3.946753181e-13
0.2109375,4.882193515e-13,3.59330448e-13,1.180321432e-12,4.542057e-13,9.786271901e-14,4.967332119e-13,7.52356238e-14,8.367214859e-14,3.789214173e-13,1.206013368e-13,1.18836665e-13,1.992794668e-13,5.628573611e-13,2.716733107e-13,2.540318148e-13,2.936933731e-13,1.018786596e-13,3.078493916e-13,1.399607112e-13,1.250101775e-13,1.04211631e-13,3.52551392e-13,5.505228552e-14,2.986210292e-13,4.374124154e-13,2.063865795e-13,1.684623178e-13,6.114587616e-13,4.075653124e-13,1.472520107e-13,2.524572428e-13,4.021754433e-13
0.21875,4.873897787e-13,3.547401251e-13,1.196967199e-12,4.491620288e-13,9.7129654e-14,5.018088225e-13,7.827230531e-14,8.546191376e-14,3.814611676e-13,1.220597372e-13,1.151969059e-13,1.98969175e-13,5.687931334e-13,2.699905911e-13,2.479716509e-13,2.944479216e-13,1.051675547e-13,3.121417909e-13,1.411364859e-13,1.203877159e-13,1.015419521e-13,3.599100032e-13,5.614760156e-14,2.895694746e-13,4.409822881e-13,2.018427027e-13,1.675376225e-13,6.267242905e-13,4.086361866e-13,1.476451363e-13,2.500575516e-13,4.089095177e-13
0.2265625,4.856174484e-13,3.498324569e-13,1.211932705e-12,4.434462963e-13,9.646074381e-14,5.062335291e-13,8.14664257e-14,8.703239608e-14,3.831449217e-13,1.235195423e-13,1.115167315e-13,1.984868363e-13,5.736955193e-13,2.680886562e-13,2.416452664e-13,2.947657399e-13,1.084532104e-13,3.159648128e-13,1.421159567e-13,1.157882456e-13,9.90306739e-14,3.665526778e-13,5.712195034e-14,2.804964661e-13,4.439220272e-13,1.972496225e-13,1.664804838e-13,6.40866085e-13,4.089077807e-13,1.481406254e-13,2.482652687e-13,4.146704259e-13
0.234375,4.826912251e-13,3.44557196e-13,1.224986472e-12,4.370972528e-13,9.575535391e-14,5.099111991e-13,8.46064977e-14,8.843886409e-14,3.841880828e-13,1.25026651e-13,1.077436458e-13,1.980249624e-13,5.779487752e-13,2.661946099e-13,2.348463334e-13,2.941514257e-13,1.114988127e-13,3.193471052e-13,1.430389893e-13,1.113016306e-13,9.668054375e-14,3.725985459e-13,5.795593295e-14,2.713719401e-13,4.463090505e-13,1.925726485e-13,1.654975041e-13,6.543862953e-13,4.084811403e-13,1.488192955e-13,2.470541249e-13,4.194428029e-13
0.2421875,4.784396118e-13,3.386834931e-13,1.235540708e-12,4.298704216e-13,9.498910904e-14,5.125943425e-13,8.779138212e-14,8.97924127e-14,3.844728733e-13,1.264180561e-13,1.039816741e-13,1.973780751e-13,5.813142003e-13,2.640866202e-13,2.275753889e-13,2.92698254e-13,1.143166066e-13,3.221934947e-13,1.437910294e-13,1.069523902e-13,9.44603673e-14,3.779347468e-13,5.865651233e-14,2.621959872e-13,4.481342311e-13,1.87812243e-13,1.642835121e-13,6.667331474e-13,4.070280557e-13,1.496216013e-13,2.465005056e-13,4.232082981e-13
0.25,4.734741548e-13,3.32656378e-13,1.244592058e-12,4.220020943e-13,9.422099327e-14,5.143522705e-13,9.123150113e-14,9.11679303e-14,3.839940663e-13,1.277502672e-13,1.003088422e-13,1.964974068e-13,5.83854779e-13,2.617827978e-13,2.201490866e-13,2.907204956e-13,1.17022962e-13,3.246065173e-13,1.443274694e-13,1.027002631e-13,9.239718449e-14,3.8260582e-13,5.930339629e-14,2.531211328e-13,4.494456165e-13,1.830300608e-13,1.628015739e-13,6.776979921e-13,4.046259098e-13,1.503240258e-13,2.46872193e-13,4.260449821e-13
0.2578125,4.676214955e-13,3.265272199e-13,1.251833277e-12,4.135160589e-13,9.347110226e-14,5.156074356e-13,9.47170228e-14,9.238768763e-14,3.828793898e-13,1.290465609e-13,9.671477754e-14,1.954777369e-13,5.857089286e-13,2.593911841e-13,2.128345947e-13,2.881824728e-13,1.194483698e-13,3.264477909e-13,1.446342714e-13,9.843656917e-14,9.048620007e-14,3.866884843e-13,5.991350451e-14,2.441607038e-13,4.500738177e-13,1.782407657e-13,1.611047408e-13,6.874394824e-13,4.011610112e-13,1.511102379e-13,2.479547316e-13,4.280909111e-13
0.265625,4.606203819e-13,3.200931543e-13,1.256548852e-12,4.044397992e-13,9.269315797e-14,5.166023882e-13,9.814191452e-14,9.332179067e-14,3.81211405e-13,1.301548571e-13,9.323594591e-14,1.943538935e-13,5.869211606e-13,2.569319431e-13,2.05618105e-13,2.851194196e-13,1.215505746e-13,3.277287513e-13,1.447787288e-13,9.425569107e-14,8.866748944e-14,3.902071738e-13,6.040015049e-14,2.352909474e-13,4.501279673e-13,1.733370257e-13,1.591467503e-13,6.959631868e-13,3.964905067e-13,1.524644565e-13,2.494546814e-13,4.294125775e-13
0.2734375,4.531691628e-13,3.137284129e-13,1.260208648e-12,3.951458029e-13,9.192344059e-14,5.171064844e-13,1.017197508e-13,9.411436409e-14,3.791837758e-13,1.311164387e-13,8.992937053e-14,1.932326967e-13,5.878988429e-13,2.545570832e-13,1.985533622e-13,2.817383138e-13,1.235085964e-13,3.289253223e-13,1.44959271e-13,9.049881901e-14,8.692424478e-14,3.933020322e-13,6.073183767e-14,2.264977809e-13,4.499908767e-13,1.683039554e-13,1.570790664e-13,7.036905348e-13,3.90911372e-13,1.543731543e-13,2.515207437e-13,4.301075169e-13
0.28125,4.456447285e-13,3.076744593e-13,1.263024417e-12,3.858058034e-13,9.119559982e-14,5.169029547e-13,1.055317831e-13,9.477438085e-14,3.7683766e-13,1.319644531e-13,8.687882899e-14,1.921487933e-13,5.887465911e-13,2.523921585e-13,1.918302792e-13,2.78011196e-13,1.253173484e-13,3.300816555e-13,1.452394072e-13,8.730816909e-14,8.531601531e-14,3.959298332e-13,6.094930225e-14,2.177939405e-13,4.497238231e-13,1.632539372e-13,1.549874973e-13,7.106517782e-13,3.847080863e-13,1.563206795e-13,2.544714161e-13,4.300560421e-13
0.2890625,4.37895763e-13,3.018957945e-13,1.263861235e-12,3.764117135e-13,9.048985021e-14,5.160589916e-13,1.095471567e-13,9.522380542e-14,3.741327534e-13,1.327673251e-13,8.41165503e-14,1.910564704e-13,5.891820023e-13,2.503803693e-13,1.852900975e-13,2.737807884e-13,1.269176556e-13,3.308616755e-13,1.455781906e-13,8.45029241e-14,8.393629948e-14,3.979381964e-13,6.104996992e-14,2.092218017e-13,4.492614885e-13,1.582350006e-13,1.528026648e-13,7.166496793e-13,3.779737565e-13,1.581722577e-13,2.586048176e-13,4.290627133e-13
0.296875,4.299009452e-13,2.965931374e-13,1.26331127e-12,3.670449288e-13,8.982395949e-14,5.147275127e-13,1.137107626e-13,9.55307388e-14,3.712619176e-13,1.336329302e-13,8.165824579e-14,1.899760974e-13,5.893098184e-13,2.484517254e-13,1.788786223e-13,2.690995802e-13,1.282576476e-13,3.313545695e-13,1.459980016e-13,8.193749828e-14,8.277458155e-14,3.994447298e-13,6.102534957e-14,2.008727735e-13,4.485131462e-13,1.532363149e-13,1.50616126e-13,7.219480867e-13,3.706831381e-13,1.603325871e-13,2.640072526e-13,4.273642223e-13
0.3046875,4.218511112e-13,2.919654784e-13,1.262069952e-12,3.578898682e-13,8.912352586e-14,5.129890001e-13,1.180257438e-13,9.571863676e-14,3.684050462e-13,1.343863566e-13,7.952800547e-14,1.88918889e-13,5.894221703e-13,2.466398275e-13,1.72885564e-13,2.640639993e-13,1.292381959e-13,3.317466602e-13,1.465142874e-13,7.969015933e-14,8.170787933e-14,4.005983062e-13,6.090395286e-14,1.930165403e-13,4.47356439e-13,1.482631473e-13,1.485787537e-13,7.26156918e-13,3.629225771e-13,1.628889053e-13,2.706478088e-13,4.252914026e-13
0.3125,4.13996522e-13,2.880291696e-13,1.260045969e-12,3.490798916e-13,8.831084473e-14,5.108281161e-13,1.225992232e-13,9.580975493e-14,3.657209618e-13,1.350288767e-13,7.766532891e-14,1.879782835e-13,5.896865557e-13,2.450420713e-13,1.671990941e-13,2.586521407e-13,1.299797054e-13,3.319684964e-13,1.471480281e-13,7.788790879e-14,8.073366155e-14,4.013993152e-13,6.067831252e-14,1.856979378e-13,4.460450007e-13,1.433328024e-13,1.46744499e-13,7.290226486e-13,3.550091528e-13,1.655878412e-13,2.785395751e-13,4.22884845e-13
0.3203125,4.063388443e-13,2.847510888e-13,1.257410353e-12,3.406160654e-13,8.747858324e-14,5.083196048e-13,1.273853334e-13,9.578641439e-14,3.633376172e-13,1.357220544e-13,7.617107824e-14,1.873008293e-13,5.902118539e-13,2.437184722e-13,1.616405351e-13,2.529457724e-13,1.306067271e-13,3.320463877e-13,1.479528168e-13,7.652657086e-14,7.995825853e-14,4.018612682e-13,6.034605002e-14,1.786393367e-13,4.448623959e-13,1.384569071e-13,1.451419237e-13,7.312676615e-13,3.470256944e-13,1.685110346e-13,2.875069962e-13,4.200697617e-13
0.328125,3.987924657e-13,2.819906701e-13,1.254064841e-12,3.325047559e-13,8.661351949e-14,5.055151073e-13,1.322612961e-13,9.552467673e-14,3.611347221e-13,1.362638295e-13,7.518679765e-14,1.868146348e-13,5.909959145e-13,2.426043992e-13,1.563516084e-13,2.469178903e-13,1.308898538e-13,3.320278117e-13,1.489040847e-13,7.551891672e-14,7.936808487e-14,4.020359451e-13,5.995350409e-14,1.718794918e-13,4.436863032e-13,1.33609665e-13,1.437231446e-13,7.328971866e-13,3.388209682e-13,1.717277995e-13,2.973458087e-13,4.168538453e-13
0.3359375,3.91209771e-13,2.794143245e-13,1.249861758e-12,3.244609583e-13,8.561461873e-14,5.022311287e-13,1.370756824e-13,9.513513196e-14,3.590926601e-13,1.365516108e-13,7.456910871e-14,1.863731387e-13,5.920398813e-13,2.415541756e-13,1.513201768e-13,2.403387798e-13,1.306117943e-13,3.317027352e-13,1.498710842e-13,7.483598217e-14,7.888450098e-14,4.019571886e-13,5.948009949e-14,1.655691704e-13,4.424470384e-13,1.287710003e-13,1.423562859e-13,7.335719883e-13,3.302380058e-13,1.749390984e-13,3.078101172e-13,4.135171195e-13
0.34375,3.83479459e-13,2.769956369e-13,1.245028678e-12,3.162237259e-13,8.459474294e-14,4.985818868e-13,1.416691951e-13,9.47736116e-14,3.573659504e-13,1.367018415e-13,7.434680273e-14,1.859940122e-13,5.934137838e-13,2.405431404e-13,1.467204663e-13,2.335120301e-13,1.299573123e-13,3.310141022e-13,1.507985838e-13,7.455282457e-14,7.848320832e-14,4.01605947e-13,5.886613117e-14,1.596797233e-13,4.412962128e-13,1.23956269e-13,1.410186055e-13,7.334899968e-13,3.21085436e-13,1.780496181e-13,3.185862582e-13,4.103486825e-13
0.3515625,3.759738743e-13,2.752642315e-13,1.239819477e-12,3.08308407e-13,8.362271637e-14,4.949481606e-13,1.462387096e-13,9.434859503e-14,3.559567033e-13,1.366976888e-13,7.464817875e-14,1.85747715e-13,5.952109656e-13,2.396921713e-13,1.426833582e-13,2.268437976e-13,1.291843641e-13,3.303134467e-13,1.518152753e-13,7.470850581e-14,7.816794613e-14,4.010259134e-13,5.816398051e-14,1.543547712e-13,4.403375204e-13,1.191728572e-13,1.398281714e-13,7.324906449e-13,3.115653166e-13,1.812223164e-13,3.299265931e-13,4.072396513e-13
0.359375,3.690223376e-13,2.743879372e-13,1.234665267e-12,3.011153378e-13,8.25632815e-14,4.911429427e-13,1.509082181e-13,9.388899229e-14,3.549486787e-13,1.365832566e-13,7.529691485e-14,1.856977053e-13,5.976023082e-13,2.390613463e-13,1.387314081e-13,2.199179476e-13,1.281399442e-13,3.297419849e-13,1.530152604e-13,7.521229717e-14,7.79564771e-14,4.003763266e-13,5.746325208e-14,1.495412161e-13,4.395896476e-13,1.144479299e-13,1.388466492e-13,7.306890356e-13,3.020759768e-13,1.845588169e-13,3.42066614e-13,4.040783404e-13
0.3671875,3.627059714e-13,2.741573534e-13,1.229544517e-12,2.944464432e-13,8.13957424e-14,4.868520265e-13,1.554895015e-13,9.346876946e-14,3.544781483e-13,1.363676466e-13,7.642817813e-14,1.858805925e-13,6.007147398e-13,2.386225842e-13,1.349452653e-13,2.125798845e-13,1.266106185e-13,3.29093026e-13,1.543428379e-13,7.603771422e-14,7.780835752e-14,3.996944006e-13,5.675658959e-14,1.44913003e-13,4.390740769e-13,1.098014961e-13,1.380366654e-13,7.284255986e-13,2.925335642e-13,1.882175749e-13,3.546658315e-13,4.0101363e-13
0.375,3.571010183e-13,2.747686624e-13,1.223663191e-12,2.883290377e-13,8.019899248e-14,4.822292142e-13,1.600881397e-13,9.303855538e-14,3.543975303e-13,1.359972233e-13,7.829860171e-14,1.861964446e-13,6.044626236e-13,2.382572714e-13,1.318451483e-13,2.053179711e-13,1.247550847e-13,3.283012165e-13,1.556828646e-13,7.724949977e-14,7.769601874e-14,3.989191658e-13,5.601680841e-14,1.40568511e-13,4.388087359e-13,1.052341417e-13,1.373351883e-13,7.251419355e-13,2.828473721e-13,1.921521494e-13,3.678122417e-13,3.98132234e-13
0.3828125,3.51977347e-13,2.763363081e-13,1.216880494e-12,2.828076842e-13,7.904275067e-14,4.77199545e-13,1.647309823e-13,9.276657233e-14,3.547127593e-13,1.355901146e-13,8.057849738e-14,1.865370165e-13,6.087756422e-13,2.377239204e-13,1.2907105e-13,1.981036176e-13,1.226581456e-13,3.273097656e-13,1.569308666e-13,7.882349123e-14,7.773687966e-14,3.981642103e-13,5.529079899e-14,1.368113222e-13,4.385955271e-13,1.008704574e-13,1.366374458e-13,7.209319083e-13,2.731749496e-13,1.960226346e-13,3.816970064e-13,3.95602567e-13
0.390625,3.474819784e-13,2.788516505e-13,1.209919913e-12,2.779313859e-13,7.806144723e-14,4.716068543e-13,1.693275357e-13,9.274498033e-14,3.55794709e-13,1.35161497e-13,8.312732874e-14,1.869682291e-13,6.139418955e-13,2.369696811e-13,1.263243759e-13,1.908883203e-13,1.20319447e-13,3.262020471e-13,1.582449973e-13,8.077428021e-14,7.79033509e-14,3.976543984e-13,5.461850094e-14,1.336988226e-13,4.383089496e-13,9.681325114e-14,1.359518906e-13,7.168393024e-13,2.635247357e-13,2.000174593e-13,3.960961403e-13,3.937275281e-13
0.3984375,3.441443332e-13,2.825441818e-13,1.203174181e-12,2.740791001e-13,7.721861241e-14,4.658717438e-13,1.741737972e-13,9.281778292e-14,3.577538298e-13,1.34719622e-13,8.627113599e-14,1.876042871e-13,6.202936603e-13,2.362634834e-13,1.239623714e-13,1.839807689e-13,1.179481048e-13,3.255051334e-13,1.599224316e-13,8.318163102e-14,7.801361408e-14,3.9750421e-13,5.397156524e-14,1.311559344e-13,4.383529127e-13,9.289703536e-14,1.355099285e-13,7.127425685e-13,2.540704548e-13,2.047175948e-13,4.111295317e-13,3.924650133e-13
0.40625,3.417894248e-13,2.872144676e-13,1.196487789e-12,2.71211647e-13,7.63524954e-14,4.601778165e-13,1.790680416e-13,9.314956019e-14,3.604052361e-13,1.344525735e-13,9.004625481e-14,1.884807708e-13,6.277673899e-13,2.357672989e-13,1.220263621e-13,1.770931274e-13,1.153595924e-13,3.253353449e-13,1.618930239e-13,8.601612834e-14,7.818273997e-14,3.977110845e-13,5.336162972e-14,1.290612954e-13,4.389707835e-13,8.900201962e-14,1.354319819e-13,7.080673552e-13,2.450976672e-13,2.099636801e-13,4.266702355e-13,3.917027895e-13
0.4140625,3.40196727e-13,2.925807172e-13,1.18959446e-12,2.690083515e-13,7.559896259e-14,4.541641674e-13,1.835242596e-13,9.392706874e-14,3.637581682e-13,1.342491932e-13,9.438155364e-14,1.895538779e-13,6.362536266e-13,2.353082798e-13,1.204108919e-13,1.699650166e-13,1.121924864e-13,3.25233628e-13,1.639808441e-13,8.92769727e-14,7.851601034e-14,3.983016937e-13,5.284533739e-14,1.274572086e-13,4.399274722e-13,8.530309773e-14,1.355650523e-13,7.03149166e-13,2.365045771e-13,2.152115681e-13,4.422305544e-13,3.917665027e-13
0.421875,3.395646771e-13,2.98861568e-13,1.182644247e-12,2.675482917e-13,7.513414618e-14,4.478883264e-13,1.87836348e-13,9.497980103e-14,3.679232723e-13,1.339497829e-13,9.930656612e-14,1.907094678e-13,6.458014891e-13,2.346813187e-13,1.191433924e-13,1.630793274e-13,1.088217241e-13,3.25160651e-13,1.66241724e-13,9.301880493e-14,7.877864532e-14,3.993447427e-13,5.238558807e-14,1.264243619e-13,4.412487857e-13,8.192142808e-14,1.357989969e-13,6.983251521e-13,2.282097254e-13,2.206601748e-13,4.579182749e-13,3.929272817e-13
0.4296875,3.400000234e-13,3.061265054e-13,1.176065218e-12,2.6697825e-13,7.486701345e-14,4.416424008e-13,1.92171285e-13,9.635149066e-14,3.72913486e-13,1.338683535e-13,1.046921245e-13,1.919405217e-13,6.564058734e-13,2.339047209e-13,1.180905093e-13,1.566529423e-13,1.056298829e-13,3.253722628e-13,1.68676497e-13,9.715661669e-14,7.899369607e-14,4.008558378e-13,5.196447182e-14,1.25783099e-13,4.429989108e-13,7.878642036e-14,1.362056774e-13,6.936733679e-13,2.204563996e-13,2.26782253e-13,4.737540803e-13,3.950690806e-13
0.4375,3.415746016e-13,3.143014173e-13,1.169669178e-12,2.673042434e-13,7.474687088e-14,4.352842413e-13,1.963638556e-13,9.820243262e-14,3.787490751e-13,1.341223621e-13,1.104521259e-13,1.933491474e-13,6.681397647e-13,2.330259353e-13,1.171711114e-13,1.503878722e-13,1.023425484e-13,3.258781415e-13,1.712602328e-13,1.016038518e-13,7.941596583e-14,4.028747701e-13,5.170117047e-14,1.254878429e-13,4.449323758e-13,7.588385259e-14,1.36843709e-13,6.8936765e-13,2.1338327e-13,2.335502924e-13,4.895872927e-13,3.980791182e-13
0.4453125,3.440680117e-13,3.233789109e-13,1.163248626e-12,2.683430964e-13,7.483109481e-14,4.287680841e-13,2.005283446e-13,1.004446983e-13,3.854614387e-13,1.343758032e-13,1.167151781e-13,1.948480832e-13,6.810473001e-13,2.31933169e-13,1.16450366e-13,1.442160584e-13,9.882802224e-14,3.265452035e-13,1.739466914e-13,1.064205454e-13,7.993967197e-14,4.054428071e-13,5.158787125e-14,1.256613342e-13,4.469924795e-13,7.326315553e-14,1.376601537e-13,6.854288701e-13,2.06908669e-13,2.40746848e-13,5.056443377e-13,4.02036968e-13
0.453125,3.474328327e-13,3.333672427e-13,1.157369185e-12,2.700271251e-13,7.519530004e-14,4.22334136e-13,2.044628097e-13,1.030967594e-13,3.930730944e-13,1.346726095e-13,1.237077102e-13,1.963259715e-13,6.95034997e-13,2.305985618e-13,1.160412544e-13,1.384170221e-13,9.533329559e-14,3.272976195e-13,1.766116418e-13,1.116760968e-13,8.043177625e-14,4.08499188e-13,5.146812335e-14,1.262188013e-13,4.493150867e-13,7.092747967e-14,1.386389406e-13,6.818042666e-13,2.010156907e-13,2.481989388e-13,5.218589397e-13,4.071366756e-13
0.4609375,3.521936895e-13,3.445147861e-13,1.152256566e-12,2.727909895e-13,7.592946934e-14,4.158745673e-13,2.080379279e-13,1.062612748e-13,4.016154002e-13,1.353537411e-13,1.314157189e-13,1.979821511e-13,7.101733577e-13,2.291373068e-13,1.158692317e-13,1.332081848e-13,9.204786371e-14,3.283864429e-13,1.794712531e-13,1.174052879e-13,8.100305574e-14,4.121189737e-13,5.139282766e-14,1.271066253e-13,4.520717608e-13,6.888400202e-14,1.398843039e-13,6.78527088e-13,1.958295774e-13,2.559939773e-13,5.381102971e-13,4.134403362e-13
0.46875,3.58323932e-13,3.568168093e-13,1.147758821e-12,2.767292293e-13,7.702833069e-14,4.092007298e-13,2.116263343e-13,1.100108909e-13,4.110949784e-13,1.363498487e-13,1.394587302e-13,2.000243247e-13,7.264461102e-13,2.275627086e-13,1.156612139e-13,1.285507746e-13,8.904502085e-14,3.299683881e-13,1.827834433e-13,1.236726016e-13,8.16541525e-14,4.165057562e-13,5.153257072e-14,1.283187984e-13,4.551737838e-13,6.717441529e-14,1.414617944e-13,6.758059831e-13,1.914372787e-13,2.648883598e-13,5.544683447e-13,4.208157831e-13
0.4765625,3.654621096e-13,3.700114431e-13,1.144100122e-12,2.814776872e-13,7.852040416e-14,4.025706046e-13,2.151782766e-13,1.144621719e-13,4.214233479e-13,1.375337018e-13,1.478044128e-13,2.02358542e-13,7.436077949e-13,2.258740661e-13,1.156144227e-13,1.244212015e-13,8.628707891e-14,3.316353682e-13,1.862896209e-13,1.305487372e-13,8.234579926e-14,4.216004609e-13,5.189545978e-14,1.298098584e-13,4.579465008e-13,6.584038147e-14,1.433543637e-13,6.737512789e-13,1.879079696e-13,2.754364265e-13,5.707408434e-13,4.292855829e-13
0.484375,3.735538657e-13,3.841691077e-13,1.141070522e-12,2.869959349e-13,8.045869297e-14,3.96106608e-13,2.184432404e-13,1.19515685e-13,4.323490619e-13,1.390965723e-13,1.567728326e-13,2.047999722e-13,7.615817557e-13,2.241180657e-13,1.160422574e-13,1.209115802e-13,8.372221895e-14,3.332332442e-13,1.897386128e-13,1.380582884e-13,8.314294055e-14,4.272004267e-13,5.244969535e-14,1.318153174e-13,4.602925626e-13,6.488060718e-14,1.455366618e-13,6.719257494e-13,1.853730203e-13,2.867499125e-13,5.869054838e-13,4.38889076e-13
0.4921875,3.824593654e-13,3.993094282e-13,1.138350389e-12,2.932502159e-13,8.281162315e-14,3.895692777e-13,2.215462131e-13,1.251211641e-13,4.437448957e-13,1.411025483e-13,1.661932509e-13,2.07334809e-13,7.803362097e-13,2.222256411e-13,1.167191888e-13,1.181519704e-13,8.149420238e-14,3.350654104e-13,1.931922417e-13,1.461733909e-13,8.408381147e-14,4.333277516e-13,5.320470842e-14,1.344495541e-13,4.630709976e-13,6.428497753e-14,1.479670518e-13,6.704555174e-13,1.838347776e-13,2.97793632e-13,6.030241257e-13,4.495170643e-13
0.5,3.923861607e-13,4.154554133e-13,1.136454514e-12,3.002739869e-13,8.568556402e-14,3.830475258e-13,2.245485172e-13,1.315101753e-13,4.558433925e-13,1.434452168e-13,1.758058253e-13,2.101137542e-13,7.998519117e-13,2.201785143e-13,1.176116806e-13,1.163147345e-13,7.978316397e-14,3.371550303e-13,1.967382253e-13,1.548389478e-13,8.517167407e-14,4.401910587e-13,5.416471935e-14,1.373416639e-13,4.663030012e-13,6.41188465e-14,1.506812611e-13,6.703150267e-13,1.832527372e-13,3.093814722e-13,6.191128165e-13,4.613076491e-13
0.5078125,4.035870248e-13,4.327127692e-13,1.135645784e-12,3.082664639e-13,8.912206178e-14,3.767731089e-13,2.273444404e-13,1.387446447e-13,4.688040522e-13,1.462337776e-13,1.857605348e-13,2.132064236e-13,8.202885264e-13,2.181144241e-13,1.188604121e-13,1.153267915e-13,7.858426979e-14,3.394252105e-13,2.00474149e-13,1.640689608e-13,8.632855805e-14,4.479696742e-13,5.539967388e-14,1.403410664e-13,4.690479054e-13,6.444134865e-14,1.537396176e-13,6.713763063e-13,1.836679567e-13,3.227643055e-13,6.353736646e-13,4.744359312e-13
0.515625,4.15774955e-13,4.508608282e-13,1.135647413e-12,3.170163377e-13,9.300706575e-14,3.706299698e-13,2.299420316e-13,1.468215104e-13,4.824571994e-13,1.496010979e-13,1.960750174e-13,2.165047746e-13,8.415935428e-13,2.160517836e-13,1.202691797e-13,1.150939113e-13,7.796690614e-14,3.419062208e-13,2.043850704e-13,1.739788912e-13,8.7510662e-14,4.566363533e-13,5.69628761e-14,1.437010722e-13,4.709261792e-13,6.526667089e-14,1.571009483e-13,6.730061809e-13,1.850707426e-13,3.376743029e-13,6.517036967e-13,4.887959569e-13
0.5234375,4.28880575e-13,4.699933391e-13,1.136640559e-12,3.265054263e-13,9.746347123e-14,3.646841927e-13,2.325095916e-13,1.557580977e-13,4.965818592e-13,1.534020823e-13,2.066894125e-13,2.199502757e-13,8.634399391e-13,2.138982025e-13,1.21881545e-13,1.158620294e-13,7.813352358e-14,3.444751918e-13,2.083409914e-13,1.846318669e-13,8.886783737e-14,4.660369171e-13,5.883040992e-14,1.476114632e-13,4.721625561e-13,6.665100744e-14,1.608267031e-13,6.756835631e-13,1.875734845e-13,3.536784878e-13,6.681054431e-13,5.043445423e-13
0.53125,4.42905828e-13,4.903167007e-13,1.138973632e-12,3.3690043e-13,1.025605996e-13,3.590847184e-13,2.349865927e-13,1.654485321e-13,5.111191934e-13,1.57594001e-13,2.177021736e-13,2.236240662e-13,8.855494466e-13,2.117090339e-13,1.238465034e-13,1.175951306e-13,7.897286372e-14,3.469754432e-13,2.123331638e-13,1.961029199e-13,9.045596394e-14,4.761474643e-13,6.103904871e-14,1.522060849e-13,4.730052841e-13,6.860733629e-14,1.650364633e-13,6.795885002e-13,1.913327503e-13,3.70921954e-13,6.846413698e-13,5.211519229e-13
0.5390625,4.577557122e-13,5.115474673e-13,1.142434342e-12,3.478885992e-13,1.082583554e-13,3.534201032e-13,2.371491059e-13,1.760885581e-13,5.261795282e-13,1.625186068e-13,2.290560414e-13,2.276251701e-13,9.077678782e-13,2.095884758e-13,1.260573363e-13,1.200831279e-13,8.033740886e-14,3.493524028e-13,2.163736638e-13,2.084942275e-13,9.222958836e-14,4.86986432e-13,6.364759302e-14,1.574562622e-13,4.735847669e-13,7.112566611e-14,1.697126008e-13,6.844531723e-13,1.964324603e-13,3.892008311e-13,7.008889604e-13,5.392644752e-13
0.546875,4.73587157e-13,5.337806878e-13,1.146320992e-12,3.595220997e-13,1.146743253e-13,3.474706738e-13,2.392455534e-13,1.878304391e-13,5.417016958e-13,1.682793716e-13,2.404894152e-13,2.319282361e-13,9.300791766e-13,2.074412208e-13,1.284641304e-13,1.234747117e-13,8.247130972e-14,3.516788439e-13,2.204316607e-13,2.21529521e-13,9.428388742e-14,4.984739384e-13,6.668299084e-14,1.630941748e-13,4.737483371e-13,7.424898699e-14,1.747840441e-13,6.904812501e-13,2.030706632e-13,4.087138053e-13,7.171540338e-13,5.585933218e-13
0.5546875,4.899683804e-13,5.570142899e-13,1.150385673e-12,3.719143445e-13,1.216403344e-13,3.417454785e-13,2.413660153e-13,2.003863082e-13,5.573761216e-13,1.744489007e-13,2.516805316e-13,2.363356198e-13,9.523964429e-13,2.051923697e-13,1.309775876e-13,1.278152893e-13,8.548190868e-14,3.540140644e-13,2.244300742e-13,2.349330479e-13,9.658393174e-14,5.105986277e-13,7.021977745e-14,1.690022618e-13,4.731522657e-13,7.790974134e-14,1.801618322e-13,6.973634537e-13,2.110244967e-13,4.298841652e-13,7.337569013e-13,5.789847581e-13
0.5625,5.071254836e-13,5.809522327e-13,1.155749244e-12,3.845298403e-13,1.291998896e-13,3.363951441e-13,2.434779101e-13,2.137435488e-13,5.729275373e-13,1.807968671e-13,2.633089643e-13,2.407740416e-13,9.74261337e-13,2.030918906e-13,1.338709322e-13,1.332394278e-13,8.940804566e-14,3.560448209e-13,2.283423914e-13,2.492839051e-13,9.900016448e-14,5.232663674e-13,7.428458116e-14,1.753009849e-13,4.718847432e-13,8.226750721e-14,1.859483736e-13,7.048860361e-13,2.198501509e-13,4.520394333e-13,7.503949027e-13,6.003048232e-13
0.5703125,5.251957324e-13,6.057460262e-13,1.162785234e-12,3.977418963e-13,1.377130841e-13,3.313078388e-13,2.456081296e-13,2.279998285e-13,5.884037178e-13,1.875771031e-13,2.757130566e-13,2.45457091e-13,9.953707404e-13,2.013245034e-13,1.37515423e-13,1.399951671e-13,9.441335176e-14,3.575757442e-13,2.321700946e-13,2.648666707e-13,1.016294696e-13,5.363034916e-13,7.88106342e-14,1.819691366e-13,4.700501759e-13,8.742271786e-14,1.926237475e-13,7.136089144e-13,2.298443992e-13,4.745785384e-13,7.673041379e-13,6.224707804e-13
0.578125,5.44353809e-13,6.320431294e-13,1.171291252e-12,4.120379133e-13,1.470465584e-13,3.266010062e-13,2.479884313e-13,2.430664249e-13,6.040501669e-13,1.949430633e-13,2.884310911e-13,2.506124788e-13,1.015902105e-12,1.997972641e-13,1.41533497e-13,1.478413842e-13,1.004565994e-13,3.589951076e-13,2.360459901e-13,2.812780786e-13,1.045272005e-13,5.497485969e-13,8.377375314e-14,1.891501458e-13,4.678526822e-13,9.324595415e-14,2.00196048e-13,7.231804428e-13,2.414642884e-13,4.980112045e-13,7.851413819e-13,6.452390813e-13
0.5859375,5.646801012e-13,6.594653424e-13,1.181379222e-12,4.269306435e-13,1.569421451e-13,3.22267727e-13,2.503788829e-13,2.590356463e-13,6.20067166e-13,2.028999333e-13,3.008418335e-13,2.56232887e-13,1.036100555e-12,1.984886309e-13,1.455145382e-13,1.565816989e-13,1.073877304e-13,3.604576288e-13,2.399993101e-13,2.982955541e-13,1.076680736e-13,5.637326691e-13,8.923300267e-14,1.971188421e-13,4.651432161e-13,9.971177933e-14,2.08253143e-13,7.334230275e-13,2.542962793e-13,5.229049408e-13,8.033691239e-13,6.686514564e-13
0.59375,5.855071538e-13,6.875092415e-13,1.192551122e-12,4.421597953e-13,1.675592085e-13,3.181254291e-13,2.527698145e-13,2.758151436e-13,6.360150922e-13,2.114086087e-13,3.131921518e-13,2.621152549e-13,1.055615619e-12,1.973970101e-13,1.497780857e-13,1.66421293e-13,1.153452847e-13,3.61435056e-13,2.438821084e-13,3.15956267e-13,1.112152728e-13,5.780387167e-13,9.526263098e-14,2.057984388e-13,4.614651734e-13,1.06949088e-13,2.168456527e-13,7.447252737e-13,2.684627708e-13,5.493833182e-13,8.220165143e-13,6.927674623e-13
0.6015625,6.060841804e-13,7.157413034e-13,1.204233531e-12,4.574367923e-13,1.788861266e-13,3.141136774e-13,2.552105676e-13,2.932885144e-13,6.513688939e-13,2.202675026e-13,3.253729533e-13,2.680914664e-13,1.073691099e-12,1.964392631e-13,1.543539853e-13,1.774233931e-13,1.243809915e-13,3.615804038e-13,2.474112123e-13,3.342345793e-13,1.152358486e-13,5.922597316e-13,1.01806585e-13,2.14961421e-13,4.570436048e-13,1.148271099e-13,2.259643459e-13,7.563092619e-13,2.840192912e-13,5.76071507e-13,8.40917999e-13,7.173756968e-13
0.609375,6.271201746e-13,7.446528096e-13,1.21675245e-12,4.728947311e-13,1.909449338e-13,3.102666747e-13,2.578449982e-13,3.118644666e-13,6.665667452e-13,2.295073111e-13,3.369670836e-13,2.743371351e-13,1.090534401e-12,1.958053058e-13,1.592300932e-13,1.896660019e-13,1.345684957e-13,3.613205004e-13,2.507092674e-13,3.531383293e-13,1.19695564e-13,6.065133636e-13,1.088437081e-13,2.246928418e-13,4.521863621e-13,1.233057503e-13,2.356027613e-13,7.683440136e-13,3.00744899e-13,6.027486327e-13,8.603131109e-13,7.425089734e-13
0.6171875,6.493807537e-13,7.749347266e-13,1.230437684e-12,4.891439336e-13,2.036982212e-13,3.066128168e-13,2.608737738e-13,3.315334337e-13,6.817953018e-13,2.391724267e-13,3.485311628e-13,2.809305929e-13,1.106610244e-12,1.95602984e-13,1.646363506e-13,2.030354768e-13,1.458839191e-13,3.607423038e-13,2.540808218e-13,3.726038182e-13,1.246121315e-13,6.210376333e-13,1.165030103e-13,2.351296878e-13,4.465013868e-13,1.32418422e-13,2.459540125e-13,7.812548823e-13,3.189578504e-13,6.316724275e-13,8.812955787e-13,7.680743245e-13
0.625,6.717674238e-13,8.055032136e-13,1.244719241e-12,5.057013891e-13,2.168647858e-13,3.03376418e-13,2.640182568e-13,3.517969354e-13,6.965296922e-13,2.491228848e-13,3.59620929e-13,2.876193028e-13,1.121221939e-12,1.956106377e-13,1.701042173e-13,2.173200548e-13,1.581749972e-13,3.593733162e-13,2.571316465e-13,3.926233028e-13,1.298402919e-13,6.354881131e-13,1.247646491e-13,2.457410332e-13,4.39799237e-13,1.420301609e-13,2.569251572e-13,7.936229197e-13,3.38403793e-13,6.619321521e-13,9.029681656e-13,7.939070678e-13
0.6328125,6.940908222e-13,8.362054787e-13,1.260164762e-12,5.221270125e-13,2.307767675e-13,3.00472463e-13,2.676133184e-13,3.725992837e-13,7.106012304e-13,2.594773397e-13,3.699491798e-13,2.944831901e-13,1.133868442e-12,1.959701612e-13,1.755355918e-13,2.327069279e-13,1.717242324e-13,3.575044804e-13,2.598026654e-13,4.135019785e-13,1.354642526e-13,6.494854111e-13,1.334883451e-13,2.564280454e-13,4.328354455e-13,1.523204588e-13,2.685503086e-13,8.053531771e-13,3.589687688e-13,6.908043662e-13,9.251148447e-13,8.200078331e-13
0.640625,7.162842422e-13,8.67618674e-13,1.27600241e-12,5.38932159e-13,2.456352564e-13,2.977490698e-13,2.719915859e-13,3.940508669e-13,7.240527303e-13,2.70375755e-13,3.799259151e-13,3.016053908e-13,1.144832726e-12,1.968250828e-13,1.813457139e-13,2.491807233e-13,1.865378548e-13,3.55474267e-13,2.623126134e-13,4.347272708e-13,1.416820924e-13,6.630783072e-13,1.427575142e-13,2.678056808e-13,4.256003676e-13,1.63357776e-13,2.809521688e-13,8.176274737e-13,3.809773814e-13,7.19015061e-13,9.487930946e-13,8.462296198e-13
0.6484375,7.381601812e-13,8.994713385e-13,1.291506196e-12,5.559704045e-13,2.611481782e-13,2.95055105e-13,2.768818568e-13,4.162456291e-13,7.366589695e-13,2.816882844e-13,3.893627216e-13,3.087586204e-13,1.153831539e-12,1.980661546e-13,1.875754888e-13,2.667906958e-13,2.024870506e-13,3.528287e-13,2.644346647e-13,4.561762365e-13,1.482780562e-13,6.761550949e-13,1.526025209e-13,2.799382439e-13,4.176455277e-13,1.749419517e-13,2.938633915e-13,8.296853446e-13,4.04336902e-13,7.47191884e-13,9.738567256e-13,8.724395755e-13
0.65625,7.598639797e-13,9.315526658e-13,1.306974103e-12,5.730685541e-13,2.77395851e-13,2.924459667e-13,2.822938505e-13,4.390367165e-13,7.483223989e-13,2.933148019e-13,3.978728083e-13,3.159304945e-13,1.160519027e-12,1.998744403e-13,1.941625227e-13,2.858909459e-13,2.199654909e-13,3.495863852e-13,2.661273703e-13,4.784424035e-13,1.551992723e-13,6.884541693e-13,1.628415241e-13,2.923804164e-13,4.093940977e-13,1.871307738e-13,3.076044116e-13,8.41021412e-13,4.292823028e-13,7.74611831e-13,1.000220336e-12,8.985299274e-13
0.6640625,7.811491201e-13,9.638811495e-13,1.322242136e-12,5.905521382e-13,2.942959342e-13,2.903085033e-13,2.881458312e-13,4.618717106e-13,7.58889751e-13,3.049414935e-13,4.061417841e-13,3.230965704e-13,1.165002292e-12,2.023704551e-13,2.013575306e-13,3.061700808e-13,2.385584492e-13,3.460958375e-13,2.674821801e-13,5.010657634e-13,1.626333391e-13,6.998333879e-13,1.733223372e-13,3.053802636e-13,4.009866731e-13,1.998958866e-13,3.225514594e-13,8.520355907e-13,4.55900464e-13,8.016648612e-13,1.028162584e-12,9.240043317e-13
0.671875,8.020337717e-13,9.961369697e-13,1.337144676e-12,6.08198052e-13,3.114254586e-13,2.886765263e-13,2.942872849e-13,4.84494506e-13,7.680960765e-13,3.160388324e-13,4.146027984e-13,3.300549412e-13,1.166990843e-12,2.054062625e-13,2.092198083e-13,3.272684262e-13,2.576974088e-13,3.422495939e-13,2.681631681e-13,5.235307929e-13,1.704733321e-13,7.099908801e-13,1.839504153e-13,3.191719306e-13,3.921776415e-13,2.130312088e-13,3.382140065e-13,8.619151799e-13,4.833483264e-13,8.277235878e-13,1.057125091e-12,9.484224833e-13
0.6796875,8.228784585e-13,1.028580095e-12,1.351652949e-12,6.259820177e-13,3.286760842e-13,2.869538182e-13,3.010245076e-13,5.069982956e-13,7.760175932e-13,3.268584823e-13,4.225539311e-13,3.369923134e-13,1.166323588e-12,2.089975427e-13,2.173234875e-13,3.49281702e-13,2.780017277e-13,3.381126007e-13,2.68301181e-13,5.462414318e-13,1.787958308e-13,7.188105696e-13,1.947521431e-13,3.334538509e-13,3.832717541e-13,2.264285446e-13,3.545954454e-13,8.699494582e-13,5.11848352e-13,8.527362241e-13,1.087410572e-12,9.716180185e-13
0.6875,8.428801937e-13,1.061215028e-12,1.364587601e-12,6.440121698e-13,3.460091132e-13,2.849602726e-13,3.0821226e-13,5.294834451e-13,7.827191177e-13,3.382242307e-13,4.292066857e-13,3.439063072e-13,1.163203531e-12,2.12933588e-13,2.252687748e-13,3.721017999e-13,2.994400187e-13,3.336215156e-13,2.680912374e-13,5.687662867e-13,1.877001216e-13,7.264605169e-13,2.058776664e-13,3.481159468e-13,3.741164066e-13,2.400044276e-13,3.71804076e-13,8.762559106e-13,5.417003659e-13,8.784462338e-13,1.119185997e-12,9.935910783e-13
0.6953125,8.62134382e-13,1.093656265e-12,1.377129646e-12,6.621221888e-13,3.6346472e-13,2.828370312e-13,3.156748184e-13,5.520723303e-13,7.878708521e-13,3.501138062e-13,4.349724825e-13,3.503907217e-13,1.157398178e-12,2.171324771e-13,2.335411068e-13,3.959047163e-13,3.214534088e-13,3.286004147e-13,2.67267008e-13,5.907099807e-13,1.970540124e-13,7.32698779e-13,2.173116268e-13,3.632283496e-13,3.645152125e-13,2.537470252e-13,3.893184049e-13,8.808230412e-13,5.722323208e-13,9.040723787e-13,1.151884165e-12,1.01418061e-12
0.703125,8.810604417e-13,1.125851146e-12,1.388769783e-12,6.805740426e-13,3.810657636e-13,2.80986529e-13,3.237560062e-13,5.744497158e-13,7.914869882e-13,3.617601155e-13,4.401968239e-13,3.564492952e-13,1.148818451e-12,2.219144882e-13,2.425167926e-13,4.20793009e-13,3.443077487e-13,3.234355737e-13,2.658887679e-13,6.123219453e-13,2.068157158e-13,7.37441991e-13,2.289373548e-13,3.781941226e-13,3.548860579e-13,2.675576695e-13,4.073677579e-13,8.841050155e-13,6.037899134e-13,9.281147776e-13,1.185619458e-12,1.033092434e-12
0.7109375,8.994873408e-13,1.157342558e-12,1.399672624e-12,6.989596594e-13,3.983947225e-13,2.792500828e-13,3.320279521e-13,5.963018378e-13,7.93853389e-13,3.72847669e-13,4.446532155e-13,3.62160295e-13,1.137714152e-12,2.270555343e-13,2.51612122e-13,4.4613041e-13,3.676317179e-13,3.182262658e-13,2.642085301e-13,6.330252584e-13,2.168166808e-13,7.409461352e-13,2.405019939e-13,3.93035821e-13,3.452717792e-13,2.809999564e-13,4.259217216e-13,8.859386133e-13,6.363567566e-13,9.508915037e-13,1.219835949e-12,1.050423557e-12
0.71875,9.170412663e-13,1.187626751e-12,1.409835387e-12,7.167832682e-13,4.154300247e-13,2.773350133e-13,3.403095688e-13,6.178761215e-13,7.9501404e-13,3.837023077e-13,4.478916486e-13,3.672838334e-13,1.124231669e-12,2.321999719e-13,2.603851251e-13,4.716773159e-13,3.908602406e-13,3.127986097e-13,2.620658786e-13,6.519841615e-13,2.269948047e-13,7.431308241e-13,2.518288635e-13,4.081414532e-13,3.356229342e-13,2.94172583e-13,4.444023867e-13,8.85544314e-13,6.690297155e-13,9.722243564e-13,1.254114438e-12,1.066498322e-12
0.7265625,9.334322033e-13,1.216968784e-12,1.417928072e-12,7.342761084e-13,4.32240429e-13,2.751654275e-13,3.487673136e-13,6.391751275e-13,7.948641735e-13,3.944141505e-13,4.498141971e-13,3.717432043e-13,1.108668728e-12,2.374681504e-13,2.689393422e-13,4.972617209e-13,4.142549323e-13,3.073269851e-13,2.596245234e-13,6.697191732e-13,2.375380457e-13,7.439240791e-13,2.63074853e-13,4.233165486e-13,3.262233916e-13,3.071567218e-13,4.629946415e-13,8.829916239e-13,7.021982226e-13,9.921975349e-13,1.288863336e-12,1.081053116e-12
0.734375,9.482222883e-13,1.244756956e-12,1.423623981e-12,7.508768634e-13,4.485644163e-13,2.726463339e-13,3.570400693e-13,6.598477528e-13,7.93287437e-13,4.048554948e-13,4.504088066e-13,3.75415706e-13,1.090872824e-12,2.426431645e-13,2.769989384e-13,5.225679824e-13,4.379765833e-13,3.016159841e-13,2.568349817e-13,6.868238901e-13,2.480829506e-13,7.432758409e-13,2.743121599e-13,4.382466656e-13,3.170913111e-13,3.197666183e-13,4.818728308e-13,8.787729196e-13,7.357513183e-13,1.010531229e-12,1.323196647e-12,1.093979603e-12
0.7421875,9.619614026e-13,1.271254344e-12,1.42819024e-12,7.66962846e-13,4.64706159e-13,2.701246853e-13,3.654188386e-13,6.798019841e-13,7.904136837e-13,4.152272893e-13,4.500126638e-13,3.785634977e-13,1.070664037e-12,2.479527175e-13,2.848438374e-13,5.481717725e-13,4.620860346e-13,2.957509001e-13,2.535885805e-13,7.031661969e-13,2.585232299e-13,7.410561394e-13,2.852581684e-13,4.527980498e-13,3.083198222e-13,3.323050756e-13,5.014760861e-13,8.725638321e-13,7.696755321e-13,1.026063594e-12,1.357642735e-12,1.105476929e-12
0.75,9.753997746e-13,1.297634363e-12,1.431724501e-12,7.836639017e-13,4.808751838e-13,2.679638431e-13,3.742513374e-13,6.989375903e-13,7.864667858e-13,4.252610625e-13,4.492541189e-13,3.816247972e-13,1.04872147e-12,2.539655135e-13,2.93284167e-13,5.744011738e-13,4.863573212e-13,2.903336083e-13,2.50286032e-13,7.185019482e-13,2.692834318e-13,7.375632595e-13,2.957764588e-13,4.668947759e-13,2.999819591e-13,3.44713962e-13,5.219296076e-13,8.640537824e-13,8.046774082e-13,1.039848913e-12,1.393640744e-12,1.115360536e-12
0.7578125,9.874511752e-13,1.322206311e-12,1.432652822e-12,7.996169349e-13,4.967484403e-13,2.65571419e-13,3.830117904e-13,7.171031976e-13,7.810375543e-13,4.340799181e-13,4.480441956e-13,3.838985503e-13,1.02490983e-12,2.600861263e-13,3.019996462e-13,6.008468458e-13,5.104303535e-13,2.850302002e-13,2.465150839e-13,7.326202936e-13,2.799853951e-13,7.326276406e-13,3.058125939e-13,4.807473963e-13,2.917987964e-13,3.566320636e-13,5.418312329e-13,8.536093084e-13,8.393453099e-13,1.052390944e-12,1.429321069e-12,1.123565543e-12
0.765625,9.968975054e-13,1.343441452e-12,1.429752204e-12,8.140370125e-13,5.122493802e-13,2.626294774e-13,3.914096907e-13,7.340556989e-13,7.735429467e-13,4.417140818e-13,4.458705652e-13,3.848072993e-13,9.985036656e-13,2.659345446e-13,3.103921041e-13,6.273165372e-13,5.343804448e-13,2.794267512e-13,2.417310855e-13,7.454231528e-13,2.902873262e-13,7.255405831e-13,3.15067143e-13,4.946412531e-13,2.838198645e-13,3.680826457e-13,5.608720459e-13,8.409597554e-13,8.728816903e-13,1.062016425e-12,1.463302293e-12,1.129835279e-12
0.7734375,1.004564295e-12,1.36284613e-12,1.42453946e-12,8.283034721e-13,5.270004122e-13,2.5962113e-13,3.991075708e-13,7.493468991e-13,7.641920494e-13,4.489745135e-13,4.426656177e-13,3.850558398e-13,9.701875522e-13,2.719931375e-13,3.185358443e-13,6.532360145e-13,5.576618416e-13,2.739369931e-13,2.365351792e-13,7.566635306e-13,3.006549335e-13,7.167104109e-13,3.236927082e-13,5.084155058e-13,2.762433523e-13,3.786593174e-13,5.797569477e-13,8.25741901e-13,9.063995447e-13,1.069826805e-12,1.496361379e-12,1.13365853e-12
0.78125,1.011066187e-12,1.380740578e-12,1.417272461e-12,8.422661324e-13,5.407153194e-13,2.569271745e-13,4.063372144e-13,7.628525226e-13,7.534800846e-13,4.557930086e-13,4.386492165e-13,3.849562175e-13,9.405199961e-13,2.782253493e-13,3.265414314e-13,6.784057619e-13,5.802883361e-13,2.687105032e-13,2.310625277e-13,7.663214535e-13,3.110245781e-13,7.06705549e-13,3.321740998e-13,5.215384862e-13,2.69029095e-13,3.884288691e-13,5.981583027e-13,8.081760346e-13,9.391279611e-13,1.076783126e-12,1.528229555e-12,1.135270959e-12
0.7890625,1.016027913e-12,1.396159789e-12,1.408300824e-12,8.555515925e-13,5.536180354e-13,2.546147159e-13,4.137483538e-13,7.746866462e-13,7.415133977e-13,4.615125175e-13,4.342226517e-13,3.842889153e-13,9.093357499e-13,2.847830969e-13,3.34585312e-13,7.03691416e-13,6.032893346e-13,2.640544872e-13,2.2512633e-13,7.749913281e-13,3.209990929e-13,6.950955797e-13,3.400431554e-13,5.343449635e-13,2.62310159e-13,3.977266371e-13,6.164206505e-13,7.879576529e-13,9.70444258e-13,1.081065195e-12,1.558840592e-12,1.134593453e-12
0.796875,1.01909007e-12,1.409130631e-12,1.396655383e-12,8.684918134e-13,5.656237151e-13,2.526286577e-13,4.20704585e-13,7.848066485e-13,7.282454736e-13,4.6624395e-13,4.292052079e-13,3.830798043e-13,8.772186776e-13,2.918669499e-13,3.427495299e-13,7.287801659e-13,6.255490446e-13,2.602601938e-13,2.191827043e-13,7.823676031e-13,3.30492974e-13,6.818804217e-13,3.466985334e-13,5.471453448e-13,2.564862918e-13,4.059681261e-13,6.345002564e-13,7.661349338e-13,1.0012582e-12,1.083774586e-12,1.58838092e-12,1.131175923e-12
0.8046875,1.019868028e-12,1.419027968e-12,1.381393147e-12,8.801941957e-13,5.764095564e-13,2.504887201e-13,4.260960022e-13,7.932463826e-13,7.135276769e-13,4.701194275e-13,4.235266635e-13,3.810546493e-13,8.44604123e-13,2.986877577e-13,3.504018651e-13,7.523171411e-13,6.452783199e-13,2.567941145e-13,2.130743115e-13,7.876808799e-13,3.3949232e-13,6.674013931e-13,3.524843444e-13,5.594472761e-13,2.515537057e-13,4.127687938e-13,6.510467863e-13,7.441487422e-13,1.030812852e-12,1.086420742e-12,1.615374028e-12,1.125353231e-12
0.8125,1.018470682e-12,1.425672233e-12,1.362712219e-12,8.907801571e-13,5.858821936e-13,2.482194012e-13,4.305603782e-13,7.998380687e-13,6.975040716e-13,4.728230304e-13,4.175204112e-13,3.781219809e-13,8.114018294e-13,3.051190934e-13,3.573407506e-13,7.744000728e-13,6.634955419e-13,2.535546995e-13,2.064816842e-13,7.914716049e-13,3.482549176e-13,6.516618782e-13,3.576304182e-13,5.709683711e-13,2.47026259e-13,4.184687277e-13,6.664529461e-13,7.206180875e-13,1.058611192e-12,1.087543972e-12,1.639657024e-12,1.117284342e-12
0.8203125,1.015938583e-12,1.430174753e-12,1.342418973e-12,9.010621114e-13,5.938065298e-13,2.462017243e-13,4.345394645e-13,8.042633328e-13,6.807806019e-13,4.746536316e-13,4.107733525e-13,3.746860502e-13,7.780271142e-13,3.116314844e-13,3.637278125e-13,7.954522133e-13,6.809614718e-13,2.508982983e-13,1.998819221e-13,7.93690722e-13,3.568560879e-13,6.350876313e-13,3.619944639e-13,5.816825766e-13,2.427216881e-13,4.229966388e-13,6.813822865e-13,6.953927287e-13,1.085142098e-12,1.087871995e-12,1.661749808e-12,1.106934264e-12
0.828125,1.011769914e-12,1.431954348e-12,1.320546632e-12,9.098633538e-13,6.00270286e-13,2.440458022e-13,4.375964975e-13,8.066094024e-13,6.632746603e-13,4.759647363e-13,4.028696226e-13,3.70541164e-13,7.444618826e-13,3.176376692e-13,3.690684799e-13,8.150255141e-13,6.967983174e-13,2.486435897e-13,1.932564921e-13,7.934104648e-13,3.647026092e-13,6.176635123e-13,3.65464607e-13,5.913837308e-13,2.39161552e-13,4.264367269e-13,6.951926881e-13,6.697743585e-13,1.109610748e-12,1.087376831e-12,1.680824615e-12,1.094544688e-12
0.8359375,1.00461175e-12,1.430008037e-12,1.294823818e-12,9.166304827e-13,6.054667109e-13,2.414338569e-13,4.398306086e-13,8.070662506e-13,6.445011358e-13,4.762907321e-13,3.943787431e-13,3.654254352e-13,7.102974532e-13,3.227948212e-13,3.73340146e-13,8.330796203e-13,7.108639253e-13,2.467394769e-13,1.86418622e-13,7.913531835e-13,3.715777584e-13,5.987770873e-13,3.675549669e-13,6.004594119e-13,2.363856214e-13,4.288574802e-13,7.080475941e-13,6.430524857e-13,1.131767647e-12,1.083784283e-12,1.696943477e-12,1.079692322e-12
0.84375,9.954682785e-13,1.425121945e-12,1.266191107e-12,9.222025644e-13,6.090051198e-13,2.387858025e-13,4.409398375e-13,8.057094506e-13,6.2491455e-13,4.754359016e-13,3.857102003e-13,3.596904831e-13,6.76083565e-13,3.274290721e-13,3.76924114e-13,8.494940901e-13,7.229756192e-13,2.452364508e-13,1.798199056e-13,7.878784599e-13,3.778399828e-13,5.789356979e-13,3.683470517e-13,6.092949683e-13,2.339044794e-13,4.297883427e-13,7.196497108e-13,6.159956838e-13,1.152134061e-12,1.079736376e-12,1.710230332e-12,1.062305883e-12
0.8515625,9.853754954e-13,1.417451103e-12,1.237541776e-12,9.260975094e-13,6.108902645e-13,2.362277547e-13,4.403408507e-13,8.028256629e-13,6.050083365e-13,4.737412479e-13,3.766484799e-13,3.532748458e-13,6.424843511e-13,3.311522059e-13,3.792897515e-13,8.636401703e-13,7.327801618e-13,2.438485477e-13,1.73253476e-13,7.817897124e-13,3.834627281e-13,5.589335546e-13,3.687084606e-13,6.17373504e-13,2.320252752e-13,4.294434313e-13,7.290086482e-13,5.895640216e-13,1.16994694e-12,1.076982448e-12,1.71933628e-12,1.043316306e-12
0.859375,9.732778585e-13,1.406292812e-12,1.208049573e-12,9.276357559e-13,6.115865334e-13,2.334404241e-13,4.384542216e-13,7.985202969e-13,5.844712424e-13,4.710534695e-13,3.66969967e-13,3.458664606e-13,6.094251044e-13,3.336572033e-13,3.803152832e-13,8.759343377e-13,7.409352632e-13,2.425777809e-13,1.661141901e-13,7.733629887e-13,3.882234803e-13,5.38568035e-13,3.68559901e-13,6.244810079e-13,2.309956059e-13,4.282959637e-13,7.365476158e-13,5.618729487e-13,1.184454667e-12,1.071308592e-12,1.723944866e-12,1.023030465e-12
0.8671875,9.586755527e-13,1.39190932e-12,1.175722802e-12,9.273730152e-13,6.108381959e-13,2.303386564e-13,4.356185556e-13,7.924420797e-13,5.63115095e-13,4.670549625e-13,3.56863252e-13,3.37576398e-13,5.766800673e-13,3.351981025e-13,3.806821968e-13,8.869700426e-13,7.475306648e-13,2.414936443e-13,1.585654489e-13,7.63270139e-13,3.920786884e-13,5.175870276e-13,3.673462354e-13,6.310241793e-13,2.304629058e-13,4.259610654e-13,7.425760591e-13,5.331828158e-13,1.195930598e-12,1.061760286e-12,1.724862419e-12,1.001171799e-12
0.875,9.419764066e-13,1.374426772e-12,1.141172115e-12,9.254153651e-13,6.082107306e-13,2.26948036e-13,4.313999667e-13,7.84545427e-13,5.411215701e-13,4.620612499e-13,3.467001595e-13,3.284579951e-13,5.442858541e-13,3.355890995e-13,3.800207745e-13,8.958352859e-13,7.516996048e-13,2.404155602e-13,1.508626165e-13,7.509969478e-13,3.948242883e-13,4.961298021e-13,3.651982946e-13,6.369783049e-13,2.304448425e-13,4.220845673e-13,7.465313851e-13,5.049188472e-13,1.204579167e-12,1.050498813e-12,1.721612549e-12,9.776472915e-13
0.8828125,9.231100302e-13,1.353302335e-12,1.105292322e-12,9.210412025e-13,6.040914193e-13,2.231940117e-13,4.256605442e-13,7.753475051e-13,5.186864381e-13,4.564466306e-13,3.362989547e-13,3.185701648e-13,5.126558979e-13,3.347331197e-13,3.777220276e-13,9.020092792e-13,7.534497589e-13,2.394258111e-13,1.430839171e-13,7.372098256e-13,3.96437685e-13,4.74508569e-13,3.622666588e-13,6.420962345e-13,2.307990182e-13,4.169193818e-13,7.482353356e-13,4.762070423e-13,1.210057738e-12,1.037910971e-12,1.713230326e-12,9.5262306e-13
0.890625,9.021994634e-13,1.328838955e-12,1.06800123e-12,9.145591365e-13,5.991531904e-13,2.192646841e-13,4.188612836e-13,7.650754358e-13,4.959023607e-13,4.499125925e-13,3.256261515e-13,3.08148673e-13,4.820139535e-13,3.331723373e-13,3.746457225e-13,9.066866987e-13,7.535999189e-13,2.386459727e-13,1.354076153e-13,7.229770923e-13,3.973288614e-13,4.529409847e-13,3.586332836e-13,6.464847232e-13,2.314826987e-13,4.108741971e-13,7.478828356e-13,4.472487085e-13,1.212240436e-12,1.024794019e-12,1.700459499e-12,9.265866409e-13
0.8984375,8.797211109e-13,1.302131503e-12,1.029747117e-12,9.072692722e-13,5.933436407e-13,2.15562037e-13,4.112649981e-13,7.532940273e-13,4.726245166e-13,4.421198666e-13,3.153882942e-13,2.972527701e-13,4.520069157e-13,3.311877455e-13,3.71696725e-13,9.103167554e-13,7.522181949e-13,2.378635514e-13,1.27802201e-13,7.07854722e-13,3.975711491e-13,4.311838173e-13,3.542583074e-13,6.503610308e-13,2.331420078e-13,4.039821771e-13,7.460825152e-13,4.188490588e-13,1.211791885e-12,1.010606335e-12,1.684747626e-12,8.994453376e-13
0.90625,8.559277268e-13,1.273449197e-12,9.910624864e-13,8.990898254e-13,5.860629232e-13,2.121581655e-13,4.024809331e-13,7.397308903e-13,4.489083831e-13,4.334997591e-13,3.057862676e-13,2.860759903e-13,4.226509186e-13,3.285607796e-13,3.682993172e-13,9.115895622e-13,7.484465021e-13,2.369376205e-13,1.202203849e-13,6.913814946e-13,3.968669861e-13,4.09164018e-13,3.488766701e-13,6.538343841e-13,2.356630005e-13,3.959313836e-13,7.429092772e-13,3.90810982e-13,1.208691811e-12,9.940853895e-13,1.665778599e-12,8.708439395e-13
0.9140625,8.308119275e-13,1.242142968e-12,9.517162433e-13,8.890053903e-13,5.7733801e-13,2.089493259e-13,3.924078943e-13,7.248857369e-13,4.252471028e-13,4.245895085e-13,2.964879828e-13,2.749547556e-13,3.946044099e-13,3.252333558e-13,3.635602574e-13,9.102223289e-13,7.423446688e-13,2.362345438e-13,1.127650945e-13,6.738873722e-13,3.952027468e-13,3.872712518e-13,3.428375597e-13,6.570000916e-13,2.38600417e-13,3.869149682e-13,7.377229108e-13,3.636420581e-13,1.202191343e-12,9.765878063e-13,1.642597236e-12,8.414362127e-13
0.921875,8.043393328e-13,1.208215051e-12,9.117438916e-13,8.774484333e-13,5.676609597e-13,2.05922044e-13,3.817147975e-13,7.092375418e-13,4.019496822e-13,4.152959721e-13,2.87284772e-13,2.638171704e-13,3.682184381e-13,3.213966233e-13,3.576236388e-13,9.074409036e-13,7.350142865e-13,2.36116122e-13,1.055043886e-13,6.560757325e-13,3.927820923e-13,3.656867556e-13,3.364859811e-13,6.599014974e-13,2.421033282e-13,3.773484446e-13,7.30971201e-13,3.373018009e-13,1.193149887e-12,9.585526965e-13,1.615823191e-12,8.116505061e-13
0.9296875,7.769024351e-13,1.17234921e-12,8.718317072e-13,8.64997706e-13,5.568710509e-13,2.028242585e-13,3.704656574e-13,6.925392776e-13,3.790070031e-13,4.054220365e-13,2.779257512e-13,2.525464799e-13,3.432626128e-13,3.16944915e-13,3.509157073e-13,9.029962078e-13,7.261990034e-13,2.359532168e-13,9.856448686e-14,6.383069743e-13,3.898217453e-13,3.444192014e-13,3.294877053e-13,6.623576909e-13,2.45907565e-13,3.670544421e-13,7.230727074e-13,3.111774309e-13,1.182512956e-12,9.393443104e-13,1.586048921e-12,7.811148978e-13
0.9375,7.491292319e-13,1.134881195e-12,8.326367675e-13,8.510805887e-13,5.447942381e-13,1.996147757e-13,3.58148408e-13,6.747155454e-13,3.565897724e-13,3.950385794e-13,2.687946516e-13,2.414183309e-13,3.19560119e-13,3.117226716e-13,3.434104631e-13,8.960626685e-13,7.151697684e-13,2.350908972e-13,9.19942845e-14,6.200276402e-13,3.86476705e-13,3.236422851e-13,3.219423752e-13,6.642613386e-13,2.501879698e-13,3.560035523e-13,7.134733562e-13,2.856906875e-13,1.16939928e-12,9.197625387e-13,1.552803704e-12,7.502195102e-13
0.9453125,7.213851696e-13,1.096189668e-12,7.9441558e-13,8.359058858e-13,5.319599352e-13,1.968814853e-13,3.450611226e-13,6.563515267e-13,3.351178359e-13,3.842558455e-13,2.607423222e-13,2.306569878e-13,2.974262862e-13,3.061701229e-13,3.354276848e-13,8.877072196e-13,7.02788218e-13,2.341595521e-13,8.575591312e-14,6.012307233e-13,3.827623467e-13,3.036690882e-13,3.142835484e-13,6.659044499e-13,2.555266905e-13,3.445460283e-13,7.024768867e-13,2.614736484e-13,1.153694343e-12,9.004717586e-13,1.51635421e-12,7.197370059e-13
0.953125,6.93658997e-13,1.056385262e-12,7.568773392e-13,8.201153555e-13,5.18503119e-13,1.946652767e-13,3.315016764e-13,6.376542161e-13,3.148089005e-13,3.731385801e-13,2.536869088e-13,2.200979727e-13,2.77155954e-13,3.002780309e-13,3.271173919e-13,8.780335741e-13,6.891869307e-13,2.334341471e-13,7.988559948e-14,5.825361269e-13,3.785661169e-13,2.8469958e-13,3.065642969e-13,6.675194104e-13,2.611378211e-13,3.326255276e-13,6.901753049e-13,2.390482854e-13,1.13578785e-12,8.819912928e-13,1.476952074e-12,6.897452868e-13
0.9609375,6.655327608e-13,1.014713291e-12,7.201179608e-13,8.030354857e-13,5.04065742e-13,1.921818139e-13,3.17021372e-13,6.183687616e-13,2.954997032e-13,3.61670867e-13,2.468101772e-13,2.095416686e-13,2.584947427e-13,2.931649948e-13,3.175172276e-13,8.653783879e-13,6.732325627e-13,2.320646811e-13,7.427472312e-14,5.635985679e-13,3.73627124e-13,2.665878252e-13,2.988536596e-13,6.689445713e-13,2.665123141e-13,3.201585857e-13,6.757307194e-13,2.181893314e-13,1.114855727e-12,8.636093915e-13,1.433769428e-12,6.602970019e-13
0.96875,6.37050513e-13,9.714001945e-13,6.850806985e-13,7.84308718e-13,4.88958884e-13,1.892189061e-13,3.017900714e-13,5.986155368e-13,2.770609219e-13,3.49889545e-13,2.397371067e-13,1.991458695e-13,2.41136304e-13,2.849816936e-13,3.064652559e-13,8.503043705e-13,6.555638655e-13,2.300199346e-13,6.884305527e-14,5.443583578e-13,3.68123152e-13,2.493372968e-13,2.912990654e-13,6.698937951e-13,2.722557907e-13,3.075028048e-13,6.597077035e-13,1.980359056e-13,1.091690293e-12,8.438704672e-13,1.387365466e-12,6.317823956e-13
0.9765625,6.090875778e-13,9.279807697e-13,6.517837404e-13,7.650406662e-13,4.738010201e-13,1.862277921e-13,2.865893002e-13,5.786022226e-13,2.595290632e-13,3.379805435e-13,2.330850384e-13,1.891161863e-13,2.250095428e-13,2.766797105e-13,2.952843447e-13,8.344620296e-13,6.374563713e-13,2.27912871e-13,6.376074499e-14,5.257840857e-13,3.627413732e-13,2.331864724e-13,2.840495819e-13,6.700877846e-13,2.78278986e-13,2.949099595e-13,6.430432262e-13,1.791077033e-13,1.068138354e-12,8.245733887e-13,1.339590274e-12,6.044172527e-13
0.984375,5.817768603e-13,8.84688132e-13,6.192893842e-13,7.456822577e-13,4.587054822e-13,1.833918013e-13,2.714711713e-13,5.584061397e-13,2.428360771e-13,3.260389396e-13,2.276745631e-13,1.793537144e-13,2.100182551e-13,2.680764804e-13,2.841927301e-13,8.175265196e-13,6.185113941e-13,2.255847442e-13,5.907098095e-14,5.080585797e-13,3.574041038e-13,2.179148207e-13,2.770540853e-13,6.695075288e-13,2.84412922e-13,2.823838046e-13,6.253420436e-13,1.620802715e-13,1.043206823e-12,8.068535711e-13,1.29051804e-12,5.781490783e-13
0.9921875,5.543605597e-13,8.406266672e-13,5.877187671e-13,7.254714024e-13,4.43736749e-13,1.80594153e-13,2.562684238e-13,5.383898761e-13,2.268765261e-13,3.140853028e-13,2.233766955e-13,1.697292892e-13,1.961507822e-13,2.586978141e-13,2.723896197e-13,7.993308227e-13,5.986304137e-13,2.228237448e-13,5.462378577e-14,4.907495621e-13,3.51516753e-13,2.032450396e-13,2.69864933e-13,6.689049683e-13,2.906786102e-13,2.700522978e-13,6.065447637e-13,1.463651957e-13,1.015532721e-12,7.882025179e-13,1.239461972e-12,5.530178305e-13
1,5.268225369e-13,7.962091895e-13,5.576460212e-13,7.045862098e-13,4.291234796e-13,1.776376829e-13,2.414010436e-13,5.18672071e-13,2.115907198e-13,3.02237841e-13,2.199044331e-13,1.602291778e-13,1.833493727e-13,2.48835966e-13,2.602984738e-13,7.805318328e-13,5.785683432e-13,2.197852778e-13,5.035355849e-14,4.741663947e-13,3.452171055e-13,1.893537847e-13,2.625854877e-13,6.69120835e-13,2.968003104e-13,2.580797624e-13,5.870384037e-13,1.318295106e-13,9.865100813e-13,7.68474699e-13,1.187366075e-12,5.292180583e-13
1.0078125,4.996487042e-13,7.526010467e-13,5.288218508e-13,6.841066326e-13,4.148034322e-13,1.743343591e-13,2.269374881e-13,4.987905941e-13,1.969038734e-13,2.906236524e-13,2.174066303e-13,1.509343816e-13,1.713455657e-13,2.38664082e-13,2.485832368e-13,7.606037999e-13,5.580089678e-13,2.163587134e-13,4.637373221e-14,4.589173241e-13,3.388096948e-13,1.762517501e-13,2.558350836e-13,6.696855869e-13,3.033862726e-13,2.464064035e-13,5.667925228e-13,1.18738615e-13,9.573556463e-13,7.492124916e-13,1.13529979e-12,5.066723234e-13
1.015625,4.727362089e-13,7.097686321e-13,5.010960379e-13,6.639071122e-13,4.006059082e-13,1.706988011e-13,2.123281175e-13,4.786583263e-13,1.82795395e-13,2.792210128e-13,2.156667746e-13,1.420509157e-13,1.600710904e-13,2.281175179e-13,2.367459215e-13,7.39134072e-13,5.36546223e-13,2.124778745e-13,4.28122524e-14,4.449322341e-13,3.322763318e-13,1.636941092e-13,2.494503535e-13,6.6996296e-13,3.106808264e-13,2.349528623e-13,5.461379027e-13,1.068746613e-13,9.271550399e-13,7.295573e-13,1.083000189e-12,4.85145831e-13
1.0234375,4.459261481e-13,6.672343203e-13,4.747264982e-13,6.433473799e-13,3.866371791e-13,1.669893956e-13,1.976057114e-13,4.587384775e-13,1.692692491e-13,2.678930573e-13,2.14671632e-13,1.336499011e-13,1.495394248e-13,2.173728464e-13,2.245972205e-13,7.171534607e-13,5.148706174e-13,2.08381434e-13,3.952979136e-14,4.317492958e-13,3.257034707e-13,1.516376083e-13,2.430535475e-13,6.709424955e-13,3.176450586e-13,2.238507717e-13,5.254593144e-13,9.605115177e-14,8.95317889e-13,7.092538773e-13,1.030370404e-12,4.647618805e-13
1.03125,4.196405812e-13,6.25572364e-13,4.497203569e-13,6.230078856e-13,3.72994126e-13,1.635581688e-13,1.833431619e-13,4.392369053e-13,1.563706734e-13,2.567876281e-13,2.149028861e-13,1.256923103e-13,1.3957279e-13,2.066355587e-13,2.127762018e-13,6.951895757e-13,4.932283254e-13,2.040796699e-13,3.636492791e-14,4.19572725e-13,3.192063066e-13,1.402172685e-13,2.370175366e-13,6.730967339e-13,3.244991406e-13,2.13141472e-13,5.046165994e-13,8.625014873e-14,8.630084551e-13,6.891113222e-13,9.781995574e-13,4.456592798e-13
1.0390625,3.942221204e-13,5.85489131e-13,4.260384922e-13,6.034943776e-13,3.595711161e-13,1.604303344e-13,1.69665547e-13,4.201443772e-13,1.442014536e-13,2.46233393e-13,2.162869159e-13,1.18180364e-13,1.302833195e-13,1.959592879e-13,2.013504276e-13,6.726614856e-13,4.713136765e-13,1.994315909e-13,3.343624932e-14,4.088905688e-13,3.129568033e-13,1.295962501e-13,2.315994831e-13,6.754078709e-13,3.320779053e-13,2.026297337e-13,4.835664089e-13,7.773312792e-14,8.309547278e-13,6.690336549e-13,9.267970659e-13,4.27680172e-13
1.046875,3.693425632e-13,5.46696031e-13,4.03524982e-13,5.84473106e-13,3.463438319e-13,1.57163718e-13,1.563853548e-13,4.015186003e-13,1.327358069e-13,2.360731439e-13,2.184524717e-13,1.109551268e-13,1.219963819e-13,1.853280905e-13,1.899445495e-13,6.495760821e-13,4.494258578e-13,1.945898351e-13,3.081693092e-14,3.994518395e-13,3.07031629e-13,1.198281828e-13,2.265577894e-13,6.783069703e-13,3.398413126e-13,1.922913066e-13,4.62379043e-13,7.060734172e-14,7.982756467e-13,6.496246251e-13,8.758199177e-13,4.10819527e-13
1.0546875,3.447886136e-13,5.087774518e-13,3.819301571e-13,5.657220235e-13,3.333989623e-13,1.535370927e-13,1.433969967e-13,3.83260384e-13,1.219846995e-13,2.261132199e-13,2.212731633e-13,1.040007157e-13,1.1467927e-13,1.74802602e-13,1.786306877e-13,6.263651654e-13,4.276796423e-13,1.896512048e-13,2.847424814e-14,3.911082251e-13,3.011398548e-13,1.108845123e-13,2.219445598e-13,6.826462381e-13,3.475709858e-13,1.823206977e-13,4.411063598e-13,6.434046257e-14,7.647543175e-13,6.313879763e-13,8.253483468e-13,3.952662173e-13
1.0625,3.211981195e-13,4.720532582e-13,3.617916348e-13,5.47373502e-13,3.207894364e-13,1.498867008e-13,1.30742205e-13,3.652755757e-13,1.12174334e-13,2.166351124e-13,2.248288333e-13,9.763804999e-14,1.081371335e-13,1.645340252e-13,1.676270465e-13,6.027896238e-13,4.057471901e-13,1.844094315e-13,2.646023608e-14,3.84400603e-13,2.952784607e-13,1.028221534e-13,2.180250412e-13,6.873897704e-13,3.556783992e-13,1.727831311e-13,4.200028732e-13,5.886906279e-14,7.313569768e-13,6.134107497e-13,7.757909941e-13,3.811466865e-13
1.0703125,2.992571174e-13,4.372115012e-13,3.437535529e-13,5.297995952e-13,3.086144708e-13,1.465369289e-13,1.187528717e-13,3.476585723e-13,1.033887948e-13,2.077079037e-13,2.294177537e-13,9.195081041e-14,1.023007463e-13,1.546918409e-13,1.570702566e-13,5.787972216e-13,3.839019343e-13,1.789400923e-13,2.473849316e-14,3.79477555e-13,2.898899215e-13,9.562600464e-14,2.147169422e-13,6.923022976e-13,3.638294057e-13,1.636933694e-13,3.99352487e-13,5.458020919e-14,6.984844899e-13,5.958807531e-13,7.276719142e-13,3.6854553e-13
1.078125,2.789867559e-13,4.045946243e-13,3.273942425e-13,5.135214701e-13,2.970188754e-13,1.434503106e-13,1.076037218e-13,3.305386814e-13,9.543076193e-14,1.993402633e-13,2.350104121e-13,8.677619476e-14,9.710626279e-14,1.454889484e-13,1.471207416e-13,5.549935934e-13,3.625669861e-13,1.736348199e-13,2.316839485e-14,3.760442433e-13,2.851963849e-13,8.911857769e-14,2.119257116e-13,6.980960596e-13,3.7192849e-13,1.551528349e-13,3.793348738e-13,5.115075636e-14,6.662769316e-13,5.799182389e-13,6.816276484e-13,3.573554032e-13
1.0859375,2.601915108e-13,3.739610351e-13,3.120777399e-13,4.983478073e-13,2.860886343e-13,1.403728964e-13,9.706514393e-14,3.141162799e-13,8.812682458e-14,1.91754042e-13,2.414592774e-13,8.204433911e-14,9.245208635e-14,1.370508259e-13,1.378576048e-13,5.317325764e-13,3.417147757e-13,1.685735278e-13,2.171706783e-14,3.74200088e-13,2.811067645e-13,8.32061534e-14,2.09815127e-13,7.040539049e-13,3.805952625e-13,1.471800649e-13,3.599691083e-13,4.822656232e-14,6.350401014e-13,5.653511222e-13,6.376286851e-13,3.473511844e-13
1.09375,2.428835182e-13,3.451848793e-13,2.976131749e-13,4.839544817e-13,2.758186431e-13,1.370746903e-13,8.71735505e-14,2.983956228e-13,8.155586381e-14,1.846760812e-13,2.488263372e-13,7.771128175e-14,8.825720663e-14,1.293534821e-13,1.29346434e-13,5.090823727e-13,3.215021373e-13,1.635955339e-13,2.049738183e-14,3.740324606e-13,2.773762135e-13,7.800290049e-14,2.083571639e-13,7.097085789e-13,3.89677371e-13,1.397677723e-13,3.412373441e-13,4.599886986e-14,6.04749051e-13,5.518919069e-13,5.953643766e-13,3.386098505e-13
1.1015625,2.272397725e-13,3.1855214e-13,2.841131674e-13,4.708098421e-13,2.661784812e-13,1.336389845e-13,7.815914203e-14,2.83140177e-13,7.591204829e-14,1.779950677e-13,2.567178831e-13,7.381029301e-14,8.451699289e-14,1.223216079e-13,1.214853704e-13,4.870180513e-13,3.021590667e-13,1.586442157e-13,1.958405702e-14,3.752074626e-13,2.739138504e-13,7.36526151e-14,2.072968334e-13,7.152043122e-13,3.981900557e-13,1.33014344e-13,3.233013855e-13,4.448748104e-14,5.755880665e-13,5.399094162e-13,5.551458179e-13,3.313856187e-13
1.109375,2.132767402e-13,2.939782709e-13,2.71909704e-13,4.589989003e-13,2.57305292e-13,1.30399896e-13,6.991068659e-14,2.685996739e-13,7.104855069e-14,1.722211061e-13,2.651130843e-13,7.034760796e-14,8.116834343e-14,1.159248051e-13,1.141238436e-13,4.654064011e-13,2.834670413e-13,1.537885558e-13,1.887927498e-14,3.777922297e-13,2.709234708e-13,7.00325412e-14,2.066016382e-13,7.19998058e-13,4.060831619e-13,1.269850734e-13,3.061645029e-13,4.350980919e-14,5.477643769e-13,5.294479278e-13,5.171352294e-13,3.25688738e-13
1.1171875,2.007431887e-13,2.711545566e-13,2.607808461e-13,4.480591463e-13,2.49424954e-13,1.273682165e-13,6.237776259e-14,2.551855862e-13,6.655304144e-14,1.671518481e-13,2.745955649e-13,6.715004233e-14,7.801237756e-14,1.103318387e-13,1.07554096e-13,4.444836012e-13,2.652936929e-13,1.492435876e-13,1.834257967e-14,3.82239778e-13,2.683623091e-13,6.688106447e-14,2.064361064e-13,7.242845207e-13,4.141741002e-13,1.216783959e-13,2.89720835e-13,4.305493658e-14,5.209157785e-13,5.204695691e-13,4.811271406e-13,3.21324465e-13
1.125,1.896208211e-13,2.502275022e-13,2.502348742e-13,4.38143083e-13,2.425505811e-13,1.24129077e-13,5.569981521e-14,2.426364402e-13,6.235263765e-14,1.622749032e-13,2.84635082e-13,6.41501549e-14,7.500315575e-14,1.055874659e-13,1.01934457e-13,4.245476006e-13,2.479521374e-13,1.450821178e-13,1.805619567e-14,3.88311955e-13,2.661992498e-13,6.419130465e-14,2.067882711e-13,7.285390519e-13,4.222022976e-13,1.171066229e-13,2.742374137e-13,4.323070797e-14,4.950423897e-13,5.128989214e-13,4.474182725e-13,3.181615436e-13
1.1328125,1.800985549e-13,2.313007262e-13,2.404623043e-13,4.295066533e-13,2.364907742e-13,1.205699819e-13,4.976557365e-14,2.306824271e-13,5.861638794e-14,1.579092068e-13,2.945784338e-13,6.140202432e-14,7.216979557e-14,1.013908741e-13,9.691965401e-14,4.05436494e-13,2.315415252e-13,1.410583288e-13,1.796988507e-14,3.954736044e-13,2.64833481e-13,6.203860641e-14,2.075011049e-13,7.323739059e-13,4.294552269e-13,1.131984452e-13,2.598863269e-13,4.392094061e-14,4.706701157e-13,5.064533521e-13,4.164202837e-13,3.161981904e-13
1.140625,1.72031459e-13,2.141575735e-13,2.315293794e-13,4.219277788e-13,2.310182458e-13,1.170238447e-13,4.447316491e-14,2.195593101e-13,5.531405108e-14,1.542680049e-13,3.049742117e-13,5.888951637e-14,6.9419649e-14,9.770767083e-14,9.24403538e-14,3.871061391e-13,2.158436242e-13,1.371572313e-13,1.804637943e-14,4.036736892e-13,2.640859733e-13,6.033990495e-14,2.085952509e-13,7.360023786e-13,4.362561252e-13,1.098070365e-13,2.462871117e-13,4.480817043e-14,4.476202374e-13,5.010201483e-13,3.877681378e-13,3.154319516e-13
1.1484375,1.651512259e-13,1.987036241e-13,2.230384331e-13,4.152226305e-13,2.261236872e-13,1.135945603e-13,3.994227316e-14,2.094406396e-13,5.235996839e-14,1.511111982e-13,3.159741605e-13,5.662379339e-14,6.68842895e-14,9.478258048e-14,8.870605698e-14,3.698751697e-13,2.010359991e-13,1.337091705e-13,1.834803778e-14,4.129076431e-13,2.632714382e-13,5.90663671e-14,2.101135603e-13,7.397859714e-13,4.428212533e-13,1.069599314e-13,2.331846647e-13,4.602305508e-14,4.252730593e-13,4.964343395e-13,3.608058583e-13,3.158000889e-13
1.15625,1.593958961e-13,1.849303525e-13,2.149067913e-13,4.093804623e-13,2.220852893e-13,1.101394055e-13,3.610749674e-14,2.003105145e-13,4.979816028e-14,1.482864913e-13,3.272153775e-13,5.463168117e-14,6.477264977e-14,9.263129194e-14,8.576038498e-14,3.539063211e-13,1.873266642e-13,1.307864464e-13,1.877267877e-14,4.23302386e-13,2.625394378e-13,5.825276839e-14,2.11926974e-13,7.432544735e-13,4.490427455e-13,1.047967077e-13,2.209464213e-13,4.779090423e-14,4.038881317e-13,4.928780295e-13,3.356744592e-13,3.172514e-13
1.1640625,1.548036027e-13,1.727938363e-13,2.074042494e-13,4.043542264e-13,2.190161784e-13,1.066687006e-13,3.28126842e-14,1.921319174e-13,4.768666758e-14,1.457004438e-13,3.387588006e-13,5.290469648e-14,6.292823082e-14,9.124509533e-14,8.355399438e-14,3.391046068e-13,1.743599783e-13,1.282130591e-13,1.926550408e-14,4.350416698e-13,2.623309344e-13,5.785753151e-14,2.140381094e-13,7.462033003e-13,4.551357192e-13,1.032559171e-13,2.099065554e-13,4.981313138e-14,3.840091456e-13,4.908327872e-13,3.128734164e-13,3.198166068e-13
1.171875,1.513889653e-13,1.621539773e-13,2.009003963e-13,3.999965519e-13,2.167703974e-13,1.032225284e-13,3.013387812e-14,1.847945927e-13,4.597777024e-14,1.43635773e-13,3.506455142e-13,5.144338743e-14,6.117636947e-14,9.065388062e-14,8.199555421e-14,3.254031458e-13,1.619744248e-13,1.259376803e-13,1.999332475e-14,4.476247251e-13,2.624520591e-13,5.777302949e-14,2.164129381e-13,7.489443464e-13,4.606498991e-13,1.02207227e-13,1.997604571e-13,5.197278423e-14,3.652003012e-13,4.897456554e-13,2.921294571e-13,3.235386316e-13
1.1796875,1.489959667e-13,1.528465942e-13,1.953315456e-13,3.96425272e-13,2.152083595e-13,9.9779387e-14,2.814653176e-14,1.78092035e-13,4.455620167e-14,1.423105965e-13,3.627309601e-13,5.020763141e-14,5.956033898e-14,9.07266829e-14,8.122484702e-14,3.127725083e-13,1.503688869e-13,1.239361497e-13,2.099745586e-14,4.60576323e-13,2.626964155e-13,5.785350592e-14,2.18768989e-13,7.521132639e-13,4.650353206e-13,1.016505808e-13,1.901306684e-13,5.439354906e-14,3.470068317e-13,4.890678863e-13,2.73070708e-13,3.281934033e-13
1.1875,1.473859171e-13,1.450530725e-13,1.901909179e-13,3.939966917e-13,2.141173832e-13,9.643566544e-14,2.681509773e-14,1.71786914e-13,4.339155677e-14,1.412141271e-13,3.744560797e-13,4.911720584e-14,5.809178251e-14,9.129400933e-14,8.140440332e-14,3.010808223e-13,1.395728201e-13,1.221890249e-13,2.216445631e-14,4.738993039e-13,2.630803901e-13,5.80782009e-14,2.211237237e-13,7.558819518e-13,4.687569032e-13,1.015404973e-13,1.811159926e-13,5.698403377e-14,3.297386354e-13,4.892132008e-13,2.559525472e-13,3.333820392e-13
1.1953125,1.464758637e-13,1.388598273e-13,1.85492204e-13,3.925139893e-13,2.134439895e-13,9.337859344e-14,2.61260575e-14,1.659344254e-13,4.249816988e-14,1.401169179e-13,3.854794249e-13,4.813095185e-14,5.677407644e-14,9.234852024e-14,8.224267834e-14,2.90436421e-13,1.297543e-13,1.208550397e-13,2.339011114e-14,4.87450311e-13,2.635144805e-13,5.850966109e-14,2.236079417e-13,7.590512873e-13,4.722477132e-13,1.018264737e-13,1.729646118e-13,5.964507183e-14,3.134760737e-13,4.89856499e-13,2.408539965e-13,3.390423642e-13
1.203125,1.46303896e-13,1.338160394e-13,1.815244266e-13,3.915707488e-13,2.133977353e-13,9.060221414e-14,2.601702421e-14,1.608252544e-13,4.183239556e-14,1.392972389e-13,3.967163425e-13,4.729937492e-14,5.563279536e-14,9.417084248e-14,8.360956328e-14,2.812545987e-13,1.2099129e-13,1.201142646e-13,2.458852578e-14,5.013328373e-13,2.639008637e-13,5.9033783e-14,2.258963289e-13,7.611203522e-13,4.754909339e-13,1.025196828e-13,1.65762789e-13,6.20514611e-14,2.980671765e-13,4.90700964e-13,2.274878402e-13,3.452509055e-13
1.2109375,1.46879851e-13,1.296654684e-13,1.781185097e-13,3.911512444e-13,2.138869529e-13,8.785071261e-14,2.638742869e-14,1.564067364e-13,4.136822118e-14,1.387638082e-13,4.083760123e-13,4.669335069e-14,5.460606459e-14,9.681509472e-14,8.557135586e-14,2.734020981e-13,1.129523716e-13,1.199161753e-13,2.58117939e-14,5.156344659e-13,2.641771323e-13,5.955657187e-14,2.278718126e-13,7.628379945e-13,4.783738511e-13,1.035292215e-13,1.593002632e-13,6.404477943e-14,2.834717249e-13,4.926035635e-13,2.155833423e-13,3.517687473e-13
1.21875,1.480814258e-13,1.264862409e-13,1.750819261e-13,3.911284855e-13,2.146548434e-13,8.506246415e-14,2.719664201e-14,1.523828545e-13,4.105602452e-14,1.38532828e-13,4.191791829e-13,4.628654633e-14,5.361878086e-14,9.982356157e-14,8.776335379e-14,2.661924574e-13,1.056188559e-13,1.200603003e-13,2.714165137e-14,5.298236856e-13,2.643373267e-13,6.016075594e-14,2.298937648e-13,7.636065687e-13,4.808108725e-13,1.048185641e-13,1.532451513e-13,6.600942633e-14,2.693594504e-13,4.953698744e-13,2.049213388e-13,3.583958847e-13
1.2265625,1.498399998e-13,1.241760627e-13,1.725184024e-13,3.914320597e-13,2.156964177e-13,8.244953288e-14,2.842593593e-14,1.486556306e-13,4.0809213e-14,1.384767053e-13,4.289408829e-13,4.606009669e-14,5.26917918e-14,1.031061243e-13,9.007736212e-14,2.593846176e-13,9.901105035e-14,1.204410989e-13,2.851879466e-14,5.436759969e-13,2.643980519e-13,6.083491558e-14,2.319113773e-13,7.627613172e-13,4.828055331e-13,1.064263722e-13,1.476447632e-13,6.795222448e-14,2.557304554e-13,4.983129833e-13,1.955715829e-13,3.651001022e-13
1.234375,1.521852404e-13,1.226133857e-13,1.70476127e-13,3.920979398e-13,2.169728215e-13,8.002706e-14,3.005473271e-14,1.45255447e-13,4.065739655e-14,1.382265975e-13,4.383136815e-13,4.604308372e-14,5.190685385e-14,1.06893245e-13,9.279259176e-14,2.531725577e-13,9.272842121e-14,1.210534806e-13,2.989892429e-14,5.570750516e-13,2.642102143e-13,6.149986833e-14,2.33486678e-13,7.614832714e-13,4.837306055e-13,1.082199111e-13,1.42676305e-13,6.972462624e-14,2.431333802e-13,5.01978068e-13,1.877078999e-13,3.717067996e-13
1.2421875,1.549348765e-13,1.217375063e-13,1.688153934e-13,3.928588764e-13,2.184572571e-13,7.775312703e-14,3.204579714e-14,1.422489396e-13,4.064541961e-14,1.38013176e-13,4.472109958e-13,4.620287328e-14,5.126399309e-14,1.110258202e-13,9.574856947e-14,2.476951317e-13,8.686751256e-14,1.218733324e-13,3.123938188e-14,5.696331611e-13,2.636858809e-13,6.21462302e-14,2.345770401e-13,7.600155829e-13,4.832838818e-13,1.101287831e-13,1.382994999e-13,7.137497055e-14,2.317079833e-13,5.058161127e-13,1.812828097e-13,3.780738177e-13
1.25,1.580497488e-13,1.215408072e-13,1.675148512e-13,3.938799479e-13,2.202311968e-13,7.575086549e-14,3.434253415e-14,1.39693382e-13,4.067577233e-14,1.381971908e-13,4.556557806e-13,4.651387314e-14,5.070976564e-14,1.154837953e-13,9.878270702e-14,2.430637947e-13,8.18450483e-14,1.22960972e-13,3.249764721e-14,5.816544946e-13,2.630146156e-13,6.27303453e-14,2.354032719e-13,7.572803694e-13,4.825220296e-13,1.122207292e-13,1.346137785e-13,7.263048518e-14,2.213210359e-13,5.084786745e-13,1.762724809e-13,3.841168046e-13
1.2578125,1.618189246e-13,1.221724551e-13,1.665229423e-13,3.954960323e-13,2.221061813e-13,7.391551941e-14,3.690051884e-14,1.375046863e-13,4.066912712e-14,1.385869606e-13,4.635362616e-13,4.695797482e-14,5.032690917e-14,1.203696264e-13,1.021272324e-13,2.391471212e-13,7.742044544e-14,1.243698865e-13,3.380107691e-14,5.932180107e-13,2.623301932e-13,6.32503387e-14,2.359668593e-13,7.535547749e-13,4.8144164e-13,1.143962952e-13,1.316456616e-13,7.365565007e-14,2.118996662e-13,5.105449039e-13,1.725319527e-13,3.89677184e-13
1.265625,1.661129848e-13,1.235134565e-13,1.656195619e-13,3.971699924e-13,2.238536201e-13,7.20497079e-14,3.967987284e-14,1.355380806e-13,4.068425277e-14,1.390238958e-13,4.702157696e-13,4.751037405e-14,5.020670684e-14,1.253773658e-13,1.058020719e-13,2.355634113e-13,7.324194203e-14,1.259290495e-13,3.523251798e-14,6.036997992e-13,2.614119218e-13,6.378132144e-14,2.362093346e-13,7.493004254e-13,4.791006405e-13,1.165779421e-13,1.290457871e-13,7.4877312e-14,2.031403566e-13,5.126907979e-13,1.696797063e-13,3.948113244e-13
1.2734375,1.705284909e-13,1.251411168e-13,1.650417665e-13,3.983686573e-13,2.255858685e-13,7.031821045e-14,4.268598004e-14,1.338136738e-13,4.077606812e-14,1.394617272e-13,4.761077769e-13,4.822919926e-14,5.02836747e-14,1.304278991e-13,1.095497213e-13,2.323044226e-13,6.940616946e-14,1.275669522e-13,3.67118396e-14,6.133182128e-13,2.599982045e-13,6.431367261e-14,2.361704419e-13,7.440499139e-13,4.760736041e-13,1.188444013e-13,1.267119445e-13,7.59160936e-14,1.949681375e-13,5.144753832e-13,1.676086843e-13,3.996521811e-13
1.28125,1.750183429e-13,1.269509365e-13,1.649433977e-13,3.992251978e-13,2.27443236e-13,6.895566142e-14,4.595974114e-14,1.325368799e-13,4.095194263e-14,1.399048342e-13,4.821080644e-13,4.908555573e-14,5.054956267e-14,1.357000919e-13,1.13349591e-13,2.296947081e-13,6.606022297e-14,1.294091663e-13,3.819961365e-14,6.223233908e-13,2.582618745e-13,6.482608977e-14,2.358510847e-13,7.384108227e-13,4.725462702e-13,1.211771226e-13,1.24855853e-13,7.656350706e-14,1.87653286e-13,5.15783449e-13,1.664733668e-13,4.041448703e-13
1.2890625,1.794862657e-13,1.291389924e-13,1.647122881e-13,3.999716783e-13,2.293796615e-13,6.793205944e-14,4.946906587e-14,1.317013456e-13,4.129072324e-14,1.406005925e-13,4.875996709e-13,4.994724797e-14,5.108654921e-14,1.409741831e-13,1.173681839e-13,2.27668066e-13,6.319796166e-14,1.313634496e-13,3.965274293e-14,6.301562261e-13,2.563670977e-13,6.535094452e-14,2.352555155e-13,7.332857432e-13,4.675593168e-13,1.235451257e-13,1.233638682e-13,7.721560707e-14,1.810459965e-13,5.163007248e-13,1.662158179e-13,4.083544097e-13
1.296875,1.836122433e-13,1.316828464e-13,1.642926908e-13,4.006797863e-13,2.312447069e-13,6.716493126e-14,5.311773539e-14,1.309734782e-13,4.182809214e-14,1.415339258e-13,4.916791066e-13,5.083748784e-14,5.180855664e-14,1.459934177e-13,1.21358786e-13,2.257427005e-13,6.067880787e-14,1.332366649e-13,4.099315803e-14,6.366681478e-13,2.539810752e-13,6.581040802e-14,2.343761789e-13,7.279886481e-13,4.615280891e-13,1.259680205e-13,1.219745083e-13,7.79140921e-14,1.747589128e-13,5.155545328e-13,1.665580964e-13,4.123116618e-13
1.3046875,1.873719585e-13,1.343279475e-13,1.642841219e-13,4.011358669e-13,2.329101318e-13,6.668215454e-14,5.688604817e-14,1.302245203e-13,4.246135042e-14,1.424587505e-13,4.947111795e-13,5.183114719e-14,5.252251212e-14,1.508330102e-13,1.250605312e-13,2.237769263e-13,5.841418876e-14,1.350811093e-13,4.222559085e-14,6.418782902e-13,2.51086414e-13,6.605485279e-14,2.331115363e-13,7.218681496e-13,4.553038283e-13,1.283834e-13,1.207709287e-13,7.833627448e-14,1.688787092e-13,5.136220796e-13,1.673893958e-13,4.15796596e-13
1.3125,1.910784108e-13,1.370824824e-13,1.646700069e-13,4.01311869e-13,2.344917701e-13,6.646163072e-14,6.092350562e-14,1.295049679e-13,4.317983479e-14,1.433835913e-13,4.968070641e-13,5.293465265e-14,5.317644408e-14,1.556704762e-13,1.288190235e-13,2.221465297e-13,5.657278974e-14,1.371562472e-13,4.343466771e-14,6.458600454e-13,2.481977056e-13,6.604115735e-14,2.314260082e-13,7.151624349e-13,4.485869921e-13,1.308417377e-13,1.199885609e-13,7.821834758e-14,1.637887668e-13,5.108336407e-13,1.689952984e-13,4.188098766e-13
1.3203125,1.948964765e-13,1.402407148e-13,1.651671453e-13,4.016249843e-13,2.361283904e-13,6.639178479e-14,6.531259164e-14,1.286323202e-13,4.401957163e-14,1.443390989e-13,4.973119351e-13,5.419438955e-14,5.384623266e-14,1.605095818e-13,1.32498672e-13,2.20851736e-13,5.52476024e-14,1.396312315e-13,4.465726049e-14,6.490773516e-13,2.452505746e-13,6.582295449e-14,2.29383014e-13,7.077649134e-13,4.410943115e-13,1.334725492e-13,1.196608532e-13,7.754682057e-14,1.596567196e-13,5.080885896e-13,1.716147006e-13,4.214290631e-13
1.328125,1.985328765e-13,1.437377101e-13,1.656047187e-13,4.019440677e-13,2.375934101e-13,6.651224872e-14,6.984187898e-14,1.275145207e-13,4.489747519e-14,1.454054207e-13,4.963196354e-13,5.563785193e-14,5.455841075e-14,1.650821248e-13,1.354423513e-13,2.193251107e-13,5.422369325e-14,1.42231728e-13,4.577408097e-14,6.510653221e-13,2.416809997e-13,6.547473877e-14,2.270592048e-13,6.995071553e-13,4.329485051e-13,1.36145363e-13,1.195876437e-13,7.649874562e-14,1.563496344e-13,5.055231722e-13,1.749330613e-13,4.234059995e-13
1.3359375,2.015929089e-13,1.471901226e-13,1.659303419e-13,4.017074838e-13,2.386542284e-13,6.695135825e-14,7.437522129e-14,1.262664679e-13,4.58211211e-14,1.466498284e-13,4.940745976e-13,5.724686942e-14,5.52153915e-14,1.692677545e-13,1.377818772e-13,2.173948347e-13,5.330358384e-14,1.446236752e-13,4.674635384e-14,6.5100078e-13,2.374443096e-13,6.503056279e-14,2.245088695e-13,6.905216094e-13,4.241180049e-13,1.387051719e-13,1.195465417e-13,7.53767014e-14,1.536431129e-13,5.020132786e-13,1.785334981e-13,4.245961665e-13
1.34375,2.041456097e-13,1.506296659e-13,1.664510957e-13,4.010595122e-13,2.394590524e-13,6.766221652e-14,7.907184949e-14,1.248793261e-13,4.684264334e-14,1.477107954e-13,4.902240816e-13,5.900064191e-14,5.577114271e-14,1.732435199e-13,1.397962563e-13,2.153030578e-13,5.255303317e-14,1.469760435e-13,4.767749379e-14,6.493434643e-13,2.328678243e-13,6.448330004e-14,2.216947713e-13,6.805849894e-13,4.14387777e-13,1.412601637e-13,1.196371138e-13,7.450503449e-14,1.514935391e-13,4.976672825e-13,1.825462627e-13,4.250656165e-13
1.3515625,2.065448582e-13,1.544152155e-13,1.671109365e-13,4.005956362e-13,2.401806367e-13,6.84895002e-14,8.395834896e-14,1.233340556e-13,4.787707281e-14,1.484790799e-13,4.849973211e-13,6.084610728e-14,5.637660352e-14,1.770401986e-13,1.414720303e-13,2.130428901e-13,5.212599977e-14,1.494463095e-13,4.851348971e-14,6.466885991e-13,2.280630853e-13,6.390943681e-14,2.18695733e-13,6.696323556e-13,4.039132062e-13,1.438887965e-13,1.20217592e-13,7.37833747e-14,1.502310375e-13,4.926536798e-13,1.873499347e-13,4.247896471e-13
1.359375,2.08838401e-13,1.584948862e-13,1.675014689e-13,4.004925946e-13,2.407732937e-13,6.931278096e-14,8.887004543e-14,1.216079716e-13,4.885529257e-14,1.494068959e-13,4.787982656e-13,6.277370863e-14,5.709732777e-14,1.806008324e-13,1.429844837e-13,2.105414714e-13,5.199603588e-14,1.518668001e-13,4.928292636e-14,6.430070542e-13,2.229821031e-13,6.33951812e-14,2.157189936e-13,6.58257546e-13,3.932918279e-13,1.465425552e-13,1.212865682e-13,7.315876681e-14,1.501200035e-13,4.860798417e-13,1.929093959e-13,4.23748535e-13
1.3671875,2.108856925e-13,1.624427491e-13,1.678357319e-13,4.003148657e-13,2.411924456e-13,7.020508202e-14,9.377385251e-14,1.196227986e-13,4.96972169e-14,1.505163183e-13,4.715846493e-13,6.48662168e-14,5.777526657e-14,1.840189081e-13,1.440165413e-13,2.078703015e-13,5.211278277e-14,1.542041339e-13,5.015010084e-14,6.384318794e-13,2.175867389e-13,6.284688532e-14,2.126799982e-13,6.468488762e-13,3.823603138e-13,1.492207247e-13,1.224905955e-13,7.29259711e-14,1.508299577e-13,4.787089828e-13,1.988826443e-13,4.218880732e-13
1.375,2.128170377e-13,1.662776092e-13,1.683530292e-13,3.995858913e-13,2.414562742e-13,7.136759176e-14,9.870127856e-14,1.175062549e-13,5.033388685e-14,1.515321994e-13,4.636862054e-13,6.721263357e-14,5.841224226e-14,1.873857642e-13,1.44323318e-13,2.051183822e-13,5.257850105e-14,1.565482617e-13,5.101551393e-14,6.331059078e-13,2.118799371e-13,6.219169063e-14,2.094182205e-13,6.352760904e-13,3.705522671e-13,1.518831705e-13,1.237901323e-13,7.293809923e-14,1.520133834e-13,4.715978069e-13,2.052201377e-13,4.191451083e-13
1.3828125,2.147189416e-13,1.704977779e-13,1.686744627e-13,3.98561447e-13,2.415629695e-13,7.267419995e-14,1.036568811e-13,1.153943442e-13,5.088294027e-14,1.525333342e-13,4.55055208e-13,6.978860622e-14,5.921904151e-14,1.906905752e-13,1.444913692e-13,2.023759715e-13,5.334511174e-14,1.590003405e-13,5.186238636e-14,6.269046794e-13,2.059528763e-13,6.154375148e-14,2.060832111e-13,6.233829828e-13,3.581331014e-13,1.54460523e-13,1.253380739e-13,7.310628877e-14,1.537679803e-13,4.641925219e-13,2.12081587e-13,4.156748557e-13
1.390625,2.163045936e-13,1.751943777e-13,1.686652561e-13,3.977520916e-13,2.415279207e-13,7.387364923e-14,1.086590004e-13,1.132416533e-13,5.141565961e-14,1.535381773e-13,4.451915546e-13,7.242423208e-14,6.027381009e-14,1.937028441e-13,1.445918978e-13,1.995481606e-13,5.427571621e-14,1.616071786e-13,5.277975696e-14,6.196177022e-13,1.999071171e-13,6.097799126e-14,2.02815237e-13,6.112029753e-13,3.451799775e-13,1.569779262e-13,1.270046318e-13,7.366758613e-14,1.560715222e-13,4.562371625e-13,2.193260828e-13,4.116044968e-13
1.3984375,2.174555669e-13,1.800320557e-13,1.685935019e-13,3.970149471e-13,2.414259516e-13,7.508496165e-14,1.136162369e-13,1.111100407e-13,5.191479813e-14,1.544641745e-13,4.347596265e-13,7.505689904e-14,6.15298837e-14,1.961945257e-13,1.442476703e-13,1.964430267e-13,5.543434942e-14,1.640509811e-13,5.349995894e-14,6.11086851e-13,1.936819318e-13,6.049045816e-14,1.996047528e-13,5.988904058e-13,3.315213418e-13,1.594104588e-13,1.286489392e-13,7.444687865e-14,1.588041062e-13,4.470992487e-13,2.267138289e-13,4.069012342e-13
1.40625,2.184202887e-13,1.84889635e-13,1.684642458e-13,3.960334751e-13,2.413007526e-13,7.643215852e-14,1.183759396e-13,1.090577938e-13,5.246329632e-14,1.55348417e-13,4.244950435e-13,7.781926896e-14,6.296101084e-14,1.98389367e-13,1.43656943e-13,1.931706295e-13,5.675802477e-14,1.660992616e-13,5.394717273e-14,6.015389088e-13,1.871573299e-13,6.008485577e-14,1.964321614e-13,5.862406307e-13,3.177756507e-13,1.616738843e-13,1.303260931e-13,7.548553076e-14,1.62006207e-13,4.356519397e-13,2.342093547e-13,4.015618536e-13
1.4140625,2.192723164e-13,1.897841778e-13,1.682737691e-13,3.94878084e-13,2.410709165e-13,7.786289402e-14,1.229638128e-13,1.069781294e-13,5.307863821e-14,1.560940986e-13,4.139162513e-13,8.073779957e-14,6.46103555e-14,2.005135081e-13,1.429641121e-13,1.899453102e-13,5.808588307e-14,1.680891476e-13,5.43751502e-14,5.915519343e-13,1.804984527e-13,5.97075591e-14,1.932403272e-13,5.730988978e-13,3.040956807e-13,1.638466464e-13,1.321132984e-13,7.690866889e-14,1.655381961e-13,4.227767134e-13,2.417578734e-13,3.956129558e-13
1.421875,2.197986676e-13,1.947470067e-13,1.680817246e-13,3.936757259e-13,2.407621928e-13,7.937892504e-14,1.275610992e-13,1.048310436e-13,5.379287866e-14,1.567386849e-13,4.028450218e-13,8.376556927e-14,6.657024491e-14,2.023872916e-13,1.418915305e-13,1.866571993e-13,5.9578188e-14,1.702554818e-13,5.47099442e-14,5.814598454e-13,1.740515664e-13,5.935566493e-14,1.90056766e-13,5.60491571e-13,2.900049572e-13,1.661275732e-13,1.341611774e-13,7.821811303e-14,1.693726021e-13,4.099095098e-13,2.494528638e-13,3.892887861e-13
1.4296875,2.199263349e-13,1.999597158e-13,1.675119998e-13,3.925795049e-13,2.406568966e-13,8.088830179e-14,1.32332445e-13,1.026655853e-13,5.475827339e-14,1.576141588e-13,3.916060133e-13,8.698215522e-14,6.879547151e-14,2.039978116e-13,1.403432354e-13,1.831652585e-13,6.142995945e-14,1.724438002e-13,5.484714957e-14,5.71211721e-13,1.678427317e-13,5.913072963e-14,1.87035089e-13,5.490854608e-13,2.75855936e-13,1.686373296e-13,1.365915582e-13,7.934750538e-14,1.737953324e-13,3.967753716e-13,2.577208994e-13,3.829565021e-13
1.4375,2.197384175e-13,2.053991662e-13,1.66306872e-13,3.916234986e-13,2.408577093e-13,8.23284745e-14,1.373025142e-13,1.00524017e-13,5.59644189e-14,1.587293376e-13,3.800225411e-13,9.041379263e-14,7.116334347e-14,2.055157082e-13,1.386718022e-13,1.796941563e-13,6.360984531e-14,1.746505763e-13,5.493225266e-14,5.609858349e-13,1.616472316e-13,5.907384827e-14,1.842900098e-13,5.378524121e-13,2.620440041e-13,1.713592493e-13,1.392669501e-13,8.07129583e-14,1.788483055e-13,3.828758235e-13,2.666148898e-13,3.766644516e-13
1.4453125,2.191108819e-13,2.107583355e-13,1.647137014e-13,3.903966962e-13,2.412141681e-13,8.383078397e-14,1.423620683e-13,9.836872425e-14,5.734418017e-14,1.596592312e-13,3.681599413e-13,9.400938989e-14,7.366372614e-14,2.068970991e-13,1.37015058e-13,1.763904399e-13,6.602501482e-14,1.769758231e-13,5.493377564e-14,5.512280597e-13,1.554416732e-13,5.914235504e-14,1.817835716e-13,5.265077807e-13,2.483022561e-13,1.741980558e-13,1.42033429e-13,8.233743926e-14,1.843684323e-13,3.687083698e-13,2.756477339e-13,3.703459806e-13
1.453125,2.180741859e-13,2.161451213e-13,1.629811612e-13,3.889860815e-13,2.41814749e-13,8.54413452e-14,1.475593265e-13,9.607180949e-14,5.893495975e-14,1.60212455e-13,3.564475689e-13,9.786015074e-14,7.630661631e-14,2.083343058e-13,1.350884815e-13,1.731795307e-13,6.865116887e-14,1.794765092e-13,5.477130958e-14,5.420015615e-13,1.493989328e-13,5.925180377e-14,1.793000105e-13,5.15785914e-13,2.346587887e-13,1.771450848e-13,1.450414481e-13,8.408234174e-14,1.903301281e-13,3.54686456e-13,2.84806757e-13,3.640329257e-13
1.4609375,2.170763215e-13,2.220577186e-13,1.613111793e-13,3.882591829e-13,2.427755996e-13,8.715258613e-14,1.530326578e-13,9.361596664e-14,6.07222369e-14,1.606810475e-13,3.446523609e-13,1.021056147e-13,7.914853066e-14,2.102092963e-13,1.332067028e-13,1.702764032e-13,7.160947075e-14,1.823257916e-13,5.460919369e-14,5.331963083e-13,1.436839285e-13,5.938463487e-14,1.76762242e-13,5.053305874e-13,2.214004e-13,1.802700093e-13,1.484909143e-13,8.590769614e-14,1.968755604e-13,3.405739163e-13,2.945507559e-13,3.576102412e-13
1.46875,2.160827279e-13,2.284192474e-13,1.595687056e-13,3.882311667e-13,2.438966932e-13,8.896673816e-14,1.585300778e-13,9.103019386e-14,6.273019206e-14,1.612017703e-13,3.324763606e-13,1.067129433e-13,8.227831873e-14,2.123485397e-13,1.316981509e-13,1.677098798e-13,7.486573887e-14,1.854393096e-13,5.457853149e-14,5.248076054e-13,1.383270793e-13,5.969007528e-14,1.743818333e-13,4.949594747e-13,2.084700645e-13,1.834882494e-13,1.522229202e-13,8.816422639e-14,2.041031936e-13,3.265879103e-13,3.046404052e-13,3.510365274e-13
1.4765625,2.147232888e-13,2.346809785e-13,1.574329801e-13,3.881691705e-13,2.451284058e-13,9.083128712e-14,1.637983088e-13,8.830153063e-14,6.493759908e-14,1.615171452e-13,3.20277357e-13,1.115436453e-13,8.558467986e-14,2.144500142e-13,1.301519324e-13,1.651418065e-13,7.818513685e-14,1.884928253e-13,5.464176505e-14,5.166461128e-13,1.332483449e-13,6.023336747e-14,1.722205183e-13,4.853527744e-13,1.956520602e-13,1.866712108e-13,1.560001229e-13,9.123723528e-14,2.117243707e-13,3.133270575e-13,3.144560494e-13,3.44457758e-13
1.484375,2.133366496e-13,2.408158646e-13,1.553058579e-13,3.881591267e-13,2.465899466e-13,9.276158537e-14,1.690706689e-13,8.551050292e-14,6.712717179e-14,1.616327748e-13,3.081991093e-13,1.166010383e-13,8.895216058e-14,2.16738945e-13,1.286803249e-13,1.62700124e-13,8.159095059e-14,1.916206158e-13,5.48434753e-14,5.086859536e-13,1.284859544e-13,6.087674709e-14,1.701498092e-13,4.761883787e-13,1.830388007e-13,1.898592483e-13,1.59915778e-13,9.478907794e-14,2.195135417e-13,3.007236337e-13,3.241208315e-13,3.378635318e-13
1.4921875,2.122993722e-13,2.470810226e-13,1.535442848e-13,3.885181121e-13,2.481140651e-13,9.470522549e-14,1.744188019e-13,8.267035706e-14,6.921600649e-14,1.617501138e-13,2.961612883e-13,1.220134823e-13,9.245310962e-14,2.194578484e-13,1.27503086e-13,1.605778727e-13,8.514712586e-14,1.950741785e-13,5.52791971e-14,5.010323969e-13,1.240955751e-13,6.153383983e-14,1.681825335e-13,4.66700221e-13,1.710150708e-13,1.930111023e-13,1.64015242e-13,9.861974943e-14,2.276360351e-13,2.886885028e-13,3.33858226e-13,3.311798806e-13
1.5,2.113510973e-13,2.53329987e-13,1.519019397e-13,3.889316463e-13,2.495514885e-13,9.663352342e-14,1.795384478e-13,7.982150451e-14,7.127506417e-14,1.617887004e-13,2.84451191e-13,1.277505694e-13,9.608798109e-14,2.225181006e-13,1.263281702e-13,1.586920813e-13,8.87652011e-14,1.986013255e-13,5.585125657e-14,4.934663927e-13,1.199700101e-13,6.223869135e-14,1.663705023e-13,4.570430846e-13,1.59602142e-13,1.959368859e-13,1.680479921e-13,1.030153592e-13,2.359027564e-13,2.773153892e-13,3.432424958e-13,3.244296448e-13
1.5078125,2.102334626e-13,2.593452184e-13,1.50415299e-13,3.89118394e-13,2.51015786e-13,9.875897398e-14,1.842697085e-13,7.72063653e-14,7.330145896e-14,1.617207144e-13,2.731028436e-13,1.336613166e-13,9.977584036e-14,2.257466344e-13,1.254574876e-13,1.57206902e-13,9.249230632e-14,2.019153599e-13,5.64097321e-14,4.860061926e-13,1.160137886e-13,6.304406122e-14,1.646886858e-13,4.475678257e-13,1.485355538e-13,1.985867785e-13,1.718007618e-13,1.078848848e-13,2.438558849e-13,2.662419379e-13,3.519421491e-13,3.176223976e-13
1.515625,2.090257575e-13,2.651133289e-13,1.491304268e-13,3.891051691e-13,2.525546104e-13,1.010694451e-13,1.886160691e-13,7.47879964e-14,7.529627101e-14,1.614764925e-13,2.619414842e-13,1.397757834e-13,1.035559556e-13,2.291400895e-13,1.250195125e-13,1.561002349e-13,9.631323883e-14,2.050697064e-13,5.696027034e-14,4.789285478e-13,1.121688459e-13,6.392817909e-14,1.630735728e-13,4.382032728e-13,1.379488771e-13,2.009949129e-13,1.752461308e-13,1.131763534e-13,2.515552685e-13,2.553560862e-13,3.600336605e-13,3.107732617e-13
1.5234375,2.081661311e-13,2.707240015e-13,1.479778128e-13,3.891541838e-13,2.541333868e-13,1.033205923e-13,1.927561887e-13,7.23205676e-14,7.71893167e-14,1.607968396e-13,2.512363494e-13,1.462671092e-13,1.076031491e-13,2.329894253e-13,1.246041149e-13,1.552215764e-13,1.002153426e-13,2.083779303e-13,5.760031704e-14,4.721270881e-13,1.085141458e-13,6.478249e-14,1.613960622e-13,4.28985369e-13,1.279426561e-13,2.031606695e-13,1.786512089e-13,1.190553579e-13,2.593902161e-13,2.451632036e-13,3.6767531e-13,3.038113704e-13
1.53125,2.079279969e-13,2.763614621e-13,1.471596674e-13,3.895919323e-13,2.55720465e-13,1.05428869e-13,1.968721489e-13,6.985666417e-14,7.887639841e-14,1.599147757e-13,2.410839246e-13,1.531297902e-13,1.120284748e-13,2.373421555e-13,1.243112009e-13,1.546635698e-13,1.043328291e-13,2.120787483e-13,5.839373794e-14,4.653609074e-13,1.053205271e-13,6.557456441e-14,1.595410119e-13,4.201037817e-13,1.182799615e-13,2.051037884e-13,1.822605479e-13,1.252034417e-13,2.673530082e-13,2.361300849e-13,3.750037363e-13,2.965342825e-13
1.5390625,2.078336465e-13,2.818984616e-13,1.466063238e-13,3.901193122e-13,2.572042014e-13,1.073770264e-13,2.007289919e-13,6.753909534e-14,8.039303904e-14,1.591988913e-13,2.311489312e-13,1.601091937e-13,1.165796898e-13,2.417833417e-13,1.241810425e-13,1.542468446e-13,1.085313106e-13,2.158137556e-13,5.924156763e-14,4.584635342e-13,1.025936196e-13,6.630416938e-14,1.574717419e-13,4.111337466e-13,1.090610111e-13,2.067464705e-13,1.85645357e-13,1.312353604e-13,2.747899971e-13,2.281295565e-13,3.817931667e-13,2.88874529e-13
1.546875,2.076124155e-13,2.869022323e-13,1.462723568e-13,3.901529556e-13,2.584652849e-13,1.094226066e-13,2.042278473e-13,6.550224038e-14,8.171366184e-14,1.584020741e-13,2.21382663e-13,1.670892871e-13,1.209671938e-13,2.462960364e-13,1.243138879e-13,1.540603787e-13,1.127576759e-13,2.192898633e-13,6.008321272e-14,4.514488707e-13,1.00133127e-13,6.690903066e-14,1.552702625e-13,4.01734839e-13,1.005545917e-13,2.079496234e-13,1.883957298e-13,1.372738652e-13,2.814045421e-13,2.207036777e-13,3.876398729e-13,2.809745705e-13
1.5546875,2.076803936e-13,2.914464862e-13,1.462710388e-13,3.898490569e-13,2.594231307e-13,1.117470523e-13,2.07659487e-13,6.382698116e-14,8.28538146e-14,1.573261651e-13,2.120618994e-13,1.742746633e-13,1.254297864e-13,2.511732564e-13,1.250205047e-13,1.544505087e-13,1.171923584e-13,2.229261258e-13,6.111423321e-14,4.44599738e-13,9.791706251e-14,6.746145369e-14,1.530795096e-13,3.925210384e-13,9.267934432e-14,2.087328766e-13,1.90877503e-13,1.436913119e-13,2.879287885e-13,2.140364387e-13,3.926605546e-13,2.730303037e-13
1.5625,2.081308991e-13,2.959493933e-13,1.462033639e-13,3.897203308e-13,2.601150527e-13,1.138138433e-13,2.109598956e-13,6.229314537e-14,8.405602171e-14,1.561162258e-13,2.032718783e-13,1.81787563e-13,1.302770211e-13,2.563235583e-13,1.258600235e-13,1.54976524e-13,1.215463577e-13,2.268339895e-13,6.239084218e-14,4.377714725e-13,9.590315917e-14,6.809392339e-14,1.508632897e-13,3.836604797e-13,8.529813618e-14,2.091748645e-13,1.93296898e-13,1.506759004e-13,2.947680484e-13,2.083578934e-13,3.972047239e-13,2.651456773e-13
1.5703125,2.087542204e-13,3.003266971e-13,1.46078456e-13,3.897825914e-13,2.606618787e-13,1.155091582e-13,2.138987704e-13,6.079946793e-14,8.5376127e-14,1.547457359e-13,1.947653543e-13,1.895713169e-13,1.353889291e-13,2.617577121e-13,1.267679488e-13,1.555096994e-13,1.256403754e-13,2.306804758e-13,6.378989668e-14,4.306124141e-13,9.406968406e-14,6.880851543e-14,1.485206303e-13,3.746668543e-13,7.832961924e-14,2.092182103e-13,1.953641714e-13,1.580402593e-13,3.014384173e-13,2.033967957e-13,4.012074839e-13,2.572611039e-13
1.578125,2.09560158e-13,3.042071501e-13,1.464998096e-13,3.896919105e-13,2.609429647e-13,1.175043507e-13,2.165495073e-13,5.950223046e-14,8.666366299e-14,1.531852532e-13,1.864186425e-13,1.97577372e-13,1.406215712e-13,2.675604527e-13,1.283019984e-13,1.566778502e-13,1.299070748e-13,2.34522706e-13,6.537896824e-14,4.234383598e-13,9.253309066e-14,6.962148994e-14,1.460870572e-13,3.655035081e-13,7.167575189e-14,2.087667639e-13,1.970388941e-13,1.65613589e-13,3.076135105e-13,1.996433839e-13,4.042546651e-13,2.493488291e-13
1.5859375,2.104708027e-13,3.074233872e-13,1.47309836e-13,3.891635981e-13,2.607661055e-13,1.197429899e-13,2.189409565e-13,5.837240602e-14,8.791181037e-14,1.515049878e-13,1.784634321e-13,2.056102972e-13,1.459515151e-13,2.733236107e-13,1.301870865e-13,1.583849195e-13,1.344123056e-13,2.38321156e-13,6.715715847e-14,4.164416815e-13,9.125910365e-14,7.053105847e-14,1.43544751e-13,3.56322462e-13,6.545287566e-14,2.078679418e-13,1.98365365e-13,1.734858435e-13,3.132370649e-13,1.974808872e-13,4.060663352e-13,2.41536569e-13
1.59375,2.113922556e-13,3.09951812e-13,1.481578727e-13,3.88138043e-13,2.602393011e-13,1.217384721e-13,2.21090916e-13,5.738918302e-14,8.913925779e-14,1.496724332e-13,1.709962202e-13,2.135931484e-13,1.513015488e-13,2.788922756e-13,1.321641133e-13,1.601736255e-13,1.388818364e-13,2.418460983e-13,6.896480065e-14,4.092428143e-13,9.006941107e-14,7.141066513e-14,1.408278294e-13,3.474800431e-13,5.983400054e-14,2.066405129e-13,1.992448898e-13,1.816086875e-13,3.183148832e-13,1.960506052e-13,4.069046894e-13,2.338772764e-13
1.6015625,2.125365101e-13,3.120173022e-13,1.493632834e-13,3.868710337e-13,2.595352812e-13,1.236367699e-13,2.232044334e-13,5.665538339e-14,9.033436274e-14,1.478293262e-13,1.639051334e-13,2.218295469e-13,1.567036264e-13,2.846919678e-13,1.344740071e-13,1.621372335e-13,1.434680005e-13,2.453698159e-13,7.084540869e-14,4.018946108e-13,8.886803397e-14,7.220696113e-14,1.379390767e-13,3.390844923e-13,5.474517266e-14,2.05119837e-13,1.998382617e-13,1.899453818e-13,3.230744834e-13,1.951276033e-13,4.072943175e-13,2.263050908e-13
1.609375,2.140254879e-13,3.138947643e-13,1.510104244e-13,3.856259661e-13,2.58626236e-13,1.255533485e-13,2.252979701e-13,5.614296377e-14,9.153144121e-14,1.46208185e-13,1.57204464e-13,2.303398586e-13,1.622176209e-13,2.907460959e-13,1.370612012e-13,1.644317958e-13,1.482912826e-13,2.490101572e-13,7.289042463e-14,3.946284918e-13,8.775324006e-14,7.300047146e-14,1.348850403e-13,3.30700535e-13,5.003058636e-14,2.032908039e-13,2.003168005e-13,1.986876701e-13,3.276836158e-13,1.95069297e-13,4.072948083e-13,2.188324759e-13
1.6171875,2.155139785e-13,3.151963122e-13,1.527086535e-13,3.840482103e-13,2.572372906e-13,1.2723793e-13,2.270577306e-13,5.586647625e-14,9.270615029e-14,1.446635376e-13,1.509443639e-13,2.387511908e-13,1.67669523e-13,2.96490627e-13,1.398197653e-13,1.668052578e-13,1.530063639e-13,2.521991469e-13,7.493106366e-14,3.871395148e-13,8.678576877e-14,7.380294367e-14,1.317505164e-13,3.225443008e-13,4.568821836e-14,2.01087861e-13,2.004471589e-13,2.075671218e-13,3.320071409e-13,1.951842965e-13,4.063492705e-13,2.11501867e-13
1.625,2.167082791e-13,3.154147431e-13,1.544673313e-13,3.815747541e-13,2.551492096e-13,1.286683485e-13,2.283920336e-13,5.591374362e-14,9.381123682e-14,1.429624468e-13,1.45093042e-13,2.469846453e-13,1.728976298e-13,3.017125425e-13,1.427228874e-13,1.68998511e-13,1.575761828e-13,2.547617193e-13,7.675133616e-14,3.7929878e-13,8.575831096e-14,7.450650957e-14,1.285976894e-13,3.144687482e-13,4.186126989e-14,1.984470639e-13,2.000691213e-13,2.161015923e-13,3.356972253e-13,1.951559633e-13,4.040444518e-13,2.042842483e-13
1.6328125,2.179352152e-13,3.150635955e-13,1.566550178e-13,3.785899973e-13,2.526768087e-13,1.30172204e-13,2.296795548e-13,5.620238416e-14,9.484280987e-14,1.411302616e-13,1.394632715e-13,2.552276583e-13,1.78066235e-13,3.069757319e-13,1.459658854e-13,1.714731956e-13,1.625529985e-13,2.572894377e-13,7.850613377e-14,3.713593905e-13,8.470049907e-14,7.513090152e-14,1.25307113e-13,3.05883425e-13,3.860189817e-14,1.954419683e-13,1.994340111e-13,2.245594243e-13,3.386994587e-13,1.959657714e-13,4.008358059e-13,1.971800864e-13
1.640625,2.194411653e-13,3.146807776e-13,1.591902719e-13,3.757530095e-13,2.500522897e-13,1.318998814e-13,2.309051997e-13,5.659670459e-14,9.583686687e-14,1.392089737e-13,1.338165067e-13,2.635308022e-13,1.833507781e-13,3.124903772e-13,1.496622311e-13,1.744746159e-13,1.678389316e-13,2.598147637e-13,8.046393423e-14,3.632382864e-13,8.386383736e-14,7.584777944e-14,1.218175668e-13,2.977176831e-13,3.572083975e-14,1.920673008e-13,1.986222936e-13,2.332163798e-13,3.412720401e-13,1.978953947e-13,3.971889765e-13,1.902086664e-13
1.6484375,2.207315555e-13,3.135860959e-13,1.617801483e-13,3.72516236e-13,2.46833279e-13,1.334324366e-13,2.316090194e-13,5.717268547e-14,9.683487229e-14,1.372729503e-13,1.281938601e-13,2.716930409e-13,1.88512334e-13,3.174015918e-13,1.532966265e-13,1.77279245e-13,1.728077035e-13,2.616122804e-13,8.238170411e-14,3.546775299e-13,8.30898445e-14,7.659185662e-14,1.181953365e-13,2.901370388e-13,3.308173865e-14,1.881576164e-13,1.973014965e-13,2.416468082e-13,3.430789408e-13,2.000988427e-13,3.925510563e-13,1.833139798e-13
1.65625,2.215365918e-13,3.112397028e-13,1.646359239e-13,3.68155072e-13,2.427851824e-13,1.345179158e-13,2.320853604e-13,5.810750262e-14,9.776898651e-14,1.35424314e-13,1.228218131e-13,2.794916974e-13,1.93296113e-13,3.213673753e-13,1.569150895e-13,1.79978411e-13,1.779202147e-13,2.627449939e-13,8.400713068e-14,3.457193441e-13,8.222038193e-14,7.718866941e-14,1.144985035e-13,2.820858828e-13,3.078923497e-14,1.836954481e-13,1.953642458e-13,2.496102846e-13,3.438165551e-13,2.023963556e-13,3.864661169e-13,1.765053439e-13
1.6640625,2.222682711e-13,3.081896154e-13,1.678295475e-13,3.631188163e-13,2.381945531e-13,1.355230304e-13,2.327026827e-13,5.9312462e-14,9.861336583e-14,1.334876815e-13,1.178917555e-13,2.870562527e-13,1.978994841e-13,3.250279369e-13,1.610057095e-13,1.832292802e-13,1.83619781e-13,2.638092163e-13,8.562040781e-14,3.365888237e-13,8.138551725e-14,7.777819073e-14,1.108017013e-13,2.744349067e-13,2.889118868e-14,1.78764427e-13,1.930680829e-13,2.57232546e-13,3.441420781e-13,2.051567388e-13,3.794036073e-13,1.699278719e-13
1.671875,2.230186443e-13,3.047641772e-13,1.708440535e-13,3.578829367e-13,2.332190867e-13,1.364832069e-13,2.330320563e-13,6.061012106e-14,9.95132637e-14,1.313280567e-13,1.133760606e-13,2.945332719e-13,2.024853373e-13,3.283584753e-13,1.652588361e-13,1.865064845e-13,1.891619566e-13,2.645788751e-13,8.731459723e-14,3.274686597e-13,8.058031844e-14,7.849287995e-14,1.071088731e-13,2.677428344e-13,2.728978219e-14,1.734510906e-13,1.90523683e-13,2.645658308e-13,3.442963142e-13,2.082784844e-13,3.717395585e-13,1.636704528e-13
1.6796875,2.23596447e-13,3.007242478e-13,1.735987455e-13,3.522392847e-13,2.27903709e-13,1.371111277e-13,2.332682883e-13,6.209081591e-14,1.005044213e-13,1.291838786e-13,1.088891076e-13,3.017760461e-13,2.069170482e-13,3.310123375e-13,1.696302883e-13,1.896038768e-13,1.946176844e-13,2.649096057e-13,8.892700569e-14,3.183421285e-13,7.978054659e-14,7.923050469e-14,1.033441296e-13,2.608654652e-13,2.594153404e-14,1.679409887e-13,1.877186492e-13,2.71750864e-13,3.438545023e-13,2.118045254e-13,3.635379111e-13,1.577129751e-13
1.6875,2.241321733e-13,2.960918428e-13,1.764309057e-13,3.461840565e-13,2.222591489e-13,1.375196577e-13,2.339180282e-13,6.372594109e-14,1.014954655e-13,1.272396818e-13,1.04224442e-13,3.087974235e-13,2.11218618e-13,3.332487858e-13,1.7416763e-13,1.930655461e-13,2.006692287e-13,2.65230466e-13,9.055798207e-14,3.092105643e-13,7.899540911e-14,7.998774208e-14,9.952671622e-14,2.540477449e-13,2.484786756e-14,1.62325124e-13,1.847878521e-13,2.78981591e-13,3.429508998e-13,2.157520715e-13,3.549518925e-13,1.520014635e-13
1.6953125,2.245607347e-13,2.910330365e-13,1.791919421e-13,3.399341868e-13,2.162453086e-13,1.377642566e-13,2.345371495e-13,6.538201e-14,1.025184148e-13,1.254603231e-13,9.984903085e-14,3.15659209e-13,2.155045874e-13,3.35002769e-13,1.784169923e-13,1.966389672e-13,2.069560526e-13,2.653891797e-13,9.222430778e-14,3.003438944e-13,7.817730492e-14,8.084266754e-14,9.576165516e-14,2.481271529e-13,2.396745564e-14,1.565835513e-13,1.818102905e-13,2.863710394e-13,3.417157061e-13,2.198197849e-13,3.459361002e-13,1.465301189e-13
1.703125,2.246533576e-13,2.855804235e-13,1.817525332e-13,3.33462748e-13,2.100226479e-13,1.377214892e-13,2.351558969e-13,6.726161334e-14,1.0364209e-13,1.23750515e-13,9.627779046e-14,3.221940968e-13,2.196684677e-13,3.360571585e-13,1.829607932e-13,2.002130383e-13,2.134664357e-13,2.651454134e-13,9.385547528e-14,2.918718623e-13,7.733315349e-14,8.180752543e-14,9.214358886e-14,2.429164865e-13,2.328012001e-14,1.507810059e-13,1.786986567e-13,2.937766529e-13,3.399962811e-13,2.243600196e-13,3.364837256e-13,1.414409123e-13
1.7109375,2.24641734e-13,2.797467064e-13,1.843318062e-13,3.266958601e-13,2.036788655e-13,1.374040331e-13,2.362947921e-13,6.936692622e-14,1.048579821e-13,1.21981597e-13,9.334174352e-14,3.284091147e-13,2.235755837e-13,3.366478329e-13,1.882113409e-13,2.040159521e-13,2.204890478e-13,2.647250488e-13,9.551338496e-14,2.837993791e-13,7.644187035e-14,8.28793276e-14,8.871070107e-14,2.382181431e-13,2.28485408e-14,1.449579723e-13,1.754071255e-13,3.008971924e-13,3.38005138e-13,2.294659556e-13,3.268568382e-13,1.368474631e-13
1.71875,2.247198455e-13,2.735179605e-13,1.868678283e-13,3.19648368e-13,1.970713476e-13,1.367412945e-13,2.375350646e-13,7.140090725e-14,1.061824883e-13,1.20243424e-13,9.064080524e-14,3.344214222e-13,2.272511411e-13,3.366969548e-13,1.932178517e-13,2.075326382e-13,2.273775259e-13,2.6398404e-13,9.711090815e-14,2.763214425e-13,7.560942597e-14,8.403894153e-14,8.54772385e-14,2.339423489e-13,2.269404457e-14,1.391347894e-13,1.719449959e-13,3.079851798e-13,3.358065556e-13,2.34576711e-13,3.170785893e-13,1.32721664e-13
1.7265625,2.246616874e-13,2.669391369e-13,1.892599791e-13,3.123640196e-13,1.902665825e-13,1.358598271e-13,2.386975285e-13,7.353339013e-14,1.076337339e-13,1.187497292e-13,8.829999779e-14,3.401442791e-13,2.307825512e-13,3.360452354e-13,1.981629722e-13,2.107351446e-13,2.341203012e-13,2.626996535e-13,9.862648923e-14,2.69192897e-13,7.489934722e-14,8.530027574e-14,8.248414778e-14,2.301005399e-13,2.268562915e-14,1.334037544e-13,1.682825287e-13,3.152330543e-13,3.331401735e-13,2.399395988e-13,3.070070752e-13,1.291288671e-13
1.734375,2.243427902e-13,2.601290369e-13,1.916579529e-13,3.048911834e-13,1.835029254e-13,1.350435824e-13,2.403748881e-13,7.601218456e-14,1.091114727e-13,1.173464717e-13,8.649468149e-14,3.45430722e-13,2.340810015e-13,3.349601528e-13,2.039761597e-13,2.144382614e-13,2.415467223e-13,2.611338011e-13,1.00176536e-13,2.620560312e-13,7.405951759e-14,8.663713022e-14,7.968961886e-14,2.266116454e-13,2.275640288e-14,1.278499682e-13,1.644827896e-13,3.220034573e-13,3.299053137e-13,2.455504088e-13,2.967510243e-13,1.261208043e-13
1.7421875,2.239157745e-13,2.532763403e-13,1.940979404e-13,2.973852817e-13,1.768911929e-13,1.341283291e-13,2.427701121e-13,7.864639664e-14,1.105460504e-13,1.158410967e-13,8.507134218e-14,3.502614752e-13,2.370036616e-13,3.335673183e-13,2.103970815e-13,2.188083185e-13,2.498148864e-13,2.596235224e-13,1.017395495e-13,2.556092235e-13,7.321001372e-14,8.79578563e-14,7.70413775e-14,2.233311909e-13,2.300714032e-14,1.226004032e-13,1.608253269e-13,3.281123558e-13,3.262016262e-13,2.508154096e-13,2.866027121e-13,1.235779278e-13
1.75,2.235081828e-13,2.46590011e-13,1.966341344e-13,2.901188121e-13,1.704306543e-13,1.330229e-13,2.457001773e-13,8.136802933e-14,1.120529296e-13,1.14500705e-13,8.412795976e-14,3.548387097e-13,2.396579243e-13,3.318783372e-13,2.172171828e-13,2.23464903e-13,2.585639134e-13,2.581992176e-13,1.033736118e-13,2.504192799e-13,7.264369225e-14,8.928234192e-14,7.464905644e-14,2.206515382e-13,2.344333256e-14,1.177291794e-13,1.575209817e-13,3.33785948e-13,3.223032274e-13,2.559989302e-13,2.76789202e-13,1.215045329e-13
1.7578125,2.230106141e-13,2.399463062e-13,1.994242517e-13,2.830583369e-13,1.641230949e-13,1.320071893e-13,2.488728219e-13,8.428759844e-14,1.136386775e-13,1.13545033e-13,8.369298171e-14,3.592115751e-13,2.420026049e-13,3.299577991e-13,2.24662322e-13,2.283601802e-13,2.673746055e-13,2.565673524e-13,1.050214327e-13,2.458973037e-13,7.210824878e-14,9.056788708e-14,7.251915168e-14,2.183232457e-13,2.399492143e-14,1.131141641e-13,1.544145896e-13,3.384037637e-13,3.182880336e-13,2.610161405e-13,2.672526608e-13,1.199467e-13
1.765625,2.223787197e-13,2.331755137e-13,2.025854463e-13,2.759957339e-13,1.580893391e-13,1.310839501e-13,2.523924753e-13,8.735779488e-14,1.151133961e-13,1.127176524e-13,8.342714907e-14,3.63158144e-13,2.438122276e-13,3.278820608e-13,2.328457523e-13,2.338296411e-13,2.764679003e-13,2.548708473e-13,1.065269166e-13,2.418908586e-13,7.159472966e-14,9.16858311e-14,7.047288934e-14,2.157089592e-13,2.466658463e-14,1.087391095e-13,1.513828614e-13,3.416685907e-13,3.140645602e-13,2.657999766e-13,2.579565666e-13,1.187286532e-13
1.7734375,2.218079747e-13,2.26487718e-13,2.060607363e-13,2.691048383e-13,1.523780484e-13,1.300999966e-13,2.568216967e-13,9.054410914e-14,1.164772366e-13,1.118047785e-13,8.349590337e-14,3.667983538e-13,2.452729624e-13,3.258289667e-13,2.41988447e-13,2.399375241e-13,2.864875834e-13,2.535983826e-13,1.081826649e-13,2.388399956e-13,7.132857325e-14,9.274104104e-14,6.855483026e-14,2.133029615e-13,2.541192722e-14,1.047764626e-13,1.486472158e-13,3.442900567e-13,3.098217536e-13,2.713990977e-13,2.491476873e-13,1.177464117e-13
1.78125,2.211436257e-13,2.199408437e-13,2.093386094e-13,2.625296791e-13,1.468289324e-13,1.28943299e-13,2.619865858e-13,9.382183746e-14,1.178437343e-13,1.109826632e-13,8.431687907e-14,3.701973597e-13,2.465192133e-13,3.235373932e-13,2.518158551e-13,2.462921125e-13,2.970531543e-13,2.523931934e-13,1.100426175e-13,2.366207112e-13,7.098372136e-14,9.380404856e-14,6.696456324e-14,2.11185094e-13,2.611966154e-14,1.012515899e-13,1.462614566e-13,3.464840353e-13,3.055379412e-13,2.773304143e-13,2.408006697e-13,1.171025011e-13
1.7890625,2.201681725e-13,2.135008697e-13,2.122485124e-13,2.561770538e-13,1.414413304e-13,1.274766917e-13,2.675244032e-13,9.707405783e-14,1.191690486e-13,1.103621886e-13,8.576624212e-14,3.729928418e-13,2.473627551e-13,3.206784781e-13,2.619656463e-13,2.530623392e-13,3.07914421e-13,2.51001663e-13,1.117371329e-13,2.352705827e-13,7.050027986e-14,9.476502286e-14,6.565666532e-14,2.089263548e-13,2.672032219e-14,9.808081392e-14,1.441171747e-13,3.478609228e-13,3.011276368e-13,2.822342745e-13,2.328029982e-13,1.168074779e-13
1.796875,2.192747188e-13,2.074967917e-13,2.154686755e-13,2.5024985e-13,1.363548583e-13,1.25957377e-13,2.735986619e-13,1.002108147e-13,1.204361136e-13,1.097973555e-13,8.761401752e-14,3.752739359e-13,2.479277623e-13,3.177067204e-13,2.725945668e-13,2.605733618e-13,3.195356199e-13,2.499874854e-13,1.13452589e-13,2.351689931e-13,7.030472398e-14,9.56861525e-14,6.4497988e-14,2.070936708e-13,2.727054029e-14,9.526260101e-14,1.424298617e-13,3.482802568e-13,2.969287982e-13,2.867547939e-13,2.254702624e-13,1.167024925e-13
1.8046875,2.185645637e-13,2.019547342e-13,2.192342777e-13,2.449011433e-13,1.315508437e-13,1.247214288e-13,2.799279282e-13,1.031875197e-13,1.216413012e-13,1.092762415e-13,8.984928372e-14,3.772065772e-13,2.482328521e-13,3.148680072e-13,2.835955987e-13,2.68230518e-13,3.313457521e-13,2.49224024e-13,1.153544354e-13,2.361805115e-13,7.033958064e-14,9.659434238e-14,6.355005796e-14,2.057224393e-13,2.794206307e-14,9.279712411e-14,1.412611371e-13,3.476818157e-13,2.928070954e-13,2.918047332e-13,2.187904066e-13,1.167212739e-13
