"Time","Fp1","AF3","F7","F3","FC1","FC5","T7","C3","CP1","CP5","P7","P3","Pz","PO3","O1","Oz","O2","PO4","P4","P8","CP6","CP2","C4","T8","FC6","FC2","F4","F8","AF4","Fp2","Fz","Cz"
0.0078125,4.953589707e-14,2.949081486e-13,1.131963504e-13,2.785756554e-13,1.021622571e-13,5.702130392e-14,6.262673732e-14,1.118491209e-14,2.899633133e-14,3.179491911e-14,4.965150474e-14,6.848284102e-14,8.780106e-14,1.306280278e-13,1.950314277e-13,1.716018062e-13,2.254577986e-13,3.739446284e-13,2.288469843e-13,1.797535027e-13,5.68046816e-14,4.166925014e-14,2.674783467e-14,4.520278287e-14,7.184581844e-14,9.448907976e-14,2.894835659e-13,1.494922596e-13,7.586229422e-13,5.579457674e-13,1.974292914e-13,4.030108135e-14
0.015625,5.58112531e-14,3.00898469e-13,1.183278968e-13,2.787505955e-13,1.0428653e-13,6.011292842e-14,6.438501938e-14,1.150060083e-14,3.124158145e-14,3.464623149e-14,5.120356891e-14,6.842993425e-14,9.026628613e-14,1.397397011e-13,2.09076475e-13,1.87204614e-13,2.435243173e-13,3.99174065e-13,2.465219311e-13,1.883323687e-13,5.961022825e-14,4.474265334e-14,2.829144726e-14,4.95517727e-14,7.810089873e-14,9.751281568e-14,2.982169534e-13,1.710324126e-13,7.782882923e-13,5.981632218e-13,2.031076735e-13,4.14286095e-14
0.0234375,6.245430289e-14,3.059099367e-13,1.234381094e-13,2.770888065e-13,1.057775468e-13,6.330428568e-14,6.592200763e-14,1.170802267e-14,3.379412324e-14,3.772422703e-14,5.262802354e-14,6.799247723e-14,9.272183606e-14,1.49017683e-13,2.231404524e-13,2.033382934e-13,2.619459095e-13,4.240645951e-13,2.644003841e-13,1.963382421e-13,6.232638913e-14,4.809025101e-14,3.000507582e-14,5.417676458e-14,8.465804507e-14,1.000188147e-13,3.060471682e-13,1.946419893e-13,7.946829881e-13,6.387603347e-13,2.075989048e-13,4.239290344e-14
0.03125,6.936350252e-14,3.101723495e-13,1.285993541e-13,2.735783874e-13,1.064327343e-13,6.652786859e-14,6.732685806e-14,1.184676893e-14,3.666347499e-14,4.095223947e-14,5.406052551e-14,6.732905113e-14,9.5182985e-14,1.584500283e-13,2.36941569e-13,2.195919084e-13,2.802464592e-13,4.479853723e-13,2.821921954e-13,2.035338213e-13,6.48840172e-14,5.171643724e-14,3.187182194e-14,5.905668267e-14,9.132850043e-14,1.018147402e-13,3.126886053e-13,2.19891041e-13,8.076495269e-13,6.793616232e-13,2.106504299e-13,4.308355061e-14
0.0390625,7.671591524e-14,3.138727132e-13,1.338087367e-13,2.686564073e-13,1.062607463e-13,6.971941345e-14,6.870499361e-14,1.193953767e-14,3.992977138e-14,4.435225549e-14,5.554516786e-14,6.65687937e-14,9.78534275e-14,1.682666245e-13,2.505953088e-13,2.362375613e-13,2.987728663e-13,4.710010283e-13,3.000705926e-13,2.100147577e-13,6.729039312e-14,5.570331342e-14,3.380369796e-14,6.430767145e-14,9.833355786e-14,1.029211451e-13,3.184966091e-13,2.472842787e-13,8.18037187e-13,7.20212626e-13,2.123135825e-13,4.353154559e-14
0.046875,8.45627155e-14,3.172523586e-13,1.391789008e-13,2.624431308e-13,1.052688496e-13,7.292528814e-14,7.027699524e-14,1.197288133e-14,4.364243724e-14,4.803360136e-14,5.715521642e-14,6.56562498e-14,1.007671242e-13,1.784199502e-13,2.64077607e-13,2.533487158e-13,3.174762247e-13,4.92724198e-13,3.177592425e-13,2.158651495e-13,6.954537133e-14,6.002572035e-14,3.580251642e-14,7.004686191e-14,1.057158094e-13,1.033615761e-13,3.235037567e-13,2.770666713e-13,8.255274317e-13,7.605434641e-13,2.124688787e-13,4.376065186e-14
0.0546875,9.261585921e-14,3.20158993e-13,1.447119897e-13,2.547820707e-13,1.034683953e-13,7.612332943e-14,7.222016764e-14,1.191537705e-14,4.76710251e-14,5.190437006e-14,5.891411702e-14,6.446494425e-14,1.037015751e-13,1.884924817e-13,2.769247432e-13,2.700933301e-13,3.354321511e-13,5.120830268e-13,3.344655943e-13,2.206308338e-13,7.149648518e-14,6.449839708e-14,3.790821536e-14,7.623651172e-14,1.130377723e-13,1.031358012e-13,3.269034333e-13,3.081324002e-13,8.286425891e-13,7.984045202e-13,2.109620125e-13,4.379931909e-14
0.0625,1.006560192e-13,3.225912947e-13,1.508742331e-13,2.460766419e-13,1.010387351e-13,7.952638623e-14,7.45038179e-14,1.180283937e-14,5.199420043e-14,5.578633234e-14,6.088620549e-14,6.312796466e-14,1.06766229e-13,1.984370136e-13,2.888799246e-13,2.85923018e-13,3.522622082e-13,5.290310394e-13,3.502465126e-13,2.247038293e-13,7.323069512e-14,6.918312028e-14,4.016337045e-14,8.282492783e-14,1.202502783e-13,1.022548503e-13,3.289675814e-13,3.399040282e-13,8.29012286e-13,8.339303529e-13,2.080272813e-13,4.378930819e-14
0.0703125,1.087334106e-13,3.250934097e-13,1.577809354e-13,2.370556996e-13,9.813355417e-14,8.299907573e-14,7.708962844e-14,1.167142558e-14,5.66981672e-14,5.972338959e-14,6.318564948e-14,6.183008893e-14,1.102901742e-13,2.087863951e-13,3.006810314e-13,3.014852593e-13,3.686224324e-13,5.443847413e-13,3.655241218e-13,2.285402993e-13,7.487610907e-14,7.418842217e-14,4.259475423e-14,8.981817938e-14,1.275464938e-13,1.008679777e-13,3.306648091e-13,3.72758725e-13,8.288804799e-13,8.682382993e-13,2.041327122e-13,4.375144341e-14
0.078125,1.168093881e-13,3.276305498e-13,1.651793665e-13,2.27748851e-13,9.492206248e-14,8.635603939e-14,7.988429788e-14,1.149071556e-14,6.17419043e-14,6.375723854e-14,6.558907384e-14,6.048105874e-14,1.143366748e-13,2.196010875e-13,3.128209297e-13,3.172225284e-13,3.849246186e-13,5.584384314e-13,3.80206487e-13,2.321607925e-13,7.638819776e-14,7.945024581e-14,4.52212303e-14,9.711884062e-14,1.349437583e-13,9.933530101e-14,3.322048907e-13,4.066174412e-13,8.279947304e-13,9.00801285e-13,1.996522368e-13,4.379731247e-14
0.0859375,1.245565688e-13,3.300635316e-13,1.733943815e-13,2.179851201e-13,9.154460216e-14,8.976394711e-14,8.279742934e-14,1.132172884e-14,6.695702871e-14,6.775915028e-14,6.801600229e-14,5.90795527e-14,1.187339756e-13,2.304948702e-13,3.249411238e-13,3.32581588e-13,4.00624565e-13,5.708273951e-13,3.938364043e-13,2.360520913e-13,7.778252408e-14,8.48074666e-14,4.811285737e-14,1.045649753e-13,1.423085649e-13,9.775006028e-14,3.333397446e-13,4.40582447e-13,8.261795245e-13,9.305384662e-13,1.946235164e-13,4.406634987e-14
0.09375,1.31823273e-13,3.326935778e-13,1.825774586e-13,2.082612854e-13,8.809654599e-14,9.321515824e-14,8.575544247e-14,1.124531884e-14,7.226745392e-14,7.163846392e-14,7.070929102e-14,5.781424629e-14,1.235198432e-13,2.415501175e-13,3.370974961e-13,3.474348273e-13,4.156403844e-13,5.816726987e-13,4.063769931e-13,2.404633466e-13,7.907975574e-14,9.021635754e-14,5.13486895e-14,1.120341008e-13,1.495965977e-13,9.61411628e-14,3.34247413e-13,4.743686069e-13,8.242833362e-13,9.575408954e-13,1.891960605e-13,4.455008286e-14
0.1015625,1.387088715e-13,3.352893166e-13,1.927919247e-13,1.986117819e-13,8.473228329e-14,9.671888134e-14,8.871486436e-14,1.125402657e-14,7.765840963e-14,7.534997748e-14,7.362917085e-14,5.673840497e-14,1.288085966e-13,2.52724028e-13,3.493981024e-13,3.620816406e-13,4.30626493e-13,5.913946904e-13,4.180623339e-13,2.458120973e-13,8.03209382e-14,9.568189537e-14,5.494267911e-14,1.194788055e-13,1.570019841e-13,9.478544876e-14,3.354665379e-13,5.081223777e-13,8.225329669e-13,9.818426076e-13,1.837209231e-13,4.528860817e-14
0.109375,1.450239523e-13,3.372192766e-13,2.039260438e-13,1.885621242e-13,8.149283501e-14,1.002747341e-13,9.189165953e-14,1.133881047e-14,8.296291927e-14,7.889444372e-14,7.676247217e-14,5.579565484e-14,1.342377759e-13,2.632537266e-13,3.609894274e-13,3.757167822e-13,4.447713856e-13,5.990436617e-13,4.282741964e-13,2.521486057e-13,8.142478765e-14,1.009699247e-13,5.895432327e-14,1.269318115e-13,1.642751893e-13,9.37666632e-14,3.365428214e-13,5.406717485e-13,8.193504033e-13,1.00162447e-12,1.781311675e-13,4.632488346e-14
0.1171875,1.504812274e-13,3.382747884e-13,2.156821494e-13,1.782823947e-13,7.848365155e-14,1.03680573e-13,9.530963677e-14,1.151244962e-14,8.803032422e-14,8.231698142e-14,8.020649119e-14,5.500238726e-14,1.394293593e-13,2.725752374e-13,3.711039682e-13,3.873858549e-13,4.565969712e-13,6.033670638e-13,4.362059917e-13,2.592309429e-13,8.221310374e-14,1.058650628e-13,6.340333936e-14,1.343543853e-13,1.70947373e-13,9.318551161e-14,3.369102253e-13,5.705557382e-13,8.136526544e-13,1.015093953e-12,1.724576816e-13,4.777004389e-14
0.125,1.550656874e-13,3.384347951e-13,2.281917928e-13,1.680634946e-13,7.584737718e-14,1.069685279e-13,9.875697529e-14,1.179996302e-14,9.276742568e-14,8.555281965e-14,8.385543075e-14,5.43852862e-14,1.443090848e-13,2.805811552e-13,3.795915092e-13,3.970947769e-13,4.660942112e-13,6.042612568e-13,4.416967782e-13,2.677910296e-13,8.272256848e-14,1.102703896e-13,6.82354294e-14,1.415664473e-13,1.770581777e-13,9.320813657e-14,3.369358588e-13,5.973914622e-13,8.058906853e-13,1.022024491e-12,1.669765703e-13,4.967744534e-14
0.1328125,1.587310692e-13,3.375575155e-13,2.414300381e-13,1.578521905e-13,7.356512171e-14,1.10353501e-13,1.022399917e-13,1.218939195e-14,9.710179946e-14,8.86414641e-14,8.765087065e-14,5.390890817e-14,1.487428384e-13,2.871047271e-13,3.862744458e-13,4.046120241e-13,4.728814274e-13,6.013060578e-13,4.445059144e-13,2.776252497e-13,8.294235223e-14,1.14065943e-13,7.353181817e-14,1.484151084e-13,1.824734092e-13,9.382084637e-14,3.365275629e-13,6.206844324e-13,7.957272696e-13,1.021956012e-12,1.616581845e-13,5.19965852e-14
0.140625,1.613272637e-13,3.3547182e-13,2.549078051e-13,1.476436211e-13,7.167108571e-14,1.136665433e-13,1.05639052e-13,1.266114196e-14,1.009323873e-13,9.16033371e-14,9.156403118e-14,5.354970663e-14,1.525835857e-13,2.920773082e-13,3.911548693e-13,4.096263358e-13,4.762845137e-13,5.942255738e-13,4.445215755e-13,2.884321151e-13,8.284847048e-14,1.17146985e-13,7.933175956e-14,1.54762677e-13,1.869288793e-13,9.512436156e-14,3.355114345e-13,6.396355575e-13,7.83248896e-13,1.014785028e-12,1.565948048e-13,5.470846655e-14
0.1484375,1.627552198e-13,3.320791402e-13,2.680064766e-13,1.376082898e-13,7.02201646e-14,1.166751696e-13,1.088228758e-13,1.324017941e-14,1.040359188e-13,9.425768134e-14,9.572995615e-14,5.329680122e-14,1.557073274e-13,2.95610127e-13,3.947848241e-13,4.126202257e-13,4.773327414e-13,5.839074284e-13,4.421061504e-13,3.008237373e-13,8.254934617e-14,1.194787049e-13,8.564006307e-14,1.604170743e-13,1.906754327e-13,9.728788575e-14,3.342351408e-13,6.544288482e-13,7.696442022e-13,1.001784238e-12,1.520827632e-13,5.775743184e-14
0.15625,1.629567928e-13,3.275982466e-13,2.805316317e-13,1.279943894e-13,6.928854066e-14,1.19530195e-13,1.118713405e-13,1.396293063e-14,1.063603212e-13,9.664759358e-14,1.002949966e-13,5.313234483e-14,1.580544753e-13,2.978490116e-13,3.978245621e-13,4.141224933e-13,4.766838585e-13,5.708057986e-13,4.373047984e-13,3.1450648e-13,8.201228949e-14,1.210571246e-13,9.254536025e-14,1.652951463e-13,1.93805677e-13,1.004505527e-13,3.327942962e-13,6.653282039e-13,7.551187217e-13,9.834011449e-13,1.483687565e-13,6.121075007e-14
0.1640625,1.620648059e-13,3.219246487e-13,2.92163906e-13,1.187669225e-13,6.893080447e-14,1.22213235e-13,1.146851793e-13,1.48668994e-14,1.07981264e-13,9.874509002e-14,1.051205852e-13,5.30322792e-14,1.597289135e-13,2.989688005e-13,4.004769875e-13,4.143273936e-13,4.740406409e-13,5.55165378e-13,4.301985481e-13,3.291503805e-13,8.123839684e-14,1.218790899e-13,1.00004055e-13,1.693319926e-13,1.96110399e-13,1.046292766e-13,3.311327054e-13,6.721366515e-13,7.394888462e-13,9.599865122e-13,1.455680197e-13,6.509254649e-14
0.171875,1.602368928e-13,3.147495445e-13,3.024280678e-13,1.099276585e-13,6.914136883e-14,1.245691729e-13,1.171709418e-13,1.588833087e-14,1.088214133e-13,1.003248281e-13,1.103596357e-13,5.298068362e-14,1.607803572e-13,2.991499422e-13,4.031894698e-13,4.136689109e-13,4.700019002e-13,5.378255838e-13,4.212240288e-13,3.447516001e-13,8.031982988e-14,1.219989472e-13,1.079137253e-13,1.723826256e-13,1.976468921e-13,1.098528666e-13,3.29342115e-13,6.751789566e-13,7.232017547e-13,9.327030251e-13,1.437534962e-13,6.931737659e-14
0.1796875,1.575226905e-13,3.065524512e-13,3.11647077e-13,1.017600614e-13,7.001749038e-14,1.268461281e-13,1.193296017e-13,1.694344878e-14,1.088574969e-13,1.014288254e-13,1.16200551e-13,5.299797518e-14,1.612313827e-13,2.985644087e-13,4.065735256e-13,4.129199614e-13,4.650130911e-13,5.194929674e-13,4.10541969e-13,3.613747878e-13,7.932875667e-14,1.214391703e-13,1.162807766e-13,1.744108334e-13,1.985440054e-13,1.16303714e-13,3.278460834e-13,6.750106736e-13,7.069025741e-13,9.024224902e-13,1.432315161e-13,7.38892962e-14
0.1875,1.540335736e-13,2.97447864e-13,3.197872467e-13,9.403530386e-14,7.156263676e-14,1.293011339e-13,1.210641034e-13,1.808050187e-14,1.081498749e-13,1.020746447e-13,1.225709242e-13,5.30934967e-14,1.609989265e-13,2.970772294e-13,4.102680252e-13,4.1196116e-13,4.582006494e-13,5.000815158e-13,3.980342333e-13,3.789763521e-13,7.83165604e-14,1.201623653e-13,1.251584795e-13,1.75349965e-13,1.986453402e-13,1.238092163e-13,3.26726041e-13,6.7174301e-13,6.904039627e-13,8.697450546e-13,1.439938951e-13,7.874840448e-14
0.1953125,1.496989916e-13,2.868173513e-13,3.262151554e-13,8.658226412e-14,7.368085517e-14,1.316115871e-13,1.223440181e-13,1.92969437e-14,1.06621539e-13,1.02217803e-13,1.295088355e-13,5.324305568e-14,1.597496057e-13,2.942220651e-13,4.13734496e-13,4.098635622e-13,4.489034959e-13,4.790375293e-13,3.835942493e-13,3.968338954e-13,7.72103525e-14,1.181288001e-13,1.344789687e-13,1.750024138e-13,1.976707942e-13,1.321172075e-13,3.254312256e-13,6.645909605e-13,6.728044817e-13,8.344143444e-13,1.457351251e-13,8.383430847e-14
0.203125,1.445881202e-13,2.749337617e-13,3.309423638e-13,7.965442238e-14,7.635615129e-14,1.335197825e-13,1.231665296e-13,2.052951665e-14,1.043083912e-13,1.019366017e-13,1.369905201e-13,5.348444083e-14,1.574832511e-13,2.900525248e-13,4.17089305e-13,4.069534719e-13,4.376162222e-13,4.567360436e-13,3.675820793e-13,4.1463075e-13,7.59989016e-14,1.154357772e-13,1.441198143e-13,1.733933734e-13,1.956858176e-13,1.412323689e-13,3.238614742e-13,6.53428538e-13,6.542459297e-13,7.968907404e-13,1.484575098e-13,8.914781071e-14
0.2109375,1.390293037e-13,2.624142399e-13,3.342306851e-13,7.313690112e-14,7.955407654e-14,1.353744399e-13,1.235203385e-13,2.179957935e-14,1.014463814e-13,1.013188605e-13,1.450637961e-13,5.394344132e-14,1.544751063e-13,2.85221096e-13,4.208462049e-13,4.040659903e-13,4.245643321e-13,4.33507459e-13,3.50273952e-13,4.3209396e-13,7.471364881e-14,1.122203468e-13,1.539979303e-13,1.706579159e-13,1.928961167e-13,1.510801343e-13,3.221237849e-13,6.393310284e-13,6.351308326e-13,7.58146585e-13,1.521319319e-13,9.466366948e-14
0.21875,1.330786248e-13,2.490424154e-13,3.35708816e-13,6.711947727e-14,8.310453968e-14,1.372807914e-13,1.23479766e-13,2.311494567e-14,9.811711461e-14,1.00507451e-13,1.537503086e-13,5.463244949e-14,1.507274773e-13,2.801156235e-13,4.255307462e-13,4.014139276e-13,4.096669327e-13,4.090715317e-13,3.31564518e-13,4.484572893e-13,7.32770455e-14,1.084605526e-13,1.638807915e-13,1.667884439e-13,1.892870291e-13,1.615114782e-13,3.201054069e-13,6.227629314e-13,6.151674876e-13,7.180329576e-13,1.565372654e-13,1.003183984e-13
0.2265625,1.269745071e-13,2.349744501e-13,3.351496601e-13,6.186519903e-14,8.68441959e-14,1.391412113e-13,1.230231829e-13,2.44115221e-14,9.434413114e-14,9.951058992e-14,1.629370013e-13,5.546338062e-14,1.462682854e-13,2.750393939e-13,4.317236115e-13,3.999284827e-13,3.936501987e-13,3.84182034e-13,3.120086542e-13,4.634980701e-13,7.168322018e-14,1.042988854e-13,1.736423909e-13,1.618531259e-13,1.849091919e-13,1.722980784e-13,3.17751158e-13,6.046031708e-13,5.94717281e-13,6.779445282e-13,1.615172592e-13,1.060457902e-13
0.234375,1.210737657e-13,2.208886345e-13,3.329301627e-13,5.729560896e-14,9.083108098e-14,1.410551537e-13,1.220973098e-13,2.56622348e-14,9.026329286e-14,9.827651582e-14,1.726402373e-13,5.646036392e-14,1.412991865e-13,2.703786709e-13,4.399762688e-13,4.005503891e-13,3.772358929e-13,3.5975056e-13,2.923069574e-13,4.769539263e-13,6.997902051e-14,9.997858861e-14,1.833972748e-13,1.559635126e-13,1.798540053e-13,1.833200287e-13,3.149616964e-13,5.860107207e-13,5.743549826e-13,6.398690853e-13,1.670618263e-13,1.118118364e-13
0.2421875,1.154299755e-13,2.068362247e-13,3.290364401e-13,5.337102665e-14,9.503066807e-14,1.429994347e-13,1.208284817e-13,2.692079721e-14,8.602450746e-14,9.685022802e-14,1.826542317e-13,5.761427536e-14,1.360319974e-13,2.661592505e-13,4.499280246e-13,4.031407077e-13,3.605231886e-13,3.35986726e-13,2.725886199e-13,4.881872572e-13,6.812029973e-14,9.558536053e-14,1.930018146e-13,1.492421003e-13,1.742098443e-13,1.944374823e-13,3.116340511e-13,5.673047447e-13,5.540190105e-13,6.040338226e-13,1.730094513e-13,1.175157181e-13
0.25,1.101354381e-13,1.928729112e-13,3.233843551e-13,5.002636611e-14,9.921754431e-14,1.450337449e-13,1.192623902e-13,2.817167844e-14,8.169464892e-14,9.515869023e-14,1.928549e-13,5.879524133e-14,1.305149749e-13,2.624015206e-13,4.613950623e-13,4.076182003e-13,3.435339331e-13,3.129532851e-13,2.528472319e-13,4.968300552e-13,6.605399157e-14,9.118303446e-14,2.021527229e-13,1.417646858e-13,1.68008829e-13,2.052327378e-13,3.074674201e-13,5.490967755e-13,5.335660617e-13,5.705806451e-13,1.789192458e-13,1.230724855e-13
0.2578125,1.053088061e-13,1.794217705e-13,3.163877299e-13,4.723035514e-14,1.033900067e-13,1.471630931e-13,1.17434042e-13,2.929860597e-14,7.728371727e-14,9.316995479e-14,2.035434889e-13,6.001554046e-14,1.246689088e-13,2.593205476e-13,4.748042551e-13,4.143446983e-13,3.267371211e-13,2.909557869e-13,2.333505122e-13,5.025801582e-13,6.381386146e-14,8.686332324e-14,2.107324013e-13,1.336284896e-13,1.611794154e-13,2.155964773e-13,3.022930665e-13,5.318110248e-13,5.130782042e-13,5.400542497e-13,1.847166172e-13,1.285421575e-13
0.265625,1.010748095e-13,1.666723182e-13,3.08761322e-13,4.49578327e-14,1.07661158e-13,1.493531693e-13,1.154411762e-13,3.026573725e-14,7.290911569e-14,9.102077796e-14,2.147751512e-13,6.143713262e-14,1.186417979e-13,2.571029041e-13,4.898064738e-13,4.233942187e-13,3.105303904e-13,2.704369752e-13,2.144881737e-13,5.056685003e-13,6.145404079e-14,8.27255135e-14,2.185713242e-13,1.251131521e-13,1.540187394e-13,2.25636982e-13,2.964604324e-13,5.155116219e-13,4.928856616e-13,5.123923446e-13,1.906252819e-13,1.339883347e-13
0.2734375,9.745770875e-14,1.545095707e-13,3.006631304e-13,4.306707415e-14,1.119063804e-13,1.517336224e-13,1.131778996e-13,3.111065119e-14,6.864649624e-14,8.886375357e-14,2.262931637e-13,6.306855534e-14,1.12531299e-13,2.557640798e-13,5.060906578e-13,4.344170629e-13,2.946880556e-13,2.512155511e-13,1.962580211e-13,5.065863778e-13,5.90050942e-14,7.87495358e-14,2.254841668e-13,1.162506212e-13,1.468461205e-13,2.351157905e-13,2.902258435e-13,5.005724218e-13,4.733025976e-13,4.87165615e-13,1.964385865e-13,1.392928906e-13
0.28125,9.4419617e-14,1.430856873e-13,2.917938713e-13,4.156272237e-14,1.15843901e-13,1.542748899e-13,1.106686034e-13,3.18245121e-14,6.451805779e-14,8.672624001e-14,2.37971056e-13,6.483176969e-14,1.062098012e-13,2.551547835e-13,5.23550995e-13,4.47169893e-13,2.792718257e-13,2.331424203e-13,1.787760548e-13,5.049600368e-13,5.64936269e-14,7.492306915e-14,2.31367114e-13,1.071250808e-13,1.39505179e-13,2.436707811e-13,2.835611812e-13,4.870091056e-13,4.543731834e-13,4.646345249e-13,2.017347354e-13,1.442144001e-13
0.2890625,9.208880197e-14,1.327482942e-13,2.828583341e-13,4.043593436e-14,1.194132019e-13,1.570162763e-13,1.080154938e-13,3.234839392e-14,6.066629586e-14,8.458165322e-14,2.498078878e-13,6.678097995e-14,9.97813193e-14,2.553649047e-13,5.416309829e-13,4.615358638e-13,2.646133528e-13,2.163706125e-13,1.623667239e-13,5.006016781e-13,5.391903708e-14,7.139187518e-14,2.360486295e-13,9.805232702e-14,1.319047212e-13,2.511941337e-13,2.763027459e-13,4.74605502e-13,4.359331309e-13,4.448444878e-13,2.064900561e-13,1.486653069e-13
0.296875,9.041087185e-14,1.232051743e-13,2.739139694e-13,3.960007903e-14,1.227487308e-13,1.598242344e-13,1.053559499e-13,3.266532192e-14,5.716244061e-14,8.256952247e-14,2.616473008e-13,6.881641865e-14,9.35347517e-14,2.563319405e-13,5.599200451e-13,4.771787589e-13,2.507613869e-13,2.008728931e-13,1.470752721e-13,4.938824538e-13,5.125609204e-14,6.827727384e-14,2.396238711e-13,8.910072345e-14,1.24236939e-13,2.57819063e-13,2.685151642e-13,4.63483473e-13,4.179677224e-13,4.272592817e-13,2.108653323e-13,1.527738702e-13
0.3046875,8.918247407e-14,1.143406591e-13,2.642172915e-13,3.90084178e-14,1.256650133e-13,1.623592281e-13,1.029062952e-13,3.283972731e-14,5.396259949e-14,8.066592621e-14,2.731579905e-13,7.071111265e-14,8.7523073e-14,2.575678247e-13,5.778722881e-13,4.934473668e-13,2.376785751e-13,1.866763034e-13,1.329292309e-13,4.848882727e-13,4.850165356e-14,6.561045605e-14,2.422873842e-13,8.042323768e-14,1.165725982e-13,2.633201864e-13,2.603841757e-13,4.534325219e-13,4.005486584e-13,4.118112684e-13,2.145288243e-13,1.565221367e-13
0.3125,8.836646296e-14,1.064515047e-13,2.545271327e-13,3.85597047e-14,1.279703556e-13,1.647289147e-13,1.004776525e-13,3.286657344e-14,5.106883446e-14,7.875172224e-14,2.841996104e-13,7.251583023e-14,8.167741183e-14,2.588847455e-13,5.946375897e-13,5.09418902e-13,2.25261218e-13,1.735877952e-13,1.199330015e-13,4.734996995e-13,4.567605745e-14,6.338406866e-14,2.438769237e-13,7.221286593e-14,1.088253624e-13,2.672559155e-13,2.514890065e-13,4.440221727e-13,3.833299321e-13,3.980643172e-13,2.171000728e-13,1.59795578e-13
0.3203125,8.794676296e-14,9.938563439e-14,2.453459798e-13,3.8230642e-14,1.299687276e-13,1.668506855e-13,9.80564829e-14,3.268016709e-14,4.852182052e-14,7.70501751e-14,2.947688532e-13,7.430453083e-14,7.615935482e-14,2.602847724e-13,6.097740705e-13,5.24535539e-13,2.136763327e-13,1.615725558e-13,1.081164738e-13,4.595869123e-13,4.279864537e-14,6.160548684e-14,2.443618866e-13,6.452019018e-14,1.012075023e-13,2.69897495e-13,2.41788807e-13,4.353121868e-13,3.663362643e-13,3.854016195e-13,2.189563109e-13,1.628019061e-13
0.328125,8.77173416e-14,9.337044598e-14,2.35771172e-13,3.80736506e-14,1.316678834e-13,1.684223224e-13,9.526950316e-14,3.23120241e-14,4.632758154e-14,7.558897955e-14,3.046188895e-13,7.615644502e-14,7.104593643e-14,2.617587263e-13,6.232816969e-13,5.390218151e-13,2.033828945e-13,1.51102573e-13,9.784298001e-14,4.43655427e-13,3.983468234e-14,6.037785168e-14,2.440083901e-13,5.708612196e-14,9.409456277e-14,2.715411973e-13,2.317856048e-13,4.273399812e-13,3.505772228e-13,3.74568154e-13,2.202687837e-13,1.65686712e-13
0.3359375,8.779530294e-14,8.780650525e-14,2.26838421e-13,3.768743538e-14,1.329537029e-13,1.69509064e-13,9.283040266e-14,3.176625128e-14,4.429291759e-14,7.412457427e-14,3.134083897e-13,7.78617441e-14,6.610168009e-14,2.630783576e-13,6.348516634e-13,5.527563548e-13,1.938883371e-13,1.417379363e-13,8.864299539e-14,4.270498319e-13,3.701844793e-14,5.933655465e-14,2.426938893e-13,5.048760086e-14,8.722619445e-14,2.720723156e-13,2.2223752e-13,4.1940184e-13,3.356534761e-13,3.643957856e-13,2.208957455e-13,1.680691845e-13
0.34375,8.777341267e-14,8.220822149e-14,2.180705143e-13,3.698250368e-14,1.338193139e-13,1.700152741e-13,9.043704657e-14,3.108159371e-14,4.241252298e-14,7.27539486e-14,3.206571224e-13,7.920533551e-14,6.130531305e-14,2.637693734e-13,6.438372132e-13,5.646834112e-13,1.851700062e-13,1.332341629e-13,8.057594289e-14,4.095384576e-13,3.426375428e-14,5.853894507e-14,2.403812609e-13,4.4486269e-14,8.071961293e-14,2.712892884e-13,2.123997025e-13,4.115151512e-13,3.212723862e-13,3.543512165e-13,2.206953557e-13,1.700235053e-13
0.3515625,8.781949574e-14,7.695399307e-14,2.099772053e-13,3.624727031e-14,1.344509227e-13,1.698841041e-13,8.829060898e-14,3.033598607e-14,4.068968377e-14,7.147119437e-14,3.268046679e-13,8.00810699e-14,5.676172919e-14,2.639038402e-13,6.502221486e-13,5.743692203e-13,1.769549415e-13,1.253126009e-13,7.334412335e-14,3.915788653e-13,3.160520011e-14,5.789700338e-14,2.373214756e-13,3.909905844e-14,7.456309918e-14,2.696152888e-13,2.025879723e-13,4.031267909e-13,3.073062805e-13,3.440822794e-13,2.200904931e-13,1.716174135e-13
0.359375,8.783798535e-14,7.287019636e-14,2.025609722e-13,3.569034116e-14,1.348489744e-13,1.690095739e-13,8.616352175e-14,2.953849059e-14,3.931860287e-14,7.034287849e-14,3.31789757e-13,8.080557324e-14,5.24417111e-14,2.637977666e-13,6.544092763e-13,5.82230049e-13,1.693234446e-13,1.180940646e-13,6.696835842e-14,3.739134551e-13,2.907110017e-14,5.753596164e-14,2.338042963e-13,3.429293284e-14,6.863494512e-14,2.671725396e-13,1.931058074e-13,3.94448636e-13,2.939742686e-13,3.345925449e-13,2.191400742e-13,1.73023803e-13
0.3671875,8.74618797e-14,6.899083751e-14,1.950637359e-13,3.511178106e-14,1.350486976e-13,1.670178923e-13,8.452076236e-14,2.874869614e-14,3.822314652e-14,6.925613316e-14,3.352509659e-13,8.091764728e-14,4.856633203e-14,2.629055546e-13,6.560938691e-13,5.876673688e-13,1.62518297e-13,1.117891049e-13,6.151116366e-14,3.566501107e-13,2.682606063e-14,5.750639226e-14,2.296545749e-13,3.017379747e-14,6.295894969e-14,2.639723711e-13,1.845737283e-13,3.851399644e-13,2.81790384e-13,3.256674949e-13,2.179372822e-13,1.742220612e-13
0.375,8.675308744e-14,6.525567881e-14,1.862937483e-13,3.45300522e-14,1.348766072e-13,1.641733166e-13,8.302695544e-14,2.800778691e-14,3.729633234e-14,6.804513134e-14,3.3786885e-13,8.03644009e-14,4.486993087e-14,2.611518164e-13,6.550422842e-13,5.903451499e-13,1.566572315e-13,1.063780728e-13,5.700614415e-14,3.393158813e-13,2.459813993e-14,5.773377372e-14,2.249329684e-13,2.654035656e-14,5.767978117e-14,2.598063951e-13,1.757418202e-13,3.753646634e-13,2.697964746e-13,3.177568909e-13,2.163310771e-13,1.751075091e-13
0.3828125,8.595936317e-14,6.202569688e-14,1.776555544e-13,3.396748264e-14,1.344987792e-13,1.606282375e-13,8.171138076e-14,2.729183841e-14,3.658375696e-14,6.688194425e-14,3.400330872e-13,7.943996186e-14,4.147971061e-14,2.587842135e-13,6.513197117e-13,5.904066763e-13,1.516651049e-13,1.019697281e-13,5.352638546e-14,3.229478981e-13,2.249912022e-14,5.818330112e-14,2.198647851e-13,2.34193232e-14,5.296657507e-14,2.551222436e-13,1.67651776e-13,3.652961782e-13,2.587689328e-13,3.107953821e-13,2.145544068e-13,1.757303485e-13
0.390625,8.474009394e-14,5.903732495e-14,1.688595246e-13,3.339978428e-14,1.338481506e-13,1.560181319e-13,8.058659457e-14,2.663152343e-14,3.61339553e-14,6.57371855e-14,3.407910298e-13,7.816991593e-14,3.83188049e-14,2.552299606e-13,6.446552403e-13,5.872992692e-13,1.471700393e-13,9.800586195e-14,5.076269261e-14,3.079386459e-13,2.052933127e-14,5.879925808e-14,2.145301499e-13,2.092885337e-14,4.858541406e-14,2.49918245e-13,1.603299607e-13,3.544532998e-13,2.48459226e-13,3.042986635e-13,2.125243146e-13,1.762414881e-13
0.3984375,8.307509512e-14,5.594543454e-14,1.596546135e-13,3.268274379e-14,1.328403281e-13,1.504504972e-13,7.957003222e-14,2.605682476e-14,3.581328979e-14,6.44754296e-14,3.401554076e-13,7.635203605e-14,3.541506233e-14,2.501780187e-13,6.349851598e-13,5.803664759e-13,1.427864594e-13,9.40487027e-14,4.862516758e-14,2.934525518e-13,1.865901268e-14,5.946948568e-14,2.088349977e-13,1.884465738e-14,4.450540976e-14,2.440128796e-13,1.531552647e-13,3.422467918e-13,2.385076931e-13,2.97660925e-13,2.1007145e-13,1.764469877e-13
0.40625,8.129532236e-14,5.288544365e-14,1.510823093e-13,3.199222706e-14,1.318050137e-13,1.44397166e-13,7.890179725e-14,2.556925226e-14,3.558649761e-14,6.313410023e-14,3.39222734e-13,7.420141665e-14,3.279436451e-14,2.440223894e-13,6.227786443e-13,5.699994053e-13,1.382247093e-13,9.015148306e-14,4.704489225e-14,2.797462289e-13,1.69591162e-14,6.00928433e-14,2.030632579e-13,1.711307553e-14,4.072248855e-14,2.378436641e-13,1.464626327e-13,3.287557116e-13,2.291050495e-13,2.907621633e-13,2.075563942e-13,1.764580772e-13
0.4140625,7.94706653e-14,5.003699057e-14,1.434001563e-13,3.146855585e-14,1.308552983e-13,1.379140271e-13,7.846209221e-14,2.517485744e-14,3.554024897e-14,6.176277536e-14,3.377455812e-13,7.19861886e-14,3.044441317e-14,2.370814027e-13,6.086685447e-13,5.573640254e-13,1.339761843e-13,8.663896015e-14,4.617056614e-14,2.672671788e-13,1.550957319e-14,6.076400497e-14,1.972802194e-13,1.579282247e-14,3.724265435e-14,2.317279761e-13,1.408369349e-13,3.145036773e-13,2.206951626e-13,2.843080607e-13,2.053511932e-13,1.765183212e-13
0.421875,7.753986351e-14,4.721391184e-14,1.362924018e-13,3.119760788e-14,1.299308814e-13,1.309017951e-13,7.828368822e-14,2.49181688e-14,3.567207182e-14,6.03810941e-14,3.353399993e-13,6.969306837e-14,2.84107515e-14,2.295054353e-13,5.932930481e-13,5.429278083e-13,1.302896875e-13,8.37247055e-14,4.611699363e-14,2.561980374e-13,1.435386017e-14,6.15414192e-14,1.913901823e-13,1.495111588e-14,3.410061934e-14,2.256214144e-13,1.368213158e-13,2.998687004e-13,2.143904016e-13,2.791758351e-13,2.034856387e-13,1.765660681e-13
0.4296875,7.538887161e-14,4.460859039e-14,1.295869047e-13,3.104894495e-14,1.291341088e-13,1.23344344e-13,7.859708446e-14,2.478285199e-14,3.596237132e-14,5.901552893e-14,3.324203238e-13,6.71346881e-14,2.697669654e-14,2.213395516e-13,5.767717436e-13,5.270434667e-13,1.272356302e-13,8.15084213e-14,4.663550874e-14,2.462791926e-13,1.33969404e-14,6.229846609e-14,1.853376809e-13,1.428848871e-14,3.110121586e-14,2.198289319e-13,1.339248057e-13,2.848125371e-13,2.077847118e-13,2.746182717e-13,2.020173439e-13,1.765838531e-13
0.4375,7.304560402e-14,4.226280441e-14,1.234642619e-13,3.099338996e-14,1.28417618e-13,1.156301279e-13,7.918422696e-14,2.478727991e-14,3.638538421e-14,5.747883843e-14,3.288281716e-13,6.44159909e-14,2.60902154e-14,2.128745539e-13,5.594766318e-13,5.108379288e-13,1.253008815e-13,8.017903614e-14,4.769984365e-14,2.38172762e-13,1.271066097e-14,6.294877458e-14,1.791528906e-13,1.388883376e-14,2.833883536e-14,2.144792783e-13,1.326998846e-13,2.70105743e-13,2.019961174e-13,2.713084602e-13,2.011800824e-13,1.766613304e-13
0.4453125,7.070157924e-14,3.980641862e-14,1.178239848e-13,3.096260579e-14,1.278298158e-13,1.081026884e-13,8.011193603e-14,2.506134211e-14,3.680805915e-14,5.588531991e-14,3.253508293e-13,6.156772162e-14,2.55626313e-14,2.044937799e-13,5.424833979e-13,4.950579506e-13,1.245911897e-13,7.962612792e-14,4.907480572e-14,2.318874803e-13,1.224561442e-14,6.34341141e-14,1.728927511e-13,1.372525799e-14,2.592565803e-14,2.09538902e-13,1.326944881e-13,2.562937979e-13,1.964031437e-13,2.689391687e-13,2.01088794e-13,1.767734514e-13
0.453125,6.825245295e-14,3.767128908e-14,1.120518482e-13,3.128024018e-14,1.275447573e-13,1.003903448e-13,8.157669938e-14,2.560560505e-14,3.721973447e-14,5.449167818e-14,3.225751731e-13,5.855725135e-14,2.549586511e-14,1.961757737e-13,5.26030829e-13,4.797072436e-13,1.252567751e-13,8.007298194e-14,5.090239776e-14,2.271331742e-13,1.195174007e-14,6.375394487e-14,1.666630054e-13,1.368534141e-14,2.389157622e-14,2.051528919e-13,1.341649689e-13,2.43288744e-13,1.908788858e-13,2.676431584e-13,2.018675329e-13,1.768524885e-13
0.4609375,6.588125806e-14,3.585018426e-14,1.062957525e-13,3.185937318e-14,1.27574318e-13,9.246257816e-14,8.338603501e-14,2.630750736e-14,3.770730917e-14,5.294747121e-14,3.19824274e-13,5.538011134e-14,2.600828097e-14,1.88001675e-13,5.097997775e-13,4.651816605e-13,1.275881956e-13,8.173536679e-14,5.313988767e-14,2.235590296e-13,1.1837321e-14,6.386060597e-14,1.603424916e-13,1.378761025e-14,2.221588264e-14,2.015178266e-13,1.368139863e-13,2.309794712e-13,1.853695959e-13,2.67397774e-13,2.035897013e-13,1.768838717e-13
0.46875,6.380909567e-14,3.423404764e-14,1.008417631e-13,3.261601672e-14,1.280189832e-13,8.471850507e-14,8.545695938e-14,2.721254144e-14,3.827592323e-14,5.13564513e-14,3.173863423e-13,5.227553003e-14,2.689687032e-14,1.803495304e-13,4.944270206e-13,4.521490511e-13,1.313716902e-13,8.463959471e-14,5.575536592e-14,2.221699321e-13,1.184722739e-14,6.370731195e-14,1.53990418e-13,1.404885508e-14,2.103817683e-14,1.987878153e-13,1.406326565e-13,2.201108088e-13,1.802785542e-13,2.685854344e-13,2.063887176e-13,1.77158553e-13
0.4765625,6.182159903e-14,3.290023442e-14,9.561171469e-14,3.378337713e-14,1.289691515e-13,7.706249633e-14,8.785662437e-14,2.841371163e-14,3.883835271e-14,4.991894041e-14,3.155379214e-13,4.921827419e-14,2.812883952e-14,1.730722447e-13,4.801188553e-13,4.403365954e-13,1.363878974e-13,8.869736057e-14,5.891956751e-14,2.230905653e-13,1.202554509e-14,6.337189497e-14,1.477377002e-13,1.441811456e-14,2.037751081e-14,1.969580163e-13,1.461430789e-13,2.104764147e-13,1.767769067e-13,2.715194709e-13,2.102776208e-13,1.778921163e-13
0.484375,5.995145505e-14,3.178237773e-14,9.050008409e-14,3.538972667e-14,1.304427589e-13,6.950899819e-14,9.057641215e-14,2.986947421e-14,3.931887036e-14,4.854048067e-14,3.146788558e-13,4.619155995e-14,2.991888061e-14,1.66346763e-13,4.669024669e-13,4.301354439e-13,1.424810296e-13,9.386455945e-14,6.24588576e-14,2.254689218e-13,1.237732358e-14,6.279585143e-14,1.414791905e-13,1.478971094e-14,2.007588718e-14,1.962322093e-13,1.531892061e-13,2.014563052e-13,1.740583965e-13,2.75260018e-13,2.153733596e-13,1.789512543e-13
0.4921875,5.849952908e-14,3.117577434e-14,8.608219132e-14,3.73071749e-14,1.326124287e-13,6.223159363e-14,9.378153191e-14,3.150972651e-14,3.969222488e-14,4.733409258e-14,3.150453031e-13,4.357699842e-14,3.235960968e-14,1.608046906e-13,4.553643129e-13,4.228519186e-13,1.499026991e-13,1.005570753e-13,6.662478753e-14,2.298075965e-13,1.296950322e-14,6.187379657e-14,1.351919616e-13,1.507064436e-14,2.030897674e-14,1.96941548e-13,1.622923482e-13,1.937306544e-13,1.716957644e-13,2.796899481e-13,2.220787362e-13,1.803227454e-13
0.5,5.744045617e-14,3.089082215e-14,8.239405501e-14,3.957500466e-14,1.352515631e-13,5.535547862e-14,9.687555229e-14,3.337996371e-14,3.997278404e-14,4.608112064e-14,3.15792952e-13,4.135744872e-14,3.541109459e-14,1.562281432e-13,4.452041639e-13,4.184445326e-13,1.593227047e-13,1.090652683e-13,7.18843523e-14,2.357069204e-13,1.385175955e-14,6.089473183e-14,1.290265527e-13,1.552125019e-14,2.111179799e-14,1.985668084e-13,1.735135887e-13,1.879284474e-13,1.728133086e-13,2.868857533e-13,2.301003022e-13,1.820359281e-13
0.5078125,5.672185258e-14,3.091616124e-14,7.923328536e-14,4.238632727e-14,1.384015174e-13,4.902972509e-14,1.001705722e-13,3.562510539e-14,4.002992953e-14,4.50773466e-14,3.180312129e-13,3.937854038e-14,3.916730605e-14,1.525383749e-13,4.365095483e-13,4.166671278e-13,1.703194575e-13,1.193499328e-13,7.801705625e-14,2.428431929e-13,1.49946518e-14,5.975939121e-14,1.229216699e-13,1.592496742e-14,2.248377674e-14,2.011025246e-13,1.866469857e-13,1.832314025e-13,1.758255409e-13,2.956171971e-13,2.393612815e-13,1.837293646e-13
0.515625,5.644394671e-14,3.16492577e-14,7.669997653e-14,4.57705592e-14,1.420816636e-13,4.335751703e-14,1.035025669e-13,3.822024632e-14,4.008599076e-14,4.456572984e-14,3.215474692e-13,3.783264442e-14,4.377758564e-14,1.503037418e-13,4.301877148e-13,4.188603801e-13,1.833478408e-13,1.317832938e-13,8.520462702e-14,2.519723271e-13,1.646206604e-14,5.865361979e-14,1.171047046e-13,1.619225992e-14,2.461414381e-14,2.048353252e-13,2.024839485e-13,1.808070286e-13,1.816927963e-13,3.068639068e-13,2.499665575e-13,1.856141078e-13
0.5234375,5.661310664e-14,3.248464916e-14,7.48620591e-14,4.931080565e-14,1.460010855e-13,3.823633445e-14,1.065798801e-13,4.10076117e-14,4.019937863e-14,4.412582823e-14,3.250548006e-13,3.656292271e-14,4.894886822e-14,1.492236792e-13,4.254718302e-13,4.248235049e-13,1.986518383e-13,1.459655166e-13,9.319850972e-14,2.621781043e-13,1.82125448e-14,5.76757389e-14,1.115392015e-13,1.638991124e-14,2.729702647e-14,2.092798799e-13,2.193616403e-13,1.81029874e-13,1.896102783e-13,3.206022486e-13,2.613966767e-13,1.878790963e-13
0.53125,5.711405078e-14,3.334739298e-14,7.352703568e-14,5.2919886e-14,1.502583138e-13,3.354398455e-14,1.094037497e-13,4.412167756e-14,4.015154085e-14,4.398425996e-14,3.293354807e-13,3.542258351e-14,5.460216855e-14,1.490337384e-13,4.215030725e-13,4.33282315e-13,2.156184437e-13,1.618103014e-13,1.020841186e-13,2.731815731e-13,2.022895202e-14,5.673559616e-14,1.0618438e-13,1.650768626e-14,3.049927449e-14,2.143708893e-13,2.372323913e-13,1.829917396e-13,1.990813474e-13,3.364178346e-13,2.735722363e-13,1.904603922e-13
0.5390625,5.806125307e-14,3.461207059e-14,7.253496053e-14,5.686172517e-14,1.549755401e-13,2.940105112e-14,1.117647664e-13,4.763572175e-14,3.985549768e-14,4.428308792e-14,3.344804404e-13,3.451992455e-14,6.094978914e-14,1.501488818e-13,4.187594275e-13,4.444456179e-13,2.343579447e-13,1.797129443e-13,1.120201549e-13,2.850316368e-13,2.25638582e-14,5.578402084e-14,1.010169475e-13,1.658535141e-14,3.443249122e-14,2.203461204e-13,2.569677198e-13,1.865246744e-13,2.109963921e-13,3.546141424e-13,2.865601573e-13,1.933383294e-13
0.546875,5.941248474e-14,3.620345284e-14,7.176998864e-14,6.12574491e-14,1.600234846e-13,2.586151023e-14,1.135557887e-13,5.148051358e-14,3.928071066e-14,4.487265348e-14,3.399989855e-13,3.389014645e-14,6.787730091e-14,1.525167477e-13,4.172512031e-13,4.586498252e-13,2.548200359e-13,1.992486347e-13,1.226064846e-13,2.974751617e-13,2.514675817e-14,5.47094863e-14,9.592613928e-14,1.652580481e-14,3.911215506e-14,2.270421649e-13,2.779062798e-13,1.916516083e-13,2.245267747e-13,3.73898428e-13,3.000167878e-13,1.963813306e-13
0.5546875,6.099706779e-14,3.796466868e-14,7.126253737e-14,6.574006143e-14,1.653697836e-13,2.266191437e-14,1.147812749e-13,5.569652608e-14,3.85405213e-14,4.568838387e-14,3.455727634e-13,3.342167286e-14,7.523060263e-14,1.557285669e-13,4.164733078e-13,4.751347559e-13,2.76287882e-13,2.197942207e-13,1.336774667e-13,3.104519336e-13,2.792614083e-14,5.366585672e-14,9.114732842e-14,1.631526755e-14,4.433546153e-14,2.34298791e-13,2.995547628e-13,1.977833224e-13,2.394985907e-13,3.937065453e-13,3.137302578e-13,1.997348463e-13
0.5625,6.291297966e-14,3.968858792e-14,7.093753991e-14,7.004697899e-14,1.7095279e-13,1.980404629e-14,1.153862751e-13,6.025914e-14,3.769301299e-14,4.645131842e-14,3.506994182e-13,3.306436844e-14,8.296092702e-14,1.596584171e-13,4.164676416e-13,4.933375594e-13,2.983294236e-13,2.412210979e-13,1.451070958e-13,3.233736862e-13,3.084287651e-14,5.26933906e-14,8.661899422e-14,1.607112118e-14,5.001227861e-14,2.418604695e-13,3.213294687e-13,2.04609575e-13,2.554886774e-13,4.139313044e-13,3.275729065e-13,2.034254352e-13
0.5703125,6.523586985e-14,4.169189133e-14,7.092266695e-14,7.475612534e-14,1.768320406e-13,1.754952813e-14,1.154599586e-13,6.521955662e-14,3.653021667e-14,4.738461315e-14,3.560260162e-13,3.311922763e-14,9.102484307e-14,1.645487013e-13,4.181537625e-13,5.137187286e-13,3.211043209e-13,2.636828891e-13,1.570426366e-13,3.366608057e-13,3.385531599e-14,5.15172907e-14,8.220321071e-14,1.578686625e-14,5.636628351e-14,2.496854371e-13,3.442150714e-13,2.126395255e-13,2.730851451e-13,4.342232548e-13,3.416288311e-13,2.070188079e-13
0.578125,6.790126462e-14,4.43286907e-14,7.128383155e-14,7.997266547e-14,1.829016403e-13,1.584946418e-14,1.150184695e-13,7.043073651e-14,3.512976758e-14,4.858645079e-14,3.610537512e-13,3.370019703e-14,9.947914662e-14,1.704102425e-13,4.21877129e-13,5.362871742e-13,3.448875667e-13,2.87021328e-13,1.695810242e-13,3.500967585e-13,3.693648952e-14,5.018820317e-14,7.804934438e-14,1.551584864e-14,6.339996449e-14,2.577003229e-13,3.685489105e-13,2.220949477e-13,2.932421217e-13,4.549041547e-13,3.55726353e-13,2.104121614e-13
0.5859375,7.066364588e-14,4.716070287e-14,7.194172807e-14,8.507725303e-14,1.888748298e-13,1.44551979e-14,1.140519419e-13,7.564478764e-14,3.365659942e-14,4.965564954e-14,3.645795579e-13,3.442081534e-14,1.082114136e-13,1.765331246e-13,4.263775736e-13,5.594097735e-13,3.688800823e-13,3.10750502e-13,1.824970463e-13,3.623791747e-13,4.002481902e-14,4.890361982e-14,7.408726814e-14,1.527151675e-14,7.078860046e-14,2.653532123e-13,3.926374811e-13,2.322162227e-13,3.144758352e-13,4.755233931e-13,3.692439565e-13,2.137333316e-13
0.59375,7.3345452e-14,4.99242537e-14,7.309400582e-14,9.016648987e-14,1.949282579e-13,1.334541811e-14,1.12792316e-13,8.098330522e-14,3.200562921e-14,5.080903917e-14,3.675072704e-13,3.519220083e-14,1.169787646e-13,1.827254017e-13,4.315403103e-13,5.821943412e-13,3.923871596e-13,3.347828728e-13,1.959558542e-13,3.739648598e-13,4.310810077e-14,4.775530909e-14,7.053157515e-14,1.504249688e-14,7.836219284e-14,2.726772033e-13,4.169355754e-13,2.425496943e-13,3.368646462e-13,4.960251807e-13,3.82265412e-13,2.170395152e-13
0.6015625,7.607837704e-14,5.282188971e-14,7.454955411e-14,9.550150449e-14,2.011280617e-13,1.263363509e-14,1.112742912e-13,8.625754778e-14,3.023888419e-14,5.207342436e-14,3.698769857e-13,3.617342218e-14,1.256553877e-13,1.894313409e-13,4.3829665e-13,6.04998538e-13,4.157048223e-13,3.590690018e-13,2.098655206e-13,3.851462466e-13,4.620064961e-14,4.676665809e-14,6.742812677e-14,1.484441101e-14,8.605694246e-14,2.800529609e-13,4.420289431e-13,2.533207066e-13,3.61146922e-13,5.167163584e-13,3.951982172e-13,2.205256776e-13
0.609375,7.884370642e-14,5.607958368e-14,7.630029349e-14,1.011160903e-13,2.072247446e-13,1.232406068e-14,1.094543803e-13,9.121211045e-14,2.848665223e-14,5.305267515e-14,3.707680471e-13,3.725479419e-14,1.341150176e-13,1.963965456e-13,4.460552613e-13,6.27066468e-13,4.383126813e-13,3.832850066e-13,2.239177018e-13,3.954761916e-13,4.935704557e-14,4.585222088e-14,6.425114946e-14,1.46588638e-14,9.351705153e-14,2.872503092e-13,4.673833833e-13,2.638857387e-13,3.867241019e-13,5.374776638e-13,4.079716463e-13,2.241919947e-13
0.6171875,8.162092375e-14,5.990124285e-14,7.837507922e-14,1.070498872e-13,2.130802186e-13,1.23350109e-14,1.072526276e-13,9.603279683e-14,2.677531187e-14,5.393556207e-14,3.703541144e-13,3.841674956e-14,1.422717966e-13,2.032593228e-13,4.543160499e-13,6.473183329e-13,4.592643496e-13,4.07045299e-13,2.378398152e-13,4.045467558e-13,5.251933408e-14,4.508188339e-14,6.108803356e-14,1.4537464e-14,1.004304596e-13,2.938099467e-13,4.922135391e-13,2.732878964e-13,4.128950015e-13,5.585127605e-13,4.202280057e-13,2.277205628e-13
0.625,8.447865538e-14,6.390765204e-14,8.031922752e-14,1.127690678e-13,2.184300643e-13,1.262729703e-14,1.043730464e-13,1.007611215e-13,2.514510854e-14,5.485049541e-14,3.681676461e-13,3.971132887e-14,1.49975029e-13,2.098715583e-13,4.62769172e-13,6.651822735e-13,4.781245926e-13,4.297632974e-13,2.512291804e-13,4.119212643e-13,5.547406537e-14,4.457085542e-14,5.828523693e-14,1.443765639e-14,1.068508766e-13,2.99511887e-13,5.150700673e-13,2.814854999e-13,4.382073395e-13,5.788960917e-13,4.314019824e-13,2.310591822e-13
0.6328125,8.717908815e-14,6.772036264e-14,8.252724144e-14,1.18065869e-13,2.231651391e-13,1.323390482e-14,1.010322483e-13,1.054229602e-13,2.369124564e-14,5.568810204e-14,3.638399648e-13,4.105529871e-14,1.570598922e-13,2.158092793e-13,4.701281462e-13,6.805245111e-13,4.949993922e-13,4.509254134e-13,2.640663318e-13,4.183490605e-13,5.819231842e-14,4.438614454e-14,5.584653928e-14,1.43227519e-14,1.128376518e-13,3.044983436e-13,5.36345804e-13,2.887404626e-13,4.627060691e-13,5.979660595e-13,4.411705082e-13,2.345456949e-13
0.640625,8.936020299e-14,7.158659753e-14,8.543459954e-14,1.23298207e-13,2.27307137e-13,1.411514608e-14,9.763381527e-14,1.098643225e-13,2.258166418e-14,5.636140176e-14,3.5751949e-13,4.232477184e-14,1.633125513e-13,2.20584964e-13,4.755441295e-13,6.933599663e-13,5.098905397e-13,4.694944247e-13,2.757300569e-13,4.234072768e-13,6.060947197e-14,4.45262354e-14,5.383053331e-14,1.429627605e-14,1.18125474e-13,3.08577202e-13,5.55726903e-13,2.945516884e-13,4.86376077e-13,6.150318822e-13,4.491801766e-13,2.382928861e-13
0.6484375,9.078887879e-14,7.553845293e-14,8.887183349e-14,1.283679795e-13,2.305577842e-13,1.520647066e-14,9.419454322e-14,1.138323986e-13,2.177839549e-14,5.677962854e-14,3.491132336e-13,4.333202379e-14,1.683714948e-13,2.237370314e-13,4.787746378e-13,7.023132644e-13,5.216544382e-13,4.844362397e-13,2.854513026e-13,4.261551555e-13,6.252419091e-14,4.479515577e-14,5.211477835e-14,1.440747724e-14,1.2237269e-13,3.112189648e-13,5.713435415e-13,2.979019855e-13,5.073249609e-13,6.281487937e-13,4.549127752e-13,2.421237308e-13
0.65625,9.164352167e-14,7.959922145e-14,9.269430013e-14,1.332820889e-13,2.327415606e-13,1.653480683e-14,9.06210127e-14,1.175366893e-13,2.120056443e-14,5.724947089e-14,3.394211523e-13,4.416582832e-14,1.724520796e-13,2.256032298e-13,4.802476993e-13,7.071781603e-13,5.304764296e-13,4.96340482e-13,2.937054702e-13,4.274431312e-13,6.400696176e-14,4.526254236e-14,5.067855364e-14,1.45949411e-14,1.257982342e-13,3.126258342e-13,5.839447231e-13,2.995124395e-13,5.258486369e-13,6.379370331e-13,4.584984076e-13,2.459661493e-13
0.6640625,9.210352089e-14,8.373737428e-14,9.662503174e-14,1.381130144e-13,2.338276321e-13,1.811548606e-14,8.684077174e-14,1.206699443e-13,2.098061904e-14,5.775125143e-14,3.286103896e-13,4.502329737e-14,1.757810887e-13,2.265858555e-13,4.800886639e-13,7.091469821e-13,5.371623087e-13,5.053401713e-13,3.005612923e-13,4.272486211e-13,6.512193041e-14,4.611278713e-14,4.96754641e-14,1.474709086e-14,1.284971666e-13,3.129796817e-13,5.940215964e-13,3.002482606e-13,5.424871199e-13,6.450583275e-13,4.598854318e-13,2.498381962e-13
0.671875,9.18126079e-14,8.77283261e-14,1.011003836e-13,1.426685384e-13,2.337027697e-13,1.99800822e-14,8.304113752e-14,1.227653424e-13,2.119656448e-14,5.783448528e-14,3.162173681e-13,4.570936721e-14,1.779326071e-13,2.258428117e-13,4.769563503e-13,7.063241384e-13,5.398679444e-13,5.104692355e-13,3.055827707e-13,4.255214966e-13,6.588087444e-14,4.731668715e-14,4.887398156e-14,1.486475225e-14,1.299490606e-13,3.118814316e-13,6.005220296e-13,2.985722231e-13,5.563519472e-13,6.481095711e-13,4.587097066e-13,2.539115166e-13
0.6796875,9.091797135e-14,9.197821069e-14,1.065233445e-13,1.471436955e-13,2.326644977e-13,2.206967435e-14,7.943811986e-14,1.24227031e-13,2.194279684e-14,5.764357672e-14,3.030525824e-13,4.618234708e-14,1.790168053e-13,2.233292278e-13,4.709771263e-13,6.975513061e-13,5.380848721e-13,5.119775721e-13,3.087848679e-13,4.227259114e-13,6.62933555e-14,4.889406642e-14,4.816948313e-14,1.510005827e-14,1.300464925e-13,3.095404378e-13,6.033912623e-13,2.936939948e-13,5.671171954e-13,6.473562368e-13,4.556907797e-13,2.584910012e-13
0.6875,9.000258661e-14,9.65873811e-14,1.123199978e-13,1.516719129e-13,2.310140565e-13,2.415603293e-14,7.616622214e-14,1.251467777e-13,2.334745528e-14,5.73431249e-14,2.894308204e-13,4.668512241e-14,1.794530469e-13,2.200166814e-13,4.634997664e-13,6.853921962e-13,5.339081252e-13,5.105932298e-13,3.101119815e-13,4.185646336e-13,6.627520611e-14,5.085794754e-14,4.766855167e-14,1.552055241e-14,1.29151359e-13,3.064815895e-13,6.030803957e-13,2.870181011e-13,5.746432514e-13,6.434543823e-13,4.514794247e-13,2.636584164e-13
0.6953125,8.899509238e-14,1.01231727e-13,1.183123758e-13,1.56168674e-13,2.284876769e-13,2.631182347e-14,7.340636295e-14,1.252532509e-13,2.541334408e-14,5.673380724e-14,2.753081802e-13,4.729699199e-14,1.789696053e-13,2.159635516e-13,4.544505623e-13,6.709610503e-13,5.276503692e-13,5.06223002e-13,3.095771028e-13,4.134175243e-13,6.602832892e-14,5.327408335e-14,4.730574017e-14,1.601809917e-14,1.272901028e-13,3.026224435e-13,6.001097603e-13,2.797474498e-13,5.795478983e-13,6.3685719e-13,4.45762809e-13,2.692756991e-13
0.703125,8.784402396e-14,1.062707245e-13,1.246728157e-13,1.607975985e-13,2.250374026e-13,2.875409664e-14,7.111554508e-14,1.246603798e-13,2.815341249e-14,5.590069509e-14,2.614102927e-13,4.806843147e-14,1.772870613e-13,2.109743398e-13,4.438074091e-13,6.535655435e-13,5.18556696e-13,4.984256007e-13,3.068891126e-13,4.073236846e-13,6.557965605e-14,5.616061387e-14,4.709063675e-14,1.659950542e-14,1.24168687e-13,2.977907065e-13,5.938263877e-13,2.712923715e-13,5.812969119e-13,6.278145128e-13,4.386902045e-13,2.752926851e-13
0.7109375,8.67676961e-14,1.117998077e-13,1.312627726e-13,1.656337882e-13,2.207555224e-13,3.138307997e-14,6.91388887e-14,1.235050962e-13,3.162017879e-14,5.499363723e-14,2.475344794e-13,4.899673028e-14,1.747117811e-13,2.050039688e-13,4.314440658e-13,6.328353275e-13,5.066966365e-13,4.873297105e-13,3.019722282e-13,3.998052932e-13,6.48159468e-14,5.948496503e-14,4.700936755e-14,1.73665139e-14,1.199416343e-13,2.918988128e-13,5.835569703e-13,2.608712587e-13,5.789937866e-13,6.157937086e-13,4.304458513e-13,2.816206876e-13
0.71875,8.564939692e-14,1.174948913e-13,1.378238333e-13,1.707181075e-13,2.153594677e-13,3.409824334e-14,6.727952436e-14,1.219094616e-13,3.574996706e-14,5.3946859e-14,2.332418123e-13,4.997711775e-14,1.715039288e-13,1.980419067e-13,4.169816802e-13,6.090297752e-13,4.924279204e-13,4.734377691e-13,2.953372488e-13,3.912970878e-13,6.39390417e-14,6.328367274e-14,4.712021307e-14,1.821951365e-14,1.149853017e-13,2.848454787e-13,5.702629626e-13,2.494177639e-13,5.736306618e-13,6.013961346e-13,4.207178724e-13,2.878828548e-13
0.7265625,8.429898884e-14,1.232549304e-13,1.444024111e-13,1.760996055e-13,2.09020478e-13,3.701857657e-14,6.547958434e-14,1.198279915e-13,4.040078497e-14,5.274223338e-14,2.191946339e-13,5.098520793e-14,1.675330122e-13,1.902173331e-13,4.010059786e-13,5.830908476e-13,4.762055286e-13,4.567648532e-13,2.86950042e-13,3.825374316e-13,6.298310808e-14,6.748010884e-14,4.76314969e-14,1.911351944e-14,1.094184908e-13,2.769658484e-13,5.54440667e-13,2.373741131e-13,5.656456422e-13,5.849387759e-13,4.099533844e-13,2.94048586e-13
0.734375,8.27485974e-14,1.29171216e-13,1.51561335e-13,1.818102314e-13,2.021995351e-13,4.029343757e-14,6.393479194e-14,1.171556359e-13,4.565043407e-14,5.144922648e-14,2.058515926e-13,5.207555918e-14,1.628286211e-13,1.814146816e-13,3.834804935e-13,5.548100085e-13,4.577611322e-13,4.372893544e-13,2.767307758e-13,3.738069332e-13,6.196725069e-14,7.210487668e-14,4.851665694e-14,2.017506384e-14,1.033171166e-13,2.685221901e-13,5.358770392e-13,2.239378102e-13,5.551636818e-13,5.658572806e-13,3.987599718e-13,3.006236431e-13
0.7421875,8.12339946e-14,1.356200322e-13,1.592914186e-13,1.881015699e-13,1.948481152e-13,4.367627265e-14,6.255929574e-14,1.141015448e-13,5.159494933e-14,5.001653151e-14,1.929929947e-13,5.330104743e-14,1.577882952e-13,1.720616906e-13,3.645106606e-13,5.242557676e-13,4.372037171e-13,4.156864923e-13,2.649828603e-13,3.645723031e-13,6.090599049e-14,7.708246781e-14,4.964352152e-14,2.146707256e-14,9.673037801e-14,2.592910393e-13,5.145267159e-13,2.093062049e-13,5.420093539e-13,5.446982759e-13,3.870610943e-13,3.07545351e-13
0.75,7.993122624e-14,1.423547307e-13,1.669690059e-13,1.94757623e-13,1.869156051e-13,4.686722745e-14,6.112926207e-14,1.108404759e-13,5.808716713e-14,4.835560272e-14,1.804137619e-13,5.467021877e-14,1.527448283e-13,1.628539293e-13,3.451959049e-13,4.934622953e-13,4.163096616e-13,3.932431388e-13,2.523802666e-13,3.547672966e-13,5.978803248e-14,8.230250293e-14,5.100942793e-14,2.304646018e-14,9.009024389e-14,2.49334894e-13,4.913319731e-13,1.949062945e-13,5.268551097e-13,5.228723245e-13,3.749398373e-13,3.143432159e-13
0.7578125,7.877542312e-14,1.489889108e-13,1.746952911e-13,2.014153141e-13,1.785485623e-13,5.016334957e-14,5.960834259e-14,1.073655582e-13,6.511049812e-14,4.651005797e-14,1.680403977e-13,5.623687887e-14,1.475760588e-13,1.53609059e-13,3.256536502e-13,4.633840461e-13,3.955226208e-13,3.702115096e-13,2.392880592e-13,3.452431863e-13,5.87509058e-14,8.792779563e-14,5.264705553e-14,2.491801987e-14,8.358048698e-14,2.389165387e-13,4.672287278e-13,1.81249382e-13,5.111672874e-13,5.006386778e-13,3.626260119e-13,3.210840376e-13
0.765625,7.773939181e-14,1.559994027e-13,1.828256707e-13,2.085119902e-13,1.698463861e-13,5.349450818e-14,5.801294823e-14,1.036958793e-13,7.265747632e-14,4.450644244e-14,1.560414825e-13,5.805110648e-14,1.421993124e-13,1.441962914e-13,3.057920317e-13,4.336784844e-13,3.740020925e-13,3.461105596e-13,2.253216377e-13,3.361004083e-13,5.77206864e-14,9.376321178e-14,5.439283948e-14,2.706033492e-14,7.698926603e-14,2.280235086e-13,4.418522895e-13,1.675286703e-13,4.942391199e-13,4.771093811e-13,3.502375305e-13,3.277533311e-13
0.7734375,7.695802977e-14,1.632993676e-13,1.908645254e-13,2.160145161e-13,1.609759208e-13,5.638791634e-14,5.647062611e-14,9.998641722e-14,8.049203786e-14,4.245536181e-14,1.449212181e-13,6.007682119e-14,1.369824408e-13,1.349922224e-13,2.861547363e-13,4.045515499e-13,3.524678894e-13,3.216543395e-13,2.108293017e-13,3.268481766e-13,5.668037961e-14,9.95291945e-14,5.602407722e-14,2.957482836e-14,7.071953657e-14,2.167548531e-13,4.158819575e-13,1.539373161e-13,4.763501725e-13,4.52836579e-13,3.379879521e-13,3.339929848e-13
0.78125,7.664738397e-14,1.705972728e-13,1.981964017e-13,2.233614983e-13,1.521362247e-13,5.90383632e-14,5.490954889e-14,9.629633963e-14,8.841852058e-14,4.05610793e-14,1.349514264e-13,6.233869676e-14,1.319694235e-13,1.262491674e-13,2.674413279e-13,3.765627961e-13,3.3173585e-13,2.973038926e-13,1.961890547e-13,3.176832551e-13,5.571012267e-14,1.051566191e-13,5.758158706e-14,3.243841451e-14,6.501858276e-14,2.054292511e-13,3.901407321e-13,1.41218669e-13,4.58114527e-13,4.284578639e-13,3.262158406e-13,3.395733687e-13
0.7890625,7.686006118e-14,1.780858676e-13,2.048513399e-13,2.307342268e-13,1.433461762e-13,6.168884266e-14,5.318955093e-14,9.248185505e-14,9.627136654e-14,3.878734001e-14,1.260345801e-13,6.482158153e-14,1.268795401e-13,1.179474851e-13,2.500582286e-13,3.50293782e-13,3.115006079e-13,2.728558815e-13,1.81262776e-13,3.091375611e-13,5.480201226e-14,1.105225685e-13,5.909183057e-14,3.557781965e-14,5.986098509e-14,1.941069185e-13,3.641978963e-13,1.294300323e-13,4.385951963e-13,4.036992664e-13,3.151585394e-13,3.441077865e-13
0.796875,7.740391948e-14,1.853547981e-13,2.109257535e-13,2.382125122e-13,1.34468487e-13,6.427171695e-14,5.155380112e-14,8.85591992e-14,1.039725889e-13,3.70459198e-14,1.181812335e-13,6.738172383e-14,1.218404086e-13,1.099383491e-13,2.336903966e-13,3.256431504e-13,2.913239268e-13,2.485184043e-13,1.663129572e-13,3.00938134e-13,5.402480132e-14,1.157295336e-13,6.051842169e-14,3.91033871e-14,5.537070126e-14,1.825309052e-13,3.381703041e-13,1.186789675e-13,4.184055006e-13,3.789995138e-13,3.045266542e-13,3.473643929e-13
0.8046875,7.821383018e-14,1.92424215e-13,2.162594062e-13,2.456887359e-13,1.256028679e-13,6.660445088e-14,5.002274627e-14,8.460923237e-14,1.114442487e-13,3.538344559e-14,1.113681457e-13,6.994115791e-14,1.171644455e-13,1.024322231e-13,2.187213249e-13,3.026707459e-13,2.715762883e-13,2.247192521e-13,1.515962805e-13,2.927748054e-13,5.336024345e-14,1.206681644e-13,6.185033442e-14,4.30172016e-14,5.162674478e-14,1.706820151e-13,3.126264331e-13,1.090917071e-13,3.982697689e-13,3.545842788e-13,2.943133291e-13,3.492750051e-13
0.8125,7.933617306e-14,1.995249887e-13,2.20570966e-13,2.53148745e-13,1.169910337e-13,6.84299446e-14,4.843811543e-14,8.069264034e-14,1.183432546e-13,3.38089677e-14,1.054883568e-13,7.247371336e-14,1.128750698e-13,9.577883201e-14,2.057674025e-13,2.822922672e-13,2.529331081e-13,2.020544527e-13,1.374123881e-13,2.849998756e-13,5.278741964e-14,1.24989267e-13,6.294428078e-14,4.727688702e-14,4.876113144e-14,1.58750915e-13,2.880588612e-13,1.008855824e-13,3.783580009e-13,3.308674076e-13,2.850970421e-13,3.494081921e-13
0.8203125,8.072287908e-14,2.059322242e-13,2.241612956e-13,2.600812738e-13,1.087913438e-13,7.006712485e-14,4.695979472e-14,7.698469349e-14,1.246067193e-13,3.230758538e-14,1.005243141e-13,7.497428761e-14,1.088865533e-13,8.999047214e-14,1.945059e-13,2.64987957e-13,2.355764011e-13,1.80745611e-13,1.238906167e-13,2.775680002e-13,5.233192641e-14,1.287482415e-13,6.385583811e-14,5.200639529e-14,4.665639903e-14,1.46859525e-13,2.645724727e-13,9.422040859e-14,3.589685371e-13,3.083038922e-13,2.768789751e-13,3.479464617e-13
0.828125,8.240971519e-14,2.116587367e-13,2.278881727e-13,2.662988593e-13,1.01158558e-13,7.17659209e-14,4.55506702e-14,7.348061593e-14,1.304613878e-13,3.084839001e-14,9.629285026e-14,7.749506878e-14,1.05288375e-13,8.507986831e-14,1.851138386e-13,2.511999701e-13,2.202279196e-13,1.610458205e-13,1.110943923e-13,2.708039623e-13,5.192296199e-14,1.319377759e-13,6.475165709e-14,5.723617661e-14,4.530680455e-14,1.352131505e-13,2.422831807e-13,8.91848623e-14,3.398818966e-13,2.866971519e-13,2.694710559e-13,3.452693298e-13
0.8359375,8.448241486e-14,2.170005727e-13,2.314267945e-13,2.718523779e-13,9.40583867e-14,7.314400474e-14,4.404436553e-14,7.007148983e-14,1.35616952e-13,2.944602041e-14,9.272709376e-14,7.995506866e-14,1.020377532e-13,8.105791019e-14,1.78020305e-13,2.412791462e-13,2.069951596e-13,1.433056843e-13,9.932434208e-14,2.652530466e-13,5.147431201e-14,1.343093574e-13,6.549431693e-14,6.282984483e-14,4.479850745e-14,1.238951142e-13,2.215941272e-13,8.592025704e-14,3.214074841e-13,2.664207172e-13,2.631396955e-13,3.408113344e-13
0.84375,8.695078692e-14,2.213984137e-13,2.343404993e-13,2.763966151e-13,8.758038024e-14,7.431185338e-14,4.248060236e-14,6.691680443e-14,1.396850829e-13,2.81892026e-14,9.016785848e-14,8.220336931e-14,9.8892564e-14,7.791531868e-14,1.734148585e-13,2.355024699e-13,1.954507141e-13,1.276484309e-13,8.86959664e-14,2.604444924e-13,5.094778743e-14,1.35805407e-13,6.598475044e-14,6.865163512e-14,4.501489263e-14,1.130294524e-13,2.02570342e-13,8.431719727e-14,3.03836186e-13,2.477713297e-13,2.580118843e-13,3.344936101e-13
0.8515625,8.990088732e-14,2.247682113e-13,2.374108411e-13,2.796626283e-13,8.189230214e-14,7.568068561e-14,4.089579202e-14,6.417622471e-14,1.427717927e-13,2.708925034e-14,8.880115506e-14,8.432607093e-14,9.572192119e-14,7.577578219e-14,1.716484088e-13,2.349062965e-13,1.864682734e-13,1.143441293e-13,7.930286658e-14,2.568704854e-13,5.036766446e-14,1.364542206e-13,6.636716885e-14,7.469951461e-14,4.613159299e-14,1.028902527e-13,1.854354733e-13,8.477754628e-14,2.8708708e-13,2.307938021e-13,2.538088515e-13,3.268565091e-13
0.859375,9.333245211e-14,2.270673931e-13,2.406955871e-13,2.8128342e-13,7.678728221e-14,7.720814874e-14,3.94880621e-14,6.173296102e-14,1.44912316e-13,2.614306203e-14,8.853714944e-14,8.641400269e-14,9.242993431e-14,7.452390576e-14,1.724280127e-13,2.397258874e-13,1.799061111e-13,1.029826602e-13,7.096142393e-14,2.552422698e-13,4.976641413e-14,1.362343337e-13,6.666789098e-14,8.109715162e-14,4.813611678e-14,9.346412835e-14,1.70169142e-13,8.764439041e-14,2.713685531e-13,2.153241081e-13,2.501437496e-13,3.179023336e-13
0.8671875,9.702083804e-14,2.279970706e-13,2.439964222e-13,2.811676731e-13,7.220122503e-14,7.875864023e-14,3.839278732e-14,5.956474413e-14,1.458796376e-13,2.534220325e-14,8.920411856e-14,8.82894564e-14,8.890324552e-14,7.389098049e-14,1.754160951e-13,2.495654804e-13,1.749320376e-13,9.322037219e-14,6.34583955e-14,2.550141774e-13,4.912716294e-14,1.349816368e-13,6.665357176e-14,8.787226654e-14,5.08715302e-14,8.464235659e-14,1.563408876e-13,9.26449052e-14,2.566005725e-13,2.005696212e-13,2.468308856e-13,3.075498194e-13
0.875,1.009652184e-13,2.279164345e-13,2.475833045e-13,2.796488866e-13,6.827096266e-14,8.032685525e-14,3.749198645e-14,5.783395546e-14,1.456584831e-13,2.462625186e-14,9.064323888e-14,8.988826842e-14,8.519865569e-14,7.393909712e-14,1.81055909e-13,2.643875985e-13,1.719293054e-13,8.535721968e-14,5.695026378e-14,2.562053287e-13,4.848508468e-14,1.326815512e-13,6.625837244e-14,9.493885785e-14,5.447237076e-14,7.635553256e-14,1.440256853e-13,9.991753682e-14,2.428853164e-13,1.865376025e-13,2.438528718e-13,2.959075343e-13
0.8828125,1.054005529e-13,2.270399658e-13,2.511797957e-13,2.766381192e-13,6.501658006e-14,8.203429632e-14,3.693752599e-14,5.651707308e-14,1.443823507e-13,2.396451866e-14,9.309237578e-14,9.138840915e-14,8.15261975e-14,7.492161104e-14,1.895986376e-13,2.839501235e-13,1.707902783e-13,7.921371162e-14,5.141925081e-14,2.584830745e-13,4.794157708e-14,1.296437144e-13,6.564105355e-14,1.022718038e-13,5.86876226e-14,6.86758876e-14,1.335002724e-13,1.093921891e-13,2.307786929e-13,1.737717564e-13,2.413834645e-13,2.831233919e-13
0.890625,1.103444007e-13,2.250281247e-13,2.546922833e-13,2.721706122e-13,6.243699731e-14,8.39322815e-14,3.687582758e-14,5.556527093e-14,1.419705797e-13,2.327714298e-14,9.665894042e-14,9.274496164e-14,7.785375563e-14,7.685526365e-14,2.007678006e-13,3.082529985e-13,1.709302316e-13,7.458610281e-14,4.665660048e-14,2.613153229e-13,4.745090372e-14,1.258068889e-13,6.466924346e-14,1.097655244e-13,6.320062313e-14,6.171621238e-14,1.244447054e-13,1.208139966e-13,2.19872497e-13,1.618997878e-13,2.395504825e-13,2.692510526e-13
0.8984375,1.157230393e-13,2.217733307e-13,2.581544631e-13,2.666374734e-13,6.046587434e-14,8.601185279e-14,3.715814377e-14,5.508595598e-14,1.38376484e-13,2.251501227e-14,1.009034422e-13,9.373100604e-14,7.407139614e-14,7.949826599e-14,2.141252895e-13,3.368428533e-13,1.722665109e-13,7.142632175e-14,4.256518479e-14,2.648309704e-13,4.694128165e-14,1.210452879e-13,6.327485672e-14,1.17256341e-13,6.804196015e-14,5.529841323e-14,1.163477573e-13,1.343966932e-13,2.094100016e-13,1.506039471e-13,2.38190318e-13,2.543070256e-13
0.90625,1.215282474e-13,2.177537438e-13,2.61610065e-13,2.599930182e-13,5.906617284e-14,8.839370078e-14,3.772008361e-14,5.500900532e-14,1.337582103e-13,2.17332003e-14,1.057181252e-13,9.43868171e-14,7.0319126e-14,8.271623806e-14,2.291019895e-13,3.687310663e-13,1.750924299e-13,6.962815259e-14,3.92141621e-14,2.686810607e-13,4.644460024e-14,1.15595701e-13,6.172593253e-14,1.246628194e-13,7.31070996e-14,4.946948479e-14,1.095830476e-13,1.499158817e-13,1.998076467e-13,1.404044465e-13,2.37348839e-13,2.385187985e-13
0.9140625,1.276517008e-13,2.132655622e-13,2.655672904e-13,2.521791399e-13,5.8276572e-14,9.116904628e-14,3.853174493e-14,5.519590173e-14,1.282271486e-13,2.090639776e-14,1.114748485e-13,9.486993508e-14,6.656518761e-14,8.654513881e-14,2.452742464e-13,4.034794332e-13,1.794735464e-13,6.913360277e-14,3.657043305e-14,2.730940315e-13,4.596071536e-14,1.095378093e-13,6.002776346e-14,1.317419531e-13,7.832549001e-14,4.439558245e-14,1.044397967e-13,1.668297055e-13,1.915300557e-13,1.315029419e-13,2.372045258e-13,2.221784711e-13
0.921875,1.340166323e-13,2.079695732e-13,2.699073597e-13,2.434132516e-13,5.816140859e-14,9.437002791e-14,3.953027059e-14,5.580706995e-14,1.219252742e-13,2.00164608e-14,1.183826057e-13,9.513349978e-14,6.271807212e-14,9.085632582e-14,2.624245459e-13,4.408204938e-13,1.852162863e-13,6.972767858e-14,3.453322458e-14,2.78348322e-13,4.551893226e-14,1.030063825e-13,5.812310781e-14,1.38279708e-13,8.364495542e-14,4.000197323e-14,1.004652116e-13,1.849128967e-13,1.842904335e-13,1.235947129e-13,2.376186724e-13,2.056644654e-13
0.9296875,1.405625688e-13,2.019352279e-13,2.741617829e-13,2.337996143e-13,5.872806919e-14,9.788409259e-14,4.070641699e-14,5.697472891e-14,1.149629706e-13,1.911345077e-14,1.262238278e-13,9.509264327e-14,5.885755963e-14,9.538884021e-14,2.800772457e-13,4.803324649e-13,1.924760031e-13,7.122657228e-14,3.303239566e-14,2.843199522e-13,4.509697533e-14,9.617380143e-14,5.618751633e-14,1.442514059e-13,8.897479994e-14,3.63075649e-14,9.746043484e-14,2.040247243e-13,1.778191432e-13,1.165175043e-13,2.384116427e-13,1.89216044e-13
0.9375,1.471806554e-13,1.954217874e-13,2.787203784e-13,2.234414141e-13,5.986424828e-14,1.017516161e-13,4.208202402e-14,5.852239195e-14,1.074830486e-13,1.8227644e-14,1.347421664e-13,9.489856056e-14,5.505566875e-14,1.000948777e-13,2.975624408e-13,5.209823791e-13,2.007639663e-13,7.349703928e-14,3.199880332e-14,2.913116036e-13,4.473394873e-14,8.919593888e-14,5.433488239e-14,1.496442222e-13,9.434237729e-14,3.328919142e-14,9.543070593e-14,2.238624547e-13,1.724142201e-13,1.103442015e-13,2.395900779e-13,1.72963502e-13
0.9453125,1.539277171e-13,1.884552632e-13,2.837676481e-13,2.124311899e-13,6.144918633e-14,1.060074334e-13,4.36363754e-14,6.038082268e-14,9.98539306e-14,1.741132356e-14,1.438146745e-13,9.475908198e-14,5.13853758e-14,1.050560876e-13,3.147156973e-13,5.62015084e-13,2.096015358e-13,7.646926906e-14,3.147632322e-14,2.990514e-13,4.453284599e-14,8.234610293e-14,5.261410804e-14,1.54457809e-13,9.965956807e-14,3.082712721e-14,9.436062803e-14,2.440250246e-13,1.68338612e-13,1.052292715e-13,2.409662494e-13,1.572571922e-13
0.953125,1.607792819e-13,1.81386408e-13,2.885880786e-13,2.010792764e-13,6.332793139e-14,1.102047596e-13,4.532943402e-14,6.274695818e-14,9.218822032e-14,1.666136163e-14,1.531157249e-13,9.458278201e-14,4.77654483e-14,1.102550723e-13,3.31804107e-13,6.037457655e-13,2.193981453e-13,8.01348321e-14,3.127294674e-14,3.070859711e-13,4.433572242e-14,7.554194151e-14,5.096090343e-14,1.585940327e-13,1.048648183e-13,2.884470388e-14,9.394911334e-14,2.643667814e-13,1.648639525e-13,1.008345887e-13,2.421070844e-13,1.422593363e-13
0.9609375,1.676367499e-13,1.742684118e-13,2.931764367e-13,1.895698724e-13,6.542583206e-14,1.145767382e-13,4.717381621e-14,6.568229904e-14,8.44723928e-14,1.592413004e-14,1.626068471e-13,9.426586621e-14,4.414849475e-14,1.156121728e-13,3.485008181e-13,6.453418123e-13,2.297785083e-13,8.430660315e-14,3.120014542e-14,3.152605712e-13,4.407145409e-14,6.878113971e-14,4.939079206e-14,1.620199041e-13,1.098492577e-13,2.731506455e-14,9.386464274e-14,2.848978226e-13,1.614578419e-13,9.698048341e-14,2.429344495e-13,1.280450284e-13
0.96875,1.744514762e-13,1.669633336e-13,2.976802592e-13,1.775444063e-13,6.779003604e-14,1.193998472e-13,4.901780424e-14,6.903822316e-14,7.685869659e-14,1.520478384e-14,1.724381957e-13,9.38651603e-14,4.061237315e-14,1.208885826e-13,3.640667195e-13,6.848885218e-13,2.402711182e-13,8.881224927e-14,3.134936417e-14,3.238810822e-13,4.382926771e-14,6.229048368e-14,4.813440557e-14,1.645684493e-13,1.146319693e-13,2.623186867e-14,9.416830286e-14,3.051476962e-13,1.584616298e-13,9.398433904e-14,2.435516724e-13,1.14642932e-13
0.9765625,1.809512531e-13,1.596957367e-13,3.009823525e-13,1.65381844e-13,7.027061708e-14,1.238406778e-13,5.070369064e-14,7.280745079e-14,6.930731318e-14,1.454602816e-14,1.824521797e-13,9.326668651e-14,3.710443855e-14,1.257930564e-13,3.782819987e-13,7.216149509e-13,2.51033889e-13,9.355983749e-14,3.16261475e-14,3.32889482e-13,4.353028423e-14,5.600736098e-14,4.719654806e-14,1.659949604e-13,1.193864269e-13,2.55004439e-14,9.471805307e-14,3.243004601e-13,1.558490511e-13,9.164348624e-14,2.438054962e-13,1.018952471e-13
0.984375,1.869912385e-13,1.526299971e-13,3.029412534e-13,1.53743509e-13,7.256616985e-14,1.279674167e-13,5.222436584e-14,7.706531568e-14,6.189286803e-14,1.398467714e-14,1.926648753e-13,9.242457482e-14,3.361909057e-14,1.302061301e-13,3.908091561e-13,7.550011046e-13,2.615379849e-13,9.827274008e-14,3.187419455e-14,3.411458407e-13,4.309385762e-14,4.997053881e-14,4.651105766e-14,1.664455608e-13,1.23744346e-13,2.504160111e-14,9.543420496e-14,3.420398581e-13,1.533464055e-13,8.983668873e-14,2.434796806e-13,9.00008531e-14
0.9921875,1.924898663e-13,1.457354321e-13,3.040616474e-13,1.424335651e-13,7.456509517e-14,1.321578254e-13,5.352999933e-14,8.164728137e-14,5.484860222e-14,1.352776803e-14,2.027548077e-13,9.141487818e-14,3.018148603e-14,1.338458239e-13,4.006044278e-13,7.836305411e-13,2.709247578e-13,1.026548655e-13,3.210441176e-14,3.487618289e-13,4.249248764e-14,4.433886241e-14,4.616358693e-14,1.659963823e-13,1.274809279e-13,2.475980954e-14,9.620319025e-14,3.580932073e-13,1.508437586e-13,8.87175306e-14,2.42350872e-13,7.915895566e-14
1,1.972777461e-13,1.390428264e-13,3.03794593e-13,1.315096005e-13,7.632295323e-14,1.357116885e-13,5.474855653e-14,8.641645593e-14,4.825214301e-14,1.31775352e-14,2.121815282e-13,9.023531759e-14,2.682935289e-14,1.365533287e-13,4.071738095e-13,8.064786525e-13,2.786470047e-13,1.064615759e-13,3.229838703e-14,3.559551448e-13,4.174422085e-14,3.915154977e-14,4.614146593e-14,1.647624234e-13,1.305936367e-13,2.453800548e-14,9.662178715e-14,3.715708919e-13,1.48149223e-13,8.811769191e-14,2.404144612e-13,6.920187974e-14
1.0078125,2.014112089e-13,1.328369817e-13,3.02552644e-13,1.212601349e-13,7.784354461e-14,1.387150366e-13,5.589352089e-14,9.146047466e-14,4.226292096e-14,1.294921168e-14,2.212486972e-13,8.907157316e-14,2.373274199e-14,1.387071287e-13,4.109539474e-13,8.234577113e-13,2.8444726e-13,1.094930082e-13,3.240452071e-14,3.619045798e-13,4.093229089e-14,3.447078277e-14,4.647331541e-14,1.627729938e-13,1.327781828e-13,2.436842081e-14,9.682174015e-14,3.819395027e-13,1.453085729e-13,8.804512655e-14,2.378576409e-13,6.011103602e-14
1.015625,2.04764147e-13,1.269374713e-13,3.006551121e-13,1.115818621e-13,7.908932812e-14,1.414335493e-13,5.68017962e-14,9.667951504e-14,3.696195212e-14,1.285451037e-14,2.297984671e-13,8.795286074e-14,2.094773095e-14,1.402738169e-13,4.118044483e-13,8.347373177e-13,2.885470041e-13,1.119520172e-13,3.248251878e-14,3.669149535e-13,4.005770546e-14,3.02894767e-14,4.721826492e-14,1.599237441e-13,1.342046478e-13,2.423643553e-14,9.691962182e-14,3.895262335e-13,1.424477793e-13,8.85670682e-14,2.34618131e-13,5.201708258e-14
1.0234375,2.071149549e-13,1.208719266e-13,2.973679571e-13,1.025686376e-13,8.014955629e-14,1.43311186e-13,5.767029288e-14,1.019427245e-13,3.225503953e-14,1.293852695e-14,2.368077569e-13,8.655441224e-14,1.839734474e-14,1.408564992e-13,4.094386039e-13,8.404492632e-13,2.912137698e-13,1.140231459e-13,3.253131678e-14,3.710475684e-13,3.910774599e-14,2.654533729e-14,4.830969847e-14,1.566134376e-13,1.350925027e-13,2.414400495e-14,9.674587215e-14,3.945776033e-13,1.395560185e-13,8.948810164e-14,2.307771042e-13,4.494275813e-14
1.03125,2.084901281e-13,1.148570044e-13,2.92804442e-13,9.448291782e-14,8.112654924e-14,1.442024219e-13,5.853372008e-14,1.073801646e-13,2.812656638e-14,1.330736961e-14,2.420748418e-13,8.48297054e-14,1.60430818e-14,1.405691366e-13,4.041854309e-13,8.405742798e-13,2.923817565e-13,1.156529926e-13,3.249662928e-14,3.74120244e-13,3.811728175e-14,2.323209822e-14,4.97289691e-14,1.52887085e-13,1.353525894e-13,2.413184736e-14,9.656570905e-14,3.966796806e-13,1.368895697e-13,9.072567493e-14,2.265808368e-13,3.880070601e-14
1.0390625,2.090259192e-13,1.092556878e-13,2.870623095e-13,8.720005977e-14,8.190248063e-14,1.440851305e-13,5.927145729e-14,1.129658343e-13,2.463249033e-14,1.401093407e-14,2.458014983e-13,8.299187189e-14,1.386505511e-14,1.395278715e-13,3.963247883e-13,8.351171764e-13,2.918928345e-13,1.168985879e-13,3.239822494e-14,3.766371103e-13,3.705674655e-14,2.033967666e-14,5.143323973e-14,1.485864035e-13,1.349825133e-13,2.408908395e-14,9.645137613e-14,3.955908437e-13,1.344876274e-13,9.238468643e-14,2.218094951e-13,3.346950274e-14
1.046875,2.087170876e-13,1.041372551e-13,2.802638766e-13,8.056934148e-14,8.24225574e-14,1.431122055e-13,5.994382657e-14,1.186426339e-13,2.181400808e-14,1.506177399e-14,2.481071473e-13,8.107069722e-14,1.185819344e-14,1.37742898e-13,3.865302455e-13,8.238227193e-13,2.89352623e-13,1.175291587e-13,3.215269088e-14,3.779834912e-13,3.592441809e-14,1.783267002e-14,5.332120505e-14,1.438917483e-13,1.337592753e-13,2.388949201e-14,9.610591124e-14,3.914003338e-13,1.319011185e-13,9.431992167e-14,2.163448364e-13,2.883221213e-14
1.0546875,2.074427124e-13,9.949606922e-14,2.730512392e-13,7.47764511e-14,8.279258572e-14,1.417108469e-13,6.041007694e-14,1.244352902e-13,1.961176651e-14,1.656309093e-14,2.494607888e-13,7.910642405e-14,1.005006497e-14,1.354229133e-13,3.750699256e-13,8.062318923e-13,2.843501465e-13,1.173033185e-13,3.178404694e-14,3.776676123e-13,3.478212191e-14,1.570229627e-14,5.537034961e-14,1.388065978e-13,1.316799706e-13,2.360968681e-14,9.545336184e-14,3.838344166e-13,1.289267367e-13,9.618725709e-14,2.105131473e-13,2.482459061e-14
1.0625,2.055235663e-13,9.551678171e-14,2.655849164e-13,6.985020191e-14,8.298124405e-14,1.396657402e-13,6.062673634e-14,1.300287615e-13,1.797214054e-14,1.853102339e-14,2.500618309e-13,7.739539885e-14,8.495442042e-15,1.327557271e-13,3.6191778e-13,7.829904464e-13,2.772986883e-13,1.164094772e-13,3.139359385e-14,3.762620601e-13,3.365337393e-14,1.392943898e-14,5.744788821e-14,1.335009616e-13,1.290183074e-13,2.334553561e-14,9.466622087e-14,3.729157244e-13,1.258454597e-13,9.788936342e-14,2.043599189e-13,2.146168721e-14
1.0703125,2.031683543e-13,9.222062811e-14,2.577080709e-13,6.568368478e-14,8.289771325e-14,1.369183874e-13,6.061107353e-14,1.35281766e-13,1.682095622e-14,2.082944927e-14,2.498877658e-13,7.60359292e-14,7.203548756e-15,1.298702853e-13,3.479255484e-13,7.556786808e-13,2.689388656e-13,1.150965426e-13,3.095892777e-14,3.738846259e-13,3.252380261e-14,1.243756882e-14,5.943628792e-14,1.280818785e-13,1.257913551e-13,2.304176557e-14,9.389938117e-14,3.592966918e-13,1.228901322e-13,9.957367796e-14,1.975735448e-13,1.873267519e-14
1.078125,2.002554526e-13,8.925016261e-14,2.495067815e-13,6.215087758e-14,8.25042526e-14,1.337335306e-13,6.035881769e-14,1.403291947e-13,1.603352909e-14,2.333507176e-14,2.489377923e-13,7.488495777e-14,6.086289041e-15,1.268231934e-13,3.334344697e-13,7.253333042e-13,2.594508972e-13,1.134123739e-13,3.055737254e-14,3.702497809e-13,3.13307975e-14,1.116785277e-14,6.146026452e-14,1.22616051e-13,1.219946723e-13,2.258164153e-14,9.281249492e-14,3.436274664e-13,1.195971253e-13,1.014008882e-13,1.899064658e-13,1.653257107e-14
1.0859375,1.967638154e-13,8.648341482e-14,2.413862576e-13,5.910849954e-14,8.193054993e-14,1.299092311e-13,5.998364154e-14,1.449202716e-13,1.563937228e-14,2.606835641e-14,2.471838347e-13,7.39316523e-14,5.093025186e-15,1.236367071e-13,3.185531098e-13,6.920022613e-13,2.487193561e-13,1.110352105e-13,3.014349661e-14,3.653108334e-13,3.010857643e-14,1.01003532e-14,6.342906162e-14,1.171916278e-13,1.17565209e-13,2.195741774e-14,9.112715526e-14,3.260536783e-13,1.156510468e-13,1.030308169e-13,1.815366164e-13,1.471551939e-14
1.09375,1.926333209e-13,8.388380098e-14,2.335170027e-13,5.667076743e-14,8.136165656e-14,1.255797478e-13,5.933437208e-14,1.489506918e-13,1.559813523e-14,2.912145049e-14,2.446092091e-13,7.317450284e-14,4.286596527e-15,1.204265885e-13,3.037404941e-13,6.56241326e-13,2.367490579e-13,1.078825178e-13,2.958690638e-14,3.594887013e-13,2.897840846e-14,9.214269868e-15,6.513010071e-14,1.115736967e-13,1.124725996e-13,2.125482872e-14,8.910552792e-14,3.066393251e-13,1.115176292e-13,1.040478812e-13,1.729342357e-13,1.325539843e-14
1.1015625,1.884294781e-13,8.184406456e-14,2.265179213e-13,5.491652822e-14,8.081162865e-14,1.211878369e-13,5.840123588e-14,1.525696963e-13,1.581592821e-14,3.247959244e-14,2.414145435e-13,7.286880564e-14,3.751867896e-15,1.177993812e-13,2.897786341e-13,6.202176312e-13,2.23959101e-13,1.043389533e-13,2.901192408e-14,3.527657802e-13,2.794746617e-14,8.517873709e-15,6.676472024e-14,1.060042132e-13,1.069701942e-13,2.053703711e-14,8.682465875e-14,2.863331008e-13,1.073496544e-13,1.047362648e-13,1.643523547e-13,1.217597604e-14
1.109375,1.844551274e-13,8.067430181e-14,2.208794813e-13,5.379123073e-14,8.033022297e-14,1.166322038e-13,5.733085751e-14,1.555328402e-13,1.634319295e-14,3.617643544e-14,2.381209325e-13,7.316878142e-14,3.527442583e-15,1.161671645e-13,2.775945019e-13,5.853205209e-13,2.110543662e-13,1.005456862e-13,2.844966392e-14,3.447967419e-13,2.703498417e-14,8.0180767e-15,6.839496242e-14,1.007126411e-13,1.012891759e-13,1.992225322e-14,8.436642555e-14,2.658805695e-13,1.030937816e-13,1.050455924e-13,1.558503287e-13,1.141075955e-14
1.1171875,1.802569031e-13,7.976855461e-14,2.157805877e-13,5.327026123e-14,7.990491306e-14,1.118280206e-13,5.607464164e-14,1.577796776e-13,1.708775545e-14,4.016604919e-14,2.343640712e-13,7.364092295e-14,3.594478929e-15,1.150584733e-13,2.669670975e-13,5.515379528e-13,1.984222099e-13,9.665244735e-14,2.781712486e-14,3.361739715e-13,2.627214827e-14,7.669335494e-15,6.971850824e-14,9.551441452e-14,9.548084449e-14,1.941066817e-14,8.190020473e-14,2.454164404e-13,9.892336819e-14,1.046396191e-13,1.474513022e-13,1.088645664e-14
1.125,1.760939026e-13,7.913520176e-14,2.113074939e-13,5.329251616e-14,7.951901389e-14,1.070498742e-13,5.47450895e-14,1.596491506e-13,1.794387937e-14,4.426367011e-14,2.298676868e-13,7.422383171e-14,3.943796637e-15,1.145892519e-13,2.580088847e-13,5.194197791e-13,1.861311077e-13,9.282802549e-14,2.71980305e-14,3.271181699e-13,2.560208194e-14,7.443156284e-15,7.072352179e-14,9.058609933e-14,8.94431717e-14,1.88428621e-14,7.927817569e-14,2.253545516e-13,9.481133724e-14,1.038779485e-13,1.392348231e-13,1.048868465e-14
1.1328125,1.720855493e-13,7.895764797e-14,2.079264553e-13,5.370173215e-14,7.927767459e-14,1.023792162e-13,5.335699758e-14,1.611485761e-13,1.892126085e-14,4.843327345e-14,2.25337473e-13,7.51365128e-14,4.604723247e-15,1.151917608e-13,2.510439351e-13,4.892125512e-13,1.743699506e-13,8.89784329e-14,2.66067839e-14,3.171735623e-13,2.502301608e-14,7.309916582e-15,7.138512625e-14,8.593534493e-14,8.321213808e-14,1.823635383e-14,7.656694599e-14,2.057997318e-13,9.074376415e-14,1.027948335e-13,1.31229449e-13,1.015786661e-14
1.140625,1.681242923e-13,7.892947222e-14,2.053743474e-13,5.442888234e-14,7.910811045e-14,9.795721506e-14,5.182888564e-14,1.620836541e-13,1.99258644e-14,5.256545231e-14,2.209895078e-13,7.629615697e-14,5.579193211e-15,1.16779471e-13,2.458623376e-13,4.611464769e-13,1.634275518e-13,8.521412763e-14,2.597308068e-14,3.064491411e-13,2.457607433e-14,7.237088302e-15,7.152634705e-14,8.146181583e-14,7.704079723e-14,1.766581456e-14,7.394396698e-14,1.870143608e-13,8.676800821e-14,1.010433631e-13,1.234528133e-13,9.966086335e-15
1.1484375,1.645783373e-13,7.937701261e-14,2.038915836e-13,5.571533451e-14,7.9071742e-14,9.406130552e-14,5.029802808e-14,1.623824747e-13,2.091391714e-14,5.658368368e-14,2.17302713e-13,7.767366225e-14,6.843575038e-15,1.195452101e-13,2.431046458e-13,4.361555144e-13,1.53373504e-13,8.163255362e-14,2.534061951e-14,2.950968539e-13,2.426143522e-14,7.258848932e-15,7.130755808e-14,7.731697523e-14,7.094215283e-14,1.71509805e-14,7.135602686e-14,1.693268509e-13,8.293177019e-14,9.882691286e-14,1.162973583e-13,9.883427935e-15
1.15625,1.614199788e-13,8.03821737e-14,2.033915727e-13,5.753088946e-14,7.933695936e-14,9.063951204e-14,4.879186318e-14,1.620304483e-13,2.190985591e-14,6.058563158e-14,2.145249252e-13,7.916145765e-14,8.393782057e-15,1.233641214e-13,2.424989078e-13,4.141269195e-13,1.443403531e-13,7.820402944e-14,2.482379911e-14,2.83250124e-13,2.403589702e-14,7.377934247e-15,7.08263931e-14,7.347899971e-14,6.49787935e-14,1.674964093e-14,6.890439149e-14,1.52478935e-13,7.940123724e-14,9.64178468e-14,1.100419593e-13,9.856061048e-15
1.1640625,1.587162213e-13,8.164345225e-14,2.039547898e-13,5.964832009e-14,7.984079821e-14,8.789286317e-14,4.730668072e-14,1.611197704e-13,2.290804982e-14,6.448528911e-14,2.124097603e-13,8.074663234e-14,1.029879542e-14,1.280755445e-13,2.434230815e-13,3.947808083e-13,1.367155493e-13,7.506370299e-14,2.449206099e-14,2.710722972e-13,2.382081129e-14,7.567912446e-15,7.008889616e-14,6.992753943e-14,5.944391025e-14,1.655520373e-14,6.683092216e-14,1.368725462e-13,7.628069464e-14,9.388299117e-14,1.046035904e-13,9.955179166e-15
1.171875,1.566592012e-13,8.337347148e-14,2.059588401e-13,6.224015928e-14,8.059308429e-14,8.608985125e-14,4.589473546e-14,1.595877809e-13,2.397433989e-14,6.814488601e-14,2.116576612e-13,8.262578327e-14,1.268379065e-14,1.339898134e-13,2.464007509e-13,3.784841922e-13,1.305942874e-13,7.225445426e-14,2.429755538e-14,2.584625333e-13,2.358930591e-14,7.84928191e-15,6.921217791e-14,6.663219001e-14,5.429052584e-14,1.663916482e-14,6.51652022e-14,1.229379613e-13,7.356257363e-14,9.12030406e-14,1.000408439e-13,1.017470595e-14
1.1796875,1.551385685e-13,8.572343031e-14,2.089486664e-13,6.530400283e-14,8.156980109e-14,8.501028053e-14,4.444557355e-14,1.572115127e-13,2.511621402e-14,7.153736785e-14,2.124278482e-13,8.477730593e-14,1.562792562e-14,1.409532757e-13,2.512004312e-13,3.651919275e-13,1.260093469e-13,6.989912281e-14,2.425487749e-14,2.454953019e-13,2.333675454e-14,8.244839838e-15,6.810128158e-14,6.356300148e-14,4.940702873e-14,1.697478996e-14,6.370716168e-14,1.105335449e-13,7.115000215e-14,8.837141524e-14,9.642016819e-14,1.047028693e-14
1.1875,1.541348682e-13,8.847772406e-14,2.126666399e-13,6.858865939e-14,8.268050199e-14,8.463726146e-14,4.296674468e-14,1.541699086e-13,2.623757214e-14,7.457454369e-14,2.143893012e-13,8.703415566e-14,1.904755614e-14,1.486080982e-13,2.572971227e-13,3.547323394e-13,1.230830776e-13,6.813455014e-14,2.439675658e-14,2.324194511e-13,2.30654688e-14,8.733389711e-15,6.674440199e-14,6.078521017e-14,4.48961242e-14,1.760415437e-14,6.256749119e-14,9.974491184e-14,6.916685963e-14,8.545438899e-14,9.363353454e-14,1.08742733e-14
1.1953125,1.534112342e-13,9.129321133e-14,2.169424536e-13,7.196201011e-14,8.384226714e-14,8.502680945e-14,4.149915039e-14,1.508335798e-13,2.729931889e-14,7.71319712e-14,2.173570115e-13,8.919012597e-14,2.274781332e-14,1.566230158e-13,2.642684678e-13,3.46649089e-13,1.215315084e-13,6.687734274e-14,2.462043642e-14,2.196281762e-13,2.280107372e-14,9.262762258e-15,6.520272127e-14,5.817577398e-14,4.077121681e-14,1.842823448e-14,6.188951932e-14,9.0442855e-14,6.776193132e-14,8.242523878e-14,9.142486892e-14,1.133804948e-14
1.203125,1.52929467e-13,9.405322244e-14,2.215162297e-13,7.536455128e-14,8.483631896e-14,8.60408248e-14,3.994685072e-14,1.470601092e-13,2.82862337e-14,7.910415468e-14,2.207995414e-13,9.121003846e-14,2.670326434e-14,1.648394609e-13,2.715306223e-13,3.404147775e-13,1.212684218e-13,6.627738132e-14,2.497892207e-14,2.072810392e-13,2.246982995e-14,9.84134821e-15,6.340226625e-14,5.573667701e-14,3.71455362e-14,1.92061699e-14,6.134492978e-14,8.277311879e-14,6.667774979e-14,7.953926413e-14,8.958244278e-14,1.182330487e-14
1.2109375,1.529309782e-13,9.694808138e-14,2.26604071e-13,7.895270243e-14,8.575611134e-14,8.753993952e-14,3.847281727e-14,1.426183268e-13,2.924967536e-14,8.043819985e-14,2.247164281e-13,9.315728033e-14,3.099290823e-14,1.733880965e-13,2.79058384e-13,3.358800073e-13,1.224018539e-13,6.643669989e-14,2.557923327e-14,1.951080706e-13,2.204517879e-14,1.048212915e-14,6.147065351e-14,5.366995174e-14,3.41176896e-14,2.010922653e-14,6.110325653e-14,7.692793265e-14,6.604301086e-14,7.705070111e-14,8.825894684e-14,1.23829461e-14
1.21875,1.530887909e-13,9.980820779e-14,2.316748275e-13,8.268782935e-14,8.679187939e-14,8.929309586e-14,3.71461539e-14,1.379113967e-13,3.028859581e-14,8.131577498e-14,2.287902642e-13,9.465189437e-14,3.56162211e-14,1.819136415e-13,2.863455072e-13,3.327473133e-13,1.246049339e-13,6.729044487e-14,2.638732982e-14,1.834029846e-13,2.159009456e-14,1.11722937e-14,5.951470106e-14,5.195016534e-14,3.157277306e-14,2.130056885e-14,6.163972572e-14,7.22840828e-14,6.622549238e-14,7.473500018e-14,8.763090667e-14,1.298150514e-14
1.2265625,1.529736967e-13,1.021719769e-13,2.357050654e-13,8.626693983e-14,8.773020209e-14,9.128638592e-14,3.579928721e-14,1.333298431e-13,3.129780731e-14,8.180099299e-14,2.32350893e-13,9.527873258e-14,4.055661131e-14,1.899585205e-13,2.927435309e-13,3.309374093e-13,1.278416719e-13,6.902754848e-14,2.746705885e-14,1.726464442e-13,2.106889735e-14,1.195383797e-14,5.741815861e-14,5.040251453e-14,2.953042058e-14,2.263440299e-14,6.291549086e-14,6.870356781e-14,6.724198019e-14,7.268685264e-14,8.762162439e-14,1.354909805e-14
1.234375,1.525438202e-13,1.039012821e-13,2.386978814e-13,8.968818484e-14,8.847001091e-14,9.352294234e-14,3.45643305e-14,1.287181335e-13,3.217951651e-14,8.16140403e-14,2.354089298e-13,9.506981422e-14,4.57277072e-14,1.974800853e-13,2.982124805e-13,3.302007255e-13,1.322618068e-13,7.167620109e-14,2.883818165e-14,1.626496391e-13,2.049264044e-14,1.282027541e-14,5.515868808e-14,4.895116752e-14,2.800707406e-14,2.413643215e-14,6.497306964e-14,6.644691147e-14,6.925921112e-14,7.123347848e-14,8.814421734e-14,1.417914731e-14
1.2421875,1.518417902e-13,1.051567318e-13,2.409419631e-13,9.302049724e-14,8.906043175e-14,9.578754053e-14,3.35156339e-14,1.239779671e-13,3.304519119e-14,8.0795205e-14,2.377957208e-13,9.420176633e-14,5.107047812e-14,2.043973241e-13,3.02324362e-13,3.298226968e-13,1.376613289e-13,7.511449695e-14,3.041450368e-14,1.534560553e-13,1.989272276e-14,1.371638615e-14,5.292743253e-14,4.770336196e-14,2.698378818e-14,2.58550411e-14,6.792651238e-14,6.530926275e-14,7.231828787e-14,7.036867785e-14,8.914096958e-14,1.501003615e-14
1.25,1.507738896e-13,1.060825068e-13,2.422055081e-13,9.619875866e-14,8.952076773e-14,9.796982213e-14,3.253741106e-14,1.192316327e-13,3.388582191e-14,7.957940925e-14,2.394989291e-13,9.282565535e-14,5.647745523e-14,2.104721722e-13,3.050375116e-13,3.295507799e-13,1.43906961e-13,7.921976374e-14,3.217811329e-14,1.455263236e-13,1.918211731e-14,1.462106512e-14,5.094005245e-14,4.66750915e-14,2.656922105e-14,2.767914815e-14,7.161464041e-14,6.509249307e-14,7.603165529e-14,7.000429423e-14,9.053829661e-14,1.595916138e-14
1.2578125,1.492576856e-13,1.065182935e-13,2.424051197e-13,9.908392073e-14,8.991536613e-14,9.998636527e-14,3.169013667e-14,1.146445183e-13,3.466644608e-14,7.789604866e-14,2.406895531e-13,9.09150737e-14,6.172335777e-14,2.154759643e-13,3.065585166e-13,3.289949338e-13,1.507188224e-13,8.377939602e-14,3.407693365e-14,1.387421909e-13,1.834585382e-14,1.553021551e-14,4.909393605e-14,4.569013709e-14,2.654727107e-14,2.950112441e-14,7.568626914e-14,6.5461506e-14,7.992814991e-14,7.009599372e-14,9.225843974e-14,1.693194383e-14
1.265625,1.47451594e-13,1.065547224e-13,2.416689963e-13,1.016655389e-13,9.019596676e-14,1.017861489e-13,3.099770692e-14,1.103472782e-13,3.546792067e-14,7.564814637e-14,2.411761799e-13,8.846996083e-14,6.686426568e-14,2.19586562e-13,3.067868356e-13,3.279819855e-13,1.580915306e-13,8.896814396e-14,3.612383393e-14,1.328268067e-13,1.747125723e-14,1.645940814e-14,4.715167457e-14,4.476500703e-14,2.667564379e-14,3.128656504e-14,8.009486822e-14,6.629472418e-14,8.40795686e-14,7.082783977e-14,9.437001372e-14,1.794393737e-14
1.2734375,1.453298108e-13,1.065293408e-13,2.399275697e-13,1.041672011e-13,9.047746119e-14,1.033351292e-13,3.041353109e-14,1.062444678e-13,3.621751469e-14,7.297660461e-14,2.411053133e-13,8.575285382e-14,7.191364843e-14,2.230340993e-13,3.063687279e-13,3.269952866e-13,1.66251203e-13,9.475968071e-14,3.835352768e-14,1.278999196e-13,1.657797407e-14,1.738000488e-14,4.519866356e-14,4.392652337e-14,2.71007906e-14,3.319265606e-14,8.517912348e-14,6.776355945e-14,8.886447083e-14,7.217985434e-14,9.71392904e-14,1.89812983e-14
1.28125,1.42844822e-13,1.064395117e-13,2.375945887e-13,1.065542311e-13,9.079347409e-14,1.046529377e-13,2.995409817e-14,1.022606524e-13,3.691400281e-14,7.015153565e-14,2.405352164e-13,8.2860455e-14,7.666656189e-14,2.256587154e-13,3.05713237e-13,3.256582975e-13,1.746548097e-13,1.007411793e-13,4.06786482e-14,1.237011672e-13,1.566452675e-14,1.825451553e-14,4.333242636e-14,4.311262319e-14,2.774792201e-14,3.525406449e-14,9.088693967e-14,6.965926728e-14,9.408598618e-14,7.391587575e-14,1.004711055e-13,2.012754955e-14
1.2890625,1.401319223e-13,1.063936204e-13,2.349478127e-13,1.087364695e-13,9.094645816e-14,1.058184453e-13,2.956710507e-14,9.848165687e-14,3.761597513e-14,6.720240318e-14,2.39393166e-13,7.970455093e-14,8.118212013e-14,2.274626175e-13,3.047149583e-13,3.238188954e-13,1.833326939e-13,1.071345653e-13,4.309087321e-14,1.198830845e-13,1.480289167e-14,1.90970118e-14,4.153840779e-14,4.24443083e-14,2.848169418e-14,3.728980676e-14,9.731296426e-14,7.193036076e-14,9.972857032e-14,7.618552957e-14,1.041289921e-13,2.132201755e-14
1.296875,1.368706623e-13,1.061826168e-13,2.309751867e-13,1.106683987e-13,9.107942371e-14,1.065195887e-13,2.918178813e-14,9.499381231e-14,3.810739973e-14,6.408417736e-14,2.376095101e-13,7.628312093e-14,8.532693975e-14,2.283409262e-13,3.032192291e-13,3.219750517e-13,1.927676723e-13,1.140500505e-13,4.551547936e-14,1.16551366e-13,1.400473621e-14,1.982567976e-14,3.997905962e-14,4.181446126e-14,2.941311527e-14,3.935155154e-14,1.045359565e-13,7.454647221e-14,1.057907589e-13,7.888556114e-14,1.082632361e-13,2.237493879e-14
1.3046875,1.329928573e-13,1.056742497e-13,2.25585263e-13,1.122705195e-13,9.119539477e-14,1.064980362e-13,2.878577117e-14,9.179043885e-14,3.837774592e-14,6.095044583e-14,2.348092762e-13,7.277697711e-14,8.876170852e-14,2.281993539e-13,3.006869302e-13,3.196203036e-13,2.024708876e-13,1.210808264e-13,4.776723765e-14,1.137884221e-13,1.321574721e-14,2.033194285e-14,3.868051174e-14,4.104455545e-14,3.046084958e-14,4.144961742e-14,1.119397794e-13,7.723148705e-14,1.117037201e-13,8.194222286e-14,1.127408468e-13,2.342603977e-14
1.3125,1.288429745e-13,1.052702859e-13,2.195270012e-13,1.137651048e-13,9.11396068e-14,1.059192242e-13,2.842522812e-14,8.871490523e-14,3.864273733e-14,5.781951415e-14,2.310901283e-13,6.938045455e-14,9.157719545e-14,2.271929378e-13,2.969823712e-13,3.163035637e-13,2.121518561e-13,1.281382583e-13,4.983176167e-14,1.116914764e-13,1.243744643e-14,2.070181714e-14,3.759097761e-14,4.028086759e-14,3.155081571e-14,4.345668723e-14,1.194735297e-13,7.993930899e-14,1.174741362e-13,8.554739686e-14,1.173144797e-13,2.463471966e-14
1.3203125,1.242693024e-13,1.047384685e-13,2.124231522e-13,1.150566712e-13,9.100216324e-14,1.048095053e-13,2.820267835e-14,8.579796556e-14,3.887029011e-14,5.454981174e-14,2.265196095e-13,6.60528424e-14,9.391177097e-14,2.251588794e-13,2.92089759e-13,3.121767364e-13,2.215428262e-13,1.35094214e-13,5.17127646e-14,1.101455429e-13,1.168706364e-14,2.105235354e-14,3.67736314e-14,3.951927074e-14,3.263904092e-14,4.533988118e-14,1.271160212e-13,8.244181527e-14,1.231077013e-13,8.926398125e-14,1.220067616e-13,2.59045777e-14
1.328125,1.192866133e-13,1.040808688e-13,2.043804312e-13,1.160365385e-13,9.082207395e-14,1.031531218e-13,2.80481491e-14,8.310119382e-14,3.902646441e-14,5.119153161e-14,2.21146256e-13,6.292400682e-14,9.582744252e-14,2.223588178e-13,2.861917168e-13,3.075547962e-13,2.304634493e-13,1.41935313e-13,5.346749963e-14,1.086962183e-13,1.098832367e-14,2.135542611e-14,3.616679455e-14,3.870323582e-14,3.355842896e-14,4.705161605e-14,1.344715407e-13,8.467147089e-14,1.283126582e-13,9.295735385e-14,1.267942976e-13,2.719085036e-14
1.3359375,1.139995775e-13,1.035334019e-13,1.956138339e-13,1.169965784e-13,9.079083493e-14,1.008755586e-13,2.781593167e-14,8.042665666e-14,3.904625879e-14,4.804535192e-14,2.154306908e-13,6.013200965e-14,9.736316937e-14,2.189668973e-13,2.796024256e-13,3.02665492e-13,2.395092495e-13,1.489140137e-13,5.524072824e-14,1.072402274e-13,1.036471537e-14,2.152978012e-14,3.581138564e-14,3.784292299e-14,3.44738097e-14,4.875884518e-14,1.421776944e-13,8.678498566e-14,1.336638962e-13,9.686729194e-14,1.318874962e-13,2.849998057e-14
1.34375,1.083228533e-13,1.02982446e-13,1.860717888e-13,1.179263233e-13,9.094562679e-14,9.794556048e-14,2.759765475e-14,7.788069906e-14,3.885057907e-14,4.509026375e-14,2.092959133e-13,5.750391566e-14,9.837429297e-14,2.147939074e-13,2.723441835e-13,2.97268922e-13,2.482937713e-13,1.558807094e-13,5.695348409e-14,1.059016659e-13,9.844824147e-15,2.155966483e-14,3.567797716e-14,3.689895098e-14,3.544528501e-14,5.048546247e-14,1.505102616e-13,8.851761466e-14,1.393175055e-13,1.008632539e-13,1.373008479e-13,2.976955111e-14
1.3515625,1.027275225e-13,1.028395788e-13,1.766120284e-13,1.190148735e-13,9.12130377e-14,9.473473418e-14,2.749357703e-14,7.554896242e-14,3.85966046e-14,4.201398915e-14,2.030094664e-13,5.521142803e-14,9.896980077e-14,2.107269136e-13,2.655855366e-13,2.920788962e-13,2.563890322e-13,1.628418323e-13,5.855096768e-14,1.045030964e-13,9.45850506e-15,2.148756233e-14,3.552293259e-14,3.601986891e-14,3.613540618e-14,5.203186027e-14,1.587774547e-13,9.002824599e-14,1.446452319e-13,1.051379863e-13,1.428992648e-13,3.098387472e-14
1.359375,9.732191488e-14,1.029874112e-13,1.672520911e-13,1.202678008e-13,9.183119274e-14,9.124726194e-14,2.749054005e-14,7.311611996e-14,3.826315e-14,3.899639705e-14,1.970257088e-13,5.344723188e-14,9.915214817e-14,2.069129123e-13,2.597584761e-13,2.876920669e-13,2.644550311e-13,1.69828941e-13,6.000178241e-14,1.029274236e-13,9.152695427e-15,2.124925855e-14,3.546760617e-14,3.517486692e-14,3.659767211e-14,5.362311103e-14,1.670023013e-13,9.154698705e-14,1.49723528e-13,1.094056002e-13,1.488272555e-13,3.220571926e-14
1.3671875,9.154640332e-14,1.027766267e-13,1.574842358e-13,1.210824517e-13,9.257586263e-14,8.725924311e-14,2.757414944e-14,7.068279088e-14,3.769557337e-14,3.617628965e-14,1.907420686e-13,5.180663264e-14,9.857543356e-14,2.023158714e-13,2.534544669e-13,2.829640845e-13,2.72141142e-13,1.762943982e-13,6.107108845e-14,1.013011392e-13,8.895806999e-15,2.078527861e-14,3.566837839e-14,3.418292881e-14,3.701405037e-14,5.52939649e-14,1.751530233e-13,9.263126552e-14,1.545474723e-13,1.130366478e-13,1.546572331e-13,3.354924319e-14
1.375,8.559893854e-14,1.02287936e-13,1.477039104e-13,1.215281627e-13,9.316209483e-14,8.302301417e-14,2.771429344e-14,6.851158622e-14,3.698984631e-14,3.332903904e-14,1.838940254e-13,5.012689907e-14,9.735633993e-14,1.972421326e-13,2.467519061e-13,2.775925663e-13,2.787914159e-13,1.821557325e-13,6.179743686e-14,9.960708549e-14,8.717845527e-15,2.01864056e-14,3.595389598e-14,3.319933751e-14,3.725441976e-14,5.674427267e-14,1.82665467e-13,9.329809089e-14,1.587923123e-13,1.165328346e-13,1.600563075e-13,3.499909105e-14
1.3828125,8.000707239e-14,1.01796208e-13,1.38305001e-13,1.219427972e-13,9.376898007e-14,7.872420145e-14,2.79483342e-14,6.64049867e-14,3.629038405e-14,3.060135264e-14,1.76876078e-13,4.864124396e-14,9.577246459e-14,1.922554945e-13,2.404532055e-13,2.722424494e-13,2.84517458e-13,1.877172884e-13,6.237421181e-14,9.773543325e-14,8.589596251e-15,1.95198276e-14,3.631507261e-14,3.232265829e-14,3.728834824e-14,5.799924807e-14,1.893938574e-13,9.384953486e-14,1.624300486e-13,1.202154735e-13,1.652730786e-13,3.643511549e-14
1.390625,7.461878066e-14,1.011817522e-13,1.293567434e-13,1.221453693e-13,9.429536388e-14,7.440345603e-14,2.824736446e-14,6.424565913e-14,3.561240366e-14,2.807481187e-14,1.696808472e-13,4.727984281e-14,9.380452785e-14,1.870561625e-13,2.341914454e-13,2.66835611e-13,2.89139613e-13,1.927393443e-13,6.275318426e-14,9.548410059e-14,8.483930423e-15,1.880505629e-14,3.679992016e-14,3.142926196e-14,3.712360842e-14,5.908864666e-14,1.952374061e-13,9.422894081e-14,1.652048676e-13,1.235807079e-13,1.700563625e-13,3.787309917e-14
1.3984375,6.92806406e-14,1.001855934e-13,1.208357702e-13,1.220362527e-13,9.468004993e-14,7.005053925e-14,2.85014206e-14,6.211176489e-14,3.489272495e-14,2.556751573e-14,1.621475594e-13,4.600927172e-14,9.148684015e-14,1.816091159e-13,2.277204374e-13,2.612112154e-13,2.925787181e-13,1.969789262e-13,6.291995257e-14,9.289313943e-14,8.423502587e-15,1.804028554e-14,3.731139248e-14,3.052931257e-14,3.679834041e-14,6.000837494e-14,2.000763025e-13,9.445174772e-14,1.671647309e-13,1.264873197e-13,1.741517636e-13,3.930723102e-14
1.40625,6.410964509e-14,9.882131532e-14,1.130065636e-13,1.21733094e-13,9.502166579e-14,6.565257763e-14,2.886358005e-14,5.997615067e-14,3.412500899e-14,2.328029356e-14,1.54462025e-13,4.495686734e-14,8.885182045e-14,1.758744431e-13,2.209313912e-13,2.548062955e-13,2.946603777e-13,2.003881966e-13,6.290572942e-14,9.043192428e-14,8.443829509e-15,1.722111262e-14,3.777854841e-14,2.967503127e-14,3.64083879e-14,6.081438572e-14,2.039581683e-13,9.438161957e-14,1.68646255e-13,1.289466572e-13,1.775400684e-13,4.080182599e-14
1.4140625,5.908311798e-14,9.699751822e-14,1.060297202e-13,1.212683238e-13,9.521870913e-14,6.148880632e-14,2.950557658e-14,5.776958425e-14,3.331884136e-14,2.13023221e-14,1.469117806e-13,4.403360727e-14,8.595164719e-14,1.696548146e-13,2.138644241e-13,2.472736115e-13,2.950361211e-13,2.028864513e-13,6.271016079e-14,8.81254031e-14,8.54683539e-15,1.637852276e-14,3.808846917e-14,2.88697866e-14,3.586924496e-14,6.149130451e-14,2.069115143e-13,9.391128574e-14,1.69593556e-13,1.307541494e-13,1.80103251e-13,4.249082678e-14
1.421875,5.438957454e-14,9.472662821e-14,9.967823319e-14,1.207108442e-13,9.53699019e-14,5.768711215e-14,3.032743972e-14,5.541219412e-14,3.248952701e-14,1.937753527e-14,1.396953769e-13,4.324954911e-14,8.310272443e-14,1.633784504e-13,2.073753962e-13,2.398126891e-13,2.944470954e-13,2.046927653e-13,6.240187306e-14,8.581308238e-14,8.662798547e-15,1.553506349e-14,3.82686539e-14,2.816317176e-14,3.525078125e-14,6.213263221e-14,2.092118174e-13,9.350019605e-14,1.700577827e-13,1.320117201e-13,1.820505242e-13,4.424950612e-14
1.4296875,5.03971698e-14,9.277946072e-14,9.42442473e-14,1.203693044e-13,9.56633709e-14,5.426417553e-14,3.140263966e-14,5.296282926e-14,3.182726083e-14,1.761217991e-14,1.333753589e-13,4.272359691e-14,8.06647782e-14,1.578458317e-13,2.022997725e-13,2.333076053e-13,2.937313849e-13,2.060453553e-13,6.203935375e-14,8.368589558e-14,8.768772692e-15,1.474888252e-14,3.848870368e-14,2.753357674e-14,3.487239258e-14,6.27775138e-14,2.112636865e-13,9.372373241e-14,1.707022482e-13,1.332544295e-13,1.834865285e-13,4.604153682e-14
1.4375,4.712498477e-14,9.115920934e-14,9.008465218e-14,1.20201401e-13,9.615185442e-14,5.141408288e-14,3.290840297e-14,5.058734489e-14,3.143680514e-14,1.614059645e-14,1.281003372e-13,4.228757354e-14,7.861498234e-14,1.531184745e-13,1.985772393e-13,2.273555725e-13,2.926484579e-13,2.067128367e-13,6.159121415e-14,8.179556596e-14,8.904266471e-15,1.405140311e-14,3.873317843e-14,2.698169154e-14,3.478119541e-14,6.348975961e-14,2.130442554e-13,9.462718604e-14,1.718535609e-13,1.345406766e-13,1.84398184e-13,4.806089421e-14
1.4453125,4.449659491e-14,8.922362324e-14,8.710578866e-14,1.199547322e-13,9.675083677e-14,4.922653063e-14,3.48194432e-14,4.824661258e-14,3.121296601e-14,1.48044292e-14,1.235324179e-13,4.187920174e-14,7.679905911e-14,1.488954877e-13,1.960740363e-13,2.216068869e-13,2.908883309e-13,2.065523685e-13,6.103870614e-14,8.003988509e-14,9.04000152e-15,1.341119166e-14,3.894504017e-14,2.6642443e-14,3.478636983e-14,6.430501482e-14,2.142153883e-13,9.613182168e-14,1.728534325e-13,1.355309813e-13,1.848441065e-13,5.019762781e-14
1.453125,4.251007269e-14,8.73669002e-14,8.519124822e-14,1.197407871e-13,9.730548966e-14,4.773516166e-14,3.716342014e-14,4.583909886e-14,3.112637559e-14,1.366085966e-14,1.200353282e-13,4.16286907e-14,7.538611022e-14,1.455054492e-13,1.952326651e-13,2.161165439e-13,2.887793898e-13,2.058960704e-13,6.04891172e-14,7.84162633e-14,9.148936792e-15,1.282328833e-14,3.91409531e-14,2.65074002e-14,3.501396964e-14,6.503860648e-14,2.149878206e-13,9.871665496e-14,1.740442269e-13,1.365405866e-13,1.846040225e-13,5.222914646e-14
1.4609375,4.104752928e-14,8.55881218e-14,8.418741821e-14,1.192836298e-13,9.796380152e-14,4.6949009e-14,3.997086777e-14,4.337757095e-14,3.118680926e-14,1.274918715e-14,1.175366189e-13,4.129710421e-14,7.443450112e-14,1.428813747e-13,1.95740445e-13,2.109103079e-13,2.865974467e-13,2.04704968e-13,5.994460359e-14,7.709840522e-14,9.275283392e-15,1.227912098e-14,3.932579376e-14,2.64469215e-14,3.567664687e-14,6.589823109e-14,2.155552242e-13,1.024369104e-13,1.758437758e-13,1.375949046e-13,1.839160615e-13,5.437396865e-14
1.46875,4.008640296e-14,8.360482602e-14,8.42434637e-14,1.186041733e-13,9.884313015e-14,4.689876746e-14,4.322034858e-14,4.090475375e-14,3.140510317e-14,1.203492883e-14,1.15810443e-13,4.081057079e-14,7.380717853e-14,1.408556514e-13,1.973006679e-13,2.059931775e-13,2.842280959e-13,2.026948936e-13,5.933268775e-14,7.618106361e-14,9.40932565e-15,1.17979617e-14,3.952579901e-14,2.646188366e-14,3.669004558e-14,6.714009871e-14,2.155692046e-13,1.07044392e-13,1.775857915e-13,1.38477917e-13,1.832004483e-13,5.676513676e-14
1.4765625,3.968135782e-14,8.182721603e-14,8.55072587e-14,1.182016174e-13,9.97469626e-14,4.755022648e-14,4.680746124e-14,3.849387673e-14,3.183080613e-14,1.162480392e-14,1.151103459e-13,4.034363377e-14,7.358625395e-14,1.399418237e-13,2.005610033e-13,2.014914436e-13,2.817151384e-13,2.001006813e-13,5.872338495e-14,7.560899571e-14,9.478264781e-15,1.142378941e-14,3.98259471e-14,2.656671918e-14,3.808438119e-14,6.848353879e-14,2.150912272e-13,1.129360533e-13,1.797106859e-13,1.396462652e-13,1.821483009e-13,5.914877748e-14
1.484375,3.990021168e-14,8.004087922e-14,8.786798203e-14,1.177386508e-13,1.005112969e-13,4.887115851e-14,5.060617276e-14,3.612519116e-14,3.249081981e-14,1.146496633e-14,1.15063671e-13,3.977677774e-14,7.385777638e-14,1.401329348e-13,2.054140595e-13,1.974537144e-13,2.791585062e-13,1.9697022e-13,5.809968883e-14,7.54844911e-14,9.452911299e-15,1.115753162e-14,4.027488971e-14,2.674768152e-14,3.993427504e-14,6.977343707e-14,2.141043526e-13,1.203003366e-13,1.822819908e-13,1.41230182e-13,1.80564602e-13,6.14098933e-14
1.4921875,4.08316147e-14,7.808516393e-14,9.150415746e-14,1.171718138e-13,1.012086859e-13,5.113398185e-14,5.47028992e-14,3.37493299e-14,3.334367305e-14,1.151333911e-14,1.158981203e-13,3.926539383e-14,7.458223505e-14,1.413867208e-13,2.120074684e-13,1.942512407e-13,2.769757958e-13,1.932835355e-13,5.747329135e-14,7.610899542e-14,9.364274272e-15,1.098727539e-14,4.079632587e-14,2.707222489e-14,4.232255433e-14,7.117211341e-14,2.126495066e-13,1.294849979e-13,1.850678169e-13,1.433020482e-13,1.786983089e-13,6.359697207e-14
1.5,4.24110653e-14,7.609519153e-14,9.623244734e-14,1.168108522e-13,1.022085125e-13,5.423242326e-14,5.90710209e-14,3.15009416e-14,3.426981358e-14,1.180534709e-14,1.181118955e-13,3.908775929e-14,7.571478687e-14,1.439365157e-13,2.209862887e-13,1.925907465e-13,2.760426459e-13,1.89524534e-13,5.69802555e-14,7.778265144e-14,9.244618328e-15,1.09154471e-14,4.142547829e-14,2.753041556e-14,4.553579565e-14,7.290193995e-14,2.113661738e-13,1.40838449e-13,1.888322301e-13,1.460178236e-13,1.769069435e-13,6.585163784e-14
1.5078125,4.468482815e-14,7.412642907e-14,1.016262132e-13,1.166978014e-13,1.036689004e-13,5.769957753e-14,6.364431775e-14,2.949927086e-14,3.530270391e-14,1.233352664e-14,1.216003e-13,3.92840084e-14,7.729327859e-14,1.478463741e-13,2.324312164e-13,1.927253246e-13,2.766298904e-13,1.858504401e-13,5.663999081e-14,8.041979069e-14,9.086293564e-15,1.099692299e-14,4.223540979e-14,2.804360113e-14,4.95701094e-14,7.504857276e-14,2.104141724e-13,1.540315558e-13,1.934551654e-13,1.494856101e-13,1.75513368e-13,6.816409314e-14
1.515625,4.773885627e-14,7.263119349e-14,1.076518023e-13,1.171111725e-13,1.053428235e-13,6.155047862e-14,6.844586076e-14,2.773571368e-14,3.653946839e-14,1.305316016e-14,1.263645537e-13,3.987139981e-14,7.936373205e-14,1.533485742e-13,2.467496082e-13,1.94737486e-13,2.783682367e-13,1.821128528e-13,5.646624493e-14,8.378964142e-14,8.923875257e-15,1.128160072e-14,4.30687309e-14,2.860839496e-14,5.417708538e-14,7.73955079e-14,2.094707824e-13,1.690414301e-13,1.98604499e-13,1.541695454e-13,1.744230471e-13,7.030434168e-14
1.5234375,5.159231015e-14,7.170146435e-14,1.143791857e-13,1.178652547e-13,1.07267063e-13,6.604047984e-14,7.340987845e-14,2.622059211e-14,3.798438834e-14,1.38520765e-14,1.321768894e-13,4.095230486e-14,8.191728162e-14,1.606334508e-13,2.641231806e-13,1.990710123e-13,2.813830178e-13,1.786562292e-13,5.654273771e-14,8.780340161e-14,8.799953733e-15,1.178777511e-14,4.3910264e-14,2.916150423e-14,5.929605285e-14,7.986777698e-14,2.083908645e-13,1.860225321e-13,2.041960717e-13,1.601494759e-13,1.737225282e-13,7.236749027e-14
1.53125,5.642320206e-14,7.147095798e-14,1.218142102e-13,1.19013062e-13,1.098047661e-13,7.111334621e-14,7.866438259e-14,2.501241516e-14,3.968245582e-14,1.478111684e-14,1.394423418e-13,4.274746069e-14,8.505425729e-14,1.699740588e-13,2.848223559e-13,2.06347624e-13,2.866918528e-13,1.760848024e-13,5.696544625e-14,9.24968034e-14,8.666654679e-15,1.256048723e-14,4.495212949e-14,2.964543964e-14,6.508720473e-14,8.279049315e-14,2.076677907e-13,2.051296829e-13,2.104476608e-13,1.675176442e-13,1.740121503e-13,7.457944364e-14
1.5390625,6.231308616e-14,7.216736793e-14,1.295104638e-13,1.208629646e-13,1.129688337e-13,7.649042217e-14,8.418288451e-14,2.416692122e-14,4.160183924e-14,1.585800121e-14,1.485565931e-13,4.518191133e-14,8.879537975e-14,1.813436331e-13,3.091128693e-13,2.165981593e-13,2.946186583e-13,1.745469288e-13,5.775853959e-14,9.792167983e-14,8.507089135e-15,1.363724922e-14,4.62202815e-14,3.011776708e-14,7.158484185e-14,8.627596373e-14,2.07601706e-13,2.262390612e-13,2.176268666e-13,1.766220363e-13,1.753943067e-13,7.687441914e-14
1.546875,6.926186108e-14,7.361972687e-14,1.372660301e-13,1.231625045e-13,1.164107285e-13,8.218943458e-14,8.960479605e-14,2.367212693e-14,4.373441609e-14,1.695931746e-14,1.588537227e-13,4.821890736e-14,9.301949595e-14,1.943884225e-13,3.362679737e-13,2.295175256e-13,3.04395571e-13,1.738920314e-13,5.893403496e-14,1.036269283e-13,8.361183096e-15,1.506633714e-14,4.771397282e-14,3.057687811e-14,7.851877451e-14,8.995579389e-14,2.076124665e-13,2.489192118e-13,2.250442128e-13,1.877353694e-13,1.774781518e-13,7.913629341e-14
1.5546875,7.714545466e-14,7.580509714e-14,1.453271702e-13,1.259076822e-13,1.200772031e-13,8.829219676e-14,9.482858358e-14,2.350996131e-14,4.611920298e-14,1.801665368e-14,1.699313247e-13,5.186383687e-14,9.758309562e-14,2.087686441e-13,3.657366067e-13,2.452255479e-13,3.156876321e-13,1.73985653e-13,6.048971383e-14,1.093264327e-13,8.244186035e-15,1.685517358e-14,4.955250264e-14,3.101055619e-14,8.574395271e-14,9.368964122e-14,2.075907865e-13,2.727423524e-13,2.324780011e-13,2.007741204e-13,1.802942938e-13,8.154438532e-14
1.5625,8.581812541e-14,7.874115596e-14,1.536588368e-13,1.290521109e-13,1.240533101e-13,9.471949114e-14,9.975412966e-14,2.370518313e-14,4.873406724e-14,1.902451254e-14,1.817524027e-13,5.601613424e-14,1.023304441e-13,2.24195307e-13,3.974361186e-13,2.638511095e-13,3.284238869e-13,1.745962295e-13,6.23046004e-14,1.151636119e-13,8.142764862e-15,1.899169555e-14,5.178685821e-14,3.149020309e-14,9.314104232e-14,9.767492598e-14,2.075679243e-13,2.969992294e-13,2.39871519e-13,2.152555463e-13,1.841499387e-13,8.423665235e-14
1.5703125,9.536744792e-14,8.247114942e-14,1.621425499e-13,1.326620602e-13,1.281324472e-13,1.013569986e-13,1.039847207e-13,2.428054883e-14,5.158654388e-14,2.010152495e-14,1.943327713e-13,6.091336466e-14,1.07174757e-13,2.408109575e-13,4.313327253e-13,2.855876976e-13,3.425810105e-13,1.758572046e-13,6.444281568e-14,1.210726251e-13,8.071456103e-15,2.153019877e-14,5.442080398e-14,3.202427781e-14,1.006560033e-13,1.018051899e-13,2.072954716e-13,3.216403283e-13,2.469220083e-13,2.313774622e-13,1.88943966e-13,8.700583006e-14
1.578125,1.055331632e-13,8.67740497e-14,1.702579413e-13,1.367951679e-13,1.321782398e-13,1.077727715e-13,1.073231863e-13,2.52824162e-14,5.466461866e-14,2.120234668e-14,2.07079604e-13,6.6345513e-14,1.120145362e-13,2.57962404e-13,4.662427035e-13,3.09933775e-13,3.57692421e-13,1.779602351e-13,6.703377136e-14,1.270704886e-13,8.093121067e-15,2.452149798e-14,5.760547687e-14,3.254163244e-14,1.083571733e-13,1.057890353e-13,2.068929555e-13,3.462328577e-13,2.536470467e-13,2.491563155e-13,1.942646815e-13,8.989787709e-14
1.5859375,1.159189033e-13,9.142341393e-14,1.776658853e-13,1.410739719e-13,1.362188999e-13,1.137021418e-13,1.099022089e-13,2.670750131e-14,5.803172963e-14,2.216600303e-14,2.190595689e-13,7.203468344e-14,1.168384702e-13,2.747013507e-13,5.00310622e-13,3.360309674e-13,3.727983562e-13,1.806359406e-13,7.011574459e-14,1.329844396e-13,8.226365084e-15,2.80288474e-14,6.140095128e-14,3.3027146e-14,1.159396734e-13,1.096425924e-13,2.064183325e-13,3.696036601e-13,2.597932927e-13,2.684017502e-13,2.001099335e-13,9.302521601e-14
1.59375,1.263732605e-13,9.662553948e-14,1.842339147e-13,1.456900133e-13,1.40241676e-13,1.188967692e-13,1.117589434e-13,2.846805709e-14,6.164134178e-14,2.301156805e-14,2.302324655e-13,7.812747276e-14,1.215524132e-13,2.909275409e-13,5.33080932e-13,3.641636465e-13,3.87720289e-13,1.837139555e-13,7.370198087e-14,1.386390952e-13,8.47553735e-15,3.201981558e-14,6.567141521e-14,3.347936059e-14,1.231250813e-13,1.135157008e-13,2.057970081e-13,3.914385086e-13,2.65163837e-13,2.894320657e-13,2.067586609e-13,9.615926585e-14
1.6015625,1.366871e-13,1.02235159e-13,1.892245013e-13,1.506070057e-13,1.440936846e-13,1.229356572e-13,1.126852257e-13,3.05527992e-14,6.539919439e-14,2.373984674e-14,2.404632322e-13,8.439692143e-14,1.259546315e-13,3.059664255e-13,5.639353029e-13,3.94011157e-13,4.020049124e-13,1.870429965e-13,7.764706673e-14,1.44090627e-13,8.860146693e-15,3.648791681e-14,7.057042318e-14,3.380444422e-14,1.298107001e-13,1.172196599e-13,2.047614661e-13,4.111128831e-13,2.693686411e-13,3.118540117e-13,2.138493021e-13,9.919543925e-14
1.609375,1.469100898e-13,1.081078272e-13,1.92620148e-13,1.553662842e-13,1.476598909e-13,1.259988545e-13,1.126754501e-13,3.302625065e-14,6.952342323e-14,2.433717583e-14,2.49535596e-13,9.080507823e-14,1.302412827e-13,3.194303857e-13,5.920664954e-13,4.247777226e-13,4.151469773e-13,1.905026159e-13,8.201984101e-14,1.491453137e-13,9.394642551e-15,4.156979228e-14,7.626667599e-14,3.40148808e-14,1.358723037e-13,1.205768279e-13,2.032234933e-13,4.281714299e-13,2.722945923e-13,3.354260599e-13,2.209842536e-13,1.021433808e-13
1.6171875,1.569568173e-13,1.145155091e-13,1.946017249e-13,1.60225243e-13,1.511587272e-13,1.280514127e-13,1.119396687e-13,3.585000713e-14,7.405412835e-14,2.486856348e-14,2.575223444e-13,9.730100814e-14,1.345149266e-13,3.316405174e-13,6.175790599e-13,4.564866664e-13,4.274477616e-13,1.941764513e-13,8.688261335e-14,1.538913417e-13,1.011137136e-14,4.716971329e-14,8.254525036e-14,3.420085732e-14,1.413377206e-13,1.237803257e-13,2.014470707e-13,4.425613863e-13,2.745508081e-13,3.603883017e-13,2.285046003e-13,1.049975272e-13
1.625,1.664043283e-13,1.213561307e-13,1.946815392e-13,1.650740565e-13,1.545475115e-13,1.288750545e-13,1.103642792e-13,3.894664368e-14,7.88794266e-14,2.536842483e-14,2.64039997e-13,1.034260965e-13,1.38475419e-13,3.419468574e-13,6.396685778e-13,4.881754525e-13,4.380116756e-13,1.977780086e-13,9.200660372e-14,1.581980165e-13,1.100010122e-14,5.321215098e-14,8.943588977e-14,3.427966311e-14,1.459473718e-13,1.267273519e-13,1.991797122e-13,4.531908133e-13,2.757829372e-13,3.863913533e-13,2.362493853e-13,1.077142067e-13
1.6328125,1.753782191e-13,1.284373043e-13,1.932507238e-13,1.69230831e-13,1.574368193e-13,1.289159959e-13,1.077931972e-13,4.236087536e-14,8.418648603e-14,2.582257649e-14,2.690262519e-13,1.092203451e-13,1.421443897e-13,3.498824311e-13,6.57389787e-13,5.182288693e-13,4.457576168e-13,2.008844882e-13,9.737825899e-14,1.614532448e-13,1.204913849e-14,5.979739327e-14,9.710358296e-14,3.42281619e-14,1.493830682e-13,1.29070194e-13,1.96214516e-13,4.59656678e-13,2.754029985e-13,4.131726053e-13,2.43491236e-13,1.102356949e-13
1.640625,1.840135881e-13,1.359822081e-13,1.907567267e-13,1.727053253e-13,1.59858438e-13,1.281202188e-13,1.044150465e-13,4.611356199e-14,9.008634945e-14,2.621017527e-14,2.724632495e-13,1.148203232e-13,1.457437996e-13,3.559403886e-13,6.709321717e-13,5.459888649e-13,4.511721948e-13,2.035649348e-13,1.030708499e-13,1.63754397e-13,1.32905804e-14,6.683998441e-14,1.053172616e-13,3.413857139e-14,1.517700063e-13,1.307966654e-13,1.926726362e-13,4.62422143e-13,2.738776909e-13,4.409353372e-13,2.501257562e-13,1.126443746e-13
1.6484375,1.921940298e-13,1.440613999e-13,1.869321915e-13,1.758291954e-13,1.61938962e-13,1.261146234e-13,1.005826128e-13,5.013578198e-14,9.655782696e-14,2.648189788e-14,2.74101295e-13,1.200164957e-13,1.491607668e-13,3.603501412e-13,6.803634466e-13,5.713479218e-13,4.545104368e-13,2.060861756e-13,1.092076345e-13,1.653498595e-13,1.475416438e-14,7.432906339e-14,1.140420734e-13,3.408843767e-14,1.53095858e-13,1.319987723e-13,1.884629085e-13,4.61333067e-13,2.711978129e-13,4.703208267e-13,2.563508264e-13,1.148732302e-13
1.65625,2.000561003e-13,1.527988814e-13,1.819672234e-13,1.786754534e-13,1.636056369e-13,1.232128011e-13,9.647805381e-14,5.436180287e-14,1.036227792e-13,2.665985517e-14,2.743895315e-13,1.248237176e-13,1.523929556e-13,3.632443208e-13,6.855507386e-13,5.942036824e-13,4.553776656e-13,2.084614061e-13,1.159060326e-13,1.660096846e-13,1.644730228e-14,8.227548292e-14,1.233979968e-13,3.410891923e-14,1.531533306e-13,1.328509198e-13,1.837853194e-13,4.56356168e-13,2.673031404e-13,5.018387525e-13,2.622728855e-13,1.168621291e-13
1.6640625,2.072937159e-13,1.621965963e-13,1.758270063e-13,1.810902606e-13,1.648784596e-13,1.194784146e-13,9.20119371e-14,5.865889559e-14,1.111423254e-13,2.68438787e-14,2.732803204e-13,1.292123536e-13,1.556893877e-13,3.64540418e-13,6.860683591e-13,6.141168569e-13,4.536178933e-13,2.104975763e-13,1.229128681e-13,1.656248809e-13,1.83447175e-14,9.044620638e-14,1.329845539e-13,3.409490212e-14,1.519232572e-13,1.334461771e-13,1.788765454e-13,4.477399086e-13,2.62835497e-13,5.345976013e-13,2.677113672e-13,1.187108785e-13
1.671875,2.135621751e-13,1.718401743e-13,1.683004568e-13,1.830156629e-13,1.658050405e-13,1.146555785e-13,8.734421679e-14,6.290587271e-14,1.189851851e-13,2.710079999e-14,2.702369878e-13,1.329388625e-13,1.589669378e-13,3.638550603e-13,6.813678195e-13,6.304598441e-13,4.491675289e-13,2.120517979e-13,1.300395059e-13,1.643059752e-13,2.044457631e-14,9.862959844e-14,1.425039474e-13,3.406364248e-14,1.494897272e-13,1.335864165e-13,1.737304699e-13,4.35640819e-13,2.576791891e-13,5.675571765e-13,2.723513548e-13,1.20293863e-13
1.6796875,2.19019089e-13,1.819563361e-13,1.59749505e-13,1.848476065e-13,1.666159573e-13,1.09001926e-13,8.267563484e-14,6.708512769e-14,1.270842217e-13,2.756736826e-14,2.657537016e-13,1.360771469e-13,1.621036852e-13,3.61504551e-13,6.720304076e-13,6.433976883e-13,4.419899458e-13,2.131525878e-13,1.37308513e-13,1.622345308e-13,2.274327177e-14,1.066752798e-13,1.520240849e-13,3.40405005e-14,1.459845083e-13,1.334270401e-13,1.686983431e-13,4.202326348e-13,2.519125264e-13,6.007133398e-13,2.765011484e-13,1.216224539e-13
1.6875,2.236488749e-13,1.925512237e-13,1.5047244e-13,1.866219888e-13,1.674788234e-13,1.029476139e-13,7.78997621e-14,7.117875659e-14,1.352735428e-13,2.825632224e-14,2.605249067e-13,1.38779892e-13,1.652943172e-13,3.579247227e-13,6.587986348e-13,6.536793198e-13,4.321380115e-13,2.138625274e-13,1.446296808e-13,1.593366793e-13,2.52029502e-14,1.144901842e-13,1.613816918e-13,3.395854816e-14,1.414030211e-13,1.332144046e-13,1.640381995e-13,4.018134641e-13,2.460458621e-13,6.335095629e-13,2.801371418e-13,1.228860607e-13
1.6953125,2.27496944e-13,2.033385436e-13,1.408376464e-13,1.881067208e-13,1.681901815e-13,9.663926954e-14,7.30934668e-14,7.520172701e-14,1.435098498e-13,2.904321481e-14,2.547051683e-13,1.41029909e-13,1.686401884e-13,3.53382306e-13,6.419783314e-13,6.61026664e-13,4.198029137e-13,2.142056507e-13,1.519089397e-13,1.554533902e-13,2.780863422e-14,1.220303839e-13,1.703868573e-13,3.397851989e-14,1.357803592e-13,1.326968762e-13,1.595014726e-13,3.811471152e-13,2.399682036e-13,6.655414343e-13,2.827054773e-13,1.240234647e-13
1.703125,2.307211846e-13,2.14767177e-13,1.309906044e-13,1.895148658e-13,1.687929679e-13,9.009462305e-14,6.844545142e-14,7.925994227e-14,1.516951271e-13,2.994540871e-14,2.483285219e-13,1.428604266e-13,1.720873622e-13,3.484906587e-13,6.223280217e-13,6.645067569e-13,4.050309908e-13,2.14302657e-13,1.5916267e-13,1.507021693e-13,3.05385514e-14,1.291588831e-13,1.789329392e-13,3.417095441e-14,1.294709662e-13,1.318614023e-13,1.548798806e-13,3.586591446e-13,2.3391117e-13,6.974816279e-13,2.845488428e-13,1.2500416e-13
1.7109375,2.333256549e-13,2.263482841e-13,1.210212225e-13,1.906946135e-13,1.693746942e-13,8.357797931e-14,6.411155289e-14,8.34761285e-14,1.59561514e-13,3.085980223e-14,2.415353095e-13,1.441282874e-13,1.755323746e-13,3.435306727e-13,6.005536749e-13,6.644537984e-13,3.880658887e-13,2.142682843e-13,1.664734115e-13,1.449708073e-13,3.333573171e-14,1.357049322e-13,1.868159083e-13,3.447600011e-14,1.226488286e-13,1.309679214e-13,1.50326873e-13,3.34539398e-13,2.278283298e-13,7.289743619e-13,2.858562288e-13,1.25830697e-13
1.71875,2.351623384e-13,2.37269536e-13,1.113320222e-13,1.912127498e-13,1.696250284e-13,7.725004643e-14,6.027067851e-14,8.783596504e-14,1.670196395e-13,3.163908656e-14,2.342065459e-13,1.445077177e-13,1.787815634e-13,3.382088618e-13,5.768418562e-13,6.613761541e-13,3.697606163e-13,2.139321777e-13,1.737198059e-13,1.384102119e-13,3.611889387e-14,1.415042255e-13,1.938165301e-13,3.492674031e-14,1.153706809e-13,1.299437911e-13,1.461046863e-13,3.09724483e-13,2.214344942e-13,7.58838746e-13,2.860806617e-13,1.265209015e-13
1.7265625,2.3595432e-13,2.476386688e-13,1.016937508e-13,1.911741426e-13,1.694720004e-13,7.084257526e-14,5.700700287e-14,9.221774251e-14,1.740668449e-13,3.236404448e-14,2.257402071e-13,1.440206001e-13,1.816879592e-13,3.322087813e-13,5.510228815e-13,6.544585832e-13,3.503393083e-13,2.13019396e-13,1.806389708e-13,1.31728453e-13,3.885801952e-14,1.465685458e-13,1.998165309e-13,3.552954176e-14,1.078428933e-13,1.287710793e-13,1.421125517e-13,2.845407978e-13,2.151269463e-13,7.867669663e-13,2.852244563e-13,1.272198816e-13
1.734375,2.358371267e-13,2.571106005e-13,9.217587083e-14,1.907932484e-13,1.690734953e-13,6.441191229e-14,5.439269882e-14,9.671666009e-14,1.805207836e-13,3.304369167e-14,2.161859698e-13,1.429957314e-13,1.84156678e-13,3.257470371e-13,5.236024106e-13,6.436463736e-13,3.295426655e-13,2.115826371e-13,1.872357093e-13,1.24979069e-13,4.15766972e-14,1.509261226e-13,2.048474552e-13,3.637301625e-14,1.001704239e-13,1.276187822e-13,1.381716256e-13,2.589912025e-13,2.087616041e-13,8.125265658e-13,2.834723049e-13,1.279000306e-13
1.7421875,2.350230066e-13,2.655756756e-13,8.327243807e-14,1.901261336e-13,1.686581455e-13,5.821649038e-14,5.256195795e-14,1.015177792e-13,1.860123686e-13,3.363386287e-14,2.063672625e-13,1.415396607e-13,1.861773662e-13,3.194719596e-13,4.963367953e-13,6.303540592e-13,3.081489454e-13,2.098787273e-13,1.934522929e-13,1.180178429e-13,4.420763872e-14,1.542004238e-13,2.086147576e-13,3.750965751e-14,9.25972078e-14,1.267346362e-13,1.346024303e-13,2.340189745e-13,2.023035537e-13,8.35287974e-13,2.812325587e-13,1.287048461e-13
1.75,2.334545637e-13,2.73519959e-13,7.488781305e-14,1.894131707e-13,1.686807365e-13,5.226066008e-14,5.164410865e-14,1.065103041e-13,1.904243431e-13,3.421863272e-14,1.966883232e-13,1.398139687e-13,1.880325993e-13,3.13906079e-13,4.70396529e-13,6.156588676e-13,2.873910052e-13,2.081060753e-13,1.990845412e-13,1.113739198e-13,4.669107368e-14,1.562307977e-13,2.10676786e-13,3.892219573e-14,8.534903705e-14,1.266022873e-13,1.31782528e-13,2.103133953e-13,1.965030467e-13,8.546461271e-13,2.792122121e-13,1.30031402e-13
1.7578125,2.313923913e-13,2.808758341e-13,6.724030579e-14,1.888016852e-13,1.691944152e-13,4.668943484e-14,5.159552872e-14,1.11613336e-13,1.93942423e-13,3.484792633e-14,1.873052286e-13,1.381945744e-13,1.89828803e-13,3.093763388e-13,4.458762825e-13,5.997824519e-13,2.673649808e-13,2.062812199e-13,2.040687891e-13,1.052863971e-13,4.903900689e-14,1.572463218e-13,2.111500816e-13,4.069627945e-14,7.840084873e-14,1.272561294e-13,1.295825232e-13,1.880087673e-13,1.911895896e-13,8.703343472e-13,2.772387176e-13,1.317360866e-13
1.765625,2.289888318e-13,2.875572738e-13,6.062517051e-14,1.883098688e-13,1.700793341e-13,4.167301008e-14,5.236525774e-14,1.169571692e-13,1.964693432e-13,3.558851729e-14,1.78598368e-13,1.367097882e-13,1.912522515e-13,3.059977843e-13,4.231481212e-13,5.825352775e-13,2.474377664e-13,2.041934434e-13,2.082175004e-13,9.926264022e-14,5.117663302e-14,1.571259962e-13,2.101676653e-13,4.28377339e-14,7.193449981e-14,1.282925598e-13,1.277880567e-13,1.671212999e-13,1.859032229e-13,8.815799587e-13,2.750577612e-13,1.3353112e-13
1.7734375,2.26002958e-13,2.935243573e-13,5.482127309e-14,1.880061751e-13,1.71574566e-13,3.711924924e-14,5.402906286e-14,1.224392546e-13,1.978105998e-13,3.643379292e-14,1.70756513e-13,1.352248638e-13,1.922022077e-13,3.036853877e-13,4.027048954e-13,5.642464307e-13,2.279057628e-13,2.01843635e-13,2.114295118e-13,9.304199649e-14,5.30415728e-14,1.55822723e-13,2.076934258e-13,4.529070721e-14,6.616883389e-14,1.298333746e-13,1.264817552e-13,1.475938451e-13,1.809259837e-13,8.882269404e-13,2.730580693e-13,1.356006404e-13
1.78125,2.223176999e-13,2.982244339e-13,4.97262581e-14,1.877350759e-13,1.735395188e-13,3.285673443e-14,5.657196801e-14,1.279946358e-13,1.979578414e-13,3.716614409e-14,1.636525015e-13,1.336333137e-13,1.925427174e-13,3.021645829e-13,3.844943848e-13,5.454981199e-13,2.093401978e-13,1.992814568e-13,2.137487994e-13,8.691637258e-14,5.46422324e-14,1.536188802e-13,2.040909597e-13,4.808560219e-14,6.107835748e-14,1.319474967e-13,1.256192893e-13,1.294412159e-13,1.761294763e-13,8.905755972e-13,2.712614287e-13,1.378866404e-13
1.7890625,2.178721986e-13,3.012692067e-13,4.551592802e-14,1.875678163e-13,1.756449558e-13,2.903706248e-14,5.999250778e-14,1.338211152e-13,1.968522322e-13,3.778862172e-14,1.571888823e-13,1.317729962e-13,1.918454004e-13,3.009803167e-13,3.681189341e-13,5.261137021e-13,1.914700011e-13,1.961808904e-13,2.150337108e-13,8.08246327e-14,5.591570435e-14,1.504742362e-13,1.996261821e-13,5.127709814e-14,5.671744919e-14,1.343446008e-13,1.249398991e-13,1.128037417e-13,1.712011133e-13,8.885195141e-13,2.695461476e-13,1.400961551e-13
1.796875,2.127505855e-13,3.030115051e-13,4.229496646e-14,1.874917438e-13,1.780311088e-13,2.588616012e-14,6.419684738e-14,1.397965964e-13,1.944122871e-13,3.842412047e-14,1.512601708e-13,1.297297782e-13,1.900311352e-13,3.001187139e-13,3.538281772e-13,5.063498188e-13,1.742401937e-13,1.925137252e-13,2.153802027e-13,7.457815613e-14,5.678903276e-14,1.461608293e-13,1.940510137e-13,5.487845029e-14,5.316767173e-14,1.372695555e-13,1.243600097e-13,9.786663317e-14,1.660999471e-13,8.823639073e-13,2.682623772e-13,1.423027032e-13
1.8046875,2.070918199e-13,3.035426921e-13,3.984207781e-14,1.86984225e-13,1.808361666e-13,2.317537817e-14,6.891414437e-14,1.458667048e-13,1.906592052e-13,3.898648972e-14,1.457078832e-13,1.2759551e-13,1.872769932e-13,2.999698252e-13,3.425934699e-13,4.870121669e-13,1.582074213e-13,1.886491018e-13,2.150104955e-13,6.857910082e-14,5.725484557e-14,1.407504887e-13,1.872675307e-13,5.874073547e-14,5.03616806e-14,1.410614978e-13,1.2400369e-13,8.450802988e-14,1.608770521e-13,8.728129077e-13,2.677286921e-13,1.447005312e-13
