"Time","Fp1","AF3","F7","F3","FC1","FC5","T7","C3","CP1","CP5","P7","P3","Pz","PO3","O1","Oz","O2","PO4","P4","P8","CP6","CP2","C4","T8","FC6","FC2","F4","F8","AF4","Fp2","Fz","Cz"
0.0078125,2.797518772e-14,6.189662629e-15,1.949337649e-14,3.271923597e-14,5.623173858e-14,3.993546853e-14,1.395935358e-13,4.985164539e-14,2.0353572e-14,1.127890409e-14,1.36202607e-13,4.536542239e-14,1.025835863e-13,6.268628016e-14,5.90943595e-14,7.670435981e-14,4.117137743e-13,4.233845748e-13,2.921386771e-14,3.249993471e-13,8.789284734e-14,1.381091307e-14,2.658007904e-14,4.05569568e-13,9.229301618e-14,4.324451274e-14,2.523446807e-13,7.413606068e-14,1.172565082e-14,8.553060333e-14,2.122897894e-14,2.687075053e-14
0.015625,3.424527878e-14,7.690976341e-15,2.147664718e-14,3.573054196e-14,6.245634591e-14,3.968800277e-14,1.584651049e-13,5.221116935e-14,2.245841546e-14,1.535206966e-14,1.556558496e-13,5.516155007e-14,1.415442383e-13,7.280783737e-14,7.293554387e-14,8.142198749e-14,4.284388233e-13,4.510452809e-13,3.094635814e-14,3.526141167e-13,9.549783827e-14,1.625314014e-14,3.070771246e-14,4.412259326e-13,1.067879155e-13,4.885842865e-14,2.613184681e-13,8.706183637e-14,1.478254255e-14,1.210611232e-13,2.46052879e-14,3.186516376e-14
0.0234375,4.04937517e-14,9.65453654e-15,2.392016739e-14,3.819452376e-14,6.849364402e-14,3.837666933e-14,1.798844291e-13,5.277691952e-14,2.405446302e-14,2.086603901e-14,1.765005678e-13,6.620811542e-14,1.916026362e-13,8.596349579e-14,8.917724176e-14,8.444324081e-14,4.344181477e-13,4.683084785e-13,3.274101071e-14,3.800768874e-13,1.023033111e-13,1.897131218e-14,3.471657467e-14,4.706816257e-13,1.216580984e-13,5.470560835e-14,2.636967109e-13,1.023386484e-13,1.850027409e-14,1.664508155e-13,2.84808955e-14,3.733774751e-14
0.03125,4.613510724e-14,1.238256921e-14,2.705753876e-14,4.039649415e-14,7.508249999e-14,3.66678022e-14,2.053135534e-13,5.197821215e-14,2.525379873e-14,2.806018914e-14,1.989289671e-13,7.868816168e-14,2.522285898e-13,1.027646186e-13,1.079008158e-13,8.696882118e-14,4.345475345e-13,4.734239138e-13,3.486162232e-14,4.078230947e-13,1.082052143e-13,2.180383049e-14,3.851095136e-14,4.931219431e-13,1.366835851e-13,6.155161432e-14,2.596764707e-13,1.193237167e-13,2.307002937e-14,2.215684301e-13,3.317462896e-14,4.326480889e-14
0.0390625,5.111863989e-14,1.60688557e-14,3.154055443e-14,4.267119824e-14,8.325599484e-14,3.564544899e-14,2.353813273e-13,5.057178689e-14,2.654964479e-14,3.698538537e-14,2.228722883e-13,9.333739207e-14,3.19309519e-13,1.242892796e-13,1.286838764e-13,9.014513337e-14,4.367978178e-13,4.656248111e-13,3.742428559e-14,4.357089369e-13,1.130750211e-13,2.484253611e-14,4.175238111e-14,5.088632159e-13,1.505932136e-13,6.959475132e-14,2.514729943e-13,1.38571394e-13,2.863664524e-14,2.841234972e-13,3.876873571e-14,4.985908278e-14
0.046875,5.563903136e-14,2.099234694e-14,3.784774666e-14,4.553509035e-14,9.343634736e-14,3.602784601e-14,2.718785991e-13,4.89031335e-14,2.81286072e-14,4.785701169e-14,2.483136798e-13,1.105739743e-13,3.903239571e-13,1.519190928e-13,1.524172877e-13,9.45225175e-14,4.450144832e-13,4.470109113e-13,4.052608008e-14,4.610343163e-13,1.164450018e-13,2.821911284e-14,4.445444412e-14,5.195731571e-13,1.634269469e-13,7.883949753e-14,2.409838143e-13,1.587553029e-13,3.557484316e-14,3.482884344e-13,4.541939011e-14,5.721620905e-14
0.0546875,6.000075756e-14,2.752428e-14,4.637112731e-14,4.963724426e-14,1.060896807e-13,3.797949668e-14,3.139435223e-13,4.743893614e-14,3.027253774e-14,6.061263036e-14,2.762081096e-13,1.306346516e-13,4.569933837e-13,1.851968056e-13,1.789731993e-13,1.016533749e-13,4.633228651e-13,4.211173354e-13,4.458114294e-14,4.814156879e-13,1.184548097e-13,3.196322453e-14,4.673243551e-14,5.268648432e-13,1.748111899e-13,8.924059303e-14,2.290553614e-13,1.796111591e-13,4.418174421e-14,4.09007121e-13,5.349415673e-14,6.512043181e-14
0.0625,6.55847681e-14,3.583213792e-14,5.751280087e-14,5.543347872e-14,1.21418965e-13,4.179366981e-14,3.60780828e-13,4.704384147e-14,3.339520059e-14,7.497146266e-14,3.062298679e-13,1.535946884e-13,5.110454373e-13,2.239531138e-13,2.072027638e-13,1.118002817e-13,4.93916193e-13,3.916472902e-13,4.901757302e-14,4.95556611e-13,1.191181938e-13,3.588438342e-14,4.859415374e-14,5.324820683e-13,1.834412219e-13,9.997905806e-14,2.161576162e-13,2.0057702e-13,5.443322958e-14,4.598101223e-13,6.297686325e-14,7.329103932e-14
0.0703125,7.330186608e-14,4.595522942e-14,7.178593832e-14,6.365151911e-14,1.394679612e-13,4.747954729e-14,4.097052165e-13,4.782629162e-14,3.745491456e-14,9.037989047e-14,3.379945523e-13,1.793434253e-13,5.436973455e-13,2.683521451e-13,2.369147251e-13,1.251217255e-13,5.340928815e-13,3.629234584e-13,5.363986604e-14,5.007754906e-13,1.186248298e-13,3.981097585e-14,5.018504009e-14,5.346837847e-13,1.894759858e-13,1.099525569e-13,2.031227315e-13,2.214401657e-13,6.641290914e-14,4.933689434e-13,7.359266808e-14,8.166145007e-14
0.078125,8.392399825e-14,5.82303044e-14,8.930999694e-14,7.478137936e-14,1.601863495e-13,5.447491087e-14,4.570051344e-13,4.957325826e-14,4.222943833e-14,1.065704132e-13,3.722144223e-13,2.07372252e-13,5.511916605e-13,3.169362824e-13,2.684439729e-13,1.428827309e-13,5.837843362e-13,3.378557424e-13,5.868286702e-14,4.98385742e-13,1.17337407e-13,4.360881552e-14,5.165084559e-14,5.339650322e-13,1.938187827e-13,1.190719736e-13,1.909251106e-13,2.443411047e-13,8.060708498e-14,5.082098213e-13,8.572140444e-14,9.043192177e-14
0.0859375,9.827853596e-14,7.240872302e-14,1.100487169e-13,8.859204836e-14,1.827695981e-13,6.206098649e-14,4.981270817e-13,5.217825502e-14,4.756950934e-14,1.228251204e-13,4.083646377e-13,2.364014742e-13,5.326097779e-13,3.667932045e-13,3.008615855e-13,1.64860131e-13,6.389999783e-13,3.187961768e-13,6.4023373e-14,4.892323751e-13,1.155793245e-13,4.728921067e-14,5.349180317e-14,5.279982122e-13,1.964524814e-13,1.269704756e-13,1.792449822e-13,2.70933369e-13,9.686526209e-14,5.042164283e-13,9.913586268e-14,9.93983876e-14
0.09375,1.173966662e-13,8.817899336e-14,1.338010406e-13,1.048254122e-13,2.054508744e-13,6.943163938e-14,5.293573098e-13,5.534590599e-14,5.356942767e-14,1.385351081e-13,4.452811948e-13,2.657108162e-13,4.921093646e-13,4.157352652e-13,3.341914853e-13,1.912489682e-13,6.953711928e-13,3.068969641e-13,6.919357497e-14,4.757987073e-13,1.132928981e-13,5.105983588e-14,5.595570035e-14,5.153373808e-13,1.979397324e-13,1.332385033e-13,1.694090433e-13,3.041736799e-13,1.155751879e-13,4.832033823e-13,1.13549118e-13,1.079817565e-13
0.1015625,1.408818632e-13,1.047057463e-13,1.596747694e-13,1.222518599e-13,2.258827854e-13,7.542054881e-14,5.477696954e-13,5.815580482e-14,6.007132518e-14,1.527579804e-13,4.805649103e-13,2.945158843e-13,4.394307145e-13,4.620357999e-13,3.67566976e-13,2.194702893e-13,7.437310955e-13,3.006259755e-13,7.370088589e-14,4.599521716e-13,1.108134547e-13,5.472162316e-14,5.894059521e-14,4.945530915e-13,1.98613483e-13,1.368066468e-13,1.616035711e-13,3.439680761e-13,1.362701066e-13,4.49411532e-13,1.275925564e-13,1.154431158e-13
0.109375,1.686889665e-13,1.209964788e-13,1.866578953e-13,1.397194789e-13,2.425324918e-13,7.962474212e-14,5.533870508e-13,6.010114313e-14,6.658124917e-14,1.646639526e-13,5.112100737e-13,3.211187718e-13,3.884553324e-13,5.03470808e-13,3.991690672e-13,2.497725749e-13,7.831847707e-13,2.994742008e-13,7.759410828e-14,4.444010475e-13,1.080085326e-13,5.77806763e-14,6.244207143e-14,4.644148383e-13,1.989555931e-13,1.378163336e-13,1.557164489e-13,3.919404156e-13,1.58187684e-13,4.100843967e-13,1.40615086e-13,1.214043319e-13
0.1171875,1.991474235e-13,1.357890766e-13,2.133875764e-13,1.55693167e-13,2.537757536e-13,8.191070632e-14,5.470341741e-13,6.091071667e-14,7.292547636e-14,1.741259797e-13,5.348722837e-13,3.437420284e-13,3.429432545e-13,5.371201997e-13,4.272565209e-13,2.804157307e-13,8.098347618e-13,3.022190845e-13,8.10034425e-14,4.309384715e-13,1.047503258e-13,6.033019406e-14,6.626870333e-14,4.278558046e-13,1.994582229e-13,1.366495616e-13,1.512439027e-13,4.444630424e-13,1.803004044e-13,3.670522411e-13,1.516597396e-13,1.25877473e-13
0.125,2.306891693e-13,1.483950365e-13,2.388957241e-13,1.691870534e-13,2.587155935e-13,8.272854824e-14,5.318848791e-13,6.04232306e-14,7.869875366e-14,1.805398419e-13,5.478884418e-13,3.607087408e-13,3.062738566e-13,5.605291558e-13,4.498663832e-13,3.121773101e-13,8.29242433e-13,3.081672885e-13,8.463247446e-14,4.220815072e-13,1.005420841e-13,6.253766643e-14,6.993146671e-14,3.886317976e-13,1.99206458e-13,1.341129368e-13,1.48688616e-13,4.966027347e-13,2.010762464e-13,3.283017749e-13,1.605921357e-13,1.287945884e-13
0.1328125,2.594890228e-13,1.57342279e-13,2.615285571e-13,1.784205397e-13,2.56004278e-13,8.203197913e-14,5.107161142e-13,5.863319803e-14,8.312685526e-14,1.822698193e-13,5.45216705e-13,3.685518504e-13,2.797445812e-13,5.681611146e-13,4.6234744e-13,3.42077286e-13,8.410669446e-13,3.156257674e-13,8.783904725e-14,4.169627326e-13,9.495383506e-14,6.43341996e-14,7.306978627e-14,3.490650806e-13,1.982207335e-13,1.296705179e-13,1.487082665e-13,5.426994255e-13,2.17644767e-13,2.9760585e-13,1.661694991e-13,1.297358106e-13
0.140625,2.823372466e-13,1.610876371e-13,2.7922064e-13,1.817634606e-13,2.444052614e-13,7.956352586e-14,4.860907649e-13,5.577276292e-14,8.607056805e-14,1.792466173e-13,5.24471354e-13,3.656196765e-13,2.608104702e-13,5.581098607e-13,4.625003421e-13,3.675657628e-13,8.4264027e-13,3.218942709e-13,8.989942716e-14,4.140528834e-13,8.83263219e-14,6.561342209e-14,7.545341811e-14,3.120080678e-13,1.961712503e-13,1.232444199e-13,1.523246118e-13,5.791785284e-13,2.281738333e-13,2.761686065e-13,1.671768814e-13,1.282963691e-13
0.1484375,2.981184493e-13,1.597435429e-13,2.930152062e-13,1.799029836e-13,2.258062838e-13,7.635314847e-14,4.592473862e-13,5.232214843e-14,8.73875327e-14,1.723577731e-13,4.883479731e-13,3.536003014e-13,2.473804256e-13,5.337993858e-13,4.514893611e-13,3.901446388e-13,8.415853573e-13,3.266245527e-13,9.16910646e-14,4.157583244e-13,8.131556062e-14,6.6310102e-14,7.709588273e-14,2.784289997e-13,1.930927609e-13,1.156727291e-13,1.569564382e-13,6.011957569e-13,2.320903259e-13,2.667225207e-13,1.642402421e-13,1.245390853e-13
0.15625,3.077683978e-13,1.544583019e-13,3.027106455e-13,1.742206022e-13,2.02671222e-13,7.319964569e-14,4.301006941e-13,4.844614616e-14,8.683837537e-14,1.624321703e-13,4.411399643e-13,3.343883459e-13,2.357274898e-13,5.001403995e-13,4.344088702e-13,4.137064534e-13,8.449080036e-13,3.340707925e-13,9.433873561e-14,4.200907382e-13,7.361665665e-14,6.670891895e-14,7.768769413e-14,2.513532705e-13,1.900405225e-13,1.081025243e-13,1.613566543e-13,6.070668873e-13,2.307318025e-13,2.694450723e-13,1.602004223e-13,1.188997317e-13
0.1640625,3.112601594e-13,1.464688085e-13,3.096959818e-13,1.660678255e-13,1.773515898e-13,7.037088171e-14,3.987098867e-13,4.471039452e-14,8.47115943e-14,1.505697034e-13,3.864399396e-13,3.090082479e-13,2.22895043e-13,4.587561042e-13,4.119933228e-13,4.388651229e-13,8.58620153e-13,3.451010275e-13,9.795864005e-14,4.25744628e-13,6.530677903e-14,6.702044225e-14,7.704032965e-14,2.29669646e-13,1.857674946e-13,1.015406399e-13,1.642891542e-13,5.988745407e-13,2.257233986e-13,2.832650603e-13,1.567059222e-13,1.118297793e-13
0.171875,3.091878773e-13,1.374550319e-13,3.164948994e-13,1.571310345e-13,1.513721594e-13,6.785851638e-14,3.650756737e-13,4.10700134e-14,8.119616746e-14,1.374765248e-13,3.270827496e-13,2.794175232e-13,2.062904788e-13,4.133486414e-13,3.847224812e-13,4.608384796e-13,8.774739672e-13,3.59006806e-13,1.026621055e-13,4.344381286e-13,5.768451815e-14,6.704381813e-14,7.526521691e-14,2.122146366e-13,1.795797092e-13,9.592100739e-14,1.666881206e-13,5.837266557e-13,2.189297086e-13,3.071355639e-13,1.543599903e-13,1.03527384e-13
0.1796875,3.033523711e-13,1.285292645e-13,3.253347227e-13,1.48828986e-13,1.268737232e-13,6.598452314e-14,3.3077549e-13,3.781129794e-14,7.616793716e-14,1.236282006e-13,2.672851099e-13,2.472807454e-13,1.891411972e-13,3.685646413e-13,3.554940168e-13,4.804283633e-13,8.994411378e-13,3.785426186e-13,1.089673759e-13,4.463128773e-13,5.151819505e-14,6.676803979e-14,7.314501476e-14,1.977433119e-13,1.729539911e-13,9.14207526e-14,1.667544025e-13,5.680386489e-13,2.112322548e-13,3.388197213e-13,1.539464979e-13,9.432932602e-14
0.1875,2.96353509e-13,1.206690996e-13,3.375560877e-13,1.429100399e-13,1.057486196e-13,6.503556177e-14,2.958625655e-13,3.522754093e-14,7.064716272e-14,1.096285835e-13,2.129302102e-13,2.162996511e-13,1.757635208e-13,3.303373573e-13,3.31414766e-13,5.004631822e-13,9.271854361e-13,4.020044415e-13,1.164182816e-13,4.59921227e-13,4.681406858e-14,6.634143755e-14,7.129771009e-14,1.851594964e-13,1.675570361e-13,8.843275941e-14,1.627651147e-13,5.574673662e-13,2.050275709e-13,3.768329463e-13,1.56520408e-13,8.521254989e-14
0.1953125,2.921609857e-13,1.149621903e-13,3.547163372e-13,1.402652282e-13,8.821229236e-14,6.615427143e-14,2.61760711e-13,3.311714696e-14,6.56347986e-14,9.694431316e-14,1.658944585e-13,1.892629847e-13,1.681096003e-13,3.004143327e-13,3.117505184e-13,5.186125876e-13,9.559871348e-13,4.296620563e-13,1.249381704e-13,4.774898407e-13,4.406205682e-14,6.589749112e-14,6.959080853e-14,1.721935146e-13,1.621863452e-13,8.680400787e-14,1.561482434e-13,5.588668924e-13,2.029417908e-13,4.188852247e-13,1.619672781e-13,7.660962703e-14
0.203125,2.901615816e-13,1.113796314e-13,3.756260927e-13,1.406664528e-13,7.438349563e-14,6.934998795e-14,2.31561462e-13,3.149717883e-14,6.145932673e-14,8.656648615e-14,1.270001197e-13,1.671924017e-13,1.702848998e-13,2.782986014e-13,2.953804506e-13,5.314425231e-13,9.788875957e-13,4.607124646e-13,1.34673772e-13,4.978460465e-13,4.295115173e-14,6.560927003e-14,6.875740785e-14,1.612723153e-13,1.592982289e-13,8.579061574e-14,1.481206158e-13,5.726546115e-13,2.043304804e-13,4.60519625e-13,1.684824852e-13,6.841776332e-14
0.2109375,2.891305942e-13,1.100062607e-13,3.992745963e-13,1.437352252e-13,6.47387954e-14,7.429181491e-14,2.060863864e-13,3.086563926e-14,5.805210084e-14,7.902565959e-14,9.682770744e-14,1.501940341e-13,1.839128789e-13,2.642865418e-13,2.839578827e-13,5.389776363e-13,9.944985266e-13,4.907147576e-13,1.44275059e-13,5.196084767e-13,4.327644785e-14,6.556225527e-14,6.914418312e-14,1.513310204e-13,1.588123671e-13,8.538133239e-14,1.383645464e-13,6.03116705e-13,2.089396973e-13,4.995127522e-13,1.753302028e-13,6.097390643e-14
0.21875,2.888177506e-13,1.097975542e-13,4.223423666e-13,1.481277176e-13,5.805718177e-14,8.126194475e-14,1.875146386e-13,3.140758336e-14,5.54434263e-14,7.43927829e-14,7.447321323e-14,1.380779748e-13,2.148305542e-13,2.56235276e-13,2.775475181e-13,5.366894673e-13,9.924138471e-13,5.170927601e-13,1.52406006e-13,5.375947462e-13,4.410335205e-14,6.547410625e-14,7.059397215e-14,1.423502459e-13,1.613992835e-13,8.471392028e-14,1.26889241e-13,6.414401724e-13,2.153148754e-13,5.289671344e-13,1.810580834e-13,5.44757664e-14
0.2265625,2.886658122e-13,1.10618353e-13,4.428137288e-13,1.526969624e-13,5.343839777e-14,9.074511922e-14,1.759929237e-13,3.304735472e-14,5.419391268e-14,7.278930117e-14,5.932636913e-14,1.308019901e-13,2.62465873e-13,2.510957996e-13,2.733640384e-13,5.24553066e-13,9.758920935e-13,5.399593596e-13,1.598036429e-13,5.522712706e-13,4.527315865e-14,6.549178623e-14,7.332661837e-14,1.365722431e-13,1.679640339e-13,8.378068269e-14,1.16508132e-13,6.843137015e-13,2.233695771e-13,5.525119253e-13,1.851866222e-13,4.85882326e-14
0.234375,2.875714291e-13,1.11859222e-13,4.582774712e-13,1.565976573e-13,5.017017817e-14,1.023773354e-13,1.727391789e-13,3.580748802e-14,5.448614305e-14,7.523064833e-14,5.088046864e-14,1.279388713e-13,3.316488887e-13,2.472453625e-13,2.72182833e-13,5.024812327e-13,9.442546213e-13,5.54499753e-13,1.655565627e-13,5.625592501e-13,4.670072218e-14,6.587706196e-14,7.742945219e-14,1.359184564e-13,1.792259893e-13,8.226094868e-14,1.092825665e-13,7.30299227e-13,2.325147431e-13,5.676101049e-13,1.868338487e-13,4.309438905e-14
0.2421875,2.837405312e-13,1.126111337e-13,4.660873586e-13,1.588847382e-13,4.817209751e-14,1.158681313e-13,1.7677658e-13,3.964935329e-14,5.609150675e-14,8.180526418e-14,4.795081401e-14,1.282396038e-13,4.210378932e-13,2.429927176e-13,2.734119924e-13,4.71431463e-13,8.957988192e-13,5.588292366e-13,1.688730971e-13,5.654472294e-13,4.799116418e-14,6.67188278e-14,8.273110232e-14,1.392904409e-13,1.956384274e-13,8.063667408e-14,1.062011573e-13,7.754765894e-13,2.415224637e-13,5.72611927e-13,1.852640593e-13,3.827398593e-14
0.25,2.757745103e-13,1.13130964e-13,4.636373527e-13,1.592621459e-13,4.708843038e-14,1.306186555e-13,1.881049138e-13,4.431634018e-14,5.890207137e-14,9.2185036e-14,4.963137055e-14,1.306302244e-13,5.268753476e-13,2.377125736e-13,2.77539342e-13,4.363749794e-13,8.407531047e-13,5.547230726e-13,1.69851675e-13,5.56930411e-13,4.83730732e-14,6.834380046e-14,8.963472382e-14,1.478804075e-13,2.172496627e-13,7.97539458e-14,1.080471824e-13,8.164412055e-13,2.507853175e-13,5.718230636e-13,1.821157054e-13,3.428998713e-14
0.2578125,2.64535373e-13,1.135963789e-13,4.507852256e-13,1.579623962e-13,4.694128764e-14,1.460473469e-13,2.049675636e-13,4.954298672e-14,6.300075706e-14,1.054380105e-13,5.647843905e-14,1.35484774e-13,6.406599027e-13,2.329700892e-13,2.879527223e-13,4.024524408e-13,7.825624501e-13,5.411860551e-13,1.68862354e-13,5.38220575e-13,4.799356296e-14,7.11537864e-14,9.846820116e-14,1.611531595e-13,2.440357007e-13,8.059348612e-14,1.146221496e-13,8.57826674e-13,2.609870986e-13,5.658338264e-13,1.789903159e-13,3.124730702e-14
0.265625,2.497604648e-13,1.1401032e-13,4.286196163e-13,1.54994905e-13,4.717780649e-14,1.611073284e-13,2.248784794e-13,5.482837923e-14,6.783851793e-14,1.209307909e-13,6.738678233e-14,1.409932266e-13,7.67374319e-13,2.260117205e-13,3.019014754e-13,3.704789927e-13,7.275711676e-13,5.184512309e-13,1.660660689e-13,5.138112001e-13,4.708878453e-14,7.490837692e-14,1.085282861e-13,1.777632254e-13,2.74494837e-13,8.313698307e-14,1.253221372e-13,8.999120601e-13,2.717010094e-13,5.547029048e-13,1.763626266e-13,2.879575871e-14
0.2734375,2.324298435e-13,1.13781024e-13,3.978757828e-13,1.502217358e-13,4.764819791e-14,1.749795225e-13,2.465752665e-13,6.00364949e-14,7.265821501e-14,1.375200861e-13,8.175494558e-14,1.462180028e-13,8.980263609e-13,2.175711847e-13,3.186327083e-13,3.407128982e-13,6.713981752e-13,4.884662743e-13,1.615264674e-13,4.822789222e-13,4.56526379e-14,7.950268473e-14,1.19106223e-13,1.961714774e-13,3.073279901e-13,8.712213223e-14,1.394736848e-13,9.448761946e-13,2.819129257e-13,5.385192107e-13,1.736047714e-13,2.659441367e-14
0.28125,2.14100834e-13,1.129846919e-13,3.63263794e-13,1.439095897e-13,4.859298272e-14,1.870117812e-13,2.690548846e-13,6.497136977e-14,7.721833934e-14,1.542004879e-13,9.98105717e-14,1.512484678e-13,1.035601987e-12,2.097091056e-13,3.360302563e-13,3.165205275e-13,6.144544905e-13,4.56455434e-13,1.564836287e-13,4.445828924e-13,4.352823984e-14,8.519056094e-14,1.296346912e-13,2.159183914e-13,3.390183616e-13,9.295038299e-14,1.561610813e-13,9.964818499e-13,2.90304449e-13,5.184267891e-13,1.71042847e-13,2.518125455e-14
0.2890625,1.953017993e-13,1.114360529e-13,3.276175971e-13,1.360430357e-13,4.900794322e-14,1.973055444e-13,2.889765681e-13,6.897722164e-14,8.144043305e-14,1.693497342e-13,1.198852805e-13,1.543093291e-13,1.182423944e-12,2.005184134e-13,3.507620064e-13,2.979251482e-13,5.616410976e-13,4.25706809e-13,1.518227535e-13,4.043968873e-13,4.084424494e-14,9.240573705e-14,1.403844672e-13,2.381208509e-13,3.665477012e-13,1.002870497e-13,1.742658521e-13,1.053049342e-12,2.959244322e-13,4.942470694e-13,1.685714634e-13,2.481205923e-14
0.296875,1.765191778e-13,1.091924897e-13,2.936927309e-13,1.269809552e-13,4.853730745e-14,2.057357204e-13,3.056453304e-13,7.162940971e-14,8.56382291e-14,1.814162692e-13,1.408368429e-13,1.555728051e-13,1.344941943e-12,1.90800445e-13,3.606008513e-13,2.828172997e-13,5.108190716e-13,3.966045981e-13,1.481905705e-13,3.638431455e-13,3.769867994e-14,1.017213621e-13,1.515467294e-13,2.634455882e-13,3.877089724e-13,1.091331512e-13,1.926906938e-13,1.113363186e-12,2.97279354e-13,4.664050353e-13,1.653114558e-13,2.504402016e-14
0.3046875,1.578209825e-13,1.058813264e-13,2.618609536e-13,1.167913362e-13,4.737174105e-14,2.116051302e-13,3.192307589e-13,7.282071645e-14,8.903221326e-14,1.894919851e-13,1.630084837e-13,1.552206922e-13,1.522828449e-12,1.811419966e-13,3.658018439e-13,2.706185835e-13,4.619297133e-13,3.706746542e-13,1.460474922e-13,3.258350163e-13,3.480582724e-14,1.124724783e-13,1.624890043e-13,2.924300091e-13,4.012464374e-13,1.194798752e-13,2.083455967e-13,1.179013666e-12,2.924177718e-13,4.382344894e-13,1.607657028e-13,2.578072089e-14
0.3125,1.393623754e-13,1.019999055e-13,2.329692842e-13,1.061082532e-13,4.577382759e-14,2.150644666e-13,3.291892188e-13,7.27515076e-14,9.169140016e-14,1.935997416e-13,1.855587781e-13,1.535979073e-13,1.732787605e-12,1.726525986e-13,3.650099354e-13,2.592551576e-13,4.159730258e-13,3.493986492e-13,1.456142612e-13,2.904120298e-13,3.230535784e-14,1.23855543e-13,1.729922281e-13,3.249043773e-13,4.049681624e-13,1.308850554e-13,2.204110917e-13,1.251115387e-12,2.825621707e-13,4.13710841e-13,1.549524384e-13,2.70403894e-14
0.3203125,1.219089967e-13,9.670941949e-14,2.068431542e-13,9.561365065e-14,4.406530889e-14,2.160351507e-13,3.378341669e-13,7.134023235e-14,9.332178311e-14,1.945327375e-13,2.070088699e-13,1.508738428e-13,1.977225705e-12,1.646957154e-13,3.566101874e-13,2.476902078e-13,3.74137537e-13,3.309639191e-13,1.462014818e-13,2.618765039e-13,3.053557947e-14,1.352842107e-13,1.833171121e-13,3.596488991e-13,3.984610248e-13,1.440825411e-13,2.277952587e-13,1.33155654e-12,2.666781584e-13,3.934253169e-13,1.475615503e-13,2.8704746e-14
0.328125,1.061255305e-13,9.065294359e-14,1.831629115e-13,8.585115887e-14,4.264896862e-14,2.149416862e-13,3.448881204e-13,6.906186814e-14,9.472050593e-14,1.925079187e-13,2.274864229e-13,1.477112812e-13,2.237181049e-12,1.581029924e-13,3.426794346e-13,2.372370124e-13,3.418806386e-13,3.150168165e-13,1.483265228e-13,2.41285163e-13,2.981422632e-14,1.467301884e-13,1.93389187e-13,3.95056732e-13,3.827691729e-13,1.586771597e-13,2.310135062e-13,1.414827432e-12,2.471018904e-13,3.802121541e-13,1.393324557e-13,3.075359883e-14
0.3359375,9.184106933e-14,8.380620458e-14,1.614506372e-13,7.656246762e-14,4.106262756e-14,2.11874584e-13,3.51238308e-13,6.691568944e-14,9.758486189e-14,1.872635602e-13,2.462683499e-13,1.448958432e-13,2.515202337e-12,1.542177225e-13,3.229899458e-13,2.254961705e-13,3.165226122e-13,3.003979493e-13,1.516191107e-13,2.267303935e-13,3.015690428e-14,1.572584243e-13,2.029324006e-13,4.290595601e-13,3.614802771e-13,1.732792819e-13,2.298674393e-13,1.500790463e-12,2.243865195e-13,3.754736524e-13,1.292323905e-13,3.335837556e-14
0.34375,7.990412118e-14,7.675326662e-14,1.427611609e-13,6.85715368e-14,3.984750095e-14,2.067019872e-13,3.587585467e-13,6.4794252e-14,1.031945101e-13,1.799053792e-13,2.634418506e-13,1.428955149e-13,2.801289005e-12,1.544915137e-13,3.007072366e-13,2.150200813e-13,3.056455713e-13,2.885628061e-13,1.566463983e-13,2.197142115e-13,3.161846061e-14,1.660932906e-13,2.119428779e-13,4.565873995e-13,3.400106612e-13,1.881532416e-13,2.234685489e-13,1.583688438e-12,2.009277508e-13,3.786729028e-13,1.186448222e-13,3.672501444e-14
0.3515625,6.993000347e-14,6.985018522e-14,1.265031073e-13,6.219601873e-14,3.964708857e-14,2.003504162e-13,3.66609934e-13,6.327965258e-14,1.116708485e-13,1.723421697e-13,2.806870144e-13,1.424249777e-13,3.064799771e-12,1.58451223e-13,2.787149494e-13,2.060497384e-13,3.107903248e-13,2.778590228e-13,1.624824272e-13,2.187191794e-13,3.44387024e-14,1.723758733e-13,2.205935925e-13,4.771020979e-13,3.214946034e-13,2.033893389e-13,2.121696853e-13,1.660297247e-12,1.786861537e-13,3.887753796e-13,1.087494253e-13,4.105419225e-14
0.359375,6.236708734e-14,6.26830387e-14,1.138036676e-13,5.694875251e-14,4.026348535e-14,1.926823065e-13,3.728201952e-13,6.285843815e-14,1.224935716e-13,1.647373329e-13,2.995220797e-13,1.437074772e-13,3.292395931e-12,1.657444309e-13,2.596733353e-13,1.995253031e-13,3.354801572e-13,2.673424348e-13,1.676069126e-13,2.215429671e-13,3.852078137e-14,1.753141779e-13,2.292445617e-13,4.860992159e-13,3.079856631e-13,2.171642115e-13,1.978953319e-13,1.712149e-12,1.575182752e-13,4.044700144e-13,9.919786796e-14,4.591704939e-14
0.3671875,5.690716258e-14,5.613471898e-14,1.05712747e-13,5.336417497e-14,4.18978346e-14,1.844820022e-13,3.743353388e-13,6.400944615e-14,1.360226715e-13,1.565023154e-13,3.194765866e-13,1.475582304e-13,3.452828941e-12,1.773781972e-13,2.432829407e-13,1.926783239e-13,3.741643386e-13,2.567282648e-13,1.718394074e-13,2.255713292e-13,4.350795628e-14,1.747506765e-13,2.369694418e-13,4.844651251e-13,2.999065696e-13,2.264625256e-13,1.823267074e-13,1.731418757e-12,1.38091232e-13,4.20692475e-13,9.041586494e-14,5.083864798e-14
0.375,5.287631938e-14,5.003939706e-14,1.025520861e-13,5.095662014e-14,4.451957606e-14,1.761046355e-13,3.703831096e-13,6.724960933e-14,1.529709808e-13,1.476971041e-13,3.382987844e-13,1.52694945e-13,3.541906701e-12,1.909098096e-13,2.271953035e-13,1.843665477e-13,4.235463357e-13,2.467262976e-13,1.75567484e-13,2.303233154e-13,4.917087143e-14,1.714821081e-13,2.428841723e-13,4.747961781e-13,2.970159394e-13,2.317528864e-13,1.672175266e-13,1.716562823e-12,1.20488014e-13,4.357944761e-13,8.223511379e-14,5.622055448e-14
0.3828125,4.906361852e-14,4.46340074e-14,1.037194944e-13,4.928640015e-14,4.809938308e-14,1.672622667e-13,3.599187538e-13,7.240629507e-14,1.732716863e-13,1.388483307e-13,3.546640404e-13,1.583613986e-13,3.540378576e-12,2.049843208e-13,2.115945362e-13,1.750128122e-13,4.817027445e-13,2.384129177e-13,1.787621971e-13,2.340082134e-13,5.522714053e-14,1.661894133e-13,2.464204952e-13,4.576313503e-13,2.975326689e-13,2.326046699e-13,1.543050437e-13,1.659999537e-12,1.053966532e-13,4.444936577e-13,7.519917097e-14,6.213323088e-14
0.390625,4.634395691e-14,3.985801697e-14,1.084475248e-13,4.802746462e-14,5.228960067e-14,1.574195724e-13,3.397409093e-13,7.93209739e-14,1.951010747e-13,1.296340573e-13,3.673816507e-13,1.630194714e-13,3.451374894e-12,2.162650241e-13,1.966866502e-13,1.656965449e-13,5.474228928e-13,2.308208799e-13,1.808596418e-13,2.372328663e-13,6.150499755e-14,1.591876045e-13,2.469792358e-13,4.350608718e-13,2.983047185e-13,2.295098668e-13,1.438618719e-13,1.573002139e-12,9.30948393e-14,4.497251516e-13,6.993551979e-14,6.839124486e-14
0.3984375,4.337655844e-14,3.587868492e-14,1.152328298e-13,4.672661816e-14,5.639491278e-14,1.462858087e-13,3.122802887e-13,8.765509262e-14,2.17143894e-13,1.201602432e-13,3.737319146e-13,1.662131485e-13,3.282372233e-12,2.239430884e-13,1.813890982e-13,1.55636077e-13,6.113374592e-13,2.239245212e-13,1.813982867e-13,2.377288437e-13,6.767234151e-14,1.514186193e-13,2.437661067e-13,4.115413443e-13,2.959899148e-13,2.217568954e-13,1.359875467e-13,1.464556157e-12,8.363413271e-14,4.539411985e-13,6.589395296e-14,7.446152327e-14
0.40625,4.022164692e-14,3.332303728e-14,1.248583784e-13,4.580808922e-14,5.978816796e-14,1.343937134e-13,2.810036443e-13,9.692293841e-14,2.388896567e-13,1.107328886e-13,3.726500956e-13,1.681077361e-13,3.069141997e-12,2.277291846e-13,1.6448014e-13,1.448027697e-13,6.667425525e-13,2.18121291e-13,1.818189124e-13,2.383310908e-13,7.360350589e-14,1.437781589e-13,2.366533335e-13,3.895306156e-13,2.888466189e-13,2.105880437e-13,1.309311762e-13,1.34482976e-12,7.857210301e-14,4.605591003e-13,6.322234026e-14,8.00403596e-14
0.4140625,3.798737056e-14,3.203969422e-14,1.349671096e-13,4.560166928e-14,6.228221091e-14,1.220677693e-13,2.494621598e-13,1.066008358e-13,2.585616281e-13,1.018148486e-13,3.65074014e-13,1.686055547e-13,2.829279576e-12,2.269740042e-13,1.467101086e-13,1.354079981e-13,7.148549961e-13,2.128959224e-13,1.824321326e-13,2.408054666e-13,7.934072118e-14,1.364980434e-13,2.256115098e-13,3.690908503e-13,2.770582447e-13,1.966633272e-13,1.276066461e-13,1.222627757e-12,7.829578199e-14,4.744715934e-13,6.152134494e-14,8.499356368e-14
0.421875,3.664569738e-14,3.19771539e-14,1.450758537e-13,4.595901481e-14,6.418687859e-14,1.095560123e-13,2.204030091e-13,1.166083921e-13,2.750148763e-13,9.317145197e-14,3.516905584e-13,1.674039275e-13,2.593392916e-12,2.219655632e-13,1.2814909e-13,1.27841665e-13,7.56795511e-13,2.090014362e-13,1.834281944e-13,2.440334107e-13,8.47636178e-14,1.305627783e-13,2.111816649e-13,3.520861925e-13,2.612597347e-13,1.812112088e-13,1.247278545e-13,1.099862519e-12,8.268843084e-14,4.987216432e-13,6.081677879e-14,8.953032607e-14
0.4296875,3.622784203e-14,3.355829189e-14,1.562030345e-13,4.726931883e-14,6.555758985e-14,9.755097695e-14,1.969812019e-13,1.262308414e-13,2.881532053e-13,8.436335117e-14,3.326877149e-13,1.645890194e-13,2.398593249e-12,2.135413972e-13,1.102200208e-13,1.236751355e-13,7.949403504e-13,2.068236486e-13,1.854615383e-13,2.504261463e-13,9.065939459e-14,1.267944624e-13,1.949149434e-13,3.411123966e-13,2.432298666e-13,1.661839628e-13,1.229385631e-13,9.810168899e-13,9.237539222e-14,5.392958557e-13,6.122232989e-14,9.381784048e-14
0.4375,3.771051239e-14,3.650023718e-14,1.688616886e-13,5.007824894e-14,6.677928259e-14,8.687943351e-14,1.814774387e-13,1.350141347e-13,2.972303583e-13,7.593172237e-14,3.093391162e-13,1.601216857e-13,2.285329216e-12,2.020329671e-13,9.392973186e-14,1.236274961e-13,8.325296823e-13,2.053281137e-13,1.880219764e-13,2.597758665e-13,9.679885817e-14,1.248251894e-13,1.777166374e-13,3.363374014e-13,2.243415984e-13,1.52114186e-13,1.254532033e-13,8.717662162e-13,1.069233757e-13,6.019100179e-13,6.2160454e-14,9.735317477e-14
0.4453125,4.143199384e-14,4.034145472e-14,1.837363039e-13,5.444920379e-14,6.843962427e-14,7.789096553e-14,1.719269367e-13,1.427136764e-13,3.022625747e-13,6.802923217e-14,2.837118758e-13,1.541957116e-13,2.266331432e-12,1.875894785e-13,7.935922494e-14,1.270348263e-13,8.698203385e-13,2.057509642e-13,1.912091051e-13,2.710850281e-13,1.028874536e-13,1.244274921e-13,1.609037644e-13,3.373006782e-13,2.087502114e-13,1.388483189e-13,1.315445833e-13,7.639374704e-13,1.248657545e-13,6.851908416e-13,6.276596948e-14,1.001595518e-13
0.453125,4.731243923e-14,4.466575725e-14,2.008312128e-13,6.013644708e-14,7.029370646e-14,7.078041378e-14,1.679345974e-13,1.489286645e-13,3.03750529e-13,6.087742139e-14,2.598059286e-13,1.477844096e-13,2.33992555e-12,1.729685906e-13,6.636523625e-14,1.314367158e-13,8.972036891e-13,2.066271742e-13,1.945622842e-13,2.813598009e-13,1.087782593e-13,1.249775783e-13,1.455183683e-13,3.43422702e-13,1.963780235e-13,1.262733903e-13,1.390985252e-13,6.651841039e-13,1.438144237e-13,7.903384767e-13,6.226895963e-14,1.023561236e-13
0.4609375,5.474100657e-14,4.908662881e-14,2.209970926e-13,6.714369687e-14,7.240558739e-14,6.605752451e-14,1.679608882e-13,1.536368674e-13,3.015769942e-13,5.365558371e-14,2.378879143e-13,1.404141575e-13,2.499501801e-12,1.586729746e-13,5.521490462e-14,1.355884916e-13,9.079846922e-13,2.076602945e-13,1.980815495e-13,2.880344993e-13,1.14188775e-13,1.259457663e-13,1.328743362e-13,3.536184234e-13,1.885430916e-13,1.153076516e-13,1.472911783e-13,5.761779819e-13,1.62858113e-13,9.129504157e-13,6.095120378e-14,1.042667951e-13
0.46875,6.258622693e-14,5.350211358e-14,2.435045634e-13,7.521840009e-14,7.51825581e-14,6.340882861e-14,1.703400565e-13,1.565420207e-13,2.955704928e-13,4.641501839e-14,2.166919001e-13,1.314143064e-13,2.730136006e-12,1.442150395e-13,4.643753943e-14,1.393701995e-13,9.019815687e-13,2.088492697e-13,2.008689677e-13,2.914847974e-13,1.190900615e-13,1.263521088e-13,1.23232815e-13,3.651992832e-13,1.843709578e-13,1.060597115e-13,1.555827099e-13,5.027742303e-13,1.803414336e-13,1.045007329e-12,5.94098873e-14,1.060917825e-13
0.4765625,7.010227028e-14,5.749480786e-14,2.645827301e-13,8.352357509e-14,7.850652647e-14,6.239600853e-14,1.744297173e-13,1.577151979e-13,2.855347284e-13,3.95456538e-14,1.955704285e-13,1.212272978e-13,2.98352135e-12,1.289474447e-13,3.980875456e-14,1.419349579e-13,8.776182413e-13,2.080700472e-13,2.008169574e-13,2.905770872e-13,1.230575474e-13,1.257550207e-13,1.16109293e-13,3.77336273e-13,1.818473192e-13,9.827859472e-14,1.632460128e-13,4.485369354e-13,1.937552007e-13,1.170711335e-12,5.788940461e-14,1.080419172e-13
0.484375,7.640824921e-14,6.04497886e-14,2.840821438e-13,9.114690672e-14,8.13014771e-14,6.260192157e-14,1.784464963e-13,1.572006041e-13,2.724729262e-13,3.372434707e-14,1.755355502e-13,1.119871937e-13,3.225946629e-12,1.149421004e-13,3.484368359e-14,1.414488654e-13,8.287058618e-13,2.03012313e-13,1.970237823e-13,2.836492603e-13,1.259162612e-13,1.24069552e-13,1.115277799e-13,3.890612921e-13,1.786733291e-13,9.171092036e-14,1.706426913e-13,4.200093501e-13,2.008287799e-13,1.275109921e-12,5.570817066e-14,1.097122511e-13
0.4921875,8.0661353e-14,6.202364696e-14,3.007565212e-13,9.760751354e-14,8.250263257e-14,6.338979334e-14,1.815803584e-13,1.546867093e-13,2.575059713e-13,2.912724607e-14,1.57961586e-13,1.053875809e-13,3.427568543e-12,1.046966624e-13,3.09603872e-14,1.36563334e-13,7.561549934e-13,1.932272664e-13,1.894583267e-13,2.712431556e-13,1.275939791e-13,1.206484068e-13,1.082836406e-13,3.967140954e-13,1.747732156e-13,8.563908167e-14,1.782136281e-13,4.174078378e-13,2.014550331e-13,1.342962738e-12,5.267886885e-14,1.105612301e-13
0.5,8.200104281e-14,6.317567424e-14,3.122580955e-13,1.0278108e-13,8.185072658e-14,6.529419081e-14,1.827357254e-13,1.501791494e-13,2.407575785e-13,2.523695189e-14,1.409653479e-13,1.011686367e-13,3.552964186e-12,9.749374927e-14,2.767858637e-14,1.285608484e-13,6.709889776e-13,1.813318277e-13,1.794110165e-13,2.561215615e-13,1.280693983e-13,1.153360204e-13,1.054750932e-13,4.004396041e-13,1.690298358e-13,8.045641906e-14,1.872026065e-13,4.33869404e-13,1.981186547e-13,1.367789736e-12,5.01116946e-14,1.10450347e-13
0.5078125,8.102937459e-14,6.332939782e-14,3.170765177e-13,1.065939105e-13,7.971373306e-14,6.836013938e-14,1.822830342e-13,1.44349415e-13,2.227502914e-13,2.205637366e-14,1.234342671e-13,9.843012858e-14,3.586661916e-12,9.171490066e-14,2.54462136e-14,1.20087296e-13,5.868355048e-13,1.672417225e-13,1.672746245e-13,2.404426676e-13,1.271451476e-13,1.078195019e-13,1.021533371e-13,4.001263741e-13,1.613288126e-13,7.58792943e-14,1.978437399e-13,4.651093261e-13,1.910251856e-13,1.344550997e-12,4.790174989e-14,1.094633047e-13
0.515625,7.91947412e-14,6.218414665e-14,3.154625018e-13,1.090219827e-13,7.628330411e-14,7.221216128e-14,1.817791268e-13,1.367680203e-13,2.039637451e-13,1.963377823e-14,1.055659504e-13,9.630121211e-14,3.51224848e-12,8.619326184e-14,2.455622157e-14,1.12509651e-13,5.11227191e-13,1.521920214e-13,1.530172968e-13,2.242970208e-13,1.244565529e-13,9.882597e-14,9.69992152e-14,3.932968835e-13,1.510751151e-13,7.084599366e-14,2.10306717e-13,4.982314546e-13,1.790858741e-13,1.26573532e-12,4.591535187e-14,1.076923309e-13
0.5234375,7.747816971e-14,6.024645296e-14,3.090261995e-13,1.10562478e-13,7.176260391e-14,7.675050413e-14,1.812435484e-13,1.273247509e-13,1.847456816e-13,1.781291899e-14,9.003064813e-14,9.446539469e-14,3.361221425e-12,8.107418626e-14,2.379035447e-14,1.052888321e-13,4.485119157e-13,1.383779696e-13,1.380748995e-13,2.087933229e-13,1.199402243e-13,8.908084407e-14,9.049624786e-14,3.816559013e-13,1.404420034e-13,6.598407409e-14,2.241811685e-13,5.200481274e-13,1.645253481e-13,1.144855026e-12,4.466126019e-14,1.052461293e-13
0.53125,7.668515401e-14,5.833426166e-14,2.980457817e-13,1.113760138e-13,6.647715695e-14,8.228223629e-14,1.81319475e-13,1.164858808e-13,1.656124457e-13,1.649918168e-14,7.678500076e-14,9.30472227e-14,3.14962614e-12,7.680166773e-14,2.302175355e-14,9.953703658e-14,4.022153019e-13,1.267534038e-13,1.238839937e-13,1.964183752e-13,1.136320753e-13,7.859519949e-14,8.33638374e-14,3.648430908e-13,1.316313124e-13,6.137409602e-14,2.390829881e-13,5.33298904e-13,1.49822523e-13,9.996466624e-13,4.434133546e-14,1.020729944e-13
0.5390625,7.732140933e-14,5.664503583e-14,2.851591804e-13,1.10869596e-13,6.105724457e-14,8.818887899e-14,1.825492656e-13,1.04806609e-13,1.471135461e-13,1.593002293e-14,6.482792253e-14,9.247988489e-14,2.891377756e-12,7.368377718e-14,2.283109012e-14,9.554323705e-14,3.719166873e-13,1.18255315e-13,1.114169131e-13,1.880283876e-13,1.061268284e-13,6.804660419e-14,7.547155892e-14,3.435934063e-13,1.246022055e-13,5.698337495e-14,2.544735173e-13,5.300255755e-13,1.370494091e-13,8.434725949e-13,4.453919676e-14,9.870380297e-14
0.546875,8.068063625e-14,5.458583153e-14,2.728773105e-13,1.089564669e-13,5.601468665e-14,9.411156819e-14,1.851995609e-13,9.311357076e-14,1.299095086e-13,1.574155371e-14,5.388606086e-14,9.040143798e-14,2.634564273e-12,7.000639646e-14,2.301604802e-14,9.380659811e-14,3.598464417e-13,1.145427888e-13,1.003977613e-13,1.814820708e-13,9.735100369e-14,5.821869502e-14,6.788016426e-14,3.23064815e-13,1.200243701e-13,5.2972286e-14,2.688224884e-13,5.108327514e-13,1.261680557e-13,6.932190335e-13,4.468266085e-14,9.565760145e-14
0.5546875,8.733108104e-14,5.24761175e-14,2.64728776e-13,1.060154536e-13,5.093723608e-14,1.00438698e-13,1.890994656e-13,8.170477123e-14,1.146492009e-13,1.552485662e-14,4.414587363e-14,8.666596698e-14,2.396318319e-12,6.634300645e-14,2.361230162e-14,9.575355491e-14,3.613310545e-13,1.169192531e-13,9.134115416e-14,1.779419007e-13,8.791672125e-14,4.977145939e-14,6.086192306e-14,3.040580616e-13,1.177783427e-13,4.915420933e-14,2.786023859e-13,4.782131525e-13,1.173219475e-13,5.557142921e-13,4.484399134e-14,9.249044354e-14
0.5625,9.604850076e-14,5.057083034e-14,2.611201864e-13,1.026311117e-13,4.585624757e-14,1.076558746e-13,1.927417514e-13,7.098381426e-14,1.012945947e-13,1.520507647e-14,3.603612624e-14,8.175440116e-14,2.192526971e-12,6.2958964e-14,2.479862693e-14,1.007568281e-13,3.76169959e-13,1.249138628e-13,8.531353659e-14,1.784060066e-13,7.800696172e-14,4.270734112e-14,5.481971393e-14,2.872518337e-13,1.175382763e-13,4.548373285e-14,2.827438097e-13,4.358981834e-13,1.101484438e-13,4.367092871e-13,4.533290777e-14,8.856049138e-14
0.5703125,1.053991006e-13,4.905972194e-14,2.616462235e-13,9.89996289e-14,4.10030579e-14,1.152952355e-13,1.953109461e-13,6.126954457e-14,8.910322619e-14,1.472684977e-14,2.97471626e-14,7.653270018e-14,2.028575897e-12,6.013346219e-14,2.645469735e-14,1.070450276e-13,3.947814171e-13,1.382651956e-13,8.207892514e-14,1.827975587e-13,6.839498703e-14,3.667910013e-14,5.020772261e-14,2.716780353e-13,1.171518241e-13,4.167908901e-14,2.82783018e-13,3.902099274e-13,1.042858985e-13,3.420096827e-13,4.628990702e-14,8.341921684e-14
0.578125,1.144173161e-13,4.78950173e-14,2.639165135e-13,9.482850657e-14,3.63514192e-14,1.218920218e-13,1.984701736e-13,5.276618484e-14,7.821827852e-14,1.446556407e-14,2.465701232e-14,7.099980872e-14,1.891680343e-12,5.784635472e-14,2.852188341e-14,1.148519424e-13,4.136835958e-13,1.57900666e-13,8.115712827e-14,1.913173462e-13,5.930044367e-14,3.183255669e-14,4.736421556e-14,2.580890372e-13,1.16871801e-13,3.830850208e-14,2.771168112e-13,3.474057779e-13,1.002788454e-13,2.713387121e-13,4.78073835e-14,7.768700328e-14
0.5859375,1.227273439e-13,4.741465419e-14,2.688852547e-13,9.044553618e-14,3.216558468e-14,1.274432063e-13,2.02043686e-13,4.527821161e-14,6.899049648e-14,1.46742318e-14,2.109029698e-14,6.508657217e-14,1.782175492e-12,5.623651552e-14,3.1199685e-14,1.252579896e-13,4.325269952e-13,1.836263606e-13,8.210659034e-14,2.029053696e-13,5.057646325e-14,2.816933205e-14,4.602065509e-14,2.465053308e-13,1.15540993e-13,3.607405332e-14,2.667616868e-13,3.069033655e-13,9.818976823e-14,2.254497654e-13,5.034711567e-14,7.210169743e-14
0.59375,1.284102023e-13,4.760179387e-14,2.743510733e-13,8.610523482e-14,2.837017312e-14,1.322258376e-13,2.062809743e-13,3.867773871e-14,6.078157755e-14,1.540322443e-14,1.894697181e-14,5.994090021e-14,1.692706684e-12,5.559043051e-14,3.367387867e-14,1.354864797e-13,4.439808807e-13,2.120435362e-13,8.475760147e-14,2.15337071e-13,4.270527695e-14,2.540087137e-14,4.556663094e-14,2.369478906e-13,1.137434125e-13,3.478538498e-14,2.537660138e-13,2.756775641e-13,9.78712524e-14,2.024726068e-13,5.365118846e-14,6.666527757e-14
0.6015625,1.294242261e-13,4.786455728e-14,2.774719633e-13,8.111577533e-14,2.445335863e-14,1.357625761e-13,2.122600254e-13,3.278478382e-14,5.344088762e-14,1.682294221e-14,1.740529243e-14,5.505049047e-14,1.608503904e-12,5.465520046e-14,3.532495914e-14,1.430505745e-13,4.459209861e-13,2.40262769e-13,8.83859554e-14,2.280344733e-13,3.576227548e-14,2.350583809e-14,4.604677289e-14,2.293148817e-13,1.114301891e-13,3.46811093e-14,2.402699361e-13,2.553545129e-13,9.859716019e-14,1.99944692e-13,5.669497508e-14,6.162895108e-14
0.609375,1.265632425e-13,4.783487868e-14,2.759338854e-13,7.527748909e-14,2.064230876e-14,1.370987241e-13,2.201140822e-13,2.762943438e-14,4.710543883e-14,1.888052017e-14,1.651741068e-14,5.002597795e-14,1.519577175e-12,5.294690262e-14,3.608391545e-14,1.470618182e-13,4.344393155e-13,2.671650345e-13,9.156638584e-14,2.379147109e-13,2.982228188e-14,2.216926881e-14,4.74001358e-14,2.240256615e-13,1.089990638e-13,3.574628223e-14,2.258400145e-13,2.469898897e-13,9.9736446e-14,2.121047409e-13,5.907799126e-14,5.735496854e-14
0.6171875,1.2093169e-13,4.776551892e-14,2.694228868e-13,6.931040328e-14,1.762415455e-14,1.36354761e-13,2.291565748e-13,2.337961229e-14,4.183483007e-14,2.137182271e-14,1.629050944e-14,4.537658925e-14,1.419250443e-12,5.113687505e-14,3.657536593e-14,1.492914357e-13,4.140873624e-13,2.93004987e-13,9.44552239e-14,2.449654563e-13,2.50660158e-14,2.106348349e-14,4.890046737e-14,2.202761024e-13,1.075734629e-13,3.75429759e-14,2.105845107e-13,2.514575141e-13,1.016469561e-13,2.38753175e-13,6.167485899e-14,5.432310495e-14
0.625,1.135870062e-13,4.725195686e-14,2.583299601e-13,6.315497644e-14,1.531877771e-14,1.335863666e-13,2.37982582e-13,1.992169891e-14,3.741207453e-14,2.469508371e-14,1.694176687e-14,4.149721879e-14,1.3199154e-12,4.921653618e-14,3.631952839e-14,1.485264664e-13,3.864218314e-13,3.140332609e-13,9.645133465e-14,2.464161795e-13,2.121355417e-14,2.016534687e-14,5.034132492e-14,2.226117281e-13,1.077681627e-13,3.907100634e-14,1.960774156e-13,2.662295451e-13,1.023919277e-13,2.723728753e-13,6.336962529e-14,5.245746378e-14
0.6328125,1.041758687e-13,4.612459228e-14,2.416774884e-13,5.659034941e-14,1.323989678e-14,1.299280394e-13,2.474525371e-13,1.714372592e-14,3.392112799e-14,2.924831156e-14,1.871082797e-14,3.855037762e-14,1.216687635e-12,4.698981589e-14,3.503625543e-14,1.440942751e-13,3.500192957e-13,3.27388265e-13,9.636640569e-14,2.404456015e-13,1.821007406e-14,1.938176805e-14,5.149221642e-14,2.322264573e-13,1.10067274e-13,4.046637606e-14,1.81812191e-13,2.905534816e-13,1.014666786e-13,3.128375291e-13,6.3171748e-14,5.156422234e-14
0.640625,9.382551035e-14,4.412640837e-14,2.211284709e-13,5.019486585e-14,1.169621228e-14,1.255995998e-13,2.574317536e-13,1.476706055e-14,3.121572822e-14,3.496394545e-14,2.184774872e-14,3.66557604e-14,1.121735499e-12,4.430703674e-14,3.316826184e-14,1.370942354e-13,3.116725979e-13,3.318703723e-13,9.409568841e-14,2.287597328e-13,1.614914482e-14,1.869530955e-14,5.244637755e-14,2.492541754e-13,1.150567972e-13,4.19103105e-14,1.685828667e-13,3.260419175e-13,9.84481502e-14,3.51411792e-13,6.111157182e-14,5.165584889e-14
0.6484375,8.301821616e-14,4.161011029e-14,1.962099715e-13,4.38651325e-14,1.073920766e-14,1.205763003e-13,2.663680751e-13,1.28554394e-14,2.91638954e-14,4.125103621e-14,2.593054668e-14,3.573799987e-14,1.037645544e-12,4.103538346e-14,3.073451528e-14,1.268162106e-13,2.721291858e-13,3.260564483e-13,8.88868923e-14,2.122676078e-13,1.471759117e-14,1.815872589e-14,5.292129443e-14,2.75858113e-13,1.217440142e-13,4.333836934e-14,1.56021656e-13,3.696268523e-13,9.354534815e-14,3.903000344e-13,5.804868464e-14,5.255068262e-14
0.65625,7.285205144e-14,3.898244701e-14,1.704247669e-13,3.762306344e-14,9.839056772e-15,1.154046004e-13,2.739980195e-13,1.128265247e-14,2.736061816e-14,4.805507715e-14,3.064471287e-14,3.648093292e-14,9.643400545e-13,3.762247906e-14,2.797401509e-14,1.139137573e-13,2.353432805e-13,3.125982094e-13,8.174235581e-14,1.91834394e-13,1.366379828e-14,1.802508845e-14,5.235750195e-14,3.101366064e-13,1.297567165e-13,4.413628669e-14,1.439656179e-13,4.201231472e-13,8.753377485e-14,4.242393731e-13,5.395015152e-14,5.320695616e-14
0.6640625,6.455181806e-14,3.635937981e-14,1.466354745e-13,3.257987662e-14,9.331431864e-15,1.108443701e-13,2.816233964e-13,1.018398542e-14,2.57538392e-14,5.589764287e-14,3.668332592e-14,3.895226945e-14,9.265674815e-13,3.419501768e-14,2.520097498e-14,9.985503503e-14,2.070233135e-13,2.925444565e-13,7.34585382e-14,1.697302377e-13,1.344230048e-14,1.811028747e-14,5.122385761e-14,3.506384351e-13,1.382020485e-13,4.469845322e-14,1.334199803e-13,4.780354976e-13,8.023984145e-14,4.517587217e-13,4.947557908e-14,5.338258021e-14
0.671875,5.798941222e-14,3.40515591e-14,1.253468461e-13,2.863431458e-14,9.395564136e-15,1.06308841e-13,2.899831964e-13,9.46928796e-15,2.494979709e-14,6.482031344e-14,4.453393352e-14,4.346273222e-14,9.175549991e-13,3.115857412e-14,2.282016823e-14,8.605605223e-14,1.881253815e-13,2.684059065e-13,6.458113743e-14,1.489660555e-13,1.392890292e-14,1.863942342e-14,4.95476023e-14,3.94138435e-13,1.469111576e-13,4.543941024e-14,1.234310852e-13,5.386703316e-13,7.249868586e-14,4.727220032e-13,4.53493452e-14,5.358179477e-14
0.6796875,5.34248036e-14,3.222036367e-14,1.079991864e-13,2.562048008e-14,1.007568684e-14,1.017191309e-13,2.984600412e-13,8.929402825e-15,2.489753927e-14,7.385095758e-14,5.280131192e-14,4.929444856e-14,9.396400491e-13,2.843433685e-14,2.092614226e-14,7.312709939e-14,1.802380183e-13,2.416000647e-13,5.506180609e-14,1.299758407e-13,1.480155484e-14,1.992789591e-14,4.747789454e-14,4.376337111e-13,1.54660465e-13,4.641948838e-14,1.132246034e-13,6.054754623e-13,6.441485046e-14,4.845564086e-13,4.196150162e-14,5.381757076e-14
0.6875,5.032459895e-14,3.109910081e-14,9.431778778e-14,2.351931092e-14,1.143912694e-14,9.66019779e-14,3.067869574e-13,8.625586032e-15,2.520464121e-14,8.280627996e-14,6.11624355e-14,5.673215302e-14,9.846824115e-13,2.613913904e-14,1.949298262e-14,6.122677727e-14,1.803562146e-13,2.148667963e-13,4.56210039e-14,1.137488384e-13,1.607149612e-14,2.183702131e-14,4.513958697e-14,4.762502276e-13,1.602195795e-13,4.798332489e-14,1.031359414e-13,6.739441566e-13,5.687709368e-14,4.898711221e-13,4.005224e-14,5.360352258e-14
0.6953125,4.856085521e-14,3.071563733e-14,8.427247462e-14,2.235202178e-14,1.354385179e-14,9.105241117e-14,3.158351348e-13,8.60742202e-15,2.551396489e-14,9.124766685e-14,6.97167511e-14,6.503085185e-14,1.044129972e-12,2.441705973e-14,1.872301048e-14,5.134186696e-14,1.909777238e-13,1.896521514e-13,3.704023413e-14,1.011316807e-13,1.779357552e-14,2.394130512e-14,4.268308875e-14,5.044864083e-13,1.633199201e-13,4.996951935e-14,9.397237867e-14,7.472569665e-13,5.035276707e-14,4.867488067e-13,3.987119937e-14,5.289449765e-14
0.703125,4.875988917e-14,3.111356367e-14,7.794029631e-14,2.209394151e-14,1.647192821e-14,8.58334657e-14,3.266331691e-13,8.717053248e-15,2.564122727e-14,9.844302068e-14,7.804829751e-14,7.259656837e-14,1.118360181e-12,2.310589328e-14,1.868738107e-14,4.367043585e-14,2.079880087e-13,1.68449331e-13,3.008651099e-14,9.137056171e-14,1.974180037e-14,2.606907162e-14,4.069129344e-14,5.186940001e-13,1.636196176e-13,5.243622319e-14,8.55686583e-14,8.272363806e-13,4.478498964e-14,4.801061193e-13,4.161662582e-14,5.180950631e-14
0.7109375,5.05896282e-14,3.233835919e-14,7.423414061e-14,2.240745855e-14,2.029782192e-14,8.078574405e-14,3.391891018e-13,8.863432321e-15,2.558935762e-14,1.046024075e-13,8.555350503e-14,7.91431001e-14,1.194956902e-12,2.208982762e-14,1.92603965e-14,3.8026744e-14,2.273730885e-13,1.525011014e-13,2.549763083e-14,8.417806723e-14,2.181404838e-14,2.820663508e-14,3.967790571e-14,5.170643547e-13,1.623330691e-13,5.566431508e-14,7.850338908e-14,9.176627101e-13,4.064104311e-14,4.681359557e-13,4.542973147e-14,5.06194591e-14
0.71875,5.393299582e-14,3.429971371e-14,7.219294101e-14,2.33935079e-14,2.520703304e-14,7.667365256e-14,3.521684061e-13,9.271847793e-15,2.559635978e-14,1.101787325e-13,9.202073732e-14,8.525971177e-14,1.271374231e-12,2.190536058e-14,2.087835306e-14,3.512825617e-14,2.509295059e-13,1.411120138e-13,2.293753748e-14,7.952291126e-14,2.411862495e-14,3.01664197e-14,3.986588338e-14,5.028667143e-13,1.594942983e-13,5.986318649e-14,7.425460338e-14,1.012402994e-12,3.834773025e-14,4.562743454e-13,5.133787499e-14,4.971316199e-14
0.7265625,5.810594125e-14,3.685960757e-14,7.094503917e-14,2.517616483e-14,3.073462036e-14,7.340479968e-14,3.654082466e-13,9.846854244e-15,2.555060624e-14,1.147161151e-13,9.735564826e-14,9.097822465e-14,1.338961168e-12,2.302235102e-14,2.382999681e-14,3.46911967e-14,2.7262045e-13,1.336319299e-13,2.214249966e-14,7.656547636e-14,2.669987494e-14,3.195622559e-14,4.094698647e-14,4.77894145e-13,1.547836386e-13,6.420169519e-14,7.301264507e-14,1.110777299e-12,3.766906952e-14,4.502130735e-13,5.907709304e-14,4.886648962e-14
0.734375,6.23630896e-14,3.942350753e-14,7.014040043e-14,2.73003373e-14,3.661232687e-14,7.070521518e-14,3.772390238e-13,1.048254303e-14,2.531848064e-14,1.173459949e-13,1.015095314e-13,9.486184375e-14,1.379699227e-12,2.488793147e-14,2.750587975e-14,3.625680698e-14,2.905539624e-13,1.297492176e-13,2.307917817e-14,7.516819188e-14,2.931971637e-14,3.357212979e-14,4.280328979e-14,4.4222332e-13,1.485997971e-13,6.840111085e-14,7.485125085e-14,1.209817974e-12,3.797293251e-14,4.445474318e-13,6.814320725e-14,4.851231179e-14
0.7421875,6.556708278e-14,4.21811077e-14,6.878821343e-14,2.982215408e-14,4.307307099e-14,6.883840948e-14,3.871201759e-13,1.128356911e-14,2.45244265e-14,1.181769762e-13,1.04047936e-13,9.66231789e-14,1.399241174e-12,2.711922765e-14,3.155289389e-14,3.999842173e-14,3.05884275e-13,1.289332189e-13,2.528503536e-14,7.390408654e-14,3.189605415e-14,3.496644618e-14,4.524843812e-14,4.012383538e-13,1.412369161e-13,7.268225373e-14,8.019795606e-14,1.299678108e-12,3.974178711e-14,4.398175459e-13,7.82709533e-14,4.889866695e-14
0.75,6.75578359e-14,4.47978908e-14,6.647279248e-14,3.307678148e-14,5.006173312e-14,6.866451706e-14,3.953409588e-13,1.253126718e-14,2.355665105e-14,1.180709895e-13,1.050786359e-13,9.708468597e-14,1.382293732e-12,3.016477669e-14,3.659325957e-14,4.719091562e-14,3.240044798e-13,1.312667607e-13,2.846109106e-14,7.296435769e-14,3.443725978e-14,3.63501884e-14,4.790788921e-14,3.573477956e-13,1.329057285e-13,7.703539079e-14,8.750854128e-14,1.377828013e-12,4.264073461e-14,4.365242669e-13,8.898914319e-14,4.998562508e-14
0.7578125,6.900579447e-14,4.645441446e-14,6.32580682e-14,3.657721189e-14,5.635814757e-14,7.084462125e-14,4.005806025e-13,1.434868043e-14,2.308263424e-14,1.178806675e-13,1.057677714e-13,9.832633288e-14,1.331831527e-12,3.466271048e-14,4.263072671e-14,5.561137188e-14,3.404803745e-13,1.357704701e-13,3.186754615e-14,7.199403668e-14,3.706154671e-14,3.83466431e-14,5.054712587e-14,3.156027401e-13,1.2427203e-13,8.011906753e-14,9.46543354e-14,1.436203382e-12,4.571894752e-14,4.326272898e-13,9.780275625e-14,5.129736235e-14
0.765625,6.93553918e-14,4.636202801e-14,5.87245532e-14,3.943842341e-14,6.146030377e-14,7.378375984e-14,4.043796884e-13,1.698016303e-14,2.318753929e-14,1.186062345e-13,1.078391535e-13,1.008354321e-13,1.254551622e-12,3.995177406e-14,4.85395213e-14,6.496391841e-14,3.543250614e-13,1.41501107e-13,3.419294584e-14,6.927943436e-14,3.963515654e-14,4.086750819e-14,5.294076337e-14,2.788138546e-13,1.154446701e-13,8.163549081e-14,1.012804888e-13,1.477603891e-12,4.831726985e-14,4.241472206e-13,1.035392012e-13,5.293479472e-14
0.7734375,6.846333646e-14,4.496353306e-14,5.390360014e-14,4.132477185e-14,6.534739822e-14,7.636719164e-14,4.067102551e-13,2.074137071e-14,2.380371672e-14,1.20142437e-13,1.114599131e-13,1.038589384e-13,1.147320237e-12,4.497208334e-14,5.354084702e-14,7.56681584e-14,3.678675948e-13,1.477611161e-13,3.552932279e-14,6.589934654e-14,4.208152321e-14,4.391536586e-14,5.530450894e-14,2.480675201e-13,1.070869585e-13,8.200109267e-14,1.08199689e-13,1.490735501e-12,5.072081e-14,4.058337883e-13,1.068782152e-13,5.502188745e-14
0.78125,6.584424812e-14,4.270654449e-14,4.897737335e-14,4.272007789e-14,6.811036031e-14,7.795396236e-14,4.067248663e-13,2.592144416e-14,2.50090927e-14,1.226005946e-13,1.167416688e-13,1.075423876e-13,1.025438338e-12,4.972850675e-14,5.784020121e-14,8.862501892e-14,3.82903298e-13,1.542776928e-13,3.561155275e-14,6.154104657e-14,4.416447976e-14,4.737664091e-14,5.760571469e-14,2.233172615e-13,9.979645967e-14,8.16073739e-14,1.13449978e-13,1.476561182e-12,5.303649232e-14,3.814589905e-13,1.083288367e-13,5.717573971e-14
0.7890625,6.256840241e-14,3.973478816e-14,4.436573698e-14,4.339952511e-14,6.976542557e-14,7.940912455e-14,4.073568371e-13,3.231320861e-14,2.717977866e-14,1.267714808e-13,1.241935794e-13,1.123206915e-13,8.957087746e-13,5.486465395e-14,6.222049821e-14,1.015980615e-13,3.947906239e-13,1.601896788e-13,3.498252533e-14,5.756820178e-14,4.581475472e-14,5.1224506e-14,5.972892424e-14,2.038674052e-13,9.306881065e-14,7.999747562e-14,1.149063044e-13,1.438523441e-12,5.393998888e-14,3.564535543e-13,1.077600414e-13,5.959381122e-14
0.796875,5.93400877e-14,3.60009041e-14,4.140439319e-14,4.318631618e-14,7.009496215e-14,8.068705091e-14,4.096550892e-13,4.017088695e-14,3.059731999e-14,1.32976483e-13,1.332776042e-13,1.180724138e-13,7.654333973e-13,6.045220783e-14,6.61765284e-14,1.136961377e-13,4.018231588e-13,1.639602178e-13,3.341923891e-14,5.366166565e-14,4.700367725e-14,5.540128752e-14,6.160953014e-14,1.888571147e-13,8.699164281e-14,7.710149914e-14,1.116681329e-13,1.379936154e-12,5.259967389e-14,3.308846436e-13,1.04645219e-13,6.231943799e-14
0.8046875,5.600810249e-14,3.232973361e-14,4.049413027e-14,4.239910047e-14,6.975297441e-14,8.222580718e-14,4.142811086e-13,4.895036593e-14,3.460136334e-14,1.406168097e-13,1.425225816e-13,1.232465058e-13,6.412660469e-13,6.570534559e-14,6.928402104e-14,1.250522099e-13,4.038521717e-13,1.655156263e-13,3.165227954e-14,5.107409798e-14,4.804648786e-14,5.960618415e-14,6.327418139e-14,1.785081698e-13,8.121884638e-14,7.397425664e-14,1.056697582e-13,1.303797146e-12,5.02176024e-14,3.108320751e-13,1.005074695e-13,6.541991165e-14
0.8125,5.260239347e-14,2.919513343e-14,4.287099705e-14,4.146651442e-14,6.870116749e-14,8.403489549e-14,4.221400035e-13,5.777261445e-14,3.838924634e-14,1.492605549e-13,1.516371661e-13,1.269665195e-13,5.269517323e-13,7.017907218e-14,7.172837696e-14,1.350430293e-13,4.002869585e-13,1.64441679e-13,3.003312963e-14,5.04688814e-14,4.931696704e-14,6.374227344e-14,6.49647287e-14,1.740176195e-13,7.690643158e-14,7.090015864e-14,9.828820955e-14,1.205986965e-12,4.715308572e-14,2.98912924e-13,9.578551806e-14,6.842893258e-14
0.8203125,4.913641691e-14,2.686335234e-14,4.855201422e-14,4.106518337e-14,6.714128563e-14,8.784177309e-14,4.31985258e-13,6.567330094e-14,4.187299886e-14,1.593155508e-13,1.619946766e-13,1.292439017e-13,4.325859159e-13,7.379558261e-14,7.404099191e-14,1.435693877e-13,3.914103631e-13,1.607778994e-13,2.882642214e-14,5.043488499e-14,5.069729901e-14,6.780934798e-14,6.640976529e-14,1.755961523e-13,7.399685093e-14,6.778145982e-14,9.066019099e-14,1.09977317e-12,4.382974623e-14,3.016854815e-13,9.073997213e-14,7.09179627e-14
0.828125,4.555083103e-14,2.604756698e-14,5.794811389e-14,4.224457033e-14,6.595137883e-14,9.377374076e-14,4.439135188e-13,7.213483507e-14,4.510467998e-14,1.70215346e-13,1.723694866e-13,1.306524986e-13,3.548302536e-13,7.681982565e-14,7.671281715e-14,1.502880611e-13,3.787116039e-13,1.541385102e-13,2.854667059e-14,5.218794492e-14,5.203525802e-14,7.179418078e-14,6.700580879e-14,1.821127945e-13,7.17834653e-14,6.457409599e-14,8.319716114e-14,9.893279229e-13,4.103049973e-14,3.228361688e-13,8.629271664e-14,7.284999782e-14
0.8359375,4.193047829e-14,2.654475118e-14,7.105150957e-14,4.488397229e-14,6.546665708e-14,1.019863082e-13,4.538044735e-13,7.650442754e-14,4.74887381e-14,1.801276272e-13,1.806325522e-13,1.297923073e-13,2.934240389e-13,7.896218795e-14,7.998314002e-14,1.563205243e-13,3.665465293e-13,1.455764264e-13,2.939729558e-14,5.610681874e-14,5.343367003e-14,7.539771921e-14,6.688064318e-14,1.897959321e-13,7.109597771e-14,6.189307993e-14,7.633449615e-14,8.853155208e-13,3.939142625e-14,3.633347957e-13,8.311971201e-14,7.420050777e-14
0.84375,3.863845832e-14,2.796609232e-14,8.713574983e-14,4.868277128e-14,6.54424465e-14,1.12811428e-13,4.615386223e-13,7.793703848e-14,4.838403335e-14,1.882231716e-13,1.86639496e-13,1.261016648e-13,2.476107228e-13,8.017381068e-14,8.411041221e-14,1.620127353e-13,3.561706199e-13,1.348793188e-13,3.096085395e-14,6.167982034e-14,5.525417167e-14,7.800323293e-14,6.590224937e-14,1.972318961e-13,7.259349831e-14,5.970420636e-14,7.200751804e-14,7.871964679e-13,3.951033509e-14,4.216239346e-13,8.0946224e-14,7.466321066e-14
0.8515625,3.572813304e-14,3.023177656e-14,1.059847998e-13,5.402207454e-14,6.640567796e-14,1.259590058e-13,4.653137127e-13,7.632571038e-14,4.777539275e-14,1.937623345e-13,1.905494374e-13,1.203224704e-13,2.130039641e-13,8.092985381e-14,8.933127614e-14,1.681613652e-13,3.527622356e-13,1.233110983e-13,3.315311429e-14,6.889801687e-14,5.722610038e-14,7.965848812e-14,6.380773582e-14,1.999048865e-13,7.660134369e-14,5.8161033e-14,7.09394101e-14,7.014206395e-13,4.14052614e-14,4.95027733e-13,8.00755152e-14,7.433038333e-14
0.859375,3.339843724e-14,3.309040035e-14,1.267977544e-13,6.126875451e-14,6.859980861e-14,1.407675592e-13,4.64195571e-13,7.226227968e-14,4.602845377e-14,1.965448424e-13,1.922851137e-13,1.13815724e-13,1.905058775e-13,8.166276973e-14,9.556824172e-14,1.76377343e-13,3.592349708e-13,1.126689869e-13,3.629824713e-14,7.817350202e-14,5.932543954e-14,8.025682947e-14,6.047285322e-14,1.986467232e-13,8.308862237e-14,5.758834691e-14,7.270986782e-14,6.298426791e-13,4.516006908e-14,5.764025775e-13,8.097529283e-14,7.329240492e-14
0.8671875,3.174727846e-14,3.604981429e-14,1.473495732e-13,7.01296078e-14,7.183185018e-14,1.561391519e-13,4.563086953e-13,6.621153018e-14,4.305366974e-14,1.956900376e-13,1.911996018e-13,1.065368342e-13,1.819656617e-13,8.213350165e-14,1.025659732e-13,1.877785904e-13,3.799777786e-13,1.033340764e-13,4.051806283e-14,8.952150435e-14,6.133461659e-14,8.001202416e-14,5.618926204e-14,1.92898889e-13,9.230107272e-14,5.790945983e-14,7.725020791e-14,5.735998811e-13,5.048047568e-14,6.629170512e-13,8.354132602e-14,7.178134693e-14
0.875,3.122230761e-14,3.880166997e-14,1.65160375e-13,7.95755636e-14,7.532245069e-14,1.696651127e-13,4.403314318e-13,5.855116078e-14,3.896742165e-14,1.897058391e-13,1.84931119e-13,9.792846602e-14,1.870877168e-13,8.182167331e-14,1.085986284e-13,2.005662728e-13,4.113653342e-13,9.601435478e-14,4.585958125e-14,1.023561677e-13,6.341494711e-14,7.855448225e-14,5.125453767e-14,1.819951597e-13,1.030562782e-13,5.815724596e-14,8.376034488e-14,5.281848256e-13,5.665834749e-14,7.421645254e-13,8.687580902e-14,6.94644493e-14
0.8828125,3.169525632e-14,4.144743834e-14,1.78857541e-13,8.944907361e-14,7.933148718e-14,1.79880878e-13,4.139599546e-13,5.058965255e-14,3.468325429e-14,1.788449598e-13,1.732585607e-13,8.887734058e-14,2.038378306e-13,8.089180414e-14,1.126659587e-13,2.139425383e-13,4.544389011e-13,9.164970105e-14,5.221022139e-14,1.17243353e-13,6.56784142e-14,7.643478112e-14,4.606541211e-14,1.691276043e-13,1.149760784e-13,5.887532528e-14,9.156622887e-14,4.917224771e-13,6.42346601e-14,8.09337088e-13,9.102396802e-14,6.677695976e-14
0.890625,3.331981418e-14,4.386071215e-14,1.871967791e-13,9.951856072e-14,8.38648051e-14,1.873209694e-13,3.787581023e-13,4.29791791e-14,3.038163982e-14,1.636533333e-13,1.568245431e-13,7.964077223e-14,2.302764774e-13,7.920946074e-14,1.142405713e-13,2.270741007e-13,5.058384614e-13,9.035293661e-14,5.976077238e-14,1.338894121e-13,6.801153631e-14,7.381650654e-14,4.084685554e-14,1.555384019e-13,1.266913713e-13,6.030608534e-14,1.011709461e-13,4.601053067e-13,7.251469157e-14,8.562777153e-13,9.612748746e-14,6.430449253e-14
0.8984375,3.575191154e-14,4.618058495e-14,1.907466312e-13,1.094195604e-13,8.80443697e-14,1.917299175e-13,3.365776847e-13,3.605679271e-14,2.639282074e-14,1.45723482e-13,1.376009767e-13,7.177381152e-14,2.692715183e-13,7.713105705e-14,1.13061998e-13,2.383561257e-13,5.577617474e-13,9.139646822e-14,6.800026519e-14,1.486256924e-13,7.011624125e-14,7.083996682e-14,3.589020544e-14,1.455680062e-13,1.375644111e-13,6.178886807e-14,1.130119985e-13,4.372564038e-13,8.131372625e-14,8.830108883e-13,1.016935316e-13,6.185899103e-14
0.90625,3.875484471e-14,4.848305717e-14,1.902863743e-13,1.191731645e-13,9.177322442e-14,1.918128715e-13,2.901406234e-13,3.051582609e-14,2.282939627e-14,1.26485646e-13,1.179603976e-13,6.579784904e-14,3.189216538e-13,7.556689105e-14,1.102458149e-13,2.469640843e-13,6.052318003e-13,9.469276357e-14,7.686044631e-14,1.6112025e-13,7.206202914e-14,6.720907508e-14,3.115390522e-14,1.394625518e-13,1.467870236e-13,6.271180393e-14,1.263584166e-13,4.188372397e-13,9.090593483e-14,8.792979484e-13,1.073164433e-13,5.941698068e-14
0.9140625,4.185886498e-14,5.120436647e-14,1.856704152e-13,1.284702749e-13,9.578297601e-14,1.867910158e-13,2.446107002e-13,2.610455209e-14,1.990652481e-14,1.067092798e-13,9.847160154e-14,6.145723287e-14,3.805588744e-13,7.492488654e-14,1.058801116e-13,2.508850199e-13,6.433910022e-13,9.975956489e-14,8.547133691e-14,1.704411912e-13,7.330047145e-14,6.30768739e-14,2.710896399e-14,1.373117878e-13,1.523717457e-13,6.334048271e-14,1.392330682e-13,4.10173034e-13,1.015780801e-13,8.474447543e-13,1.13122044e-13,5.768013364e-14
0.921875,4.501041765e-14,5.447282877e-14,1.791681834e-13,1.36284199e-13,1.000915381e-13,1.774683855e-13,2.021364969e-13,2.241205501e-14,1.79255478e-14,8.75555799e-14,8.073769817e-14,5.893154965e-14,4.470738942e-13,7.542688762e-14,1.008157262e-13,2.494671873e-13,6.690946491e-13,1.064092142e-13,9.358894087e-14,1.762050446e-13,7.362871346e-14,5.85695151e-14,2.424923524e-14,1.403261981e-13,1.541073677e-13,6.47953471e-14,1.521577639e-13,4.115792252e-13,1.136533547e-13,7.923481886e-13,1.196827758e-13,5.716792367e-14
0.9296875,4.812548958e-14,5.765271548e-14,1.722980611e-13,1.413863359e-13,1.03538238e-13,1.644940552e-13,1.654954035e-13,1.945332725e-14,1.697508746e-14,7.06552246e-14,6.622199562e-14,5.780771128e-14,5.123337846e-13,7.662943963e-14,9.551879036e-14,2.430594122e-13,6.773639173e-13,1.144954289e-13,1.001810887e-13,1.756585813e-13,7.296300412e-14,5.396019155e-14,2.242100016e-14,1.479129979e-13,1.522452063e-13,6.69672767e-14,1.661240977e-13,4.257202447e-13,1.264695553e-13,7.15209105e-13,1.260706525e-13,5.765258408e-14
0.9375,5.092671877e-14,6.051206715e-14,1.668078702e-13,1.438745863e-13,1.063938456e-13,1.504411811e-13,1.372300841e-13,1.720628394e-14,1.711988212e-14,5.665998369e-14,5.469104125e-14,5.781730292e-14,5.757777893e-13,7.810201864e-14,9.037363674e-14,2.337324621e-13,6.726137008e-13,1.236958962e-13,1.060301168e-13,1.69058148e-13,7.110101697e-14,4.929391969e-14,2.158024433e-14,1.594593885e-13,1.470599571e-13,7.014956646e-14,1.804598664e-13,4.56191755e-13,1.398150498e-13,6.258216242e-13,1.326930334e-13,5.983023635e-14
0.9453125,5.322779282e-14,6.273952146e-14,1.629680675e-13,1.434878e-13,1.08312962e-13,1.356411061e-13,1.172273637e-13,1.548550626e-14,1.806168263e-14,4.620689841e-14,4.652213759e-14,5.892127707e-14,6.314806153e-13,7.970705407e-14,8.594437634e-14,2.211573954e-13,6.521687372e-13,1.337845508e-13,1.113043822e-13,1.578920363e-13,6.871721185e-14,4.495785991e-14,2.180562161e-14,1.732499798e-13,1.394931452e-13,7.424690577e-14,1.953213216e-13,5.003615173e-13,1.536741352e-13,5.27565296e-13,1.393861292e-13,6.367239259e-14
0.953125,5.506171716e-14,6.472008146e-14,1.605368648e-13,1.404322438e-13,1.09028975e-13,1.218073631e-13,1.065759804e-13,1.409121404e-14,1.974245742e-14,3.961978531e-14,4.174699583e-14,6.074626843e-14,6.717507037e-13,8.109816132e-14,8.196583608e-14,2.06917225e-13,6.229191899e-13,1.452210398e-13,1.163484872e-13,1.44103463e-13,6.62083966e-14,4.141955524e-14,2.313199241e-14,1.870028189e-13,1.314572147e-13,7.917673642e-14,2.093336895e-13,5.579792793e-13,1.674233436e-13,4.285173085e-13,1.459465804e-13,6.821292082e-14
0.9609375,5.620071929e-14,6.628640621e-14,1.581101074e-13,1.344720169e-13,1.085693364e-13,1.097504131e-13,1.03216094e-13,1.298033578e-14,2.205068508e-14,3.615816239e-14,3.97970272e-14,6.262241649e-14,6.891424769e-13,8.213845732e-14,7.875611269e-14,1.917583809e-13,5.846227798e-13,1.565390454e-13,1.208210799e-13,1.288016883e-13,6.371487454e-14,3.895104807e-14,2.562108326e-14,1.993358651e-13,1.230030494e-13,8.450573955e-14,2.207887402e-13,6.211399741e-13,1.784854968e-13,3.36738241e-13,1.521379008e-13,7.292049997e-14
0.96875,5.653508064e-14,6.756970307e-14,1.559937299e-13,1.265578279e-13,1.077952533e-13,1.001743045e-13,1.043231862e-13,1.252359843e-14,2.484692436e-14,3.501122679e-14,4.038755895e-14,6.385311196e-14,6.833654019e-13,8.24965172e-14,7.687159161e-14,1.792859423e-13,5.491408013e-13,1.697691229e-13,1.248955645e-13,1.141144528e-13,6.124198988e-14,3.78166199e-14,2.94622544e-14,2.102754648e-13,1.153377063e-13,9.052955094e-14,2.281289057e-13,6.857950128e-13,1.862451667e-13,2.575975469e-13,1.584618407e-13,7.778897161e-14
0.9765625,5.614501912e-14,6.851424759e-14,1.531100396e-13,1.179056255e-13,1.065817247e-13,9.432895255e-14,1.084890475e-13,1.272326471e-14,2.779400458e-14,3.58574632e-14,4.278547917e-14,6.44105422e-14,6.562904904e-13,8.182477986e-14,7.590523924e-14,1.690688068e-13,5.159538695e-13,1.851820323e-13,1.292157538e-13,1.0104702e-13,5.895978264e-14,3.795555464e-14,3.412873004e-14,2.187459499e-13,1.090198072e-13,9.622824239e-14,2.30617814e-13,7.411940838e-13,1.899822941e-13,1.941657007e-13,1.646034504e-13,8.18274895e-14
0.984375,5.528118199e-14,6.910772723e-14,1.494233994e-13,1.09151277e-13,1.045750913e-13,9.207239328e-14,1.141846071e-13,1.364044533e-14,3.056144551e-14,3.797794092e-14,4.611081203e-14,6.427931732e-14,6.173453871e-13,8.01537115e-14,7.548362096e-14,1.604462049e-13,4.83720409e-13,2.011953855e-13,1.336007096e-13,9.048505329e-14,5.737193141e-14,3.930176275e-14,3.990542894e-14,2.243171482e-13,1.053888909e-13,1.009925838e-13,2.282305564e-13,7.778503254e-13,1.898130065e-13,1.488660921e-13,1.695859392e-13,8.441391434e-14
0.9921875,5.349769568e-14,6.944475659e-14,1.434956883e-13,1.005495545e-13,1.015018038e-13,9.364344311e-14,1.202521088e-13,1.516872281e-14,3.266283612e-14,4.11835433e-14,5.041555006e-14,6.330165979e-14,5.718850413e-13,7.745493332e-14,7.50516873e-14,1.537816477e-13,4.552813935e-13,2.164371927e-13,1.365573524e-13,8.301927374e-14,5.614625877e-14,4.109617183e-14,4.733749184e-14,2.279059794e-13,1.0433524e-13,1.041712038e-13,2.214060864e-13,7.867232658e-13,1.865590059e-13,1.225818347e-13,1.727445003e-13,8.48040976e-14
1,5.104905408e-14,6.948925095e-14,1.360680041e-13,9.278489108e-14,9.694279142e-14,9.88999875e-14,1.24433869e-13,1.686874862e-14,3.437284758e-14,4.382479034e-14,5.450709892e-14,6.152037508e-14,5.316507457e-13,7.367286817e-14,7.457569826e-14,1.491403428e-13,4.304653918e-13,2.301284679e-13,1.37548734e-13,7.83355536e-14,5.4789403e-14,4.247375888e-14,5.575805473e-14,2.283136804e-13,1.062123472e-13,1.04946656e-13,2.109024053e-13,7.741692243e-13,1.808129136e-13,1.137835483e-13,1.737952142e-13,8.256788777e-14
1.0078125,4.772444242e-14,6.836423509e-14,1.264960986e-13,8.566950543e-14,9.092632664e-14,1.064001896e-13,1.251491063e-13,1.878628731e-14,3.573430107e-14,4.546015986e-14,5.834803329e-14,6.013485777e-14,5.089512388e-13,6.986401652e-14,7.483632935e-14,1.458497384e-13,4.085563736e-13,2.422361449e-13,1.359670701e-13,7.546656364e-14,5.332065691e-14,4.30656311e-14,6.495671999e-14,2.251294258e-13,1.110251973e-13,1.033673563e-13,1.971459166e-13,7.398326767e-13,1.724199069e-13,1.195251724e-13,1.719334213e-13,7.811700725e-14
1.015625,4.387865835e-14,6.632083414e-14,1.16038779e-13,7.966986551e-14,8.427714264e-14,1.156553884e-13,1.240540083e-13,2.075083902e-14,3.670019019e-14,4.655836688e-14,6.243141685e-14,5.935377928e-14,5.086153558e-13,6.646553428e-14,7.516888613e-14,1.443082752e-13,3.931434718e-13,2.530996531e-13,1.314015401e-13,7.446148441e-14,5.171858027e-14,4.268322295e-14,7.514072328e-14,2.202894258e-13,1.191333618e-13,1.004198543e-13,1.829671058e-13,6.930887857e-13,1.624227971e-13,1.369962539e-13,1.675005443e-13,7.229364512e-14
1.0234375,3.992297086e-14,6.359763358e-14,1.057702486e-13,7.473093985e-14,7.762302845e-14,1.262416572e-13,1.203925147e-13,2.247315222e-14,3.728724825e-14,4.766704527e-14,6.73648433e-14,5.936598026e-14,5.357399753e-13,6.403909562e-14,7.692784143e-14,1.452546234e-13,3.853550757e-13,2.622634502e-13,1.247327595e-13,7.606492246e-14,5.020813489e-14,4.113979221e-14,8.605882088e-14,2.130725545e-13,1.300975527e-13,9.759041408e-14,1.710359773e-13,6.452412543e-13,1.522811693e-13,1.612244792e-13,1.614422413e-13,6.625104763e-14
1.03125,3.65630376e-14,6.023436723e-14,9.537692821e-14,7.00635775e-14,7.08352488e-14,1.369403137e-13,1.157308997e-13,2.36156477e-14,3.758378324e-14,4.874319546e-14,7.284717369e-14,6.14100885e-14,5.915287476e-13,6.335602285e-14,8.026863492e-14,1.472878874e-13,3.808727925e-13,2.674902519e-13,1.160248822e-13,7.874581299e-14,4.90981603e-14,3.809657901e-14,9.668728841e-14,2.066998404e-13,1.429180691e-13,9.50363694e-14,1.632966438e-13,6.07821675e-13,1.424728701e-13,1.902625041e-13,1.538884534e-13,6.017694607e-14
1.0390625,3.379910172e-14,5.683022589e-14,8.60930558e-14,6.598280402e-14,6.439583839e-14,1.470435423e-13,1.083976272e-13,2.399359449e-14,3.771532683e-14,4.817739563e-14,7.790317591e-14,6.535254547e-14,6.681866866e-13,6.457092782e-14,8.580970165e-14,1.513396226e-13,3.838173318e-13,2.695599891e-13,1.056750521e-13,8.193827199e-14,4.787071769e-14,3.397143413e-14,1.065255218e-13,1.999971448e-13,1.568125913e-13,9.340431989e-14,1.607552918e-13,5.903941265e-13,1.345580654e-13,2.212812827e-13,1.460135598e-13,5.464498973e-14
1.046875,3.208456792e-14,5.346114492e-14,7.892274668e-14,6.260575833e-14,5.848521528e-14,1.548790694e-13,9.986472421e-14,2.363705188e-14,3.794838842e-14,4.649443329e-14,8.308247808e-14,7.111041108e-14,7.53950547e-13,6.812546959e-14,9.327524497e-14,1.563278675e-13,3.899845275e-13,2.694402258e-13,9.494768033e-14,8.565004019e-14,4.646834786e-14,2.939765525e-14,1.150443613e-13,1.93748022e-13,1.711239527e-13,9.267091678e-14,1.649904857e-13,5.880365246e-13,1.286050265e-13,2.488384711e-13,1.380747211e-13,5.030568419e-14
1.0546875,3.192423948e-14,5.128338236e-14,7.490069137e-14,6.047419128e-14,5.399867462e-14,1.60789706e-13,9.158793525e-14,2.279235315e-14,3.856739597e-14,4.437671846e-14,8.927057181e-14,7.89967168e-14,8.422331946e-13,7.476382853e-14,1.045718931e-13,1.63936692e-13,4.035605237e-13,2.688444016e-13,8.474224165e-14,9.007339237e-14,4.49003779e-14,2.52384248e-14,1.220849745e-13,1.885784658e-13,1.861427874e-13,9.420681125e-14,1.78035109e-13,6.028393447e-13,1.269314245e-13,2.745680846e-13,1.323888375e-13,4.762364071e-14
1.0625,3.328538943e-14,5.050421165e-14,7.438926324e-14,5.980590589e-14,5.085865802e-14,1.649541544e-13,8.430904721e-14,2.174153885e-14,3.951335585e-14,4.24534799e-14,9.666681278e-14,8.825921107e-14,9.246722665e-13,8.384093182e-14,1.190886998e-13,1.741975021e-13,4.213733543e-13,2.683096004e-13,7.604763698e-14,9.518672936e-14,4.353578682e-14,2.165051459e-14,1.265617857e-13,1.840311166e-13,2.001190374e-13,9.745016382e-14,1.977723718e-13,6.295125694e-13,1.303294028e-13,2.96317882e-13,1.296242527e-13,4.643230109e-14
1.0703125,3.597828405e-14,5.09905307e-14,7.707359707e-14,6.06905479e-14,4.862295225e-14,1.675198577e-13,7.855143811e-14,2.016919291e-14,4.042793715e-14,4.038290388e-14,1.050850224e-13,9.796331223e-14,9.993539753e-13,9.511515689e-14,1.360393001e-13,1.847315581e-13,4.391019956e-13,2.667438668e-13,6.886079183e-14,1.011897579e-13,4.224524632e-14,1.875697082e-14,1.282200775e-13,1.802621194e-13,2.116612086e-13,1.010164605e-13,2.201429254e-13,6.599291368e-13,1.379083375e-13,3.148660506e-13,1.286465723e-13,4.62194089e-14
1.078125,3.96131149e-14,5.27605264e-14,8.317517955e-14,6.323303531e-14,4.734034876e-14,1.679967391e-13,7.467402829e-14,1.849204774e-14,4.124119953e-14,3.789526768e-14,1.137589058e-13,1.072075704e-13,1.061670926e-12,1.071856567e-13,1.541638125e-13,1.941750524e-13,4.547434928e-13,2.652189475e-13,6.336053681e-14,1.0782299e-13,4.147245306e-14,1.659096493e-14,1.270482417e-13,1.780910038e-13,2.205965223e-13,1.038659596e-13,2.424316866e-13,6.828347903e-13,1.484149757e-13,3.266340079e-13,1.289716582e-13,4.698873815e-14
1.0859375,4.397069402e-14,5.596633235e-14,9.221302758e-14,6.7033309e-14,4.625562669e-14,1.652031872e-13,7.32960843e-14,1.6961621e-14,4.196190817e-14,3.575080774e-14,1.229638401e-13,1.156702384e-13,1.107517392e-12,1.185492131e-13,1.715516569e-13,2.010560853e-13,4.64944472e-13,2.648589354e-13,5.970747059e-14,1.15307993e-13,4.123744799e-14,1.513543061e-14,1.236238017e-13,1.784196348e-13,2.258013607e-13,1.05318426e-13,2.629884009e-13,6.90806109e-13,1.621805243e-13,3.310223692e-13,1.303100368e-13,4.806736827e-14
1.09375,4.868497426e-14,6.034940655e-14,1.043824869e-13,7.217957533e-14,4.497141555e-14,1.605228048e-13,7.522752538e-14,1.577510556e-14,4.265714631e-14,3.444343591e-14,1.335077032e-13,1.235289734e-13,1.135517391e-12,1.283346429e-13,1.869009061e-13,2.041296282e-13,4.681545093e-13,2.647923879e-13,5.757633916e-14,1.242531188e-13,4.130553669e-14,1.433079134e-14,1.181903932e-13,1.811800276e-13,2.282889603e-13,1.049710168e-13,2.803086221e-13,6.820244609e-13,1.790351271e-13,3.279559893e-13,1.323322555e-13,4.901469751e-14
1.1015625,5.290339312e-14,6.571971412e-14,1.199379834e-13,7.801308713e-14,4.311475909e-14,1.545027511e-13,7.976064527e-14,1.509399296e-14,4.329275837e-14,3.397775789e-14,1.442725834e-13,1.307624234e-13,1.16819457e-12,1.357981713e-13,1.991064766e-13,2.02865743e-13,4.642658801e-13,2.640800103e-13,5.688535445e-14,1.348727829e-13,4.193153097e-14,1.402578265e-14,1.112966286e-13,1.877959243e-13,2.27127217e-13,1.026387444e-13,2.905508429e-13,6.594463977e-13,1.98345824e-13,3.198020794e-13,1.3406541e-13,4.938429944e-14
1.109375,5.616453339e-14,7.139822721e-14,1.375756432e-13,8.422956881e-14,4.098566784e-14,1.480274315e-13,8.777137458e-14,1.512980736e-14,4.404880371e-14,3.440691606e-14,1.537619054e-13,1.370883174e-13,1.197936644e-12,1.396250833e-13,2.064338148e-13,1.968757026e-13,4.538162452e-13,2.630164976e-13,5.75253684e-14,1.476983333e-13,4.338597094e-14,1.402923157e-14,1.039905572e-13,2.006968265e-13,2.22183092e-13,9.837590698e-14,2.904970813e-13,6.201228343e-13,2.169697123e-13,3.032370043e-13,1.345701053e-13,4.918845647e-14
1.1171875,5.826273276e-14,7.70109545e-14,1.573238337e-13,9.00893591e-14,3.816271465e-14,1.423657861e-13,9.872545212e-14,1.617101491e-14,4.52374116e-14,3.549524064e-14,1.60416005e-13,1.428397104e-13,1.23766572e-12,1.396104294e-13,2.085612075e-13,1.850388614e-13,4.346870386e-13,2.610452778e-13,5.924830004e-14,1.625718551e-13,4.586230706e-14,1.442486865e-14,9.683778918e-14,2.206479048e-13,2.138459503e-13,9.187286378e-14,2.795363547e-13,5.744593863e-13,2.331147589e-13,2.807563303e-13,1.330105385e-13,4.798141192e-14
1.125,5.912287681e-14,8.169350258e-14,1.784534207e-13,9.538598578e-14,3.482861542e-14,1.377170065e-13,1.127582005e-13,1.827485407e-14,4.724260479e-14,3.765365461e-14,1.651827093e-13,1.498114536e-13,1.295031801e-12,1.36825632e-13,2.073719514e-13,1.697605078e-13,4.128677515e-13,2.584115824e-13,6.197526193e-14,1.793115411e-13,4.903787764e-14,1.525181956e-14,9.111532545e-14,2.425878198e-13,2.034804224e-13,8.365614708e-14,2.592046096e-13,5.316735949e-13,2.456302761e-13,2.576011441e-13,1.291123732e-13,4.620170518e-14
1.1328125,5.904747395e-14,8.487581641e-14,1.995145315e-13,9.863058651e-14,3.081855855e-14,1.345080163e-13,1.297655926e-13,2.143636218e-14,5.027075655e-14,4.142881765e-14,1.687425347e-13,1.591965268e-13,1.368381927e-12,1.324572449e-13,2.05351886e-13,1.513553448e-13,3.878819803e-13,2.530542354e-13,6.524942677e-14,1.972940625e-13,5.305659234e-14,1.662536934e-14,8.754542293e-14,2.658801043e-13,1.91861356e-13,7.451228203e-14,2.344737958e-13,5.021847519e-13,2.526142489e-13,2.343374652e-13,1.227170887e-13,4.397834038e-14
1.140625,5.829329405e-14,8.696991911e-14,2.189363646e-13,1.000965749e-13,2.670122574e-14,1.332665729e-13,1.497485854e-13,2.559170352e-14,5.443510534e-14,4.68025233e-14,1.727089479e-13,1.719526214e-13,1.447478884e-12,1.286521701e-13,2.060110716e-13,1.320500742e-13,3.629482691e-13,2.472593407e-13,6.856668956e-14,2.157427133e-13,5.764181953e-14,1.837323759e-14,8.698340542e-14,2.878468568e-13,1.795497647e-13,6.647937341e-14,2.090785372e-13,4.871962889e-13,2.546390452e-13,2.149612635e-13,1.160079306e-13,4.130043612e-14
1.1484375,5.727187223e-14,8.73593283e-14,2.361539655e-13,9.953838589e-14,2.318031446e-14,1.334903954e-13,1.71803195e-13,3.058825271e-14,5.920035108e-14,5.406524852e-14,1.790262599e-13,1.874952178e-13,1.528653552e-12,1.263837493e-13,2.119637829e-13,1.150634757e-13,3.43168862e-13,2.407460034e-13,7.166298808e-14,2.337961275e-13,6.23533961e-14,2.03023272e-14,8.933349477e-14,3.059134971e-13,1.675331287e-13,5.966680609e-14,1.835490765e-13,4.931776853e-13,2.501110589e-13,1.996771499e-13,1.092311168e-13,3.867405763e-14
1.15625,5.591779557e-14,8.532233921e-14,2.487373978e-13,9.631253663e-14,2.010337406e-14,1.341205839e-13,1.943975928e-13,3.598704868e-14,6.442067654e-14,6.287859695e-14,1.891281121e-13,2.045911601e-13,1.601262881e-12,1.254962376e-13,2.234671985e-13,1.003414996e-13,3.289921654e-13,2.319771501e-13,7.381479845e-14,2.495370505e-13,6.652070014e-14,2.235902214e-14,9.351315465e-14,3.130987126e-13,1.552987121e-13,5.373441179e-14,1.60216344e-13,5.136794702e-13,2.37368359e-13,1.887676691e-13,1.014668031e-13,3.614858476e-14
1.1640625,5.473623911e-14,8.170904928e-14,2.573985055e-13,9.119794993e-14,1.821600826e-14,1.338514076e-13,2.198868613e-13,4.196742149e-14,7.039317111e-14,7.331793975e-14,2.054521475e-13,2.226161943e-13,1.660802444e-12,1.270825455e-13,2.414267785e-13,8.931630813e-14,3.231119418e-13,2.222562861e-13,7.483150523e-14,2.627180315e-13,6.991637384e-14,2.453984269e-14,9.899712539e-14,3.072683866e-13,1.434999725e-13,4.903184384e-14,1.399033306e-13,5.475492149e-13,2.192153339e-13,1.831516896e-13,9.450234028e-14,3.434090835e-14
1.171875,5.418900295e-14,7.742354407e-14,2.63272929e-13,8.502244723e-14,1.751435962e-14,1.318884276e-13,2.461356508e-13,4.811133036e-14,7.639660405e-14,8.455876635e-14,2.287727137e-13,2.399224098e-13,1.695912727e-12,1.307976758e-13,2.643128842e-13,8.291220664e-14,3.254102777e-13,2.12439261e-13,7.470429813e-14,2.733887161e-13,7.201750186e-14,2.651427693e-14,1.046306517e-13,2.885443552e-13,1.333915235e-13,4.586623235e-14,1.26170722e-13,5.830627876e-13,1.989647463e-13,1.805019903e-13,8.978221077e-14,3.301672933e-14
1.1796875,5.386463899e-14,7.357405815e-14,2.660198562e-13,7.853769795e-14,1.804625581e-14,1.272611595e-13,2.734098644e-13,5.370999322e-14,8.140770347e-14,9.568882386e-14,2.580371906e-13,2.556355631e-13,1.711997671e-12,1.35171131e-13,2.888870743e-13,8.177281367e-14,3.364006694e-13,2.027767957e-13,7.324887423e-14,2.80999851e-13,7.233631023e-14,2.782136079e-14,1.093102131e-13,2.596096646e-13,1.242278443e-13,4.436158153e-14,1.195099678e-13,6.180002929e-13,1.785330282e-13,1.817228692e-13,8.849759254e-14,3.177468782e-14
1.1875,5.373379319e-14,7.030151013e-14,2.673502412e-13,7.2684896e-14,1.965446816e-14,1.207661757e-13,3.023756227e-13,5.793430646e-14,8.462798804e-14,1.056695092e-13,2.908476035e-13,2.674843652e-13,1.70439488e-12,1.376159776e-13,3.10050809e-13,8.496591361e-14,3.52975328e-13,1.939868475e-13,7.045394132e-14,2.839062979e-13,7.080096628e-14,2.844636249e-14,1.126705337e-13,2.254195559e-13,1.166517238e-13,4.36001659e-14,1.172180702e-13,6.411016155e-13,1.583951824e-13,1.822521584e-13,9.01044693e-14,3.068268482e-14
1.1953125,5.361825772e-14,6.870430166e-14,2.681645741e-13,6.890324717e-14,2.275581092e-14,1.122014635e-13,3.310787703e-13,6.026115616e-14,8.559019378e-14,1.136984895e-13,3.257994033e-13,2.734600648e-13,1.69035091e-12,1.377382693e-13,3.271673141e-13,9.251675477e-14,3.715326468e-13,1.855817387e-13,6.599675328e-14,2.835557582e-13,6.751509343e-14,2.836970742e-14,1.136955727e-13,1.884408013e-13,1.111207161e-13,4.362448365e-14,1.188264416e-13,6.554281767e-13,1.412852868e-13,1.812689716e-13,9.576828185e-14,2.93895775e-14
1.203125,5.346024433e-14,6.962298794e-14,2.695122072e-13,6.785508233e-14,2.774380663e-14,1.025132814e-13,3.58796762e-13,6.090743546e-14,8.436668317e-14,1.189657952e-13,3.596550018e-13,2.724872572e-13,1.685625035e-12,1.345956053e-13,3.381038597e-13,1.042668455e-13,3.910147932e-13,1.78055163e-13,6.067084862e-14,2.814263503e-13,6.356575794e-14,2.804426376e-14,1.131206061e-13,1.522659495e-13,1.081008284e-13,4.48047755e-14,1.240794859e-13,6.542665871e-13,1.290905407e-13,1.763909938e-13,1.064039655e-13,2.795538898e-14
1.2109375,5.344132295e-14,7.288660315e-14,2.713378351e-13,6.918901722e-14,3.434302647e-14,9.15869533e-14,3.849675816e-13,5.998440492e-14,8.121482456e-14,1.212940315e-13,3.9077876e-13,2.654190751e-13,1.698833406e-12,1.292278304e-13,3.428360819e-13,1.188079347e-13,4.087392402e-13,1.698248093e-13,5.470688906e-14,2.773775721e-13,5.893721794e-14,2.753962479e-14,1.105778617e-13,1.197278591e-13,1.069489746e-13,4.70253085e-14,1.318659195e-13,6.431626064e-13,1.218395863e-13,1.666651109e-13,1.210301199e-13,2.657278909e-14
1.21875,5.303658235e-14,7.823663485e-14,2.715753308e-13,7.270736798e-14,4.193916069e-14,8.078024933e-14,4.071813609e-13,5.741971002e-14,7.613929026e-14,1.202451887e-13,4.171915878e-13,2.531849497e-13,1.718064453e-12,1.220634821e-13,3.423432681e-13,1.347099615e-13,4.197410388e-13,1.597850026e-13,4.846362101e-14,2.706544951e-13,5.430721787e-14,2.712263696e-14,1.067662281e-13,9.409398011e-14,1.078625254e-13,4.98545722e-14,1.413269584e-13,6.241783036e-13,1.186500196e-13,1.53333978e-13,1.38083957e-13,2.532248102e-14
1.2265625,5.227373366e-14,8.524632101e-14,2.711895755e-13,7.87983323e-14,5.020274485e-14,7.095231697e-14,4.243496721e-13,5.342175854e-14,6.963721833e-14,1.170425869e-13,4.400090937e-13,2.375855598e-13,1.753075073e-12,1.137705589e-13,3.377933755e-13,1.49994314e-13,4.212290589e-13,1.494653539e-13,4.247400401e-14,2.614199193e-13,4.990340392e-14,2.679382421e-14,1.019623686e-13,7.700595536e-14,1.109850965e-13,5.305792447e-14,1.528064399e-13,6.025799963e-13,1.18923546e-13,1.391086083e-13,1.561901806e-13,2.4505753e-14
1.234375,5.153998545e-14,9.26923396e-14,2.68214984e-13,8.693940965e-14,5.847255593e-14,6.204606678e-14,4.352161554e-13,4.854934831e-14,6.241378797e-14,1.127131342e-13,4.591694574e-13,2.203750363e-13,1.799689226e-12,1.061703431e-13,3.30555626e-13,1.630448469e-13,4.145530702e-13,1.393985217e-13,3.7136176e-14,2.500188177e-13,4.606154727e-14,2.672231623e-14,9.617882993e-14,6.830459032e-14,1.148089285e-13,5.584217088e-14,1.651717956e-13,5.792520783e-13,1.209180455e-13,1.252220402e-13,1.732505844e-13,2.410297896e-14
1.2421875,5.061207685e-14,9.895442499e-14,2.618061512e-13,9.639847253e-14,6.568236924e-14,5.50873562e-14,4.377061545e-13,4.307712797e-14,5.460845134e-14,1.078921079e-13,4.746876979e-13,2.026929515e-13,1.844214383e-12,1.004132716e-13,3.215485161e-13,1.710286433e-13,3.961183105e-13,1.287403274e-13,3.258844135e-14,2.3626913e-13,4.308788428e-14,2.692874739e-14,9.038476682e-14,6.775740777e-14,1.189009584e-13,5.747329252e-14,1.792864679e-13,5.595532159e-13,1.222461023e-13,1.139280285e-13,1.861372155e-13,2.416002274e-14
1.25,4.93022694e-14,1.040800841e-13,2.513218431e-13,1.063361621e-13,7.190092146e-14,4.942063907e-14,4.326607036e-13,3.717887223e-14,4.661692748e-14,1.028951543e-13,4.866014899e-13,1.847303044e-13,1.878300048e-12,9.659755532e-14,3.110173045e-13,1.753221507e-13,3.745587445e-13,1.190599248e-13,2.920950639e-14,2.233896559e-13,4.072556407e-14,2.749648596e-14,8.481586117e-14,7.435982258e-14,1.221925276e-13,5.925618842e-14,1.967770132e-13,5.407097458e-13,1.232401699e-13,1.086408723e-13,1.952589915e-13,2.490243645e-14
1.2578125,4.810378186e-14,1.073401612e-13,2.373821275e-13,1.151279316e-13,7.663507555e-14,4.463409739e-14,4.199457813e-13,3.128301497e-14,3.918594948e-14,9.795454285e-14,4.933064563e-13,1.674475001e-13,1.902359355e-12,9.492070464e-14,2.981454497e-13,1.751517252e-13,3.517361776e-13,1.099345344e-13,2.725048332e-14,2.133020802e-13,3.925428416e-14,2.835953e-14,7.953726678e-14,8.763809125e-14,1.243461552e-13,6.09678747e-14,2.156157915e-13,5.308411766e-13,1.22347389e-13,1.111096605e-13,1.99432163e-13,2.587043285e-14
1.265625,4.712478208e-14,1.078380615e-13,2.20522788e-13,1.210730276e-13,7.871366374e-14,4.076911042e-14,3.992695683e-13,2.559080223e-14,3.259414429e-14,9.28820952e-14,4.916073834e-13,1.511614487e-13,1.909801772e-12,9.422103954e-14,2.826328118e-13,1.708057405e-13,3.281952702e-13,1.015648755e-13,2.633602665e-14,2.040331849e-13,3.839723908e-14,2.933999761e-14,7.51917295e-14,1.063509244e-13,1.258752402e-13,6.237816581e-14,2.356043284e-13,5.272432846e-13,1.193914398e-13,1.244023882e-13,1.971348718e-13,2.662247483e-14
1.2734375,4.609132562e-14,1.043540063e-13,2.027928608e-13,1.232374174e-13,7.789733686e-14,3.744050982e-14,3.718727023e-13,2.04693332e-14,2.684813742e-14,8.665541229e-14,4.783939499e-13,1.350330731e-13,1.916128426e-12,9.306728099e-14,2.628671396e-13,1.627477761e-13,3.091622341e-13,9.427735425e-14,2.619227758e-14,1.956522313e-13,3.760910263e-14,3.041530614e-14,7.121788198e-14,1.29517127e-13,1.259096063e-13,6.312269925e-14,2.564492914e-13,5.343151156e-13,1.135036896e-13,1.498843367e-13,1.87000738e-13,2.712152504e-14
1.28125,4.505961073e-14,9.82148488e-14,1.844468053e-13,1.217724387e-13,7.497538771e-14,3.470005106e-14,3.403676165e-13,1.61364932e-14,2.203447077e-14,7.908113886e-14,4.530339024e-13,1.189019858e-13,1.929675701e-12,9.140360015e-14,2.397667716e-13,1.524231378e-13,2.976085133e-13,8.894155421e-14,2.643988287e-14,1.891092316e-13,3.651506096e-14,3.151122507e-14,6.801956953e-14,1.547748143e-13,1.243182056e-13,6.400225488e-14,2.773959205e-13,5.555373687e-13,1.061906351e-13,1.877280135e-13,1.715162678e-13,2.772765252e-14
1.2890625,4.458890438e-14,8.984152465e-14,1.660807694e-13,1.168048282e-13,7.130444207e-14,3.253866942e-14,3.078505412e-13,1.265689353e-14,1.815928886e-14,7.089294411e-14,4.19506435e-13,1.03466606e-13,1.956599263e-12,8.943226836e-14,2.167160304e-13,1.419777972e-13,2.940167128e-13,8.500093472e-14,2.667514725e-14,1.843458963e-13,3.527817336e-14,3.244815867e-14,6.616675066e-14,1.815140957e-13,1.214307583e-13,6.573447562e-14,2.975628417e-13,5.856081819e-13,9.797441072e-14,2.374009448e-13,1.535302031e-13,2.875056914e-14
1.296875,4.434250666e-14,8.010782676e-14,1.474365139e-13,1.079118089e-13,6.756150168e-14,3.090616964e-14,2.777205504e-13,1.020337455e-14,1.548707797e-14,6.241584779e-14,3.784191142e-13,8.902937796e-14,2.01031481e-12,8.70105579e-14,1.951757678e-13,1.331079021e-13,3.029021139e-13,8.14932636e-14,2.638644376e-14,1.794621555e-13,3.360416049e-14,3.310524729e-14,6.576154648e-14,2.061762722e-13,1.169322382e-13,6.84795081e-14,3.141337428e-13,6.183291856e-13,8.993990766e-14,2.960118317e-13,1.346056667e-13,2.981527842e-14
1.3046875,4.453543756e-14,7.026035746e-14,1.299300094e-13,9.669158325e-14,6.415079307e-14,3.011913842e-14,2.518404795e-13,8.734109575e-15,1.410108294e-14,5.39124659e-14,3.318078876e-13,7.60756519e-14,2.074968782e-12,8.526938618e-14,1.77467774e-13,1.274501298e-13,3.238671741e-13,7.876750497e-14,2.572163155e-14,1.745548057e-13,3.143872331e-14,3.338414613e-14,6.626688105e-14,2.274823982e-13,1.126810366e-13,7.218585608e-14,3.277932028e-13,6.480092843e-13,8.327053439e-14,3.592073404e-13,1.169273824e-13,3.087047184e-14
1.3125,4.584929771e-14,6.04493104e-14,1.145150885e-13,8.435364192e-14,6.148626859e-14,3.038264138e-14,2.333519251e-13,8.238554288e-15,1.36894982e-14,4.594051782e-14,2.813201683e-13,6.46468967e-14,2.158535682e-12,8.424023485e-14,1.64675467e-13,1.254754652e-13,3.575906057e-13,7.669527283e-14,2.444753207e-14,1.687479119e-13,2.875568489e-14,3.334747795e-14,6.7433516e-14,2.413786743e-13,1.089988996e-13,7.713478844e-14,3.398146832e-13,6.676930554e-13,7.770908242e-14,4.219389958e-13,1.008316805e-13,3.246263885e-14
1.3203125,4.822576756e-14,5.155843283e-14,1.014768969e-13,7.256530394e-14,6.021317491e-14,3.225439177e-14,2.241542769e-13,8.807860602e-15,1.417173695e-14,3.878664736e-14,2.295291287e-13,5.421126582e-14,2.255879395e-12,8.356019653e-14,1.566592307e-13,1.265361563e-13,4.006521084e-13,7.456268569e-14,2.249361141e-14,1.616357356e-13,2.574661467e-14,3.264984381e-14,6.891971565e-14,2.462495751e-13,1.067892807e-13,8.341413964e-14,3.499509563e-13,6.759155494e-13,7.351863484e-14,4.814960932e-13,8.720063111e-14,3.487628338e-14
1.328125,5.215230388e-14,4.437929875e-14,9.226111265e-14,6.287528751e-14,6.094581175e-14,3.591372401e-14,2.272659779e-13,1.023561922e-14,1.572236954e-14,3.35902878e-14,1.821919996e-13,4.565324908e-14,2.366767772e-12,8.451697193e-14,1.554465662e-13,1.317862849e-13,4.532198992e-13,7.20990694e-14,2.008189967e-14,1.533574339e-13,2.292686203e-14,3.144969264e-14,7.078422665e-14,2.418328586e-13,1.082392953e-13,9.11383052e-14,3.578718893e-13,6.651664481e-13,7.156499837e-14,5.356391248e-13,7.741337042e-14,3.806789996e-14
1.3359375,5.777393745e-14,3.886646037e-14,8.713497183e-14,5.48981249e-14,6.324742209e-14,4.142840797e-14,2.438207202e-13,1.252217552e-14,1.812120267e-14,3.064556488e-14,1.403555298e-13,3.855218228e-14,2.49192518e-12,8.647498791e-14,1.590002673e-13,1.393279434e-13,5.093715844e-13,6.917080497e-14,1.74045556e-14,1.441252586e-13,2.006815314e-14,2.994642756e-14,7.245600708e-14,2.277546619e-13,1.128730063e-13,9.915361961e-14,3.617356463e-13,6.457821069e-13,7.061919882e-14,5.838668134e-13,7.050005312e-14,4.174672712e-14
1.34375,6.530248043e-14,3.537178914e-14,8.705352553e-14,4.913516916e-14,6.658338106e-14,4.87379708e-14,2.742224723e-13,1.539077897e-14,2.137314477e-14,3.010472555e-14,1.051982164e-13,3.240756726e-14,2.619870987e-12,8.992886169e-14,1.667472712e-13,1.483013875e-13,5.65712085e-13,6.605907292e-14,1.475801349e-14,1.336441026e-13,1.74401655e-14,2.805151249e-14,7.342537737e-14,2.069139175e-13,1.223824294e-13,1.067430292e-13,3.625578357e-13,6.151451082e-13,7.080673507e-14,6.227528752e-13,6.612575007e-14,4.588108792e-14
1.3515625,7.438812642e-14,3.405132127e-14,9.24863612e-14,4.559598542e-14,7.079006464e-14,5.797299846e-14,3.186212877e-13,1.862899024e-14,2.546099366e-14,3.24372178e-14,7.878326805e-14,2.804352033e-14,2.766539999e-12,9.48951518e-14,1.779347809e-13,1.575780191e-13,6.182895983e-13,6.286129031e-14,1.214287221e-14,1.215809191e-13,1.517309863e-14,2.58464407e-14,7.408533842e-14,1.811486632e-13,1.354109032e-13,1.148094792e-13,3.633504708e-13,5.842651526e-13,7.248305515e-14,6.573531905e-13,6.433601704e-14,5.053631557e-14
1.359375,8.492852917e-14,3.464967263e-14,1.025482736e-13,4.394414314e-14,7.574003019e-14,6.859154803e-14,3.75544952e-13,2.231822343e-14,3.007894788e-14,3.75659812e-14,6.042313602e-14,2.47506793e-14,2.937340179e-12,1.005463139e-13,1.891137957e-13,1.651792665e-13,6.6793582e-13,6.076995383e-14,9.905833535e-15,1.101866689e-13,1.335554223e-14,2.356624115e-14,7.414612478e-14,1.560472249e-13,1.507655903e-13,1.230175625e-13,3.626594821e-13,5.600878143e-13,7.504992275e-14,6.913241109e-13,6.442483752e-14,5.54685572e-14
1.3671875,9.580809067e-14,3.693611402e-14,1.165880678e-13,4.447680164e-14,8.081995047e-14,8.0385943e-14,4.397168947e-13,2.630758733e-14,3.517306179e-14,4.510112381e-14,4.960646131e-14,2.255114016e-14,3.12533552e-12,1.063971276e-13,1.96914618e-13,1.681598315e-13,7.045309033e-13,6.02447818e-14,8.362957964e-15,9.964262544e-14,1.227765784e-14,2.156166578e-14,7.38012378e-14,1.335429162e-13,1.656285484e-13,1.30140647e-13,3.577395558e-13,5.493742131e-13,7.737473861e-14,7.242404959e-13,6.53353319e-14,6.027260238e-14
1.375,1.068433001e-13,4.058838964e-14,1.322264385e-13,4.63640619e-14,8.566720902e-14,9.201973398e-14,5.066261717e-13,3.049463925e-14,4.059032031e-14,5.458904569e-14,4.574281061e-14,2.134813398e-14,3.310982967e-12,1.119631755e-13,2.005666213e-13,1.668851214e-13,7.316658546e-13,6.204016752e-14,7.440071775e-15,8.988845159e-14,1.164036847e-14,1.984927667e-14,7.328709411e-14,1.157829812e-13,1.777766769e-13,1.356858861e-13,3.480441938e-13,5.524942711e-13,7.947242846e-14,7.550970532e-13,6.67428033e-14,6.470284348e-14
1.3828125,1.179994678e-13,4.539121263e-14,1.475499077e-13,4.932519615e-14,9.010227274e-14,1.027788949e-13,5.69902364e-13,3.461787851e-14,4.608041625e-14,6.580206944e-14,4.786391849e-14,2.111008737e-14,3.479158153e-12,1.167852808e-13,1.99124368e-13,1.612880129e-13,7.489871673e-13,6.654339599e-14,7.2706608e-15,8.133190865e-14,1.126604693e-14,1.843693784e-14,7.216058918e-14,1.028835839e-13,1.864046919e-13,1.393121736e-13,3.348832348e-13,5.716092006e-13,8.257445418e-14,7.799365209e-13,6.882930836e-14,6.854959315e-14
1.390625,1.294488875e-13,5.056126437e-14,1.588227669e-13,5.243706538e-14,9.321388106e-14,1.121960269e-13,6.226345375e-13,3.813697033e-14,5.092240554e-14,7.774382885e-14,5.427619895e-14,2.167117151e-14,3.596314618e-12,1.20960417e-13,1.93459582e-13,1.526696528e-13,7.602918167e-13,7.53655473e-14,7.860535483e-15,7.348028188e-14,1.129379747e-14,1.751277575e-14,7.058488359e-14,9.591261689e-14,1.907686771e-13,1.414122966e-13,3.204115453e-13,6.069825822e-13,8.690931937e-14,7.971847083e-13,7.133561237e-14,7.119446844e-14
1.3984375,1.400324343e-13,5.599038671e-14,1.66007469e-13,5.545306664e-14,9.479813467e-14,1.202033907e-13,6.587127276e-13,4.097510456e-14,5.410210852e-14,8.94972385e-14,6.361722675e-14,2.221766036e-14,3.66042116e-12,1.224526983e-13,1.82187447e-13,1.417095361e-13,7.652783799e-13,8.827457466e-14,9.37725155e-15,6.698227693e-14,1.174286288e-14,1.708156045e-14,6.820593522e-14,9.379009991e-14,1.893450209e-13,1.420897111e-13,3.051194747e-13,6.532377682e-13,9.263533724e-14,8.030397135e-13,7.426486864e-14,7.230541166e-14
1.40625,1.4995177e-13,6.166908082e-14,1.668610507e-13,5.762999873e-14,9.488472239e-14,1.252780744e-13,6.763966068e-13,4.329663155e-14,5.557498129e-14,1.012205777e-13,7.552897626e-14,2.291489753e-14,3.640237548e-12,1.208604643e-13,1.661907869e-13,1.302682251e-13,7.656107585e-13,1.053389439e-13,1.18831412e-14,6.157439126e-14,1.241118804e-14,1.719197621e-14,6.477625547e-14,9.539554269e-14,1.817059839e-13,1.409260964e-13,2.877623446e-13,7.047292718e-13,1.002505503e-13,7.901075647e-13,7.780927937e-14,7.208843576e-14
1.4140625,1.600184261e-13,6.741292053e-14,1.616206967e-13,5.834223272e-14,9.375214508e-14,1.263302187e-13,6.758417457e-13,4.521087563e-14,5.531384594e-14,1.130876626e-13,8.849400965e-14,2.433340162e-14,3.508987407e-12,1.166039834e-13,1.47778774e-13,1.194660572e-13,7.603767432e-13,1.263421845e-13,1.549272242e-14,5.6649694e-14,1.287515494e-14,1.747875566e-14,6.030761841e-14,9.823376345e-14,1.702443705e-13,1.378108874e-13,2.686461684e-13,7.57652737e-13,1.092961765e-13,7.561633918e-13,8.201705707e-14,7.069175528e-14
1.421875,1.698307314e-13,7.333219655e-14,1.502247891e-13,5.816869437e-14,9.196490409e-14,1.241751828e-13,6.591519448e-13,4.654054248e-14,5.37899874e-14,1.248912952e-13,1.024690092e-13,2.656364827e-14,3.277840009e-12,1.112270611e-13,1.30145395e-13,1.109500341e-13,7.495748879e-13,1.496633338e-13,2.042273056e-14,5.232143141e-14,1.325096825e-14,1.784776918e-14,5.522146957e-14,1.010015712e-13,1.580267957e-13,1.329329066e-13,2.497977504e-13,8.09367532e-13,1.204963543e-13,7.077007437e-13,8.732092745e-14,6.819695992e-14
1.4296875,1.790540196e-13,7.925850135e-14,1.335451313e-13,5.689095905e-14,8.97068289e-14,1.201877382e-13,6.285499121e-13,4.715195138e-14,5.144815102e-14,1.358134899e-13,1.156201792e-13,2.911364441e-14,2.961066006e-12,1.046835923e-13,1.144672585e-13,1.044545645e-13,7.315423797e-13,1.737615025e-13,2.651548783e-14,4.912203765e-14,1.374136182e-14,1.855439388e-14,5.007198484e-14,1.031664923e-13,1.47783871e-13,1.27257804e-13,2.321928853e-13,8.599382062e-13,1.330984963e-13,6.502783076e-13,9.369735258e-14,6.49840528e-14
1.4375,1.87383144e-13,8.545356457e-14,1.140181183e-13,5.496899696e-14,8.71205073e-14,1.15173261e-13,5.914171158e-13,4.711435606e-14,4.855761665e-14,1.460070139e-13,1.274911702e-13,3.201407299e-14,2.589260964e-12,9.643763721e-14,1.009502197e-13,9.912463048e-14,7.043820186e-13,1.965655691e-13,3.394990053e-14,4.737569437e-14,1.443323099e-14,1.976260554e-14,4.477524867e-14,1.052294541e-13,1.394740645e-13,1.208861593e-13,2.166402757e-13,9.067745642e-13,1.465475186e-13,5.881423788e-13,1.010259673e-13,6.147005015e-14
1.4453125,1.943760579e-13,9.160135346e-14,9.399712657e-14,5.255500343e-14,8.424520594e-14,1.085205767e-13,5.51409583e-13,4.662094605e-14,4.547651512e-14,1.559926706e-13,1.391743952e-13,3.578034377e-14,2.19209013e-12,8.806878108e-14,9.131282336e-14,9.418352905e-14,6.677618548e-13,2.144094122e-13,4.236458377e-14,4.641107723e-14,1.555208871e-14,2.117161395e-14,3.934649396e-14,1.069554151e-13,1.327140475e-13,1.142516514e-13,2.020141904e-13,9.446252453e-13,1.596462474e-13,5.276334743e-13,1.089630733e-13,5.758121031e-14
1.453125,1.991491747e-13,9.738789654e-14,7.464593884e-14,5.000970661e-14,8.131899364e-14,9.991469928e-14,5.137855615e-13,4.558144725e-14,4.231820546e-14,1.6479373e-13,1.492778497e-13,3.997400769e-14,1.795821172e-12,8.014706081e-14,8.521749787e-14,8.87033644e-14,6.202170592e-13,2.258218735e-13,5.143380049e-14,4.673044912e-14,1.685773403e-14,2.293313632e-14,3.378346709e-14,1.067122596e-13,1.265843102e-13,1.070107083e-13,1.869490053e-13,9.797157782e-13,1.70685734e-13,4.791095772e-13,1.169885044e-13,5.310238351e-14
1.4609375,1.99998446e-13,1.020141386e-13,5.759736864e-14,4.795640191e-14,7.879550942e-14,9.098630578e-14,4.810005707e-13,4.413898606e-14,3.940894857e-14,1.718841976e-13,1.574773022e-13,4.401224402e-14,1.437096462e-12,7.325058847e-14,8.290200668e-14,8.182106242e-14,5.640958962e-13,2.298650636e-13,6.026832373e-14,4.755668932e-14,1.85581176e-14,2.489547097e-14,2.874774773e-14,1.069328833e-13,1.212104787e-13,9.965050286e-14,1.726462527e-13,1.004788009e-12,1.778973887e-13,4.447035321e-13,1.243503095e-13,4.837574837e-14
1.46875,1.978752207e-13,1.054147393e-13,4.305940046e-14,4.629733057e-14,7.684765838e-14,8.263776781e-14,4.536568543e-13,4.265444866e-14,3.715214268e-14,1.773299467e-13,1.628270997e-13,4.794118904e-14,1.127622691e-12,6.780604203e-14,8.358041051e-14,7.406087831e-14,5.054389537e-13,2.271284901e-13,6.915761281e-14,4.998473132e-14,2.072866906e-14,2.737798379e-14,2.447815097e-14,1.078584222e-13,1.17220517e-13,9.262344813e-14,1.597720549e-13,1.033431239e-12,1.812836724e-13,4.246526198e-13,1.306021286e-13,4.378220634e-14
1.4765625,1.928037077e-13,1.071911625e-13,3.193828796e-14,4.551284867e-14,7.551888076e-14,7.552224252e-14,4.324258492e-13,4.113237919e-14,3.551283416e-14,1.801898381e-13,1.644092753e-13,5.090505878e-14,8.830885141e-13,6.367955062e-14,8.644000851e-14,6.565031289e-14,4.450530923e-13,2.193611817e-13,7.729714689e-14,5.335183789e-14,2.34560107e-14,3.069456736e-14,2.104930353e-14,1.113877212e-13,1.140067307e-13,8.609931442e-14,1.493441091e-13,1.061790221e-12,1.808213173e-13,4.231155294e-13,1.356585126e-13,3.931065951e-14
1.484375,1.857633501e-13,1.070841702e-13,2.383188739e-14,4.539074953e-14,7.457334669e-14,6.924311419e-14,4.160506869e-13,3.95120297e-14,3.423797015e-14,1.805428827e-13,1.625639085e-13,5.271252952e-14,7.008376324e-13,6.059150156e-14,9.077408069e-14,5.773541423e-14,3.866722503e-13,2.0914919e-13,8.456249397e-14,5.767206439e-14,2.670646054e-14,3.475129913e-14,1.845047394e-14,1.184140483e-13,1.103132822e-13,8.020578161e-14,1.408469362e-13,1.087069572e-12,1.765009778e-13,4.315316078e-13,1.39258738e-13,3.507278013e-14
1.4921875,1.77366244e-13,1.039948302e-13,1.826370129e-14,4.536010516e-14,7.358894686e-14,6.408885167e-14,4.024055835e-13,3.783580999e-14,3.282685629e-14,1.766498929e-13,1.579375732e-13,5.290887167e-14,5.739398678e-13,5.775745656e-14,9.6448186e-14,5.103274138e-14,3.323956696e-13,1.975246471e-13,9.079661486e-14,6.302115926e-14,3.041435414e-14,3.934316177e-14,1.650474377e-14,1.299094332e-13,1.073686061e-13,7.451938699e-14,1.348374049e-13,1.100139733e-12,1.668216795e-13,4.459202767e-13,1.403650706e-13,3.103090133e-14
1.5,1.689890552e-13,9.814454608e-14,1.474082668e-14,4.534165196e-14,7.212744979e-14,5.992068144e-14,3.911611555e-13,3.625518115e-14,3.133476122e-14,1.681537388e-13,1.504061843e-13,5.088262107e-14,4.965811343e-13,5.442265758e-14,1.018312493e-13,4.605329607e-14,2.850747016e-13,1.87289166e-13,9.592613335e-14,6.926319198e-14,3.464541632e-14,4.405029376e-14,1.515642982e-14,1.478339835e-13,1.054727918e-13,6.876253755e-14,1.304869899e-13,1.09853593e-12,1.522923564e-13,4.572472807e-13,1.383824537e-13,2.727345983e-14
1.5078125,1.616435987e-13,8.996597415e-14,1.263922055e-14,4.483734081e-14,7.003030201e-14,5.619560829e-14,3.810155899e-13,3.525520912e-14,3.005771649e-14,1.560168166e-13,1.409928403e-13,4.73220659e-14,4.585962798e-13,5.072007855e-14,1.075205254e-13,4.336260952e-14,2.451152297e-13,1.811539163e-13,1.007952281e-13,7.655436118e-14,3.945526361e-14,4.903953592e-14,1.457671461e-14,1.721334619e-13,1.046888142e-13,6.292353591e-14,1.268358885e-13,1.088638507e-12,1.346814405e-13,4.641761151e-13,1.334341437e-13,2.408867961e-14
1.515625,1.564795564e-13,8.037247559e-14,1.178835836e-14,4.363317991e-14,6.694502935e-14,5.269722445e-14,3.713450403e-13,3.53148495e-14,2.918351078e-14,1.419776368e-13,1.304652861e-13,4.287067802e-14,4.491837127e-13,4.649299151e-14,1.116874531e-13,4.272008111e-14,2.15197477e-13,1.784720017e-13,1.058047893e-13,8.565902728e-14,4.449349363e-14,5.423138841e-14,1.450652495e-14,2.016198842e-13,1.045600544e-13,5.682845093e-14,1.230641951e-13,1.069757538e-12,1.163657385e-13,4.606406201e-13,1.25830802e-13,2.155685956e-14
1.5234375,1.538571563e-13,7.029183219e-14,1.224302547e-14,4.190432914e-14,6.324350452e-14,4.885997027e-14,3.604465659e-13,3.626523566e-14,2.881259574e-14,1.267173679e-13,1.204732612e-13,3.792809224e-14,4.73599184e-13,4.238559773e-14,1.149821266e-13,4.370634003e-14,1.923900521e-13,1.785801728e-13,1.11140698e-13,9.680065868e-14,4.961165707e-14,5.967481302e-14,1.485182551e-14,2.347722577e-13,1.04438006e-13,5.091954693e-14,1.174381779e-13,1.04207253e-12,9.89962967e-14,4.522746221e-13,1.167653774e-13,1.960180244e-14
1.53125,1.530329209e-13,6.054036463e-14,1.378860724e-14,3.967313572e-14,5.887514577e-14,4.485434041e-14,3.500683644e-13,3.830447601e-14,2.88053008e-14,1.113193283e-13,1.111872028e-13,3.280399786e-14,5.241641605e-13,3.757512843e-14,1.16044891e-13,4.584329255e-14,1.773455938e-13,1.813532384e-13,1.169078139e-13,1.107258489e-13,5.468977858e-14,6.520772629e-14,1.567224427e-14,2.686689629e-13,1.04768344e-13,4.540840985e-14,1.110582656e-13,1.004120429e-12,8.379052809e-14,4.361425802e-13,1.070627015e-13,1.804369199e-14
1.5390625,1.5416652e-13,5.249356149e-14,1.676306908e-14,3.73046284e-14,5.421877312e-14,4.060700343e-14,3.376331871e-13,4.141887125e-14,2.93409253e-14,9.639964236e-14,1.030869508e-13,2.806677728e-14,5.995497011e-13,3.261548123e-14,1.15531335e-13,4.937468107e-14,1.701015242e-13,1.853684015e-13,1.228724781e-13,1.288329771e-13,5.988393735e-14,7.06084867e-14,1.663746332e-14,3.011343133e-13,1.032109877e-13,4.077032034e-14,1.032642179e-13,9.63038331e-13,7.24532176e-14,4.167312519e-13,9.811595458e-14,1.673263598e-14
1.546875,1.562272859e-13,4.685092496e-14,2.076998926e-14,3.518349117e-14,4.97866105e-14,3.604753785e-14,3.27562168e-13,4.53856446e-14,3.02328824e-14,8.365994734e-14,9.660897818e-14,2.453565298e-14,6.978683052e-13,2.82853962e-14,1.142684282e-13,5.35289748e-14,1.689396938e-13,1.902860323e-13,1.294019465e-13,1.494657473e-13,6.508554211e-14,7.571578792e-14,1.767518377e-14,3.276062172e-13,1.000805496e-13,3.722419479e-14,9.485481623e-14,9.250173692e-13,6.525432544e-14,4.052848852e-13,8.998936856e-14,1.574289706e-14
1.5546875,1.592905339e-13,4.37307435e-14,2.594932213e-14,3.360660116e-14,4.521011075e-14,3.210899925e-14,3.166615699e-13,4.966355698e-14,3.142120954e-14,7.289144506e-14,9.174553044e-14,2.24478743e-14,8.107427982e-13,2.459675261e-14,1.107398702e-13,5.744679398e-14,1.737282737e-13,1.956635899e-13,1.366414711e-13,1.718814079e-13,7.037185114e-14,8.029559223e-14,1.877806797e-14,3.4502309e-13,9.533323749e-14,3.412542696e-14,8.488173707e-14,8.940839906e-13,6.192387519e-14,3.997662781e-13,8.204199007e-14,1.515168094e-14
1.5625,1.622241673e-13,4.333708618e-14,3.241291384e-14,3.306757981e-14,4.096523549e-14,2.907357039e-14,3.076859233e-13,5.390690717e-14,3.259894497e-14,6.414217534e-14,8.782697496e-14,2.17128901e-14,9.387284369e-13,2.18986394e-14,1.057342584e-13,6.107358955e-14,1.880828778e-13,2.028648188e-13,1.452420886e-13,1.966486914e-13,7.63072945e-14,8.457958569e-14,2.006312474e-14,3.535971274e-13,8.946238671e-14,3.18101485e-14,7.361616345e-14,8.724758489e-13,6.201048172e-14,4.065782049e-13,7.483672544e-14,1.476637248e-14
1.5703125,1.627165027e-13,4.554317088e-14,3.954024878e-14,3.381552265e-14,3.757762124e-14,2.691980891e-14,3.003920004e-13,5.818937667e-14,3.406064105e-14,5.751214119e-14,8.437926935e-14,2.222539968e-14,1.064478148e-12,2.004704155e-14,9.954626079e-14,6.45624529e-14,2.127083812e-13,2.114549443e-13,1.553640684e-13,2.222178437e-13,8.275932741e-14,8.891111802e-14,2.159859784e-14,3.532381432e-13,8.234994962e-14,2.998278025e-14,6.195142919e-14,8.580804435e-13,6.478515758e-14,4.245242144e-13,6.902106746e-14,1.444825274e-14
1.578125,1.602747024e-13,4.961631135e-14,4.651173483e-14,3.545623892e-14,3.469952546e-14,2.495943936e-14,2.947028949e-13,6.18999444e-14,3.551006597e-14,5.267061601e-14,8.162584343e-14,2.400729797e-14,1.189919401e-12,1.952729888e-14,9.353847522e-14,6.829031074e-14,2.480389835e-13,2.205188472e-13,1.658318145e-13,2.432685459e-13,8.796147111e-14,9.328707615e-14,2.322068887e-14,3.477625052e-13,7.608617985e-14,2.842084314e-14,5.341914308e-14,8.575990298e-13,7.02924727e-14,4.548951262e-13,6.406153779e-14,1.429090184e-14
1.5859375,1.538591161e-13,5.489871994e-14,5.348836616e-14,3.707717683e-14,3.18707633e-14,2.282514414e-14,2.921321459e-13,6.466048613e-14,3.642129843e-14,4.955367566e-14,7.889078392e-14,2.657005895e-14,1.30691079e-12,1.996551794e-14,8.712024228e-14,7.182983158e-14,2.938569354e-13,2.303847748e-13,1.768838225e-13,2.577213998e-13,9.134176988e-14,9.767078166e-14,2.440826708e-14,3.380401524e-13,7.214650919e-14,2.661314106e-14,4.85359307e-14,8.657777893e-13,7.836795588e-14,4.976537044e-13,5.883236052e-14,1.447262571e-14
1.59375,1.436213636e-13,5.993484863e-14,6.067012552e-14,3.835467956e-14,2.894556761e-14,2.09461137e-14,2.918886512e-13,6.653015348e-14,3.66568798e-14,4.793466692e-14,7.742343449e-14,2.951123487e-14,1.414088537e-12,2.129127435e-14,8.099370422e-14,7.476104869e-14,3.445206753e-13,2.390111354e-13,1.878255017e-13,2.644858292e-13,9.367096622e-14,1.020233337e-13,2.540353667e-14,3.270105194e-13,7.014862355e-14,2.476380185e-14,4.61093935e-14,8.775539893e-13,8.679704821e-14,5.49607261e-13,5.291886354e-14,1.497596801e-14
1.6015625,1.310451604e-13,6.423868885e-14,6.812634749e-14,3.936428391e-14,2.65942053e-14,1.910080995e-14,2.928557654e-13,6.798906716e-14,3.656378095e-14,4.758564927e-14,7.919080619e-14,3.297179476e-14,1.53041242e-12,2.357410373e-14,7.604056113e-14,7.839933883e-14,4.014703988e-13,2.463130051e-13,1.973810308e-13,2.651677171e-13,9.514962969e-14,1.06110093e-13,2.640985384e-14,3.165861571e-13,7.048098417e-14,2.327573454e-14,4.742048531e-14,8.877915871e-13,9.515708865e-14,6.122482622e-13,4.758345828e-14,1.586445272e-14
1.609375,1.154982822e-13,6.696505316e-14,7.70105984e-14,3.981517408e-14,2.461751894e-14,1.706647252e-14,2.94317556e-13,6.91626428e-14,3.625198848e-14,4.818016304e-14,8.423562025e-14,3.720692286e-14,1.66911327e-12,2.663944413e-14,7.216310224e-14,8.211965445e-14,4.54783986e-13,2.490720708e-13,2.038474509e-13,2.60689145e-13,9.467172226e-14,1.097728448e-13,2.693247752e-14,3.069741451e-13,7.266692093e-14,2.182232192e-14,5.336066164e-14,8.918806653e-13,1.032695512e-13,6.846575249e-13,4.259528671e-14,1.711214961e-14
1.6171875,9.843704654e-14,6.773819639e-14,8.679143139e-14,3.967126688e-14,2.265064833e-14,1.496045894e-14,2.958575212e-13,7.029312372e-14,3.570576259e-14,5.064994005e-14,9.388372377e-14,4.21700758e-14,1.818341112e-12,3.006397004e-14,6.853575769e-14,8.52647321e-14,5.010492706e-13,2.481954572e-13,2.075356371e-13,2.510252765e-13,9.197370758e-14,1.131350245e-13,2.677484721e-14,2.991780622e-13,7.584369444e-14,2.029343397e-14,6.304342702e-14,8.86825318e-13,1.108228737e-13,7.563910903e-13,3.748511346e-14,1.855717643e-14
1.625,8.228643624e-14,6.663337812e-14,9.790830779e-14,3.888133e-14,2.064998918e-14,1.319760722e-14,2.944818218e-13,7.127713508e-14,3.493521507e-14,5.492913113e-14,1.10162432e-13,4.854864063e-14,1.982771149e-12,3.377143507e-14,6.644566778e-14,8.758569995e-14,5.319144735e-13,2.420840708e-13,2.085379061e-13,2.381505687e-13,8.762901684e-14,1.163207073e-13,2.623719633e-14,2.903119963e-13,7.897695289e-14,1.907339475e-14,7.65276332e-14,8.755249799e-13,1.176116696e-13,8.246605626e-13,3.282690801e-14,2.028138466e-14
1.6328125,6.837331124e-14,6.356084356e-14,1.103079059e-13,3.776921387e-14,1.900919496e-14,1.241905608e-14,2.915187984e-13,7.186963821e-14,3.396064062e-14,6.087944628e-14,1.313817071e-13,5.6454726e-14,2.146950332e-12,3.751683895e-14,6.573317315e-14,8.968275278e-14,5.509030014e-13,2.311373383e-13,2.066873312e-13,2.258653607e-13,8.285653651e-14,1.192493192e-13,2.598543379e-14,2.800592546e-13,8.285190733e-14,1.855756788e-14,9.503803154e-14,8.503342886e-13,1.228548371e-13,8.77557395e-13,2.886708899e-14,2.263856748e-14
1.640625,5.714256268e-14,5.943635477e-14,1.223034546e-13,3.694729515e-14,1.803420931e-14,1.321981008e-14,2.841382148e-13,7.135137145e-14,3.26812212e-14,6.821010199e-14,1.560629153e-13,6.540433272e-14,2.290141574e-12,4.184401517e-14,6.648694063e-14,9.084080569e-14,5.557104679e-13,2.153232331e-13,2.012724754e-13,2.137739809e-13,7.759114119e-14,1.209349123e-13,2.619879614e-14,2.685038299e-13,8.717229563e-14,1.886689884e-14,1.176341727e-13,8.151733456e-13,1.271371536e-13,9.111733477e-13,2.61226853e-14,2.553841178e-14
1.6484375,4.835310082e-14,5.426871763e-14,1.3364114e-13,3.661718468e-14,1.77151986e-14,1.579648354e-14,2.727571919e-13,6.951298388e-14,3.135405617e-14,7.66020344e-14,1.830955543e-13,7.5748901e-14,2.401438874e-12,4.722270191e-14,6.830406594e-14,9.0391222e-14,5.45220349e-13,1.952424707e-13,1.92181851e-13,2.010402434e-13,7.184127341e-14,1.211366713e-13,2.670913339e-14,2.591614676e-13,9.252032829e-14,1.980393941e-14,1.430609345e-13,7.725987367e-13,1.302060238e-13,9.249189188e-13,2.430498075e-14,2.879094095e-14
1.65625,4.247244463e-14,4.86500601e-14,1.434639301e-13,3.67256404e-14,1.829700101e-14,2.02618376e-14,2.587566378e-13,6.633827676e-14,3.039220723e-14,8.488990735e-14,2.102766765e-13,8.797147552e-14,2.451427542e-12,5.410084111e-14,7.136603222e-14,8.854872496e-14,5.23832033e-13,1.726390198e-13,1.810114024e-13,1.883946576e-13,6.599782837e-14,1.206359731e-13,2.757099905e-14,2.546519703e-13,9.762979519e-14,2.138439354e-14,1.694477847e-13,7.232362205e-13,1.324823875e-13,9.134340887e-13,2.381235479e-14,3.19955007e-14
1.6640625,3.991778356e-14,4.35551867e-14,1.531444672e-13,3.719239148e-14,2.000857234e-14,2.621542633e-14,2.435835116e-13,6.214556974e-14,2.977076588e-14,9.212818014e-14,2.340233259e-13,1.020573256e-13,2.434530011e-12,6.352475084e-14,7.762969839e-14,8.704754516e-14,4.987861275e-13,1.514617232e-13,1.698866371e-13,1.757307649e-13,6.093339746e-14,1.202019929e-13,2.906829268e-14,2.572106411e-13,1.019971893e-13,2.340530188e-14,1.964468319e-13,6.716359958e-13,1.345522197e-13,8.85314037e-13,2.484472757e-14,3.506137343e-14
1.671875,4.014333818e-14,3.893282906e-14,1.627028237e-13,3.77874202e-14,2.290817265e-14,3.346314136e-14,2.274540462e-13,5.694796106e-14,2.960999793e-14,9.688237761e-14,2.492955291e-13,1.161886561e-13,2.354454615e-12,7.523226549e-14,8.540319415e-14,8.596725626e-14,4.74370025e-13,1.31413206e-13,1.592920112e-13,1.635071561e-13,5.676987219e-14,1.195632473e-13,3.129255942e-14,2.675908922e-13,1.069429095e-13,2.638575607e-14,2.222112094e-13,6.18985579e-13,1.35955033e-13,8.470990181e-13,2.67304593e-14,3.841580577e-14
1.6796875,4.263027451e-14,3.48495818e-14,1.73638583e-13,3.853840896e-14,2.714422233e-14,4.181378846e-14,2.129912544e-13,5.101421183e-14,2.974888215e-14,9.882663233e-14,2.561834978e-13,1.281678194e-13,2.235997871e-12,8.866606012e-14,9.500598838e-14,8.539224583e-14,4.538370596e-13,1.134098857e-13,1.498208002e-13,1.517631481e-13,5.331209173e-14,1.19105096e-13,3.403521184e-14,2.814127457e-13,1.123285644e-13,3.039601236e-14,2.439210153e-13,5.710936902e-13,1.362065843e-13,8.070888844e-13,2.922000892e-14,4.215657218e-14
1.6875,4.77748461e-14,3.157443317e-14,1.87895715e-13,3.972103328e-14,3.274159092e-14,5.110067622e-14,1.985383269e-13,4.487992225e-14,3.018389825e-14,9.779374284e-14,2.563811757e-13,1.380748207e-13,2.087290718e-12,1.046836936e-13,1.077671279e-13,8.636777541e-14,4.390809518e-13,9.683472298e-14,1.427453579e-13,1.398091301e-13,5.02636514e-14,1.189885614e-13,3.696626478e-14,2.993174733e-13,1.190956974e-13,3.500933766e-14,2.598522209e-13,5.243507157e-13,1.358574239e-13,7.714707317e-13,3.249290766e-14,4.589847668e-14
1.6953125,5.545830214e-14,2.890194118e-14,2.05263991e-13,4.089716552e-14,3.92468964e-14,5.994966464e-14,1.848458592e-13,3.882386855e-14,3.086653185e-14,9.38789218e-14,2.514071674e-13,1.457325055e-13,1.933023779e-12,1.231809666e-13,1.252103798e-13,8.974364886e-14,4.302226803e-13,8.269702993e-14,1.38365059e-13,1.285296767e-13,4.786463812e-14,1.186531087e-13,3.987369541e-14,3.174466024e-13,1.278123085e-13,3.991893112e-14,2.710115264e-13,4.842203988e-13,1.344513472e-13,7.417948704e-13,3.644927316e-14,4.920220711e-14
1.703125,6.544877395e-14,2.690938843e-14,2.259049535e-13,4.22143874e-14,4.62207065e-14,6.792788141e-14,1.715886507e-13,3.323022356e-14,3.19880804e-14,8.775771416e-14,2.400258662e-13,1.51039227e-13,1.800909772e-12,1.42282934e-13,1.460584664e-13,9.580789463e-14,4.248642623e-13,7.083515908e-14,1.358414421e-13,1.193712234e-13,4.63590583e-14,1.175026264e-13,4.256055434e-14,3.339961638e-13,1.383589729e-13,4.449213153e-14,2.773177919e-13,4.532427632e-13,1.316257393e-13,7.200547994e-13,4.078205009e-14,5.15527e-14
1.7109375,7.800196972e-14,2.515898269e-14,2.493734343e-13,4.395723479e-14,5.322155785e-14,7.504106458e-14,1.591205229e-13,2.849511611e-14,3.295521016e-14,7.93746235e-14,2.25369572e-13,1.533848282e-13,1.717527088e-12,1.606863914e-13,1.704502727e-13,1.041041508e-13,4.198609299e-13,6.131588028e-14,1.343601278e-13,1.115191395e-13,4.571178592e-14,1.149031054e-13,4.48237188e-14,3.442038285e-13,1.497995231e-13,4.811393072e-14,2.781655886e-13,4.301557383e-13,1.272039332e-13,7.019634106e-13,4.553854207e-14,5.246468686e-14
1.71875,9.228925214e-14,2.368178625e-14,2.75468512e-13,4.596242133e-14,5.971604423e-14,8.118804212e-14,1.478734594e-13,2.478419325e-14,3.355585664e-14,6.982359225e-14,2.096367381e-13,1.522670943e-13,1.693316363e-12,1.769386095e-13,1.970561952e-13,1.146059269e-13,4.142224688e-13,5.429533356e-14,1.326025531e-13,1.057523858e-13,4.579090102e-14,1.110267352e-13,4.659408696e-14,3.435320799e-13,1.603461529e-13,5.060492207e-14,2.746498638e-13,4.19217391e-13,1.219121516e-13,6.891144028e-13,5.049764266e-14,5.196497656e-14
1.7265625,1.067840236e-13,2.219259717e-14,3.030832063e-13,4.750767057e-14,6.391735468e-14,8.570665127e-14,1.369273834e-13,2.211174732e-14,3.369545697e-14,5.97730463e-14,1.956586982e-13,1.481397705e-13,1.729117127e-12,1.893480645e-13,2.24477058e-13,1.247840675e-13,3.995228906e-13,4.926307673e-14,1.29052529e-13,1.01254558e-13,4.616880725e-14,1.057018535e-13,4.768220068e-14,3.302259668e-13,1.701103473e-13,5.137755892e-14,2.681037057e-13,4.188797378e-13,1.157786227e-13,6.736297605e-13,5.437660852e-14,4.974239758e-14
1.734375,1.207858598e-13,2.058244891e-14,3.32886652e-13,4.88192575e-14,6.551128866e-14,8.88439486e-14,1.254166198e-13,2.046981878e-14,3.369613965e-14,5.012988436e-14,1.839736296e-13,1.421137548e-13,1.832105833e-12,1.976829912e-13,2.515127572e-13,1.338934551e-13,3.763173591e-13,4.683398402e-14,1.240815303e-13,9.965449918e-14,4.718763426e-14,9.964184156e-14,4.841636653e-14,3.065784247e-13,1.794610458e-13,5.075502672e-14,2.586504124e-13,4.334485111e-13,1.084679036e-13,6.555553458e-13,5.674547105e-14,4.614380324e-14
1.7421875,1.336939589e-13,1.886912035e-14,3.586028324e-13,4.983194689e-14,6.498008172e-14,9.049936771e-14,1.148241471e-13,1.95637064e-14,3.349424625e-14,4.176272189e-14,1.760956718e-13,1.351234565e-13,1.988699284e-12,2.022740536e-13,2.773580041e-13,1.405588831e-13,3.46069097e-13,4.645110134e-14,1.179233877e-13,9.800997123e-14,4.855700088e-14,9.325835353e-14,4.905310816e-14,2.779522076e-13,1.868275778e-13,4.914787399e-14,2.456822817e-13,4.645976586e-13,9.985844764e-14,6.348096034e-13,5.782665831e-14,4.163514453e-14
1.75,1.452665899e-13,1.723702162e-14,3.788621422e-13,5.032994337e-14,6.281780969e-14,9.120269442e-14,1.045495936e-13,1.917404868e-14,3.263815266e-14,3.460540701e-14,1.72560723e-13,1.275530466e-13,2.184881382e-12,2.021829568e-13,3.00654164e-13,1.442037115e-13,3.129824886e-13,4.819290014e-14,1.108020343e-13,9.664176102e-14,5.008202945e-14,8.612361464e-14,4.957865602e-14,2.452264183e-13,1.92160002e-13,4.715043934e-14,2.304550129e-13,5.059925857e-13,9.028158275e-14,6.106242312e-13,5.823295941e-14,3.673257367e-14
1.7578125,1.519631495e-13,1.520111665e-14,3.893548286e-13,4.912976361e-14,5.817901083e-14,9.076344032e-14,9.421851292e-14,1.880178764e-14,3.132284879e-14,2.86237824e-14,1.711801749e-13,1.183350955e-13,2.388484125e-12,1.957491811e-13,3.173868871e-13,1.427015712e-13,2.775622898e-13,4.993695072e-14,1.006545659e-13,9.40880994e-14,5.146068507e-14,7.814171148e-14,4.974500378e-14,2.117864058e-13,1.944861669e-13,4.497058538e-14,2.14222767e-13,5.560591711e-13,7.933388632e-14,5.878769906e-13,5.656520939e-14,3.190382914e-14
1.765625,1.5323362e-13,1.300601005e-14,3.914836252e-13,4.630595095e-14,5.179131771e-14,8.917137524e-14,8.435054343e-14,1.826633005e-14,2.986314274e-14,2.397854883e-14,1.706318272e-13,1.081809987e-13,2.567760431e-12,1.83907658e-13,3.259591237e-13,1.368694475e-13,2.441321636e-13,5.293775521e-14,8.836257417e-14,9.008493646e-14,5.292244426e-14,7.027069298e-14,4.982824897e-14,1.8046607e-13,1.95076643e-13,4.305553822e-14,1.968104595e-13,6.027960921e-13,6.786562018e-14,5.664823719e-13,5.267874386e-14,2.769256716e-14
1.7734375,1.490194088e-13,1.097307574e-14,3.843670739e-13,4.255968489e-14,4.479601466e-14,8.670702347e-14,7.529163838e-14,1.749483453e-14,2.831757199e-14,2.041880268e-14,1.69920836e-13,9.792204153e-14,2.698725475e-12,1.685996385e-13,3.262070264e-13,1.273055185e-13,2.147429717e-13,5.671277871e-14,7.565105102e-14,8.50818608e-14,5.430636594e-14,6.328884876e-14,4.998613152e-14,1.538032548e-13,1.947963659e-13,4.184424026e-14,1.783782305e-13,6.418581991e-13,5.674132009e-14,5.498199703e-13,4.773508047e-14,2.449763808e-14
1.78125,1.409684604e-13,9.351009353e-15,3.696220855e-13,3.86695176e-14,3.838707716e-14,8.400814214e-14,6.805221886e-14,1.663722637e-14,2.675719753e-14,1.764712948e-14,1.68606668e-13,8.7584652e-14,2.762906607e-12,1.515255464e-13,3.19516086e-13,1.169302246e-13,1.951226817e-13,6.170728725e-14,6.404661349e-14,8.091066662e-14,5.59722984e-14,5.736984879e-14,5.054786474e-14,1.340474528e-13,1.936378597e-13,4.159780959e-14,1.608053575e-13,6.679115948e-13,4.667531515e-14,5.368038449e-13,4.286103977e-14,2.278418349e-14
1.7890625,1.290866016e-13,8.080681417e-15,3.459932405e-13,3.484777111e-14,3.264902429e-14,8.121388435e-14,6.378654706e-14,1.548251619e-14,2.527877818e-14,1.563795373e-14,1.640152708e-13,7.690431712e-14,2.72805142e-12,1.328724547e-13,3.03749291e-13,1.055848939e-13,1.855604623e-13,6.630081626e-14,5.382024859e-14,7.677346001e-14,5.799267589e-14,5.285725022e-14,5.161385615e-14,1.22832311e-13,1.921938211e-13,4.191727601e-14,1.445899285e-13,6.788333755e-13,3.771878344e-14,5.223544817e-13,3.792728774e-14,2.240040296e-14
1.796875,1.147158132e-13,6.964065258e-15,3.157888615e-13,3.099067739e-14,2.790513378e-14,7.791276385e-14,6.271277591e-14,1.421868836e-14,2.402030727e-14,1.418017441e-14,1.559934921e-13,6.565189906e-14,2.600655585e-12,1.128262293e-13,2.798790815e-13,9.441714663e-14,1.856041138e-13,7.13094776e-14,4.506063788e-14,7.265632392e-14,6.036313007e-14,4.990210976e-14,5.28528566e-14,1.18788934e-13,1.897729177e-13,4.248568743e-14,1.305836508e-13,6.679075907e-13,2.967850804e-14,5.098998999e-13,3.304858822e-14,2.332723954e-14
1.8046875,9.959345423e-14,6.080387102e-15,2.833386003e-13,2.748373599e-14,2.470453636e-14,7.407997855e-14,6.570802785e-14,1.294123166e-14,2.3083326e-14,1.328852678e-14,1.440204108e-13,5.437542369e-14,2.381942652e-12,9.288579744e-14,2.501813502e-13,8.538885875e-14,1.961203151e-13,7.748887722e-14,3.868086767e-14,6.927021187e-14,6.311594587e-14,4.832469363e-14,5.435918221e-14,1.221606933e-13,1.862007693e-13,4.353517138e-14,1.206266575e-13,6.366377457e-13,2.283074843e-14,4.932347334e-13,2.864924892e-14,2.565620951e-14
