"Time","Fp1","AF3","F7","F3","FC1","FC5","T7","C3","CP1","CP5","P7","P3","Pz","PO3","O1","Oz","O2","PO4","P4","P8","CP6","CP2","C4","T8","FC6","FC2","F4","F8","AF4","Fp2","Fz","Cz"
0.0078125,4.586042752e-14,1.185018121e-14,4.350018317e-13,1.673420556e-14,2.403895035e-14,1.720971522e-14,1.29026034e-14,3.420468417e-14,2.698965552e-14,6.597441253e-14,1.201365633e-13,5.885058206e-14,1.836311804e-14,1.014678811e-14,1.891938285e-14,2.220813491e-14,4.875233958e-14,1.845297721e-14,1.123453294e-14,2.306642427e-14,1.802750569e-14,2.411617421e-14,6.911097378e-14,1.76585182e-13,8.826334413e-14,2.110216738e-14,3.004150399e-14,7.049369222e-14,7.379298345e-14,2.119724341e-14,3.250863895e-14,7.886228755e-15
0.015625,5.670044413e-14,1.29634609e-14,5.519925802e-13,1.909566952e-14,3.093191152e-14,1.810817949e-14,1.239077879e-14,3.889428415e-14,3.534807603e-14,7.441557465e-14,1.677446796e-13,6.939666727e-14,2.108689946e-14,1.358790839e-14,2.157735944e-14,2.794488572e-14,5.989497125e-14,2.601698079e-14,1.384260763e-14,3.689394121e-14,2.047002769e-14,2.662417538e-14,7.875291759e-14,2.147044557e-13,1.071673296e-13,3.248013502e-14,4.399085968e-14,8.443432281e-14,9.738878991e-14,3.008079128e-14,4.043961404e-14,9.457361643e-15
0.0234375,6.533153878e-14,1.334706895e-14,6.661073467e-13,2.022106009e-14,3.792029513e-14,1.802935004e-14,1.167901727e-14,4.088057539e-14,4.254080843e-14,7.997994858e-14,2.198845941e-13,7.687231133e-14,2.538800446e-14,1.726757815e-14,2.545263555e-14,3.404061712e-14,7.047807859e-14,3.547488857e-14,1.703175521e-14,5.903812341e-14,2.260192302e-14,2.868952313e-14,8.893122788e-14,2.43750869e-13,1.251097096e-13,4.925283721e-14,6.182380897e-14,9.348567054e-14,1.215263444e-13,4.125760454e-14,4.814744291e-14,1.23565229e-14
0.03125,6.948325799e-14,1.294778141e-14,7.703054288e-13,1.999716341e-14,4.567930732e-14,1.708137048e-14,1.051080381e-14,4.004198555e-14,4.751090537e-14,8.386884427e-14,2.710864913e-13,8.083264709e-14,3.257240398e-14,2.172311487e-14,3.169064083e-14,4.042072427e-14,8.063337442e-14,4.735543196e-14,2.183472377e-14,9.179185508e-14,2.483263347e-14,3.092763504e-14,9.981138361e-14,2.61636312e-13,1.396502805e-13,7.283963257e-14,8.51021386e-14,9.598646945e-14,1.456868122e-13,5.458555266e-14,5.635459412e-14,1.795639114e-14
0.0390625,6.962313148e-14,1.277336991e-14,8.507133924e-13,1.947284547e-14,5.416492306e-14,1.557571494e-14,8.998781112e-15,3.658342723e-14,4.937339865e-14,8.747308902e-14,3.119843886e-13,7.950738812e-14,4.130171824e-14,2.615219176e-14,4.036436038e-14,4.563184962e-14,8.934783196e-14,5.941531112e-14,2.814967257e-14,1.347468769e-13,2.700042361e-14,3.4103096e-14,1.124310113e-13,2.745091998e-13,1.486124199e-13,1.022687839e-13,1.119346352e-13,9.197742977e-14,1.653618683e-13,6.799447099e-14,6.447350503e-14,2.752443776e-14
0.046875,6.493947103e-14,1.274529068e-14,9.086063649e-13,1.751379151e-14,6.220684066e-14,1.443938826e-14,7.784959744e-15,3.265270422e-14,4.763725511e-14,9.233893406e-14,3.37133454e-13,7.368670731e-14,4.932395766e-14,2.986368966e-14,5.271044366e-14,4.907114779e-14,9.594703221e-14,7.129741847e-14,3.759780747e-14,1.880341885e-13,2.962869263e-14,3.999528858e-14,1.270172936e-13,2.857048355e-13,1.53208371e-13,1.380251932e-13,1.413721917e-13,8.284937883e-14,1.787366761e-13,8.163793011e-14,7.208920802e-14,4.185345704e-14
0.0546875,5.680814729e-14,1.311306465e-14,9.447956642e-13,1.569941056e-14,7.220496983e-14,1.480203067e-14,7.371624816e-15,2.995754662e-14,4.357956187e-14,9.768605683e-14,3.413600344e-13,6.676049626e-14,5.681277021e-14,3.521854345e-14,6.860529943e-14,5.311309818e-14,1.028898032e-13,8.392033981e-14,4.932868441e-14,2.551963834e-13,3.371173664e-14,4.773689319e-14,1.421234304e-13,3.014094088e-13,1.524554276e-13,1.807845964e-13,1.738072814e-13,6.967839955e-14,1.867164913e-13,9.311727459e-14,8.111487746e-14,6.193296465e-14
0.0625,4.767005367e-14,1.476657921e-14,9.534649943e-13,1.453850935e-14,8.489186434e-14,1.675198501e-14,8.129875099e-15,3.029090739e-14,3.868343674e-14,1.035135646e-13,3.225205167e-13,5.852427484e-14,6.241796941e-14,4.169490676e-14,8.47092948e-14,5.587708439e-14,1.08377951e-13,9.330054732e-14,6.057302755e-14,3.275847885e-13,3.807590341e-14,5.750398888e-14,1.557850359e-13,3.313479939e-13,1.447415971e-13,2.257078933e-13,2.052418467e-13,5.638604574e-14,1.864298199e-13,9.967930348e-14,8.939200394e-14,8.678153438e-14
0.0703125,3.874628735e-14,1.686114964e-14,9.334155547e-13,1.361558331e-14,9.891057469e-14,2.210022446e-14,1.104463965e-14,3.523916767e-14,3.426298008e-14,1.083464998e-13,2.851550826e-13,4.980856055e-14,6.430846281e-14,4.844979096e-14,9.894160781e-14,5.698360703e-14,1.121279994e-13,9.755694964e-14,6.991752789e-14,3.995226323e-13,4.247895669e-14,6.842516481e-14,1.656214156e-13,3.807706351e-13,1.315808685e-13,2.685224796e-13,2.323277e-13,4.55418258e-14,1.765640937e-13,9.974343644e-14,9.523083197e-14,1.152879527e-13
0.078125,3.091004431e-14,2.018860427e-14,8.956939915e-13,1.340911775e-14,1.133021132e-13,2.951812056e-14,1.657343386e-14,4.462946049e-14,3.203510742e-14,1.094177597e-13,2.37111296e-13,4.198183233e-14,6.232295342e-14,5.459835855e-14,1.080527953e-13,5.679950798e-14,1.139563406e-13,9.667333768e-14,7.481344551e-14,4.601771318e-13,4.662465229e-14,8.063251243e-14,1.705433025e-13,4.528434926e-13,1.14835028e-13,3.049210886e-13,2.523763884e-13,3.791313961e-14,1.599751047e-13,9.481261678e-14,9.807289329e-14,1.449291742e-13
0.0859375,2.691309587e-14,2.458356597e-14,8.4175092e-13,1.40268381e-14,1.259782071e-13,3.819325155e-14,2.607698797e-14,5.744688541e-14,3.267847278e-14,1.06207768e-13,1.862979911e-13,3.494066025e-14,5.851167253e-14,5.853270636e-14,1.105120969e-13,5.409108582e-14,1.108093684e-13,8.859935875e-14,7.289293189e-14,5.004752268e-13,4.917594342e-14,9.384282886e-14,1.673645071e-13,5.423269595e-13,9.513272187e-14,3.282183136e-13,2.612026534e-13,3.398199559e-14,1.37493854e-13,8.567975418e-14,9.566303353e-14,1.714688167e-13
0.09375,2.684860793e-14,3.034305792e-14,7.777720913e-13,1.546848797e-14,1.340946179e-13,4.550883626e-14,3.966320184e-14,7.27828496e-14,3.704352339e-14,9.771349416e-14,1.413475452e-13,2.825419467e-14,5.282317891e-14,5.669478583e-14,1.046722295e-13,4.805765288e-14,1.018924457e-13,7.540904007e-14,6.444042546e-14,5.13574885e-13,4.970990092e-14,1.07654153e-13,1.558291296e-13,6.485032014e-13,7.46192016e-14,3.346513685e-13,2.563204325e-13,3.435794628e-14,1.123478259e-13,7.514963049e-14,8.714144026e-14,1.923616877e-13
0.1015625,3.236769166e-14,3.638322024e-14,7.098812726e-13,1.810496163e-14,1.370145746e-13,5.106775496e-14,5.816649839e-14,9.090947659e-14,4.51652864e-14,8.540036296e-14,1.071515067e-13,2.247509887e-14,4.854428968e-14,5.349041748e-14,9.60935774e-14,4.105681738e-14,9.091947131e-14,6.469955852e-14,5.371791908e-14,5.100270351e-13,4.857678836e-14,1.235868517e-13,1.400265326e-13,7.590482718e-13,5.626576578e-14,3.26151352e-13,2.399676154e-13,3.731617231e-14,8.929208525e-14,6.645765719e-14,7.458680396e-14,2.081294297e-13
0.109375,4.368118376e-14,4.382870104e-14,6.345533024e-13,2.368890349e-14,1.363502717e-13,5.401658146e-14,8.003168422e-14,1.106506135e-13,5.6279307e-14,7.226792204e-14,8.413946395e-14,1.75132465e-14,4.887286875e-14,4.984751599e-14,8.495519757e-14,3.572229334e-14,7.946975485e-14,5.849051092e-14,4.14952236e-14,4.944222874e-13,4.565272307e-14,1.408939089e-13,1.208763006e-13,8.676951568e-13,4.031170888e-14,3.05662143e-13,2.156747393e-13,4.149084012e-14,7.144636657e-14,6.176330056e-14,6.053843065e-14,2.192209331e-13
0.1171875,6.188463222e-14,5.548451677e-14,5.595425431e-13,3.456292433e-14,1.275630961e-13,5.199836949e-14,1.040222286e-13,1.2647331e-13,6.858097686e-14,5.923975709e-14,7.219203782e-14,1.368356188e-14,5.466727336e-14,4.315420881e-14,6.974705026e-14,3.070771053e-14,6.43030285e-14,5.866521003e-14,2.833570752e-14,4.569352212e-13,4.061868429e-14,1.580798577e-13,9.791578767e-14,9.689271671e-13,2.711141221e-14,2.701814877e-13,1.820008819e-13,4.778590287e-14,5.960082803e-14,6.263147985e-14,4.386269715e-14,2.218386437e-13
0.125,8.561255238e-14,7.036973928e-14,4.926684136e-13,5.154685834e-14,1.130740914e-13,4.792087574e-14,1.288880051e-13,1.369397197e-13,8.077879049e-14,4.767623058e-14,6.72476033e-14,1.236975846e-14,6.796344004e-14,4.025896165e-14,6.140624919e-14,2.971551663e-14,5.023544421e-14,7.555656941e-14,1.964635144e-14,4.177709302e-13,3.482257324e-14,1.703694838e-13,7.590659844e-14,1.056202457e-12,1.808854124e-14,2.257884794e-13,1.43328632e-13,5.585786482e-14,5.398110285e-14,6.779042095e-14,2.786818903e-14,2.18620428e-13
0.1328125,1.11267133e-13,8.808038304e-14,4.196745129e-13,7.51862785e-14,9.915563156e-14,4.670239022e-14,1.550372861e-13,1.439681e-13,9.229213478e-14,4.018621918e-14,6.325290941e-14,1.608666728e-14,8.900811445e-14,4.88570232e-14,6.441480345e-14,3.76870841e-14,4.368441564e-14,1.098269665e-13,1.691203426e-14,3.941479539e-13,2.942589272e-14,1.763739693e-13,5.662395413e-14,1.124093962e-12,1.300330859e-14,1.815824549e-13,1.055734224e-13,6.343036778e-14,5.234033018e-14,7.419796999e-14,1.659203276e-14,2.136975158e-13
0.140625,1.313700044e-13,1.076290111e-13,3.493057163e-13,1.015747398e-13,8.858364586e-14,4.96482037e-14,1.796745753e-13,1.445353788e-13,1.010142789e-13,3.624239238e-14,5.994497825e-14,2.648957266e-14,1.14812649e-13,6.826706157e-14,7.421923807e-14,5.008163075e-14,4.000995081e-14,1.519035363e-13,1.797228407e-14,3.721487723e-13,2.537446933e-14,1.724993155e-13,4.093692836e-14,1.166968915e-12,1.176816635e-14,1.40522351e-13,7.175537041e-14,7.122286697e-14,5.209065135e-14,8.016623289e-14,9.370454657e-15,2.059519743e-13
0.1484375,1.428005254e-13,1.278976501e-13,2.849267083e-13,1.286045426e-13,8.219377016e-14,5.879583823e-14,2.045630814e-13,1.354609799e-13,1.044141223e-13,3.487663078e-14,5.598218495e-14,4.668173399e-14,1.395958177e-13,1.008613961e-13,9.072867631e-14,6.412322556e-14,3.756222065e-14,2.004638347e-13,2.258118147e-14,3.546237698e-13,2.397767785e-14,1.566688494e-13,2.943609185e-14,1.183280112e-12,1.387113818e-14,1.04474935e-13,4.408444718e-14,7.917850913e-14,5.178276864e-14,8.22592344e-14,6.446142602e-15,1.933834946e-13
0.15625,1.43486475e-13,1.458925854e-13,2.309055216e-13,1.51606456e-13,8.363941915e-14,7.393143248e-14,2.312665719e-13,1.234996426e-13,1.044644813e-13,3.818588388e-14,5.158137171e-14,7.557059033e-14,1.588760088e-13,1.432056895e-13,1.161082605e-13,8.293718714e-14,4.067625023e-14,2.480732826e-13,2.765341077e-14,3.471118887e-13,2.673000474e-14,1.321250038e-13,2.348078293e-14,1.164930086e-12,1.828652768e-14,7.712932017e-14,2.315907081e-14,8.768363897e-14,4.897232298e-14,7.844515999e-14,7.859261147e-15,1.81194159e-13
0.1640625,1.296061069e-13,1.547424614e-13,1.859512724e-13,1.627976407e-13,9.353464216e-14,9.167514429e-14,2.612593399e-13,1.088856229e-13,1.008263762e-13,4.370260241e-14,5.193008837e-14,1.10810102e-13,1.690202126e-13,1.868673545e-13,1.392271833e-13,9.768154846e-14,4.420003554e-14,2.761381368e-13,2.985909433e-14,3.251747029e-13,3.323160474e-14,1.042738351e-13,2.105315812e-14,1.114896998e-12,2.331779064e-14,5.931848852e-14,1.085652521e-14,9.501946274e-14,4.256730316e-14,7.043598936e-14,1.217007689e-14,1.664671938e-13
0.171875,1.066603403e-13,1.527692553e-13,1.560873977e-13,1.579859572e-13,1.092743444e-13,1.067880234e-13,2.922005189e-13,9.273348629e-14,9.435662807e-14,5.012958613e-14,5.704930478e-14,1.509747285e-13,1.662096558e-13,2.250514707e-13,1.53540355e-13,1.006040001e-13,4.255688001e-14,2.791655603e-13,2.95257259e-14,2.912888681e-13,4.251376067e-14,7.742900422e-14,2.180553789e-14,1.038021185e-12,2.815803911e-14,4.84989571e-14,5.78322203e-15,1.014933927e-13,3.500155356e-14,6.00212308e-14,1.870164526e-14,1.4714848e-13
0.1796875,7.958070218e-14,1.387049845e-13,1.377026729e-13,1.389332345e-13,1.298062958e-13,1.132410533e-13,3.221683364e-13,7.863237044e-14,8.552947798e-14,5.683311983e-14,7.059037999e-14,1.868472738e-13,1.497408306e-13,2.466776417e-13,1.559341072e-13,9.321004755e-14,3.818220519e-14,2.599346848e-13,2.754017796e-14,2.493400217e-13,5.455560817e-14,5.606989983e-14,2.487083796e-14,9.374483905e-13,3.169955213e-14,4.344525829e-14,7.372523845e-15,1.0387508e-13,2.785864645e-14,4.890316052e-14,2.810112938e-14,1.263553353e-13
0.1875,5.402752325e-14,1.156734712e-13,1.27933461e-13,1.159368201e-13,1.529036798e-13,1.101657332e-13,3.512072576e-13,6.929878153e-14,7.82410061e-14,6.195624905e-14,8.796206264e-14,2.137720801e-13,1.258955193e-13,2.487279299e-13,1.46414578e-13,8.326141986e-14,3.679090456e-14,2.264842265e-13,2.531648467e-14,2.05199747e-13,6.745965511e-14,4.212456506e-14,2.832139915e-14,8.174132531e-13,3.254749832e-14,4.327406756e-14,1.397084559e-14,1.0589225e-13,2.252601105e-14,3.83426168e-14,4.143351225e-14,1.076642645e-13
0.1953125,3.388999873e-14,8.686856808e-14,1.238691057e-13,9.65213222e-14,1.775127734e-13,9.834050671e-14,3.706771615e-13,6.47171709e-14,7.200596187e-14,6.265382275e-14,1.062641532e-13,2.239068556e-13,9.648451147e-14,2.264789655e-13,1.239816861e-13,7.162649052e-14,3.867663459e-14,1.832015784e-13,2.543052342e-14,1.653832593e-13,7.879676975e-14,3.64992048e-14,3.063534908e-14,6.886556527e-13,2.980380415e-14,4.712244976e-14,2.449486407e-14,1.083251166e-13,1.974443005e-14,3.005795661e-14,5.940576652e-14,9.137287026e-14
0.203125,2.113713505e-14,5.93484941e-14,1.233183076e-13,8.814977842e-14,2.010214264e-13,8.121005836e-14,3.753022758e-13,6.61759755e-14,6.733918655e-14,6.023213369e-14,1.205656498e-13,2.162126094e-13,6.913666064e-14,1.881879042e-13,9.655509758e-14,6.557655907e-14,4.649846568e-14,1.47209401e-13,3.11311895e-14,1.334647325e-13,8.673806538e-14,3.427051482e-14,3.134434877e-14,5.62566594e-13,2.567819161e-14,5.255276013e-14,3.645120197e-14,1.104491815e-13,1.893270388e-14,2.49702499e-14,8.087973885e-14,7.882920503e-14
0.2109375,1.87837554e-14,3.808699819e-14,1.270628002e-13,9.708210857e-14,2.231745717e-13,6.334643567e-14,3.652649574e-13,7.096445069e-14,6.471165348e-14,5.588968358e-14,1.257431104e-13,1.954863091e-13,4.726774404e-14,1.431161042e-13,7.260940199e-14,6.95722698e-14,6.234040112e-14,1.263830122e-13,4.282581857e-14,1.1446751e-13,9.09161536e-14,3.280197149e-14,3.011443819e-14,4.485785579e-13,2.09305127e-14,5.96689503e-14,4.954694229e-14,1.130556885e-13,2.003165772e-14,2.290636676e-14,1.060557362e-13,7.20469188e-14
0.21875,2.853546436e-14,2.618665642e-14,1.377308451e-13,1.223616619e-13,2.417346055e-13,4.915406062e-14,3.417698393e-13,7.771682254e-14,6.407095638e-14,5.13157005e-14,1.22351899e-13,1.645558022e-13,3.201168353e-14,9.943656266e-14,6.016828628e-14,8.485985705e-14,8.664224473e-14,1.248235036e-13,6.084406427e-14,1.067590124e-13,8.975181912e-14,3.194265588e-14,2.767986563e-14,3.445763157e-13,1.650660611e-14,6.873086474e-14,6.284199233e-14,1.22183601e-13,2.303942367e-14,2.349689743e-14,1.3461591e-13,7.158683153e-14
0.2265625,5.673361998e-14,2.494706712e-14,1.558209134e-13,1.576920069e-13,2.550533722e-13,4.157741707e-14,3.022514147e-13,8.623251861e-14,6.631350527e-14,4.842227852e-14,1.115814487e-13,1.267657568e-13,2.507627753e-14,6.274663484e-14,6.282210452e-14,1.092436655e-13,1.168999415e-13,1.412970259e-13,8.392337418e-14,1.061583362e-13,8.424789188e-14,3.144467473e-14,2.397973745e-14,2.578580055e-13,1.310646168e-14,7.971089321e-14,7.717495207e-14,1.379230972e-13,3.063755924e-14,2.652102917e-14,1.655242664e-13,7.700865293e-14
0.234375,1.094179911e-13,3.486826063e-14,1.791190918e-13,1.952580416e-13,2.610148171e-13,4.191902698e-14,2.503336546e-13,9.227242858e-14,7.274474524e-14,4.997635671e-14,9.635716704e-14,9.114453145e-14,2.776564995e-14,4.230186824e-14,8.549466938e-14,1.400010366e-13,1.498981534e-13,1.722337511e-13,1.09600421e-13,1.085423413e-13,7.57598881e-14,3.259084853e-14,2.038399808e-14,1.913512181e-13,1.228719015e-14,9.119911712e-14,9.217427646e-14,1.575344493e-13,4.526477415e-14,3.246319697e-14,1.969161576e-13,8.660347485e-14
0.2421875,1.948107872e-13,5.391116086e-14,2.083972651e-13,2.233163182e-13,2.583034506e-13,4.736481109e-14,1.959230308e-13,9.582074037e-14,8.438323657e-14,5.695973459e-14,8.430655153e-14,6.576882727e-14,3.830101087e-14,3.910104298e-14,1.246483377e-13,1.696856654e-13,1.796009493e-13,2.053813181e-13,1.333882108e-13,1.10140582e-13,6.681564676e-14,3.818368219e-14,1.722570789e-14,1.440711089e-13,1.335563506e-14,1.024131461e-13,1.118929071e-13,1.842730427e-13,7.455457633e-14,4.0433984e-14,2.297851206e-13,9.909841443e-14
0.25,3.136751468e-13,8.062574566e-14,2.349488742e-13,2.400662132e-13,2.495137608e-13,5.656720366e-14,1.463805146e-13,9.740916576e-14,1.010424514e-13,6.748367074e-14,7.929714494e-14,5.268306253e-14,5.679134479e-14,5.16882262e-14,1.710029771e-13,1.935448225e-13,2.014826907e-13,2.33989819e-13,1.537930687e-13,1.113226506e-13,5.943169777e-14,4.814806095e-14,1.490834068e-14,1.119517552e-13,1.478986783e-14,1.119067519e-13,1.393492935e-13,2.188533876e-13,1.226846536e-13,4.733749653e-14,2.64928341e-13,1.130350904e-13
0.2578125,4.624879771e-13,1.148031536e-13,2.552185371e-13,2.443984462e-13,2.378652555e-13,6.603331902e-14,1.019709438e-13,9.582394677e-14,1.233605479e-13,8.043339548e-14,8.513455383e-14,5.314493568e-14,8.349511134e-14,7.80820103e-14,2.180722981e-13,2.132645159e-13,2.181191353e-13,2.56521876e-13,1.714745842e-13,1.168835634e-13,5.532287126e-14,6.286980991e-14,1.364683557e-14,9.295845474e-14,1.656971357e-14,1.19800882e-13,1.797805889e-13,2.575760375e-13,1.921518423e-13,5.234958829e-14,3.035382367e-13,1.283807682e-13
0.265625,6.242727596e-13,1.544773827e-13,2.704840464e-13,2.382541095e-13,2.233923427e-13,7.2738027e-14,6.686473556e-14,9.165239937e-14,1.470992368e-13,9.074257191e-14,9.875895098e-14,6.558649963e-14,1.182728413e-13,1.165430802e-13,2.609552645e-13,2.304881501e-13,2.275791741e-13,2.713301749e-13,1.852241587e-13,1.25769166e-13,5.440055463e-14,7.887810776e-14,1.319716913e-14,8.479929096e-14,1.839203143e-14,1.25453421e-13,2.337586323e-13,2.962312845e-13,2.816250242e-13,5.412640426e-14,3.434273981e-13,1.411467015e-13
0.2734375,7.819680322e-13,1.966503846e-13,2.84580613e-13,2.246545083e-13,2.059113496e-13,7.537125492e-14,4.358593345e-14,8.675085632e-14,1.710007654e-13,9.588281173e-14,1.171404385e-13,8.944891711e-14,1.608938292e-13,1.655235134e-13,2.9322359e-13,2.426460028e-13,2.274704812e-13,2.768981288e-13,1.929670833e-13,1.385868311e-13,5.579814444e-14,9.429158884e-14,1.33608987e-14,8.669962677e-14,1.88084471e-14,1.263024147e-13,2.975716256e-13,3.299415486e-13,3.838886551e-13,5.260977138e-14,3.809194119e-13,1.490232438e-13
0.28125,9.129777248e-13,2.365667339e-13,2.959143096e-13,2.083911987e-13,1.864846304e-13,7.263406905e-14,2.961420732e-14,8.24807541e-14,1.942967194e-13,9.436589324e-14,1.333503369e-13,1.203887719e-13,2.098806095e-13,2.219485422e-13,3.056789738e-13,2.47449063e-13,2.149533062e-13,2.728238765e-13,1.925731701e-13,1.533335542e-13,5.777809023e-14,1.077174933e-13,1.412497125e-14,9.634821511e-14,1.780094453e-14,1.201250666e-13,3.623133508e-13,3.568023812e-13,4.857903005e-13,4.619659514e-14,4.089256754e-13,1.526897812e-13
0.2890625,9.928753332e-13,2.66956107e-13,3.089931747e-13,1.923081508e-13,1.660537056e-13,6.673886333e-14,2.172804807e-14,7.974363223e-14,2.115431155e-13,8.615397235e-14,1.409491443e-13,1.508194987e-13,2.555460819e-13,2.783829179e-13,3.015144858e-13,2.457547586e-13,1.955456922e-13,2.63126853e-13,1.848144328e-13,1.644377896e-13,5.879390672e-14,1.178121103e-13,1.552475844e-14,1.097169659e-13,1.682111697e-14,1.098110031e-13,4.188878733e-13,3.740128229e-13,5.680233297e-13,3.827909804e-14,4.210308684e-13,1.538489117e-13
0.296875,1.014599401e-12,2.852640253e-13,3.236140852e-13,1.770155425e-13,1.466558727e-13,5.955232117e-14,1.795887314e-14,7.764718693e-14,2.205152412e-13,7.188021635e-14,1.398617828e-13,1.793010352e-13,2.944966642e-13,3.324789502e-13,2.892134401e-13,2.428183061e-13,1.748499191e-13,2.504416249e-13,1.729128755e-13,1.760817208e-13,5.894229692e-14,1.245390506e-13,1.719989763e-14,1.240293733e-13,1.6767374e-14,9.786546934e-14,4.6309413e-13,3.757437903e-13,6.271834062e-13,3.069804294e-14,4.176943179e-13,1.481273027e-13
0.3046875,9.781312419e-13,2.87616431e-13,3.404515635e-13,1.615071219e-13,1.253502657e-13,5.330187762e-14,1.698825074e-14,7.516195019e-14,2.204985811e-13,5.428362875e-14,1.286032447e-13,2.01648175e-13,3.239870625e-13,3.805440861e-13,2.706429813e-13,2.356081832e-13,1.50015538e-13,2.334372309e-13,1.557703531e-13,1.780662671e-13,5.538055271e-14,1.30732818e-13,1.861640714e-14,1.365212363e-13,1.882696798e-14,8.256068262e-14,4.817034229e-13,3.599576527e-13,6.507966288e-13,2.507167011e-14,3.94412125e-13,1.372051481e-13
0.3125,8.932674643e-13,2.690438593e-13,3.485739992e-13,1.397604071e-13,1.018533881e-13,4.942991817e-14,1.643308971e-14,7.314140181e-14,2.11060398e-13,3.758871425e-14,1.119340213e-13,2.127460121e-13,3.336377833e-13,4.056736111e-13,2.430863927e-13,2.159856673e-13,1.248042744e-13,2.056727292e-13,1.328261703e-13,1.647240313e-13,4.869918892e-14,1.37064819e-13,2.000129608e-14,1.443330121e-13,2.227533026e-14,6.615458731e-14,4.662416528e-13,3.288109231e-13,6.316417716e-13,2.15992548e-14,3.502206841e-13,1.227794972e-13
0.3203125,7.805847421e-13,2.376712852e-13,3.390231001e-13,1.181570061e-13,8.119116223e-14,5.1998725e-14,1.61644924e-14,7.072581621e-14,1.920716778e-13,2.364575577e-14,9.480509608e-14,2.115120853e-13,3.251778769e-13,4.10284079e-13,2.128285876e-13,1.919134513e-13,1.06413484e-13,1.765326454e-13,1.097618732e-13,1.45718685e-13,4.09506203e-14,1.436113255e-13,2.058048343e-14,1.422632426e-13,2.701122467e-14,5.025031213e-14,4.244181031e-13,2.906022692e-13,5.786014178e-13,1.981862187e-14,2.942966475e-13,1.054666158e-13
0.328125,6.568910043e-13,1.986583554e-13,3.187553473e-13,1.010488845e-13,6.72262058e-14,6.186095843e-14,1.641992531e-14,6.66839847e-14,1.657675851e-13,1.43605515e-14,8.223173071e-14,1.986026108e-13,2.98041365e-13,3.97271372e-13,1.854043735e-13,1.667721627e-13,9.282029295e-14,1.446756522e-13,8.854076927e-14,1.210891731e-13,3.372476253e-14,1.49721344e-13,1.985589211e-14,1.342134027e-13,3.345761005e-14,3.583021789e-14,3.618975825e-13,2.452913578e-13,5.012127853e-13,1.954908071e-14,2.34762449e-13,8.661660162e-14
0.3359375,5.355281532e-13,1.562651485e-13,2.84101105e-13,8.909095039e-14,6.005105609e-14,8.022540526e-14,1.630425063e-14,6.570983824e-14,1.364295468e-13,9.502646248e-15,7.910200054e-14,1.730929717e-13,2.522867457e-13,3.523757646e-13,1.578446145e-13,1.345437724e-13,8.275314802e-14,1.094485428e-13,7.108803303e-14,9.116417704e-14,2.847049183e-14,1.542058145e-13,1.832179584e-14,1.208205311e-13,3.980693124e-14,2.464209046e-14,2.847108095e-13,1.956397405e-13,4.046315302e-13,2.00284975e-14,1.75928611e-13,6.942314698e-14
0.34375,4.399807706e-13,1.251244224e-13,2.38582243e-13,8.921592281e-14,6.495556751e-14,1.040421459e-13,1.629219137e-14,6.610681388e-14,1.077025411e-13,9.628482928e-15,8.900461143e-14,1.423635528e-13,2.0154809e-13,2.926871382e-13,1.316389495e-13,1.036417595e-13,8.593819057e-14,8.259909182e-14,6.227252309e-14,7.098673779e-14,2.689155234e-14,1.562181406e-13,1.683546537e-14,1.080930963e-13,4.388461238e-14,1.872939761e-14,2.130053576e-13,1.506926613e-13,3.077737552e-13,2.060070869e-14,1.331433935e-13,5.471812579e-14
0.3515625,3.78149034e-13,1.090850201e-13,1.993113702e-13,1.008468515e-13,7.813442619e-14,1.293131098e-13,1.655160892e-14,6.546693763e-14,8.078644635e-14,1.513418679e-14,1.071098824e-13,1.107529245e-13,1.537652681e-13,2.384586001e-13,1.127639005e-13,8.269975041e-14,9.460932586e-14,6.659574568e-14,6.126464459e-14,5.893528402e-14,2.861943579e-14,1.552784723e-13,1.529167639e-14,1.011591637e-13,4.681922519e-14,1.556737494e-14,1.564341294e-13,1.149754029e-13,2.22037981e-13,2.186772382e-14,1.071576335e-13,4.167779198e-14
0.359375,3.464211966e-13,1.077177501e-13,1.67534081e-13,1.22752403e-13,9.855033001e-14,1.563636366e-13,1.825417198e-14,6.860938625e-14,6.014589297e-14,2.503452899e-14,1.318258117e-13,8.291840984e-14,1.120696359e-13,1.905313661e-13,1.00767438e-13,6.228882106e-14,9.901162418e-14,5.961957664e-14,6.858059571e-14,5.409232244e-14,3.301404296e-14,1.493030082e-13,1.367040442e-14,1.019218319e-13,4.783150213e-14,1.519410073e-14,1.179181658e-13,8.817485979e-14,1.50588501e-13,2.479117723e-14,9.654599883e-14,3.147447757e-14
0.3671875,3.34343579e-13,1.207024984e-13,1.422182855e-13,1.524386181e-13,1.224914402e-13,1.788084226e-13,2.181616236e-14,7.55373703e-14,4.764407616e-14,3.854530431e-14,1.579122904e-13,6.133034462e-14,8.120128832e-14,1.473788126e-13,8.863867712e-14,4.387088008e-14,1.11606957e-13,6.079988584e-14,7.85353539e-14,5.583264744e-14,3.752617462e-14,1.381120159e-13,1.312589101e-14,1.109893351e-13,4.616682529e-14,1.706507023e-14,9.843471997e-14,6.927674137e-14,9.357489375e-14,3.01176231e-14,9.925137506e-14,2.551578682e-14
0.375,3.315940765e-13,1.412496441e-13,1.233728623e-13,1.815318257e-13,1.408732587e-13,1.911773889e-13,2.874613775e-14,8.040117501e-14,4.158825486e-14,5.527732992e-14,1.776040268e-13,4.804318925e-14,6.125487409e-14,1.146098184e-13,7.575545274e-14,3.475122093e-14,1.288392632e-13,6.948801844e-14,8.697845376e-14,6.132720763e-14,4.080230958e-14,1.236713425e-13,1.444141175e-14,1.227389087e-13,4.233843455e-14,1.906410237e-14,9.649178063e-14,5.995734398e-14,5.355065275e-14,3.687551607e-14,1.065312386e-13,2.341416293e-14
0.3828125,3.332296945e-13,1.60100784e-13,1.136937989e-13,2.002001094e-13,1.489761802e-13,1.929020101e-13,3.964432584e-14,8.20816182e-14,4.065120996e-14,7.41891544e-14,1.882578108e-13,4.316303348e-14,5.34182042e-14,9.611723314e-14,6.677561857e-14,3.108181989e-14,1.312178958e-13,7.948009412e-14,9.244228596e-14,6.906295252e-14,4.181332453e-14,1.078342068e-13,1.758297848e-14,1.336272813e-13,3.779953876e-14,2.004990683e-14,1.041488143e-13,5.919951523e-14,2.880880379e-14,4.451707754e-14,1.119731626e-13,2.492290358e-14
0.390625,3.338906524e-13,1.745122117e-13,1.046940085e-13,2.100781708e-13,1.497205609e-13,1.871199305e-13,5.250789729e-14,8.121114714e-14,4.230319861e-14,9.291268237e-14,1.885289449e-13,4.433154304e-14,5.37602358e-14,8.748336135e-14,6.26764799e-14,3.063884809e-14,1.300853222e-13,9.038082954e-14,9.462666354e-14,7.804590559e-14,3.982948782e-14,9.056912218e-14,2.266536677e-14,1.399010625e-13,3.308022477e-14,2.077569464e-14,1.137577719e-13,6.527215667e-14,1.393215308e-14,5.152755599e-14,1.151400983e-13,2.821647924e-14
0.3984375,3.233248032e-13,1.814690821e-13,9.995508932e-14,2.118473284e-13,1.40180717e-13,1.747357573e-13,6.629459181e-14,7.682779688e-14,4.585666678e-14,1.067471166e-13,1.770538831e-13,5.017842255e-14,6.01236688e-14,8.489788175e-14,5.910581701e-14,3.54048692e-14,1.342620075e-13,1.01883279e-13,9.036991134e-14,8.50691107e-14,3.453897555e-14,7.220366659e-14,2.894613747e-14,1.37190398e-13,2.892559185e-14,2.002943922e-14,1.233474691e-13,7.531307143e-14,7.196419461e-15,5.646848179e-14,1.113233478e-13,3.279393893e-14
0.40625,3.039075104e-13,1.747212077e-13,9.434706737e-14,2.00849428e-13,1.21868353e-13,1.577092099e-13,7.907312809e-14,6.90251665e-14,4.773241754e-14,1.121859791e-13,1.576357193e-13,5.460362008e-14,6.717743011e-14,8.21137351e-14,5.394642435e-14,3.838017391e-14,1.302621528e-13,1.048815722e-13,8.098012292e-14,9.012392781e-14,2.832606488e-14,5.569202014e-14,3.484619518e-14,1.25373587e-13,2.596154886e-14,1.75862031e-14,1.245273433e-13,8.575335356e-14,6.251694268e-15,5.781412828e-14,9.854337927e-14,3.710071617e-14
0.4140625,2.773779726e-13,1.565289556e-13,9.056785889e-14,1.781073314e-13,9.891686351e-14,1.37202938e-13,8.607501077e-14,5.782313528e-14,4.758912323e-14,1.10785865e-13,1.332519139e-13,5.864146454e-14,7.277914401e-14,7.751837816e-14,4.793668958e-14,3.960032384e-14,1.197208932e-13,9.893042507e-14,6.897857869e-14,9.167813543e-14,2.183962229e-14,4.138812645e-14,4.114881267e-14,1.110478459e-13,2.429357562e-14,1.46814399e-14,1.190585046e-13,9.302039799e-14,9.457517844e-15,5.59392096e-14,8.027864264e-14,4.043945228e-14
0.421875,2.521142982e-13,1.321151913e-13,8.496482848e-14,1.490150804e-13,7.642001256e-14,1.160371483e-13,8.691650098e-14,4.653786025e-14,4.579876943e-14,1.025909506e-13,1.083621275e-13,6.075763582e-14,7.573090287e-14,7.102817167e-14,4.348820896e-14,4.034727357e-14,1.084078867e-13,8.894710673e-14,5.654064323e-14,9.026951319e-14,1.563153741e-14,3.00110343e-14,4.700475798e-14,9.668598396e-14,2.380704706e-14,1.205571635e-14,1.102732055e-13,9.563571875e-14,1.679807969e-14,5.325654162e-14,6.205151935e-14,4.175020854e-14
0.4296875,2.27367429e-13,1.047990042e-13,8.08434823e-14,1.19397277e-13,5.698963499e-14,9.688326895e-14,8.200982549e-14,3.664423664e-14,4.425179848e-14,8.838561747e-14,8.651510637e-14,6.109563915e-14,7.796077778e-14,6.255745531e-14,3.908292029e-14,3.859956553e-14,9.84305885e-14,7.529897309e-14,4.372326469e-14,8.587269369e-14,1.071155262e-14,2.131517111e-14,5.046949897e-14,9.048341632e-14,2.348768422e-14,9.93607582e-15,9.988273672e-14,9.429570348e-14,2.710237454e-14,5.013344423e-14,4.521636037e-14,4.112303951e-14
0.4375,2.078295595e-13,8.040655121e-14,7.612137258e-14,9.207618309e-14,4.342010143e-14,7.934600979e-14,7.310420533e-14,2.766483234e-14,4.28558769e-14,7.084340182e-14,7.027079608e-14,6.100386174e-14,7.947657838e-14,5.457129958e-14,3.509776771e-14,3.547652342e-14,9.137293463e-14,6.025204299e-14,3.376630303e-14,7.886951369e-14,7.598915226e-15,1.585937438e-14,5.116952171e-14,9.35717242e-14,2.28226097e-14,9.589243537e-15,9.207127626e-14,9.017885006e-14,4.132519092e-14,4.837473141e-14,3.439917569e-14,3.796226181e-14
0.4453125,1.933607162e-13,5.941638691e-14,7.318013265e-14,6.743248054e-14,3.36044027e-14,6.3689334e-14,6.259448904e-14,2.257342669e-14,4.389144688e-14,5.372648364e-14,6.015523463e-14,6.271394109e-14,8.157301372e-14,4.927024761e-14,3.231514551e-14,3.042159664e-14,8.432742033e-14,4.504584663e-14,2.632192802e-14,6.878708908e-14,5.592439225e-15,1.411159398e-14,4.857371091e-14,1.093073185e-13,2.169286873e-14,9.991002015e-15,8.991561518e-14,8.850751991e-14,5.623406563e-14,5.046349842e-14,2.681152895e-14,3.344800013e-14
0.453125,1.825719667e-13,4.415403112e-14,7.735968527e-14,4.823212508e-14,2.761349171e-14,5.110079758e-14,5.601026635e-14,2.030309003e-14,4.817666477e-14,3.903647196e-14,5.574593833e-14,6.884142026e-14,8.666587545e-14,5.046752638e-14,3.303492602e-14,2.573944234e-14,7.736533784e-14,3.245889958e-14,2.078997617e-14,5.72289115e-14,4.692687327e-15,1.433937565e-14,4.398042603e-14,1.332324473e-13,2.052955709e-14,1.168934278e-14,9.556757713e-14,1.006078836e-13,7.265921445e-14,5.419380072e-14,2.29104014e-14,2.905022955e-14
0.4609375,1.699764756e-13,3.410978263e-14,9.322568032e-14,3.503464881e-14,2.433026282e-14,4.05166691e-14,5.731862296e-14,2.172520116e-14,5.732390095e-14,2.860341462e-14,5.421007376e-14,8.230033345e-14,9.845037213e-14,5.881168469e-14,3.683949726e-14,2.220483259e-14,7.143928215e-14,2.234045527e-14,1.610019523e-14,4.549412844e-14,4.334837999e-15,1.548083328e-14,3.796535524e-14,1.60102166e-13,1.889189331e-14,1.475233308e-14,1.098646776e-13,1.284901462e-13,9.160514992e-14,5.812542227e-14,2.23813111e-14,2.575620027e-14
0.46875,1.573267978e-13,2.886593585e-14,1.2102332e-13,2.62293568e-14,2.225903737e-14,3.062866832e-14,6.437474477e-14,2.555059913e-14,6.951799119e-14,2.106127509e-14,5.523553045e-14,1.009803449e-13,1.141566756e-13,7.46662173e-14,4.439343509e-14,2.164474653e-14,6.668903981e-14,1.530192641e-14,1.33243043e-14,3.57966017e-14,4.465703801e-15,1.672505095e-14,3.13140345e-14,1.852378023e-13,1.73586533e-14,1.838283602e-14,1.291874528e-13,1.785697952e-13,1.08939392e-13,6.058392091e-14,2.330571296e-14,2.390682827e-14
0.4765625,1.432721706e-13,2.795802391e-14,1.635460206e-13,2.160463211e-14,1.960230132e-14,2.388509539e-14,7.842232609e-14,3.237346202e-14,8.368433404e-14,1.708266923e-14,5.829865215e-14,1.233470133e-13,1.33144658e-13,9.756272101e-14,5.72409178e-14,2.466853e-14,5.962764466e-14,1.191688806e-14,1.238374454e-14,2.765051587e-14,4.772025914e-15,1.752660478e-14,2.501446179e-14,2.060174031e-13,1.713906421e-14,2.22858935e-14,1.546470428e-13,2.552873661e-13,1.246796978e-13,6.218534222e-14,2.50837827e-14,2.390177067e-14
0.484375,1.257297999e-13,2.80384716e-14,2.110608187e-13,1.969764266e-14,1.831563582e-14,1.972683715e-14,1.003419206e-13,4.176829496e-14,9.66010238e-14,1.542948226e-14,5.919114353e-14,1.439920622e-13,1.520105992e-13,1.227052659e-13,7.534425483e-14,3.107048883e-14,4.942840905e-14,1.098621281e-14,1.228529813e-14,2.105370974e-14,5.033349802e-15,1.718662682e-14,1.98552657e-14,2.215703285e-13,1.84313662e-14,2.679264023e-14,1.841658676e-13,3.45981151e-13,1.385240981e-13,6.044608872e-14,2.788173066e-14,2.575466913e-14
0.4921875,1.05703909e-13,2.934004761e-14,2.578066483e-13,1.936814441e-14,1.896312603e-14,1.816640791e-14,1.248771054e-13,5.05197878e-14,1.04854434e-13,1.494496707e-14,5.809170817e-14,1.593430756e-13,1.680082606e-13,1.497061411e-13,9.779853677e-14,4.139543259e-14,4.211845982e-14,1.211402546e-14,1.3880008e-14,1.771626496e-14,5.015772449e-15,1.48074244e-14,1.618118607e-14,2.347432706e-13,2.148087542e-14,3.207410863e-14,2.143495749e-13,4.358585729e-13,1.494145946e-13,5.454204272e-14,3.245701051e-14,2.765557556e-14
0.5,8.680501425e-14,3.207088115e-14,3.00008598e-13,1.941851393e-14,1.998661184e-14,1.947414149e-14,1.462775947e-13,5.834044559e-14,1.087733093e-13,1.537286042e-14,5.576958809e-14,1.702270943e-13,1.821236564e-13,1.807564709e-13,1.233484834e-13,5.435251659e-14,3.600385145e-14,1.550797818e-14,1.765988393e-14,1.787573448e-14,4.741946769e-15,1.206865567e-14,1.352850571e-14,2.475842497e-13,2.618927206e-14,3.704450253e-14,2.386266728e-13,5.189849834e-13,1.55057326e-13,4.729438097e-14,3.815962227e-14,2.791614991e-14
0.5078125,7.069991094e-14,3.430097575e-14,3.278854302e-13,1.919291299e-14,2.19660639e-14,2.428883137e-14,1.65937109e-13,6.456000992e-14,1.075146133e-13,1.565114989e-14,5.051812147e-14,1.71981841e-13,1.897527176e-13,2.085114221e-13,1.491082444e-13,6.915253684e-14,3.120838778e-14,2.032164538e-14,2.318524206e-14,2.112317546e-14,4.612738189e-15,9.685924717e-15,1.148896681e-14,2.713372006e-13,3.368802517e-14,4.143090678e-14,2.555745428e-13,5.787272157e-13,1.539751216e-13,4.12900628e-14,4.323584553e-14,2.710248554e-14
0.515625,5.97136713e-14,3.828166881e-14,3.438852435e-13,1.999094477e-14,2.459053684e-14,3.146021325e-14,1.851184304e-13,6.566294517e-14,9.977084505e-14,1.506664492e-14,4.417768598e-14,1.633328119e-13,1.892986556e-13,2.31630514e-13,1.732671032e-13,8.633132091e-14,3.164835812e-14,2.642627789e-14,3.054633057e-14,2.616055191e-14,4.277877696e-15,7.908924114e-15,1.020569329e-14,3.109232182e-13,4.356871613e-14,4.594980908e-14,2.687080423e-13,6.072884879e-13,1.487456736e-13,3.658183774e-14,4.840881204e-14,2.484328633e-14
0.5234375,5.558703835e-14,4.284355464e-14,3.458948979e-13,2.007721735e-14,2.422788594e-14,4.114883794e-14,2.009537662e-13,6.172943516e-14,8.870074113e-14,1.451992068e-14,3.695248959e-14,1.487939961e-13,1.817448035e-13,2.461826715e-13,1.894772655e-13,9.897472494e-14,3.60430642e-14,3.180021121e-14,3.888528522e-14,3.39434246e-14,3.980324208e-15,7.10215513e-15,8.381779584e-15,3.679855323e-13,5.682473114e-14,4.860216193e-14,2.699615464e-13,5.962063666e-13,1.361993694e-13,3.487086992e-14,5.01951357e-14,2.098634728e-14
0.53125,5.914119492e-14,4.849513687e-14,3.353308373e-13,1.794858524e-14,2.286322581e-14,5.089619021e-14,2.087017736e-13,5.492274942e-14,7.786517574e-14,1.346558938e-14,2.962981409e-14,1.325898353e-13,1.708376776e-13,2.522770543e-13,1.952483096e-13,1.052811524e-13,4.283600945e-14,3.682586614e-14,4.738820699e-14,4.607855593e-14,4.559908209e-15,7.163260719e-15,6.814809379e-15,4.379812952e-13,7.429388867e-14,4.858814027e-14,2.553665438e-13,5.529645985e-13,1.165463856e-13,3.593410482e-14,4.881638718e-14,1.712377578e-14
0.5390625,7.152223836e-14,5.754335061e-14,3.181313618e-13,1.530245294e-14,2.154075384e-14,5.866008286e-14,2.09283981e-13,4.656106644e-14,6.987306726e-14,1.192014617e-14,2.282749863e-14,1.17506238e-13,1.572520438e-13,2.504002704e-13,1.946577313e-13,1.103835883e-13,5.425767786e-14,4.256312489e-14,5.611852073e-14,6.194861622e-14,5.818861697e-15,7.95273412e-15,5.772157684e-15,5.195638829e-13,9.518417716e-14,4.699714691e-14,2.351115713e-13,4.84902482e-13,9.615238854e-14,3.833879457e-14,4.650829449e-14,1.46752146e-14
0.546875,9.073338109e-14,6.815336161e-14,2.966226294e-13,1.386732468e-14,1.863749544e-14,6.638926541e-14,2.041766611e-13,3.78827543e-14,6.416136299e-14,9.67214819e-15,1.7041667e-14,1.049827217e-13,1.403216634e-13,2.386614306e-13,1.861077273e-13,1.125905349e-13,6.788157937e-14,4.647483271e-14,6.290521461e-14,7.760160058e-14,7.380888404e-15,8.629427833e-15,5.554719657e-15,6.029804621e-13,1.186681739e-13,4.369335699e-14,2.117699286e-13,4.06245314e-13,7.703673861e-14,4.090215881e-14,4.303105072e-14,1.441173138e-14
0.5546875,1.156009982e-13,7.882929439e-14,2.677386335e-13,1.175280192e-14,1.526997255e-14,7.077349874e-14,1.905485186e-13,3.022317946e-14,5.902764418e-14,7.948050156e-15,1.321367952e-14,9.407928461e-14,1.210607365e-13,2.145669943e-13,1.661893876e-13,1.054536564e-13,7.80891104e-14,4.758625239e-14,6.692068574e-14,9.265604746e-14,8.989321313e-15,9.508359589e-15,6.505896626e-15,6.817759e-13,1.435913777e-13,3.860689246e-14,1.839743082e-13,3.253339819e-13,5.88349698e-14,4.21117712e-14,3.867286546e-14,1.577200918e-14
0.5625,1.409270593e-13,8.85336688e-14,2.357168971e-13,9.61541066e-15,1.290687053e-14,6.951511256e-14,1.724171601e-13,2.490039409e-14,5.530439867e-14,7.579214506e-15,1.154217848e-14,8.568081441e-14,1.042380284e-13,1.869800177e-13,1.392700323e-13,9.247433265e-14,8.692748449e-14,4.75621334e-14,6.790464256e-14,1.088424067e-13,1.049147125e-14,1.031251802e-14,7.796918112e-15,7.459904272e-13,1.665664418e-13,3.255209136e-14,1.560247302e-13,2.575705437e-13,4.365562338e-14,4.09045592e-14,3.575415124e-14,1.873740172e-14
0.5703125,1.632631417e-13,9.543490338e-14,2.075961577e-13,7.980684689e-15,1.148796613e-14,6.349657737e-14,1.53210103e-13,2.290967766e-14,5.153014461e-14,8.002281355e-15,1.245509478e-14,7.767350671e-14,8.842310663e-14,1.58967424e-13,1.135971171e-13,8.136703678e-14,9.738146985e-14,4.768015381e-14,6.625814881e-14,1.233240085e-13,1.16697146e-14,1.063574057e-14,9.243563648e-15,7.935041526e-13,1.856849855e-13,2.651656152e-14,1.319172638e-13,2.081421915e-13,3.380178301e-14,3.88677883e-14,3.544130967e-14,2.252515136e-14
0.578125,1.746624849e-13,9.709133251e-14,1.913743612e-13,7.246081486e-15,1.139676781e-14,5.523333548e-14,1.332123114e-13,2.398827875e-14,4.786680747e-14,9.489921067e-15,1.641712896e-14,7.08594526e-14,7.451457376e-14,1.316443618e-13,8.926879831e-14,6.937508492e-14,1.019430737e-13,4.505690124e-14,6.105465129e-14,1.308827187e-13,1.199533035e-14,1.099453797e-14,1.080750418e-14,8.209484409e-13,1.99109315e-13,2.145261773e-14,1.131385704e-13,1.841594006e-13,2.735082043e-14,3.746235225e-14,3.663585596e-14,2.59146317e-14
0.5859375,1.778999341e-13,9.389352482e-14,1.92489183e-13,7.441083948e-15,1.222873667e-14,4.54325424e-14,1.171146386e-13,2.828057576e-14,4.720217913e-14,1.276731771e-14,2.338211557e-14,6.707016707e-14,6.675579676e-14,1.119562586e-13,6.797654654e-14,5.531959371e-14,9.97756853e-14,4.045062591e-14,5.33322065e-14,1.322998208e-13,1.137878333e-14,1.246461046e-14,1.150729029e-14,8.349728802e-13,2.04605046e-13,1.73677765e-14,9.806311361e-14,1.869473935e-13,2.296199634e-14,3.788204103e-14,3.854476121e-14,2.943782205e-14
0.59375,1.73079532e-13,8.651588723e-14,2.168431333e-13,8.372846432e-15,1.370448537e-14,3.614222876e-14,1.074631963e-13,3.498657251e-14,5.171990799e-14,1.795928284e-14,3.463249985e-14,6.77522346e-14,6.716557311e-14,1.016844931e-13,5.242627338e-14,4.349175913e-14,9.52270671e-14,3.64466942e-14,4.444052398e-14,1.306205169e-13,1.01854715e-14,1.488077027e-14,1.100764273e-14,8.408952568e-13,2.018417712e-13,1.449727111e-14,8.69387583e-14,2.180519767e-13,2.162476506e-14,4.074470144e-14,4.051160517e-14,3.384870896e-14
0.6015625,1.648558955e-13,7.798871924e-14,2.602227798e-13,1.009765367e-14,1.543643857e-14,2.78384521e-14,1.054884233e-13,4.325467966e-14,6.219145473e-14,2.432497198e-14,4.978687672e-14,7.42772195e-14,7.673707364e-14,1.016055363e-13,4.398186687e-14,3.557558366e-14,8.935457288e-14,3.368592061e-14,3.664440733e-14,1.246388542e-13,8.654237896e-15,1.874759395e-14,1.061087112e-14,8.422846481e-13,1.9320838e-13,1.322755867e-14,7.968381238e-14,2.702766715e-13,2.340697842e-14,4.661175809e-14,4.144328134e-14,3.872508172e-14
0.609375,1.62175244e-13,7.230273301e-14,3.154836304e-13,1.313614119e-14,1.695276266e-14,2.293091952e-14,1.095744563e-13,5.219130909e-14,8.127566889e-14,3.051506281e-14,7.044456842e-14,9.084008906e-14,9.80677171e-14,1.133291985e-13,4.317650722e-14,3.009461351e-14,7.861413407e-14,3.301839094e-14,3.116702221e-14,1.128315769e-13,6.807821077e-15,2.379827159e-14,1.116366837e-14,8.36273133e-13,1.805338454e-13,1.282567295e-14,7.645562484e-14,3.385208228e-13,3.033734242e-14,5.392469289e-14,3.993145922e-14,4.386349907e-14
0.6171875,1.755783821e-13,7.159524421e-14,3.640782447e-13,1.770200765e-14,1.817335199e-14,2.146593354e-14,1.16546278e-13,5.993902714e-14,1.039484375e-13,3.519473143e-14,9.244300382e-14,1.113701602e-13,1.284965978e-13,1.328441961e-13,4.835236053e-14,2.754653744e-14,6.662488121e-14,3.656892409e-14,2.887691404e-14,9.814284572e-14,5.236292123e-15,2.9380118e-14,1.299367532e-14,8.253962936e-13,1.656538051e-13,1.318103934e-14,7.574203256e-14,4.064551963e-13,4.281211576e-14,5.818647591e-14,3.70469695e-14,4.935951925e-14
0.625,2.071901834e-13,7.579562657e-14,3.955649853e-13,2.402764628e-14,1.941309175e-14,2.285566828e-14,1.221430434e-13,6.589203196e-14,1.262106273e-13,3.819473685e-14,1.159464999e-13,1.328877604e-13,1.629417074e-13,1.549931776e-13,5.8196075e-14,2.880354636e-14,5.75638142e-14,4.521061111e-14,3.033848856e-14,8.080211588e-14,3.849003265e-15,3.517108737e-14,1.688100225e-14,8.044220422e-13,1.516669722e-13,1.399035559e-14,7.77145796e-14,4.666724054e-13,6.060204087e-14,5.887417308e-14,3.324376472e-14,5.494207098e-14
0.6328125,2.55275117e-13,8.511936999e-14,4.058920245e-13,3.38792128e-14,2.071286197e-14,2.847580073e-14,1.241544687e-13,7.134354038e-14,1.456959041e-13,3.902735752e-14,1.378810037e-13,1.530026295e-13,2.012965719e-13,1.795569522e-13,7.143791999e-14,3.333385204e-14,5.207536149e-14,6.030798768e-14,3.5735065e-14,6.38076026e-14,3.070417385e-15,4.07642089e-14,2.287284495e-14,7.598546873e-13,1.394443224e-13,1.354552781e-14,8.088461988e-14,5.061102621e-13,8.473147971e-14,5.627737283e-14,2.835793116e-14,5.918028533e-14
0.640625,3.160908401e-13,9.697713304e-14,3.943798376e-13,4.639688403e-14,2.271921299e-14,3.638714345e-14,1.208091748e-13,7.724174251e-14,1.578787237e-13,3.666298226e-14,1.554668279e-13,1.650073482e-13,2.367191757e-13,2.007853775e-13,8.57574331e-14,4.030185038e-14,4.973548517e-14,8.097759494e-14,4.387541975e-14,4.745705282e-14,2.957584058e-15,4.378515227e-14,2.98590034e-14,6.954336543e-13,1.286321403e-13,1.264627758e-14,8.270316813e-14,5.145620132e-13,1.110433408e-13,4.994748053e-14,2.478208782e-14,6.118246653e-14
0.6484375,3.800106985e-13,1.097022281e-13,3.741499018e-13,6.516605229e-14,2.709497131e-14,4.979345104e-14,1.109393826e-13,8.389010403e-14,1.586173683e-13,3.284032188e-14,1.693882641e-13,1.664207014e-13,2.625497718e-13,2.164365053e-13,1.017269452e-13,5.31736049e-14,5.592671453e-14,1.070886312e-13,5.374076551e-14,3.293264124e-14,3.726780753e-15,4.370178675e-14,3.638001519e-14,6.085108567e-13,1.202389368e-13,1.145194009e-14,8.433007598e-14,4.969764354e-13,1.378625484e-13,4.096865896e-14,2.396560928e-14,5.991816563e-14
0.65625,4.348828685e-13,1.203330281e-13,3.586675876e-13,9.204299772e-14,3.595639082e-14,6.979517273e-14,9.526775388e-14,9.164331781e-14,1.484805629e-13,2.920683744e-14,1.793904054e-13,1.569002029e-13,2.740411423e-13,2.234324961e-13,1.164987894e-13,6.989017208e-14,6.94176702e-14,1.345688371e-13,6.485275026e-14,2.238005647e-14,5.853580372e-15,4.202138417e-14,4.148230406e-14,5.080812379e-13,1.140181171e-13,1.034290208e-14,8.675679053e-14,4.547405944e-13,1.62997192e-13,3.33142062e-14,2.784722595e-14,5.633883397e-14
0.6640625,4.701067832e-13,1.266041215e-13,3.596929049e-13,1.241856441e-13,4.822667424e-14,9.661217533e-14,7.86742274e-14,1.028425916e-13,1.331801008e-13,2.619570422e-14,1.867180921e-13,1.416053698e-13,2.737481355e-13,2.254835621e-13,1.303204372e-13,8.827807459e-14,8.591656986e-14,1.59255083e-13,7.555816286e-14,1.679418458e-14,9.023384665e-15,3.943561451e-14,4.32267253e-14,4.046932274e-13,1.071450775e-13,9.586478203e-15,8.917045372e-14,3.952765542e-13,1.830103233e-13,2.8232528e-14,3.510553766e-14,5.102499582e-14
0.671875,4.824777435e-13,1.274767852e-13,3.704823082e-13,1.613448897e-13,6.405784362e-14,1.320092262e-13,6.283467931e-14,1.18356412e-13,1.126728047e-13,2.365343868e-14,1.918145668e-13,1.205739895e-13,2.591262713e-13,2.186480862e-13,1.397514182e-13,1.070766976e-13,1.052280331e-13,1.775785305e-13,8.289861571e-14,1.731217373e-14,1.347482081e-14,3.495794675e-14,4.197255847e-14,3.076133899e-13,9.798584169e-14,1.023868037e-14,9.0241484e-14,3.271019042e-13,1.939179323e-13,2.515313186e-14,4.496510718e-14,4.379250765e-14
0.6796875,4.641703451e-13,1.207250465e-13,3.879895806e-13,1.997087969e-13,8.119500801e-14,1.711143738e-13,4.72061209e-14,1.346232954e-13,8.90958183e-14,2.274210652e-14,1.918999789e-13,9.480507864e-14,2.308001634e-13,1.984139224e-13,1.416859079e-13,1.217614e-13,1.220088467e-13,1.841656664e-13,8.534467524e-14,2.490946021e-14,1.897248957e-14,3.081567915e-14,3.697857562e-14,2.21969135e-13,8.695131978e-14,1.236534847e-14,9.355305769e-14,2.56686363e-13,1.947837814e-13,2.441144287e-14,5.508068615e-14,3.599905198e-14
0.6875,4.294734666e-13,1.106849051e-13,4.167861498e-13,2.372250329e-13,9.70083042e-14,2.132716629e-13,3.649383857e-14,1.504586505e-13,6.813110267e-14,2.264941887e-14,1.937089201e-13,7.260650174e-14,1.971263023e-13,1.738145681e-13,1.409022827e-13,1.318214962e-13,1.342320176e-13,1.814920556e-13,8.610876628e-14,4.01757773e-14,2.541334344e-14,2.940649381e-14,3.098364695e-14,1.562469674e-13,7.609039872e-14,1.533909012e-14,1.014236471e-13,1.96121632e-13,1.88961039e-13,2.588127098e-14,6.294523348e-14,2.887042137e-14
0.6953125,3.846434302e-13,1.010272788e-13,4.240022536e-13,2.761568011e-13,1.12816808e-13,2.598014739e-13,3.059640079e-14,1.63443743e-13,5.19461751e-14,2.12820231e-14,1.948800327e-13,5.658680275e-14,1.662206031e-13,1.504746081e-13,1.385075575e-13,1.361964121e-13,1.398095016e-13,1.713419171e-13,8.456491878e-14,6.411672373e-14,3.273260443e-14,2.999653683e-14,2.660463105e-14,1.102546904e-13,6.292700514e-14,1.932086524e-14,1.157390856e-13,1.484620303e-13,1.780158507e-13,2.536967642e-14,6.987614279e-14,2.309063232e-14
0.703125,3.287487034e-13,8.835046519e-14,4.039057477e-13,3.018042771e-13,1.218744403e-13,2.970648685e-13,2.557356186e-14,1.716062947e-13,4.015377565e-14,1.964172063e-14,1.897952945e-13,4.462145174e-14,1.39060131e-13,1.219579466e-13,1.292615636e-13,1.284420056e-13,1.337336254e-13,1.519960531e-13,7.642501243e-14,9.340701192e-14,3.884727824e-14,3.139262199e-14,2.504618355e-14,7.979550537e-14,4.987422255e-14,2.411321356e-14,1.367018496e-13,1.112080916e-13,1.619565873e-13,2.299243144e-14,7.197667746e-14,1.899883513e-14
0.7109375,2.692948266e-13,7.327362868e-14,3.677146239e-13,3.097311189e-13,1.205871409e-13,3.203731052e-13,2.289256689e-14,1.736844905e-13,3.248360696e-14,1.734460784e-14,1.805424942e-13,3.641940296e-14,1.174280117e-13,9.236446228e-14,1.159662128e-13,1.127638686e-13,1.196657942e-13,1.294618578e-13,6.404106955e-14,1.243409994e-13,4.247439778e-14,3.451497927e-14,2.749530928e-14,5.796870515e-14,4.00652211e-14,2.782932436e-14,1.615685302e-13,8.587777276e-14,1.441737034e-13,2.05108812e-14,6.731577319e-14,1.661687167e-14
0.71875,2.168092944e-13,5.948531802e-14,3.166382269e-13,3.050625971e-13,1.125234334e-13,3.325517531e-13,2.200695995e-14,1.691654825e-13,2.861762555e-14,1.449965964e-14,1.711374955e-13,3.241177929e-14,1.03522248e-13,6.75648268e-14,1.037348661e-13,9.500528302e-14,1.021737074e-13,1.115388478e-13,5.232148801e-14,1.554627271e-13,4.383745057e-14,3.95683759e-14,3.37437951e-14,4.379370907e-14,3.470806945e-14,2.992943552e-14,1.89218258e-13,7.137546967e-14,1.291381295e-13,1.720284773e-14,5.87780172e-14,1.611097695e-14
0.7265625,1.70424897e-13,4.794095894e-14,2.584071017e-13,2.878068939e-13,1.00203143e-13,3.330009905e-13,1.983829286e-14,1.589635409e-13,2.761349046e-14,1.116224463e-14,1.627966232e-13,3.176235238e-14,9.680754707e-14,5.02346146e-14,9.427158067e-14,7.782446023e-14,8.254514633e-14,1.020382666e-13,4.186494143e-14,1.818824083e-13,4.282341906e-14,4.51053023e-14,4.303275313e-14,3.378290377e-14,3.229393777e-14,3.109911146e-14,2.145804693e-13,6.723233892e-14,1.187531393e-13,1.273693205e-14,4.93013876e-14,1.702422251e-14
0.734375,1.324561473e-13,3.90622611e-14,2.015155041e-13,2.59534799e-13,8.430252345e-14,3.201521248e-13,1.812685387e-14,1.44502967e-13,2.848580716e-14,8.518610492e-15,1.552338338e-13,3.362454163e-14,9.571413504e-14,4.071987996e-14,8.704570082e-14,6.518415519e-14,6.592746435e-14,1.029154308e-13,3.270614575e-14,1.988138295e-13,3.891453391e-14,4.965406079e-14,5.300595361e-14,2.702699424e-14,3.360217937e-14,3.196606395e-14,2.327937845e-13,7.242153952e-14,1.127212475e-13,9.147100261e-15,4.013164571e-14,1.90893811e-14
0.7421875,1.027129552e-13,3.337023233e-14,1.555421253e-13,2.261703235e-13,6.756516819e-14,2.971760589e-13,1.869285483e-14,1.288001514e-13,3.05381088e-14,6.620575252e-15,1.48006466e-13,3.63007984e-14,9.801525722e-14,3.763596748e-14,8.066501636e-14,5.800664382e-14,5.365009199e-14,1.121737862e-13,2.666236166e-14,2.034000231e-13,3.283490904e-14,5.259410625e-14,6.220330296e-14,2.42255271e-14,3.809923644e-14,3.259643477e-14,2.425556838e-13,8.390778175e-14,1.106441935e-13,7.463517327e-15,3.371226717e-14,2.23176105e-14
0.75,7.892244274e-14,3.023060044e-14,1.262578955e-13,1.897787358e-13,5.196697097e-14,2.650509527e-13,2.176918496e-14,1.136938838e-13,3.297164043e-14,5.372064531e-15,1.39808681e-13,3.860822956e-14,1.017115883e-13,4.099400632e-14,7.551463329e-14,5.690141863e-14,4.634544803e-14,1.280650451e-13,2.478025447e-14,1.950917824e-13,2.615452492e-14,5.354033664e-14,6.874628846e-14,2.339419009e-14,4.410258036e-14,3.341936346e-14,2.416787522e-13,9.818389951e-14,1.1001096e-13,8.011428155e-15,3.009178505e-14,2.575146336e-14
0.7578125,6.223144648e-14,3.030780311e-14,1.169938706e-13,1.55785121e-13,4.135538599e-14,2.263554518e-13,2.744902306e-14,9.890314061e-14,3.455276001e-14,4.805308398e-15,1.295897398e-13,3.969113007e-14,1.049355379e-13,5.090814341e-14,6.981321802e-14,6.117303709e-14,4.299085077e-14,1.456561401e-13,2.744377142e-14,1.737432628e-13,2.065577903e-14,5.356244773e-14,7.246498071e-14,2.486777917e-14,4.985611249e-14,3.510986137e-14,2.290071307e-13,1.085492591e-13,1.091009152e-13,1.06946566e-14,3.087734979e-14,2.866660973e-14
0.765625,5.020520548e-14,3.407589149e-14,1.210728443e-13,1.306575876e-13,3.720720692e-14,1.875626941e-13,3.505128775e-14,8.458166069e-14,3.567856817e-14,5.648785915e-15,1.178700479e-13,4.047356293e-14,1.078906416e-13,6.534373182e-14,6.322462613e-14,6.661956316e-14,4.169030547e-14,1.586063005e-13,3.421916266e-14,1.460606e-13,1.72897201e-14,5.230661971e-14,7.252883991e-14,2.775078865e-14,5.443488417e-14,3.72426863e-14,2.057187428e-13,1.124720375e-13,1.051771962e-13,1.571059629e-14,3.635857363e-14,3.044304997e-14
0.7734375,4.153464571e-14,4.061983742e-14,1.368852276e-13,1.156045926e-13,3.906839289e-14,1.515857725e-13,4.367138402e-14,7.20525159e-14,3.699662214e-14,7.392980176e-15,1.029739042e-13,4.14675598e-14,1.111082872e-13,8.121332249e-14,5.682215579e-14,7.050163632e-14,4.094256786e-14,1.640619528e-13,4.313245481e-14,1.160881192e-13,1.626873364e-14,4.989675444e-14,6.935067969e-14,3.13754395e-14,5.721671958e-14,3.963004116e-14,1.781215591e-13,1.086926258e-13,9.818616612e-14,2.265237719e-14,4.351152433e-14,3.144324542e-14
0.78125,3.546835885e-14,4.947533004e-14,1.632397476e-13,1.115980868e-13,4.565115381e-14,1.206597609e-13,5.026420865e-14,6.100675448e-14,3.983629263e-14,1.006311867e-14,8.57720174e-14,4.381980102e-14,1.171191437e-13,1.002842685e-13,5.1844446e-14,7.245121594e-14,4.008035095e-14,1.62388773e-13,5.27381217e-14,8.678290601e-14,1.808626834e-14,4.682420054e-14,6.418076816e-14,3.553047409e-14,5.906789489e-14,4.148499463e-14,1.506656996e-13,9.812874846e-14,9.002185339e-14,3.108437148e-14,4.984065302e-14,3.188308679e-14
0.7890625,2.953328272e-14,6.042650703e-14,1.91806116e-13,1.175181297e-13,5.616284793e-14,9.635068558e-14,5.371328629e-14,5.095315446e-14,4.40122354e-14,1.329312204e-14,6.924303691e-14,4.775459917e-14,1.259354578e-13,1.2206588e-13,4.874364934e-14,7.07258718e-14,3.760952225e-14,1.520071682e-13,6.185295234e-14,6.412594942e-14,2.149787975e-14,4.378995812e-14,5.584119806e-14,4.061691848e-14,5.92140543e-14,4.269290767e-14,1.259296446e-13,8.262315033e-14,8.086193281e-14,3.948255872e-14,5.598328824e-14,3.108889604e-14
0.796875,2.393202531e-14,7.101471373e-14,2.189597787e-13,1.283382262e-13,6.747814116e-14,7.927844708e-14,5.423165991e-14,4.134493139e-14,4.796404899e-14,1.558115915e-14,5.463167417e-14,5.194546809e-14,1.330989757e-13,1.405299666e-13,4.817071123e-14,6.416553167e-14,3.320180046e-14,1.328725245e-13,6.810283537e-14,4.847423475e-14,2.457435609e-14,4.068374284e-14,4.549805288e-14,4.758099391e-14,5.787876258e-14,4.236116809e-14,1.039258845e-13,6.659592901e-14,6.976091163e-14,4.634678883e-14,5.916691455e-14,2.946549586e-14
0.8046875,1.914099783e-14,7.993452917e-14,2.402049219e-13,1.415934153e-13,7.859364085e-14,6.99022101e-14,5.188250561e-14,3.378236206e-14,5.207329068e-14,1.805553277e-14,4.2204231e-14,5.65268402e-14,1.384616815e-13,1.535083005e-13,5.012001621e-14,5.367572073e-14,2.744536295e-14,1.081578761e-13,7.086197013e-14,3.836103131e-14,2.80035468e-14,3.807106427e-14,3.521506635e-14,6.010673079e-14,5.531247687e-14,4.041961438e-14,8.515409524e-14,5.244056907e-14,5.8532388e-14,5.200585873e-14,5.904528173e-14,2.777191605e-14
0.8125,1.525846629e-14,8.470823627e-14,2.53005344e-13,1.515800611e-13,8.601045915e-14,6.666428089e-14,4.718963445e-14,2.854755678e-14,5.597667012e-14,1.994470476e-14,3.327130232e-14,6.059050415e-14,1.424508244e-13,1.62923146e-13,5.439108574e-14,4.247856091e-14,2.244679727e-14,8.383081359e-14,6.998877493e-14,3.375980303e-14,3.009968653e-14,3.520433011e-14,2.628682982e-14,7.918364706e-14,5.253046104e-14,3.747428797e-14,6.968091966e-14,4.351190137e-14,4.905867239e-14,5.533242336e-14,5.502231319e-14,2.671964238e-14
0.8203125,1.148067247e-14,8.40702986e-14,2.512423726e-13,1.539586356e-13,8.818831686e-14,6.690564488e-14,4.215049728e-14,2.698796475e-14,5.874964059e-14,1.935716103e-14,2.755539213e-14,6.20179338e-14,1.416967521e-13,1.650357455e-13,5.927043156e-14,3.153449491e-14,1.874491629e-14,6.148714089e-14,6.5044608e-14,3.171580142e-14,2.995160708e-14,3.147351664e-14,1.841936952e-14,1.052796271e-13,4.907240448e-14,3.428510826e-14,5.678352414e-14,4.001269907e-14,4.191939844e-14,5.44084029e-14,4.928165934e-14,2.632408522e-14
0.828125,8.817217668e-15,7.857796375e-14,2.387887579e-13,1.484003354e-13,8.621577293e-14,6.798126782e-14,3.842934945e-14,2.970051168e-14,5.955039869e-14,1.753746099e-14,2.533301044e-14,6.090031188e-14,1.33837643e-13,1.586409202e-13,6.261481719e-14,2.15466365e-14,1.619636725e-14,4.341894324e-14,5.714407965e-14,2.941608871e-14,2.823696376e-14,2.74539375e-14,1.242724543e-14,1.397511552e-13,4.523004905e-14,3.113088406e-14,4.588467266e-14,4.00794121e-14,3.690005705e-14,5.154800657e-14,4.223710264e-14,2.644371691e-14
0.8359375,7.665788182e-15,6.90121361e-14,2.188331063e-13,1.34855148e-13,7.960845937e-14,6.821853737e-14,3.643990683e-14,3.601545434e-14,5.933886158e-14,1.576386363e-14,2.497324336e-14,5.7806792e-14,1.201905273e-13,1.429901758e-13,6.267386468e-14,1.325784213e-14,1.473688302e-14,3.110378166e-14,4.705002538e-14,2.814290689e-14,2.574380592e-14,2.320122161e-14,8.682979971e-15,1.797750346e-13,4.134067414e-14,2.870025083e-14,3.802614991e-14,4.234938582e-14,3.456701349e-14,4.772721783e-14,3.48224548e-14,2.779890692e-14
0.84375,7.380682276e-15,5.737900105e-14,1.946714744e-13,1.161948754e-13,7.019969926e-14,6.615588839e-14,3.715221926e-14,4.337534509e-14,5.843285648e-14,1.40050455e-14,2.709427075e-14,5.311179647e-14,1.042597047e-13,1.224602378e-13,5.896759004e-14,7.97054327e-15,1.374338122e-14,2.616774765e-14,3.829584582e-14,2.694728086e-14,2.281461201e-14,1.95196359e-14,6.400212623e-15,2.244330183e-13,3.800771789e-14,2.731418744e-14,3.275801251e-14,4.495303906e-14,3.628112359e-14,4.316978243e-14,2.934981315e-14,2.938967297e-14
0.8515625,8.076303242e-15,4.777696644e-14,1.681826925e-13,9.506874817e-14,6.006701208e-14,5.981873907e-14,4.007989322e-14,4.989162521e-14,5.618840466e-14,1.262742577e-14,3.065926004e-14,4.676019236e-14,8.792744571e-14,9.859574198e-14,5.269036905e-14,5.085036644e-15,1.269727451e-14,2.74208583e-14,3.132614646e-14,2.720854498e-14,2.102294834e-14,1.687927343e-14,5.436008382e-15,2.666448279e-13,3.543942272e-14,2.742233304e-14,3.120547018e-14,4.651317917e-14,4.140777274e-14,3.730713943e-14,2.721882786e-14,3.066978963e-14
0.859375,1.058678366e-14,3.962415778e-14,1.433129757e-13,7.241889468e-14,4.933690053e-14,4.984357132e-14,4.512998675e-14,5.345273283e-14,5.127517959e-14,1.272415998e-14,3.797176442e-14,3.903247699e-14,7.028704007e-14,7.295206064e-14,4.33153752e-14,4.279899047e-15,1.154274781e-14,3.44020432e-14,2.668758766e-14,3.015499077e-14,2.102036575e-14,1.49571038e-14,5.454408782e-15,3.012955199e-13,3.354442232e-14,2.836263135e-14,3.259343794e-14,4.574806559e-14,5.008689614e-14,3.161809247e-14,2.851508698e-14,3.113254049e-14
0.8671875,1.581716295e-14,3.558395729e-14,1.222894322e-13,5.429377993e-14,3.97148968e-14,3.834807437e-14,5.039993209e-14,5.338653438e-14,4.509970434e-14,1.485650716e-14,4.898919473e-14,3.17365579e-14,5.600718802e-14,4.916987318e-14,3.268893818e-14,5.597999773e-15,9.439030842e-15,4.543455243e-14,2.518234427e-14,3.668492165e-14,2.364196098e-14,1.508942525e-14,6.230146674e-15,3.243354221e-13,3.178224963e-14,2.930655686e-14,3.687093491e-14,4.390419567e-14,6.335374127e-14,2.723698441e-14,3.376863755e-14,3.007038664e-14
0.875,2.393677659e-14,3.642019462e-14,1.094018401e-13,4.248657405e-14,3.225488949e-14,2.733832874e-14,5.62290363e-14,4.907918387e-14,3.926766592e-14,1.969420889e-14,6.455753321e-14,2.546066574e-14,4.74055657e-14,3.067910368e-14,2.257688128e-14,7.951078527e-15,6.991255849e-15,5.664178521e-14,2.632567367e-14,4.490974247e-14,2.900798669e-14,1.742101244e-14,7.836152091e-15,3.342942458e-13,3.096346762e-14,3.010222784e-14,4.158950415e-14,4.203022052e-14,8.040413569e-14,2.393247675e-14,4.115543719e-14,2.741357737e-14
0.8828125,3.515160545e-14,4.003007897e-14,1.025991395e-13,3.649937558e-14,2.690314039e-14,1.74802671e-14,5.923166657e-14,4.095362991e-14,3.221878612e-14,2.662036893e-14,8.474637449e-14,1.932805081e-14,4.134933601e-14,1.881062002e-14,1.418532483e-14,1.070248786e-14,4.665306934e-15,6.655864344e-14,2.98395784e-14,5.46512031e-14,3.695011585e-14,2.195771092e-14,1.036212499e-14,3.294756347e-13,3.086156156e-14,3.021547292e-14,4.592773259e-14,3.946708714e-14,1.014015751e-13,2.221402894e-14,5.028949749e-14,2.287619323e-14
0.890625,5.115609226e-14,4.670966949e-14,1.006128865e-13,3.706762871e-14,2.373706257e-14,1.041252442e-14,5.854937207e-14,3.234326477e-14,2.618334017e-14,3.543761006e-14,1.096034907e-13,1.447429961e-14,3.758339127e-14,1.400693202e-14,8.101109022e-15,1.343781272e-14,2.714547848e-15,7.275223183e-14,3.50046208e-14,6.305628525e-14,4.609702313e-14,2.845904415e-14,1.360103166e-14,3.154149275e-13,3.018324921e-14,3.009268009e-14,4.961198563e-14,3.686428195e-14,1.26583686e-13,2.362843175e-14,5.911908776e-14,1.804469453e-14
0.8984375,6.925863289e-14,5.340421895e-14,1.028508738e-13,4.034436694e-14,2.191405516e-14,7.339529261e-15,5.499312116e-14,2.513960628e-14,2.249158466e-14,4.449926335e-14,1.371167747e-13,1.157317941e-14,3.624187882e-14,1.70198795e-14,4.952428385e-15,1.49512946e-14,1.850725089e-15,7.356117758e-14,3.93479977e-14,6.764068861e-14,5.425838221e-14,3.450609811e-14,1.637019481e-14,2.970656811e-13,2.876220323e-14,2.979189846e-14,5.18506193e-14,3.565320659e-14,1.527614788e-13,2.726805615e-14,6.419106621e-14,1.385539968e-14
0.90625,8.853708352e-14,5.720912553e-14,1.075927009e-13,4.400478187e-14,2.157990346e-14,7.693291405e-15,5.132642023e-14,2.142038995e-14,2.059904695e-14,5.356948064e-14,1.657575431e-13,1.04104678e-14,3.54249188e-14,2.761447392e-14,4.745563634e-15,1.48771565e-14,1.652730931e-15,6.96753008e-14,4.322239693e-14,6.874361939e-14,6.042648977e-14,3.948677088e-14,1.825390303e-14,2.747322134e-13,2.701591323e-14,3.145278882e-14,5.431499402e-14,3.538016114e-14,1.781986995e-13,3.275116196e-14,6.783807764e-14,1.096917952e-14
0.9140625,1.058620921e-13,5.99879164e-14,1.105524174e-13,5.071329688e-14,2.375766207e-14,1.237771348e-14,4.615440716e-14,2.28489955e-14,2.085947047e-14,6.004778332e-14,1.938860996e-13,1.174475581e-14,3.445266529e-14,4.522518373e-14,7.303354316e-15,1.473926752e-14,1.752924189e-15,6.284675105e-14,4.637976105e-14,6.927572632e-14,6.431740946e-14,4.163804557e-14,1.942809934e-14,2.458227228e-13,2.474338216e-14,3.446703431e-14,6.081855671e-14,3.585876695e-14,2.035984891e-13,3.910727652e-14,6.962578268e-14,1.014350766e-14
0.921875,1.161839354e-13,5.809676317e-14,1.119481238e-13,5.750391294e-14,2.870781994e-14,2.204215546e-14,4.435959435e-14,2.840142861e-14,2.216921605e-14,6.335064894e-14,2.197323021e-13,1.712888623e-14,3.640556166e-14,6.866109427e-14,1.294271522e-14,1.460008532e-14,2.397256188e-15,5.516052231e-14,4.953208112e-14,6.671934622e-14,6.258271979e-14,4.067561839e-14,1.851274488e-14,2.19245686e-13,2.156448142e-14,3.877909095e-14,7.008485812e-14,3.84720341e-14,2.217586143e-13,4.600633259e-14,6.794058039e-14,1.087026974e-14
0.9296875,1.189996873e-13,5.169829826e-14,1.113795705e-13,6.406969854e-14,3.647981413e-14,3.535788338e-14,4.954124168e-14,3.78442975e-14,2.396945773e-14,6.583454808e-14,2.414801306e-13,2.625471273e-14,4.244707996e-14,9.456661748e-14,2.168557996e-14,1.460293105e-14,3.51509171e-15,4.922010318e-14,5.353761526e-14,6.097270137e-14,5.680917335e-14,3.78832729e-14,1.568233562e-14,1.978131986e-13,1.806742198e-14,4.434452541e-14,8.341366123e-14,4.348667445e-14,2.331407942e-13,5.203184331e-14,6.660438073e-14,1.24515714e-14
0.9375,1.173315969e-13,4.488201717e-14,1.097163104e-13,7.694491838e-14,4.858800653e-14,5.104539242e-14,6.450810963e-14,4.902896275e-14,2.609342204e-14,6.905999398e-14,2.565737427e-13,3.933671478e-14,5.440965071e-14,1.19912446e-13,3.278835223e-14,1.646183084e-14,4.909563256e-15,4.917279363e-14,5.980539776e-14,5.534560327e-14,5.104214093e-14,3.422523952e-14,1.244199671e-14,1.772449194e-13,1.47256388e-14,5.002385873e-14,9.957138058e-14,4.968923614e-14,2.403465448e-13,5.662836618e-14,6.808645056e-14,1.387284404e-14
0.9453125,1.087642903e-13,3.804827349e-14,1.073633898e-13,9.69878975e-14,6.55173997e-14,6.725636401e-14,9.017931115e-14,6.011782366e-14,2.776401638e-14,7.459697976e-14,2.606285933e-13,5.500632596e-14,7.149475275e-14,1.434708593e-13,4.473234694e-14,2.081494891e-14,6.478703232e-15,5.57106508e-14,6.713490462e-14,5.141697291e-14,4.592157497e-14,2.944373838e-14,9.029473862e-15,1.611413788e-13,1.157565147e-14,5.496877119e-14,1.146361588e-13,5.652256797e-14,2.390552409e-13,5.989664276e-14,7.046373426e-14,1.462767556e-14
0.953125,9.484444896e-14,3.222455803e-14,1.089477936e-13,1.255857542e-13,8.638834254e-14,8.232817884e-14,1.251407804e-13,6.829037539e-14,2.948002482e-14,8.609845229e-14,2.580039051e-13,7.131426218e-14,9.409963242e-14,1.595807433e-13,5.659007536e-14,2.692031095e-14,8.88976515e-15,6.99554336e-14,7.616498027e-14,4.992632889e-14,4.384188671e-14,2.585592763e-14,6.02832863e-15,1.484961991e-13,8.814548014e-15,6.007542553e-14,1.278681389e-13,6.46222039e-14,2.321011285e-13,6.235717314e-14,7.696089237e-14,1.42897171e-14
0.9609375,8.129501452e-14,3.036108696e-14,1.143786033e-13,1.601876076e-13,1.086460954e-13,9.320373775e-14,1.657482313e-13,7.200795217e-14,3.141822136e-14,1.032330612e-13,2.486124327e-13,8.58613104e-14,1.179748598e-13,1.646549356e-13,6.715102721e-14,3.587667251e-14,1.29333996e-14,9.146581299e-14,8.643904486e-14,5.292093054e-14,4.769926783e-14,2.320045065e-14,4.154286515e-15,1.382206435e-13,6.475694471e-15,6.549242571e-14,1.375874903e-13,7.328815656e-14,2.247599782e-13,6.391359082e-14,8.688692174e-14,1.362245532e-14
0.96875,6.687733975e-14,2.951743558e-14,1.266231103e-13,1.929586167e-13,1.290596932e-13,9.800041833e-14,2.037213673e-13,6.9806877e-14,3.181364469e-14,1.254506306e-13,2.327542286e-13,9.603777148e-14,1.364355732e-13,1.602335727e-13,7.464923849e-14,4.661612074e-14,1.799909526e-14,1.154375494e-13,9.52944381e-14,6.294539128e-14,5.685064745e-14,2.013469965e-14,3.379580436e-15,1.30444666e-13,4.859667213e-15,7.272593472e-14,1.416635715e-13,8.278133615e-14,2.160338129e-13,6.540460581e-14,9.794134519e-14,1.292256224e-14
0.9765625,5.612601824e-14,3.253721524e-14,1.492086537e-13,2.229373386e-13,1.460125351e-13,9.651401915e-14,2.351170351e-13,6.210847172e-14,3.379071035e-14,1.526741556e-13,2.201754658e-13,1.037549092e-13,1.523955245e-13,1.489022181e-13,7.837884685e-14,5.76254227e-14,2.395260084e-14,1.414279698e-13,1.047732387e-13,8.188484509e-14,7.134438138e-14,1.863670957e-14,4.351317e-15,1.235670489e-13,3.654052199e-15,8.265536889e-14,1.464546286e-13,9.51987632e-14,2.131788583e-13,6.999026204e-14,1.137000332e-13,1.309194444e-14
0.984375,4.81174417e-14,3.730019176e-14,1.754228652e-13,2.380448476e-13,1.54381488e-13,8.74811227e-14,2.581172757e-13,5.281090343e-14,3.547847998e-14,1.743968312e-13,2.115764654e-13,1.028213477e-13,1.589278752e-13,1.294840004e-13,7.809187565e-14,6.757640678e-14,3.02800445e-14,1.626882521e-13,1.111211247e-13,1.076282272e-13,8.85465131e-14,1.72207727e-14,6.737085146e-15,1.160050926e-13,2.735593244e-15,9.555594829e-14,1.506842622e-13,1.05584601e-13,2.163018989e-13,7.31943114e-14,1.308107249e-13,1.549291713e-14
0.9921875,4.386513235e-14,4.320189014e-14,1.982361105e-13,2.365664571e-13,1.545262509e-13,7.431592716e-14,2.658719304e-13,4.289662725e-14,3.453556313e-14,1.883722227e-13,2.057717598e-13,9.439026318e-14,1.528663097e-13,1.051694615e-13,7.360874765e-14,7.58487401e-14,3.578305541e-14,1.748457758e-13,1.145985813e-13,1.341572219e-13,1.054765145e-13,1.671063409e-14,1.133814419e-14,1.051980347e-13,2.198754988e-15,1.096304383e-13,1.565535378e-13,1.133191317e-13,2.252385759e-13,7.431234563e-14,1.480625983e-13,1.895829834e-14
1,4.321790028e-14,5.096564473e-14,2.147761238e-13,2.192878417e-13,1.474431743e-13,6.126200885e-14,2.551065416e-13,3.54649051e-14,3.276230581e-14,1.922781706e-13,2.045190572e-13,8.312392461e-14,1.379630231e-13,8.229614536e-14,6.569002559e-14,8.001199317e-14,3.878607048e-14,1.777245818e-13,1.175642392e-13,1.595404664e-13,1.190175883e-13,1.748030505e-14,1.707430273e-14,9.014079009e-14,1.998913173e-15,1.233286448e-13,1.64839457e-13,1.173592601e-13,2.394298971e-13,7.509515889e-14,1.655537858e-13,2.332023042e-14
1.0078125,4.502592865e-14,5.980820549e-14,2.223644881e-13,1.896579575e-13,1.341763572e-13,5.101120464e-14,2.332254048e-13,3.204672759e-14,2.98538464e-14,1.825279879e-13,2.051888697e-13,6.997240307e-14,1.173775263e-13,6.376948931e-14,5.615682876e-14,7.943122654e-14,3.913418992e-14,1.713799946e-13,1.189468131e-13,1.763317699e-13,1.251720411e-13,2.094882028e-14,2.435824334e-14,7.406033074e-14,2.215586679e-15,1.321512719e-13,1.733905579e-13,1.154735192e-13,2.545473512e-13,7.363847629e-14,1.795384691e-13,2.689529151e-14
1.015625,5.308446775e-14,7.317705804e-14,2.170195992e-13,1.571341955e-13,1.211916335e-13,4.60154373e-14,2.066924839e-13,3.391602879e-14,2.695042745e-14,1.634581874e-13,2.057492035e-13,5.7431846e-14,9.653793688e-14,5.25718571e-14,4.639830628e-14,7.409608911e-14,3.704124028e-14,1.588015766e-13,1.225024957e-13,1.78256934e-13,1.260088702e-13,2.902074767e-14,3.235862533e-14,5.851091194e-14,3.048066072e-15,1.335494262e-13,1.809135402e-13,1.088389749e-13,2.717641078e-13,6.879321246e-14,1.922358574e-13,2.942041246e-14
1.0234375,6.309065968e-14,8.989327942e-14,1.988207937e-13,1.261555296e-13,1.10837937e-13,4.600363487e-14,1.78445956e-13,4.019701027e-14,2.339214624e-14,1.368777739e-13,2.050448948e-13,4.599521974e-14,7.710804565e-14,4.862544959e-14,3.806066896e-14,6.661568218e-14,3.468384692e-14,1.451137503e-13,1.283058991e-13,1.685185769e-13,1.207149247e-13,4.034939286e-14,3.926628425e-14,4.515755749e-14,4.57979374e-15,1.276749475e-13,1.858068786e-13,9.686805504e-14,2.863577429e-13,6.232088182e-14,2.009906309e-13,3.065696469e-14
1.03125,7.441975959e-14,1.096388234e-13,1.742165997e-13,1.033265138e-13,1.060042561e-13,5.025022286e-14,1.524462248e-13,4.770740583e-14,1.934897013e-14,1.077367626e-13,2.052777122e-13,3.774779788e-14,6.189297751e-14,5.187211183e-14,3.292175702e-14,5.845985276e-14,3.251502212e-14,1.353442316e-13,1.385227898e-13,1.490798992e-13,1.110709562e-13,5.590277476e-14,4.484777335e-14,3.748578344e-14,6.916086639e-15,1.151914947e-13,1.863510757e-13,8.122990745e-14,2.995475154e-13,5.651194048e-14,2.066049217e-13,2.991485743e-14
1.0390625,8.62897582e-14,1.334329948e-13,1.526359236e-13,9.436662969e-14,1.097454644e-13,5.618143483e-14,1.338644017e-13,5.420802792e-14,1.567140225e-14,8.134461868e-14,2.070447722e-13,3.339693119e-14,5.359555831e-14,6.108095353e-14,3.275371339e-14,5.19307597e-14,3.351966095e-14,1.331126944e-13,1.516193825e-13,1.230129569e-13,9.982341062e-14,7.424266992e-14,4.864693814e-14,3.72353849e-14,1.024447244e-14,9.832615144e-14,1.844513999e-13,6.635294625e-14,3.111693715e-13,5.263618099e-14,2.109573207e-13,2.715256627e-14
1.046875,9.559343264e-14,1.586057964e-13,1.417104057e-13,9.852183941e-14,1.214493413e-13,6.047004703e-14,1.243793284e-13,5.78537057e-14,1.233588948e-14,6.20318834e-14,2.098343953e-13,3.208689542e-14,4.983997876e-14,7.239729837e-14,3.713690093e-14,4.957227019e-14,3.866293459e-14,1.38123894e-13,1.638727006e-13,9.686635991e-14,8.981924384e-14,9.310508173e-14,5.045744469e-14,4.212685812e-14,1.43274273e-14,8.018624814e-14,1.82063883e-13,5.515179945e-14,3.206802126e-13,5.124699987e-14,2.145480849e-13,2.386645046e-14
1.0546875,1.005727053e-13,1.812149664e-13,1.470707004e-13,1.115632522e-13,1.356908515e-13,6.255727116e-14,1.205404186e-13,5.67245506e-14,9.403981073e-15,4.958990927e-14,2.153819536e-13,3.455670983e-14,5.155444308e-14,8.611729793e-14,4.664575968e-14,5.218896487e-14,4.647792712e-14,1.498828599e-13,1.751413891e-13,7.291181172e-14,8.052606098e-14,1.114455143e-13,4.955017725e-14,5.305122967e-14,1.930890616e-14,6.460789784e-14,1.802434084e-13,4.877755275e-14,3.297683311e-13,5.479850641e-14,2.17862423e-13,2.010718777e-14
1.0625,1.010232087e-13,1.972229371e-13,1.721979186e-13,1.287631856e-13,1.479588926e-13,6.266242055e-14,1.220103594e-13,5.208072039e-14,7.763717521e-15,4.301889177e-14,2.194391379e-13,3.973024948e-14,5.695462484e-14,9.822203952e-14,5.945199717e-14,5.87171199e-14,5.532910784e-14,1.627250838e-13,1.801762902e-13,5.363676862e-14,7.138564977e-14,1.251626538e-13,4.691346497e-14,6.717779149e-14,2.450137019e-14,5.271180658e-14,1.76742316e-13,4.649367573e-14,3.327599843e-13,6.236949229e-14,2.171465167e-13,1.703210195e-14
1.0703125,1.005333541e-13,2.023185951e-13,2.130050741e-13,1.426618918e-13,1.525768503e-13,6.479142853e-14,1.245754417e-13,4.597672458e-14,6.961777328e-15,4.018878922e-14,2.174296859e-13,4.615570377e-14,6.246249472e-14,1.072779861e-13,7.310873504e-14,6.697077987e-14,6.328432065e-14,1.710473271e-13,1.748471534e-13,4.132418249e-14,6.216718849e-14,1.326751517e-13,4.327553258e-14,8.21231687e-14,2.882134405e-14,4.482110075e-14,1.70459911e-13,4.734613625e-14,3.256908049e-13,7.117601943e-14,2.085682784e-13,1.598813676e-14
1.078125,9.902070141e-14,1.954602966e-13,2.591782346e-13,1.547710673e-13,1.483742799e-13,7.717456704e-14,1.286731785e-13,4.005153188e-14,6.66139782e-15,3.908655145e-14,2.053608009e-13,5.50477057e-14,6.586166789e-14,1.142294772e-13,8.446823081e-14,7.30201785e-14,6.648287533e-14,1.695327201e-13,1.597352442e-13,3.512837583e-14,5.23882003e-14,1.335081413e-13,4.060330628e-14,9.676904894e-14,3.159285988e-14,3.922904076e-14,1.594304331e-13,4.835643536e-14,3.054229819e-13,7.889545029e-14,1.920958075e-13,1.664687134e-14
1.0859375,1.029740985e-13,1.809980903e-13,3.030523858e-13,1.672299238e-13,1.377547749e-13,1.006840412e-13,1.318228901e-13,3.675600984e-14,8.347101976e-15,3.845167431e-14,1.86890143e-13,6.823787187e-14,6.997595852e-14,1.207784988e-13,9.410743062e-14,7.70539293e-14,6.614921103e-14,1.601823458e-13,1.403675116e-13,3.501522359e-14,4.334447623e-14,1.283201847e-13,3.923736498e-14,1.106926155e-13,3.266522319e-14,3.677667641e-14,1.462299877e-13,5.013128818e-14,2.777110799e-13,8.662231085e-14,1.722969326e-13,1.978439127e-14
1.09375,1.152095914e-13,1.568299738e-13,3.375892188e-13,1.79648336e-13,1.209761015e-13,1.40722605e-13,1.339025477e-13,3.745022441e-14,1.133407654e-14,3.55105427e-14,1.60266156e-13,8.622654961e-14,7.375449063e-14,1.297784741e-13,1.006104775e-13,7.792488101e-14,6.325015424e-14,1.429134598e-13,1.162894575e-13,3.815728198e-14,3.456062197e-14,1.168894065e-13,3.900358679e-14,1.207759468e-13,3.208838526e-14,3.47868733e-14,1.253877074e-13,4.996235715e-14,2.388584125e-13,9.079078763e-14,1.448947645e-13,2.462520325e-14
1.1015625,1.417502341e-13,1.282219999e-13,3.494238834e-13,1.93869815e-13,1.028711824e-13,1.957137384e-13,1.367542416e-13,3.954743096e-14,1.618495783e-14,3.1815724e-14,1.313356917e-13,1.110591195e-13,7.844047772e-14,1.431209554e-13,1.043338468e-13,7.757964626e-14,6.124085008e-14,1.222174853e-13,9.274788369e-14,4.352981744e-14,2.747624388e-14,1.013433571e-13,4.010166539e-14,1.312067257e-13,2.965723067e-14,3.228132742e-14,1.030288387e-13,5.20932787e-14,1.966870898e-13,8.901085433e-14,1.149489754e-13,2.917665339e-14
1.109375,1.864688111e-13,1.017417244e-13,3.366778891e-13,2.106278004e-13,8.845181834e-14,2.562579418e-13,1.414275821e-13,4.391285235e-14,2.385751776e-14,2.925237343e-14,1.058744401e-13,1.403191836e-13,8.660433911e-14,1.611526881e-13,1.060608725e-13,7.893421071e-14,6.407054374e-14,1.054190366e-13,7.526999872e-14,4.851527096e-14,2.296634728e-14,8.502246466e-14,4.081844286e-14,1.404290427e-13,2.598999765e-14,2.925911826e-14,8.201406874e-14,5.946106902e-14,1.594952292e-13,8.420257829e-14,8.8202179e-14,3.209957521e-14
1.1171875,2.477725685e-13,8.190150375e-14,3.09651065e-13,2.2965039e-13,8.04266495e-14,3.112016708e-13,1.475194234e-13,4.677579622e-14,3.62055308e-14,2.596984744e-14,8.735399531e-14,1.754358644e-13,1.0345674e-13,1.873769997e-13,1.085933454e-13,8.520482721e-14,7.475646561e-14,9.675968567e-14,6.583400586e-14,5.262913749e-14,2.113477513e-14,7.188136127e-14,4.040264876e-14,1.540506579e-13,2.30916282e-14,2.552467863e-14,6.448495419e-14,7.406138167e-14,1.321291979e-13,8.030658232e-14,6.697115751e-14,3.290744626e-14
1.125,3.238141614e-13,7.143882293e-14,2.717986538e-13,2.481921968e-13,8.041527082e-14,3.510738196e-13,1.574777373e-13,4.763854857e-14,5.362875927e-14,2.351690225e-14,7.834593556e-14,2.140566803e-13,1.297975585e-13,2.199385104e-13,1.139003564e-13,9.993172899e-14,9.795470963e-14,1.024828932e-13,6.565709169e-14,5.45836278e-14,2.195104446e-14,6.245150026e-14,3.836997593e-14,1.754676831e-13,2.17435934e-14,2.248422466e-14,5.457570443e-14,9.87340775e-14,1.1829183e-13,7.80080483e-14,5.35157763e-14,3.047462975e-14
1.1328125,4.094006989e-13,6.905248615e-14,2.276268349e-13,2.59264798e-13,8.515095615e-14,3.680403065e-13,1.70124321e-13,4.700664848e-14,7.48619839e-14,2.129414748e-14,7.797101748e-14,2.502157378e-13,1.650705564e-13,2.551083221e-13,1.218272152e-13,1.240758669e-13,1.317448367e-13,1.215567267e-13,7.223749362e-14,5.367248557e-14,2.477465093e-14,5.707148889e-14,3.481180896e-14,2.046994128e-13,2.239455733e-14,1.996960443e-14,5.120083987e-14,1.336852889e-13,1.168268645e-13,7.764724629e-14,4.655815632e-14,2.547673191e-14
1.140625,4.896251969e-13,7.231757033e-14,1.84868107e-13,2.61302017e-13,9.344617969e-14,3.607627776e-13,1.816716079e-13,4.505271661e-14,9.648771734e-14,1.93033198e-14,8.497594601e-14,2.770208376e-13,2.033064026e-13,2.85169192e-13,1.312864495e-13,1.568159179e-13,1.76892728e-13,1.53802919e-13,8.408191529e-14,5.276243635e-14,2.896800341e-14,5.443462786e-14,3.04403881e-14,2.423848337e-13,2.542320753e-14,2.013547199e-14,5.444625257e-14,1.779057605e-13,1.24507556e-13,8.131561943e-14,4.482667483e-14,1.932328134e-14
1.1484375,5.6258546e-13,7.952426217e-14,1.477350778e-13,2.508591467e-13,1.025153575e-13,3.303111252e-13,1.91197973e-13,4.266463096e-14,1.162029448e-13,1.762393317e-14,9.718615587e-14,2.912090348e-13,2.407617801e-13,3.069546444e-13,1.422037086e-13,1.964726348e-13,2.305601334e-13,1.968308032e-13,9.896113649e-14,5.06424391e-14,3.317451736e-14,5.44389862e-14,2.733938924e-14,2.942222561e-13,2.989106389e-14,2.267710195e-14,6.113611727e-14,2.280486324e-13,1.367946028e-13,8.913099049e-14,4.63711109e-14,1.291379479e-14
1.15625,6.121265318e-13,8.622851161e-14,1.186118288e-13,2.255853212e-13,1.086097835e-13,2.811672189e-13,1.963184061e-13,4.159556453e-14,1.294553136e-13,1.583988217e-14,1.114728863e-13,2.895574777e-13,2.705407818e-13,3.149632006e-13,1.521085392e-13,2.364887203e-13,2.839318883e-13,2.429921191e-13,1.138202352e-13,4.901418056e-14,3.625356172e-14,5.47890985e-14,2.559984393e-14,3.53913431e-13,3.462214488e-14,2.900798015e-14,6.842168583e-14,2.799476644e-13,1.476267589e-13,1.005444214e-13,4.855684836e-14,8.384286704e-15
1.1640625,6.25978948e-13,8.783228701e-14,9.670303119e-14,1.924943735e-13,1.090717099e-13,2.249627366e-13,1.939460155e-13,4.094926668e-14,1.335723687e-13,1.349753554e-14,1.228210827e-13,2.696150956e-13,2.850034306e-13,3.036156589e-13,1.577821009e-13,2.709661232e-13,3.313097499e-13,2.846400269e-13,1.239888226e-13,4.854857318e-14,3.737728117e-14,5.252228067e-14,2.671747222e-14,4.264309661e-13,3.858204744e-14,3.783194891e-14,7.225959232e-14,3.269191604e-13,1.502176373e-13,1.134065054e-13,4.743869402e-14,6.642819759e-15
1.171875,6.041030546e-13,8.472456997e-14,8.118752839e-14,1.589103019e-13,1.076312621e-13,1.722543737e-13,1.849177463e-13,4.137017511e-14,1.283997676e-13,1.133702538e-14,1.320547202e-13,2.359543086e-13,2.818777669e-13,2.783208339e-13,1.597265736e-13,2.987843649e-13,3.713310802e-13,3.19086887e-13,1.301693455e-13,4.790806996e-14,3.742611477e-14,4.866870641e-14,3.136666901e-14,5.022436319e-13,4.044389716e-14,4.882713969e-14,7.262015617e-14,3.634273015e-13,1.462531086e-13,1.265894277e-13,4.507128241e-14,8.313097093e-15
1.1796875,5.541170565e-13,7.851038775e-14,6.998778288e-14,1.292654913e-13,1.050432185e-13,1.276286401e-13,1.680106401e-13,4.10485474e-14,1.159562094e-13,9.021581965e-15,1.341994985e-13,1.939432499e-13,2.629204343e-13,2.407589203e-13,1.550147061e-13,3.152409001e-13,3.982473283e-13,3.420982976e-13,1.300829369e-13,4.813126121e-14,3.448786277e-14,4.335372837e-14,3.758761978e-14,5.781759687e-13,3.96366728e-14,6.192560188e-14,6.914295367e-14,3.881004698e-13,1.342803551e-13,1.372138304e-13,4.081862224e-14,1.378867424e-14
1.1875,4.811493286e-13,6.976340015e-14,6.418912911e-14,1.063078303e-13,1.013040859e-13,9.412396726e-14,1.474277657e-13,4.045658926e-14,1.002985904e-13,7.759849103e-15,1.300934199e-13,1.496428878e-13,2.303385126e-13,1.936095915e-13,1.433175769e-13,3.137944653e-13,4.059002662e-13,3.472063399e-13,1.23871474e-13,4.961140449e-14,2.981974737e-14,3.782227629e-14,4.48762685e-14,6.547233331e-13,3.609776026e-14,7.441415718e-14,6.283589791e-14,3.965434124e-13,1.162970159e-13,1.458864326e-13,3.483325636e-14,2.210746674e-14
1.1953125,3.941000307e-13,5.955531022e-14,6.482632824e-14,9.00534934e-14,9.760656891e-14,7.118500845e-14,1.280389211e-13,4.068106863e-14,8.488339885e-14,6.896337434e-15,1.192189301e-13,1.084902039e-13,1.908613339e-13,1.461035015e-13,1.262684776e-13,2.967241327e-13,3.945777563e-13,3.34761976e-13,1.114586413e-13,5.161095149e-14,2.411760503e-14,3.27424863e-14,5.019779926e-14,7.222041846e-13,3.141878163e-14,8.597626191e-14,5.501882525e-14,3.913244102e-13,9.404214904e-14,1.50536771e-13,2.731644763e-14,3.263995342e-14
1.203125,3.051594285e-13,5.001572151e-14,7.042231896e-14,8.233001569e-14,9.664197128e-14,5.763016365e-14,1.11700681e-13,4.139275619e-14,7.288422597e-14,6.615664987e-15,1.042222544e-13,7.262380457e-14,1.511404465e-13,1.041746223e-13,1.064704802e-13,2.673844263e-13,3.676545904e-13,3.078861172e-13,9.507654813e-14,5.388366079e-14,1.972347408e-14,3.098187591e-14,5.410257439e-14,7.751471261e-13,2.655022628e-14,9.621328725e-14,4.777409334e-14,3.727921494e-13,7.388768645e-14,1.484898506e-13,2.141218906e-14,4.475073696e-14
1.2109375,2.291517434e-13,4.319469754e-14,7.967050527e-14,7.99418214e-14,9.794668749e-14,5.102106401e-14,1.017722564e-13,4.255610215e-14,6.521373918e-14,6.93139977e-15,8.822002427e-14,4.501242554e-14,1.175673934e-13,7.104720693e-14,8.506412482e-14,2.287604526e-13,3.275710483e-13,2.70675437e-13,7.769705382e-14,5.579779053e-14,1.680018439e-14,3.358612099e-14,5.592358982e-14,8.18457048e-13,2.221551462e-14,1.038496328e-13,4.363515654e-14,3.426800845e-13,5.818235881e-14,1.421665111e-13,1.742666098e-14,5.591990345e-14
1.21875,1.718742812e-13,3.916259367e-14,8.849431587e-14,8.104153365e-14,1.009678479e-13,4.892702697e-14,9.869335847e-14,4.307934685e-14,6.125487072e-14,7.40697386e-15,7.376410219e-14,2.656237797e-14,9.371793127e-14,4.822151504e-14,6.513836124e-14,1.84474878e-13,2.770214347e-13,2.268104259e-13,6.137528174e-14,5.586323768e-14,1.577824709e-14,3.920994893e-14,5.441312354e-14,8.439755764e-13,1.946011769e-14,1.08545431e-13,4.349809239e-14,3.078487602e-13,4.906357302e-14,1.318771194e-13,1.552610598e-14,6.421534101e-14
1.2265625,1.377368818e-13,3.833105897e-14,9.395265248e-14,8.304043968e-14,1.037797064e-13,5.009438839e-14,1.002192371e-13,4.322652463e-14,6.053306841e-14,9.108007436e-15,6.16482815e-14,1.66550584e-14,8.232472308e-14,3.537056165e-14,4.844764612e-14,1.412664797e-13,2.236060219e-13,1.824794984e-13,4.749469535e-14,5.469721957e-14,1.651514497e-14,4.849517189e-14,5.149117842e-14,8.550578763e-13,1.924576509e-14,1.1092422e-13,4.854750191e-14,2.763438833e-13,4.775504117e-14,1.15528819e-13,1.617965186e-14,6.880214039e-14
1.234375,1.268148297e-13,3.973998893e-14,9.5255841e-14,8.19817704e-14,1.04042629e-13,5.112158624e-14,1.0289711e-13,4.198693291e-14,6.140845659e-14,1.188418971e-14,5.309126835e-14,1.358912615e-14,8.173301606e-14,2.950974634e-14,3.58445215e-14,1.02331484e-13,1.734466141e-13,1.428360667e-13,3.736750785e-14,5.147701921e-14,1.794692865e-14,5.994721244e-14,4.837468106e-14,8.493275992e-13,2.21800134e-14,1.102175298e-13,5.85046428e-14,2.493618606e-13,5.330595898e-14,9.535860683e-14,1.862128459e-14,6.878366754e-14
1.2421875,1.346471486e-13,4.263584897e-14,8.874938782e-14,7.846293825e-14,1.004341996e-13,5.238673276e-14,1.049262762e-13,3.841707553e-14,6.107004959e-14,1.561479861e-14,4.741204591e-14,1.545311711e-14,8.807922991e-14,2.728558123e-14,2.801686106e-14,7.083985345e-14,1.299019367e-13,1.121391248e-13,3.23060568e-14,4.689307647e-14,1.928178366e-14,7.167989732e-14,4.519724744e-14,8.346634977e-13,2.86333664e-14,1.067454314e-13,7.241469745e-14,2.296547307e-13,6.379323594e-14,7.422163013e-14,2.229954685e-14,6.340407962e-14
1.25,1.560427385e-13,4.71308404e-14,7.823915227e-14,7.213025887e-14,9.239533085e-14,5.150685723e-14,1.041231715e-13,3.347514037e-14,6.082454348e-14,1.97021327e-14,4.361219699e-14,2.22280735e-14,9.949060399e-14,2.742018783e-14,2.457125706e-14,4.850437529e-14,9.677699908e-14,9.364039702e-14,3.294718053e-14,4.351365792e-14,1.985802119e-14,8.250521433e-14,4.360225089e-14,8.097321835e-13,3.917327954e-14,1.019436193e-13,8.977108803e-14,2.191201953e-13,7.668815109e-14,5.481812184e-14,2.62620224e-14,5.498161114e-14
1.2578125,1.830485107e-13,5.23552498e-14,6.631468004e-14,6.499504123e-14,8.196932699e-14,4.825713144e-14,1.053266576e-13,2.857418768e-14,5.987206986e-14,2.313278325e-14,4.061654994e-14,3.254530258e-14,1.123412829e-13,2.933869895e-14,2.402192316e-14,3.365760494e-14,7.46788435e-14,8.577031949e-14,3.900045227e-14,4.382076545e-14,2.052326112e-14,9.188460955e-14,4.387479356e-14,7.7151473e-13,5.267819062e-14,9.717470034e-14,1.07944491e-13,2.116994676e-13,8.830266672e-14,3.811076764e-14,2.981465048e-14,4.588422326e-14
1.265625,2.09177832e-13,5.788066976e-14,5.55281968e-14,5.745925439e-14,7.046958126e-14,4.260739576e-14,1.116270988e-13,2.333844691e-14,5.685648551e-14,2.525492297e-14,3.735948089e-14,4.559700548e-14,1.235491521e-13,3.36998044e-14,2.608590989e-14,2.558106905e-14,6.337881024e-14,8.874921399e-14,5.094380974e-14,5.016827511e-14,2.184991062e-14,9.88629748e-14,4.630366513e-14,7.264340924e-13,6.881728034e-14,9.358691692e-14,1.269251759e-13,2.054548182e-13,9.746422629e-14,2.609586748e-14,3.326449255e-14,3.620996783e-14
1.2734375,2.266225351e-13,6.317763477e-14,4.539083393e-14,5.358033351e-14,6.008577088e-14,3.755818428e-14,1.278373436e-13,1.942433885e-14,5.194234602e-14,2.521860902e-14,3.378730282e-14,6.001345311e-14,1.292050655e-13,4.133714986e-14,2.852168723e-14,2.210647967e-14,6.04653413e-14,9.760693801e-14,6.657520198e-14,6.379477279e-14,2.468373513e-14,1.021800456e-13,5.038743322e-14,6.660086819e-13,8.47112173e-14,9.063470756e-14,1.432820213e-13,1.998615938e-13,1.00752038e-13,1.879070423e-14,3.603341565e-14,2.716851798e-14
1.28125,2.327260479e-13,6.769385316e-14,3.863299861e-14,5.49285847e-14,5.289448002e-14,3.365059981e-14,1.573394102e-13,1.811126476e-14,4.640207638e-14,2.331256343e-14,3.054781218e-14,7.355638183e-14,1.292733809e-13,5.288108306e-14,3.080265183e-14,2.132443621e-14,6.3916249e-14,1.090030297e-13,8.40479193e-14,8.381688595e-14,2.961395226e-14,1.020476944e-13,5.522973945e-14,5.966607319e-13,9.843843918e-14,8.93643149e-14,1.563800332e-13,1.936301993e-13,9.782804182e-14,1.621145841e-14,3.794914732e-14,2.053474417e-14
1.2890625,2.252518612e-13,7.092898673e-14,3.32765194e-14,6.225765725e-14,5.061163293e-14,3.296617039e-14,2.005496426e-13,1.920027299e-14,3.868167616e-14,2.054142484e-14,2.836053188e-14,8.331216538e-14,1.217748912e-13,6.84350424e-14,3.188746782e-14,2.207241895e-14,7.075995976e-14,1.206910085e-13,1.021736216e-13,1.096066959e-13,3.721934289e-14,9.723854413e-14,5.940077697e-14,5.210657018e-13,1.068921771e-13,9.070651187e-14,1.652344914e-13,1.835489766e-13,8.92792924e-14,1.713416363e-14,3.96880539e-14,1.621765698e-14
1.296875,2.056679778e-13,7.255489719e-14,2.839262035e-14,7.347200154e-14,5.209939185e-14,3.56759451e-14,2.52986865e-13,2.360579524e-14,3.13997112e-14,1.770954899e-14,2.765356584e-14,8.82668029e-14,1.095430646e-13,8.526279662e-14,3.107343594e-14,2.335991001e-14,7.758224689e-14,1.287524493e-13,1.169963781e-13,1.363244002e-13,4.67777691e-14,8.88807034e-14,6.085436664e-14,4.397095272e-13,1.085743269e-13,9.288960942e-14,1.69508256e-13,1.697880184e-13,7.761339953e-14,1.975535024e-14,4.134328637e-14,1.482671349e-14
1.3046875,1.76553139e-13,7.207004298e-14,2.336499181e-14,8.82199733e-14,5.642835351e-14,4.252124739e-14,3.085289569e-13,2.878521889e-14,2.394290682e-14,1.508327115e-14,2.874394918e-14,8.769058288e-14,9.162842674e-14,1.016971711e-13,2.831411724e-14,2.410750072e-14,8.101494258e-14,1.310555588e-13,1.264651564e-13,1.603212062e-13,5.727197192e-14,7.823369942e-14,5.878576307e-14,3.555904092e-13,1.029820689e-13,9.542946048e-14,1.68688308e-13,1.527407973e-13,6.35627551e-14,2.322028671e-14,4.287795829e-14,1.548295458e-14
1.3125,1.456230555e-13,6.827958099e-14,1.920236987e-14,1.019298014e-13,6.129522888e-14,5.1634455e-14,3.548614161e-13,3.397914063e-14,1.840078162e-14,1.440409415e-14,3.126338931e-14,8.123532262e-14,7.236942141e-14,1.151928995e-13,2.458708266e-14,2.473854213e-14,8.127869283e-14,1.29622261e-13,1.308418953e-13,1.786691638e-13,6.661313579e-14,6.543541647e-14,5.4811598e-14,2.76337118e-13,9.29369071e-14,9.779930675e-14,1.611417328e-13,1.338472855e-13,4.928360432e-14,2.70934594e-14,4.415958239e-14,1.8395629e-14
1.3203125,1.183229879e-13,6.114093528e-14,1.590061448e-14,1.103272893e-13,6.369020321e-14,6.098007617e-14,3.836536456e-13,3.846731676e-14,1.513897172e-14,1.45626984e-14,3.389191789e-14,6.940104871e-14,5.371513268e-14,1.226555927e-13,2.03189145e-14,2.490636512e-14,7.643892832e-14,1.22887097e-13,1.269083706e-13,1.863828015e-13,7.212271031e-14,5.208805681e-14,4.774955899e-14,2.045717862e-13,7.915457398e-14,9.758457483e-14,1.469917193e-13,1.125574703e-13,3.62373865e-14,2.94886799e-14,4.333619984e-14,2.280352332e-14
1.328125,9.905759637e-14,5.205208865e-14,1.407049272e-14,1.13777547e-13,6.25316964e-14,6.91688108e-14,3.930282662e-13,4.14380081e-14,1.428213956e-14,1.5219312e-14,3.630934014e-14,5.530877782e-14,3.704672773e-14,1.209205816e-13,1.645433878e-14,2.502512293e-14,6.746524458e-14,1.125605304e-13,1.162339255e-13,1.837423113e-13,7.442625032e-14,3.936745425e-14,3.856048063e-14,1.44130184e-13,6.486318925e-14,9.439898944e-14,1.299691492e-13,9.117611389e-14,2.610900901e-14,3.02675239e-14,4.132622682e-14,2.818107878e-14
1.3359375,9.285856428e-14,4.227412968e-14,1.493526654e-14,1.102651952e-13,5.739302548e-14,7.317976341e-14,3.793616593e-13,4.176111004e-14,1.627725612e-14,1.601653711e-14,3.77658894e-14,4.191728303e-14,2.570142555e-14,1.116066122e-13,1.438198766e-14,2.552690847e-14,5.669459849e-14,1.008748882e-13,1.013928461e-13,1.713523698e-13,7.267355619e-14,2.85919973e-14,2.989104471e-14,9.691710471e-14,5.505490246e-14,8.769543628e-14,1.117234556e-13,7.028525628e-14,1.931669215e-14,2.903836752e-14,3.85306004e-14,3.388716303e-14
1.34375,9.862303805e-14,3.301890058e-14,1.997537445e-14,1.005214566e-13,4.947012357e-14,7.275827563e-14,3.427565248e-13,3.936366403e-14,1.85460196e-14,1.613893797e-14,3.742447509e-14,2.950622778e-14,1.754707771e-14,9.696789322e-14,1.334855934e-14,2.646079856e-14,4.756138666e-14,8.975710023e-14,8.473634568e-14,1.521794924e-13,6.581377211e-14,2.038385512e-14,2.351050936e-14,6.334852598e-14,4.930299395e-14,7.800054473e-14,9.345303314e-14,5.128384904e-14,1.507246818e-14,2.709410083e-14,3.447430121e-14,3.927732085e-14
1.3515625,1.14730526e-13,2.529519811e-14,3.043350186e-14,8.78158729e-14,4.021473663e-14,6.935261866e-14,2.946619891e-13,3.58632902e-14,2.116366101e-14,1.507787077e-14,3.512931862e-14,1.979414269e-14,1.267676695e-14,7.880517954e-14,1.323618918e-14,2.758797298e-14,4.005363445e-14,7.961828665e-14,6.760421396e-14,1.303179031e-13,5.589642904e-14,1.439664765e-14,2.01534436e-14,4.078751604e-14,4.848436616e-14,6.609701804e-14,7.698864733e-14,3.739958008e-14,1.2524291e-14,2.369573272e-14,2.977060348e-14,4.474866353e-14
1.359375,1.381764284e-13,2.01115078e-14,4.918881948e-14,7.21112107e-14,3.062240446e-14,6.235910577e-14,2.430320749e-13,3.226445636e-14,2.382369319e-14,1.3004704e-14,3.190685402e-14,1.337213465e-14,1.008347348e-14,5.993964121e-14,1.37480805e-14,2.949894962e-14,3.643672258e-14,7.152766686e-14,5.269138406e-14,1.104736756e-13,4.461147946e-14,1.054957285e-14,1.953013277e-14,2.822743385e-14,5.235895491e-14,5.330176918e-14,6.537669692e-14,2.942991391e-14,1.163188765e-14,1.95304841e-14,2.488404407e-14,5.035845042e-14
1.3671875,1.614217642e-13,1.794592069e-14,7.532234944e-14,5.569291411e-14,2.210753073e-14,5.257305443e-14,1.966315254e-13,2.872116619e-14,2.563042116e-14,1.009006237e-14,2.758306982e-14,9.27698159e-15,8.527188538e-15,4.22873043e-14,1.447921962e-14,3.117826786e-14,3.576064634e-14,6.390688628e-14,3.978719111e-14,9.404317695e-14,3.312015123e-14,7.94052291e-15,2.079511139e-14,2.344929947e-14,5.904647677e-14,3.985663107e-14,5.823992969e-14,2.7972831e-14,1.148337434e-14,1.505905589e-14,2.019168055e-14,5.551461884e-14
1.375,1.821488749e-13,1.849473728e-14,1.100231996e-13,4.203661849e-14,1.545739431e-14,4.263149722e-14,1.652798233e-13,2.586858715e-14,2.676306053e-14,7.291033305e-15,2.276792352e-14,7.747038888e-15,7.795431887e-15,2.883265472e-14,1.450336242e-14,3.192463567e-14,3.633928334e-14,5.703701235e-14,3.027805015e-14,8.304244908e-14,2.307839585e-14,6.112784327e-15,2.265522898e-14,2.412053075e-14,6.546189315e-14,2.796295999e-14,5.528668021e-14,3.410934074e-14,1.14493136e-14,1.138497026e-14,1.600676392e-14,6.185968593e-14
1.3828125,1.943472873e-13,2.068417849e-14,1.485706125e-13,3.191873027e-14,1.132334479e-14,3.349849187e-14,1.504619779e-13,2.423611405e-14,2.783472502e-14,4.867860741e-15,1.838967554e-14,7.436460976e-15,7.314528596e-15,1.983043396e-14,1.368745301e-14,3.194451765e-14,3.692217078e-14,5.112830131e-14,2.393069638e-14,7.65881097e-14,1.568427631e-14,4.813552837e-15,2.32799745e-14,2.75756907e-14,6.921277473e-14,1.838511144e-14,5.497141982e-14,4.555560014e-14,1.129036103e-14,8.56316895e-15,1.250864676e-14,6.865693885e-14
1.390625,1.975956756e-13,2.352511013e-14,1.829942083e-13,2.532086305e-14,8.981878074e-15,2.581445354e-14,1.51415303e-13,2.307611816e-14,2.821449824e-14,2.96128952e-15,1.447535632e-14,7.46432191e-15,7.886889075e-15,1.481170952e-14,1.333475019e-14,3.189552009e-14,3.65952834e-14,4.558538637e-14,1.984402322e-14,7.269675884e-14,1.065060841e-14,3.86429296e-15,2.282760439e-14,3.188566626e-14,7.118226306e-14,1.10852687e-14,5.493271042e-14,6.063204428e-14,1.070785246e-14,6.525758406e-15,9.861895294e-15,7.561103061e-14
1.3984375,1.89309811e-13,2.533693255e-14,2.093012662e-13,2.170323822e-14,7.826798861e-15,1.937319315e-14,1.619723572e-13,2.183632356e-14,2.849808108e-14,1.975087459e-15,1.145888105e-14,7.375195476e-15,8.517714066e-15,1.305403743e-14,1.412977329e-14,3.204592059e-14,3.452689091e-14,3.980837746e-14,1.732059686e-14,6.924513096e-14,7.662512551e-15,2.980506477e-15,2.088101852e-14,3.53400346e-14,6.896370715e-14,6.481266175e-15,5.287716047e-14,7.783250946e-14,9.702417256e-15,5.811106123e-15,8.090495963e-15,8.255611322e-14
1.40625,1.764709283e-13,2.645915488e-14,2.226339949e-13,2.012681595e-14,7.262562904e-15,1.424335439e-14,1.756519797e-13,2.03494815e-14,2.834988332e-14,1.813833261e-15,1.008069086e-14,6.820034498e-15,1.019108265e-14,1.316987692e-14,1.693313862e-14,3.270749577e-14,3.013780912e-14,3.387336138e-14,1.636143647e-14,6.479743304e-14,5.974215089e-15,2.283111708e-15,1.755963658e-14,3.835593776e-14,6.331443389e-14,4.322609693e-15,4.839397431e-14,9.55835329e-14,8.743076806e-15,6.567865039e-15,6.142194526e-15,8.813194947e-14
1.4140625,1.591889264e-13,2.686286303e-14,2.214413224e-13,2.223453783e-14,7.043909703e-15,1.098361576e-14,1.870378764e-13,1.89421215e-14,2.753289172e-14,2.985911542e-15,1.122704093e-14,6.088955053e-15,1.175174966e-14,1.338121371e-14,2.290933591e-14,3.413670533e-14,2.453819233e-14,2.819181967e-14,1.615798809e-14,5.765813593e-14,5.299931165e-15,1.954267708e-15,1.442673028e-14,4.20736952e-14,5.636523557e-14,4.837719863e-15,4.252221589e-14,1.126083712e-13,7.96360717e-15,8.934754222e-15,5.105164306e-15,9.287521531e-14
1.421875,1.417678306e-13,2.521727287e-14,2.051199919e-13,2.437178211e-14,6.313101626e-15,9.903975173e-15,1.883784243e-13,1.78412921e-14,2.652462542e-14,5.847316112e-15,1.524279756e-14,5.428902835e-15,1.284239236e-14,1.339219039e-14,3.20674712e-14,3.703168948e-14,1.966524781e-14,2.322851372e-14,1.587549371e-14,4.870550459e-14,4.942551414e-15,1.725814147e-15,1.264034345e-14,4.732177878e-14,5.005208865e-14,8.114514732e-15,3.689519494e-14,1.26485584e-13,7.754704222e-15,1.324596669e-14,5.002813156e-15,9.536939309e-14
1.4296875,1.298297493e-13,2.25714161e-14,1.843862042e-13,2.5504909e-14,5.790544924e-15,1.039368301e-14,1.786100208e-13,1.707235118e-14,2.523223906e-14,1.100324297e-14,2.302924164e-14,4.990223277e-15,1.319386424e-14,1.374420096e-14,4.472085271e-14,4.114838947e-14,1.654745101e-14,1.884659025e-14,1.561945427e-14,4.010961405e-14,5.345165573e-15,1.546666838e-15,1.215858123e-14,5.739320671e-14,4.310847865e-14,1.434724052e-14,3.399054533e-14,1.360506698e-13,8.434531622e-15,2.014772472e-14,5.544361965e-15,9.475669733e-14
1.4375,1.286035405e-13,2.048140106e-14,1.630505291e-13,2.658255993e-14,6.271060505e-15,1.233015369e-14,1.602306758e-13,1.744951702e-14,2.413732645e-14,1.864126541e-14,3.44332149e-14,5.327738824e-15,1.362203487e-14,1.358304011e-14,5.970473607e-14,4.517672623e-14,1.465104307e-14,1.525869435e-14,1.532248008e-14,3.307453827e-14,6.900480202e-15,1.570270625e-15,1.345226841e-14,7.31040104e-14,3.696339155e-14,2.352763272e-14,3.551850624e-14,1.434670776e-13,1.049700898e-14,3.018387733e-14,6.935237544e-15,9.105320521e-14
1.4453125,1.374691248e-13,1.829003364e-14,1.492382579e-13,2.62615995e-14,7.653691202e-15,1.53728357e-14,1.340528031e-13,1.982939753e-14,2.392320667e-14,2.787236407e-14,4.801758064e-14,6.69635574e-15,1.443271651e-14,1.2782714e-14,7.597279093e-14,4.860737904e-14,1.533070754e-14,1.23778976e-14,1.396412231e-14,2.82745977e-14,9.29857721e-15,1.956912634e-15,1.642030393e-14,9.444480899e-14,3.239254398e-14,3.504755644e-14,4.195996146e-14,1.479927116e-13,1.414498545e-14,4.267865693e-14,9.5345213e-15,8.521706117e-14
1.453125,1.554227096e-13,1.600865121e-14,1.42794324e-13,2.443142998e-14,1.078533419e-14,1.807983399e-14,1.065171606e-13,2.487359922e-14,2.54612382e-14,3.853461695e-14,6.413404516e-14,9.502229103e-15,1.647571367e-14,1.267772816e-14,8.973987297e-14,5.05999782e-14,1.707435216e-14,1.012208189e-14,1.21585267e-14,2.573728664e-14,1.267892859e-14,2.61121468e-15,2.029126709e-14,1.191625106e-13,2.829177689e-14,4.814549328e-14,5.279956456e-14,1.478174783e-13,1.970033125e-14,5.745038636e-14,1.355027703e-14,7.669794098e-14
1.4609375,1.774463214e-13,1.363661622e-14,1.468469769e-13,2.170057012e-14,1.534022691e-14,2.007861656e-14,7.99331494e-14,3.277393305e-14,2.95691129e-14,4.980268296e-14,8.082906594e-14,1.367883258e-14,2.230383244e-14,1.278231643e-14,9.855806334e-14,5.104497106e-14,2.001027923e-14,8.205082701e-15,1.027579558e-14,2.54138813e-14,1.643806008e-14,4.135043796e-15,2.53499971e-14,1.437892882e-13,2.532853972e-14,6.126617012e-14,6.523851503e-14,1.41735373e-13,2.727356361e-14,7.384360806e-14,1.882173793e-14,6.620864951e-14
1.46875,1.980720403e-13,1.195978081e-14,1.624327713e-13,2.042812175e-14,2.089805293e-14,2.019069988e-14,5.793482777e-14,4.318411873e-14,3.664245688e-14,6.019726541e-14,9.502182091e-14,2.042975363e-14,3.290610738e-14,1.494115087e-14,1.009808876e-13,4.903208823e-14,2.324226054e-14,7.034604028e-15,8.956882642e-15,2.683088944e-14,1.942499634e-14,6.590144441e-15,3.111138563e-14,1.651786698e-13,2.389458113e-14,7.267162585e-14,7.862613705e-14,1.304620791e-13,3.673780401e-14,9.03505891e-14,2.481922574e-14,5.412565264e-14
1.4765625,2.135155251e-13,1.046397553e-14,1.850535711e-13,2.18794864e-14,2.67679005e-14,1.881137414e-14,4.113058587e-14,5.535697983e-14,4.641979323e-14,6.818430604e-14,1.054988942e-13,2.939700999e-14,4.713513619e-14,1.851041673e-14,9.770909733e-14,4.545825774e-14,2.650501705e-14,6.810974844e-15,7.851316773e-15,2.891446478e-14,2.113476074e-14,9.833645831e-15,3.659389289e-14,1.819946013e-13,2.366460332e-14,8.122075854e-14,8.855715611e-14,1.149229817e-13,4.704986537e-14,1.048630744e-13,3.05324009e-14,4.235961268e-14
1.484375,2.190266635e-13,9.092333856e-15,2.170533319e-13,2.61955223e-14,3.201555679e-14,1.65179518e-14,2.972012082e-14,6.915581586e-14,5.847501369e-14,7.135541018e-14,1.119369574e-13,3.998916866e-14,6.534794081e-14,2.506695442e-14,8.836146081e-14,4.121270078e-14,2.964343905e-14,8.119349905e-15,7.155151569e-15,3.058459127e-14,2.133910507e-14,1.404036208e-14,4.102022811e-14,1.918429283e-13,2.468544152e-14,8.595264306e-14,9.322636556e-14,9.623111353e-14,5.821076989e-14,1.151167558e-13,3.543815209e-14,3.231361147e-14
1.4921875,2.124648068e-13,8.126585033e-15,2.552110074e-13,3.460220476e-14,3.610884871e-14,1.401235077e-14,2.415758246e-14,8.306008066e-14,7.173860166e-14,7.046214193e-14,1.152159576e-13,5.174748371e-14,8.605258174e-14,3.338520298e-14,7.640937767e-14,3.725463914e-14,3.325636398e-14,1.130017625e-14,7.34023483e-15,3.075501755e-14,2.036052185e-14,1.896222951e-14,4.379314178e-14,1.974370461e-13,2.632592096e-14,8.584528612e-14,9.337370281e-14,7.597946254e-14,6.945028221e-14,1.198080417e-13,3.887526434e-14,2.419556083e-14
1.5,1.955483498e-13,7.55873477e-15,3.010102952e-13,4.58149275e-14,3.773897388e-14,1.169975525e-14,2.484549598e-14,9.610718359e-14,8.492489031e-14,6.646540616e-14,1.147464675e-13,6.336676161e-14,1.06692945e-13,4.349744738e-14,6.54927581e-14,3.47593221e-14,3.801588028e-14,1.693675718e-14,8.142832628e-15,3.005060076e-14,1.834866117e-14,2.410482008e-14,4.456437441e-14,2.014899296e-13,2.932797208e-14,8.090000089e-14,8.967800535e-14,5.622613209e-14,7.994716243e-14,1.199019499e-13,4.015864006e-14,1.773136474e-14
1.5078125,1.726971383e-13,7.275555294e-15,3.552346696e-13,5.751264736e-14,3.688985272e-14,1.07662556e-14,3.015007325e-14,1.081529611e-13,9.679774232e-14,5.936591097e-14,1.118456394e-13,7.381696894e-14,1.235101801e-13,5.37235287e-14,6.087006022e-14,3.573442508e-14,4.590122428e-14,2.482292102e-14,9.907684494e-15,2.909544337e-14,1.630043918e-14,2.945013355e-14,4.319358719e-14,2.09502192e-13,3.150420808e-14,7.313688774e-14,8.2593792e-14,4.045241647e-14,8.860789008e-14,1.152245084e-13,3.917184912e-14,1.456312429e-14
1.515625,1.485886119e-13,7.058829641e-15,4.039195183e-13,6.718912236e-14,3.432579097e-14,1.120363704e-14,3.822869101e-14,1.182284422e-13,1.044184572e-13,5.049825029e-14,1.08007451e-13,7.930218452e-14,1.343470491e-13,6.055159804e-14,6.375235775e-14,4.030963429e-14,5.779527135e-14,3.473776337e-14,1.245593551e-14,2.649079342e-14,1.516499017e-14,3.435884665e-14,4.024565612e-14,2.251668169e-13,3.288761669e-14,6.459341931e-14,7.473802947e-14,2.837569645e-14,9.470963614e-14,1.055394038e-13,3.626155647e-14,1.414443769e-14
1.5234375,1.27712742e-13,7.320611006e-15,4.468069443e-13,7.447188402e-14,3.085877539e-14,1.299939726e-14,4.91982815e-14,1.253368657e-13,1.071484595e-13,4.144648952e-14,1.056997785e-13,8.03407428e-14,1.402053651e-13,6.528269579e-14,7.484579389e-14,4.828069313e-14,7.369582509e-14,4.690878507e-14,1.6148439e-14,2.347327811e-14,1.522411081e-14,3.872360676e-14,3.679013209e-14,2.45853773e-13,3.35492573e-14,5.606035203e-14,6.754508571e-14,2.072178164e-14,9.921654246e-14,9.284051109e-14,3.277034532e-14,1.499709402e-14
1.53125,1.128980669e-13,7.822013881e-15,4.75365765e-13,7.760362141e-14,2.628349942e-14,1.642584059e-14,6.19511364e-14,1.285814264e-13,1.049044383e-13,3.372182557e-14,1.069699031e-13,7.66336884e-14,1.397468372e-13,6.670349198e-14,9.237623734e-14,5.82289602e-14,9.270022817e-14,5.89225199e-14,2.04534297e-14,2.049296611e-14,1.648888891e-14,4.298928245e-14,3.362004231e-14,2.706717199e-13,3.317946762e-14,4.767971338e-14,6.104026898e-14,1.655386836e-14,1.003396651e-13,7.958782412e-14,2.889839508e-14,1.685716014e-14
1.5390625,1.053759314e-13,8.625037372e-15,4.853955698e-13,7.636583884e-14,2.185275563e-14,2.065548001e-14,7.444349589e-14,1.274688237e-13,9.900478433e-14,2.731093701e-14,1.100781638e-13,7.032364479e-14,1.335473455e-13,6.553447348e-14,1.119878928e-13,6.888857819e-14,1.137656668e-13,7.11038897e-14,2.481336125e-14,1.711545409e-14,1.849328604e-14,4.691313207e-14,3.201174767e-14,2.976648875e-13,3.256530155e-14,4.080221036e-14,5.615001516e-14,1.597266189e-14,9.974503324e-14,6.743606883e-14,2.57593968e-14,1.973705802e-14
1.546875,1.068050792e-13,9.376418488e-15,4.696203023e-13,7.079134718e-14,1.767615194e-14,2.583369399e-14,8.307813776e-14,1.230477761e-13,8.907945922e-14,2.259875358e-14,1.166380156e-13,6.078073541e-14,1.23620118e-13,6.047066626e-14,1.286916649e-13,7.790294521e-14,1.33744634e-13,8.144337554e-14,2.971073456e-14,1.41695936e-14,2.058992134e-14,5.002551621e-14,3.336159396e-14,3.225591052e-13,3.239107166e-14,3.591170262e-14,5.267187473e-14,1.86457088e-14,9.633804962e-14,5.612986771e-14,2.281994505e-14,2.232596103e-14
1.5546875,1.151749095e-13,9.706268318e-15,4.32377666e-13,6.236599345e-14,1.416660659e-14,3.115115816e-14,8.80447863e-14,1.122708879e-13,7.512820946e-14,1.951270442e-14,1.245164073e-13,4.926808385e-14,1.106406758e-13,5.36323141e-14,1.393060949e-13,8.267095621e-14,1.493619956e-13,8.76113205e-14,3.293595149e-14,1.214531789e-14,2.209568874e-14,5.204273269e-14,3.698252269e-14,3.381968269e-13,3.297151158e-14,3.208333432e-14,4.898664308e-14,2.59277075e-14,9.015788687e-14,4.569937924e-14,2.042249308e-14,2.353034605e-14
1.5625,1.256350291e-13,1.032457698e-14,3.803699095e-13,5.474812645e-14,1.258774417e-14,3.618226778e-14,8.903214366e-14,9.741750333e-14,6.048970096e-14,1.802783564e-14,1.306813972e-13,3.882306377e-14,9.696192294e-14,4.752270865e-14,1.417254315e-13,8.21642024e-14,1.568555843e-13,8.989284736e-14,3.471427877e-14,1.088612713e-14,2.326930024e-14,5.305762243e-14,4.301923858e-14,3.414417432e-13,3.52536452e-14,2.889380305e-14,4.503865822e-14,3.85278101e-14,8.197271236e-14,3.762210151e-14,1.917255599e-14,2.365674739e-14
1.5703125,1.391131794e-13,1.160680488e-14,3.173430227e-13,4.725452224e-14,1.270876682e-14,3.826826096e-14,8.413097415e-14,8.324467804e-14,4.73931953e-14,1.854318667e-14,1.349883108e-13,2.991695539e-14,8.381064335e-14,4.250271088e-14,1.331637785e-13,7.628889371e-14,1.555450757e-13,8.793163416e-14,3.569434931e-14,1.071912298e-14,2.429355715e-14,5.347602794e-14,5.158280239e-14,3.312845649e-13,3.931990454e-14,2.611804161e-14,4.080081042e-14,5.750401362e-14,7.280983738e-14,3.264424005e-14,1.89374381e-14,2.328253294e-14
1.578125,1.545799027e-13,1.435006934e-14,2.529378915e-13,4.1641681e-14,1.540026959e-14,3.838874788e-14,7.443495797e-14,7.108238055e-14,3.561800706e-14,2.122543441e-14,1.34802e-13,2.347553621e-14,7.085399361e-14,3.950253935e-14,1.180109235e-13,6.700977999e-14,1.449233582e-13,8.085871704e-14,3.522337918e-14,1.190266338e-14,2.49233045e-14,5.234900508e-14,6.241800377e-14,3.085671714e-13,4.402985966e-14,2.278724807e-14,3.525134739e-14,8.374938391e-14,6.340499961e-14,2.934113702e-14,1.895049468e-14,2.195219422e-14
1.5859375,1.690465029e-13,2.027784809e-14,1.914604662e-13,4.078977596e-14,2.146643753e-14,3.579527639e-14,6.470398938e-14,6.361621484e-14,2.607732471e-14,2.656487949e-14,1.290749257e-13,1.926305276e-14,5.800973364e-14,3.854873864e-14,1.000635682e-13,5.640908522e-14,1.284354493e-13,6.979498764e-14,3.407362163e-14,1.468042391e-14,2.531621382e-14,4.85832711e-14,7.457809493e-14,2.73718716e-13,4.866075015e-14,1.976665457e-14,2.960194887e-14,1.140156427e-13,5.625222609e-14,2.79562596e-14,2.014449493e-14,1.932556209e-14
1.59375,1.804724956e-13,3.094451079e-14,1.388140865e-13,4.453646255e-14,3.143301346e-14,3.103262e-14,5.716555194e-14,6.613221463e-14,1.980416709e-14,3.478221219e-14,1.181135462e-13,1.845250241e-14,4.563653824e-14,4.098681508e-14,8.221238756e-14,4.669283101e-14,1.075803229e-13,5.686699599e-14,3.367654234e-14,1.884898126e-14,2.664227302e-14,4.316169781e-14,8.624901142e-14,2.312797378e-13,5.292147904e-14,1.641453215e-14,2.439292364e-14,1.456270605e-13,5.366394255e-14,2.944409137e-14,2.366987029e-14,1.609134586e-14
1.6015625,1.896149447e-13,4.75383319e-14,9.665188196e-14,5.428621861e-14,4.559777919e-14,2.55930777e-14,5.412850898e-14,8.002450257e-14,1.807684049e-14,4.56122276e-14,1.042023959e-13,2.021719112e-14,3.511388428e-14,4.507434727e-14,6.631770257e-14,4.049189521e-14,8.703075137e-14,4.438046496e-14,3.624673402e-14,2.476042537e-14,2.888682901e-14,3.741110256e-14,9.708082432e-14,1.878542346e-13,5.632417063e-14,1.367332896e-14,2.189274584e-14,1.749647014e-13,5.795448141e-14,3.436641929e-14,3.035631911e-14,1.323380506e-14
1.609375,1.942878589e-13,6.913644667e-14,6.869817644e-14,6.930756379e-14,6.331298282e-14,2.118784719e-14,5.762239454e-14,1.052893726e-13,2.056380439e-14,5.763398018e-14,8.955920228e-14,2.353329719e-14,2.656224256e-14,5.027328562e-14,5.510069504e-14,3.946226461e-14,7.256043377e-14,3.501630263e-14,4.258217781e-14,3.168143423e-14,3.154425732e-14,3.131409964e-14,1.060305402e-13,1.48443131e-13,5.852407889e-14,1.18549449e-14,2.231905359e-14,1.957224617e-13,6.978212856e-14,4.135128067e-14,4.080061332e-14,1.111304203e-14
1.6171875,1.950041997e-13,9.457250999e-14,5.144519254e-14,8.703486511e-14,8.387805978e-14,1.756476163e-14,6.664867717e-14,1.379626775e-13,2.656497871e-14,6.99340346e-14,7.837605374e-14,2.792462224e-14,2.149380437e-14,5.63432663e-14,4.869523656e-14,4.338194481e-14,6.465386776e-14,3.056238138e-14,5.4709686e-14,3.89001796e-14,3.470123516e-14,2.543117731e-14,1.117075323e-13,1.179142859e-13,5.905700818e-14,1.175634854e-14,2.646752948e-14,2.018784043e-13,9.009302426e-14,4.996424923e-14,5.716146042e-14,1.084521518e-14
1.625,1.899938395e-13,1.202112947e-13,4.090542925e-14,1.038638485e-13,1.036908379e-13,1.559439228e-14,7.932429796e-14,1.706163839e-13,3.416770305e-14,8.108286881e-14,7.029371973e-14,3.181675948e-14,1.888248941e-14,6.095538079e-14,4.488454414e-14,5.105179746e-14,6.406750778e-14,3.119809677e-14,7.074312978e-14,4.650284549e-14,3.817819441e-14,2.040992641e-14,1.128116847e-13,9.903449306e-14,5.831620227e-14,1.307222672e-14,3.373461531e-14,1.950968428e-13,1.157704684e-13,5.850003298e-14,7.771153055e-14,1.253110093e-14
1.6328125,1.780527833e-13,1.425003435e-13,3.813009736e-14,1.207400753e-13,1.223862335e-13,1.557383082e-14,9.230181291e-14,1.98398935e-13,4.187780105e-14,8.978572633e-14,6.534566995e-14,3.419427227e-14,1.936319795e-14,6.373441957e-14,4.204362165e-14,6.046408543e-14,7.259614731e-14,3.73072752e-14,8.910982864e-14,5.567099232e-14,4.152895107e-14,1.64379674e-14,1.0958529e-13,9.322934264e-14,5.795155268e-14,1.639665892e-14,4.267298203e-14,1.79954407e-13,1.432832174e-13,6.625496027e-14,1.016189701e-13,1.635779797e-14
1.640625,1.60018476e-13,1.569841779e-13,3.959315951e-14,1.307023505e-13,1.351004429e-13,1.509050624e-14,1.02254263e-13,2.139796283e-13,4.759261973e-14,9.409359075e-14,6.348496087e-14,3.386282298e-14,2.151775815e-14,6.443520689e-14,3.745041501e-14,6.740880629e-14,8.75194879e-14,4.629368385e-14,1.062713721e-13,6.540118495e-14,4.355145874e-14,1.385842008e-14,1.017975034e-13,9.704957871e-14,5.676296855e-14,2.141204407e-14,5.129281427e-14,1.569709879e-13,1.676533482e-13,7.020813624e-14,1.261733079e-13,2.168154048e-14
1.6484375,1.37382238e-13,1.586584329e-13,4.305605897e-14,1.294599563e-13,1.386625725e-13,1.517470164e-14,1.064182116e-13,2.11699068e-13,4.885348083e-14,9.503727843e-14,6.305716049e-14,3.137847942e-14,2.349525139e-14,6.392650455e-14,3.133509496e-14,7.082717327e-14,1.026438865e-13,5.611664203e-14,1.188511919e-13,7.372197266e-14,4.332360941e-14,1.192638973e-14,9.055692365e-14,1.093798904e-13,5.409893962e-14,2.709625969e-14,5.731394937e-14,1.336542807e-13,1.842695937e-13,7.004622023e-14,1.468468964e-13,2.740808045e-14
1.65625,1.118315671e-13,1.493169283e-13,4.756248529e-14,1.20573288e-13,1.34062377e-13,1.475264227e-14,1.02951105e-13,1.92076787e-13,4.619980024e-14,9.302512744e-14,6.563116171e-14,2.753278481e-14,2.546802204e-14,6.360448213e-14,2.466261048e-14,7.072747435e-14,1.18414044e-13,6.483549719e-14,1.232746699e-13,8.074354718e-14,4.126597775e-14,1.047565491e-14,7.720199957e-14,1.25841261e-13,5.079012883e-14,3.27066256e-14,6.043301832e-14,1.172654462e-13,1.920632226e-13,6.621852834e-14,1.612843767e-13,3.224451203e-14
1.6640625,8.591668557e-14,1.298764869e-13,5.482468597e-14,1.049552156e-13,1.222725523e-13,1.357262901e-14,9.482758723e-14,1.608593858e-13,4.109631325e-14,8.947126682e-14,7.213942767e-14,2.246968339e-14,2.545874898e-14,6.227290885e-14,1.757943774e-14,6.573797943e-14,1.311527717e-13,6.945572264e-14,1.185114652e-13,8.72334367e-14,3.799615598e-14,9.057827106e-15,6.355829868e-14,1.411392003e-13,4.712029337e-14,3.769422974e-14,5.935877215e-14,1.11938657e-13,1.890295211e-13,5.830447881e-14,1.666370603e-13,3.539047192e-14
1.671875,6.164790095e-14,1.047737376e-13,6.606142394e-14,8.486685444e-14,1.045311627e-13,1.200662553e-14,8.295511782e-14,1.234786306e-13,3.564102693e-14,8.56463244e-14,8.496972458e-14,1.881475311e-14,2.380743746e-14,6.258012973e-14,1.079817685e-14,5.651692359e-14,1.359329082e-13,6.945835989e-14,1.057881453e-13,9.226822109e-14,3.333247434e-14,7.430247625e-15,5.044320885e-14,1.539203719e-13,4.191888416e-14,4.137453401e-14,5.401704083e-14,1.185074799e-13,1.758609249e-13,4.767290758e-14,1.628169448e-13,3.614708403e-14
1.6796875,4.127472667e-14,7.768832734e-14,8.095126929e-14,6.287195038e-14,8.273795345e-14,1.104742217e-14,6.981136561e-14,8.923172107e-14,3.449370363e-14,8.3379735e-14,1.070394485e-13,1.70822733e-14,2.335429831e-14,6.466516089e-14,5.89247872e-15,4.46348023e-14,1.313968814e-13,6.517550026e-14,8.849861329e-14,9.228773171e-14,2.73886644e-14,5.98404498e-15,3.834325925e-14,1.631596569e-13,3.511448809e-14,4.338292569e-14,4.713352574e-14,1.323739514e-13,1.553172887e-13,3.764308803e-14,1.50340444e-13,3.419025787e-14
1.6875,2.653123107e-14,5.260046391e-14,9.938690667e-14,4.257062914e-14,6.07236812e-14,1.049495889e-14,5.642807783e-14,6.113736685e-14,3.989976005e-14,8.318668067e-14,1.371021745e-13,1.725631716e-14,2.607000291e-14,6.954070514e-14,4.086113196e-15,3.31711995e-14,1.210942351e-13,5.758467877e-14,6.879768179e-14,8.851380219e-14,2.148165079e-14,4.694723077e-15,2.851348157e-14,1.673895333e-13,2.877660853e-14,4.213829132e-14,3.964607019e-14,1.470741719e-13,1.306497376e-13,2.87290397e-14,1.296908416e-13,3.018364771e-14
1.6953125,1.837042329e-14,3.194330458e-14,1.192106141e-13,2.632692921e-14,4.14235065e-14,1.191793486e-14,4.541374344e-14,4.177823403e-14,5.254312317e-14,8.459730508e-14,1.748543989e-13,1.997461886e-14,3.266882715e-14,7.877748092e-14,5.744179984e-15,2.324696512e-14,1.057441462e-13,4.790698649e-14,4.936828694e-14,8.260619579e-14,1.631427867e-14,3.580800474e-15,2.170961507e-14,1.664852782e-13,2.348443393e-14,3.862071124e-14,3.11618072e-14,1.567729274e-13,1.04150816e-13,2.084582699e-14,1.046489383e-13,2.545327705e-14
1.703125,1.693628586e-14,1.778782509e-14,1.396074345e-13,1.60442794e-14,2.648859973e-14,1.567425048e-14,3.601209544e-14,3.146771204e-14,7.248920278e-14,8.512692443e-14,2.138921071e-13,2.562994548e-14,4.501248044e-14,9.226116995e-14,1.163326269e-14,1.738490069e-14,8.747344628e-14,3.938719158e-14,3.473350671e-14,7.485782747e-14,1.210996179e-14,3.085305939e-15,1.753215775e-14,1.603127183e-13,1.896177379e-14,3.382260585e-14,2.362505335e-14,1.564036321e-13,8.052310636e-14,1.562105981e-14,8.086005437e-14,2.102484511e-14
1.7109375,2.221638943e-14,1.002406113e-14,1.560317606e-13,1.181354286e-14,1.592961157e-14,2.330014129e-14,2.925886226e-14,2.847352434e-14,9.721953247e-14,8.379656669e-14,2.470690862e-13,3.306279906e-14,6.128768009e-14,1.101379839e-13,2.297209395e-14,1.77429796e-14,7.041396613e-14,3.36913822e-14,2.444564637e-14,6.426351382e-14,8.890568322e-15,3.510003377e-15,1.591528619e-14,1.520307177e-13,1.581752069e-14,2.727842867e-14,1.840645794e-14,1.441497021e-13,6.034399646e-14,1.342335594e-14,5.882266542e-14,1.793843303e-14
1.71875,3.269984017e-14,8.084345851e-15,1.653370778e-13,1.299565536e-14,9.843689722e-15,3.536207066e-14,2.673506926e-14,3.013917161e-14,1.204483925e-13,8.238233859e-14,2.697690696e-13,3.999744128e-14,7.629228858e-14,1.253165693e-13,3.903664886e-14,2.480278233e-14,5.859280961e-14,3.167716911e-14,1.822207297e-14,5.400091892e-14,6.614841765e-15,5.204287511e-15,1.684130836e-14,1.385622065e-13,1.415435485e-14,2.028452822e-14,1.478186211e-14,1.241775032e-13,4.381316559e-14,1.376624202e-14,4.047460568e-14,1.711018461e-14
1.7265625,4.722423788e-14,1.143474927e-14,1.695828918e-13,1.910323085e-14,7.606484755e-15,5.133389566e-14,2.768411284e-14,3.541106846e-14,1.389414894e-13,8.175111225e-14,2.777996622e-13,4.640265359e-14,8.943890168e-14,1.37453097e-13,5.991284302e-14,3.953535999e-14,5.318265487e-14,3.347305731e-14,1.563362032e-14,4.776384854e-14,5.183710026e-15,8.218051122e-15,1.96014776e-14,1.219847296e-13,1.381558256e-14,1.464932955e-14,1.21109753e-14,1.031606514e-13,3.123052211e-14,1.671929804e-14,2.688846013e-14,1.92020806e-14
1.734375,6.401972475e-14,2.004035923e-14,1.673696139e-13,2.947938309e-14,8.210371205e-15,7.008202159e-14,3.223666493e-14,4.333915572e-14,1.509355854e-13,8.062223913e-14,2.676660303e-13,5.277325373e-14,9.771964881e-14,1.44359261e-13,8.460879673e-14,6.17817391e-14,5.515600209e-14,3.833023141e-14,1.508605106e-14,4.797120594e-14,4.426393731e-15,1.281627387e-14,2.401548515e-14,1.042319454e-13,1.466656174e-14,1.055753273e-14,1.03843411e-14,8.623475075e-14,2.224700834e-14,2.205903134e-14,1.742440898e-14,2.495023143e-14
1.7421875,8.176489393e-14,3.291367561e-14,1.601753483e-13,4.278588011e-14,1.099120623e-14,8.964706192e-14,4.016014261e-14,5.449677633e-14,1.546380601e-13,8.054610262e-14,2.436044509e-13,5.800344607e-14,9.690951302e-14,1.425454412e-13,1.115819336e-13,9.086788288e-14,6.512080536e-14,4.440287097e-14,1.525345648e-14,5.552180378e-14,4.434199788e-15,1.864092471e-14,2.88849208e-14,8.610653139e-14,1.632292382e-14,8.162652323e-15,9.33325745e-15,7.770459626e-14,1.634164126e-14,2.936487991e-14,1.181034034e-14,3.352883819e-14
1.75,9.753876075e-14,4.890631954e-14,1.530038505e-13,5.737768457e-14,1.554385051e-14,1.054339913e-13,4.964140942e-14,6.748430088e-14,1.495573484e-13,8.305398862e-14,2.125261816e-13,6.060833262e-14,8.612626793e-14,1.2840649e-13,1.359137804e-13,1.236207151e-13,8.191648021e-14,4.978467767e-14,1.486918501e-14,7.188603615e-14,5.542474334e-15,2.556287224e-14,3.301905687e-14,6.77260144e-14,1.901822592e-14,7.787989757e-15,8.530752891e-15,7.924446209e-14,1.212167121e-14,3.751361464e-14,8.181068776e-15,4.43305988e-14
1.7578125,1.108365745e-13,6.578922965e-14,1.519764534e-13,7.228012833e-14,2.130967693e-14,1.149523811e-13,5.992678297e-14,8.169660981e-14,1.387026824e-13,8.661478056e-14,1.776190378e-13,6.08907821e-14,7.054291594e-14,1.068095164e-13,1.575052946e-13,1.581493434e-13,1.03865002e-13,5.41636622e-14,1.43538784e-14,9.503836308e-14,8.269566373e-15,3.253027417e-14,3.579185994e-14,5.08358919e-14,2.32068396e-14,8.786376004e-15,7.530276821e-15,8.768732372e-14,9.509305549e-15,4.45231447e-14,6.207125603e-15,5.576753892e-14
1.765625,1.213577563e-13,8.172690972e-14,1.546319848e-13,8.558435072e-14,2.717579893e-14,1.167381982e-13,7.055029746e-14,9.503009683e-14,1.236969219e-13,8.774898973e-14,1.426545914e-13,5.909814442e-14,5.299299385e-14,8.231805133e-14,1.743032688e-13,1.890832903e-13,1.26588284e-13,5.596254417e-14,1.306733426e-14,1.200804837e-13,1.31619421e-14,3.800153529e-14,3.613498749e-14,3.672374661e-14,2.816615809e-14,9.970145602e-15,6.693249984e-15,9.909693033e-14,7.726716541e-15,4.880798923e-14,5.554296043e-15,6.525486927e-14
1.7734375,1.276849958e-13,9.479438024e-14,1.584506766e-13,9.671773512e-14,3.246552132e-14,1.132876504e-13,8.298972027e-14,1.042043938e-13,1.072067021e-13,8.730591529e-14,1.122076981e-13,5.616805548e-14,3.695548796e-14,5.976894279e-14,1.859688455e-13,2.153835514e-13,1.494942535e-13,5.507979376e-14,1.109737881e-14,1.446710699e-13,2.04942976e-14,4.159929402e-14,3.462369803e-14,2.652563727e-14,3.388660725e-14,1.138911873e-14,5.774185242e-15,1.088830426e-13,7.085536254e-15,4.933461357e-14,5.709830181e-15,7.272985786e-14
1.78125,1.281023759e-13,1.030063451e-13,1.621874894e-13,1.012798554e-13,3.553297908e-14,1.033656164e-13,9.812411753e-14,1.085337508e-13,9.119182877e-14,8.467337579e-14,8.788843753e-14,5.231923664e-14,2.424280331e-14,4.209317037e-14,1.910693681e-13,2.341339457e-13,1.688964701e-13,5.234019535e-14,9.149697345e-15,1.626294723e-13,2.959921086e-14,4.330798924e-14,3.076016806e-14,1.985902612e-14,3.815504473e-14,1.259048137e-14,5.703261307e-15,1.114762917e-13,7.369660213e-15,4.625977408e-14,7.224404281e-15,7.6892584e-14
1.7890625,1.255420755e-13,1.045309037e-13,1.622789142e-13,9.946830423e-14,3.685358751e-14,9.130136777e-14,1.157520971e-13,1.066608284e-13,7.511381258e-14,7.727781433e-14,6.995909798e-14,4.823109309e-14,1.672335546e-14,3.515747703e-14,1.93302844e-13,2.439557844e-13,1.835874266e-13,4.839063072e-14,7.635322777e-15,1.689970875e-13,3.912241852e-14,4.138986652e-14,2.505020558e-14,1.597277759e-14,4.044727817e-14,1.278194984e-14,6.756030702e-15,1.060804951e-13,8.578615382e-15,3.948738852e-14,1.015061523e-14,7.491470108e-14
1.796875,1.20555969e-13,1.045002175e-13,1.553960836e-13,9.520331751e-14,3.619620027e-14,8.246555582e-14,1.382805206e-13,9.872740022e-14,6.111932044e-14,6.636152673e-14,5.809160491e-14,4.538384991e-14,1.32686111e-14,4.047173229e-14,1.955611219e-13,2.43842162e-13,1.906674542e-13,4.348318964e-14,6.60485524e-15,1.632932982e-13,4.867166663e-14,3.678847656e-14,1.945858687e-14,1.418939501e-14,4.091614209e-14,1.213225317e-14,9.626580726e-15,9.809742745e-14,1.073090009e-14,3.087691267e-14,1.460310448e-14,6.822646023e-14
1.8046875,1.13216731e-13,1.035388181e-13,1.426914919e-13,8.737889507e-14,3.295835912e-14,7.748968598e-14,1.633894786e-13,8.762929992e-14,4.904640411e-14,5.545750635e-14,4.989686661e-14,4.420644991e-14,1.293968877e-14,5.913056865e-14,1.970758973e-13,2.371994664e-13,1.92203792e-13,3.889946211e-14,6.390221291e-15,1.476930899e-13,5.629823791e-14,3.099976605e-14,1.508154247e-14,1.378443434e-14,3.916928415e-14,1.119216925e-14,1.444899181e-14,8.832115528e-14,1.418197547e-14,2.23003346e-14,2.099915602e-14,5.888766894e-14
