"Time","Fp1","AF3","F7","F3","FC1","FC5","T7","C3","CP1","CP5","P7","P3","Pz","PO3","O1","Oz","O2","PO4","P4","P8","CP6","CP2","C4","T8","FC6","FC2","F4","F8","AF4","Fp2","Fz","Cz"
0.0078125,3.188726248e-13,4.849116301e-13,1.184402011e-12,2.755474072e-13,1.511524817e-12,7.391917393e-14,6.056099339e-13,5.138900699e-13,6.258516638e-13,7.823142594e-14,3.673048598e-13,1.696454825e-13,5.893383234e-13,6.91020001e-14,5.074164991e-13,7.878013625e-13,8.351387651e-13,1.716507301e-13,1.438159915e-13,8.104284615e-13,3.639054832e-13,4.128989422e-13,3.698207282e-13,1.479572656e-12,3.597275519e-13,1.227289386e-12,2.735739269e-13,5.051046663e-13,1.385065936e-13,7.505016125e-13,1.163571287e-12,1.488242286e-12
0.015625,3.262647168e-13,4.93830537e-13,1.198674219e-12,2.831399847e-13,1.540597561e-12,7.547649279e-14,6.228758905e-13,5.237973239e-13,6.3823314e-13,8.034990251e-14,3.765310992e-13,1.739510775e-13,6.009543629e-13,7.135780106e-14,5.180970121e-13,8.043591853e-13,8.565794558e-13,1.797767578e-13,1.476611023e-13,8.268963074e-13,3.708964089e-13,4.237188773e-13,3.814041926e-13,1.503867839e-12,3.647179166e-13,1.257039746e-12,2.847939926e-13,5.175048646e-13,1.43514953e-13,7.65201891e-13,1.184809774e-12,1.523548998e-12
0.0234375,3.336777529e-13,5.029524004e-13,1.212503379e-12,2.912970223e-13,1.570224959e-12,7.694709593e-14,6.408722374e-13,5.338177405e-13,6.507414477e-13,8.24388114e-14,3.861151358e-13,1.782687927e-13,6.126370003e-13,7.380770334e-14,5.296986502e-13,8.217119703e-13,8.787698847e-13,1.88439618e-13,1.516496088e-13,8.437534452e-13,3.778537178e-13,4.346715485e-13,3.929211161e-13,1.528382939e-12,3.693921237e-13,1.287483577e-12,2.96538583e-13,5.298861281e-13,1.48762442e-13,7.79993889e-13,1.206587915e-12,1.55938443e-12
0.03125,3.411449334e-13,5.120318621e-13,1.225977209e-12,2.997173069e-13,1.599828878e-12,7.848620229e-14,6.59287792e-13,5.437605019e-13,6.633169525e-13,8.450395617e-14,3.957424155e-13,1.825980668e-13,6.243817108e-13,7.635880173e-14,5.415116587e-13,8.393607053e-13,9.012023891e-13,1.97582415e-13,1.558106784e-13,8.60586971e-13,3.845941637e-13,4.457247388e-13,4.044740749e-13,1.552999997e-12,3.738771264e-13,1.318189205e-12,3.085565262e-13,5.422605677e-13,1.541972676e-13,7.942932576e-13,1.228175931e-12,1.595495631e-12
0.0390625,3.487064788e-13,5.210044792e-13,1.239176441e-12,3.081674441e-13,1.629054965e-12,8.015251192e-14,6.77773372e-13,5.53540499e-13,6.7591083e-13,8.655874593e-14,4.051971611e-13,1.869552914e-13,6.363627057e-13,7.893721573e-14,5.531213615e-13,8.568342714e-13,9.236626956e-13,2.070605225e-13,1.601997781e-13,8.773090807e-13,3.913275214e-13,4.569488131e-13,4.161941982e-13,1.576951698e-12,3.78273649e-13,1.34889546e-12,3.209380571e-13,5.549200481e-13,1.598571112e-13,8.080369887e-13,1.249191642e-12,1.631768753e-12
0.046875,3.562846895e-13,5.299625156e-13,1.252101631e-12,3.167625853e-13,1.658210204e-12,8.182164802e-14,6.964317019e-13,5.632496988e-13,6.885196333e-13,8.853580156e-14,4.145938579e-13,1.913388459e-13,6.485787478e-13,8.161049279e-14,5.648951929e-13,8.743365576e-13,9.463579917e-13,2.16889195e-13,1.64733282e-13,8.943378306e-13,3.981130984e-13,4.683706459e-13,4.279766634e-13,1.60059427e-12,3.822355119e-13,1.379859003e-12,3.33799993e-13,5.677311138e-13,1.657160743e-13,8.216689288e-13,1.269925537e-12,1.668305181e-12
0.0546875,3.637460075e-13,5.388895437e-13,1.264405419e-12,3.257348026e-13,1.687606277e-12,8.342984017e-14,7.156803505e-13,5.729877556e-13,7.010715575e-13,9.049197584e-14,4.242373987e-13,1.95749711e-13,6.607840492e-13,8.445909238e-14,5.771405886e-13,8.922913873e-13,9.695265456e-13,2.272083667e-13,1.693464246e-13,9.1195098e-13,4.047788962e-13,4.798945625e-13,4.397423535e-13,1.624632524e-12,3.857284374e-13,1.41124482e-12,3.471004298e-13,5.80324012e-13,1.716307928e-13,8.354523545e-13,1.29063827e-12,1.705208204e-12
0.0625,3.712164737e-13,5.478401909e-13,1.275965084e-12,3.351627387e-13,1.717284124e-12,8.504542076e-14,7.357140601e-13,5.828337323e-13,7.136687865e-13,9.263943579e-14,4.343876928e-13,2.002422705e-13,6.730392454e-13,8.746484855e-14,5.898910469e-13,9.108138521e-13,9.934035853e-13,2.381175149e-13,1.741732867e-13,9.299765494e-13,4.114506714e-13,4.91561022e-13,4.516024424e-13,1.648813723e-12,3.890368538e-13,1.443062492e-12,3.608499687e-13,5.928216069e-13,1.777503678e-13,8.495471477e-13,1.311570339e-12,1.742623169e-12
0.0703125,3.787839286e-13,5.568898569e-13,1.286954545e-12,3.44876455e-13,1.747030507e-12,8.670764931e-14,7.561862454e-13,5.927689854e-13,7.264500384e-13,9.49531164e-14,4.449926746e-13,2.047964443e-13,6.855302816e-13,9.055314924e-14,6.029753646e-13,9.29607054e-13,1.017824629e-12,2.49520994e-13,1.792507623e-13,9.481267366e-13,4.182498926e-13,5.034774705e-13,4.636684272e-13,1.672870069e-12,3.922337769e-13,1.475218985e-12,3.74954793e-13,6.053177564e-13,1.842466953e-13,8.638718586e-13,1.332619079e-12,1.780560679e-12
0.078125,3.863558841e-13,5.659130504e-13,1.297498072e-12,3.547435118e-13,1.776667291e-12,8.8390016e-14,7.768535262e-13,6.026893085e-13,7.392669869e-13,9.717985275e-14,4.557473237e-13,2.092981249e-13,6.98085101e-13,9.373975879e-14,6.162020727e-13,9.484722249e-13,1.042358315e-12,2.613214836e-13,1.844951764e-13,9.663688081e-13,4.24950754e-13,5.155127775e-13,4.75910076e-13,1.696956388e-12,3.953488474e-13,1.507538938e-12,3.893601242e-13,6.177571998e-13,1.909145376e-13,8.778436603e-13,1.35330676e-12,1.818846803e-12
0.0859375,3.939331507e-13,5.748374808e-13,1.307618916e-12,3.6485062e-13,1.806313118e-12,9.006666885e-14,7.979447405e-13,6.125240997e-13,7.520061601e-13,9.92530627e-14,4.664166802e-13,2.13744051e-13,7.105733778e-13,9.709672476e-14,6.296179949e-13,9.675410748e-13,1.067062001e-12,2.736035506e-13,1.899350081e-13,9.848354853e-13,4.314046556e-13,5.275084737e-13,4.881190278e-13,1.720984015e-12,3.982827416e-13,1.540073661e-12,4.042021759e-13,6.302781802e-13,1.976314413e-13,8.911045949e-13,1.373657094e-12,1.85743058e-12
0.09375,4.014935226e-13,5.837614748e-13,1.317178327e-12,3.75239232e-13,1.836045575e-12,9.174121125e-14,8.195409467e-13,6.222717241e-13,7.648101925e-13,1.012652118e-13,4.76972517e-13,2.182314038e-13,7.231547576e-13,1.005954659e-13,6.432886361e-13,9.868663283e-13,1.092224917e-12,2.864046131e-13,1.955571766e-13,1.003528296e-12,4.377130302e-13,5.395614999e-13,5.001067098e-13,1.744751644e-12,4.007190172e-13,1.572944002e-12,4.193635999e-13,6.426732761e-13,2.045162197e-13,9.039051541e-13,1.393971702e-12,1.896375858e-12
0.1015625,4.090221538e-13,5.926816458e-13,1.326260531e-12,3.858722127e-13,1.865819143e-12,9.344987914e-14,8.415700891e-13,6.320292398e-13,7.777484623e-13,1.03236639e-13,4.875432408e-13,2.227836636e-13,7.358643028e-13,1.042058032e-13,6.572251227e-13,1.006418387e-12,1.117802494e-12,2.997155812e-13,2.01321037e-13,1.0224436e-12,4.440136193e-13,5.517902217e-13,5.1204314e-13,1.768273439e-12,4.026882308e-13,1.606139538e-12,4.347261091e-13,6.54627343e-13,2.115965632e-13,9.165625078e-13,1.414155525e-12,1.935736381e-12
0.109375,4.166280004e-13,6.015296522e-13,1.335131142e-12,3.968073284e-13,1.895705677e-12,9.518430193e-14,8.641720742e-13,6.41887872e-13,7.9076255e-13,1.052079181e-13,4.9829747e-13,2.273752179e-13,7.485893724e-13,1.079739406e-13,6.715647163e-13,1.026292749e-12,1.143738174e-12,3.136112282e-13,2.073308722e-13,1.041788455e-12,4.503396889e-13,5.641277757e-13,5.241839634e-13,1.791697126e-12,4.044473845e-13,1.639734849e-12,4.506563188e-13,6.663449496e-13,2.189269536e-13,9.292455647e-13,1.43415525e-12,1.975548329e-12
0.1171875,4.241999944e-13,6.103338102e-13,1.343502968e-12,4.081123568e-13,1.925746552e-12,9.687764895e-14,8.873580152e-13,6.517940287e-13,8.038304857e-13,1.07242549e-13,5.093060963e-13,2.320017069e-13,7.61301932e-13,1.118981094e-13,6.863980639e-13,1.046621423e-12,1.170184788e-12,3.280760887e-13,2.136002407e-13,1.061656202e-12,4.56552971e-13,5.764602454e-13,5.363519903e-13,1.815074828e-12,4.059294122e-13,1.673716776e-12,4.673269257e-13,6.77946419e-13,2.265460081e-13,9.419415279e-13,1.454103111e-12,2.015695469e-12
0.125,4.315629836e-13,6.191123802e-13,1.351088986e-12,4.198816809e-13,1.955953701e-12,9.859313231e-14,9.110326041e-13,6.617061939e-13,8.16881559e-13,1.092695846e-13,5.205381812e-13,2.366616738e-13,7.740078721e-13,1.160237533e-13,7.017898098e-13,1.06755031e-12,1.197148065e-12,3.431710458e-13,2.201014874e-13,1.081820406e-12,4.62638186e-13,5.887624502e-13,5.482773076e-13,1.838226101e-12,4.070396474e-13,1.70792884e-12,4.844586595e-13,6.893723781e-13,2.342637655e-13,9.544806367e-13,1.473996454e-12,2.056030234e-12
0.1328125,4.388892784e-13,6.278465711e-13,1.358209686e-12,4.322006922e-13,1.986293803e-12,1.004863453e-13,9.352752501e-13,6.716463071e-13,8.298395563e-13,1.111913197e-13,5.319455239e-13,2.413584425e-13,7.867447118e-13,1.204760111e-13,7.178377503e-13,1.088971914e-12,1.224361436e-12,3.591386654e-13,2.270120985e-13,1.102154859e-12,4.688453289e-13,6.011063682e-13,5.600874252e-13,1.861210309e-12,4.078702759e-13,1.742393276e-12,5.019797245e-13,7.007340372e-13,2.420536628e-13,9.6693155e-13,1.493792236e-12,2.096573298e-12
0.140625,4.463024831e-13,6.365444726e-13,1.36494723e-12,4.44884308e-13,2.016459246e-12,1.024900053e-13,9.600052869e-13,6.815300779e-13,8.427745263e-13,1.130570622e-13,5.43494276e-13,2.460676225e-13,7.995581003e-13,1.25171181e-13,7.343132305e-13,1.110466187e-12,1.251697018e-12,3.758612118e-13,2.343189174e-13,1.122738334e-12,4.751483539e-13,6.135534637e-13,5.719667162e-13,1.884282543e-12,4.084436769e-13,1.777052124e-12,5.198903941e-13,7.118808694e-13,2.501079938e-13,9.794202343e-13,1.513297795e-12,2.137305331e-12
0.1484375,4.536342413e-13,6.451849903e-13,1.371097982e-12,4.577656848e-13,2.046332432e-12,1.044143752e-13,9.850368842e-13,6.91284934e-13,8.557194197e-13,1.149557153e-13,5.551124902e-13,2.50717256e-13,8.123628416e-13,1.299180573e-13,7.509006393e-13,1.132004344e-12,1.279365686e-12,3.929924429e-13,2.417285631e-13,1.143445701e-12,4.812200079e-13,6.260127959e-13,5.838240209e-13,1.907018017e-12,4.087704022e-13,1.811667439e-12,5.380283566e-13,7.22663579e-13,2.583479236e-13,9.916417268e-13,1.532270432e-12,2.178071137e-12
0.15625,4.608070485e-13,6.537337013e-13,1.376779772e-12,4.710608335e-13,2.076216474e-12,1.063084747e-13,1.010400719e-12,7.009657473e-13,8.685373453e-13,1.168777609e-13,5.666575093e-13,2.552956441e-13,8.250540395e-13,1.347724431e-13,7.676655704e-13,1.153828168e-12,1.307364632e-12,4.1064749e-13,2.492786003e-13,1.164150644e-12,4.871092633e-13,6.383524227e-13,5.954908887e-13,1.928984668e-12,4.088259041e-13,1.846291292e-12,5.565003785e-13,7.333193494e-13,2.666249276e-13,1.003492242e-12,1.550922447e-12,2.218710519e-12
0.1640625,4.678959259e-13,6.622205518e-13,1.382083904e-12,4.849344783e-13,2.106190289e-12,1.083327233e-13,1.036151466e-12,7.106057462e-13,8.811804444e-13,1.187698443e-13,5.781540353e-13,2.59863536e-13,8.376404538e-13,1.398761162e-13,7.847234949e-13,1.175778403e-12,1.335422132e-12,4.291253883e-13,2.572887746e-13,1.185187029e-12,4.931067555e-13,6.506197723e-13,6.069037103e-13,1.950803885e-12,4.084975617e-13,1.881138255e-12,5.755493361e-13,7.438547657e-13,2.750994764e-13,1.015463132e-12,1.569614386e-12,2.259196512e-12
0.171875,4.749144601e-13,6.707252624e-13,1.386869487e-12,4.993022351e-13,2.136183436e-12,1.104587862e-13,1.06251221e-12,7.202521705e-13,8.937693786e-13,1.205923799e-13,5.898859277e-13,2.644107447e-13,8.501409685e-13,1.452323324e-13,8.022377212e-13,1.19797578e-12,1.363882059e-12,4.484806026e-13,2.658086895e-13,1.206846938e-12,4.991089847e-13,6.629264379e-13,6.181726524e-13,1.972714505e-12,4.079315429e-13,1.916257792e-12,5.951920436e-13,7.540784709e-13,2.839801772e-13,1.027495734e-12,1.588401137e-12,2.299786072e-12
0.1796875,4.818032835e-13,6.793257982e-13,1.390914914e-12,5.141449397e-13,2.166251042e-12,1.125295551e-13,1.08984152e-12,7.300115299e-13,9.0632918e-13,1.223340626e-13,6.018927567e-13,2.688939467e-13,8.62582406e-13,1.508124931e-13,8.205522304e-13,1.22102801e-12,1.393360281e-12,4.686857164e-13,2.74644732e-13,1.228883716e-12,5.048476338e-13,6.752390555e-13,6.2947033e-13,1.993771108e-12,4.073215617e-13,1.951604085e-12,6.153683429e-13,7.639652045e-13,2.932990086e-13,1.038888421e-12,1.607240295e-12,2.340610732e-12
0.1875,4.885896299e-13,6.880115637e-13,1.394137963e-12,5.294083351e-13,2.196196279e-12,1.144660114e-13,1.117914235e-12,7.398338796e-13,9.187627829e-13,1.240435646e-13,6.138981585e-13,2.733864739e-13,8.750278152e-13,1.566037403e-13,8.394543593e-13,1.24475571e-12,1.423517103e-12,4.896081207e-13,2.837037307e-13,1.25111923e-12,5.104194082e-13,6.874887453e-13,6.407175943e-13,2.013974394e-12,4.063839323e-13,1.987094403e-12,6.360362625e-13,7.735144142e-13,3.02955035e-13,1.049968988e-12,1.626065974e-12,2.381315194e-12
0.1953125,4.953484397e-13,6.966745638e-13,1.396892499e-12,5.450596218e-13,2.226002768e-12,1.163952619e-13,1.146314117e-12,7.495234839e-13,9.310083999e-13,1.257480843e-13,6.259258428e-13,2.779329886e-13,8.873879451e-13,1.626514623e-13,8.584941226e-13,1.26850422e-12,1.453713155e-12,5.111534137e-13,2.931136963e-13,1.273804686e-12,5.160317242e-13,6.996479579e-13,6.516626127e-13,2.03455972e-12,4.048346807e-13,2.022862303e-12,6.572952174e-13,7.82909702e-13,3.12862324e-13,1.061637134e-12,1.644939759e-12,2.4217522e-12
0.203125,5.018790268e-13,7.052850384e-13,1.399230995e-12,5.613466652e-13,2.256115753e-12,1.184892715e-13,1.175241446e-12,7.590266447e-13,9.43012777e-13,1.273987424e-13,6.381601434e-13,2.823860776e-13,8.994302866e-13,1.690477068e-13,8.781434682e-13,1.292529736e-12,1.484150098e-12,5.334786902e-13,3.029751699e-13,1.297081733e-12,5.216143513e-13,7.116070501e-13,6.622714346e-13,2.055405357e-12,4.029051591e-13,2.059119378e-12,6.792969405e-13,7.922212894e-13,3.231400531e-13,1.073287635e-12,1.664145058e-12,2.462191402e-12
0.2109375,5.079700353e-13,7.139355842e-13,1.400621655e-12,5.782838725e-13,2.286397853e-12,1.206265467e-13,1.204825486e-12,7.68476573e-13,9.547879434e-13,1.290115004e-13,6.504949282e-13,2.866794184e-13,9.111111625e-13,1.756984838e-13,8.988210204e-13,1.31725497e-12,1.515089962e-12,5.565384729e-13,3.130963892e-13,1.320825567e-12,5.271683974e-13,7.23298415e-13,6.727649628e-13,2.075274961e-12,4.008872186e-13,2.095497948e-12,7.017477545e-13,8.011399122e-13,3.338676713e-13,1.084051803e-12,1.683573958e-12,2.502585653e-12
0.21875,5.138872108e-13,7.226496593e-13,1.401221803e-12,5.95470986e-13,2.316286051e-12,1.226158171e-13,1.234771244e-12,7.779571049e-13,9.664767761e-13,1.306423738e-13,6.629103946e-13,2.909966248e-13,9.225937701e-13,1.82441361e-13,9.198029464e-13,1.342224166e-12,1.546198833e-12,5.801058836e-13,3.233471284e-13,1.344961015e-12,5.329454757e-13,7.348419461e-13,6.833230267e-13,2.094383825e-12,3.987775202e-13,2.131597365e-12,7.243152708e-13,8.097435156e-13,3.448091246e-13,1.094864109e-12,1.702782289e-12,2.542743739e-12
0.2265625,5.198108311e-13,7.313284858e-13,1.401527465e-12,6.128723209e-13,2.345975498e-12,1.246130617e-13,1.265086713e-12,7.87423189e-13,9.7810423e-13,1.322346014e-13,6.755349877e-13,2.954204703e-13,9.339500412e-13,1.893804528e-13,9.407329455e-13,1.367109514e-12,1.577275969e-12,6.04347218e-13,3.339642999e-13,1.369460087e-12,5.388683896e-13,7.462851861e-13,6.937467817e-13,2.113610283e-12,3.964132836e-13,2.167761599e-12,7.472649545e-13,8.182765355e-13,3.557904942e-13,1.106462241e-12,1.721808411e-12,2.582737717e-12
0.234375,5.255796485e-13,7.399130189e-13,1.40121216e-12,6.307906082e-13,2.375832623e-12,1.267409545e-13,1.295872107e-12,7.968835343e-13,9.895592959e-13,1.337565201e-13,6.882880502e-13,2.99820592e-13,9.45199164e-13,1.966320914e-13,9.622229858e-13,1.392284864e-12,1.608449894e-12,6.294334944e-13,3.450885613e-13,1.394215208e-12,5.445690657e-13,7.575352608e-13,7.036155711e-13,2.132650201e-12,3.93651801e-13,2.204176529e-12,7.707174115e-13,8.265876483e-13,3.669398596e-13,1.117978834e-12,1.740915591e-12,2.622494579e-12
0.2421875,5.31377964e-13,7.484802444e-13,1.400231457e-12,6.491890139e-13,2.405502708e-12,1.288059148e-13,1.326909952e-12,8.063585581e-13,1.000850835e-12,1.352714737e-13,7.011392311e-13,3.041689552e-13,9.563863168e-13,2.040631685e-13,9.84218824e-13,1.417808374e-12,1.63973013e-12,6.551454468e-13,3.565504982e-13,1.419071627e-12,5.500988967e-13,7.686135336e-13,7.130090039e-13,2.151247093e-12,3.905865393e-13,2.240424702e-12,7.943288512e-13,8.348072501e-13,3.78382655e-13,1.129135238e-12,1.760056915e-12,2.661847613e-12
0.25,5.373329159e-13,7.571202869e-13,1.39918548e-12,6.678997147e-13,2.434649774e-12,1.308383592e-13,1.358227337e-12,8.156491069e-13,1.01192468e-12,1.36776794e-13,7.139458982e-13,3.084924358e-13,9.672943978e-13,2.11641825e-13,1.00609772e-12,1.443344669e-12,1.671092908e-12,6.814174754e-13,3.682573785e-13,1.44404055e-12,5.557514966e-13,7.794864118e-13,7.223649145e-13,2.169591317e-12,3.874044575e-13,2.276484622e-12,8.181756863e-13,8.429093358e-13,3.900784329e-13,1.14046397e-12,1.779229617e-12,2.700803956e-12
0.2578125,5.429816986e-13,7.657734635e-13,1.397946447e-12,6.870086259e-13,2.463560147e-12,1.331209481e-13,1.390118391e-12,8.246005008e-13,1.02259889e-12,1.382963515e-13,7.262246546e-13,3.126824999e-13,9.776571091e-13,2.195437741e-13,1.028131607e-12,1.469049641e-12,1.70261281e-12,7.084186508e-13,3.802782228e-13,1.46939548e-12,5.615485447e-13,7.899327365e-13,7.315660113e-13,2.187175111e-12,3.840923063e-13,2.31276275e-12,8.426374187e-13,8.502590853e-13,4.019144089e-13,1.151658318e-12,1.798569925e-12,2.739321566e-12
0.265625,5.482392045e-13,7.743490997e-13,1.396136807e-12,7.066212065e-13,2.492558298e-12,1.356048451e-13,1.42256528e-12,8.334053451e-13,1.033009831e-12,1.399230901e-13,7.381585521e-13,3.167372518e-13,9.877488891e-13,2.277762768e-13,1.050900007e-12,1.495172534e-12,1.734271079e-12,7.361603282e-13,3.926778454e-13,1.495147565e-12,5.67395855e-13,8.000024799e-13,7.40265592e-13,2.204115663e-12,3.807480646e-13,2.349210634e-12,8.676527913e-13,8.570348132e-13,4.139102252e-13,1.162384179e-12,1.818049027e-12,2.777435325e-12
0.2734375,5.535146079e-13,7.828942492e-13,1.39412133e-12,7.266454764e-13,2.521402892e-12,1.380487403e-13,1.455345401e-12,8.42210155e-13,1.043419521e-12,1.415394347e-13,7.504510592e-13,3.208042766e-13,9.978852853e-13,2.361515823e-13,1.074193203e-12,1.521370709e-12,1.765973544e-12,7.645502603e-13,4.054504687e-13,1.520902799e-12,5.731563526e-13,8.099690639e-13,7.486251072e-13,2.22120432e-12,3.776089704e-13,2.385324847e-12,8.929372565e-13,8.638242966e-13,4.262442682e-13,1.172973811e-12,1.837505494e-12,2.815186364e-12
0.28125,5.587278006e-13,7.914393686e-13,1.392165542e-12,7.46894993e-13,2.549606775e-12,1.404487778e-13,1.488349102e-12,8.5089475e-13,1.053643914e-12,1.428994046e-13,7.628082583e-13,3.248623029e-13,1.007724489e-12,2.446219356e-13,1.097681625e-12,1.547450822e-12,1.797689313e-12,7.93478292e-13,4.185382697e-13,1.546772004e-12,5.786847885e-13,8.197237219e-13,7.567642343e-13,2.237399752e-12,3.744503358e-13,2.420837989e-12,9.18383746e-13,8.702015138e-13,4.388740352e-13,1.183507869e-12,1.856814781e-12,2.852173555e-12
0.2890625,5.636312784e-13,7.999506395e-13,1.389917083e-12,7.674163766e-13,2.577236919e-12,1.428837413e-13,1.52156447e-12,8.594441524e-13,1.063418484e-12,1.440027628e-13,7.747402114e-13,3.28812163e-13,1.017004859e-12,2.533409939e-13,1.121544898e-12,1.573811234e-12,1.829441202e-12,8.228914606e-13,4.320140257e-13,1.5733736e-12,5.841362529e-13,8.290228072e-13,7.645045777e-13,2.251780758e-12,3.708711146e-13,2.456024158e-12,9.441040776e-13,8.75964601e-13,4.516017003e-13,1.19403561e-12,1.876106219e-12,2.888112419e-12
0.296875,5.683388481e-13,8.085131663e-13,1.387000911e-12,7.88577342e-13,2.604846973e-12,1.453533234e-13,1.555119832e-12,8.679897547e-13,1.072852489e-12,1.450511757e-13,7.869160955e-13,3.327040934e-13,1.026047715e-12,2.62425221e-13,1.146064208e-12,1.60071807e-12,1.861366534e-12,8.529637449e-13,4.460053118e-13,1.600731437e-12,5.897536333e-13,8.379959358e-13,7.719368976e-13,2.266105657e-12,3.670180293e-13,2.491206215e-12,9.702902313e-13,8.815702303e-13,4.645812101e-13,1.204765472e-12,1.895712983e-12,2.923342214e-12
0.3046875,5.728648852e-13,8.171373517e-13,1.383422706e-12,8.10482849e-13,2.632664105e-12,1.47874044e-13,1.58925318e-12,8.765619028e-13,1.082033896e-12,1.461871478e-13,7.997161666e-13,3.365495107e-13,1.03489186e-12,2.718341327e-13,1.171338632e-12,1.628071207e-12,1.893628275e-12,8.838551856e-13,4.603924809e-13,1.628410633e-12,5.955427896e-13,8.467302322e-13,7.791813773e-13,2.281032585e-12,3.632610855e-13,2.526321933e-12,9.968403495e-13,8.86776964e-13,4.779785648e-13,1.21550835e-12,1.915662694e-12,2.958094999e-12
0.3125,5.77104794e-13,8.256196241e-13,1.379531114e-12,8.326855265e-13,2.660375254e-12,1.504314429e-13,1.623910323e-12,8.850840912e-13,1.090841938e-12,1.473750843e-13,8.123444341e-13,3.40256144e-13,1.043188057e-12,2.814509861e-13,1.197072001e-12,1.655502543e-12,1.925917606e-12,9.154076704e-13,4.75039974e-13,1.656263835e-12,6.014456526e-13,8.550433684e-13,7.860829462e-13,2.294719833e-12,3.596803719e-13,2.561212915e-12,1.023466915e-12,8.913556677e-13,4.915109101e-13,1.226149647e-12,1.93563152e-12,2.992182371e-12
0.3203125,5.811078687e-13,8.340272e-13,1.37558016e-12,8.548497703e-13,2.687525126e-12,1.529474786e-13,1.658589962e-12,8.934121557e-13,1.099276072e-12,1.48518734e-13,8.243348578e-13,3.438409695e-13,1.05101575e-12,2.911553739e-13,1.222608198e-12,1.682410829e-12,1.957610041e-12,9.473017613e-13,4.900176583e-13,1.684194516e-12,6.0730818e-13,8.629646198e-13,7.926342979e-13,2.307080918e-12,3.561039968e-13,2.595726261e-12,1.050173719e-12,8.958409186e-13,5.050206787e-13,1.236718437e-12,1.955439383e-12,3.025454271e-12
0.328125,5.849165629e-13,8.426847558e-13,1.371486826e-12,8.772137567e-13,2.714050224e-12,1.554394595e-13,1.69316083e-12,9.014821485e-13,1.107435538e-12,1.496702646e-13,8.360911337e-13,3.473810651e-13,1.0586295e-12,3.00940654e-13,1.247914538e-12,1.708870248e-12,1.988884305e-12,9.794962038e-13,5.053061462e-13,1.71220504e-12,6.129200678e-13,8.706615432e-13,7.989306091e-13,2.319499999e-12,3.523127296e-13,2.629777368e-12,1.077146243e-12,9.002890674e-13,5.187434445e-13,1.24695931e-12,1.975230815e-12,3.05792938e-12
0.3359375,5.885420375e-13,8.514283033e-13,1.367181202e-12,9.00170969e-13,2.740514183e-12,1.58035975e-13,1.728340331e-12,9.094540004e-13,1.115283765e-12,1.508745953e-13,8.480736203e-13,3.508605076e-13,1.065868875e-12,3.109988707e-13,1.273804698e-12,1.735801816e-12,2.020580558e-12,1.012403562e-12,5.208874887e-13,1.740756735e-12,6.184333272e-13,8.780339014e-13,8.049414645e-13,2.331713283e-12,3.484534419e-13,2.663826942e-12,1.104560862e-12,9.04201974e-13,5.327443418e-13,1.257059663e-12,1.995339438e-12,3.089744558e-12
0.34375,5.919370112e-13,8.598119994e-13,1.36269406e-12,9.237527965e-13,2.767352043e-12,1.607495722e-13,1.764452784e-12,9.174183316e-13,1.122694056e-12,1.520002335e-13,8.603658194e-13,3.542281952e-13,1.072495444e-12,3.214560647e-13,1.300599108e-12,1.763433838e-12,2.052660765e-12,1.046189843e-12,5.369370473e-13,1.770097819e-12,6.241511095e-13,8.849096895e-13,8.106490958e-13,2.343193232e-12,3.448416323e-13,2.698302037e-12,1.132557267e-12,9.075801389e-13,5.469354898e-13,1.267384461e-12,2.016033568e-12,3.120939222e-12
0.3515625,5.949946321e-13,8.680342838e-13,1.357989478e-12,9.477445846e-13,2.7942694e-12,1.634406471e-13,1.800851794e-12,9.252606557e-13,1.129590616e-12,1.530402636e-13,8.725945067e-13,3.574462288e-13,1.078453409e-12,3.322219276e-13,1.327871348e-12,1.791177461e-12,2.084451864e-12,1.080387686e-12,5.534446495e-13,1.799902666e-12,6.300344249e-13,8.912346369e-13,8.159101374e-13,2.354247093e-12,3.412340614e-13,2.732748928e-12,1.160951706e-12,9.107491043e-13,5.615030696e-13,1.277509745e-12,2.037388576e-12,3.151243211e-12
0.359375,5.978733643e-13,8.766177935e-13,1.353088197e-12,9.721198503e-13,2.820947111e-12,1.660950367e-13,1.837345571e-12,9.329972693e-13,1.135993262e-12,1.541324381e-13,8.84454502e-13,3.604932149e-13,1.083776741e-12,3.432978091e-13,1.355488027e-12,1.819006725e-12,2.116074024e-12,1.114916224e-12,5.702221584e-13,1.830031553e-12,6.359213845e-13,8.969936085e-13,8.206369673e-13,2.364671938e-12,3.374209008e-13,2.766746431e-12,1.189436355e-12,9.137504146e-13,5.766102332e-13,1.287419068e-12,2.059422111e-12,3.180495369e-12
0.3671875,6.007544101e-13,8.85442845e-13,1.348059701e-12,9.969408669e-13,2.847443272e-12,1.688190165e-13,1.874284012e-12,9.407316124e-13,1.141959029e-12,1.552460409e-13,8.962097605e-13,3.634023139e-13,1.088632344e-12,3.547178535e-13,1.383477573e-12,1.847120658e-12,2.147791783e-12,1.150135892e-12,5.872578303e-13,1.860649343e-12,6.418358735e-13,9.022816219e-13,8.251433218e-13,2.374250632e-12,3.338492222e-13,2.800522363e-12,1.218028006e-12,9.164153814e-13,5.919190574e-13,1.298042422e-12,2.081951192e-12,3.208839875e-12
0.375,6.033438312e-13,8.940165971e-13,1.342883413e-12,1.022031584e-12,2.873674027e-12,1.715545599e-13,1.9113171e-12,9.483431146e-13,1.147476471e-12,1.563337109e-13,9.080073048e-13,3.661966123e-13,1.093044396e-12,3.662143136e-13,1.411532929e-12,1.875087633e-12,2.179084963e-12,1.18561923e-12,6.04510805e-13,1.891626422e-12,6.478689975e-13,9.071356808e-13,8.294652966e-13,2.383221718e-12,3.305401178e-13,2.834076256e-12,1.246677282e-12,9.186632798e-13,6.069558244e-13,1.309393638e-12,2.104568589e-12,3.23622262e-12
0.3828125,6.054297098e-13,9.023068745e-13,1.33756773e-12,1.047252633e-12,2.899400092e-12,1.742259587e-13,1.948152766e-12,9.556810501e-13,1.152506741e-12,1.574245906e-13,9.195564857e-13,3.688520404e-13,1.096787845e-12,3.776202889e-13,1.439552002e-12,1.902614577e-12,2.209713242e-12,1.220870842e-12,6.218815829e-13,1.922624507e-12,6.539709929e-13,9.113865224e-13,8.33216518e-13,2.391475296e-12,3.270337779e-13,2.867133882e-12,1.275121857e-12,9.205502589e-13,6.218402498e-13,1.320340072e-12,2.127221212e-12,3.262353522e-12
0.390625,6.073781636e-13,9.106827234e-13,1.332192348e-12,1.072729951e-12,2.924644007e-12,1.769451548e-13,1.985232117e-12,9.628642291e-13,1.157134897e-12,1.584326816e-13,9.30893863e-13,3.714239004e-13,1.099973146e-12,3.892305777e-13,1.467801705e-12,1.930035288e-12,2.240113772e-12,1.256414964e-12,6.395042648e-13,1.953607131e-12,6.599710239e-13,9.151178199e-13,8.36554802e-13,2.399086405e-12,3.235794896e-13,2.899712131e-12,1.303550359e-12,9.222314751e-13,6.370954496e-13,1.3303921e-12,2.150203035e-12,3.287186339e-12
0.3984375,6.094456643e-13,9.194152272e-13,1.326729562e-12,1.098600799e-12,2.9497094e-12,1.797319675e-13,2.022460643e-12,9.701234261e-13,1.161518591e-12,1.59380886e-13,9.424006266e-13,3.740459888e-13,1.102962957e-12,4.012617613e-13,1.496466107e-12,1.957636417e-12,2.270436855e-12,1.292473701e-12,6.574580011e-13,1.984844671e-12,6.659160512e-13,9.186662167e-13,8.397783889e-13,2.406461867e-12,3.204632527e-13,2.931926722e-12,1.332421643e-12,9.239403616e-13,6.52804901e-13,1.340224842e-12,2.173670547e-12,3.310950565e-12
0.40625,6.114029752e-13,9.284416974e-13,1.321154973e-12,1.124838067e-12,2.974688444e-12,1.824947162e-13,2.059274233e-12,9.774492018e-13,1.165648762e-12,1.604267143e-13,9.540825237e-13,3.767309678e-13,1.10566647e-12,4.135367851e-13,1.525399117e-12,1.98518387e-12,2.300395763e-12,1.328449685e-12,6.755619328e-13,2.016338866e-12,6.720312868e-13,9.219487785e-13,8.424934013e-13,2.413436045e-12,3.172853322e-13,2.963751043e-12,1.361511157e-12,9.256902634e-13,6.686066975e-13,1.350550597e-12,2.197661745e-12,3.333675173e-12
0.4140625,6.130863025e-13,9.373631491e-13,1.315776005e-12,1.151089985e-12,2.999014368e-12,1.853034078e-13,2.095643694e-12,9.845440573e-13,1.169354488e-12,1.614758618e-13,9.654331705e-13,3.793296618e-13,1.107829489e-12,4.25794645e-13,1.553962878e-12,2.012026937e-12,2.329478479e-12,1.364144878e-12,6.937249949e-13,2.047563499e-12,6.782184602e-13,9.24646071e-13,8.445542174e-13,2.419796177e-12,3.140514074e-13,2.994870394e-12,1.390054669e-12,9.272191598e-13,6.843191939e-13,1.361074293e-12,2.221852955e-12,3.354993571e-12
0.421875,6.145583212e-13,9.459137471e-13,1.310813287e-12,1.176984139e-12,3.02224093e-12,1.881851785e-13,2.131677571e-12,9.912350312e-13,1.172596713e-12,1.62433333e-13,9.760092935e-13,3.817366696e-13,1.109537001e-12,4.379170273e-13,1.581769583e-12,2.037927478e-12,2.357428419e-12,1.399692552e-12,7.120214838e-13,2.078362732e-12,6.842974878e-13,9.268109959e-13,8.464511418e-13,2.425540835e-12,3.111625168e-13,3.024997246e-12,1.417949101e-12,9.284165628e-13,7.00015462e-13,1.371266332e-12,2.24567669e-12,3.37480429e-12
0.4296875,6.158161556e-13,9.543908167e-13,1.305751194e-12,1.202892482e-12,3.044880771e-12,1.910139131e-13,2.167683958e-12,9.977094377e-13,1.175493348e-12,1.634472065e-13,9.861048914e-13,3.840362455e-13,1.110830494e-12,4.501211386e-13,1.609587449e-12,2.063693204e-12,2.385146455e-12,1.435270375e-12,7.305823643e-13,2.109538361e-12,6.905029368e-13,9.285995741e-13,8.482460986e-13,2.430159511e-12,3.084802492e-13,3.054657009e-12,1.445970852e-12,9.293107307e-13,7.15818532e-13,1.38171722e-12,2.269432742e-12,3.393615842e-12
0.4375,6.169013999e-13,9.630437713e-13,1.300239071e-12,1.229263676e-12,3.067300001e-12,1.938614194e-13,2.204199474e-12,1.004133721e-12,1.178063209e-12,1.64457922e-13,9.963673342e-13,3.863961044e-13,1.111614801e-12,4.627909598e-13,1.638050608e-12,2.089913967e-12,2.413394203e-12,1.471271831e-12,7.494714194e-13,2.141524465e-12,6.969740694e-13,9.299868436e-13,8.496786243e-13,2.433648681e-12,3.057993156e-13,3.084353514e-12,1.474404543e-12,9.299954228e-13,7.31815012e-13,1.392913971e-12,2.293774295e-12,3.411598075e-12
0.4453125,6.179561699e-13,9.71547835e-13,1.294991639e-12,1.255536441e-12,3.089043955e-12,1.968764004e-13,2.240664672e-12,1.010423456e-12,1.180282466e-12,1.653287012e-13,1.006739239e-12,3.88850458e-13,1.111976894e-12,4.757908351e-13,1.666466975e-12,2.115816017e-12,2.441014677e-12,1.507314788e-12,7.683760041e-13,2.173512782e-12,7.033940381e-13,9.309744469e-13,8.508655874e-13,2.437057403e-12,3.032557678e-13,3.113403797e-12,1.502498662e-12,9.307575738e-13,7.479074878e-13,1.403953159e-12,2.318269849e-12,3.428268852e-12
0.453125,6.189069134e-13,9.797732668e-13,1.290369201e-12,1.281280563e-12,3.110067371e-12,1.998845527e-13,2.276111895e-12,1.016478247e-12,1.182231205e-12,1.663038269e-13,1.016737013e-12,3.91256463e-13,1.111941588e-12,4.886363649e-13,1.694333314e-12,2.140690135e-12,2.46694779e-12,1.542501646e-12,7.869722236e-13,2.204963993e-12,7.096182543e-13,9.315380247e-13,8.518743554e-13,2.440450575e-12,3.009374205e-13,3.141299196e-12,1.529865499e-12,9.315809427e-13,7.639515433e-13,1.414547185e-12,2.34250398e-12,3.443511079e-12
0.4609375,6.196635587e-13,9.881801407e-13,1.285618661e-12,1.30715906e-12,3.130774399e-12,2.026717447e-13,2.311034024e-12,1.022261389e-12,1.183884276e-12,1.675329528e-13,1.02636238e-12,3.935085822e-13,1.111377387e-12,5.014024155e-13,1.72223311e-12,2.165134051e-12,2.492068936e-12,1.577190007e-12,8.055704575e-13,2.236447454e-12,7.159332225e-13,9.316333011e-13,8.525472304e-13,2.442701562e-12,2.988561575e-13,3.168643202e-12,1.557024535e-12,9.322076132e-13,7.800013318e-13,1.425779985e-12,2.367181636e-12,3.457646899e-12
0.46875,6.205099445e-13,9.969967057e-13,1.28063337e-12,1.333624969e-12,3.15112705e-12,2.054167866e-13,2.346244011e-12,1.027798297e-12,1.185113531e-12,1.687678151e-13,1.035841403e-12,3.957151283e-13,1.110367637e-12,5.145350732e-13,1.750596829e-12,2.189924831e-12,2.517190555e-12,1.612218705e-12,8.245523854e-13,2.268306492e-12,7.225151013e-13,9.313779885e-13,8.529271357e-13,2.443766875e-12,2.968972449e-13,3.195783116e-12,1.584229613e-12,9.328875838e-13,7.961204667e-13,1.437658973e-12,2.392677822e-12,3.470727621e-12
0.4765625,6.215634402e-13,1.005946631e-12,1.276201438e-12,1.360293731e-12,3.171141326e-12,2.084128639e-13,2.381557828e-12,1.033214146e-12,1.185996621e-12,1.699148316e-13,1.045139428e-12,3.98041214e-13,1.109044588e-12,5.280554272e-13,1.779096207e-12,2.214949402e-12,2.542070225e-12,1.647422908e-12,8.437482909e-13,2.300253579e-12,7.291159881e-13,9.307792489e-13,8.530607219e-13,2.444506876e-12,2.949204616e-13,3.222494389e-12,1.611229074e-12,9.338980683e-13,8.122914428e-13,1.449092367e-12,2.4184856e-12,3.482688249e-12
0.484375,6.223828455e-13,1.014758377e-12,1.272292318e-12,1.38671953e-12,3.190906697e-12,2.115600726e-13,2.416624709e-12,1.03850454e-12,1.18666059e-12,1.711173196e-13,1.054101606e-12,4.004631901e-13,1.107286177e-12,5.41644315e-13,1.806992119e-12,2.23946776e-12,2.566440185e-12,1.682378208e-12,8.629130781e-13,2.332176877e-12,7.354694352e-13,9.296692224e-13,8.528358348e-13,2.444912032e-12,2.931269608e-13,3.248672338e-12,1.637918065e-12,9.35051685e-13,8.285474732e-13,1.460056908e-12,2.444284537e-12,3.493527231e-12
0.4921875,6.228124502e-13,1.023394567e-12,1.268347788e-12,1.412747146e-12,3.210001517e-12,2.145113795e-13,2.451072032e-12,1.04352733e-12,1.187013488e-12,1.723840581e-13,1.062690523e-12,4.028576881e-13,1.105061558e-12,5.550911061e-13,1.833859346e-12,2.262861133e-12,2.589841464e-12,1.71673226e-12,8.819537431e-13,2.363954752e-12,7.417842904e-13,9.281645718e-13,8.523512706e-13,2.444686745e-12,2.916458571e-13,3.274134071e-12,1.664235398e-12,9.361205717e-13,8.448498853e-13,1.471159376e-12,2.470111036e-12,3.503120025e-12
0.5,6.233541046e-13,1.032135075e-12,1.264538029e-12,1.43864126e-12,3.228320741e-12,2.172306339e-13,2.484610893e-12,1.048322586e-12,1.187011549e-12,1.73665218e-13,1.07109175e-12,4.052177563e-13,1.102602969e-12,5.684230758e-13,1.860359473e-12,2.285426662e-12,2.61199915e-12,1.75015935e-12,9.00817933e-13,2.39540778e-12,7.483905272e-13,9.265249515e-13,8.518149962e-13,2.44414902e-12,2.903137604e-13,3.298771992e-12,1.690074374e-12,9.36863046e-13,8.611620419e-13,1.482536885e-12,2.496183956e-12,3.511384488e-12
0.5078125,6.242116588e-13,1.041271153e-12,1.261168676e-12,1.464710376e-12,3.246191908e-12,2.1994188e-13,2.517671363e-12,1.05295224e-12,1.186758582e-12,1.749728231e-13,1.079329441e-12,4.075701509e-13,1.099974492e-12,5.817861435e-13,1.887117024e-12,2.307890652e-12,2.633482979e-12,1.783076906e-12,9.196590195e-13,2.426772809e-12,7.551304807e-13,9.246531922e-13,8.511046382e-13,2.443190188e-12,2.891384054e-13,3.322669155e-12,1.715432062e-12,9.374901071e-13,8.775915621e-13,1.494380144e-12,2.522690113e-12,3.518269638e-12
0.515625,6.2492502e-13,1.05048554e-12,1.257943058e-12,1.490547684e-12,3.263304305e-12,2.226366999e-13,2.550361355e-12,1.057270132e-12,1.18619645e-12,1.762958169e-13,1.087056216e-12,4.09835441e-13,1.096897588e-12,5.951300373e-13,1.913454376e-12,2.33000226e-12,2.654303785e-12,1.815716892e-12,9.384675809e-13,2.458040146e-12,7.61715139e-13,9.22292956e-13,8.499364653e-13,2.441124622e-12,2.880370716e-13,3.345566282e-12,1.74019717e-12,9.387214309e-13,8.940230939e-13,1.506571291e-12,2.549196833e-12,3.523670693e-12
0.5234375,6.252118676e-13,1.059335318e-12,1.254475592e-12,1.515671646e-12,3.27930317e-12,2.251459509e-13,2.582056678e-12,1.061191893e-12,1.185175226e-12,1.776563907e-13,1.094259006e-12,4.119435043e-13,1.0931445e-12,6.082238154e-13,1.938780661e-12,2.35104675e-12,2.673835251e-12,1.847312928e-12,9.568980669e-13,2.488849066e-12,7.682217843e-13,9.194154961e-13,8.483575167e-13,2.438090066e-12,2.868117423e-13,3.367375149e-12,1.76429975e-12,9.401908745e-13,9.102122289e-13,1.518269675e-12,2.575263579e-12,3.527667469e-12
0.53125,6.253622017e-13,1.068073542e-12,1.250809935e-12,1.540263365e-12,3.294422123e-12,2.274586725e-13,2.612760251e-12,1.064697685e-12,1.183740281e-12,1.791014504e-13,1.101232988e-12,4.139206238e-13,1.088872869e-12,6.210209266e-13,1.963333611e-12,2.371118069e-12,2.692291579e-12,1.877663296e-12,9.749717994e-13,2.519448014e-12,7.747938865e-13,9.162006043e-13,8.466847552e-13,2.434835565e-12,2.857414399e-13,3.388430161e-12,1.787840803e-12,9.41013388e-13,9.263422481e-13,1.529329347e-12,2.601201544e-12,3.530300539e-12
0.5390625,6.256546832e-13,1.077043122e-12,1.247355864e-12,1.564427362e-12,3.308616361e-12,2.296387033e-13,2.642726224e-12,1.067725371e-12,1.182071492e-12,1.80581489e-13,1.107861507e-12,4.158190573e-13,1.084416688e-12,6.336046012e-13,1.987118645e-12,2.390482772e-12,2.709819875e-12,1.907244563e-12,9.928876262e-13,2.549955208e-12,7.814205601e-13,9.128674568e-13,8.450211323e-13,2.431372446e-12,2.849769159e-13,3.40853438e-12,1.810661077e-12,9.417806108e-13,9.425681204e-13,1.540420816e-12,2.627118066e-12,3.531523144e-12
0.546875,6.259605575e-13,1.086040911e-12,1.244406535e-12,1.588069724e-12,3.321838199e-12,2.317728224e-13,2.671729237e-12,1.070495085e-12,1.180292198e-12,1.820535547e-13,1.114135485e-12,4.176940725e-13,1.079803882e-12,6.460251384e-13,2.010353979e-12,2.409160383e-12,2.726043392e-12,1.935940568e-12,1.010421194e-12,2.579813227e-12,7.880509315e-13,9.094181399e-13,8.432203482e-13,2.427357537e-12,2.841556441e-13,3.427516036e-12,1.832641537e-12,9.430855784e-13,9.585301162e-13,1.551504224e-12,2.65260888e-12,3.531763162e-12
0.5546875,6.260733603e-13,1.09482713e-12,1.241767031e-12,1.611377688e-12,3.334505317e-12,2.339608029e-13,2.699898314e-12,1.073279076e-12,1.178309873e-12,1.835656778e-13,1.120364248e-12,4.195643904e-13,1.074729709e-12,6.583961976e-13,2.033540308e-12,2.427404934e-12,2.741341454e-12,1.963683606e-12,1.027547902e-12,2.60910812e-12,7.945882664e-13,9.055985452e-13,8.412180156e-13,2.422890882e-12,2.833706611e-13,3.4458802e-12,1.854094028e-12,9.442271971e-13,9.740876645e-13,1.562280194e-12,2.67771571e-12,3.531280497e-12
0.5625,6.26053376e-13,1.103407858e-12,1.239176326e-12,1.634257975e-12,3.346388366e-12,2.361057735e-13,2.727235724e-12,1.075827286e-12,1.175869293e-12,1.850946584e-13,1.126267166e-12,4.213803972e-13,1.069062857e-12,6.70697753e-13,2.056054485e-12,2.444960368e-12,2.755799674e-12,1.990631219e-12,1.04452274e-12,2.637980023e-12,8.010386153e-13,9.013249214e-13,8.38981265e-13,2.417868649e-12,2.829884542e-13,3.46337698e-12,1.87498355e-12,9.450930457e-13,9.895262108e-13,1.573072186e-12,2.702603037e-12,3.529335518e-12
0.5703125,6.260462849e-13,1.111840132e-12,1.236716985e-12,1.656298356e-12,3.35689324e-12,2.380388053e-13,2.753140175e-12,1.077828901e-12,1.172958134e-12,1.865747614e-13,1.13146448e-12,4.23130413e-13,1.063019183e-12,6.82694561e-13,2.077190677e-12,2.461091728e-12,2.768668297e-12,2.016370343e-12,1.061106504e-12,2.665670583e-12,8.075320957e-13,8.967946728e-13,8.364371208e-13,2.411978425e-12,2.827702999e-13,3.479242066e-12,1.894921523e-12,9.462132598e-13,1.004815462e-12,1.583795803e-12,2.72695956e-12,3.525524758e-12
0.578125,6.259901868e-13,1.120184931e-12,1.234445011e-12,1.677556312e-12,3.36635546e-12,2.398031218e-13,2.777780465e-12,1.079415384e-12,1.1698074e-12,1.881193785e-13,1.13632463e-12,4.248204559e-13,1.056723827e-12,6.943306256e-13,2.097542908e-12,2.476071308e-12,2.780333507e-12,2.040768426e-12,1.077052434e-12,2.692480612e-12,8.139805065e-13,8.92050292e-13,8.337206108e-13,2.405712782e-12,2.823987193e-13,3.493935619e-12,1.914036542e-12,9.472669123e-13,1.019700464e-12,1.593936426e-12,2.750655135e-12,3.520565024e-12
0.5859375,6.257312222e-13,1.128380842e-12,1.232168909e-12,1.698250047e-12,3.375029689e-12,2.414687649e-13,2.80164175e-12,1.080666668e-12,1.166432207e-12,1.89840589e-13,1.141068455e-12,4.263890767e-13,1.05007505e-12,7.056803231e-13,2.11739442e-12,2.490510989e-12,2.791385787e-12,2.064170244e-12,1.092603444e-12,2.71952536e-12,8.202189519e-13,8.869644093e-13,8.309911982e-13,2.399665912e-12,2.819602525e-13,3.507931574e-12,1.93238282e-12,9.478819403e-13,1.034147775e-12,1.603818514e-12,2.773810711e-12,3.514649624e-12
0.59375,6.253324884e-13,1.136369945e-12,1.229705534e-12,1.718277985e-12,3.38231284e-12,2.429834523e-13,2.82430446e-12,1.081462725e-12,1.162763388e-12,1.915738071e-13,1.145379917e-12,4.279064802e-13,1.043131866e-12,7.167115399e-13,2.13633574e-12,2.504132229e-12,2.801040296e-12,2.086371022e-12,1.107834693e-12,2.746215823e-12,8.263884963e-13,8.816247317e-13,8.280739005e-13,2.393258037e-12,2.815943003e-13,3.520498566e-12,1.949510756e-12,9.484776921e-13,1.048251295e-12,1.61402343e-12,2.796323282e-12,3.507104491e-12
0.6015625,6.250053039e-13,1.144381205e-12,1.227004986e-12,1.737722725e-12,3.388247638e-12,2.443714171e-13,2.845786151e-12,1.081877768e-12,1.158898877e-12,1.932173227e-13,1.149219918e-12,4.295693162e-13,1.036049524e-12,7.275794207e-13,2.154684543e-12,2.516944759e-12,2.809382736e-12,2.107340864e-12,1.122667641e-12,2.771865516e-12,8.32658887e-13,8.761783128e-13,8.247996627e-13,2.385788011e-12,2.813580787e-13,3.531558284e-12,1.965683757e-12,9.494389405e-13,1.062314533e-12,1.62424394e-12,2.818376797e-12,3.497981612e-12
0.609375,6.247396361e-13,1.15252959e-12,1.224174497e-12,1.756915425e-12,3.39365847e-12,2.457388225e-13,2.866763333e-12,1.082016072e-12,1.154716006e-12,1.949877097e-13,1.152823574e-12,4.313096994e-13,1.028680365e-12,7.385261121e-13,2.172735691e-12,2.529486739e-12,2.817528757e-12,2.127613642e-12,1.137184281e-12,2.797343058e-12,8.389619271e-13,8.704764736e-13,8.213244175e-13,2.377609629e-12,2.811774547e-13,3.542017549e-12,1.981671197e-12,9.504959665e-13,1.076585451e-12,1.633913519e-12,2.840492534e-12,3.487913534e-12
0.6171875,6.24361579e-13,1.160561516e-12,1.221397972e-12,1.775769793e-12,3.398569437e-12,2.470916859e-13,2.886871688e-12,1.081788953e-12,1.1499835e-12,1.969617428e-13,1.156246638e-12,4.329249198e-13,1.020872314e-12,7.493822594e-13,2.189919954e-12,2.541418059e-12,2.824922809e-12,2.146985377e-12,1.151213151e-12,2.822584259e-12,8.452315323e-13,8.643832292e-13,8.178167568e-13,2.369169471e-12,2.809518954e-13,3.551802628e-12,1.997174714e-12,9.511078838e-13,1.090635217e-12,1.64308986e-12,2.862504541e-12,3.476841054e-12
0.625,6.239142873e-13,1.168379648e-12,1.218722921e-12,1.79376264e-12,3.40227997e-12,2.48319203e-13,2.905276924e-12,1.081113522e-12,1.144938002e-12,1.989447246e-13,1.159327359e-12,4.345162763e-13,1.012851088e-12,7.598310292e-13,2.205831336e-12,2.552011896e-12,2.830396931e-12,2.164773262e-12,1.164527376e-12,2.846475691e-12,8.514697315e-13,8.581353554e-13,8.142496051e-13,2.360342584e-12,2.807552767e-13,3.560063775e-12,2.01139319e-12,9.513708751e-13,1.104065841e-12,1.652082886e-12,2.88369972e-12,3.464362394e-12
0.6328125,6.235074045e-13,1.176089035e-12,1.216093661e-12,1.810653876e-12,3.404476887e-12,2.493493632e-13,2.9219183e-12,1.079963519e-12,1.13984546e-12,2.008946555e-13,1.161841495e-12,4.362190241e-13,1.004763649e-12,7.698277686e-13,2.220554746e-12,2.561298369e-12,2.834195471e-12,2.180879833e-12,1.177294923e-12,2.869119763e-12,8.576132719e-13,8.519535564e-13,8.105080482e-13,2.351030025e-12,2.805430028e-13,3.566616236e-12,2.024394994e-12,9.519047248e-13,1.117274425e-12,1.660661982e-12,2.903910676e-12,3.450455147e-12
0.640625,6.23012513e-13,1.183601127e-12,1.21342548e-12,1.826678501e-12,3.405272025e-12,2.502552036e-13,2.936973912e-12,1.078357168e-12,1.134465383e-12,2.028760915e-13,1.163863803e-12,4.378891052e-13,9.964118369e-13,7.794071569e-13,2.234239657e-12,2.569598434e-12,2.836763857e-12,2.195450739e-12,1.189631487e-12,2.890963832e-12,8.635900532e-13,8.456832309e-13,8.065215273e-13,2.341277177e-12,2.802068834e-13,3.571713832e-12,2.03650497e-12,9.526724625e-13,1.130421554e-12,1.66841562e-12,2.923316696e-12,3.435198908e-12
0.6484375,6.22375613e-13,1.19084333e-12,1.210604081e-12,1.841924895e-12,3.404820445e-12,2.510792814e-13,2.950543336e-12,1.076368677e-12,1.128649132e-12,2.048752899e-13,1.165631755e-12,4.394675055e-13,9.877514969e-13,7.885910928e-13,2.246914202e-12,2.576961765e-12,2.838033386e-12,2.208608986e-12,1.201411137e-12,2.911848503e-12,8.694564003e-13,8.391680886e-13,8.023831094e-13,2.331140572e-12,2.799275626e-13,3.575463715e-12,2.047526064e-12,9.532397964e-13,1.142974181e-12,1.675826837e-12,2.941735554e-12,3.4186746e-12
0.65625,6.217971418e-13,1.197960596e-12,1.207744793e-12,1.856213568e-12,3.403244027e-12,2.517491861e-13,2.962658424e-12,1.073963066e-12,1.122655056e-12,2.069556687e-13,1.167023268e-12,4.41086296e-13,9.790079685e-13,7.974852947e-13,2.258410658e-12,2.58331656e-12,2.837999221e-12,2.220494833e-12,1.212618932e-12,2.931873947e-12,8.754166842e-13,8.325505884e-13,7.982151439e-13,2.320696691e-12,2.797283885e-13,3.577908875e-12,2.057321131e-12,9.537655914e-13,1.154848252e-12,1.683642553e-12,2.959070481e-12,3.401097206e-12
0.6640625,6.213476456e-13,1.205029024e-12,1.205101282e-12,1.869608704e-12,3.400596709e-12,2.523368242e-13,2.973145911e-12,1.071097259e-12,1.116598481e-12,2.091073275e-13,1.167940628e-12,4.427289453e-13,9.702544229e-13,8.061459563e-13,2.268961944e-12,2.58881141e-12,2.836682325e-12,2.231073621e-12,1.22335286e-12,2.951057994e-12,8.815263117e-13,8.259835149e-13,7.940106385e-13,2.309783532e-12,2.793645823e-13,3.579056278e-12,2.066151297e-12,9.54486574e-13,1.166531978e-12,1.691606778e-12,2.97568746e-12,3.382540103e-12
0.671875,6.209176439e-13,1.211969446e-12,1.20258937e-12,1.882222356e-12,3.396855976e-12,2.529478787e-13,2.982116399e-12,1.06787532e-12,1.11035023e-12,2.111877446e-13,1.168707054e-12,4.442918839e-13,9.613879399e-13,8.144773703e-13,2.278963836e-12,2.593660219e-12,2.834282911e-12,2.240368047e-12,1.233644942e-12,2.969226415e-12,8.874208017e-13,8.194389622e-13,7.898321552e-13,2.298452023e-12,2.789283792e-13,3.578924702e-12,2.074180722e-12,9.552324072e-13,1.178154284e-12,1.699249376e-12,2.991718236e-12,3.362966391e-12
0.6796875,6.204928696e-13,1.218677289e-12,1.200062605e-12,1.89381252e-12,3.391848175e-12,2.53409408e-13,2.989653903e-12,1.06420202e-12,1.103860931e-12,2.133229233e-13,1.169388132e-12,4.457919747e-13,9.523969832e-13,8.222816524e-13,2.287676763e-12,2.597316132e-12,2.830739534e-12,2.248259259e-12,1.243278351e-12,2.98655119e-12,8.928019097e-13,8.128698003e-13,7.857365965e-13,2.287342354e-12,2.785775492e-13,3.577494865e-12,2.08119098e-12,9.559009973e-13,1.189395615e-12,1.70656118e-12,3.006711345e-12,3.342399645e-12
0.6875,6.201287237e-13,1.225093965e-12,1.197663991e-12,1.904297064e-12,3.385312919e-12,2.536548343e-13,2.995230409e-12,1.059810563e-12,1.097126122e-12,2.157137959e-13,1.16949296e-12,4.47284948e-13,9.43357435e-13,8.295273536e-13,2.294416108e-12,2.599150324e-12,2.825303309e-12,2.254374062e-12,1.252045087e-12,3.002802707e-12,8.979796211e-13,8.062652312e-13,7.81464019e-13,2.27630373e-12,2.780770887e-13,3.574514756e-12,2.086980731e-12,9.565952605e-13,1.200059034e-12,1.713455255e-12,3.020375905e-12,3.320561506e-12
0.6953125,6.198863475e-13,1.231328734e-12,1.195311507e-12,1.914097331e-12,3.377412142e-12,2.539587822e-13,2.99901332e-12,1.054862143e-12,1.090087303e-12,2.181935372e-13,1.168806907e-12,4.488413635e-13,9.342756215e-13,8.36632123e-13,2.300294101e-12,2.60005698e-12,2.818282583e-12,2.25923322e-12,1.260424329e-12,3.017680586e-12,9.033666649e-13,7.995965355e-13,7.768438056e-13,2.264129916e-12,2.773233422e-13,3.569920981e-12,2.091877883e-12,9.575104335e-13,1.210457706e-12,1.7202997e-12,3.033151329e-12,3.297147039e-12
0.703125,6.198061916e-13,1.237539761e-12,1.192719587e-12,1.923485462e-12,3.368730373e-12,2.543535938e-13,3.002037865e-12,1.049750064e-12,1.082751655e-12,2.205889941e-13,1.167904056e-12,4.504984626e-13,9.25073761e-13,8.438734667e-13,2.306195425e-12,2.60107458e-12,2.811097477e-12,2.263759118e-12,1.268935643e-12,3.03180275e-12,9.088602155e-13,7.928674706e-13,7.721935665e-13,2.250823036e-12,2.766055749e-13,3.564164144e-12,2.096326656e-12,9.586870667e-13,1.220985685e-12,1.727642315e-12,3.045477613e-12,3.272672238e-12
0.7109375,6.197473581e-13,1.243575184e-12,1.189995613e-12,1.932049958e-12,3.359292852e-12,2.54542803e-13,3.003932458e-12,1.04440076e-12,1.075241834e-12,2.22986711e-13,1.167264724e-12,4.52106064e-13,9.157212378e-13,8.506528357e-13,2.311077571e-12,2.601408841e-12,2.803303802e-12,2.26718677e-12,1.276940228e-12,3.045256719e-12,9.141372549e-13,7.861219545e-13,7.677406003e-13,2.237745884e-12,2.760702299e-13,3.557336794e-12,2.09997568e-12,9.596695643e-13,1.231232814e-12,1.734605493e-12,3.056759489e-12,3.247780781e-12
0.71875,6.195550945e-13,1.249125548e-12,1.187289476e-12,1.939186644e-12,3.348333966e-12,2.544579028e-13,3.003284134e-12,1.038494198e-12,1.067646281e-12,2.254148693e-13,1.166385044e-12,4.535259367e-13,9.063089622e-13,8.563579664e-13,2.314012762e-12,2.600082206e-12,2.793148334e-12,2.268170973e-12,1.283631557e-12,3.05714081e-12,9.190371001e-13,7.793924369e-13,7.632572872e-13,2.225205442e-12,2.754730506e-13,3.548750609e-12,2.102073965e-12,9.601058033e-13,1.240537314e-12,1.740176973e-12,3.066108455e-12,3.22208421e-12
0.7265625,6.193748681e-13,1.254267228e-12,1.184523144e-12,1.944980201e-12,3.335489497e-12,2.542707932e-13,3.000364179e-12,1.032047919e-12,1.05989679e-12,2.277837373e-13,1.164726699e-12,4.548981375e-13,8.969710808e-13,8.614874619e-13,2.315530947e-12,2.597515828e-12,2.780966678e-12,2.26726158e-12,1.28945535e-12,3.067632857e-12,9.235432488e-13,7.727284421e-13,7.585694963e-13,2.212340714e-12,2.746735863e-13,3.538204714e-12,2.102762468e-12,9.604661267e-13,1.249289428e-12,1.745033506e-12,3.0739492e-12,3.19502351e-12
0.734375,6.193895254e-13,1.259367341e-12,1.181869231e-12,1.950058457e-12,3.321312816e-12,2.540798926e-13,2.996515258e-12,1.025249748e-12,1.051905374e-12,2.300543882e-13,1.162669513e-12,4.563908417e-13,8.877559765e-13,8.66791187e-13,2.316319186e-12,2.594304248e-12,2.7683337e-12,2.26569685e-12,1.295176978e-12,3.07768732e-12,9.278178133e-13,7.661717036e-13,7.537811055e-13,2.198864745e-12,2.739577615e-13,3.526524269e-12,2.102906694e-12,9.613164425e-13,1.25830847e-12,1.74983593e-12,3.081379274e-12,3.166908439e-12
0.7421875,6.19488243e-13,1.264470563e-12,1.179380558e-12,1.954567399e-12,3.306281155e-12,2.538434789e-13,2.991651879e-12,1.018062748e-12,1.043685151e-12,2.323417982e-13,1.160549199e-12,4.579114855e-13,8.785276286e-13,8.720143374e-13,2.316147645e-12,2.590403187e-12,2.755201484e-12,2.263302139e-12,1.300596234e-12,3.086961677e-12,9.320314477e-13,7.59662685e-13,7.489878387e-13,2.18531478e-12,2.733337856e-13,3.514109153e-12,2.102643081e-12,9.623985079e-13,1.267460255e-12,1.754272604e-12,3.088293747e-12,3.138175692e-12
0.75,6.194893497e-13,1.269237364e-12,1.176627591e-12,1.958034175e-12,3.290143313e-12,2.534214696e-13,2.984707959e-12,1.010332895e-12,1.035242428e-12,2.348524137e-13,1.158206466e-12,4.592901486e-13,8.690929939e-13,8.764435991e-13,2.314305751e-12,2.585365573e-12,2.740483621e-12,2.259200255e-12,1.30499917e-12,3.094343159e-12,9.359941965e-13,7.531306426e-13,7.441987623e-13,2.172284924e-12,2.722394263e-13,3.500294682e-12,2.10113854e-12,9.631265471e-13,1.275965997e-12,1.758252399e-12,3.093666847e-12,3.108842535e-12
0.7578125,6.19371803e-13,1.273438914e-12,1.173625559e-12,1.960126758e-12,3.272452034e-12,2.527932868e-13,2.975482952e-12,1.002070416e-12,1.026633576e-12,2.374940467e-13,1.155618706e-12,4.605526308e-13,8.595467572e-13,8.799779985e-13,2.310802664e-12,2.578663765e-12,2.723879573e-12,2.253131521e-12,1.308211786e-12,3.099618374e-12,9.394607711e-13,7.466345758e-13,7.393849148e-13,2.15966752e-12,2.706790141e-13,3.484610142e-12,2.097934334e-12,9.63535186e-13,1.283496335e-12,1.761609087e-12,3.097058818e-12,3.078896041e-12
0.765625,6.192173809e-13,1.277161492e-12,1.170855007e-12,1.960905754e-12,3.253145999e-12,2.521305071e-13,2.964661623e-12,9.934382837e-13,1.018037264e-12,2.399325345e-13,1.152601166e-12,4.618592858e-13,8.501752585e-13,8.829931326e-13,2.306454742e-12,2.570580429e-12,2.705940929e-12,2.245553752e-12,1.310767632e-12,3.103437835e-12,9.426320312e-13,7.402599507e-13,7.344959656e-13,2.146552977e-12,2.693375614e-13,3.467316239e-12,2.093514277e-12,9.641015512e-13,1.290467603e-12,1.763995416e-12,3.098770391e-12,3.048261595e-12
0.7734375,6.191606305e-13,1.28057751e-12,1.16827076e-12,1.960616371e-12,3.232481874e-12,2.514379275e-13,2.952709414e-12,9.845516498e-13,1.009449359e-12,2.421870011e-13,1.148899152e-12,4.632652703e-13,8.409492462e-13,8.856722796e-13,2.301403152e-12,2.561933083e-12,2.687210374e-12,2.237053842e-12,1.313024304e-12,3.106334569e-12,9.457460869e-13,7.339921017e-13,7.295807911e-13,2.132559915e-12,2.682452792e-13,3.448613835e-12,2.088262902e-12,9.648761024e-13,1.297327408e-12,1.765852379e-12,3.099152774e-12,3.016765867e-12
0.78125,6.192693039e-13,1.283732107e-12,1.165711132e-12,1.959518977e-12,3.210693492e-12,2.505766395e-13,2.939401492e-12,9.75385334e-13,1.000653209e-12,2.444949142e-13,1.144869864e-12,4.646987292e-13,8.316209123e-13,8.879527048e-13,2.294990515e-12,2.552624074e-12,2.667647818e-12,2.227648087e-12,1.314708625e-12,3.108287457e-12,9.486517795e-13,7.277833296e-13,7.24732726e-13,2.118353886e-12,2.669744978e-13,3.428450905e-12,2.082001563e-12,9.654125086e-13,1.30380976e-12,1.767592577e-12,3.098335771e-12,2.984442533e-12
0.7890625,6.193739122e-13,1.28656634e-12,1.163284184e-12,1.957716835e-12,3.187890269e-12,2.496417587e-13,2.924461989e-12,9.65893417e-13,9.916351535e-13,2.468405397e-13,1.140738184e-12,4.661098191e-13,8.222315471e-13,8.898504619e-13,2.287295926e-12,2.542227732e-12,2.647087836e-12,2.217083341e-12,1.315719071e-12,3.109067577e-12,9.512242968e-13,7.216236108e-13,7.198773296e-13,2.104231277e-12,2.6564162e-13,3.406921396e-12,2.074807026e-12,9.65491896e-13,1.309602251e-12,1.768877907e-12,3.096396038e-12,2.951460075e-12
0.796875,6.192349496e-13,1.289035976e-12,1.160623897e-12,1.955136012e-12,3.164162053e-12,2.487413634e-13,2.90819169e-12,9.561663946e-13,9.825569498e-13,2.491526825e-13,1.136293991e-12,4.674482326e-13,8.129661489e-13,8.914255009e-13,2.278957174e-12,2.531178467e-12,2.625855272e-12,2.205600811e-12,1.316321835e-12,3.108576984e-12,9.535371481e-13,7.155345837e-13,7.148899177e-13,2.089826874e-12,2.643467878e-13,3.384208662e-12,2.067017117e-12,9.654509981e-13,1.315152557e-12,1.769584467e-12,3.093415621e-12,2.918047928e-12
0.8046875,6.189239476e-13,1.291141335e-12,1.157517627e-12,1.951645949e-12,3.139493919e-12,2.477440335e-13,2.89078216e-12,9.462902978e-13,9.734278366e-13,2.514455596e-13,1.131588716e-12,4.68674575e-13,8.037706083e-13,8.926151275e-13,2.269814371e-12,2.519704547e-12,2.604031104e-12,2.19339618e-12,1.316410743e-12,3.106749065e-12,9.555662588e-13,7.095288617e-13,7.098306028e-13,2.075081582e-12,2.627864626e-13,3.360401578e-12,2.05849191e-12,9.656456544e-13,1.320719396e-12,1.769851438e-12,3.089211538e-12,2.884382763e-12
0.8125,6.187705318e-13,1.292947131e-12,1.154704519e-12,1.947261472e-12,3.113715501e-12,2.466259849e-13,2.871864065e-12,9.361049768e-13,9.641398078e-13,2.536862489e-13,1.126446261e-12,4.699132069e-13,7.945328187e-13,8.934525338e-13,2.2593428e-12,2.507236379e-12,2.581070796e-12,2.180187445e-12,1.315808133e-12,3.10355912e-12,9.573071017e-13,7.035599115e-13,7.04842306e-13,2.059988131e-12,2.61030259e-13,3.335480564e-12,2.049011257e-12,9.65846072e-13,1.325814216e-12,1.769764953e-12,3.083577383e-12,2.850138823e-12
0.8203125,6.188124924e-13,1.294532156e-12,1.152376736e-12,1.942216342e-12,3.086798333e-12,2.455057006e-13,2.851529795e-12,9.254541157e-13,9.546040761e-13,2.558806505e-13,1.120648619e-12,4.712315874e-13,7.852781161e-13,8.940834139e-13,2.247686422e-12,2.493657085e-12,2.556955596e-12,2.166048858e-12,1.314734914e-12,3.099185443e-12,9.588401839e-13,6.97606334e-13,6.999961866e-13,2.044383954e-12,2.594357222e-13,3.309328624e-12,2.038816819e-12,9.656299666e-13,1.330339833e-12,1.769588549e-12,3.076823273e-12,2.814943064e-12
0.828125,6.187007043e-13,1.29579615e-12,1.149731161e-12,1.93656202e-12,3.058883255e-12,2.443318705e-13,2.830260729e-12,9.144885212e-13,9.448122633e-13,2.580540893e-13,1.114870138e-12,4.723923984e-13,7.760006392e-13,8.943349327e-13,2.235190476e-12,2.479373289e-12,2.532196711e-12,2.151258633e-12,1.31315112e-12,3.093840728e-12,9.600478499e-13,6.917667364e-13,6.952956708e-13,2.028773901e-12,2.579226633e-13,3.281907263e-12,2.028037117e-12,9.650810737e-13,1.334742106e-12,1.769035845e-12,3.069217111e-12,2.779168398e-12
0.8359375,6.18391174e-13,1.296651089e-12,1.14677786e-12,1.930115278e-12,3.029940607e-12,2.430598511e-13,2.807694723e-12,9.033209078e-13,9.348719542e-13,2.601967763e-13,1.109376093e-12,4.732774079e-13,7.666837431e-13,8.939177717e-13,2.221778305e-12,2.464369475e-12,2.506638839e-12,2.135519496e-12,1.310808224e-12,3.087380256e-12,9.607741082e-13,6.861077563e-13,6.906615538e-13,2.013898761e-12,2.562362185e-13,3.25332989e-12,2.01648791e-12,9.644319246e-13,1.339052057e-12,1.767334401e-12,3.060462541e-12,2.743149408e-12
0.84375,6.182461788e-13,1.297337629e-12,1.144145131e-12,1.922970261e-12,2.999868211e-12,2.41821759e-13,2.783461688e-12,8.918391287e-13,9.248378271e-13,2.623361563e-13,1.103431556e-12,4.7413265e-13,7.574527691e-13,8.930349008e-13,2.20741009e-12,2.448532284e-12,2.479976811e-12,2.118751076e-12,1.307979778e-12,3.07940785e-12,9.610777049e-13,6.805330273e-13,6.860140875e-13,1.999359477e-12,2.544942756e-13,3.22363355e-12,2.004201439e-12,9.636515314e-13,1.343091971e-12,1.764710184e-12,3.05044699e-12,2.706489098e-12
0.8515625,6.182187245e-13,1.297921892e-12,1.141524094e-12,1.915230156e-12,2.968763074e-12,2.406281372e-13,2.758220366e-12,8.800874821e-13,9.146574518e-13,2.644549363e-13,1.096996018e-12,4.750626393e-13,7.483830932e-13,8.919869905e-13,2.192285382e-12,2.432070786e-12,2.452684434e-12,2.101474112e-12,1.304908348e-12,3.070073558e-12,9.610296274e-13,6.749303818e-13,6.81402267e-13,1.984136587e-12,2.528944701e-13,3.192746198e-12,1.991354915e-12,9.62769364e-13,1.346904717e-12,1.761978442e-12,3.039392911e-12,2.669040866e-12
0.859375,6.179212974e-13,1.298024954e-12,1.138389621e-12,1.906654592e-12,2.936757299e-12,2.393000994e-13,2.732183495e-12,8.681850633e-13,9.043884268e-13,2.665681779e-13,1.09044097e-12,4.758881321e-13,7.393735893e-13,8.905550805e-13,2.176302573e-12,2.414910735e-12,2.425049999e-12,2.083674215e-12,1.301269783e-12,3.060038704e-12,9.606713387e-13,6.693417525e-13,6.768755241e-13,1.968335837e-12,2.512673072e-13,3.160679552e-12,1.977905042e-12,9.617873601e-13,1.350343887e-12,1.759227221e-12,3.027250471e-12,2.631295308e-12
0.8671875,6.174474509e-13,1.297649896e-12,1.135016029e-12,1.89730252e-12,2.903949071e-12,2.377616941e-13,2.704749422e-12,8.560719159e-13,8.941502394e-13,2.687564703e-13,1.083500809e-12,4.765738549e-13,7.304128642e-13,8.885543306e-13,2.15928981e-12,2.396789631e-12,2.396602793e-12,2.06497808e-12,1.296930204e-12,3.049257287e-12,9.600690667e-13,6.639323085e-13,6.724026106e-13,1.952864199e-12,2.494104694e-13,3.127570998e-12,1.963702602e-12,9.606219841e-13,1.353247101e-12,1.756265437e-12,3.014038026e-12,2.593529173e-12
0.875,6.170709909e-13,1.297193837e-12,1.131695558e-12,1.887554065e-12,2.870573038e-12,2.361480762e-13,2.676281714e-12,8.438967925e-13,8.839164801e-13,2.708234618e-13,1.076270447e-12,4.772498753e-13,7.215825164e-13,8.863808781e-13,2.14177202e-12,2.378170667e-12,2.367367407e-12,2.045748793e-12,1.292209157e-12,3.037195727e-12,9.59139881e-13,6.58758879e-13,6.680410575e-13,1.93762054e-12,2.475567159e-13,3.093665427e-12,1.948829029e-12,9.595152453e-13,1.355958371e-12,1.752902277e-12,3.000080148e-12,2.555662935e-12
0.8828125,6.166740177e-13,1.296569757e-12,1.12828625e-12,1.877505599e-12,2.836826562e-12,2.346295405e-13,2.647747123e-12,8.319358126e-13,8.735839428e-13,2.725736549e-13,1.069235936e-12,4.779422397e-13,7.127683335e-13,8.84405663e-13,2.124345425e-12,2.359809675e-12,2.338223003e-12,2.026526591e-12,1.287313099e-12,3.024205908e-12,9.578025911e-13,6.536227275e-13,6.638674466e-13,1.921947386e-12,2.459967668e-13,3.059212926e-12,1.933730516e-12,9.585064888e-13,1.358828118e-12,1.748614035e-12,2.985499048e-12,2.517643598e-12
0.890625,6.161995442e-13,1.295543009e-12,1.124721974e-12,1.867145796e-12,2.802599212e-12,2.331614919e-13,2.618926212e-12,8.199293814e-13,8.630955658e-13,2.743071837e-13,1.0621992e-12,4.785710879e-13,7.038534462e-13,8.823721941e-13,2.106478793e-12,2.341421656e-12,2.309340654e-12,2.007104635e-12,1.282207767e-12,3.010786746e-12,9.561986372e-13,6.483567383e-13,6.597713666e-13,1.906258486e-12,2.446025203e-13,3.02418237e-12,1.918661664e-12,9.570393754e-13,1.361638286e-12,1.74336316e-12,2.970309578e-12,2.479380753e-12
0.8984375,6.157761386e-13,1.294275326e-12,1.121144358e-12,1.856334844e-12,2.767684112e-12,2.315376125e-13,2.588977934e-12,8.075006068e-13,8.524981261e-13,2.762023993e-13,1.054693921e-12,4.790797403e-13,6.949993412e-13,8.798096455e-13,2.087253896e-12,2.322122093e-12,2.279725528e-12,1.986980977e-12,1.276722428e-12,2.9963566e-12,9.543910009e-13,6.430935105e-13,6.556320878e-13,1.891078562e-12,2.431098991e-13,2.988299841e-12,1.903151061e-12,9.550626949e-13,1.364046424e-12,1.737956552e-12,2.954581453e-12,2.440759225e-12
0.90625,6.153031236e-13,1.292828966e-12,1.117630821e-12,1.844756285e-12,2.732137254e-12,2.297628413e-13,2.558059847e-12,7.948908469e-13,8.419186898e-13,2.779594651e-13,1.046648573e-12,4.795307408e-13,6.863157391e-13,8.767603822e-13,2.066953952e-12,2.302005745e-12,2.249167903e-12,1.966231233e-12,1.270763061e-12,2.980496285e-12,9.522104422e-13,6.379851484e-13,6.515072077e-13,1.875791822e-12,2.414598875e-13,2.951542504e-12,1.886862576e-12,9.532159179e-13,1.366157406e-12,1.732880616e-12,2.938216327e-12,2.401835356e-12
0.9140625,6.146889919e-13,1.291138234e-12,1.114017805e-12,1.832646001e-12,2.696078763e-12,2.280142812e-13,2.527061628e-12,7.823546244e-13,8.313215439e-13,2.795295959e-13,1.038315349e-12,4.800293548e-13,6.776547332e-13,8.736390221e-13,2.046413902e-12,2.281771687e-12,2.218805854e-12,1.945463473e-12,1.264583386e-12,2.963772313e-12,9.495648533e-13,6.329499964e-13,6.474672842e-13,1.859939313e-12,2.397709351e-13,2.914169185e-12,1.870282684e-12,9.515524059e-13,1.368322672e-12,1.727741496e-12,2.921208433e-12,2.362717278e-12
0.921875,6.139940714e-13,1.289206626e-12,1.110145475e-12,1.820315442e-12,2.65928576e-12,2.26268916e-13,2.495949103e-12,7.696501645e-13,8.205171476e-13,2.811529744e-13,1.029938307e-12,4.805177692e-13,6.68929728e-13,8.704140643e-13,2.025409502e-12,2.26119017e-12,2.188656999e-12,1.924655921e-12,1.258187448e-12,2.946245394e-12,9.465257333e-13,6.27864481e-13,6.43494091e-13,1.843994041e-12,2.382299491e-13,2.876095554e-12,1.853575847e-12,9.494875385e-13,1.370538882e-12,1.721787647e-12,2.903532473e-12,2.323335188e-12
0.9296875,6.131356428e-13,1.286741965e-12,1.106201465e-12,1.807253837e-12,2.62160473e-12,2.244555018e-13,2.46363985e-12,7.567284555e-13,8.095467567e-13,2.828113464e-13,1.021347635e-12,4.808948548e-13,6.601975283e-13,8.667199778e-13,2.003478603e-12,2.239571282e-12,2.157292063e-12,1.902947177e-12,1.251003267e-12,2.92723931e-12,9.431113055e-13,6.227256953e-13,6.395689906e-13,1.828357787e-12,2.368623509e-13,2.836950203e-12,1.836190621e-12,9.468589138e-13,1.372449937e-12,1.714607149e-12,2.884788813e-12,2.283588709e-12
0.9375,6.121229746e-13,1.283637911e-12,1.102295733e-12,1.793373167e-12,2.583500532e-12,2.226702162e-13,2.430109231e-12,7.439131242e-13,7.9861263e-13,2.844260599e-13,1.012434994e-12,4.812397154e-13,6.51482066e-13,8.627774939e-13,1.981244032e-12,2.217115515e-12,2.124799542e-12,1.880423097e-12,1.243108492e-12,2.907014956e-12,9.392554704e-13,6.176005885e-13,6.356940633e-13,1.812835147e-12,2.355201053e-13,2.79695587e-12,1.818264541e-12,9.440789079e-13,1.374077849e-12,1.70669537e-12,2.865132924e-12,2.243668036e-12
0.9453125,6.111319758e-13,1.280433163e-12,1.098174892e-12,1.779532922e-12,2.545390939e-12,2.20889473e-13,2.39665329e-12,7.312368361e-13,7.876787994e-13,2.860578312e-13,1.003515066e-12,4.815982171e-13,6.427895933e-13,8.590471616e-13,1.959079716e-12,2.194385669e-12,2.092597502e-12,1.858206815e-12,1.235370341e-12,2.886495103e-12,9.349855214e-13,6.125330014e-13,6.318893819e-13,1.796904132e-12,2.342048139e-13,2.756763675e-12,1.800557575e-12,9.413633792e-13,1.375823048e-12,1.698807534e-12,2.845477261e-12,2.203863722e-12
0.953125,6.100496365e-13,1.277250776e-12,1.093950981e-12,1.765816791e-12,2.507068363e-12,2.190153889e-13,2.363406347e-12,7.184997404e-13,7.766235679e-13,2.876546389e-13,9.945161808e-13,4.818379339e-13,6.341348979e-13,8.552377761e-13,1.936246563e-12,2.171377648e-12,2.060598078e-12,1.836200656e-12,1.227733559e-12,2.86548803e-12,9.303931939e-13,6.07491995e-13,6.281987635e-13,1.780599668e-12,2.329897826e-13,2.71637556e-12,1.78297723e-12,9.383945039e-13,1.377566254e-12,1.690576938e-12,2.82585998e-12,2.16418802e-12
0.9609375,6.087041893e-13,1.273616828e-12,1.090050645e-12,1.751537495e-12,2.468454361e-12,2.172052843e-13,2.329545025e-12,7.057680995e-13,7.655424672e-13,2.891390631e-13,9.851755053e-13,4.819257865e-13,6.255191011e-13,8.509329229e-13,1.912647997e-12,2.148064461e-12,2.028128181e-12,1.813529906e-12,1.219425374e-12,2.843439413e-12,9.254661072e-13,6.024500526e-13,6.246296954e-13,1.764772325e-12,2.317793045e-13,2.675459354e-12,1.764984843e-12,9.350003988e-13,1.378914234e-12,1.681214461e-12,2.8055992e-12,2.124618483e-12
0.96875,6.074037569e-13,1.269671432e-12,1.086449745e-12,1.736753126e-12,2.429923772e-12,2.155873113e-13,2.295667375e-12,6.932077223e-13,7.545435392e-13,2.906162256e-13,9.758277853e-13,4.819843944e-13,6.169324517e-13,8.464721557e-13,1.889129818e-12,2.124760094e-12,1.995889796e-12,1.790708047e-12,1.210681632e-12,2.821229715e-12,9.202914847e-13,5.974069555e-13,6.211323764e-13,1.74962315e-12,2.305245947e-13,2.634438743e-12,1.746804641e-12,9.314944678e-13,1.380143595e-12,1.671309896e-12,2.785077279e-12,2.085324178e-12
0.9765625,6.060507571e-13,1.265747326e-12,1.08244731e-12,1.721907359e-12,2.391476284e-12,2.138356699e-13,2.262556729e-12,6.808206876e-13,7.435600702e-13,2.921650527e-13,9.663038633e-13,4.819969361e-13,6.08289505e-13,8.42149123e-13,1.865789257e-12,2.101550806e-12,1.964431416e-12,1.76849755e-12,1.202088836e-12,2.799152762e-12,9.149644042e-13,5.922805582e-13,6.176535794e-13,1.733886797e-12,2.293589939e-13,2.593506944e-12,1.72889098e-12,9.279502478e-13,1.381602988e-12,1.661849835e-12,2.764881129e-12,2.046166627e-12
0.984375,6.044895225e-13,1.261688097e-12,1.078438257e-12,1.707006656e-12,2.35305395e-12,2.117851224e-13,2.229513924e-12,6.686094756e-13,7.325805065e-13,2.936190227e-13,9.563448329e-13,4.818257683e-13,5.996141843e-13,8.376523831e-13,1.842184167e-12,2.078281982e-12,1.933209267e-12,1.746332892e-12,1.193373153e-12,2.77647049e-12,9.093761616e-13,5.870960787e-13,6.142251468e-13,1.717812648e-12,2.2837806e-13,2.552422806e-12,1.711120634e-12,9.242490366e-13,1.38303092e-12,1.652154431e-12,2.74461425e-12,2.007107015e-12
0.9921875,6.026208651e-13,1.25727805e-12,1.074544553e-12,1.692119787e-12,2.314886224e-12,2.097200945e-13,2.196132044e-12,6.566158385e-13,7.216725202e-13,2.94891302e-13,9.46229995e-13,4.814803307e-13,5.911018115e-13,8.329809383e-13,1.818482916e-12,2.054974714e-12,1.902123714e-12,1.723996591e-12,1.184296346e-12,2.75288233e-12,9.034066267e-13,5.820120726e-13,6.109655602e-13,1.702298681e-12,2.275788568e-13,2.511083103e-12,1.693447073e-12,9.203328008e-13,1.384506707e-12,1.641297122e-12,2.723962038e-12,1.968341235e-12
1,6.005667461e-13,1.252831832e-12,1.070282003e-12,1.677361324e-12,2.277091062e-12,2.07870513e-13,2.163286499e-12,6.448388942e-13,7.107892572e-13,2.961146315e-13,9.366727228e-13,4.810773117e-13,5.827515343e-13,8.285746989e-13,1.795201161e-12,2.031832049e-12,1.871594981e-12,1.702220491e-12,1.175155415e-12,2.729214723e-12,8.97101475e-13,5.770247119e-13,6.079397783e-13,1.686864556e-12,2.270087045e-13,2.469761935e-12,1.675892551e-12,9.163803553e-13,1.386233286e-12,1.629941102e-12,2.703429823e-12,1.92987901e-12
1.0078125,5.984114947e-13,1.248375104e-12,1.065475144e-12,1.662663534e-12,2.239444909e-12,2.061318826e-13,2.131097198e-12,6.332186408e-13,6.998769881e-13,2.972712314e-13,9.276326124e-13,4.806254734e-13,5.743777198e-13,8.244537086e-13,1.772305667e-12,2.008912262e-12,1.841582517e-12,1.681025798e-12,1.165973351e-12,2.705483534e-12,8.903495749e-13,5.720053852e-13,6.049852829e-13,1.671070015e-12,2.265981226e-13,2.428366554e-12,1.658204904e-12,9.124153728e-13,1.38776784e-12,1.618917989e-12,2.683018584e-12,1.891543897e-12
1.015625,5.96066252e-13,1.243680913e-12,1.060228106e-12,1.64793499e-12,2.201783224e-12,2.042915835e-13,2.098909828e-12,6.216336169e-13,6.890104356e-13,2.98376085e-13,9.181046761e-13,4.80057545e-13,5.660050416e-13,8.202272264e-13,1.749221905e-12,1.985931868e-12,1.811771535e-12,1.659790401e-12,1.15664533e-12,2.681021987e-12,8.831788412e-13,5.669656273e-13,6.019475106e-13,1.655305006e-12,2.26158012e-13,2.386805419e-12,1.640474358e-12,9.083184451e-13,1.38897692e-12,1.607830809e-12,2.662476447e-12,1.853367698e-12
1.0234375,5.934441738e-13,1.238724811e-12,1.054635495e-12,1.63303041e-12,2.164257732e-12,2.022918838e-13,2.066863895e-12,6.100285031e-13,6.782344514e-13,2.995518954e-13,9.075148002e-13,4.793355894e-13,5.577744607e-13,8.15815118e-13,1.72568892e-12,1.962703002e-12,1.782040016e-12,1.63862099e-12,1.147365243e-12,2.65616072e-12,8.759125531e-13,5.619604632e-13,5.989567219e-13,1.639524646e-12,2.257299498e-13,2.34552994e-12,1.623133587e-12,9.041865195e-13,1.390329224e-12,1.596292882e-12,2.642079313e-12,1.815494644e-12
1.03125,5.906642723e-13,1.233701739e-12,1.049013708e-12,1.618072048e-12,2.127317444e-12,2.00295538e-13,2.035619598e-12,5.985629916e-13,6.675526989e-13,3.006760654e-13,8.966180913e-13,4.785943448e-13,5.49693056e-13,8.115619338e-13,1.70225897e-12,1.939590679e-12,1.752746211e-12,1.618061304e-12,1.138199697e-12,2.631775529e-12,8.684806215e-13,5.569494843e-13,5.961424611e-13,1.623762801e-12,2.255418963e-13,2.304961207e-12,1.606311485e-12,9.000382252e-13,1.392038662e-12,1.584625763e-12,2.622313257e-12,1.778099451e-12
1.0390625,5.879591994e-13,1.228917229e-12,1.043506318e-12,1.603454142e-12,2.091129665e-12,1.983968917e-13,2.005167155e-12,5.873650921e-13,6.570339109e-13,3.017299883e-13,8.861878844e-13,4.780725683e-13,5.41701459e-13,8.076327575e-13,1.679278287e-12,1.916768493e-12,1.724246306e-12,1.597997726e-12,1.128950814e-12,2.607810876e-12,8.605934161e-13,5.519079953e-13,5.933687744e-13,1.608456054e-12,2.255766324e-13,2.264922973e-12,1.589913609e-12,8.955833669e-13,1.394063202e-12,1.572744605e-12,2.603474648e-12,1.741258815e-12
1.046875,5.853638493e-13,1.224326148e-12,1.037729087e-12,1.589064258e-12,2.055117532e-12,1.964418194e-13,1.974887278e-12,5.763247991e-13,6.466116025e-13,3.02973909e-13,8.758624031e-13,4.776857425e-13,5.336813198e-13,8.037561609e-13,1.656338204e-12,1.893833539e-12,1.696109296e-12,1.577944277e-12,1.119539973e-12,2.583339631e-12,8.524433816e-13,5.468483047e-13,5.905402237e-13,1.593271281e-12,2.255965686e-13,2.224815307e-12,1.573792786e-12,8.908328372e-13,1.396267138e-12,1.560257859e-12,2.585239682e-12,1.704589521e-12
1.0546875,5.825941092e-13,1.219492341e-12,1.031330129e-12,1.574505452e-12,2.018885244e-12,1.943678492e-13,1.944649526e-12,5.653827388e-13,6.36108901e-13,3.042444363e-13,8.652329838e-13,4.771061176e-13,5.255458282e-13,7.997498616e-13,1.633404868e-12,1.870780571e-12,1.668003417e-12,1.557935494e-12,1.110048293e-12,2.558164956e-12,8.4419958e-13,5.417476001e-13,5.877900825e-13,1.577602346e-12,2.256239097e-13,2.184305517e-12,1.557726696e-12,8.861092009e-13,1.39841534e-12,1.547483229e-12,2.566901766e-12,1.667782809e-12
1.0625,5.794188415e-13,1.214332366e-12,1.024416044e-12,1.559902939e-12,1.982872643e-12,1.923396101e-13,1.914911682e-12,5.546582265e-13,6.256379083e-13,3.05235139e-13,8.54417638e-13,4.763567162e-13,5.174245223e-13,7.957805192e-13,1.610775833e-12,1.847933757e-12,1.640331514e-12,1.538268974e-12,1.100477619e-12,2.533162861e-12,8.355757144e-13,5.365587962e-13,5.851770109e-13,1.561579638e-12,2.258412906e-13,2.143732908e-12,1.541680818e-12,8.811952472e-13,1.4005219e-12,1.534751081e-12,2.548444663e-12,1.631198855e-12
1.0703125,5.76073486e-13,1.209268174e-12,1.01732191e-12,1.545606682e-12,1.947463072e-12,1.904341596e-13,1.88581749e-12,5.44233453e-13,6.154019718e-13,3.062101324e-13,8.43244103e-13,4.756815143e-13,5.094300428e-13,7.919973783e-13,1.58831517e-12,1.825229822e-12,1.613237245e-12,1.519009567e-12,1.090835883e-12,2.508456102e-12,8.264971037e-13,5.31257417e-13,5.825940079e-13,1.545537338e-12,2.261293859e-13,2.103582578e-12,1.525868208e-12,8.757547275e-13,1.402702005e-12,1.521738768e-12,2.53045513e-12,1.595119375e-12
1.078125,5.728715172e-13,1.204572333e-12,1.010125617e-12,1.531658907e-12,1.912589229e-12,1.885615881e-13,1.857370079e-12,5.340855066e-13,6.052730263e-13,3.073088934e-13,8.316500768e-13,4.750726991e-13,5.014928581e-13,7.884243143e-13,1.566124371e-12,1.802741619e-12,1.586734673e-12,1.500322405e-12,1.08139269e-12,2.483556294e-12,8.17326019e-13,5.259040191e-13,5.800435044e-13,1.529619749e-12,2.264451837e-13,2.063990016e-12,1.510547475e-12,8.702847989e-13,1.40496647e-12,1.508454854e-12,2.513211803e-12,1.559387306e-12
1.0859375,5.696446815e-13,1.199896548e-12,1.002644169e-12,1.517764063e-12,1.878177223e-12,1.866222623e-13,1.829779195e-12,5.240799308e-13,5.951906835e-13,3.082655594e-13,8.201686626e-13,4.744815379e-13,4.936220855e-13,7.850533086e-13,1.544309133e-12,1.780509452e-12,1.560996338e-12,1.482244012e-12,1.072282186e-12,2.459065338e-12,8.082375145e-13,5.20581244e-13,5.77628188e-13,1.513862166e-12,2.271206201e-13,2.024883688e-12,1.495808086e-12,8.65125317e-13,1.407456182e-12,1.495205801e-12,2.496555732e-12,1.524067167e-12
1.09375,5.66163794e-13,1.194668202e-12,9.950600309e-13,1.503609721e-12,1.844178102e-12,1.846327646e-13,1.802889854e-12,5.141050134e-13,5.854262777e-13,3.091467471e-13,8.089971686e-13,4.739537637e-13,4.858874734e-13,7.817932535e-13,1.522389472e-12,1.757990264e-12,1.535541961e-12,1.464254605e-12,1.063073265e-12,2.435294684e-12,7.989729098e-13,5.152412759e-13,5.753222871e-13,1.498153037e-12,2.280983727e-13,1.986154839e-12,1.481370844e-12,8.596391219e-13,1.410066035e-12,1.481627532e-12,2.48011726e-12,1.489368958e-12
1.1015625,5.626046442e-13,1.189081318e-12,9.876787235e-13,1.489482003e-12,1.810696387e-12,1.827490999e-13,1.776559334e-12,5.043357381e-13,5.760309863e-13,3.100947066e-13,7.978348442e-13,4.733933218e-13,4.782392473e-13,7.786249263e-13,1.50066993e-12,1.735262681e-12,1.51016962e-12,1.446280655e-12,1.053554062e-12,2.411328816e-12,7.893717239e-13,5.097993317e-13,5.730453975e-13,1.482376475e-12,2.289546474e-13,1.947828238e-12,1.466984218e-12,8.535267391e-13,1.412383424e-12,1.467507966e-12,2.463782032e-12,1.455228306e-12
1.109375,5.59174107e-13,1.183930795e-12,9.802183496e-13,1.475966709e-12,1.777999178e-12,1.809987422e-13,1.751215485e-12,4.949545547e-13,5.667422623e-13,3.109939977e-13,7.865727213e-13,4.727615945e-13,4.706418181e-13,7.756808942e-13,1.479983675e-12,1.713119674e-12,1.485722104e-12,1.429048264e-12,1.044227651e-12,2.387308478e-12,7.796939275e-13,5.042851412e-13,5.708185053e-13,1.46636469e-12,2.298608862e-13,1.910069792e-12,1.452980145e-12,8.472037938e-13,1.414642351e-12,1.453368114e-12,2.448078097e-12,1.421521752e-12
1.1171875,5.558841287e-13,1.179300014e-12,9.725383294e-13,1.462986793e-12,1.746036776e-12,1.792069093e-13,1.726949458e-12,4.858324039e-13,5.574813711e-13,3.118879527e-13,7.753198683e-13,4.721852449e-13,4.631097578e-13,7.730203586e-13,1.45994842e-12,1.691543157e-12,1.462339577e-12,1.412665543e-12,1.035305585e-12,2.364113816e-12,7.700250184e-13,4.987530375e-13,5.686814325e-13,1.449919674e-12,2.311848e-13,1.87287651e-12,1.439828434e-12,8.407379381e-13,1.417511681e-12,1.439074621e-12,2.433382872e-12,1.388230687e-12
1.125,5.526486631e-13,1.174590242e-12,9.650551715e-13,1.450094749e-12,1.714635038e-12,1.773751467e-13,1.7032094e-12,4.769361107e-13,5.483678006e-13,3.127587826e-13,7.642781063e-13,4.715833925e-13,4.556346808e-13,7.70566723e-13,1.440119546e-12,1.67020836e-12,1.439355647e-12,1.396451215e-12,1.026399502e-12,2.341216003e-12,7.60036231e-13,4.932367083e-13,5.666087251e-13,1.433190181e-12,2.326724924e-13,1.836081664e-12,1.427354416e-12,8.340843446e-13,1.42084547e-12,1.424060248e-12,2.419175428e-12,1.355398217e-12
1.1328125,5.492268599e-13,1.16965106e-12,9.576517513e-13,1.437173482e-12,1.683848127e-12,1.756247834e-13,1.679582303e-12,4.684308841e-13,5.39476195e-13,3.135094997e-13,7.533687506e-13,4.707868309e-13,4.482636831e-13,7.681537998e-13,1.420853028e-12,1.649225867e-12,1.416700556e-12,1.380153218e-12,1.017377785e-12,2.317934458e-12,7.497650419e-13,4.87770146e-13,5.645367933e-13,1.416485237e-12,2.339945123e-13,1.799530032e-12,1.414894252e-12,8.274279267e-13,1.423902507e-12,1.408955556e-12,2.40487319e-12,1.323034358e-12
1.140625,5.454504448e-13,1.16480722e-12,9.496652751e-13,1.42432203e-12,1.653705128e-12,1.738373816e-13,1.656168e-12,4.602439996e-13,5.308103151e-13,3.143896884e-13,7.418995402e-13,4.698917604e-13,4.410397898e-13,7.656752472e-13,1.401886684e-12,1.628398737e-12,1.394461895e-12,1.364113614e-12,1.008401845e-12,2.294737513e-12,7.396367766e-13,4.822932263e-13,5.624222635e-13,1.39982726e-12,2.351957494e-13,1.76328878e-12,1.40230646e-12,8.205971392e-13,1.42656972e-12,1.394448595e-12,2.390890785e-12,1.291021302e-12
1.1484375,5.414746867e-13,1.160271484e-12,9.408801516e-13,1.411862442e-12,1.624373384e-12,1.718914933e-13,1.633762765e-12,4.522382332e-13,5.223061069e-13,3.153956604e-13,7.296036929e-13,4.690276899e-13,4.339374262e-13,7.633648093e-13,1.382989662e-12,1.607777219e-12,1.372860486e-12,1.348828968e-12,9.996283685e-13,2.272158466e-12,7.296581252e-13,4.767247643e-13,5.603195167e-13,1.38304645e-12,2.364631737e-13,1.727938448e-12,1.390400771e-12,8.134635471e-13,1.429472871e-12,1.379808095e-12,2.37823973e-12,1.259431828e-12
1.15625,5.375896787e-13,1.156040779e-12,9.318548695e-13,1.400054202e-12,1.596137746e-12,1.699268953e-13,1.613093252e-12,4.445126624e-13,5.139504421e-13,3.162172006e-13,7.174242501e-13,4.682211003e-13,4.269685876e-13,7.614736691e-13,1.364803718e-12,1.587905005e-12,1.352499272e-12,1.334554439e-12,9.912910729e-13,2.250383815e-12,7.19582015e-13,4.711385535e-13,5.583332922e-13,1.366220776e-12,2.380824085e-13,1.693916e-12,1.379649622e-12,8.062993672e-13,1.432877643e-12,1.364628831e-12,2.36715555e-12,1.228620541e-12
1.1640625,5.336849222e-13,1.151905901e-12,9.228736359e-13,1.388436625e-12,1.568867975e-12,1.681021231e-13,1.59357503e-12,4.371021944e-13,5.059202703e-13,3.171157532e-13,7.057691321e-13,4.675089037e-13,4.200888976e-13,7.597957632e-13,1.347454228e-12,1.56841801e-12,1.332988879e-12,1.320784732e-12,9.83252608e-13,2.229190756e-12,7.093862735e-13,4.656144333e-13,5.564670767e-13,1.349117704e-12,2.398486768e-13,1.66071461e-12,1.369312291e-12,7.990498792e-13,1.436167011e-12,1.349669961e-12,2.356741823e-12,1.198691026e-12
1.171875,5.295257433e-13,1.147607613e-12,9.141425175e-13,1.376694225e-12,1.542303565e-12,1.664503603e-13,1.574332649e-12,4.299343686e-13,4.981747941e-13,3.18224084e-13,6.944804947e-13,4.668016688e-13,4.13205931e-13,7.581531825e-13,1.330301922e-12,1.548692264e-12,1.313423426e-12,1.306977742e-12,9.75028662e-13,2.208347353e-12,6.990290332e-13,4.601634532e-13,5.54743984e-13,1.331997201e-12,2.414663093e-13,1.628036943e-12,1.358859211e-12,7.916468558e-13,1.438924019e-12,1.335016351e-12,2.346440853e-12,1.169531677e-12
1.1796875,5.2500223e-13,1.14334374e-12,9.04861117e-13,1.365378461e-12,1.516692871e-12,1.647952036e-13,1.555830142e-12,4.230280903e-13,4.905405173e-13,3.190724672e-13,6.831297207e-13,4.659249273e-13,4.064079609e-13,7.567595273e-13,1.313731749e-12,1.529456873e-12,1.294468328e-12,1.293491456e-12,9.666860057e-13,2.188106906e-12,6.885003286e-13,4.547581511e-13,5.531109324e-13,1.315240727e-12,2.430915573e-13,1.596168801e-12,1.348784839e-12,7.841029672e-13,1.441763457e-12,1.320007143e-12,2.336765264e-12,1.141115561e-12
1.1875,5.204500286e-13,1.139538015e-12,8.946713841e-13,1.354796684e-12,1.492165459e-12,1.629347185e-13,1.538599669e-12,4.163963242e-13,4.830482901e-13,3.198603845e-13,6.713168769e-13,4.649590838e-13,3.998002653e-13,7.556960362e-13,1.298146669e-12,1.511312336e-12,1.276898444e-12,1.280746974e-12,9.586545258e-13,2.168540438e-12,6.78084876e-13,4.49301524e-13,5.513849076e-13,1.298512049e-12,2.448622594e-13,1.565036717e-12,1.339377173e-12,7.763189889e-13,1.445119445e-12,1.304756885e-12,2.328186532e-12,1.113293117e-12
1.1953125,5.160487559e-13,1.136138833e-12,8.843033922e-13,1.344570077e-12,1.468553262e-12,1.610345093e-13,1.522258945e-12,4.100183579e-13,4.757462691e-13,3.209720646e-13,6.592104137e-13,4.639660819e-13,3.932953641e-13,7.548027406e-13,1.283233763e-12,1.493882397e-12,1.260221481e-12,1.26853089e-12,9.508632861e-13,2.149214849e-12,6.678771507e-13,4.437272289e-13,5.495454661e-13,1.28129835e-12,2.465855428e-13,1.534554842e-12,1.330393458e-12,7.684085705e-13,1.44854342e-12,1.289642962e-12,2.32040577e-12,1.086020386e-12
1.203125,5.114693265e-13,1.132776931e-12,8.739585856e-13,1.334504033e-12,1.445885311e-12,1.593517319e-13,1.506698639e-12,4.038962168e-13,4.685778548e-13,3.219577962e-13,6.474572569e-13,4.629301821e-13,3.86838395e-13,7.541115085e-13,1.268816022e-12,1.476898137e-12,1.244136035e-12,1.256706124e-12,9.431459162e-13,2.130450872e-12,6.576138631e-13,4.381002123e-13,5.477790304e-13,1.264109773e-12,2.483515399e-13,1.505185275e-12,1.3218716e-12,7.606337543e-13,1.451790223e-12,1.274543913e-12,2.313255543e-12,1.059601667e-12
1.2109375,5.067128979e-13,1.129467538e-12,8.634721741e-13,1.324645459e-12,1.424169472e-12,1.5776472e-13,1.49225826e-12,3.979340078e-13,4.615913889e-13,3.226660338e-13,6.360750296e-13,4.620244144e-13,3.804822163e-13,7.537505806e-13,1.254713925e-12,1.460224428e-12,1.228745325e-12,1.24540914e-12,9.356726983e-13,2.112848204e-12,6.472258789e-13,4.324574445e-13,5.460938162e-13,1.247353789e-12,2.503971199e-13,1.477019353e-12,1.313922393e-12,7.527028334e-13,1.455056179e-12,1.25937952e-12,2.306986172e-12,1.034115071e-12
1.21875,5.020566343e-13,1.126383536e-12,8.532358104e-13,1.314928009e-12,1.403255745e-12,1.561548013e-13,1.478776691e-12,3.920949388e-13,4.548628502e-13,3.235602871e-13,6.244488512e-13,4.612698551e-13,3.742489372e-13,7.536707522e-13,1.240802245e-12,1.443758104e-12,1.213808941e-12,1.234584076e-12,9.284257506e-13,2.095902178e-12,6.36892982e-13,4.267658062e-13,5.443834647e-13,1.230219407e-12,2.525545804e-13,1.449601568e-12,1.306354337e-12,7.443343179e-13,1.458271392e-12,1.24405045e-12,2.301392341e-12,1.009311619e-12
1.2265625,4.972784292e-13,1.123361374e-12,8.431139664e-13,1.305422588e-12,1.383163844e-12,1.546642333e-13,1.465887991e-12,3.865209773e-13,4.483533603e-13,3.245668289e-13,6.126701428e-13,4.603939783e-13,3.681671822e-13,7.537468619e-13,1.227589284e-12,1.427795335e-12,1.199359473e-12,1.224107774e-12,9.211976221e-13,2.079088262e-12,6.266538004e-13,4.210794212e-13,5.427237465e-13,1.212580194e-12,2.546015565e-13,1.422776386e-12,1.299036403e-12,7.358880634e-13,1.461356927e-12,1.228447368e-12,2.296034625e-12,9.851532218e-13
1.234375,4.92248235e-13,1.120287032e-12,8.325065431e-13,1.296189781e-12,1.363907907e-12,1.532305484e-13,1.453627955e-12,3.812245034e-13,4.420495128e-13,3.253475317e-13,6.01272102e-13,4.593531407e-13,3.62202286e-13,7.538967374e-13,1.215246604e-12,1.412388379e-12,1.185655784e-12,1.213996879e-12,9.140373965e-13,2.062685796e-12,6.164147404e-13,4.154328112e-13,5.411278601e-13,1.195253244e-12,2.56492233e-13,1.396636764e-12,1.292047227e-12,7.273965629e-13,1.464541267e-12,1.213013485e-12,2.291064806e-12,9.616671514e-13
1.2421875,4.872287339e-13,1.117262845e-12,8.216155694e-13,1.287005604e-12,1.345297175e-12,1.516356622e-13,1.442049244e-12,3.760966814e-13,4.359731187e-13,3.259774547e-13,5.898059401e-13,4.583329791e-13,3.562454583e-13,7.541100697e-13,1.203033486e-12,1.397192092e-12,1.172530802e-12,1.204318898e-12,9.071088405e-13,2.046725821e-12,6.062088759e-13,4.097383712e-13,5.394749418e-13,1.177701238e-12,2.583256658e-13,1.371130972e-12,1.285512378e-12,7.18499646e-13,1.467824641e-12,1.19807808e-12,2.286560929e-12,9.386347295e-13
1.25,4.820627973e-13,1.114192022e-12,8.107988113e-13,1.277840782e-12,1.327223737e-12,1.49979263e-13,1.430986137e-12,3.711422967e-13,4.300935208e-13,3.265768228e-13,5.777889599e-13,4.573735919e-13,3.50379673e-13,7.544183177e-13,1.190686241e-12,1.382181131e-12,1.159823801e-12,1.195112281e-12,9.004678175e-13,2.031036885e-12,5.961133128e-13,4.040154869e-13,5.378469692e-13,1.159428175e-12,2.605066382e-13,1.34610571e-12,1.27935462e-12,7.095316177e-13,1.470871285e-12,1.183250737e-12,2.282004274e-12,9.159372755e-13
1.2578125,4.765523012e-13,1.110993444e-12,7.999817462e-13,1.268959288e-12,1.309803092e-12,1.484683996e-13,1.420471852e-12,3.663440783e-13,4.24419839e-13,3.271485127e-13,5.66046983e-13,4.564368436e-13,3.447235819e-13,7.548064752e-13,1.178927411e-12,1.367487649e-12,1.147613516e-12,1.186257994e-12,8.940728864e-13,2.015783897e-12,5.859991604e-13,3.983611923e-13,5.363109847e-13,1.141686251e-12,2.630450666e-13,1.321475429e-12,1.273264196e-12,7.008732207e-13,1.473552223e-12,1.168269001e-12,2.277393139e-12,8.93791226e-13
1.265625,4.710794559e-13,1.107900904e-12,7.89225036e-13,1.260368458e-12,1.293221985e-12,1.47060707e-13,1.410712258e-12,3.616967889e-13,4.190100595e-13,3.276272363e-13,5.551039315e-13,4.555058632e-13,3.391455216e-13,7.553056776e-13,1.168215577e-12,1.353217076e-12,1.135913296e-12,1.177632607e-12,8.878106751e-13,2.000879391e-12,5.757836741e-13,3.926971567e-13,5.34681881e-13,1.124444191e-12,2.652518506e-13,1.297453578e-12,1.267263905e-12,6.919863181e-13,1.475943304e-12,1.153307845e-12,2.273346472e-12,8.72426023e-13
1.2734375,4.657721749e-13,1.10499236e-12,7.785005266e-13,1.251858888e-12,1.277450961e-12,1.456627289e-13,1.40153823e-12,3.573145632e-13,4.138628261e-13,3.278675358e-13,5.442632968e-13,4.545510657e-13,3.336377378e-13,7.559853296e-13,1.158041939e-12,1.33951236e-12,1.124694649e-12,1.16931445e-12,8.816281882e-13,1.986043625e-12,5.656791063e-13,3.869721632e-13,5.329485464e-13,1.106304636e-12,2.671090935e-13,1.274256984e-12,1.261655696e-12,6.824646706e-13,1.477966955e-12,1.138464107e-12,2.269758543e-12,8.51754857e-13
1.28125,4.60212148e-13,1.102005958e-12,7.675846043e-13,1.243363463e-12,1.262156866e-12,1.442855281e-13,1.392588732e-12,3.530751653e-13,4.089120794e-13,3.279996179e-13,5.331839116e-13,4.535364753e-13,3.284164592e-13,7.566825887e-13,1.147682754e-12,1.326060693e-12,1.113827071e-12,1.161205879e-12,8.75478844e-13,1.971455119e-12,5.55750345e-13,3.813347845e-13,5.312714343e-13,1.087991787e-12,2.692609258e-13,1.251671446e-12,1.256269084e-12,6.727738747e-13,1.479685272e-12,1.123636947e-12,2.266087641e-12,8.315404372e-13
1.2890625,4.542741659e-13,1.098870057e-12,7.564445109e-13,1.234993501e-12,1.247252412e-12,1.42912943e-13,1.384008417e-12,3.487206215e-13,4.040862491e-13,3.282850066e-13,5.220670696e-13,4.523693445e-13,3.234326967e-13,7.572225503e-13,1.137323432e-12,1.312543009e-12,1.103206549e-12,1.15304959e-12,8.692341559e-13,1.957493387e-12,5.458411208e-13,3.758312617e-13,5.295757002e-13,1.070467967e-12,2.714873298e-13,1.229595648e-12,1.250837719e-12,6.633087356e-13,1.481456747e-12,1.108606516e-12,2.262547289e-12,8.118624223e-13
1.296875,4.482973492e-13,1.095900924e-12,7.45015876e-13,1.226966817e-12,1.23314969e-12,1.415017208e-13,1.376135204e-12,3.444223203e-13,3.994209438e-13,3.285623481e-13,5.110208804e-13,4.510799607e-13,3.185268259e-13,7.578247155e-13,1.127743352e-12,1.29938098e-12,1.093008324e-12,1.145046414e-12,8.629985599e-13,1.944302303e-12,5.360620435e-13,3.703731999e-13,5.277752144e-13,1.052516565e-12,2.733196967e-13,1.208341156e-12,1.245601464e-12,6.5387087e-13,1.483187699e-12,1.093506899e-12,2.259592229e-12,7.930579686e-13
1.3046875,4.425640179e-13,1.093252657e-12,7.335450878e-13,1.219271737e-12,1.219998471e-12,1.400826884e-13,1.368797792e-12,3.404624223e-13,3.950672973e-13,3.286354977e-13,5.0041764e-13,4.499429813e-13,3.137773318e-13,7.586328677e-13,1.118837702e-12,1.286765745e-12,1.083263353e-12,1.137496625e-12,8.570015794e-13,1.931609989e-12,5.265060882e-13,3.649520811e-13,5.259479299e-13,1.033698384e-12,2.751065241e-13,1.18794415e-12,1.240687234e-12,6.441470597e-13,1.484381101e-12,1.078886221e-12,2.257116499e-12,7.751153533e-13
1.3125,4.369628043e-13,1.090566384e-12,7.227000525e-13,1.211556644e-12,1.207402784e-12,1.387245796e-13,1.361771554e-12,3.367421478e-13,3.91042058e-13,3.287294915e-13,4.902024074e-13,4.489950417e-13,3.091680892e-13,7.593670869e-13,1.109974057e-12,1.274349549e-12,1.073845098e-12,1.130195144e-12,8.510954407e-13,1.918811386e-12,5.169155165e-13,3.595320485e-13,5.240715566e-13,1.015020121e-12,2.769905433e-13,1.168115623e-12,1.235908956e-12,6.340955932e-13,1.4852241e-12,1.064473699e-12,2.254820877e-12,7.576604972e-13
1.3203125,4.31190649e-13,1.087662593e-12,7.121623802e-13,1.203809884e-12,1.195229647e-12,1.374706762e-13,1.355239992e-12,3.331811036e-13,3.872031082e-13,3.289034737e-13,4.796963147e-13,4.479188199e-13,3.046088527e-13,7.59982562e-13,1.101555464e-12,1.262428207e-12,1.064985292e-12,1.123024371e-12,8.451375569e-13,1.905789049e-12,5.072826378e-13,3.540808014e-13,5.221166546e-13,9.966305565e-13,2.787054219e-13,1.1487631e-12,1.231257085e-12,6.23944119e-13,1.486235218e-12,1.049457197e-12,2.252543426e-12,7.406236104e-13
1.328125,4.25295785e-13,1.08496829e-12,7.011582547e-13,1.196372921e-12,1.18379142e-12,1.363251563e-13,1.34916684e-12,3.298485026e-13,3.835552613e-13,3.288487164e-13,4.69122903e-13,4.466574907e-13,3.002918778e-13,7.606995418e-13,1.094024744e-12,1.251366217e-12,1.056760368e-12,1.116158281e-12,8.393612797e-13,1.893103989e-12,4.979190844e-13,3.487382463e-13,5.201581803e-13,9.784052629e-13,2.804442373e-13,1.129928099e-12,1.22665769e-12,6.138689041e-13,1.487092048e-12,1.034242787e-12,2.250219357e-12,7.243158549e-13
1.3359375,4.195425311e-13,1.082553062e-12,6.904884017e-13,1.189035174e-12,1.173124446e-12,1.35199881e-13,1.343169498e-12,3.266070594e-13,3.802167875e-13,3.285944433e-13,4.590929625e-13,4.454131348e-13,2.963204914e-13,7.61267513e-13,1.086457059e-12,1.24047107e-12,1.04868982e-12,1.109376323e-12,8.337132418e-13,1.880876758e-12,4.88794457e-13,3.435672916e-13,5.181775039e-13,9.604717401e-13,2.822283293e-13,1.111668632e-12,1.221849984e-12,6.037768984e-13,1.487211205e-12,1.019557911e-12,2.247864429e-12,7.088474356e-13
1.34375,4.138468424e-13,1.079922065e-12,6.809979749e-13,1.181355429e-12,1.162980909e-12,1.339662176e-13,1.337238634e-12,3.233696519e-13,3.771896694e-13,3.284309926e-13,4.493305373e-13,4.441684131e-13,2.925140303e-13,7.613969073e-13,1.078377183e-12,1.229267503e-12,1.040571742e-12,1.102406169e-12,8.278468611e-13,1.868626962e-12,4.7968499e-13,3.384849529e-13,5.161414776e-13,9.42461558e-13,2.83662374e-13,1.094108782e-12,1.216876047e-12,5.935910898e-13,1.486755011e-12,1.004946341e-12,2.245501423e-12,6.940787492e-13
1.3515625,4.080106359e-13,1.077145019e-12,6.717315273e-13,1.173629725e-12,1.153401566e-12,1.326687645e-13,1.331661789e-12,3.203213118e-13,3.744590751e-13,3.2820478e-13,4.39780807e-13,4.428367436e-13,2.888629626e-13,7.614450102e-13,1.070807188e-12,1.218425675e-12,1.032734873e-12,1.095557844e-12,8.219050013e-13,1.856312827e-12,4.706284281e-13,3.335497038e-13,5.141112542e-13,9.242444269e-13,2.849538919e-13,1.077262741e-12,1.211996496e-12,5.834141881e-13,1.486109614e-12,9.901272542e-13,2.243177256e-12,6.80031044e-13
1.359375,4.020699569e-13,1.074573356e-12,6.621864145e-13,1.166300629e-12,1.14456315e-12,1.31490479e-13,1.326463839e-12,3.175158082e-13,3.720260429e-13,3.276736419e-13,4.308572256e-13,4.414576553e-13,2.854165423e-13,7.617188233e-13,1.064193292e-12,1.208401933e-12,1.025396107e-12,1.08903682e-12,8.16201505e-13,1.844344462e-12,4.617027867e-13,3.28788635e-13,5.12124397e-13,9.059803457e-13,2.865037291e-13,1.061035725e-12,1.207301222e-12,5.733337719e-13,1.485229104e-12,9.755130366e-13,2.240848147e-12,6.668274877e-13
1.3671875,3.959967382e-13,1.071868456e-12,6.531088207e-13,1.159092325e-12,1.136364805e-12,1.304532277e-13,1.321488146e-12,3.148319886e-13,3.697973863e-13,3.27038127e-13,4.223352975e-13,4.400194048e-13,2.820159463e-13,7.620186152e-13,1.057916722e-12,1.19876013e-12,1.018455262e-12,1.082496592e-12,8.105998518e-13,1.83276636e-12,4.52881309e-13,3.240217493e-13,5.101875214e-13,8.876882404e-13,2.880669251e-13,1.045398e-12,1.202696237e-12,5.633667989e-13,1.483926776e-12,9.609140715e-13,2.238261503e-12,6.544365942e-13
1.375,3.896536431e-13,1.068712803e-12,6.442414222e-13,1.151574314e-12,1.128622046e-12,1.294280538e-13,1.31656117e-12,3.122478431e-13,3.677661667e-13,3.263864556e-13,4.138739513e-13,4.385077831e-13,2.786739694e-13,7.621372457e-13,1.051661359e-12,1.189085643e-12,1.011623057e-12,1.075721436e-12,8.049199919e-13,1.821177816e-12,4.441957197e-13,3.192408339e-13,5.082222931e-13,8.699489606e-13,2.894089162e-13,1.030329707e-12,1.197977793e-12,5.533785032e-13,1.48215468e-12,9.461116931e-13,2.235357032e-12,6.427402824e-13
1.3828125,3.830494788e-13,1.065311302e-12,6.349960334e-13,1.143814973e-12,1.121288246e-12,1.284089823e-13,1.311533126e-12,3.097485831e-13,3.660424059e-13,3.255407094e-13,4.054717724e-13,4.369072006e-13,2.755713127e-13,7.618735882e-13,1.045251292e-12,1.179434609e-12,1.004723664e-12,1.068857216e-12,7.992270262e-13,1.809342307e-12,4.356439898e-13,3.146578724e-13,5.061290657e-13,8.529892635e-13,2.906415813e-13,1.01577486e-12,1.193074161e-12,5.431092245e-13,1.479821972e-12,9.314557925e-13,2.232251259e-12,6.316358057e-13
1.390625,3.762585372e-13,1.061725678e-12,6.260130441e-13,1.136107292e-12,1.114325359e-12,1.274590552e-13,1.30655918e-12,3.072759922e-13,3.645647887e-13,3.24591433e-13,3.970024621e-13,4.350353761e-13,2.726728559e-13,7.61051764e-13,1.038560454e-12,1.170008544e-12,9.979950981e-13,1.062042643e-12,7.936142727e-13,1.79747001e-12,4.271723298e-13,3.103246471e-13,5.040269639e-13,8.359406033e-13,2.917886791e-13,1.001703562e-12,1.188155635e-12,5.326865589e-13,1.476867065e-12,9.167912334e-13,2.228767052e-12,6.210927154e-13
1.3984375,3.693747842e-13,1.057998643e-12,6.175874994e-13,1.128522351e-12,1.107675356e-12,1.265353074e-13,1.301967732e-12,3.048583345e-13,3.632228582e-13,3.235877478e-13,3.885674622e-13,4.32844292e-13,2.699346904e-13,7.599843218e-13,1.032140614e-12,1.160945496e-12,9.917279286e-13,1.055375159e-12,7.88162181e-13,1.785600283e-12,4.188641395e-13,3.06137277e-13,5.019590384e-13,8.187048136e-13,2.927598705e-13,9.88072342e-13,1.183182e-12,5.225781054e-13,1.473597182e-12,9.019824299e-13,2.224869608e-12,6.11176991e-13
1.40625,3.625544765e-13,1.054322403e-12,6.092568149e-13,1.120845488e-12,1.101324084e-12,1.256484373e-13,1.297724629e-12,3.025557407e-13,3.621145847e-13,3.223169159e-13,3.804663327e-13,4.306506172e-13,2.674536185e-13,7.590556007e-13,1.02631673e-12,1.152292922e-12,9.858819188e-13,1.04890736e-12,7.828239836e-13,1.77330983e-12,4.107681817e-13,3.020541447e-13,4.997079092e-13,8.019051106e-13,2.933935825e-13,9.748050268e-13,1.177887771e-12,5.12840492e-13,1.470246445e-12,8.878026562e-13,2.220853481e-12,6.018949877e-13
1.4140625,3.558015186e-13,1.050478941e-12,6.01251271e-13,1.112897815e-12,1.095249433e-12,1.249046384e-13,1.2934521e-12,3.003694083e-13,3.612791998e-13,3.209245514e-13,3.726603226e-13,4.286763574e-13,2.651882659e-13,7.581072131e-13,1.020564568e-12,1.143925423e-12,9.801925351e-13,1.04250959e-12,7.774363946e-13,1.760676159e-12,4.027267797e-13,2.980948197e-13,4.973375643e-13,7.853778126e-13,2.937549731e-13,9.61905455e-13,1.17239694e-12,5.031986941e-13,1.466406641e-12,8.743964949e-13,2.216563919e-12,5.931713733e-13
1.421875,3.489941712e-13,1.046267154e-12,5.938768279e-13,1.104801172e-12,1.089413307e-12,1.242093973e-13,1.288829769e-12,2.982204125e-13,3.605687672e-13,3.196939229e-13,3.651674591e-13,4.26799256e-13,2.630340979e-13,7.568781891e-13,1.014558132e-12,1.135554134e-12,9.74300686e-13,1.035996168e-12,7.720428945e-13,1.748337469e-12,3.947131375e-13,2.942368458e-13,4.950551906e-13,7.691585176e-13,2.94375437e-13,9.494690902e-13,1.167042285e-12,4.935710973e-13,1.461858128e-12,8.607354079e-13,2.211754401e-12,5.849648392e-13
1.4296875,3.422044553e-13,1.042053591e-12,5.867714637e-13,1.096736742e-12,1.083821424e-12,1.233766833e-13,1.283806969e-12,2.960144192e-13,3.599772136e-13,3.184453605e-13,3.580519695e-13,4.248916436e-13,2.610250713e-13,7.554099334e-13,1.008487081e-12,1.127136648e-12,9.68208229e-13,1.029331162e-12,7.66724342e-13,1.736199521e-12,3.869107393e-13,2.904001843e-13,4.92618404e-13,7.535593603e-13,2.952906698e-13,9.375003357e-13,1.161718706e-12,4.839671137e-13,1.457145e-12,8.464319268e-13,2.206748012e-12,5.772335878e-13
1.4375,3.355907964e-13,1.037972557e-12,5.798187636e-13,1.088702898e-12,1.078473592e-12,1.225968946e-13,1.278602539e-12,2.938063393e-13,3.596286354e-13,3.169586491e-13,3.510532537e-13,4.230188173e-13,2.592254371e-13,7.539333822e-13,1.002667857e-12,1.119064186e-12,9.624467788e-13,1.022686994e-12,7.613727467e-13,1.723694941e-12,3.793353412e-13,2.865976937e-13,4.898215189e-13,7.379320859e-13,2.958255017e-13,9.258744436e-13,1.156197418e-12,4.745393063e-13,1.45250985e-12,8.321380732e-13,2.201520724e-12,5.699929998e-13
1.4453125,3.291475612e-13,1.033688616e-12,5.730613926e-13,1.080641663e-12,1.073227106e-12,1.222584029e-13,1.273329204e-12,2.916895623e-13,3.594871194e-13,3.152463419e-13,3.442124564e-13,4.213172367e-13,2.576542637e-13,7.526185075e-13,9.973239485e-13,1.111404289e-12,9.569998184e-13,1.016213559e-12,7.560397792e-13,1.710838991e-12,3.718527264e-13,2.829265507e-13,4.868727333e-13,7.22167008e-13,2.960230097e-13,9.144816078e-13,1.150498504e-12,4.655535474e-13,1.447517958e-12,8.183030045e-13,2.195537771e-12,5.631968433e-13
1.453125,3.227210532e-13,1.029021363e-12,5.67086765e-13,1.072408671e-12,1.067814456e-12,1.220930773e-13,1.267549492e-12,2.895632739e-13,3.595127728e-13,3.133312879e-13,3.378599684e-13,4.197619666e-13,2.562407615e-13,7.510785652e-13,9.919740162e-13,1.103534887e-12,9.510448575e-13,1.009637656e-12,7.506972137e-13,1.697453434e-12,3.643839831e-13,2.793370914e-13,4.838441925e-13,7.069828345e-13,2.963685426e-13,9.03086429e-13,1.144577651e-12,4.566945222e-13,1.441850244e-12,8.046603682e-13,2.188603256e-12,5.566646455e-13
1.4609375,3.162483245e-13,1.023941246e-12,5.616362567e-13,1.063705971e-12,1.06213404e-12,1.216806406e-13,1.261042188e-12,2.873475387e-13,3.597257423e-13,3.11288214e-13,3.316198691e-13,4.181205977e-13,2.548399627e-13,7.487108458e-13,9.856905101e-13,1.095068012e-12,9.444302798e-13,1.002547243e-12,7.451657144e-13,1.683292117e-12,3.568906279e-13,2.756833187e-13,4.806172643e-13,6.919386331e-13,2.968562661e-13,8.915479587e-13,1.138184426e-12,4.475322014e-13,1.435506213e-12,7.906997565e-13,2.18087979e-12,5.501646738e-13
1.46875,3.097630023e-13,1.018412421e-12,5.565027189e-13,1.054685515e-12,1.056258667e-12,1.211458338e-13,1.254273345e-12,2.851721113e-13,3.601583712e-13,3.091515624e-13,3.251426359e-13,4.16364967e-13,2.535483849e-13,7.459243347e-13,9.789765683e-13,1.086438619e-12,9.379244399e-13,9.953574903e-13,7.3969378e-13,1.668828408e-12,3.494269465e-13,2.720436416e-13,4.772758997e-13,6.762436578e-13,2.973416212e-13,8.800388292e-13,1.131593654e-12,4.382443953e-13,1.428779472e-12,7.766877773e-13,2.172317293e-12,5.437898605e-13
1.4765625,3.034175222e-13,1.012739863e-12,5.516787459e-13,1.045767255e-12,1.050290099e-12,1.207794399e-13,1.247762126e-12,2.831788746e-13,3.608513216e-13,3.068132302e-13,3.18840778e-13,4.147264455e-13,2.525692641e-13,7.433985527e-13,9.730934134e-13,1.07818291e-12,9.318197055e-13,9.886699763e-13,7.346825661e-13,1.654467913e-12,3.420573619e-13,2.685548917e-13,4.738793827e-13,6.60645662e-13,2.979239505e-13,8.68717996e-13,1.125122859e-12,4.291205786e-13,1.422122656e-12,7.633502038e-13,2.163241329e-12,5.376124303e-13
1.484375,2.972379422e-13,1.007041121e-12,5.472657611e-13,1.036816458e-12,1.044299055e-12,1.204813302e-13,1.241127813e-12,2.813025158e-13,3.61810681e-13,3.042491259e-13,3.128156046e-13,4.13222221e-13,2.517975895e-13,7.407376197e-13,9.676705491e-13,1.070270881e-12,9.256009922e-13,9.819470008e-13,7.296662669e-13,1.63963369e-12,3.347640835e-13,2.651975491e-13,4.703450256e-13,6.457344543e-13,2.984115548e-13,8.573816993e-13,1.118311212e-12,4.199546754e-13,1.415011191e-12,7.504894184e-13,2.153751166e-12,5.315685742e-13
1.4921875,2.910988855e-13,1.001010422e-12,5.432629695e-13,1.027365524e-12,1.038176825e-12,1.201320679e-13,1.23368713e-12,2.793662057e-13,3.629407737e-13,3.015724409e-13,3.066684362e-13,4.116456819e-13,2.510538133e-13,7.37365035e-13,9.615439593e-13,1.062202489e-12,9.18837524e-13,9.744207717e-13,7.241139982e-13,1.623925684e-12,3.276603436e-13,2.619432301e-13,4.666513995e-13,6.309472704e-13,2.985877514e-13,8.459219511e-13,1.110848856e-12,4.105657737e-13,1.406903965e-12,7.374373924e-13,2.143495341e-12,5.25705129e-13
1.5,2.850394714e-13,9.945629404e-13,5.39709436e-13,1.017351778e-12,1.03167158e-12,1.198241642e-13,1.225429313e-12,2.773017655e-13,3.641704586e-13,2.988087242e-13,3.00580267e-13,4.099817703e-13,2.50416112e-13,7.335081934e-13,9.548641878e-13,1.053743987e-12,9.116379925e-13,9.664311067e-13,7.184132083e-13,1.607709169e-12,3.208242998e-13,2.587877566e-13,4.627800164e-13,6.162146596e-13,2.986301681e-13,8.344609845e-13,1.102990156e-12,4.013587007e-13,1.398366233e-12,7.243999882e-13,2.132380086e-12,5.199731938e-13
1.5078125,2.79136818e-13,9.879932725e-13,5.366633535e-13,1.007189154e-12,1.024873874e-12,1.195441524e-13,1.216777357e-12,2.752133763e-13,3.655992032e-13,2.959739664e-13,2.949428876e-13,4.084428662e-13,2.500444541e-13,7.295406973e-13,9.48276347e-13,1.045348313e-12,9.045476505e-13,9.585744683e-13,7.129405391e-13,1.591338465e-12,3.140108393e-13,2.557216574e-13,4.587306246e-13,6.018793071e-13,2.987287327e-13,8.230145839e-13,1.094838149e-12,3.927979854e-13,1.389822154e-12,7.117801143e-13,2.120521649e-12,5.14246163e-13
1.515625,2.73351096e-13,9.814703724e-13,5.339660228e-13,9.972445213e-13,1.018023398e-12,1.192713653e-13,1.207858586e-12,2.731450499e-13,3.673208449e-13,2.931003719e-13,2.896318961e-13,4.072272514e-13,2.50018449e-13,7.255441945e-13,9.415196866e-13,1.037131234e-12,8.978180344e-13,9.506945577e-13,7.074437188e-13,1.574947941e-12,3.071403468e-13,2.527763629e-13,4.546122074e-13,5.877106497e-13,2.990136671e-13,8.115992253e-13,1.086519514e-12,3.846062759e-13,1.381045505e-12,6.993329191e-13,2.107979616e-12,5.086239222e-13
1.5234375,2.677661314e-13,9.748116858e-13,5.314075122e-13,9.873456476e-13,1.010877355e-12,1.19142024e-13,1.198413781e-12,2.709974332e-13,3.692375096e-13,2.901514328e-13,2.846419443e-13,4.062459508e-13,2.502637925e-13,7.213598985e-13,9.342532703e-13,1.02845408e-12,8.908327605e-13,9.423697371e-13,7.017399752e-13,1.558342692e-12,3.004941911e-13,2.499509213e-13,4.504715177e-13,5.736948245e-13,2.994185072e-13,8.002473633e-13,1.078137746e-12,3.761050644e-13,1.371794491e-12,6.868911717e-13,2.09478167e-12,5.032249618e-13
1.53125,2.623741568e-13,9.676696948e-13,5.289314229e-13,9.77017751e-13,1.003253174e-12,1.191025997e-13,1.188356518e-12,2.687942578e-13,3.712481728e-13,2.871307818e-13,2.801318448e-13,4.051063436e-13,2.505619569e-13,7.166579747e-13,9.268020007e-13,1.019345601e-12,8.832027321e-13,9.335304602e-13,6.959255172e-13,1.541043243e-12,2.941018846e-13,2.472446282e-13,4.462693329e-13,5.602944797e-13,2.995199012e-13,7.889068057e-13,1.069281374e-12,3.673458329e-13,1.361709461e-12,6.745872177e-13,2.080754327e-12,4.981061209e-13
1.5390625,2.569037819e-13,9.599064292e-13,5.267511033e-13,9.661917127e-13,9.955824764e-13,1.189495667e-13,1.178118993e-12,2.666497691e-13,3.734158731e-13,2.839980929e-13,2.758414498e-13,4.037091396e-13,2.508946407e-13,7.114839026e-13,9.193473344e-13,1.010505207e-12,8.756466883e-13,9.245428162e-13,6.900625844e-13,1.523198294e-12,2.877498878e-13,2.447249815e-13,4.420361703e-13,5.476079598e-13,2.99373367e-13,7.777761498e-13,1.059890585e-12,3.589805393e-13,1.350850018e-12,6.624162187e-13,2.065892374e-12,4.934199327e-13
1.546875,2.513565886e-13,9.518254976e-13,5.251204898e-13,9.552442589e-13,9.881697354e-13,1.187453118e-13,1.168082587e-12,2.645352288e-13,3.758218463e-13,2.806791e-13,2.716640723e-13,4.024563516e-13,2.514797806e-13,7.061676368e-13,9.116741434e-13,1.001799353e-12,8.685452177e-13,9.158215238e-13,6.842071365e-13,1.505377303e-12,2.81434058e-13,2.423776783e-13,4.378228492e-13,5.3554525e-13,2.994421978e-13,7.671741159e-13,1.050580479e-12,3.509914614e-13,1.339979156e-12,6.503455489e-13,2.050704461e-12,4.89173879e-13
1.5546875,2.459842036e-13,9.437444064e-13,5.238181093e-13,9.44389904e-13,9.808141222e-13,1.186424362e-13,1.157914756e-12,2.62383818e-13,3.784496956e-13,2.773202233e-13,2.678392423e-13,4.0149073e-13,2.523408536e-13,7.005425761e-13,9.037271345e-13,9.926473613e-13,8.610661208e-13,9.071772088e-13,6.78405836e-13,1.487350265e-12,2.752407878e-13,2.401522094e-13,4.336148821e-13,5.24105241e-13,2.994111463e-13,7.569611685e-13,1.041366746e-12,3.428789722e-13,1.329106124e-12,6.382873898e-13,2.035344201e-12,4.852198978e-13
1.5625,2.408061873e-13,9.354792152e-13,5.227370758e-13,9.333827222e-13,9.732626415e-13,1.186508301e-13,1.147028814e-12,2.60150818e-13,3.812295373e-13,2.739648245e-13,2.642812771e-13,4.005373458e-13,2.533465896e-13,6.94346225e-13,8.954843521e-13,9.830729117e-13,8.527657937e-13,8.981018973e-13,6.725770185e-13,1.468644795e-12,2.691908868e-13,2.381178093e-13,4.293442028e-13,5.129806503e-13,2.989024432e-13,7.467534152e-13,1.031681485e-12,3.348593237e-13,1.317427772e-12,6.261475809e-13,2.019187492e-12,4.814988444e-13
1.5703125,2.357939102e-13,9.267162761e-13,5.22272992e-13,9.218123046e-13,9.653628142e-13,1.188111001e-13,1.135464008e-12,2.577892272e-13,3.841037583e-13,2.703254993e-13,2.609448166e-13,3.996012719e-13,2.544963844e-13,6.878730217e-13,8.869262738e-13,9.733380668e-13,8.44326779e-13,8.886698667e-13,6.665997164e-13,1.449601785e-12,2.632504071e-13,2.362616101e-13,4.249448188e-13,5.018754848e-13,2.984843089e-13,7.364759569e-13,1.021466049e-12,3.27395892e-13,1.304908626e-12,6.141566416e-13,2.001847337e-12,4.7791712e-13
1.578125,2.309532462e-13,9.175626875e-13,5.222186064e-13,9.096738974e-13,9.571198172e-13,1.190533303e-13,1.123715322e-12,2.554074521e-13,3.871076164e-13,2.664400207e-13,2.580068508e-13,3.989159839e-13,2.557934297e-13,6.813667877e-13,8.783205869e-13,9.636203646e-13,8.361256752e-13,8.793113829e-13,6.604937861e-13,1.430624064e-12,2.572996369e-13,2.344322612e-13,4.20466422e-13,4.909367081e-13,2.984544004e-13,7.263235167e-13,1.011091478e-12,3.202367699e-13,1.292152916e-12,6.023857078e-13,1.983728726e-12,4.743715032e-13
1.5859375,2.261638192e-13,9.082997245e-13,5.220718272e-13,8.974500063e-13,9.486529225e-13,1.191360645e-13,1.11187055e-12,2.531299608e-13,3.903558357e-13,2.627369389e-13,2.551681113e-13,3.984292007e-13,2.572364963e-13,6.746089671e-13,8.696594951e-13,9.539702167e-13,8.277323359e-13,8.70058667e-13,6.544515248e-13,1.411491854e-12,2.51360133e-13,2.326392512e-13,4.159920676e-13,4.803833548e-13,2.98394024e-13,7.163744027e-13,1.000753489e-12,3.130719897e-13,1.279360588e-12,5.905748245e-13,1.965336745e-12,4.708845556e-13
1.59375,2.21479158e-13,8.989744118e-13,5.220815249e-13,8.853651125e-13,9.398447431e-13,1.191154543e-13,1.099524135e-12,2.508672857e-13,3.939082991e-13,2.592387309e-13,2.520948786e-13,3.979718516e-13,2.589610756e-13,6.673745699e-13,8.60519624e-13,9.441208202e-13,8.189252854e-13,8.606862256e-13,6.485846022e-13,1.391869092e-12,2.456103705e-13,2.310213688e-13,4.11432754e-13,4.704083009e-13,2.982415449e-13,7.063741162e-13,9.902379851e-13,3.060963357e-13,1.266258763e-12,5.78937114e-13,1.946561227e-12,4.674082326e-13
1.6015625,2.17086685e-13,8.894876641e-13,5.223456283e-13,8.730996209e-13,9.30495902e-13,1.192851116e-13,1.086563279e-12,2.485454236e-13,3.976933553e-13,2.555875534e-13,2.489704433e-13,3.975522231e-13,2.609960674e-13,6.597587563e-13,8.509775656e-13,9.339279295e-13,8.098748743e-13,8.511733092e-13,6.427736164e-13,1.37168977e-12,2.400307726e-13,2.295615526e-13,4.066925507e-13,4.611608066e-13,2.981351814e-13,6.960820152e-13,9.792456763e-13,2.993967168e-13,1.252609643e-12,5.678328217e-13,1.926951105e-12,4.638492097e-13
1.609375,2.129209149e-13,8.797814226e-13,5.227460304e-13,8.605021562e-13,9.206885084e-13,1.196802039e-13,1.073373545e-12,2.462025112e-13,4.015401912e-13,2.516817156e-13,2.460240211e-13,3.972157449e-13,2.63144084e-13,6.520544426e-13,8.414572526e-13,9.235111314e-13,8.005943672e-13,8.4164154e-13,6.369235549e-13,1.351242058e-12,2.344607879e-13,2.281321376e-13,4.018918109e-13,4.523277781e-13,2.980233713e-13,6.856551108e-13,9.680003305e-13,2.927904653e-13,1.238743682e-12,5.569860586e-13,1.906514018e-12,4.602268153e-13
1.6171875,2.088365113e-13,8.697757574e-13,5.237218441e-13,8.477065243e-13,9.105481441e-13,1.201989143e-13,1.060020281e-12,2.438186404e-13,4.053511182e-13,2.476931784e-13,2.435208136e-13,3.968995028e-13,2.653128839e-13,6.442251941e-13,8.318305362e-13,9.127050107e-13,7.910075807e-13,8.319863624e-13,6.309922821e-13,1.330768493e-12,2.288037332e-13,2.267300834e-13,3.971371966e-13,4.435964088e-13,2.980642068e-13,6.75227488e-13,9.567384966e-13,2.862406538e-13,1.224994651e-12,5.459998936e-13,1.885507204e-12,4.565669674e-13
1.625,2.047852243e-13,8.593053597e-13,5.252083066e-13,8.345665468e-13,9.000328136e-13,1.208178196e-13,1.046029845e-12,2.413893609e-13,4.092351113e-13,2.437567902e-13,2.415167753e-13,3.965396995e-13,2.67634924e-13,6.358467471e-13,8.21629094e-13,9.013261441e-13,7.810773421e-13,8.219402197e-13,6.248223368e-13,1.309832837e-12,2.23025977e-13,2.254880954e-13,3.923803848e-13,4.352784959e-13,2.982823179e-13,6.6459404e-13,9.450513571e-13,2.798612136e-13,1.21077472e-12,5.347368661e-13,1.863672882e-12,4.529224317e-13
1.6328125,2.007555277e-13,8.484282326e-13,5.265753356e-13,8.209849992e-13,8.891089777e-13,1.21462907e-13,1.03130927e-12,2.389477739e-13,4.132715827e-13,2.398456106e-13,2.394164663e-13,3.962357469e-13,2.702067919e-13,6.269979162e-13,8.108035418e-13,8.897098223e-13,7.707906634e-13,8.116392013e-13,6.184553711e-13,1.288179577e-12,2.172986734e-13,2.244564275e-13,3.876449932e-13,4.275018838e-13,2.983939514e-13,6.537213692e-13,9.328235392e-13,2.73729993e-13,1.195717933e-12,5.233508026e-13,1.840811638e-12,4.493504359e-13
1.640625,1.968705988e-13,8.375761142e-13,5.278290588e-13,8.073538058e-13,8.778990358e-13,1.220572197e-13,1.016334184e-12,2.364943488e-13,4.173239894e-13,2.358358124e-13,2.370986297e-13,3.960999801e-13,2.729227202e-13,6.18214889e-13,7.998928554e-13,8.783022606e-13,7.604853624e-13,8.014805756e-13,6.121699255e-13,1.266582597e-12,2.118175068e-13,2.235033085e-13,3.829765591e-13,4.199705122e-13,2.984557402e-13,6.429012845e-13,9.205802363e-13,2.677989588e-13,1.180613397e-12,5.124443714e-13,1.817431634e-12,4.457743925e-13
1.6484375,1.932548103e-13,8.269195258e-13,5.291829789e-13,7.939290029e-13,8.666457729e-13,1.226124493e-13,1.001345601e-12,2.340906643e-13,4.212985589e-13,2.317487236e-13,2.352421365e-13,3.960090165e-13,2.755986418e-13,6.094606388e-13,7.893238314e-13,8.671245724e-13,7.505568747e-13,7.914097719e-13,6.059321917e-13,1.245458058e-12,2.064387191e-13,2.224905079e-13,3.782556181e-13,4.12926803e-13,2.986530181e-13,6.323089153e-13,9.084417051e-13,2.619558844e-13,1.165808868e-12,5.020145264e-13,1.793858858e-12,4.421832116e-13
1.65625,1.898729267e-13,8.160866904e-13,5.308207893e-13,7.805175025e-13,8.553751034e-13,1.232199492e-13,9.862208276e-13,2.317420919e-13,4.2523278e-13,2.277700737e-13,2.338446014e-13,3.958667439e-13,2.782021069e-13,6.004520602e-13,7.787374325e-13,8.557898548e-13,7.406404995e-13,7.812133466e-13,5.995480196e-13,1.224311979e-12,2.010648632e-13,2.214127448e-13,3.734143994e-13,4.066410511e-13,2.988900324e-13,6.219024144e-13,8.96187727e-13,2.56285388e-13,1.150705412e-12,4.912192527e-13,1.76982888e-12,4.386513028e-13
1.6640625,1.867059166e-13,8.049330422e-13,5.328971061e-13,7.669792163e-13,8.437503052e-13,1.240099474e-13,9.707251332e-13,2.293028723e-13,4.291233079e-13,2.239149761e-13,2.324151991e-13,3.958602699e-13,2.808754876e-13,5.913706246e-13,7.67700388e-13,8.439444201e-13,7.30092112e-13,7.709939626e-13,5.931193219e-13,1.20311005e-12,1.959021867e-13,2.203587569e-13,3.685104299e-13,4.006637406e-13,2.991261617e-13,6.115516492e-13,8.838437109e-13,2.509251634e-13,1.135229706e-12,4.803169729e-13,1.745250819e-12,4.350659005e-13
1.671875,1.837467858e-13,7.937394414e-13,5.348905274e-13,7.533355347e-13,8.316788415e-13,1.24903492e-13,9.545677367e-13,2.267722286e-13,4.330169041e-13,2.199973683e-13,2.311012941e-13,3.961057454e-13,2.837342575e-13,5.823168663e-13,7.564150913e-13,8.31678722e-13,7.190433647e-13,7.607537007e-13,5.867203277e-13,1.18206118e-12,1.909070701e-13,2.194309215e-13,3.635052373e-13,3.949804454e-13,2.993112273e-13,6.011620796e-13,8.714593531e-13,2.456533655e-13,1.119747068e-12,4.702311574e-13,1.720270136e-12,4.313422328e-13
1.6796875,1.809218435e-13,7.825753155e-13,5.367077232e-13,7.396654436e-13,8.19640046e-13,1.257005674e-13,9.379396713e-13,2.242933503e-13,4.369917231e-13,2.159858114e-13,2.301928872e-13,3.964926053e-13,2.867502551e-13,5.731633249e-13,7.450636768e-13,8.192949391e-13,7.080335103e-13,7.504743462e-13,5.802957582e-13,1.160946947e-12,1.857987537e-13,2.186213129e-13,3.584215266e-13,3.900961964e-13,2.993621242e-13,5.908788849e-13,8.591776999e-13,2.402499827e-13,1.104175005e-12,4.604108983e-13,1.694985664e-12,4.27639889e-13
1.6875,1.782153461e-13,7.713946763e-13,5.389359289e-13,7.261623591e-13,8.079674058e-13,1.264864701e-13,9.214449245e-13,2.218478789e-13,4.409281747e-13,2.120825809e-13,2.296142974e-13,3.969995067e-13,2.898281605e-13,5.640221591e-13,7.336261482e-13,8.070004401e-13,6.971891671e-13,7.404912854e-13,5.739878066e-13,1.140037221e-12,1.806622268e-13,2.17810879e-13,3.534121346e-13,3.85739378e-13,2.995036545e-13,5.809080183e-13,8.471554041e-13,2.350279386e-13,1.088483136e-12,4.502439632e-13,1.66958152e-12,4.240426025e-13
1.6953125,1.756613281e-13,7.603726525e-13,5.410265181e-13,7.128287704e-13,7.963656281e-13,1.273807558e-13,9.050391737e-13,2.193461606e-13,4.446981575e-13,2.084274607e-13,2.291459398e-13,3.976929663e-13,2.929145684e-13,5.549456323e-13,7.222467824e-13,7.949455868e-13,6.863355544e-13,7.308857566e-13,5.678474129e-13,1.119714547e-12,1.757828782e-13,2.169687075e-13,3.48401464e-13,3.815460235e-13,2.997886232e-13,5.711601251e-13,8.351406287e-13,2.302992615e-13,1.07297604e-12,4.404734195e-13,1.644114589e-12,4.204381786e-13
1.703125,1.732764391e-13,7.49514527e-13,5.425756653e-13,6.99408042e-13,7.845255238e-13,1.282949065e-13,8.883326889e-13,2.167984178e-13,4.483929404e-13,2.048809854e-13,2.286606946e-13,3.985435405e-13,2.960363277e-13,5.457684105e-13,7.108043603e-13,7.829963769e-13,6.753157157e-13,7.212897283e-13,5.617006061e-13,1.099487328e-12,1.711529124e-13,2.161710812e-13,3.432802746e-13,3.777593078e-13,2.999286509e-13,5.614920951e-13,8.230537817e-13,2.258352736e-13,1.057650112e-12,4.312121121e-13,1.618524119e-12,4.167465407e-13
1.7109375,1.710629771e-13,7.386403526e-13,5.446487492e-13,6.85979418e-13,7.726507201e-13,1.29335111e-13,8.715993188e-13,2.142407538e-13,4.521167558e-13,2.011837466e-13,2.284726095e-13,3.995343093e-13,2.99314181e-13,5.365576998e-13,6.991462668e-13,7.708429257e-13,6.641016096e-13,7.116281949e-13,5.556000731e-13,1.079194145e-12,1.665800138e-13,2.154740597e-13,3.382702804e-13,3.741674408e-13,3.00054989e-13,5.52020241e-13,8.111722871e-13,2.214680308e-13,1.042136587e-12,4.218566392e-13,1.593045584e-12,4.130025426e-13
1.71875,1.690454539e-13,7.279006192e-13,5.472416082e-13,6.729609484e-13,7.609629074e-13,1.306340383e-13,8.55094666e-13,2.117069609e-13,4.558985457e-13,1.973469254e-13,2.288537749e-13,4.007006502e-13,3.029158777e-13,5.275548637e-13,6.877717987e-13,7.586644024e-13,6.528821381e-13,7.020981756e-13,5.496100029e-13,1.059409555e-12,1.61966433e-13,2.149451812e-13,3.334563232e-13,3.705738504e-13,3.00369715e-13,5.428095282e-13,7.99279847e-13,2.174243704e-13,1.026327334e-12,4.127565491e-13,1.567786277e-12,4.092746134e-13
1.7265625,1.673365487e-13,7.175407293e-13,5.493129148e-13,6.603534766e-13,7.49275641e-13,1.319564854e-13,8.384671978e-13,2.092211142e-13,4.59757385e-13,1.936534825e-13,2.293706519e-13,4.019832012e-13,3.068294467e-13,5.188031722e-13,6.769199776e-13,7.468168643e-13,6.417983668e-13,6.92639747e-13,5.43435028e-13,1.040094177e-12,1.573600273e-13,2.146260752e-13,3.286059224e-13,3.676488585e-13,3.005313191e-13,5.336780441e-13,7.871488131e-13,2.136251959e-13,1.010589399e-12,4.040524069e-13,1.54239724e-12,4.055621765e-13
1.734375,1.659496285e-13,7.07428786e-13,5.512216878e-13,6.47732729e-13,7.374524642e-13,1.331947429e-13,8.215597064e-13,2.067691826e-13,4.6361021e-13,1.90201695e-13,2.296871458e-13,4.032996239e-13,3.108073066e-13,5.10123203e-13,6.659026719e-13,7.350437793e-13,6.306833017e-13,6.831291692e-13,5.369936688e-13,1.020991773e-12,1.528843281e-13,2.144321332e-13,3.237220381e-13,3.654391182e-13,3.00503397e-13,5.245501043e-13,7.752841189e-13,2.097451291e-13,9.952893517e-13,3.950447399e-13,1.516849195e-12,4.017995209e-13
1.7421875,1.647304796e-13,6.974251692e-13,5.536761771e-13,6.350606197e-13,7.256195666e-13,1.345686864e-13,8.046189421e-13,2.043147456e-13,4.673622738e-13,1.868734283e-13,2.300236805e-13,4.047679416e-13,3.147693707e-13,5.014140429e-13,6.542933406e-13,7.229791534e-13,6.194434718e-13,6.738039251e-13,5.307217927e-13,1.002555707e-12,1.485844998e-13,2.142871433e-13,3.189482388e-13,3.63166033e-13,3.007726872e-13,5.155749707e-13,7.639777478e-13,2.06045821e-13,9.805168203e-13,3.859294511e-13,1.491617676e-12,3.979317372e-13
1.75,1.637114115e-13,6.876804909e-13,5.564200563e-13,6.227599489e-13,7.137922779e-13,1.361144752e-13,7.87852815e-13,2.018132253e-13,4.710904477e-13,1.8369255e-13,2.304678277e-13,4.065985115e-13,3.18927494e-13,4.929346729e-13,6.426131638e-13,7.108631404e-13,6.083234588e-13,6.650710495e-13,5.249067456e-13,9.850376058e-13,1.444009602e-13,2.142099731e-13,3.141631166e-13,3.609489138e-13,3.013662397e-13,5.068409526e-13,7.529753308e-13,2.029553752e-13,9.663233737e-13,3.77373267e-13,1.466869791e-12,3.939596031e-13
1.7578125,1.629733531e-13,6.781643669e-13,5.59004091e-13,6.108764437e-13,7.019558715e-13,1.376782564e-13,7.712649308e-13,1.993108983e-13,4.748820063e-13,1.806621074e-13,2.309970372e-13,4.087230593e-13,3.233213466e-13,4.84885408e-13,6.314352744e-13,6.990201646e-13,5.974095817e-13,6.568626497e-13,5.19340248e-13,9.679154104e-13,1.403234736e-13,2.141931594e-13,3.092714469e-13,3.593499659e-13,3.01945479e-13,4.982962358e-13,7.422047986e-13,2.002680591e-13,9.524975625e-13,3.6915449e-13,1.442208633e-12,3.900164349e-13
1.765625,1.623544407e-13,6.686075803e-13,5.611646881e-13,5.989746195e-13,6.902376567e-13,1.392158577e-13,7.545215708e-13,1.969257231e-13,4.78664353e-13,1.775843656e-13,2.316551226e-13,4.108835874e-13,3.277551529e-13,4.770043152e-13,6.206019612e-13,6.872903286e-13,5.864097812e-13,6.486859979e-13,5.137552437e-13,9.506985103e-13,1.363838344e-13,2.141949646e-13,3.043916304e-13,3.580871022e-13,3.024590857e-13,4.898704074e-13,7.315686443e-13,1.977122674e-13,9.38464723e-13,3.610817164e-13,1.417246912e-12,3.862241408e-13
1.7734375,1.618620219e-13,6.590815035e-13,5.631955811e-13,5.870038489e-13,6.786242023e-13,1.408152809e-13,7.373959909e-13,1.9463191e-13,4.823298434e-13,1.745150066e-13,2.323418717e-13,4.130860111e-13,3.321661764e-13,4.691873926e-13,6.096555023e-13,6.754431614e-13,5.752299523e-13,6.404711754e-13,5.081562438e-13,9.335400617e-13,1.325429403e-13,2.141820842e-13,2.996095336e-13,3.566510305e-13,3.029332472e-13,4.815271797e-13,7.208433198e-13,1.954031531e-13,9.242687931e-13,3.533111117e-13,1.392137624e-12,3.824180285e-13
1.78125,1.616663023e-13,6.498873251e-13,5.655446988e-13,5.753895984e-13,6.670469205e-13,1.426034824e-13,7.202466857e-13,1.923644689e-13,4.858550908e-13,1.7171423e-13,2.33100639e-13,4.154926981e-13,3.365627176e-13,4.616989665e-13,5.986760657e-13,6.636212706e-13,5.641447118e-13,6.325156598e-13,5.026362531e-13,9.169627208e-13,1.287669808e-13,2.141211607e-13,2.949515477e-13,3.550264768e-13,3.033142212e-13,4.732967945e-13,7.101713877e-13,1.933514551e-13,9.105250413e-13,3.455797926e-13,1.367253997e-12,3.7841424e-13
1.7890625,1.616767267e-13,6.410283552e-13,5.678173203e-13,5.642492599e-13,6.556068067e-13,1.445432126e-13,7.03300243e-13,1.901882601e-13,4.892895117e-13,1.690490161e-13,2.340068869e-13,4.180787408e-13,3.409441863e-13,4.545246477e-13,5.879788909e-13,6.520219438e-13,5.532388888e-13,6.247761336e-13,4.971859159e-13,9.010850254e-13,1.250834006e-13,2.140803477e-13,2.904216563e-13,3.534335756e-13,3.037151699e-13,4.652302673e-13,6.997085768e-13,1.914739109e-13,8.970530531e-13,3.378197434e-13,1.342517583e-12,3.743604691e-13
1.796875,1.619078463e-13,6.324145971e-13,5.699449811e-13,5.533667726e-13,6.442836621e-13,1.465235327e-13,6.863449493e-13,1.880272001e-13,4.927063205e-13,1.663088604e-13,2.348403573e-13,4.208309431e-13,3.454789161e-13,4.475421149e-13,5.773138474e-13,6.40549672e-13,5.423240143e-13,6.171895634e-13,4.918189827e-13,8.856443444e-13,1.214981409e-13,2.141862143e-13,2.85982282e-13,3.519692133e-13,3.04314209e-13,4.573500512e-13,6.894453548e-13,1.897993997e-13,8.833764663e-13,3.303506252e-13,1.317793155e-12,3.704257746e-13
1.8046875,1.625906934e-13,6.241382808e-13,5.726575923e-13,5.427485409e-13,6.330005032e-13,1.486430009e-13,6.694551167e-13,1.856808487e-13,4.960913198e-13,1.637250366e-13,2.356855562e-13,4.238073365e-13,3.502132814e-13,4.408643983e-13,5.663631939e-13,6.290841123e-13,5.313756299e-13,6.099641748e-13,4.86602222e-13,8.708926383e-13,1.180370752e-13,2.143609331e-13,2.816484277e-13,3.50640122e-13,3.050865749e-13,4.497463258e-13,6.796451784e-13,1.88194876e-13,8.699716465e-13,3.230381469e-13,1.293438105e-12,3.665526175e-13
