"Time","Fp1","AF3","F7","F3","FC1","FC5","T7","C3","CP1","CP5","P7","P3","Pz","PO3","O1","Oz","O2","PO4","P4","P8","CP6","CP2","C4","T8","FC6","FC2","F4","F8","AF4","Fp2","Fz","Cz"
0.0078125,5.011676684e-14,1.908931843e-13,5.868584184e-13,4.983094326e-13,6.406562573e-13,3.473403847e-13,3.210697313e-13,4.506897767e-13,3.998075383e-13,1.179933827e-13,4.921642589e-13,1.377694346e-13,1.930555534e-13,2.340953129e-13,4.092436436e-13,3.959521676e-13,8.978786662e-13,4.981841332e-13,1.14048161e-13,9.971255893e-13,1.234489405e-13,5.718304498e-14,6.060692985e-14,5.391405309e-13,7.84216154e-13,4.608527581e-13,2.895716254e-13,1.277386159e-12,1.299426742e-13,5.940239783e-14,5.47826041e-13,4.413045457e-13
0.015625,5.175848819e-14,1.958678886e-13,5.950717764e-13,5.086405729e-13,6.538305729e-13,3.518718826e-13,3.240931949e-13,4.583733675e-13,4.060907685e-13,1.188743e-13,4.988763251e-13,1.392876146e-13,1.959283509e-13,2.378562707e-13,4.169101935e-13,4.048193636e-13,9.145057319e-13,5.072695935e-13,1.165441321e-13,1.015329053e-12,1.266981125e-13,5.783886329e-14,6.174890224e-14,5.50756685e-13,7.901842511e-13,4.703628668e-13,2.957071604e-13,1.288716381e-12,1.32996888e-13,6.009178159e-14,5.603842096e-13,4.495454752e-13
0.0234375,5.338944762e-14,2.009816895e-13,6.032318589e-13,5.1881476e-13,6.670240607e-13,3.56189843e-13,3.270880786e-13,4.659562265e-13,4.123344327e-13,1.197074728e-13,5.056986725e-13,1.407465541e-13,1.987704144e-13,2.415332604e-13,4.243667147e-13,4.136759384e-13,9.311790275e-13,5.16171111e-13,1.190041804e-13,1.033825003e-12,1.299711796e-13,5.848231557e-14,6.286338855e-14,5.626036455e-13,7.956568331e-13,4.799020976e-13,3.019462949e-13,1.299708461e-12,1.360744845e-13,6.073918405e-14,5.729223075e-13,4.578027805e-13
0.03125,5.510006996e-14,2.06172022e-13,6.114201518e-13,5.288284811e-13,6.802359771e-13,3.601047148e-13,3.299803465e-13,4.73484924e-13,4.18632105e-13,1.204941848e-13,5.125941691e-13,1.422346783e-13,2.016064695e-13,2.45033543e-13,4.31521567e-13,4.224595607e-13,9.479709812e-13,5.249027179e-13,1.214184115e-13,1.052473883e-12,1.331475791e-13,5.912352303e-14,6.396941656e-14,5.741096782e-13,8.006380658e-13,4.893064426e-13,3.082033315e-13,1.310269577e-12,1.391882376e-13,6.136066902e-14,5.853595264e-13,4.661005604e-13
0.0390625,5.683074009e-14,2.115007529e-13,6.197060887e-13,5.387257296e-13,6.934215436e-13,3.637617288e-13,3.326869372e-13,4.80880597e-13,4.248595968e-13,1.212404693e-13,5.194372199e-13,1.437276564e-13,2.043794483e-13,2.483921574e-13,4.384238309e-13,4.311170283e-13,9.64597778e-13,5.334525904e-13,1.238021269e-13,1.070895817e-12,1.363156158e-13,5.975730253e-14,6.505349739e-14,5.856199348e-13,8.05388554e-13,4.986670174e-13,3.144195097e-13,1.320510359e-12,1.422635224e-13,6.195179883e-14,5.977797333e-13,4.74348981e-13
0.046875,5.849173304e-14,2.17018333e-13,6.27987875e-13,5.485080332e-13,7.065466889e-13,3.672841336e-13,3.353012526e-13,4.880590459e-13,4.308240201e-13,1.219458813e-13,5.262194388e-13,1.451424645e-13,2.071035387e-13,2.517608715e-13,4.452526048e-13,4.397156711e-13,9.809118865e-13,5.418529819e-13,1.261847705e-13,1.089014515e-12,1.395676696e-13,6.038449308e-14,6.610583586e-14,5.974383738e-13,8.098885286e-13,5.081572793e-13,3.207028783e-13,1.330574628e-12,1.453519418e-13,6.250792582e-14,6.102993362e-13,4.824819583e-13
0.0546875,6.01754284e-14,2.22615572e-13,6.361744816e-13,5.581392513e-13,7.196442988e-13,3.706518997e-13,3.377917681e-13,4.950842024e-13,4.366126497e-13,1.226118827e-13,5.329758445e-13,1.464586432e-13,2.098025978e-13,2.551329757e-13,4.520169032e-13,4.483167123e-13,9.970931187e-13,5.501063938e-13,1.285411166e-13,1.107106008e-12,1.428149788e-13,6.099323342e-14,6.716194194e-14,6.09071941e-13,8.139669029e-13,5.176827362e-13,3.269608548e-13,1.340374713e-12,1.484857968e-13,6.304251721e-14,6.228424907e-13,4.905551548e-13
0.0625,6.194667457e-14,2.282723314e-13,6.4437327e-13,5.676441702e-13,7.32715561e-13,3.737849793e-13,3.400503398e-13,5.018992759e-13,4.423405745e-13,1.232242254e-13,5.396902284e-13,1.476880312e-13,2.124412878e-13,2.583473282e-13,4.584642604e-13,4.567486314e-13,1.013046913e-12,5.580516515e-13,1.30834986e-13,1.125137667e-12,1.46082772e-13,6.157965294e-14,6.824373482e-14,6.202971457e-13,8.176676818e-13,5.270896993e-13,3.32966315e-13,1.34980836e-12,1.515791626e-13,6.355213856e-14,6.353298805e-13,4.985793107e-13
0.0703125,6.372669881e-14,2.340185105e-13,6.526359942e-13,5.769371944e-13,7.456880097e-13,3.76609389e-13,3.42157682e-13,5.08457516e-13,4.479684815e-13,1.237842638e-13,5.463235437e-13,1.488689216e-13,2.150201373e-13,2.613510407e-13,4.644364558e-13,4.647684673e-13,1.028448009e-12,5.655358082e-13,1.33055167e-13,1.142798937e-12,1.494296381e-13,6.215784707e-14,6.931941828e-14,6.314669698e-13,8.209481751e-13,5.364187516e-13,3.387743295e-13,1.358868573e-12,1.546313311e-13,6.403320442e-14,6.477426871e-13,5.065099252e-13
0.078125,6.55119035e-14,2.397570868e-13,6.609231419e-13,5.858555377e-13,7.58535727e-13,3.792147458e-13,3.441721242e-13,5.149619381e-13,4.53496441e-13,1.243271785e-13,5.528632372e-13,1.500454637e-13,2.175437612e-13,2.641991289e-13,4.701014023e-13,4.724771734e-13,1.043372242e-12,5.726134928e-13,1.351947199e-13,1.160139214e-12,1.527341749e-13,6.271848429e-14,7.037773336e-14,6.428743779e-13,8.237399292e-13,5.457003726e-13,3.445448291e-13,1.367583598e-12,1.576801607e-13,6.449676932e-14,6.599763772e-13,5.143705974e-13
0.0859375,6.733268543e-14,2.454928918e-13,6.693183581e-13,5.943663261e-13,7.711819742e-13,3.815789135e-13,3.460324595e-13,5.213934257e-13,4.588822976e-13,1.24857231e-13,5.593395215e-13,1.511926941e-13,2.199669999e-13,2.668825661e-13,4.755649691e-13,4.801374113e-13,1.05799243e-12,5.793354944e-13,1.372291181e-13,1.177272315e-12,1.559292224e-13,6.323949463e-14,7.140354471e-14,6.542708194e-13,8.26043306e-13,5.548422626e-13,3.502567121e-13,1.375927333e-12,1.606726536e-13,6.492975998e-14,6.719281999e-13,5.221473803e-13
0.09375,6.916457183e-14,2.51303242e-13,6.777793593e-13,6.025305171e-13,7.834807234e-13,3.835146021e-13,3.477655472e-13,5.275126651e-13,4.640279242e-13,1.25341981e-13,5.657766031e-13,1.522733471e-13,2.222910468e-13,2.693722363e-13,4.806519373e-13,4.876709666e-13,1.072214408e-12,5.85644764e-13,1.39141516e-13,1.194003155e-12,1.590385723e-13,6.373397365e-14,7.233829585e-14,6.651624816e-13,8.278361729e-13,5.638121991e-13,3.558659029e-13,1.383904432e-12,1.635985125e-13,6.532080271e-14,6.836117898e-13,5.297535965e-13
0.1015625,7.103919622e-14,2.571170228e-13,6.86063308e-13,6.10521268e-13,7.955453533e-13,3.85159026e-13,3.493972006e-13,5.333964774e-13,4.689978231e-13,1.257734518e-13,5.72160181e-13,1.533056678e-13,2.245737602e-13,2.717270382e-13,4.853313144e-13,4.948704521e-13,1.086083195e-12,5.916071206e-13,1.409999945e-13,1.210345279e-12,1.620687959e-13,6.423853426e-14,7.322768809e-14,6.757815148e-13,8.293850884e-13,5.726459677e-13,3.614017912e-13,1.391798972e-12,1.665131948e-13,6.568564486e-14,6.951506998e-13,5.372070998e-13
0.109375,7.293963091e-14,2.629441538e-13,6.941892028e-13,6.184136446e-13,8.07560662e-13,3.866279605e-13,3.508671768e-13,5.390907893e-13,4.738442468e-13,1.261670124e-13,5.784744367e-13,1.542940051e-13,2.268296128e-13,2.739937467e-13,4.897244395e-13,5.017489066e-13,1.099622679e-12,5.972786137e-13,1.428521001e-13,1.226456027e-12,1.650997718e-13,6.476183993e-14,7.418400274e-14,6.866282874e-13,8.308327543e-13,5.813685976e-13,3.669594296e-13,1.399698123e-12,1.69425857e-13,6.60158392e-14,7.066670643e-13,5.445590937e-13
0.1171875,7.480267106e-14,2.688843575e-13,7.023323033e-13,6.258955751e-13,8.193532313e-13,3.876351925e-13,3.52168444e-13,5.443905576e-13,4.784727896e-13,1.2652591e-13,5.847006348e-13,1.552165519e-13,2.290054703e-13,2.761042465e-13,4.937216949e-13,5.083012702e-13,1.112552946e-12,6.02477528e-13,1.445672037e-13,1.242116723e-12,1.68138388e-13,6.527101048e-14,7.516852548e-14,6.973719004e-13,8.316993139e-13,5.900143902e-13,3.725730906e-13,1.406968694e-12,1.723022317e-13,6.62963385e-14,7.180514795e-13,5.517390026e-13
0.125,7.671462015e-14,2.748578999e-13,7.104321717e-13,6.328625709e-13,8.307976088e-13,3.882158007e-13,3.533067538e-13,5.494041953e-13,4.828835935e-13,1.268370845e-13,5.908134105e-13,1.560798551e-13,2.310621432e-13,2.78016334e-13,4.972724676e-13,5.145100844e-13,1.124896536e-12,6.07151186e-13,1.460557055e-13,1.257154742e-12,1.710751437e-13,6.574486121e-14,7.610800737e-14,7.076185593e-13,8.317415154e-13,5.985225449e-13,3.779337477e-13,1.413224822e-12,1.751082214e-13,6.65464445e-14,7.291128513e-13,5.587048338e-13
0.1328125,7.869755997e-14,2.808134239e-13,7.185008576e-13,6.396867993e-13,8.420764154e-13,3.887175234e-13,3.542685983e-13,5.54339573e-13,4.871275028e-13,1.27097599e-13,5.968366853e-13,1.568967665e-13,2.330561576e-13,2.798155526e-13,5.005720622e-13,5.205395618e-13,1.136947434e-12,6.115146227e-13,1.474363578e-13,1.271739203e-12,1.739438219e-13,6.620791626e-14,7.704219872e-14,7.174492826e-13,8.312543865e-13,6.067837696e-13,3.828100844e-13,1.419086621e-12,1.778905468e-13,6.676990841e-14,7.39938826e-13,5.65503789e-13
0.140625,8.062342443e-14,2.868194369e-13,7.267157708e-13,6.46319735e-13,8.531741755e-13,3.890142764e-13,3.550817026e-13,5.590411776e-13,4.911841935e-13,1.273256066e-13,6.027830174e-13,1.576755474e-13,2.350289731e-13,2.81522349e-13,5.035511623e-13,5.263563685e-13,1.148575592e-12,6.155398775e-13,1.487569929e-13,1.285864353e-12,1.767865722e-13,6.667840146e-14,7.796921557e-14,7.269536277e-13,8.304050383e-13,6.148860284e-13,3.875873702e-13,1.425085476e-12,1.807350267e-13,6.695281827e-14,7.506389248e-13,5.721332242e-13
0.1484375,8.252969356e-14,2.927985548e-13,7.349057045e-13,6.523274552e-13,8.639220336e-13,3.887992766e-13,3.557024243e-13,5.634193708e-13,4.950915792e-13,1.275097919e-13,6.085282115e-13,1.584332865e-13,2.368683825e-13,2.82996645e-13,5.059328763e-13,5.316589103e-13,1.159584363e-12,6.189660782e-13,1.499151907e-13,1.29933858e-12,1.795098897e-13,6.714220705e-14,7.884397973e-14,7.365739476e-13,8.2922969e-13,6.228902768e-13,3.924752963e-13,1.430866083e-12,1.83550929e-13,6.710167873e-14,7.610470755e-13,5.78587552e-13
0.15625,8.447726427e-14,2.986972923e-13,7.42721332e-13,6.577986243e-13,8.743778207e-13,3.88117738e-13,3.560676404e-13,5.675756829e-13,4.988404525e-13,1.276131451e-13,6.139506115e-13,1.591603742e-13,2.385099091e-13,2.84192161e-13,5.07773169e-13,5.364491939e-13,1.170131191e-12,6.218462696e-13,1.50908607e-13,1.312193914e-12,1.821412201e-13,6.759713071e-14,7.969261331e-14,7.464853262e-13,8.276474842e-13,6.305859612e-13,3.970533408e-13,1.435980552e-12,1.86202038e-13,6.721332492e-14,7.710661926e-13,5.848857768e-13
0.1640625,8.636361617e-14,3.046772777e-13,7.502601911e-13,6.630589104e-13,8.845852023e-13,3.871795832e-13,3.562863504e-13,5.714647717e-13,5.022926505e-13,1.276696634e-13,6.191423507e-13,1.59829761e-13,2.401075438e-13,2.852771835e-13,5.0933509e-13,5.410116968e-13,1.180213152e-12,6.244472541e-13,1.518218047e-13,1.324514223e-12,1.847840067e-13,6.804929604e-14,8.052279979e-14,7.55871492e-13,8.255398645e-13,6.379275925e-13,4.013359921e-13,1.4406452e-12,1.888052327e-13,6.729045477e-14,7.808229487e-13,5.909502252e-13
0.171875,8.822364905e-14,3.108291645e-13,7.578488067e-13,6.680697323e-13,8.944700428e-13,3.86136709e-13,3.56443922e-13,5.750134843e-13,5.054282621e-13,1.277595259e-13,6.242526676e-13,1.604396353e-13,2.41764228e-13,2.863709377e-13,5.107310139e-13,5.454445083e-13,1.189654318e-12,6.267825763e-13,1.526606819e-13,1.336160463e-12,1.874130377e-13,6.847995405e-14,8.131910523e-14,7.645854705e-13,8.231839505e-13,6.451478751e-13,4.057921334e-13,1.445327113e-12,1.914980695e-13,6.736085049e-14,7.903765126e-13,5.967168622e-13
0.1796875,9.017945141e-14,3.170615551e-13,7.654938969e-13,6.726651659e-13,9.040465781e-13,3.849385223e-13,3.564323496e-13,5.78217703e-13,5.083390367e-13,1.278883186e-13,6.29265378e-13,1.609999226e-13,2.433798879e-13,2.873830634e-13,5.118942788e-13,5.496641152e-13,1.198556034e-12,6.286879504e-13,1.533757659e-13,1.347091989e-12,1.899662118e-13,6.887422736e-14,8.211800969e-14,7.732651452e-13,8.207210584e-13,6.522486189e-13,4.102540058e-13,1.449854532e-12,1.941659646e-13,6.739980357e-14,7.996583667e-13,6.022771248e-13
0.1875,9.217549742e-14,3.232583606e-13,7.729930309e-13,6.767448509e-13,9.132967417e-13,3.834478221e-13,3.562195585e-13,5.810702902e-13,5.110481178e-13,1.280020641e-13,6.340730104e-13,1.615403649e-13,2.44905594e-13,2.88215096e-13,5.126624874e-13,5.535417918e-13,1.206981251e-12,6.300912112e-13,1.539498387e-13,1.357569943e-12,1.923970614e-13,6.925342167e-14,8.291493807e-14,7.816355887e-13,8.178455954e-13,6.59057469e-13,4.143456626e-13,1.453652128e-12,1.966858216e-13,6.737296331e-14,8.085702719e-13,6.07688825e-13
0.1953125,9.413897625e-14,3.29367694e-13,7.802230906e-13,6.802906813e-13,9.221160729e-13,3.817123705e-13,3.559690822e-13,5.836343799e-13,5.135597694e-13,1.280560279e-13,6.385558368e-13,1.621117464e-13,2.464245646e-13,2.889161876e-13,5.129846841e-13,5.569534525e-13,1.214663664e-12,6.309909103e-13,1.544116068e-13,1.367547941e-12,1.946971739e-13,6.964571658e-14,8.366027635e-14,7.894556805e-13,8.14560984e-13,6.655738133e-13,4.182472672e-13,1.456841115e-12,1.991038854e-13,6.735230604e-14,8.170076009e-13,6.128498689e-13
0.203125,9.608748207e-14,3.354748481e-13,7.871395458e-13,6.83425351e-13,9.304793035e-13,3.797352283e-13,3.557914218e-13,5.859524869e-13,5.158645901e-13,1.280280635e-13,6.426729379e-13,1.627062176e-13,2.479551526e-13,2.895593207e-13,5.130037257e-13,5.599656557e-13,1.22154e-12,6.314334342e-13,1.547680096e-13,1.376576099e-12,1.969143117e-13,7.003958792e-14,8.436398583e-14,7.971516135e-13,8.110204189e-13,6.718322178e-13,4.221199814e-13,1.459899496e-12,2.015040124e-13,6.73927071e-14,8.249749315e-13,6.176926596e-13
0.2109375,9.804453972e-14,3.417175992e-13,7.938202223e-13,6.862419886e-13,9.384511269e-13,3.774431226e-13,3.555838176e-13,5.880064644e-13,5.179112359e-13,1.279540639e-13,6.466199424e-13,1.632692663e-13,2.49430696e-13,2.901425616e-13,5.12797843e-13,5.627670297e-13,1.227964846e-12,6.315337183e-13,1.549855228e-13,1.384755249e-12,1.990301928e-13,7.039648033e-14,8.504833738e-14,8.045180963e-13,8.071214977e-13,6.778760994e-13,4.258744578e-13,1.462631655e-12,2.039269472e-13,6.741876213e-14,8.326357122e-13,6.222984837e-13
0.21875,1.000049792e-13,3.481058035e-13,8.004496675e-13,6.886982672e-13,9.460776933e-13,3.749807142e-13,3.551367521e-13,5.897872954e-13,5.196758786e-13,1.279000953e-13,6.505298703e-13,1.63804459e-13,2.508399658e-13,2.906391475e-13,5.122479696e-13,5.653031998e-13,1.234000787e-12,6.312717171e-13,1.550625874e-13,1.392415249e-12,2.010148511e-13,7.07166358e-14,8.570259552e-14,8.113692751e-13,8.028782093e-13,6.838034438e-13,4.295071463e-13,1.464769226e-12,2.06349213e-13,6.739366003e-14,8.400860815e-13,6.267212568e-13
0.2265625,1.01911731e-13,3.545638619e-13,8.070742996e-13,6.906777218e-13,9.532330454e-13,3.72375492e-13,3.543689899e-13,5.911702983e-13,5.211325394e-13,1.278560111e-13,6.54171118e-13,1.643330906e-13,2.522272415e-13,2.910110964e-13,5.112393116e-13,5.673418305e-13,1.239233331e-12,6.304627356e-13,1.550102568e-13,1.399025703e-12,2.028869439e-13,7.103970322e-14,8.633919783e-14,8.180133357e-13,7.982721556e-13,6.894980244e-13,4.329388507e-13,1.466553337e-12,2.087089877e-13,6.737850628e-14,8.471803398e-13,6.308709294e-13
0.234375,1.038083375e-13,3.610344304e-13,8.13604351e-13,6.921259193e-13,9.597736633e-13,3.694573585e-13,3.534180875e-13,5.92133515e-13,5.222735948e-13,1.27769453e-13,6.574403929e-13,1.648095883e-13,2.535994617e-13,2.912433516e-13,5.099184823e-13,5.689618298e-13,1.243761703e-12,6.291866569e-13,1.548424265e-13,1.404264979e-12,2.04591344e-13,7.137805839e-14,8.698158409e-14,8.241502055e-13,7.933044634e-13,6.947774831e-13,4.361394518e-13,1.468029084e-12,2.109954681e-13,6.73565181e-14,8.537831092e-13,6.346968136e-13
0.2421875,1.058386093e-13,3.674948527e-13,8.200099728e-13,6.932116224e-13,9.658691468e-13,3.66346629e-13,3.524328051e-13,5.929733843e-13,5.231866117e-13,1.276577625e-13,6.605884051e-13,1.652034703e-13,2.549331168e-13,2.913984039e-13,5.085564216e-13,5.704877112e-13,1.248296621e-12,6.277820477e-13,1.54620346e-13,1.408887609e-12,2.061122559e-13,7.171622176e-14,8.759760306e-14,8.295643491e-13,7.882750981e-13,6.997657674e-13,4.393197184e-13,1.469034261e-12,2.132261341e-13,6.725188057e-14,8.600087876e-13,6.382876917e-13
0.25,1.079182954e-13,3.739435001e-13,8.262276811e-13,6.940076607e-13,9.716164285e-13,3.631613429e-13,3.514018841e-13,5.937088481e-13,5.23917324e-13,1.275671236e-13,6.636337265e-13,1.655679886e-13,2.562157476e-13,2.91485857e-13,5.070177529e-13,5.718332581e-13,1.252778281e-12,6.261796528e-13,1.543110095e-13,1.413134084e-12,2.075168754e-13,7.203799003e-14,8.812749942e-14,8.345528683e-13,7.830099912e-13,7.045801699e-13,4.42441542e-13,1.469660596e-12,2.15397126e-13,6.709568653e-14,8.658931899e-13,6.416493884e-13
0.2578125,1.098508026e-13,3.803454358e-13,8.321045705e-13,6.942299298e-13,9.767019114e-13,3.597248649e-13,3.502753471e-13,5.939210941e-13,5.243989275e-13,1.274869486e-13,6.663475502e-13,1.659479153e-13,2.574240166e-13,2.914085745e-13,5.048844993e-13,5.725682875e-13,1.256328986e-12,6.239098377e-13,1.537747359e-13,1.416446184e-12,2.087675209e-13,7.231402896e-14,8.860249383e-14,8.390222868e-13,7.770649694e-13,7.090368693e-13,4.452794786e-13,1.469938461e-12,2.175048497e-13,6.696442892e-14,8.711971834e-13,6.446449896e-13
0.265625,1.116668668e-13,3.866977647e-13,8.37641449e-13,6.938111836e-13,9.810376204e-13,3.56076886e-13,3.490786961e-13,5.935494159e-13,5.24591697e-13,1.273831085e-13,6.687249232e-13,1.663262464e-13,2.585651025e-13,2.911836631e-13,5.022155762e-13,5.727004154e-13,1.258767012e-12,6.208571008e-13,1.53036466e-13,1.418824837e-12,2.098470269e-13,7.254352713e-14,8.911608465e-14,8.431420249e-13,7.708304641e-13,7.129914007e-13,4.479223039e-13,1.469823737e-12,2.195198918e-13,6.685296513e-14,8.758510081e-13,6.472278871e-13
0.2734375,1.134672392e-13,3.930901678e-13,8.430815055e-13,6.9307866e-13,9.849243827e-13,3.523884218e-13,3.478335255e-13,5.929634754e-13,5.245164516e-13,1.272540204e-13,6.708499956e-13,1.667015133e-13,2.597298358e-13,2.90929112e-13,4.993813884e-13,5.726135668e-13,1.26069228e-12,6.173478353e-13,1.522283294e-13,1.420433542e-12,2.107923535e-13,7.27872719e-14,8.96430364e-14,8.471488132e-13,7.646624241e-13,7.165357289e-13,4.504595848e-13,1.469466322e-12,2.214395598e-13,6.673301486e-14,8.800727288e-13,6.494881956e-13
0.28125,1.152592636e-13,3.995531839e-13,8.485914012e-13,6.921312403e-13,9.884376315e-13,3.485554907e-13,3.465171215e-13,5.922647569e-13,5.242119166e-13,1.27118334e-13,6.72729903e-13,1.671078985e-13,2.609607922e-13,2.906254509e-13,4.964282529e-13,5.724328905e-13,1.262464767e-12,6.136741133e-13,1.513470297e-13,1.421081438e-12,2.115384436e-13,7.307910554e-14,9.009738524e-14,8.502731822e-13,7.581726671e-13,7.19816301e-13,4.528496464e-13,1.468892499e-12,2.233788941e-13,6.660663952e-14,8.839853072e-13,6.515110599e-13
0.2890625,1.170048381e-13,4.060806414e-13,8.538760465e-13,6.908059344e-13,9.914555256e-13,3.445427678e-13,3.451312476e-13,5.912184961e-13,5.236958129e-13,1.269833323e-13,6.744003489e-13,1.675298288e-13,2.621745432e-13,2.902216008e-13,4.933376822e-13,5.721138091e-13,1.264131317e-12,6.09935274e-13,1.503570703e-13,1.420889096e-12,2.121479144e-13,7.338428385e-14,9.050383593e-14,8.523889216e-13,7.513637455e-13,7.228764783e-13,4.55267749e-13,1.467888418e-12,2.253931747e-13,6.646343612e-14,8.875601386e-13,6.532766695e-13
0.296875,1.186642726e-13,4.127283273e-13,8.585154236e-13,6.89019474e-13,9.939132123e-13,3.404619499e-13,3.437105092e-13,5.896890443e-13,5.229135877e-13,1.268406872e-13,6.758181312e-13,1.679076073e-13,2.633240532e-13,2.897825299e-13,4.901758384e-13,5.715959447e-13,1.265486439e-12,6.059631845e-13,1.492525442e-13,1.419919834e-12,2.127253823e-13,7.367683754e-14,9.088697148e-14,8.54436787e-13,7.445563737e-13,7.255991992e-13,4.577386613e-13,1.466305608e-12,2.273342764e-13,6.629748009e-14,8.90687427e-13,6.546373441e-13
0.3046875,1.203072236e-13,4.194049958e-13,8.627487702e-13,6.867346689e-13,9.957494628e-13,3.362189391e-13,3.422737088e-13,5.877882887e-13,5.218367077e-13,1.266801825e-13,6.769540811e-13,1.682473266e-13,2.644569002e-13,2.893226176e-13,4.867559437e-13,5.706260802e-13,1.265992797e-12,6.014259338e-13,1.479918637e-13,1.417835578e-12,2.130694536e-13,7.396150839e-14,9.121281686e-14,8.561644345e-13,7.374963495e-13,7.278378132e-13,4.599575424e-13,1.464228614e-12,2.291041977e-13,6.613048869e-14,8.932302597e-13,6.555317831e-13
0.3125,1.219344903e-13,4.259535478e-13,8.670811933e-13,6.840275061e-13,9.97084232e-13,3.3176322e-13,3.408116429e-13,5.856824679e-13,5.205333975e-13,1.265078285e-13,6.779256152e-13,1.686133857e-13,2.656038696e-13,2.888069606e-13,4.830009073e-13,5.691603262e-13,1.265565723e-12,5.963688499e-13,1.466304744e-13,1.414689075e-12,2.131042718e-13,7.424261784e-14,9.150960087e-14,8.568062428e-13,7.299538036e-13,7.296424657e-13,4.619579184e-13,1.46192255e-12,2.308226406e-13,6.596592932e-14,8.95311051e-13,6.561376148e-13
0.3203125,1.233701108e-13,4.324903633e-13,8.714180272e-13,6.810921918e-13,9.980965842e-13,3.273193326e-13,3.392900637e-13,5.83396394e-13,5.190344649e-13,1.26357049e-13,6.786871908e-13,1.690150363e-13,2.667601122e-13,2.882726314e-13,4.791788336e-13,5.675863116e-13,1.264802053e-12,5.911815008e-13,1.452796195e-13,1.41078291e-12,2.130711853e-13,7.452760992e-14,9.179400558e-14,8.568986284e-13,7.22211836e-13,7.312245724e-13,4.640716931e-13,1.459497595e-12,2.325870809e-13,6.579989738e-14,8.971643619e-13,6.565653856e-13
0.328125,1.246834332e-13,4.39138633e-13,8.75615081e-13,6.779118015e-13,9.986185389e-13,3.229560849e-13,3.376892743e-13,5.808220287e-13,5.173012145e-13,1.262395693e-13,6.791206708e-13,1.693959609e-13,2.67897364e-13,2.876756676e-13,4.752881381e-13,5.660099667e-13,1.263910315e-12,5.858708143e-13,1.438910887e-13,1.406072597e-12,2.129692661e-13,7.481635286e-14,9.203082906e-14,8.570316621e-13,7.144517842e-13,7.326793631e-13,4.662847263e-13,1.456848184e-12,2.343227372e-13,6.564729309e-14,8.986802583e-13,6.567027117e-13
0.3359375,1.260377625e-13,4.457808917e-13,8.798219825e-13,6.742619232e-13,9.984128234e-13,3.184015159e-13,3.360556105e-13,5.778194116e-13,5.153166042e-13,1.260844374e-13,6.793748183e-13,1.69724024e-13,2.689839274e-13,2.869143243e-13,4.711294204e-13,5.641700639e-13,1.262558742e-12,5.801102693e-13,1.423730744e-13,1.40049111e-12,2.126709014e-13,7.509640234e-14,9.223729149e-14,8.567371365e-13,7.064639715e-13,7.338424517e-13,4.684067623e-13,1.453913833e-12,2.35976689e-13,6.549423741e-14,8.996508226e-13,6.564904274e-13
0.34375,1.272496572e-13,4.52428729e-13,8.836685086e-13,6.700870671e-13,9.975342914e-13,3.135018738e-13,3.344083421e-13,5.7438903e-13,5.131020187e-13,1.258401783e-13,6.794935546e-13,1.700399018e-13,2.700579209e-13,2.860936431e-13,4.66874894e-13,5.62131997e-13,1.26073547e-12,5.739181525e-13,1.407433718e-13,1.394080065e-12,2.122590892e-13,7.53705711e-14,9.241619687e-14,8.5542588e-13,6.980544984e-13,7.345491364e-13,4.70507025e-13,1.450479823e-12,2.37629162e-13,6.532553784e-14,9.001355769e-13,6.559658714e-13
0.3515625,1.283182577e-13,4.592191938e-13,8.86807594e-13,6.656154195e-13,9.961372978e-13,3.085170827e-13,3.326575994e-13,5.707533597e-13,5.107052928e-13,1.256089164e-13,6.793036506e-13,1.70393819e-13,2.711582873e-13,2.85370685e-13,4.627050452e-13,5.601109513e-13,1.258663551e-12,5.675733798e-13,1.390331954e-13,1.38680233e-12,2.117180111e-13,7.564380247e-14,9.255732976e-14,8.533207304e-13,6.894799365e-13,7.349123982e-13,4.727084011e-13,1.446419555e-12,2.393166373e-13,6.517560682e-14,9.00240159e-13,6.55135855e-13
0.359375,1.29558968e-13,4.660552819e-13,8.898164991e-13,6.610363579e-13,9.942914431e-13,3.037443113e-13,3.30811364e-13,5.670237964e-13,5.081179365e-13,1.254954131e-13,6.78891628e-13,1.707437853e-13,2.722482431e-13,2.846841862e-13,4.584933963e-13,5.580081053e-13,1.25632497e-12,5.611552457e-13,1.372632304e-13,1.378608179e-12,2.109592504e-13,7.591454135e-14,9.270833293e-14,8.511156831e-13,6.811523591e-13,7.350583571e-13,4.74922217e-13,1.44227015e-12,2.409577316e-13,6.503209313e-14,8.999737704e-13,6.540253236e-13
0.3671875,1.30874603e-13,4.727880186e-13,8.929292785e-13,6.562754466e-13,9.919603983e-13,2.991035085e-13,3.290739465e-13,5.630673701e-13,5.052635472e-13,1.254196873e-13,6.78353358e-13,1.710179362e-13,2.733440184e-13,2.839558345e-13,4.542363154e-13,5.557471939e-13,1.253666255e-12,5.54629875e-13,1.354664136e-13,1.369475239e-12,2.100631315e-13,7.620862275e-14,9.283300864e-14,8.487593709e-13,6.729091232e-13,7.348722491e-13,4.770421629e-13,1.43825489e-12,2.425192668e-13,6.483119453e-14,8.993238547e-13,6.526342338e-13
0.375,1.319913746e-13,4.794602559e-13,8.954510375e-13,6.513128705e-13,9.891177465e-13,2.943946442e-13,3.274866672e-13,5.588842382e-13,5.021857205e-13,1.252810595e-13,6.774806016e-13,1.712625788e-13,2.745210468e-13,2.832494955e-13,4.500287405e-13,5.533985556e-13,1.250709556e-12,5.479886389e-13,1.336319938e-13,1.359559498e-12,2.090592099e-13,7.654957204e-14,9.288192114e-14,8.456435763e-13,6.642866249e-13,7.342889935e-13,4.791268335e-13,1.433689309e-12,2.440473516e-13,6.460825414e-14,8.98268339e-13,6.509309409e-13
0.3828125,1.330213938e-13,4.861382521e-13,8.973071413e-13,6.462616589e-13,9.858332668e-13,2.896690282e-13,3.258283871e-13,5.545254473e-13,4.989931985e-13,1.251192125e-13,6.762976055e-13,1.715534136e-13,2.757766885e-13,2.825847693e-13,4.457698395e-13,5.508855468e-13,1.247445527e-12,5.41144242e-13,1.317432889e-13,1.349079798e-12,2.078950356e-13,7.692092828e-14,9.295099123e-14,8.418740801e-13,6.55403963e-13,7.333963759e-13,4.812492467e-13,1.428481142e-12,2.455546341e-13,6.443300892e-14,8.968353204e-13,6.489697752e-13
0.390625,1.340848516e-13,4.928085073e-13,8.991704618e-13,6.409825709e-13,9.820809119e-13,2.850342824e-13,3.240990887e-13,5.498422808e-13,4.956378494e-13,1.249593447e-13,6.75069663e-13,1.718439468e-13,2.770791799e-13,2.819132419e-13,4.414614556e-13,5.482081212e-13,1.243956064e-12,5.340690737e-13,1.298464426e-13,1.337928645e-12,2.065952359e-13,7.732256394e-14,9.303446586e-14,8.377670943e-13,6.466980593e-13,7.322167894e-13,4.834523571e-13,1.423299018e-12,2.470451523e-13,6.425896467e-14,8.950485472e-13,6.467704617e-13
0.3984375,1.351279818e-13,4.994226535e-13,9.010746509e-13,6.354313767e-13,9.778596527e-13,2.80510667e-13,3.225524778e-13,5.448937853e-13,4.920704253e-13,1.247520386e-13,6.737163931e-13,1.720834605e-13,2.784153588e-13,2.812500927e-13,4.373185699e-13,5.455756736e-13,1.240310856e-12,5.269373534e-13,1.280053882e-13,1.326014109e-12,2.051964441e-13,7.777784734e-14,9.3026402e-14,8.331507168e-13,6.380815129e-13,7.307589711e-13,4.858010683e-13,1.418107177e-12,2.485235326e-13,6.403759871e-14,8.92867324e-13,6.442726268e-13
0.40625,1.361723679e-13,5.059527018e-13,9.024741e-13,6.29977996e-13,9.733648657e-13,2.7620769e-13,3.211434656e-13,5.39918648e-13,4.883691759e-13,1.245157652e-13,6.720055355e-13,1.723212652e-13,2.797671972e-13,2.806249322e-13,4.333647352e-13,5.429895528e-13,1.236391927e-12,5.198710018e-13,1.262156074e-13,1.31349205e-12,2.037222649e-13,7.826803524e-14,9.300455812e-14,8.279721975e-13,6.292425102e-13,7.290379781e-13,4.881575419e-13,1.412385157e-12,2.49934612e-13,6.38129088e-14,8.903155801e-13,6.415072284e-13
0.4140625,1.372240259e-13,5.124526753e-13,9.032110848e-13,6.24543221e-13,9.685111141e-13,2.721142497e-13,3.196038284e-13,5.347857487e-13,4.845378404e-13,1.243005432e-13,6.699120029e-13,1.72589637e-13,2.811823892e-13,2.800231151e-13,4.29421966e-13,5.402820342e-13,1.232159825e-12,5.127949728e-13,1.243940432e-13,1.300345687e-12,2.021363171e-13,7.876201952e-14,9.30140703e-14,8.221947615e-13,6.203770485e-13,7.270066074e-13,4.903100127e-13,1.405971918e-12,2.51261648e-13,6.361039811e-14,8.874204429e-13,6.384931019e-13
0.421875,1.382033025e-13,5.189628086e-13,9.036473165e-13,6.185597914e-13,9.629870155e-13,2.679299925e-13,3.179651058e-13,5.293250884e-13,4.805151392e-13,1.240917178e-13,6.67458884e-13,1.728586033e-13,2.826476733e-13,2.794168929e-13,4.254490905e-13,5.374831815e-13,1.227739396e-12,5.056509181e-13,1.224974257e-13,1.286610697e-12,2.003551432e-13,7.925914617e-14,9.293732102e-14,8.157892666e-13,6.116877945e-13,7.247093956e-13,4.924271613e-13,1.398973954e-12,2.52562033e-13,6.341343641e-14,8.841277651e-13,6.351830261e-13
0.4296875,1.390933301e-13,5.254436859e-13,9.041231687e-13,6.121201296e-13,9.568706258e-13,2.636095209e-13,3.164016994e-13,5.237067523e-13,4.763011881e-13,1.238968175e-13,6.647588089e-13,1.730935756e-13,2.839557384e-13,2.787621214e-13,4.215444492e-13,5.34652419e-13,1.223157412e-12,4.984795623e-13,1.205834735e-13,1.272463058e-12,1.984242355e-13,7.974456937e-14,9.277856416e-14,8.091705586e-13,6.028112915e-13,7.221609699e-13,4.946711328e-13,1.391805246e-12,2.53816375e-13,6.321242168e-14,8.80420148e-13,6.316150773e-13
0.4375,1.399857405e-13,5.319275959e-13,9.04517445e-13,6.057662067e-13,9.503105912e-13,2.5952345e-13,3.148777024e-13,5.179835303e-13,4.718915557e-13,1.237492415e-13,6.620122934e-13,1.73272097e-13,2.850802818e-13,2.780733829e-13,4.177808913e-13,5.317580709e-13,1.218430524e-12,4.913066592e-13,1.186964173e-13,1.257658158e-12,1.963816332e-13,8.021157116e-14,9.259030529e-14,8.023080114e-13,5.936819553e-13,7.191864757e-13,4.968054177e-13,1.384809713e-12,2.549768825e-13,6.299416657e-14,8.762479073e-13,6.277344227e-13
0.4453125,1.409068546e-13,5.385332844e-13,9.045072825e-13,5.995820596e-13,9.43277219e-13,2.55806399e-13,3.133612986e-13,5.120943158e-13,4.673287007e-13,1.236050804e-13,6.591753887e-13,1.734244415e-13,2.863331538e-13,2.774843146e-13,4.14230363e-13,5.28929323e-13,1.213700185e-12,4.841461711e-13,1.16836788e-13,1.242013479e-12,1.941817064e-13,8.070800785e-14,9.23680664e-14,7.94642185e-13,5.84821576e-13,7.158142259e-13,4.988005518e-13,1.377731037e-12,2.561146146e-13,6.277453062e-14,8.716174855e-13,6.234148519e-13
0.453125,1.416594999e-13,5.452890464e-13,9.040935967e-13,5.934035319e-13,9.359765073e-13,2.522409579e-13,3.119754724e-13,5.061646427e-13,4.62713246e-13,1.234290314e-13,6.561114373e-13,1.736004123e-13,2.878182854e-13,2.770386299e-13,4.109379878e-13,5.262791495e-13,1.208916961e-12,4.770247955e-13,1.1502131e-13,1.225882049e-12,1.919447323e-13,8.124637547e-14,9.220479344e-14,7.86289745e-13,5.761915634e-13,7.12278557e-13,5.008690239e-13,1.370416797e-12,2.573002542e-13,6.258191366e-14,8.668131743e-13,6.188464098e-13
0.4609375,1.421666924e-13,5.520749167e-13,9.034438042e-13,5.870655919e-13,9.284491253e-13,2.487149905e-13,3.10747258e-13,5.001308436e-13,4.579996805e-13,1.232815502e-13,6.52914589e-13,1.737448179e-13,2.892829933e-13,2.76578147e-13,4.077738929e-13,5.236145816e-13,1.203808292e-12,4.69933159e-13,1.132339021e-13,1.209390448e-12,1.897308886e-13,8.17653663e-14,9.210937109e-14,7.775572581e-13,5.673424805e-13,7.085272123e-13,5.02917016e-13,1.36307514e-12,2.584709275e-13,6.237095564e-14,8.619253189e-13,6.142256187e-13
0.46875,1.426962864e-13,5.587407344e-13,9.025093458e-13,5.804103655e-13,9.203033558e-13,2.452450855e-13,3.095329722e-13,4.937715324e-13,4.531039351e-13,1.231823301e-13,6.496597363e-13,1.737741024e-13,2.906231769e-13,2.760137859e-13,4.045786901e-13,5.207827856e-13,1.19838666e-12,4.628597347e-13,1.114464006e-13,1.192438852e-12,1.873271677e-13,8.224877526e-14,9.19425946e-14,7.683602882e-13,5.584771661e-13,7.044025559e-13,5.049016811e-13,1.355567017e-12,2.595160231e-13,6.210793799e-14,8.565778098e-13,6.09343101e-13
0.4765625,1.433672778e-13,5.652721003e-13,9.011948769e-13,5.735994455e-13,9.114860868e-13,2.418668001e-13,3.08264295e-13,4.872559263e-13,4.48136147e-13,1.230646993e-13,6.462721807e-13,1.737460873e-13,2.91965166e-13,2.754281595e-13,4.014147129e-13,5.178811182e-13,1.192893968e-12,4.558049998e-13,1.096956912e-13,1.175189875e-12,1.846910131e-13,8.275093359e-14,9.172453422e-14,7.588609755e-13,5.49871231e-13,6.999415525e-13,5.069253587e-13,1.347718267e-12,2.60388617e-13,6.186554912e-14,8.505944692e-13,6.040880555e-13
0.484375,1.440616465e-13,5.717551955e-13,8.996518328e-13,5.66824932e-13,9.022467548e-13,2.386758563e-13,3.070826877e-13,4.808066968e-13,4.431863661e-13,1.229160048e-13,6.427654415e-13,1.737792877e-13,2.933489058e-13,2.748509145e-13,3.983528554e-13,5.149086904e-13,1.187195392e-12,4.487049679e-13,1.079914491e-13,1.157648863e-12,1.819884564e-13,8.329914549e-14,9.152140579e-14,7.490776499e-13,5.412949975e-13,6.951328665e-13,5.087146378e-13,1.339750028e-12,2.611411148e-13,6.167644666e-14,8.441655286e-13,5.986673771e-13
0.4921875,1.447533184e-13,5.782036228e-13,8.980861733e-13,5.59935286e-13,8.92568285e-13,2.356728657e-13,3.061057831e-13,4.742213842e-13,4.381509942e-13,1.22777388e-13,6.391941041e-13,1.7389675e-13,2.947359307e-13,2.742711417e-13,3.953173336e-13,5.117995629e-13,1.181050314e-12,4.415178465e-13,1.062911249e-13,1.139699213e-12,1.792379243e-13,8.387524887e-14,9.127271857e-14,7.386557644e-13,5.327380621e-13,6.899765472e-13,5.101744723e-13,1.331775023e-12,2.618658352e-13,6.146741771e-14,8.373974403e-13,5.931130085e-13
0.5,1.453604447e-13,5.846194535e-13,8.9635583e-13,5.529117449e-13,8.824540569e-13,2.327576523e-13,3.052297058e-13,4.673688959e-13,4.329538155e-13,1.226399476e-13,6.355264475e-13,1.740327324e-13,2.961315926e-13,2.737560714e-13,3.924019355e-13,5.087241702e-13,1.174753656e-12,4.343454853e-13,1.046079104e-13,1.12140284e-12,1.764302999e-13,8.445919946e-14,9.101885807e-14,7.277345738e-13,5.243539438e-13,6.846383004e-13,5.117814805e-13,1.32372288e-12,2.625723944e-13,6.122642774e-14,8.303357548e-13,5.873157883e-13
0.5078125,1.458975997e-13,5.910425441e-13,8.942346471e-13,5.459290338e-13,8.720164578e-13,2.299505524e-13,3.04374456e-13,4.604719064e-13,4.276527225e-13,1.224816632e-13,6.317431226e-13,1.741018715e-13,2.975260288e-13,2.732792622e-13,3.897731132e-13,5.057988665e-13,1.168561382e-12,4.272741677e-13,1.02971816e-13,1.102656161e-12,1.73576881e-13,8.50514569e-14,9.083708674e-14,7.166936901e-13,5.159512391e-13,6.79133588e-13,5.136174768e-13,1.315537719e-12,2.631861726e-13,6.102083346e-14,8.229896357e-13,5.813360456e-13
0.515625,1.466555393e-13,5.973994453e-13,8.919842746e-13,5.38936287e-13,8.612279937e-13,2.273151922e-13,3.036281787e-13,4.536209022e-13,4.223239919e-13,1.223173079e-13,6.278664608e-13,1.740824715e-13,2.988869718e-13,2.727143408e-13,3.87294327e-13,5.028600393e-13,1.162160263e-12,4.202764248e-13,1.01392652e-13,1.083498201e-12,1.705892167e-13,8.567678759e-14,9.065511664e-14,7.055350996e-13,5.07485924e-13,6.73324178e-13,5.152517822e-13,1.307165783e-12,2.636595228e-13,6.083600334e-14,8.152552499e-13,5.752443194e-13
0.5234375,1.475697701e-13,6.036007869e-13,8.898608658e-13,5.318965166e-13,8.501282766e-13,2.248152005e-13,3.029990255e-13,4.467029257e-13,4.169911792e-13,1.221516804e-13,6.239338864e-13,1.740527834e-13,3.002094144e-13,2.721097506e-13,3.848553756e-13,4.998642077e-13,1.155458126e-12,4.133841127e-13,9.990304567e-14,1.064309589e-12,1.674769759e-13,8.634356846e-14,9.042351581e-14,6.941669177e-13,4.991627862e-13,6.672471399e-13,5.166476131e-13,1.298827503e-12,2.640101286e-13,6.060418464e-14,8.07181147e-13,5.690128651e-13
0.53125,1.483015432e-13,6.096756833e-13,8.874918561e-13,5.249264941e-13,8.387770689e-13,2.224082174e-13,3.024348373e-13,4.397589153e-13,4.116103123e-13,1.219766513e-13,6.199809041e-13,1.740657913e-13,3.014865097e-13,2.71604209e-13,3.826233692e-13,4.969618106e-13,1.148786258e-12,4.066794024e-13,9.849117833e-14,1.045013175e-12,1.643335611e-13,8.702064854e-14,9.015897647e-14,6.824814149e-13,4.909014644e-13,6.610143134e-13,5.180529258e-13,1.290710966e-12,2.642674628e-13,6.035358928e-14,7.988967078e-13,5.6261753e-13
0.5390625,1.489397715e-13,6.155984511e-13,8.846279907e-13,5.179724075e-13,8.270930282e-13,2.200933775e-13,3.019994427e-13,4.328580205e-13,4.061506499e-13,1.217910597e-13,6.159841341e-13,1.740612061e-13,3.027107e-13,2.711501804e-13,3.806141886e-13,4.941425276e-13,1.142089967e-12,4.001250213e-13,9.71278362e-14,1.025411805e-12,1.61136925e-13,8.769677204e-14,8.986225793e-14,6.703568301e-13,4.826174162e-13,6.546068563e-13,5.194710261e-13,1.282392962e-12,2.644308013e-13,6.014714857e-14,7.903498514e-13,5.560528104e-13
0.546875,1.49621738e-13,6.212850901e-13,8.816225016e-13,5.109012509e-13,8.151185582e-13,2.17901291e-13,3.017039996e-13,4.258932258e-13,4.006973564e-13,1.21577264e-13,6.11916696e-13,1.739927824e-13,3.039020292e-13,2.706288759e-13,3.786697925e-13,4.913164145e-13,1.135062367e-12,3.936240166e-13,9.585747248e-14,1.005891154e-12,1.578821749e-13,8.839653225e-14,8.957627421e-14,6.578342048e-13,4.745379244e-13,6.47974227e-13,5.208380556e-13,1.273594219e-12,2.644888319e-13,5.996250493e-14,7.81509198e-13,5.493775744e-13
0.5546875,1.502581589e-13,6.267088312e-13,8.787174373e-13,5.037501638e-13,8.029441266e-13,2.159021171e-13,3.014668435e-13,4.188464094e-13,3.953408867e-13,1.213352126e-13,6.077761848e-13,1.739137043e-13,3.050426967e-13,2.700293199e-13,3.767766016e-13,4.884875608e-13,1.127709594e-12,3.871292335e-13,9.465354213e-14,9.865159857e-13,1.546230453e-13,8.912025424e-14,8.931485731e-14,6.450799641e-13,4.666945335e-13,6.411490881e-13,5.221517569e-13,1.264778989e-12,2.644249218e-13,5.97732475e-14,7.723964045e-13,5.426883967e-13
0.5625,1.509347252e-13,6.31833554e-13,8.758914547e-13,4.966604893e-13,7.905168294e-13,2.141139067e-13,3.012812931e-13,4.118391394e-13,3.900280296e-13,1.211060574e-13,6.035261474e-13,1.738578028e-13,3.060633952e-13,2.693682766e-13,3.749614081e-13,4.856308135e-13,1.120171284e-12,3.806685913e-13,9.341891977e-14,9.668956873e-13,1.513735409e-13,8.984717995e-14,8.904109742e-14,6.323753519e-13,4.588238351e-13,6.341874404e-13,5.233284391e-13,1.25619074e-12,2.641997705e-13,5.960406342e-14,7.629515696e-13,5.359779178e-13
0.5703125,1.516753232e-13,6.367157738e-13,8.731013654e-13,4.896590115e-13,7.778407562e-13,2.124421073e-13,3.011446165e-13,4.048326994e-13,3.846549026e-13,1.20882249e-13,5.99224003e-13,1.737727239e-13,3.069877326e-13,2.686654323e-13,3.732602834e-13,4.827984273e-13,1.112617535e-12,3.74373045e-13,9.221610704e-14,9.472516308e-13,1.481664141e-13,9.057917314e-14,8.878766185e-14,6.197498269e-13,4.508986909e-13,6.270494269e-13,5.243550476e-13,1.247459573e-12,2.638306862e-13,5.943450244e-14,7.53205693e-13,5.291655416e-13
0.578125,1.523804669e-13,6.415120885e-13,8.70086854e-13,4.825215541e-13,7.648976326e-13,2.108077503e-13,3.010468084e-13,3.977375466e-13,3.792119253e-13,1.206045538e-13,5.950349214e-13,1.736240197e-13,3.079399955e-13,2.679699555e-13,3.717611597e-13,4.801469381e-13,1.105158797e-12,3.683044748e-13,9.114221342e-14,9.279609824e-13,1.449595225e-13,9.133043853e-14,8.854875614e-14,6.06780722e-13,4.431596234e-13,6.196606479e-13,5.253990283e-13,1.238522929e-12,2.633921912e-13,5.922607629e-14,7.432072921e-13,5.221909274e-13
0.5859375,1.531935406e-13,6.46151973e-13,8.667652041e-13,4.751458227e-13,7.515943173e-13,2.092824932e-13,3.010664173e-13,3.906456242e-13,3.737558632e-13,1.202825921e-13,5.909734085e-13,1.734389991e-13,3.089345011e-13,2.672571862e-13,3.703709821e-13,4.775598105e-13,1.097490222e-12,3.623099111e-13,9.013959909e-14,9.087827512e-13,1.416118141e-13,9.21094975e-14,8.824688213e-14,5.933118713e-13,4.357070641e-13,6.1203139e-13,5.264540963e-13,1.229797719e-12,2.62834797e-13,5.901709324e-14,7.329005046e-13,5.150394348e-13
0.59375,1.54104758e-13,6.504542666e-13,8.634534938e-13,4.678767704e-13,7.38112055e-13,2.079794689e-13,3.01218741e-13,3.83627742e-13,3.683256685e-13,1.19968047e-13,5.869344001e-13,1.732246799e-13,3.09864485e-13,2.664539775e-13,3.689655383e-13,4.748048887e-13,1.08931579e-12,3.563197583e-13,8.920184221e-14,8.895407561e-13,1.381819832e-13,9.291867111e-14,8.793426525e-14,5.795734095e-13,4.284061302e-13,6.041768532e-13,5.273395304e-13,1.221316234e-12,2.620724204e-13,5.883948993e-14,7.224026552e-13,5.077975714e-13
0.6015625,1.548868159e-13,6.544864063e-13,8.600471587e-13,4.609882468e-13,7.24735438e-13,2.06880025e-13,3.014194e-13,3.766524153e-13,3.629306606e-13,1.196398553e-13,5.828952303e-13,1.729616607e-13,3.10703228e-13,2.656054598e-13,3.677018802e-13,4.720535267e-13,1.080894232e-12,3.505163903e-13,8.841790774e-14,8.704726242e-13,1.348756328e-13,9.374736847e-14,8.770693552e-14,5.657918665e-13,4.211130558e-13,5.961415261e-13,5.282572633e-13,1.212618387e-12,2.612205572e-13,5.86582221e-14,7.119170313e-13,5.00574854e-13
0.609375,1.556901792e-13,6.583269705e-13,8.562349376e-13,4.543206982e-13,7.113768051e-13,2.05897615e-13,3.016896898e-13,3.697341982e-13,3.57558659e-13,1.192572569e-13,5.788724881e-13,1.726611302e-13,3.114792964e-13,2.647882629e-13,3.666915761e-13,4.695056495e-13,1.072405746e-12,3.449586276e-13,8.775527229e-14,8.516993619e-13,1.316878998e-13,9.458179417e-14,8.752505963e-14,5.523360553e-13,4.138671261e-13,5.880526129e-13,5.29465245e-13,1.203677866e-12,2.603518962e-13,5.846355159e-14,7.013675081e-13,4.933425937e-13
0.6171875,1.567241253e-13,6.618337328e-13,8.524281185e-13,4.475654885e-13,6.977516445e-13,2.049410616e-13,3.021038796e-13,3.628379699e-13,3.521857241e-13,1.188479158e-13,5.749114125e-13,1.723310342e-13,3.121499503e-13,2.639221476e-13,3.657768593e-13,4.668937848e-13,1.063502198e-12,3.394391193e-13,8.712521233e-14,8.330637305e-13,1.284874295e-13,9.541728811e-14,8.732735827e-14,5.39099852e-13,4.067954742e-13,5.798690294e-13,5.305953264e-13,1.195015524e-12,2.592969337e-13,5.82855929e-14,6.905272428e-13,4.860115698e-13
0.625,1.578507414e-13,6.649203395e-13,8.489551883e-13,4.404771224e-13,6.838265249e-13,2.039407265e-13,3.025789111e-13,3.559012293e-13,3.46843588e-13,1.184403726e-13,5.710494531e-13,1.719574523e-13,3.127036915e-13,2.629236368e-13,3.648827728e-13,4.640655031e-13,1.054080798e-12,3.338730044e-13,8.653346395e-14,8.144166721e-13,1.25282826e-13,9.62604758e-14,8.710991975e-14,5.253030013e-13,3.998621551e-13,5.714520254e-13,5.314133058e-13,1.18661066e-12,2.580303309e-13,5.813136987e-14,6.793051524e-13,4.786070107e-13
0.6328125,1.590022574e-13,6.676667837e-13,8.453234449e-13,4.332149101e-13,6.698630709e-13,2.030389393e-13,3.029968594e-13,3.490235839e-13,3.416104777e-13,1.17992409e-13,5.671598448e-13,1.715491327e-13,3.132174463e-13,2.618888738e-13,3.640870229e-13,4.613518766e-13,1.044635467e-12,3.284407e-13,8.601865522e-14,7.958892826e-13,1.221475854e-13,9.713996075e-14,8.687967399e-14,5.110530471e-13,3.92950849e-13,5.629236845e-13,5.322734152e-13,1.177803885e-12,2.567263582e-13,5.799033772e-14,6.678435527e-13,4.712301252e-13
0.640625,1.602090277e-13,6.701233422e-13,8.412236488e-13,4.263166017e-13,6.56019381e-13,2.023930028e-13,3.034816081e-13,3.422711706e-13,3.364330568e-13,1.174589705e-13,5.631334211e-13,1.71090564e-13,3.137143116e-13,2.608923321e-13,3.633543682e-13,4.588350195e-13,1.035323766e-12,3.232478859e-13,8.560174862e-14,7.776665797e-13,1.190761711e-13,9.807896284e-14,8.665741124e-14,4.972295248e-13,3.861202655e-13,5.544050548e-13,5.33117917e-13,1.168498328e-12,2.553231858e-13,5.78507366e-14,6.563616194e-13,4.638642062e-13
0.6484375,1.61392783e-13,6.722738984e-13,8.368834691e-13,4.197774476e-13,6.42091473e-13,2.018231919e-13,3.041891725e-13,3.355366439e-13,3.311376472e-13,1.168823293e-13,5.590625181e-13,1.705293405e-13,3.141502264e-13,2.598588153e-13,3.62592402e-13,4.561299711e-13,1.025527585e-12,3.181565963e-13,8.528558938e-14,7.595727483e-13,1.160377759e-13,9.904779529e-14,8.644375571e-14,4.837559842e-13,3.795075136e-13,5.457560963e-13,5.33650143e-13,1.159275682e-12,2.536560427e-13,5.770525206e-14,6.447785563e-13,4.5635204e-13
0.65625,1.625838976e-13,6.741284015e-13,8.324450898e-13,4.130845627e-13,6.279240841e-13,2.012402835e-13,3.049144602e-13,3.287843299e-13,3.2572871e-13,1.163512684e-13,5.549912048e-13,1.699029539e-13,3.145133392e-13,2.587631849e-13,3.618481645e-13,4.531426727e-13,1.014898478e-12,3.130480214e-13,8.505493186e-14,7.414642984e-13,1.130355108e-13,1.000017311e-13,8.62346438e-14,4.70023822e-13,3.731604041e-13,5.369386165e-13,5.341366345e-13,1.150361392e-12,2.518389353e-13,5.756869767e-14,6.328741346e-13,4.486789008e-13
0.6640625,1.638514657e-13,6.75677907e-13,8.279902765e-13,4.062297106e-13,6.136923317e-13,2.008496287e-13,3.054695389e-13,3.220451203e-13,3.204008823e-13,1.158778022e-13,5.508909785e-13,1.693035433e-13,3.148038864e-13,2.576410244e-13,3.611925978e-13,4.501427801e-13,1.003916873e-12,3.07999335e-13,8.491124659e-14,7.23619715e-13,1.100767306e-13,1.009437245e-13,8.608997433e-14,4.559839086e-13,3.670464422e-13,5.280762805e-13,5.346568452e-13,1.141445198e-12,2.500097179e-13,5.745311054e-14,6.207741607e-13,4.410623567e-13
0.671875,1.651274101e-13,6.768139962e-13,8.235537803e-13,3.994587495e-13,5.995127612e-13,2.00575506e-13,3.061214498e-13,3.152977632e-13,3.152365542e-13,1.153895732e-13,5.468707731e-13,1.687215327e-13,3.15025003e-13,2.564420635e-13,3.605507482e-13,4.471301183e-13,9.92906106e-13,3.030822418e-13,8.484588669e-14,7.062125808e-13,1.071752799e-13,1.019025389e-13,8.602261949e-14,4.419231294e-13,3.610013241e-13,5.191998061e-13,5.349245502e-13,1.132279018e-12,2.4807854e-13,5.734775263e-14,6.086676368e-13,4.336052495e-13
0.6796875,1.664536974e-13,6.774463372e-13,8.189643634e-13,3.926913365e-13,5.853466709e-13,2.002586908e-13,3.070548327e-13,3.086200586e-13,3.101958674e-13,1.148523131e-13,5.430031382e-13,1.681205259e-13,3.152330939e-13,2.551454842e-13,3.598558485e-13,4.439168158e-13,9.815819972e-13,2.982060213e-13,8.48204996e-14,6.891281296e-13,1.043554952e-13,1.028967962e-13,8.594064639e-14,4.282212995e-13,3.549031766e-13,5.103090045e-13,5.350808077e-13,1.122989488e-12,2.459755676e-13,5.725282963e-14,5.964412817e-13,4.262027313e-13
0.6875,1.679604688e-13,6.776091859e-13,8.141996647e-13,3.859504152e-13,5.712606778e-13,2.000966204e-13,3.080971104e-13,3.021004694e-13,3.0526665e-13,1.142928704e-13,5.392054579e-13,1.67522292e-13,3.154648371e-13,2.538208183e-13,3.591737648e-13,4.405819096e-13,9.698294545e-13,2.932986733e-13,8.483686008e-14,6.724032826e-13,1.016245874e-13,1.039274987e-13,8.583049335e-14,4.14951147e-13,3.489392993e-13,5.014112686e-13,5.352794165e-13,1.11399633e-12,2.437554238e-13,5.718344969e-14,5.840504307e-13,4.188366393e-13
0.6953125,1.695378366e-13,6.773576431e-13,8.094144376e-13,3.79357725e-13,5.573076166e-13,2.000779168e-13,3.091978254e-13,2.95635204e-13,3.003999101e-13,1.137010242e-13,5.354342403e-13,1.66900712e-13,3.156477416e-13,2.52471858e-13,3.585305727e-13,4.373172566e-13,9.57925306e-13,2.884922867e-13,8.492443032e-14,6.562078969e-13,9.901081248e-14,1.049690708e-13,8.576141298e-14,4.017076588e-13,3.432352617e-13,4.92537767e-13,5.354529851e-13,1.105492113e-12,2.414509888e-13,5.71437497e-14,5.716748027e-13,4.115883112e-13
0.703125,1.710190198e-13,6.76703565e-13,8.046560543e-13,3.727796433e-13,5.434297074e-13,1.99942744e-13,3.103385466e-13,2.891602925e-13,2.955518456e-13,1.130418511e-13,5.316930542e-13,1.662209372e-13,3.156829947e-13,2.51056184e-13,3.578899845e-13,4.341275153e-13,9.460450982e-13,2.839649617e-13,8.506533896e-14,6.405697567e-13,9.653837107e-14,1.060028785e-13,8.571888648e-14,3.884398961e-13,3.375827399e-13,4.838187244e-13,5.357443484e-13,1.09704969e-12,2.390568134e-13,5.713447689e-14,5.593716038e-13,4.044922794e-13
0.7109375,1.725210277e-13,6.755785622e-13,7.999358891e-13,3.661143546e-13,5.29610122e-13,1.997869865e-13,3.113694873e-13,2.827934705e-13,2.908140786e-13,1.123408004e-13,5.279908193e-13,1.655401663e-13,3.155523748e-13,2.495618279e-13,3.572477785e-13,4.309006957e-13,9.340742253e-13,2.79666767e-13,8.521089048e-14,6.253193877e-13,9.412016948e-14,1.070485959e-13,8.567756778e-14,3.753930782e-13,3.319663878e-13,4.752304887e-13,5.359804287e-13,1.08824916e-12,2.365512942e-13,5.715234725e-14,5.470006114e-13,3.975755318e-13
0.71875,1.741587976e-13,6.738545314e-13,7.95202506e-13,3.594022487e-13,5.158646196e-13,1.997242043e-13,3.124063954e-13,2.765925885e-13,2.862374591e-13,1.116325364e-13,5.243930218e-13,1.648721997e-13,3.153089468e-13,2.479674636e-13,3.565496787e-13,4.275864006e-13,9.21799807e-13,2.754274903e-13,8.534741118e-14,6.102693394e-13,9.168360153e-14,1.081162927e-13,8.566836706e-14,3.624585909e-13,3.266114754e-13,4.665865387e-13,5.358104327e-13,1.079303453e-12,2.339250997e-13,5.718150701e-14,5.344709168e-13,3.907998875e-13
0.7265625,1.758057713e-13,6.716377841e-13,7.904057663e-13,3.527109842e-13,5.022426784e-13,1.996412968e-13,3.136073713e-13,2.705005458e-13,2.817205424e-13,1.108941516e-13,5.208883315e-13,1.641520351e-13,3.150247062e-13,2.463061356e-13,3.557928192e-13,4.242455732e-13,9.092304415e-13,2.712659819e-13,8.5521672e-14,5.955189079e-13,8.932066888e-14,1.091933538e-13,8.565221693e-14,3.496297025e-13,3.21409494e-13,4.579590013e-13,5.355692243e-13,1.070524732e-12,2.312353918e-13,5.72264465e-14,5.219054395e-13,3.840449684e-13
0.734375,1.774954076e-13,6.691658198e-13,7.855812862e-13,3.461990184e-13,4.888567783e-13,1.996376543e-13,3.148107229e-13,2.64458538e-13,2.772292002e-13,1.101126009e-13,5.173795697e-13,1.634012849e-13,3.147232707e-13,2.4464925e-13,3.551054982e-13,4.209055728e-13,8.96487244e-13,2.672840736e-13,8.576935415e-14,5.812422401e-13,8.711060043e-14,1.102910611e-13,8.560007772e-14,3.370503672e-13,3.161722993e-13,4.495211008e-13,5.355130916e-13,1.061836569e-12,2.284856884e-13,5.731372466e-14,5.094898339e-13,3.773242247e-13
0.7421875,1.794153222e-13,6.66293946e-13,7.805480915e-13,3.398326585e-13,4.757183878e-13,1.997641628e-13,3.159833952e-13,2.58423639e-13,2.728312852e-13,1.093113301e-13,5.138972775e-13,1.626831029e-13,3.143481634e-13,2.429625725e-13,3.544579312e-13,4.174864075e-13,8.834328542e-13,2.634455282e-13,8.606508147e-14,5.672990365e-13,8.500924658e-14,1.114176837e-13,8.560504524e-14,3.246037335e-13,3.110989476e-13,4.41185589e-13,5.353496567e-13,1.053141056e-12,2.256054869e-13,5.74425654e-14,4.972258595e-13,3.707333705e-13
0.75,1.814220882e-13,6.628418742e-13,7.75320857e-13,3.333619778e-13,4.627124089e-13,1.997553178e-13,3.17245297e-13,2.524481642e-13,2.685296625e-13,1.084886069e-13,5.105448885e-13,1.61982915e-13,3.138618949e-13,2.412154053e-13,3.537389396e-13,4.13995603e-13,8.700229235e-13,2.597334506e-13,8.641942606e-14,5.535688618e-13,8.297416799e-14,1.125507501e-13,8.568773824e-14,3.123481937e-13,3.063049616e-13,4.32855259e-13,5.351741036e-13,1.044520116e-12,2.226890494e-13,5.759821866e-14,4.850314591e-13,3.642250268e-13
0.7578125,1.83352757e-13,6.590847327e-13,7.70352884e-13,3.268313738e-13,4.497701476e-13,1.995992026e-13,3.184774293e-13,2.466382733e-13,2.642915654e-13,1.076368621e-13,5.073436316e-13,1.612749102e-13,3.133079662e-13,2.394403749e-13,3.530119966e-13,4.104845038e-13,8.564830257e-13,2.561578474e-13,8.687063961e-14,5.401825528e-13,8.099427581e-14,1.136831768e-13,8.576063823e-14,3.003844848e-13,3.015789389e-13,4.24536771e-13,5.351636213e-13,1.036055616e-12,2.198588488e-13,5.778686625e-14,4.728714204e-13,3.577556115e-13
0.765625,1.854163814e-13,6.551003605e-13,7.653678391e-13,3.204145754e-13,4.369000592e-13,1.995645177e-13,3.196356414e-13,2.409262163e-13,2.601015498e-13,1.067725909e-13,5.042678988e-13,1.605241075e-13,3.126927798e-13,2.37530282e-13,3.52184628e-13,4.068211251e-13,8.426688609e-13,2.525670394e-13,8.735883723e-14,5.272008164e-13,7.908464046e-14,1.148134942e-13,8.580721042e-14,2.884539709e-13,2.968631977e-13,4.161826399e-13,5.349582241e-13,1.027753765e-12,2.169320846e-13,5.799558408e-14,4.606581322e-13,3.51411562e-13
0.7734375,1.8770328e-13,6.505231274e-13,7.598135082e-13,3.140102783e-13,4.241306141e-13,1.996304983e-13,3.208893116e-13,2.351793538e-13,2.559277549e-13,1.05890023e-13,5.012441232e-13,1.596629771e-13,3.119474982e-13,2.353862851e-13,3.510407435e-13,4.029510556e-13,8.283393511e-13,2.488958988e-13,8.782044789e-14,5.145970383e-13,7.728382092e-14,1.159223292e-13,8.583322594e-14,2.765987363e-13,2.922513278e-13,4.078524092e-13,5.344496596e-13,1.01949955e-12,2.137450813e-13,5.819111538e-14,4.483665361e-13,3.452045633e-13
0.78125,1.900793107e-13,6.453075561e-13,7.544227314e-13,3.075561141e-13,4.115081663e-13,1.995842435e-13,3.222078467e-13,2.294722229e-13,2.51777344e-13,1.049772851e-13,4.982121776e-13,1.587162098e-13,3.110551754e-13,2.331706291e-13,3.497582289e-13,3.990857467e-13,8.13806931e-13,2.453143515e-13,8.828865338e-14,5.023456518e-13,7.556960934e-14,1.1702234e-13,8.585623759e-14,2.650683197e-13,2.8771406e-13,3.996729661e-13,5.339631567e-13,1.011222397e-12,2.104641224e-13,5.838079477e-14,4.361192536e-13,3.390617682e-13
0.7890625,1.925742024e-13,6.396902459e-13,7.496457463e-13,3.011576574e-13,3.99112692e-13,1.994158182e-13,3.234431962e-13,2.238989349e-13,2.476914196e-13,1.040471734e-13,4.952556057e-13,1.577686077e-13,3.100588683e-13,2.309732944e-13,3.485489435e-13,3.952744513e-13,7.992018913e-13,2.418498029e-13,8.878366958e-14,4.904398888e-13,7.392761962e-14,1.18136238e-13,8.596755946e-14,2.536937749e-13,2.83287915e-13,3.915659244e-13,5.336384362e-13,1.003085062e-12,2.071510739e-13,5.859416112e-14,4.239402374e-13,3.330021774e-13
0.796875,1.952155989e-13,6.33675606e-13,7.444967959e-13,2.948006675e-13,3.870273185e-13,1.992191888e-13,3.246173661e-13,2.183679933e-13,2.436648033e-13,1.030905691e-13,4.924428424e-13,1.568100928e-13,3.089803874e-13,2.286136363e-13,3.472124735e-13,3.913282664e-13,7.841670185e-13,2.383881231e-13,8.930972244e-14,4.790716983e-13,7.243285665e-14,1.192401329e-13,8.614426322e-14,2.425507285e-13,2.790450007e-13,3.834722542e-13,5.334517943e-13,9.951647748e-13,2.036480117e-13,5.884175889e-14,4.117983865e-13,3.270733574e-13
0.8046875,1.979441996e-13,6.27267521e-13,7.388772556e-13,2.884502237e-13,3.752377129e-13,1.989840343e-13,3.257751836e-13,2.128646799e-13,2.397024529e-13,1.021085398e-13,4.896886953e-13,1.558187311e-13,3.078365117e-13,2.26064967e-13,3.456711602e-13,3.872779635e-13,7.688191245e-13,2.350151348e-13,8.988528364e-14,4.683065087e-13,7.108767474e-14,1.203271376e-13,8.627846883e-14,2.319829646e-13,2.748370012e-13,3.755592799e-13,5.332754204e-13,9.873170214e-13,2.000170729e-13,5.912646121e-14,3.998176726e-13,3.212649788e-13
0.8125,2.007957359e-13,6.205755755e-13,7.336952172e-13,2.822256761e-13,3.636459707e-13,1.987063171e-13,3.268775183e-13,2.075367315e-13,2.358415287e-13,1.01136509e-13,4.869366555e-13,1.548351806e-13,3.066310539e-13,2.235441474e-13,3.441467725e-13,3.833547116e-13,7.536682656e-13,2.318501664e-13,9.045925927e-14,4.578228549e-13,6.980119269e-14,1.21429263e-13,8.64054791e-14,2.216729529e-13,2.705813374e-13,3.679210666e-13,5.329240781e-13,9.794008954e-13,1.964210722e-13,5.943054005e-14,3.880783673e-13,3.155783027e-13
0.8203125,2.037563077e-13,6.135669385e-13,7.286687576e-13,2.762199451e-13,3.522402955e-13,1.984494816e-13,3.279603888e-13,2.023873795e-13,2.320693734e-13,1.001202e-13,4.842103798e-13,1.5385062e-13,3.053235316e-13,2.211162201e-13,3.426745678e-13,3.796209682e-13,7.387759343e-13,2.288272033e-13,9.099056224e-14,4.475971975e-13,6.857695593e-14,1.22543625e-13,8.654253306e-14,2.112896842e-13,2.664281922e-13,3.604973084e-13,5.324933321e-13,9.711678377e-13,1.928170793e-13,5.972966202e-14,3.765175433e-13,3.100266526e-13
0.828125,2.06823223e-13,6.062083103e-13,7.231069429e-13,2.703838836e-13,3.411340914e-13,1.981706932e-13,3.291344614e-13,1.972823988e-13,2.283593251e-13,9.898521771e-14,4.81522249e-13,1.528419344e-13,3.038898634e-13,2.186742693e-13,3.41144174e-13,3.759589514e-13,7.23889723e-13,2.258876202e-13,9.151615654e-14,4.379747729e-13,6.750691822e-14,1.236513084e-13,8.664414157e-14,2.012670365e-13,2.624033735e-13,3.532844063e-13,5.321932121e-13,9.625764079e-13,1.891871696e-13,6.004650618e-14,3.651599471e-13,3.046135305e-13
0.8359375,2.100851518e-13,5.985447898e-13,7.17223295e-13,2.646793292e-13,3.30421358e-13,1.977894371e-13,3.303004266e-13,1.922192351e-13,2.247056602e-13,9.7853089e-14,4.789123626e-13,1.518456595e-13,3.023414807e-13,2.161645797e-13,3.395284568e-13,3.722519501e-13,7.088300108e-13,2.230457821e-13,9.20235902e-14,4.288532044e-13,6.664333037e-14,1.247516843e-13,8.68031522e-14,1.918606121e-13,2.584314996e-13,3.462734596e-13,5.320276788e-13,9.542209521e-13,1.855792126e-13,6.040908559e-14,3.54103152e-13,2.993542793e-13
0.84375,2.134105076e-13,5.90526516e-13,7.113527834e-13,2.591444009e-13,3.200489037e-13,1.973614682e-13,3.311956308e-13,1.872782121e-13,2.210817157e-13,9.6844339e-14,4.763659515e-13,1.508422193e-13,3.007087936e-13,2.135766328e-13,3.377967139e-13,3.684691257e-13,6.935059243e-13,2.202908675e-13,9.249716962e-14,4.198674447e-13,6.593929155e-14,1.258372611e-13,8.704283543e-14,1.827597788e-13,2.545924473e-13,3.393847764e-13,5.319226233e-13,9.462892974e-13,1.819135179e-13,6.08007565e-14,3.433043993e-13,2.942285723e-13
0.8515625,2.16673848e-13,5.821123997e-13,7.05642111e-13,2.53716865e-13,3.098753713e-13,1.969016498e-13,3.318773377e-13,1.824641966e-13,2.175087865e-13,9.581910762e-14,4.737487327e-13,1.497739207e-13,2.990716383e-13,2.109381942e-13,3.359883988e-13,3.646501434e-13,6.77963815e-13,2.176155595e-13,9.300175611e-14,4.110547817e-13,6.528586413e-14,1.269374092e-13,8.725428516e-14,1.738577201e-13,2.509189796e-13,3.326390844e-13,5.318006773e-13,9.380566127e-13,1.78168215e-13,6.120670947e-14,3.326005658e-13,2.892153066e-13
0.859375,2.200999758e-13,5.733678425e-13,7.000051277e-13,2.482638683e-13,2.998760608e-13,1.963641043e-13,3.325889749e-13,1.777423512e-13,2.140678865e-13,9.466474421e-14,4.710628519e-13,1.486824128e-13,2.974653116e-13,2.083085082e-13,3.341919797e-13,3.608031979e-13,6.623186078e-13,2.150061512e-13,9.35248015e-14,4.026448367e-13,6.46688921e-14,1.281098204e-13,8.748303716e-14,1.652994881e-13,2.472927182e-13,3.261224625e-13,5.31653897e-13,9.293954664e-13,1.744080201e-13,6.162659173e-14,3.219369668e-13,2.84392812e-13
0.8671875,2.238090088e-13,5.6434653e-13,6.940554317e-13,2.42852162e-13,2.901390401e-13,1.958003603e-13,3.332458351e-13,1.730872193e-13,2.107672653e-13,9.35082328e-14,4.68506138e-13,1.476169861e-13,2.957906969e-13,2.056213785e-13,3.322617304e-13,3.568834661e-13,6.466707893e-13,2.124350748e-13,9.39809611e-14,3.947080445e-13,6.417486755e-14,1.293275203e-13,8.775000485e-14,1.571129022e-13,2.436826652e-13,3.198020927e-13,5.316514707e-13,9.209962856e-13,1.705671031e-13,6.20572271e-14,3.114506671e-13,2.798112257e-13
0.875,2.276846415e-13,5.551320008e-13,6.880176104e-13,2.376368263e-13,2.806820086e-13,1.951221664e-13,3.337381996e-13,1.68506199e-13,2.075625124e-13,9.241690566e-14,4.661799883e-13,1.465520161e-13,2.93981288e-13,2.027914971e-13,3.300353981e-13,3.529170801e-13,6.311402884e-13,2.099504879e-13,9.439532477e-14,3.871755432e-13,6.381001835e-14,1.305249169e-13,8.793081317e-14,1.492857428e-13,2.401572091e-13,3.136188815e-13,5.318876035e-13,9.129450138e-13,1.666568275e-13,6.251487455e-14,3.012287564e-13,2.753725416e-13
0.8828125,2.317453203e-13,5.458437012e-13,6.823590167e-13,2.326345372e-13,2.714850439e-13,1.941826717e-13,3.341973426e-13,1.64039673e-13,2.044393616e-13,9.131498622e-14,4.640559997e-13,1.45491814e-13,2.921009262e-13,1.999486098e-13,3.277441577e-13,3.490117842e-13,6.156973663e-13,2.076163155e-13,9.483661414e-14,3.799434546e-13,6.352917443e-14,1.31707981e-13,8.807590557e-14,1.417903082e-13,2.367337174e-13,3.076001253e-13,5.32254153e-13,9.048742935e-13,1.62861333e-13,6.301568986e-14,2.91183255e-13,2.709957955e-13
0.890625,2.359943629e-13,5.364051325e-13,6.767138042e-13,2.278412805e-13,2.625478284e-13,1.932397494e-13,3.345712543e-13,1.596704269e-13,2.013734831e-13,9.020755764e-14,4.621247639e-13,1.444580489e-13,2.902060824e-13,1.972039352e-13,3.256188217e-13,3.451711869e-13,6.001283901e-13,2.053854863e-13,9.528591354e-14,3.729924876e-13,6.336237929e-14,1.328964295e-13,8.828979788e-14,1.345495592e-13,2.333699504e-13,3.017463057e-13,5.326525298e-13,8.967630662e-13,1.591644843e-13,6.354247202e-14,2.812834138e-13,2.667144166e-13
0.8984375,2.403025684e-13,5.266088523e-13,6.709333798e-13,2.231789791e-13,2.538234014e-13,1.925440494e-13,3.347341805e-13,1.553436704e-13,1.983591509e-13,8.911363351e-14,4.60333186e-13,1.434327362e-13,2.882992916e-13,1.944388725e-13,3.234381299e-13,3.412736274e-13,5.844019439e-13,2.031870806e-13,9.570445989e-14,3.663275906e-13,6.333085486e-14,1.34092465e-13,8.850688424e-14,1.275732352e-13,2.300301241e-13,2.960225831e-13,5.330084973e-13,8.886802077e-13,1.554044894e-13,6.407216074e-14,2.715981128e-13,2.625772556e-13
0.90625,2.446432671e-13,5.164872161e-13,6.654801242e-13,2.184498672e-13,2.453076585e-13,1.91801029e-13,3.348265887e-13,1.510813183e-13,1.954159216e-13,8.7965275e-14,4.585620218e-13,1.424175619e-13,2.863449603e-13,1.915945933e-13,3.21031591e-13,3.373573656e-13,5.68805733e-13,2.010581299e-13,9.609632502e-14,3.599075254e-13,6.336843073e-14,1.353090264e-13,8.869159506e-14,1.20911537e-13,2.267570106e-13,2.904548247e-13,5.332827757e-13,8.80732128e-13,1.516168498e-13,6.460585715e-14,2.621209544e-13,2.585893583e-13
0.9140625,2.490556201e-13,5.062238274e-13,6.601243106e-13,2.137368501e-13,2.370585291e-13,1.90774886e-13,3.349167672e-13,1.469193598e-13,1.92478419e-13,8.67735949e-14,4.567628095e-13,1.413873541e-13,2.842553836e-13,1.887513729e-13,3.186310126e-13,3.336472669e-13,5.535965656e-13,1.990832634e-13,9.647212246e-14,3.537543957e-13,6.34186472e-14,1.365019467e-13,8.884147637e-14,1.14550864e-13,2.236189786e-13,2.850794487e-13,5.336297617e-13,8.730157496e-13,1.478859577e-13,6.516976803e-14,2.528484325e-13,2.546872476e-13
0.921875,2.535814963e-13,4.957826485e-13,6.544789483e-13,2.09302867e-13,2.29070518e-13,1.897258833e-13,3.348953914e-13,1.428419951e-13,1.89503484e-13,8.561866308e-14,4.549977363e-13,1.402744379e-13,2.8201158e-13,1.858878049e-13,3.162782457e-13,3.301314282e-13,5.386458383e-13,1.972493082e-13,9.682678729e-14,3.478838619e-13,6.353625717e-14,1.376079257e-13,8.894718777e-14,1.084882623e-13,2.20563924e-13,2.798957377e-13,5.341713596e-13,8.652249729e-13,1.441766905e-13,6.577311542e-14,2.438336552e-13,2.508198843e-13
0.9296875,2.582757813e-13,4.850828799e-13,6.488827865e-13,2.050642326e-13,2.213868503e-13,1.88818715e-13,3.347251355e-13,1.388517382e-13,1.866119876e-13,8.447831411e-14,4.533660341e-13,1.391435555e-13,2.796977626e-13,1.82976599e-13,3.136853507e-13,3.265284904e-13,5.235970908e-13,1.954553832e-13,9.715225214e-14,3.422623063e-13,6.381749405e-14,1.386752129e-13,8.910128215e-14,1.027164641e-13,2.174869316e-13,2.748913996e-13,5.346998022e-13,8.571470768e-13,1.40475262e-13,6.637240813e-14,2.350498049e-13,2.470954614e-13
0.9375,2.63085178e-13,4.742591715e-13,6.434290088e-13,2.008480025e-13,2.141045126e-13,1.878269004e-13,3.343657707e-13,1.349525731e-13,1.838806613e-13,8.33024529e-14,4.518975533e-13,1.381132753e-13,2.773294043e-13,1.800990498e-13,3.108604075e-13,3.227874736e-13,5.08415879e-13,1.937005218e-13,9.744161648e-14,3.369441056e-13,6.424887048e-14,1.397741027e-13,8.931008704e-14,9.720727873e-14,2.144357662e-13,2.700575978e-13,5.350402593e-13,8.49052914e-13,1.367921141e-13,6.695390574e-14,2.26462492e-13,2.436173333e-13
0.9453125,2.679595651e-13,4.633549303e-13,6.378646495e-13,1.967298737e-13,2.071240209e-13,1.865911499e-13,3.338317259e-13,1.311288512e-13,1.812246877e-13,8.211959957e-14,4.505150439e-13,1.370973291e-13,2.74862212e-13,1.772276644e-13,3.080335487e-13,3.191158944e-13,4.934227278e-13,1.921099354e-13,9.769323476e-14,3.31921743e-13,6.475479438e-14,1.408805302e-13,8.94741603e-14,9.202645359e-14,2.115791266e-13,2.654243357e-13,5.354105489e-13,8.410482414e-13,1.331261003e-13,6.757738525e-14,2.181174132e-13,2.402717785e-13
0.953125,2.729724452e-13,4.522193961e-13,6.32328238e-13,1.927029619e-13,2.002769173e-13,1.852501944e-13,3.33228293e-13,1.274037514e-13,1.785840166e-13,8.095493711e-14,4.491711195e-13,1.359543701e-13,2.723126936e-13,1.742356511e-13,3.051624098e-13,3.15550494e-13,4.787145451e-13,1.907027665e-13,9.79260672e-14,3.270420344e-13,6.53224395e-14,1.419613757e-13,8.960397016e-14,8.721473059e-14,2.089102966e-13,2.609808158e-13,5.359571638e-13,8.330271954e-13,1.295097275e-13,6.824399891e-14,2.099932677e-13,2.369432953e-13
0.9609375,2.781323559e-13,4.408809339e-13,6.269314417e-13,1.8871042e-13,1.93580856e-13,1.839486309e-13,3.32410623e-13,1.237651309e-13,1.759503222e-13,7.979991061e-14,4.479156069e-13,1.347310063e-13,2.696914361e-13,1.711347364e-13,3.021489749e-13,3.119698024e-13,4.641076158e-13,1.893703494e-13,9.813776323e-14,3.222763743e-13,6.594925946e-14,1.430148584e-13,8.969197984e-14,8.26304205e-14,2.061708117e-13,2.565967211e-13,5.364269153e-13,8.251264081e-13,1.259235976e-13,6.886966073e-14,2.020242368e-13,2.336852483e-13
0.96875,2.833697427e-13,4.296863376e-13,6.215982343e-13,1.849594009e-13,1.870900218e-13,1.826833508e-13,3.311186349e-13,1.201321048e-13,1.733207751e-13,7.864581883e-14,4.466978512e-13,1.335553258e-13,2.669912253e-13,1.681322605e-13,2.992195546e-13,3.084368487e-13,4.49576747e-13,1.881017403e-13,9.82674138e-14,3.176856012e-13,6.658613154e-14,1.440372115e-13,8.976684001e-14,7.821230611e-14,2.033040412e-13,2.522435548e-13,5.367172004e-13,8.179178636e-13,1.223509937e-13,6.942514369e-14,1.942696846e-13,2.30579064e-13
0.9765625,2.886639549e-13,4.185596902e-13,6.162916856e-13,1.815268049e-13,1.807335967e-13,1.813156061e-13,3.296366197e-13,1.164825344e-13,1.707043505e-13,7.750879465e-14,4.455536613e-13,1.323814989e-13,2.641997574e-13,1.651476529e-13,2.961808326e-13,3.049198278e-13,4.353210153e-13,1.869863309e-13,9.830161373e-14,3.132331614e-13,6.742044502e-14,1.450515203e-13,8.988656627e-14,7.421184369e-14,2.006463572e-13,2.480674995e-13,5.370777471e-13,8.107174699e-13,1.188880567e-13,6.998674462e-14,1.868178139e-13,2.275352395e-13
0.984375,2.940894865e-13,4.075101214e-13,6.110147266e-13,1.782762994e-13,1.744925242e-13,1.798644116e-13,3.282045497e-13,1.128898119e-13,1.68160167e-13,7.638495701e-14,4.445212441e-13,1.31214092e-13,2.61350329e-13,1.621598291e-13,2.930120731e-13,3.014322889e-13,4.212609631e-13,1.859709777e-13,9.827831871e-14,3.087924812e-13,6.840033668e-14,1.460855564e-13,8.996683675e-14,7.062044318e-14,1.981658781e-13,2.440316791e-13,5.376257615e-13,8.03196224e-13,1.155885119e-13,7.057843461e-14,1.796247506e-13,2.245379463e-13
0.9921875,2.998206335e-13,3.964689884e-13,6.057233099e-13,1.751318283e-13,1.685593967e-13,1.783115002e-13,3.267292842e-13,1.094421365e-13,1.65689405e-13,7.52589605e-14,4.43599289e-13,1.300729512e-13,2.584395308e-13,1.591186163e-13,2.897098183e-13,2.979495107e-13,4.072790309e-13,1.849922679e-13,9.817966015e-14,3.043894574e-13,6.936675336e-14,1.471267157e-13,8.988391716e-14,6.726270738e-14,1.955809703e-13,2.399744918e-13,5.380930805e-13,7.955933989e-13,1.12283833e-13,7.113070535e-14,1.72622225e-13,2.216202886e-13
1,3.058226553e-13,3.854817376e-13,6.004441529e-13,1.721757137e-13,1.629683525e-13,1.766973539e-13,3.250974699e-13,1.06115323e-13,1.63265155e-13,7.411245213e-14,4.427585584e-13,1.289324293e-13,2.554628747e-13,1.560197454e-13,2.862591791e-13,2.944367327e-13,3.935028976e-13,1.840832808e-13,9.800225653e-14,3.00190447e-13,7.032760357e-14,1.481674381e-13,8.978608444e-14,6.423040858e-14,1.929882555e-13,2.359254271e-13,5.384144076e-13,7.880701113e-13,1.088904985e-13,7.158128167e-14,1.657861899e-13,2.187747604e-13
1.0078125,3.117990286e-13,3.746513058e-13,5.951626602e-13,1.694080049e-13,1.576201937e-13,1.750329586e-13,3.233259778e-13,1.028357633e-13,1.608672384e-13,7.295207644e-14,4.420446067e-13,1.277554881e-13,2.52411981e-13,1.529316921e-13,2.82679095e-13,2.908956291e-13,3.799715909e-13,1.832777002e-13,9.780563823e-14,2.962632357e-13,7.142307642e-14,1.492075369e-13,8.977841481e-14,6.153320646e-14,1.904999914e-13,2.320404673e-13,5.387561508e-13,7.80397209e-13,1.05532285e-13,7.201593953e-14,1.591808268e-13,2.160093429e-13
1.015625,3.17731163e-13,3.640211717e-13,5.899258889e-13,1.667965238e-13,1.525373474e-13,1.733131409e-13,3.214573419e-13,9.960813857e-14,1.584909112e-13,7.181822803e-14,4.414932236e-13,1.265458392e-13,2.493406114e-13,1.499102854e-13,2.791163284e-13,2.87462465e-13,3.666206855e-13,1.826257083e-13,9.762364495e-14,2.925238157e-13,7.271080011e-14,1.502385147e-13,8.97264675e-14,5.903412822e-14,1.879731198e-13,2.284160714e-13,5.392092371e-13,7.724957486e-13,1.023548886e-13,7.252867571e-14,1.529394148e-13,2.13367885e-13
1.0234375,3.238960587e-13,3.53580932e-13,5.849006898e-13,1.643760315e-13,1.477897883e-13,1.71660449e-13,3.195019573e-13,9.649450653e-14,1.561875811e-13,7.073239177e-14,4.410965138e-13,1.253434206e-13,2.46332535e-13,1.469529457e-13,2.756269135e-13,2.841959093e-13,3.534664575e-13,1.821404472e-13,9.744614161e-14,2.889885228e-13,7.414744432e-14,1.512760811e-13,8.961918402e-14,5.688387208e-14,1.85517447e-13,2.250297934e-13,5.399031322e-13,7.646157704e-13,9.938858654e-14,7.306721954e-14,1.47073811e-13,2.108679787e-13
1.03125,3.302677045e-13,3.433623242e-13,5.801689849e-13,1.621314248e-13,1.433524611e-13,1.700795812e-13,3.174596623e-13,9.349803009e-14,1.539670657e-13,6.966048734e-14,4.408934053e-13,1.241730238e-13,2.433328015e-13,1.440509256e-13,2.721529589e-13,2.810772046e-13,3.406030035e-13,1.817217414e-13,9.727212356e-14,2.858008817e-13,7.562720939e-14,1.52320053e-13,8.951151097e-14,5.524503361e-14,1.833257394e-13,2.218096254e-13,5.409622578e-13,7.567900311e-13,9.656526656e-14,7.359439488e-14,1.414931153e-13,2.084426719e-13
1.0390625,3.365863597e-13,3.334478304e-13,5.756684043e-13,1.6004255e-13,1.391812419e-13,1.684035444e-13,3.152801856e-13,9.057325495e-14,1.517386185e-13,6.856829303e-14,4.408649835e-13,1.230044636e-13,2.402279157e-13,1.411753734e-13,2.687345564e-13,2.782122476e-13,3.281903355e-13,1.813405556e-13,9.709047016e-14,2.829291018e-13,7.710079482e-14,1.533422327e-13,8.93327687e-14,5.39113314e-14,1.811815291e-13,2.187227441e-13,5.421721853e-13,7.488790125e-13,9.382258128e-14,7.413766905e-14,1.362002085e-13,2.059968162e-13
1.046875,3.429033082e-13,3.238404294e-13,5.711537705e-13,1.582083933e-13,1.35306281e-13,1.666604358e-13,3.128534313e-13,8.772251302e-14,1.495021045e-13,6.746860326e-14,4.409107461e-13,1.21810116e-13,2.370348242e-13,1.382781625e-13,2.653327005e-13,2.755480445e-13,3.162430142e-13,1.810861057e-13,9.686730734e-14,2.80160231e-13,7.867573546e-14,1.543548692e-13,8.908729902e-14,5.268576261e-14,1.788544043e-13,2.15723433e-13,5.431382149e-13,7.410577615e-13,9.115622433e-14,7.466675649e-14,1.312245779e-13,2.035777019e-13
1.0546875,3.494785231e-13,3.144594365e-13,5.664639631e-13,1.566697299e-13,1.317476298e-13,1.64962698e-13,3.102274096e-13,8.496969799e-14,1.473779976e-13,6.637134906e-14,4.410766768e-13,1.206074965e-13,2.338295495e-13,1.353936424e-13,2.617779398e-13,2.728790218e-13,3.045727035e-13,1.809809961e-13,9.658923388e-14,2.774747681e-13,8.039460557e-14,1.553695421e-13,8.883150562e-14,5.168078302e-14,1.76469893e-13,2.128136815e-13,5.439440478e-13,7.333690707e-13,8.858027379e-14,7.515704859e-14,1.26523962e-13,2.013289709e-13
1.0625,3.562882899e-13,3.053216016e-13,5.619188062e-13,1.552875783e-13,1.284362978e-13,1.632578223e-13,3.075695252e-13,8.229868963e-14,1.453932844e-13,6.525771528e-14,4.41447302e-13,1.193956307e-13,2.306398626e-13,1.326125392e-13,2.581662218e-13,2.703373265e-13,2.931848468e-13,1.809939432e-13,9.627320768e-14,2.751023672e-13,8.213523304e-14,1.563832865e-13,8.855669194e-14,5.10738387e-14,1.741622433e-13,2.101459186e-13,5.450575276e-13,7.255176941e-13,8.610040301e-14,7.561141214e-14,1.220871267e-13,1.992772525e-13
1.0703125,3.630896139e-13,2.965422326e-13,5.577215853e-13,1.539980858e-13,1.253268499e-13,1.615344134e-13,3.048197004e-13,7.969072684e-14,1.434870794e-13,6.413202033e-14,4.418941862e-13,1.181603499e-13,2.274404825e-13,1.299242982e-13,2.547078948e-13,2.681030818e-13,2.822279767e-13,1.810915956e-13,9.593336196e-14,2.730836666e-13,8.387018269e-14,1.574581212e-13,8.827427137e-14,5.089632784e-14,1.718916338e-13,2.077635354e-13,5.464430191e-13,7.175976753e-13,8.370716889e-14,7.599655205e-14,1.179288716e-13,1.973702665e-13
1.078125,3.698974839e-13,2.881414139e-13,5.535525732e-13,1.52887774e-13,1.224764377e-13,1.59828604e-13,3.018764909e-13,7.714972189e-14,1.416466323e-13,6.301574347e-14,4.4235067e-13,1.169403247e-13,2.241590631e-13,1.272458513e-13,2.512856228e-13,2.660405847e-13,2.716436646e-13,1.812406675e-13,9.555802335e-14,2.71202534e-13,8.570863073e-14,1.586064903e-13,8.796649304e-14,5.10554959e-14,1.696574693e-13,2.054895993e-13,5.477793319e-13,7.09837895e-13,8.139184613e-14,7.633799867e-14,1.140278126e-13,1.955803002e-13
1.0859375,3.769302719e-13,2.800542637e-13,5.494385012e-13,1.519536232e-13,1.199240712e-13,1.580882422e-13,2.989053363e-13,7.468497874e-14,1.398711088e-13,6.190678237e-14,4.429884655e-13,1.157744947e-13,2.207797257e-13,1.24606731e-13,2.477985326e-13,2.641441167e-13,2.613962334e-13,1.815047473e-13,9.51338075e-14,2.694477172e-13,8.772531265e-14,1.597104048e-13,8.760562296e-14,5.144136163e-14,1.675251031e-13,2.032461982e-13,5.492889817e-13,7.020559422e-13,7.917771248e-14,7.670059111e-14,1.103926284e-13,1.938544115e-13
1.09375,3.841233524e-13,2.72281901e-13,5.457099737e-13,1.511630191e-13,1.175856071e-13,1.563256025e-13,2.960109684e-13,7.229993439e-14,1.381322496e-13,6.080902099e-14,4.438415796e-13,1.146442956e-13,2.173729916e-13,1.221262381e-13,2.444582679e-13,2.624616157e-13,2.51563469e-13,1.819046456e-13,9.467436002e-14,2.679080927e-13,8.988870949e-14,1.607298044e-13,8.722837002e-14,5.205719983e-14,1.654559596e-13,2.010854717e-13,5.511299516e-13,6.943181185e-13,7.706753422e-14,7.704981824e-14,1.07027023e-13,1.92162044e-13
1.1015625,3.912405617e-13,2.648825537e-13,5.420979733e-13,1.506216626e-13,1.153408324e-13,1.545897022e-13,2.930591755e-13,6.997301879e-14,1.36415111e-13,5.973700648e-14,4.447568046e-13,1.135271366e-13,2.13949161e-13,1.198216418e-13,2.413476561e-13,2.607643072e-13,2.420744716e-13,1.822874405e-13,9.418313458e-14,2.663638303e-13,9.203180925e-14,1.61729096e-13,8.680236025e-14,5.297737575e-14,1.633405819e-13,1.989878856e-13,5.529319736e-13,6.869264742e-13,7.501332578e-14,7.73331056e-14,1.03851948e-13,1.905359528e-13
1.109375,3.983393546e-13,2.579311832e-13,5.382963954e-13,1.503768248e-13,1.132045699e-13,1.528787864e-13,2.89963066e-13,6.769737154e-14,1.347367571e-13,5.868329795e-14,4.457176094e-13,1.124433653e-13,2.104789349e-13,1.176233657e-13,2.383279062e-13,2.590737758e-13,2.329302718e-13,1.826572041e-13,9.363544594e-14,2.647158596e-13,9.4061682e-14,1.627023359e-13,8.630419396e-14,5.41674696e-14,1.611596015e-13,1.969135981e-13,5.546349895e-13,6.796696056e-13,7.302172748e-14,7.756689811e-14,1.008363086e-13,1.889743207e-13
1.1171875,4.055993764e-13,2.515011542e-13,5.346131728e-13,1.503364752e-13,1.112957442e-13,1.512812562e-13,2.86732069e-13,6.552183666e-14,1.331478861e-13,5.764692763e-14,4.467538391e-13,1.114301734e-13,2.069963923e-13,1.155170097e-13,2.353324535e-13,2.576398139e-13,2.242619623e-13,1.832015699e-13,9.302258575e-14,2.632368083e-13,9.616055683e-14,1.636551442e-13,8.583027565e-14,5.556439366e-14,1.589938012e-13,1.948449637e-13,5.564252035e-13,6.723129545e-13,7.116212227e-14,7.776809468e-14,9.805585019e-14,1.874652875e-13
1.125,4.129650148e-13,2.45561957e-13,5.31285127e-13,1.504690869e-13,1.096223995e-13,1.498604991e-13,2.833526965e-13,6.346359618e-14,1.316657582e-13,5.662963186e-14,4.478000542e-13,1.104666316e-13,2.035209142e-13,1.135161475e-13,2.323093517e-13,2.563004136e-13,2.159149621e-13,1.838829409e-13,9.236196824e-14,2.619546353e-13,9.844093557e-14,1.646580065e-13,8.537209115e-14,5.725266973e-14,1.569616754e-13,1.927919177e-13,5.582205385e-13,6.650763413e-13,6.945045428e-14,7.794322028e-14,9.553217006e-14,1.86033205e-13
1.1328125,4.203021102e-13,2.40035042e-13,5.282037978e-13,1.507776509e-13,1.081115157e-13,1.48473458e-13,2.797936337e-13,6.148216255e-14,1.302202659e-13,5.559648862e-14,4.48900323e-13,1.09456299e-13,2.000602611e-13,1.116063971e-13,2.292656033e-13,2.549185645e-13,2.076916714e-13,1.845899591e-13,9.169681238e-14,2.607000286e-13,1.007342803e-13,1.6567334e-13,8.484114108e-14,5.929360933e-14,1.551118554e-13,1.90851123e-13,5.601163442e-13,6.580449977e-13,6.786209935e-14,7.809830837e-14,9.322403553e-14,1.846625165e-13
1.140625,4.275617645e-13,2.349682954e-13,5.252321545e-13,1.512118972e-13,1.067960152e-13,1.470030048e-13,2.760472471e-13,5.958293128e-14,1.287708125e-13,5.453736389e-14,4.501673849e-13,1.083562966e-13,1.96669767e-13,1.09782665e-13,2.263790846e-13,2.538060802e-13,1.998128085e-13,1.854517667e-13,9.108798694e-14,2.595962782e-13,1.029712118e-13,1.666117348e-13,8.4237268e-14,6.159484517e-14,1.533139906e-13,1.890613486e-13,5.62215252e-13,6.510297527e-13,6.638820373e-14,7.822488125e-14,9.115498551e-14,1.833384794e-13
1.1484375,4.347203691e-13,2.304211142e-13,5.22276962e-13,1.517539173e-13,1.057007869e-13,1.455350872e-13,2.721550232e-13,5.77835043e-14,1.273699284e-13,5.349709925e-14,4.515475477e-13,1.072381094e-13,1.933343673e-13,1.080417016e-13,2.236907456e-13,2.530783654e-13,1.925128305e-13,1.865593744e-13,9.05384879e-14,2.586768239e-13,1.052701671e-13,1.675028706e-13,8.351469844e-14,6.409315243e-14,1.514357266e-13,1.873413937e-13,5.64267509e-13,6.439716942e-13,6.500779617e-14,7.833787487e-14,8.934827272e-14,1.82106817e-13
1.15625,4.418943864e-13,2.262056257e-13,5.193258939e-13,1.523580199e-13,1.047052141e-13,1.441901663e-13,2.682027266e-13,5.602647896e-14,1.259887302e-13,5.247400138e-14,4.529069618e-13,1.060817414e-13,1.899825695e-13,1.062949563e-13,2.209759713e-13,2.5247584e-13,1.856497599e-13,1.877885764e-13,8.999059854e-14,2.576865258e-13,1.076003904e-13,1.684053119e-13,8.267540577e-14,6.679806737e-14,1.495261245e-13,1.856872657e-13,5.663972212e-13,6.365915501e-13,6.370272562e-14,7.847271562e-14,8.773189025e-14,1.809005603e-13
1.1640625,4.493681715e-13,2.224861881e-13,5.166408272e-13,1.53179297e-13,1.037114616e-13,1.430104852e-13,2.640930029e-13,5.42971423e-14,1.247138929e-13,5.146109014e-14,4.542765581e-13,1.050052359e-13,1.866436638e-13,1.047181053e-13,2.183485367e-13,2.518260665e-13,1.789246141e-13,1.88992897e-13,8.943029243e-14,2.565509777e-13,1.098917273e-13,1.69323831e-13,8.183477065e-14,6.97163205e-14,1.476384118e-13,1.840859e-13,5.685763587e-13,6.295515218e-13,6.252499915e-14,7.85817885e-14,8.624740208e-14,1.797821174e-13
1.171875,4.569581731e-13,2.193497251e-13,5.139680508e-13,1.542146003e-13,1.027271324e-13,1.418554965e-13,2.600174334e-13,5.266062885e-14,1.235725921e-13,5.047084774e-14,4.556127432e-13,1.040369982e-13,1.833724426e-13,1.032920945e-13,2.157954271e-13,2.510799554e-13,1.723137392e-13,1.90030591e-13,8.889129377e-14,2.554579821e-13,1.121109718e-13,1.702243278e-13,8.102869991e-14,7.290704952e-14,1.458313074e-13,1.82517961e-13,5.704975496e-13,6.228285855e-13,6.142284373e-14,7.862806015e-14,8.493344731e-14,1.787581596e-13
1.1796875,4.643150575e-13,2.168791832e-13,5.111931355e-13,1.554496739e-13,1.017754224e-13,1.406342095e-13,2.560367926e-13,5.11174308e-14,1.225332191e-13,4.947177677e-14,4.569040069e-13,1.031335585e-13,1.801582701e-13,1.019207353e-13,2.132664564e-13,2.503192666e-13,1.6596409e-13,1.909016181e-13,8.834019438e-14,2.54374947e-13,1.142955663e-13,1.711266201e-13,8.020825708e-14,7.634572611e-14,1.44013862e-13,1.809628885e-13,5.722473107e-13,6.159749127e-13,6.035627106e-14,7.861995245e-14,8.382643069e-14,1.77829432e-13
1.1875,4.715352779e-13,2.150363175e-13,5.086372374e-13,1.567442278e-13,1.009217403e-13,1.393978552e-13,2.519952507e-13,4.962646014e-14,1.215401991e-13,4.844501399e-14,4.583105948e-13,1.022198441e-13,1.769774876e-13,1.0060109e-13,2.108518895e-13,2.49706579e-13,1.599059181e-13,1.917931606e-13,8.778602765e-14,2.532381756e-13,1.165018084e-13,1.720120667e-13,7.935554062e-14,8.000841568e-14,1.421398346e-13,1.794327044e-13,5.742689581e-13,6.09087021e-13,5.937920594e-14,7.85815962e-14,8.288687499e-14,1.769782432e-13
1.1953125,4.788732457e-13,2.137762622e-13,5.0630877e-13,1.581028355e-13,1.002054455e-13,1.381831885e-13,2.478879709e-13,4.815893066e-14,1.205144291e-13,4.747404854e-14,4.598708238e-13,1.012997892e-13,1.737751389e-13,9.938276e-14,2.086205698e-13,2.491881959e-13,1.54086154e-13,1.927499065e-13,8.72599231e-14,2.520875521e-13,1.187681284e-13,1.728301279e-13,7.84672794e-14,8.393695971e-14,1.403383049e-13,1.778869965e-13,5.765362239e-13,6.024898017e-13,5.852733846e-14,7.853042083e-14,8.207064389e-14,1.76078404e-13
1.203125,4.861533097e-13,2.130549103e-13,5.039784424e-13,1.596567121e-13,9.959006538e-14,1.36970697e-13,2.437039085e-13,4.670309303e-14,1.194189983e-13,4.659782767e-14,4.613852797e-13,1.003802805e-13,1.704970191e-13,9.821758197e-14,2.064053078e-13,2.485969392e-13,1.484535267e-13,1.936363144e-13,8.669952135e-14,2.508928676e-13,1.210709799e-13,1.73572607e-13,7.75673981e-14,8.803705315e-14,1.386090077e-13,1.762700812e-13,5.788053058e-13,5.960237879e-13,5.773738209e-14,7.845709837e-14,8.137817786e-14,1.750622405e-13
1.2109375,4.931987308e-13,2.128682268e-13,5.017660814e-13,1.613773323e-13,9.90932388e-14,1.358446286e-13,2.393306635e-13,4.531614918e-14,1.183473818e-13,4.574423486e-14,4.628357896e-13,9.946095217e-14,1.671896729e-13,9.70706697e-14,2.040882346e-13,2.479666454e-13,1.430297816e-13,1.944486949e-13,8.605687304e-14,2.495749022e-13,1.233564075e-13,1.742773716e-13,7.666725767e-14,9.229307348e-14,1.367955264e-13,1.74545976e-13,5.810364268e-13,5.895474236e-13,5.698211371e-14,7.829287419e-14,8.081951399e-14,1.740899421e-13
1.21875,5.002628988e-13,2.132211463e-13,4.997590386e-13,1.631949658e-13,9.878143631e-14,1.348543395e-13,2.349136953e-13,4.406726062e-14,1.173709544e-13,4.488961722e-14,4.644173857e-13,9.858561728e-14,1.638900568e-13,9.595889032e-14,2.017211627e-13,2.474095673e-13,1.379454556e-13,1.952608749e-13,8.537298412e-14,2.48119465e-13,1.256337203e-13,1.749409347e-13,7.574133325e-14,9.688617191e-14,1.349756998e-13,1.727481709e-13,5.832490447e-13,5.831253311e-13,5.630277997e-14,7.802235661e-14,8.039501927e-14,1.732569018e-13
1.2265625,5.074087642e-13,2.13999896e-13,4.978388588e-13,1.651172643e-13,9.865601789e-14,1.338405665e-13,2.306075757e-13,4.291307684e-14,1.164130588e-13,4.406611769e-14,4.661520602e-13,9.774132219e-14,1.605770241e-13,9.485107985e-14,1.993482368e-13,2.469678002e-13,1.332366836e-13,1.960840797e-13,8.469689047e-14,2.466599408e-13,1.279575693e-13,1.755257507e-13,7.482033937e-14,1.017102059e-13,1.332961254e-13,1.710344578e-13,5.855855034e-13,5.766464808e-13,5.569490796e-14,7.777223562e-14,8.013079637e-14,1.724444164e-13
1.234375,5.144068586e-13,2.15197317e-13,4.960339914e-13,1.67135612e-13,9.868490364e-14,1.327652851e-13,2.262230166e-13,4.17911277e-14,1.154317069e-13,4.326428262e-14,4.679626935e-13,9.686471241e-14,1.573065159e-13,9.376829492e-14,1.97063151e-13,2.466543067e-13,1.287699778e-13,1.970043285e-13,8.406562514e-14,2.45389408e-13,1.303091905e-13,1.760683203e-13,7.390173193e-14,1.065972175e-13,1.316051969e-13,1.694864461e-13,5.881719894e-13,5.701409219e-13,5.515634421e-14,7.759328683e-14,8.006705274e-14,1.716386807e-13
1.2421875,5.214242484e-13,2.170303162e-13,4.943966793e-13,1.692627526e-13,9.883654623e-14,1.318276506e-13,2.217129917e-13,4.07369278e-14,1.144915444e-13,4.248947731e-14,4.698503123e-13,9.596971371e-14,1.541208575e-13,9.281349915e-14,1.949940489e-13,2.464459152e-13,1.245474747e-13,1.98118507e-13,8.347026881e-14,2.442834422e-13,1.326174945e-13,1.766115717e-13,7.291768963e-14,1.118271537e-13,1.298305643e-13,1.680059351e-13,5.909005012e-13,5.639122979e-13,5.473473239e-14,7.735164893e-14,8.018343996e-14,1.709480819e-13
1.25,5.2860309e-13,2.195309628e-13,4.929067749e-13,1.714831197e-13,9.907582516e-14,1.309996157e-13,2.17317807e-13,3.97675842e-14,1.136018875e-13,4.176857934e-14,4.717435809e-13,9.509389234e-14,1.509581012e-13,9.20005721e-14,1.93087242e-13,2.463314973e-13,1.20717615e-13,1.993367828e-13,8.284999835e-14,2.432053424e-13,1.348723043e-13,1.771119832e-13,7.191636185e-14,1.174744709e-13,1.28198343e-13,1.665251749e-13,5.937182127e-13,5.579499358e-13,5.440912609e-14,7.70160185e-14,8.04145924e-14,1.70335517e-13
1.2578125,5.355568234e-13,2.225415553e-13,4.915546209e-13,1.737160492e-13,9.941516067e-14,1.300544155e-13,2.13007921e-13,3.883574477e-14,1.127289272e-13,4.107469646e-14,4.735638857e-13,9.423908014e-14,1.478260896e-13,9.129154328e-14,1.912210759e-13,2.463095092e-13,1.172377863e-13,2.005075272e-13,8.220997765e-14,2.421923516e-13,1.37101141e-13,1.775789944e-13,7.093004047e-14,1.231807454e-13,1.267075872e-13,1.650202875e-13,5.965733554e-13,5.519753058e-13,5.411974666e-14,7.670463659e-14,8.075249517e-14,1.697210331e-13
1.265625,5.422547862e-13,2.261418116e-13,4.902476319e-13,1.760396397e-13,9.988184933e-14,1.290613824e-13,2.085583845e-13,3.795368402e-14,1.11890341e-13,4.039250613e-14,4.753498257e-13,9.342763387e-14,1.447709405e-13,9.071242576e-14,1.894554244e-13,2.463272943e-13,1.13983767e-13,2.016152216e-13,8.160138546e-14,2.412921322e-13,1.39323634e-13,1.780932104e-13,6.986207916e-14,1.289895959e-13,1.250931453e-13,1.634591248e-13,5.992766143e-13,5.46015179e-13,5.390070737e-14,7.639842586e-14,8.124934371e-14,1.691358576e-13
1.2734375,5.490506876e-13,2.30502519e-13,4.889695863e-13,1.785823765e-13,1.004446142e-13,1.282326642e-13,2.040197597e-13,3.71555931e-14,1.110936888e-13,3.974524688e-14,4.771028885e-13,9.265925359e-14,1.417297983e-13,9.024919376e-14,1.878940907e-13,2.464155072e-13,1.110278848e-13,2.027387151e-13,8.102893412e-14,2.404625904e-13,1.415495286e-13,1.786229669e-13,6.876044795e-14,1.351362375e-13,1.233840836e-13,1.61949164e-13,6.019885774e-13,5.402144175e-13,5.378531699e-14,7.600281193e-14,8.191719559e-14,1.686019409e-13
1.28125,5.556956754e-13,2.355485489e-13,4.877933451e-13,1.81193499e-13,1.01065879e-13,1.275573883e-13,1.9954804e-13,3.640839258e-14,1.103247987e-13,3.910509534e-14,4.788136602e-13,9.187996249e-14,1.386814206e-13,8.980937668e-14,1.864714913e-13,2.466729831e-13,1.084049829e-13,2.039101928e-13,8.051194491e-14,2.397083851e-13,1.437413928e-13,1.790835534e-13,6.773876739e-14,1.414445268e-13,1.218245636e-13,1.605862106e-13,6.050247077e-13,5.344109932e-13,5.370805873e-14,7.554677933e-14,8.27007357e-14,1.681221277e-13
1.2890625,5.61864241e-13,2.411268447e-13,4.86616513e-13,1.837376385e-13,1.017388244e-13,1.269610716e-13,1.950840282e-13,3.572065242e-14,1.096053948e-13,3.846329197e-14,4.805305666e-13,9.10786161e-14,1.357043332e-13,8.935402026e-14,1.850936225e-13,2.470355118e-13,1.05921041e-13,2.050673041e-13,8.006848362e-14,2.389466985e-13,1.459040147e-13,1.794918378e-13,6.670043176e-14,1.478410024e-13,1.204341184e-13,1.592270437e-13,6.08188264e-13,5.284981471e-13,5.363208593e-14,7.507202194e-14,8.357098778e-14,1.677402653e-13
1.296875,5.678243751e-13,2.472316283e-13,4.85415706e-13,1.864300774e-13,1.024251113e-13,1.264093501e-13,1.905407224e-13,3.515375613e-14,1.089437718e-13,3.789064146e-14,4.821986373e-13,9.031007646e-14,1.328329401e-13,8.893987932e-14,1.838309183e-13,2.47398093e-13,1.034760188e-13,2.061446026e-13,7.965528592e-14,2.380489274e-13,1.481310239e-13,1.79865234e-13,6.557722469e-14,1.544607003e-13,1.190975172e-13,1.577462125e-13,6.112827665e-13,5.226878408e-13,5.360932548e-14,7.458053714e-14,8.45738382e-14,1.674302077e-13
1.3046875,5.73652923e-13,2.53973479e-13,4.843312238e-13,1.894243189e-13,1.030717561e-13,1.25846138e-13,1.860419557e-13,3.466183613e-14,1.08301139e-13,3.737090844e-14,4.837106674e-13,8.964279669e-14,1.300806917e-13,8.865693713e-14,1.827829521e-13,2.478099182e-13,1.012374567e-13,2.071453373e-13,7.927335238e-14,2.37136335e-13,1.503579974e-13,1.801563852e-13,6.448086478e-14,1.612475603e-13,1.177618452e-13,1.561947228e-13,6.145126466e-13,5.169655814e-13,5.366840846e-14,7.406426102e-14,8.573828829e-14,1.670868667e-13
1.3125,5.791225456e-13,2.614153052e-13,4.833329893e-13,1.925623973e-13,1.037072995e-13,1.253268097e-13,1.817331759e-13,3.414967656e-14,1.076518303e-13,3.680500054e-14,4.850703554e-13,8.911248198e-14,1.274288594e-13,8.855289527e-14,1.819055251e-13,2.483046394e-13,9.931919665e-14,2.081001123e-13,7.895892565e-14,2.36360904e-13,1.523823461e-13,1.803735516e-13,6.343595098e-14,1.682992752e-13,1.164097163e-13,1.545976094e-13,6.178100867e-13,5.110450193e-13,5.377453566e-14,7.34535977e-14,8.702928452e-14,1.666793347e-13
1.3203125,5.84349664e-13,2.694618457e-13,4.824810528e-13,1.957876205e-13,1.044184415e-13,1.249526308e-13,1.77527164e-13,3.364541767e-14,1.069975507e-13,3.622170645e-14,4.863902647e-13,8.866079687e-14,1.247717259e-13,8.860333055e-14,1.811556022e-13,2.488650283e-13,9.761511783e-14,2.090553613e-13,7.866940916e-14,2.356235209e-13,1.542456302e-13,1.805776546e-13,6.235962006e-14,1.757369018e-13,1.15107593e-13,1.529499783e-13,6.20985836e-13,5.050483867e-13,5.389840622e-14,7.277157152e-14,8.843627371e-14,1.662594349e-13
1.328125,5.895000691e-13,2.78036306e-13,4.819503761e-13,1.992212504e-13,1.052332018e-13,1.246719788e-13,1.733062175e-13,3.322814747e-14,1.06331571e-13,3.570841401e-14,4.878710406e-13,8.819978642e-14,1.220975321e-13,8.877936774e-14,1.805830163e-13,2.495209531e-13,9.605543074e-14,2.100543167e-13,7.836680433e-14,2.348322592e-13,1.561432625e-13,1.807709477e-13,6.125874442e-14,1.831953996e-13,1.13923219e-13,1.512760607e-13,6.243483437e-13,4.993260875e-13,5.405673295e-14,7.216819555e-14,8.998142718e-14,1.658537748e-13
1.3359375,5.94455979e-13,2.871848559e-13,4.815220684e-13,2.028001327e-13,1.0611986e-13,1.244175741e-13,1.691631664e-13,3.290243877e-14,1.056511439e-13,3.523946133e-14,4.895384353e-13,8.775298754e-14,1.195111117e-13,8.90677195e-14,1.801019963e-13,2.501887341e-13,9.467128008e-14,2.110628263e-13,7.806553771e-14,2.340655226e-13,1.580667733e-13,1.809226107e-13,6.019260431e-14,1.905500405e-13,1.127716718e-13,1.49547906e-13,6.280167036e-13,4.937846855e-13,5.428721163e-14,7.16148069e-14,9.164012796e-14,1.654576494e-13
1.34375,5.990753642e-13,2.968745716e-13,4.80984239e-13,2.063500123e-13,1.070702697e-13,1.24208829e-13,1.651530229e-13,3.264450008e-14,1.04986038e-13,3.478400812e-14,4.910813373e-13,8.737693486e-14,1.170260529e-13,8.940801818e-14,1.795114055e-13,2.507457971e-13,9.339847364e-14,2.120292775e-13,7.775730139e-14,2.334357677e-13,1.599222572e-13,1.810395578e-13,5.914018193e-14,1.982640131e-13,1.116137432e-13,1.477702842e-13,6.315038862e-13,4.881653251e-13,5.459608293e-14,7.098002466e-14,9.338289264e-14,1.651005518e-13
1.3515625,6.032351608e-13,3.070500842e-13,4.804756546e-13,2.09849874e-13,1.081048172e-13,1.240419894e-13,1.611412762e-13,3.24539308e-14,1.043573024e-13,3.438038001e-14,4.923502846e-13,8.701653211e-14,1.146152751e-13,8.973859089e-14,1.788555964e-13,2.513463428e-13,9.220441546e-14,2.129622486e-13,7.748210447e-14,2.330123603e-13,1.617037121e-13,1.811218817e-13,5.803737868e-14,2.064843563e-13,1.105006538e-13,1.460298056e-13,6.347048143e-13,4.82473869e-13,5.493577055e-14,7.031467887e-14,9.523590441e-14,1.648299516e-13
1.359375,6.068749099e-13,3.178025886e-13,4.798915265e-13,2.133349764e-13,1.092466419e-13,1.239396635e-13,1.570931933e-13,3.232944334e-14,1.037402869e-13,3.402984297e-14,4.935388654e-13,8.660494112e-14,1.1229695e-13,9.007652316e-14,1.783664358e-13,2.522083424e-13,9.124444206e-14,2.138628862e-13,7.734476478e-14,2.327468731e-13,1.633915143e-13,1.81139162e-13,5.690295927e-14,2.150167503e-13,1.093565828e-13,1.443465006e-13,6.381067653e-13,4.767283854e-13,5.524960764e-14,6.966824745e-14,9.722086728e-14,1.646348987e-13
1.3671875,6.101386333e-13,3.291766041e-13,4.79089704e-13,2.168318244e-13,1.105109435e-13,1.23949883e-13,1.531231183e-13,3.225309942e-14,1.031186457e-13,3.370753596e-14,4.947136113e-13,8.617640845e-14,1.100530658e-13,9.046008399e-14,1.780754599e-13,2.532871975e-13,9.058340721e-14,2.14754469e-13,7.735203337e-14,2.325164941e-13,1.649934119e-13,1.810988487e-13,5.580698795e-14,2.237519235e-13,1.081843831e-13,1.426812326e-13,6.418297139e-13,4.708880769e-13,5.553332173e-14,6.898925808e-14,9.932255877e-14,1.644628958e-13
1.375,6.131403875e-13,3.411103378e-13,4.783468841e-13,2.204027987e-13,1.118775935e-13,1.239738797e-13,1.492497551e-13,3.222051663e-14,1.024871987e-13,3.341867452e-14,4.958323433e-13,8.57662961e-14,1.078771136e-13,9.085908573e-14,1.77823049e-13,2.544858688e-13,9.009150617e-14,2.157204649e-13,7.741835865e-14,2.323252752e-13,1.666050956e-13,1.810210024e-13,5.474295462e-14,2.324043317e-13,1.071320682e-13,1.410234068e-13,6.455759444e-13,4.650068169e-13,5.582278181e-14,6.831759541e-14,1.015239813e-13,1.642945512e-13
1.3828125,6.15670261e-13,3.535592648e-13,4.776890477e-13,2.240297147e-13,1.133246422e-13,1.238824585e-13,1.454065369e-13,3.225926872e-14,1.018058366e-13,3.316308897e-14,4.969625135e-13,8.53606962e-14,1.057699149e-13,9.118900331e-14,1.774998832e-13,2.557956049e-13,8.971132449e-14,2.167422298e-13,7.751032719e-14,2.322765203e-13,1.682493842e-13,1.808678019e-13,5.365814087e-14,2.408569365e-13,1.061206257e-13,1.394023411e-13,6.493630517e-13,4.590662906e-13,5.614221835e-14,6.769064772e-14,1.03813752e-13,1.641401606e-13
1.390625,6.173841072e-13,3.66426475e-13,4.7686175e-13,2.276790337e-13,1.148627231e-13,1.23774176e-13,1.415913764e-13,3.23704996e-14,1.010903542e-13,3.29538938e-14,4.980586278e-13,8.499203057e-14,1.036695604e-13,9.143675983e-14,1.771331309e-13,2.571517228e-13,8.947848527e-14,2.17707414e-13,7.765115303e-14,2.324040169e-13,1.698529228e-13,1.806278682e-13,5.254849184e-14,2.495351891e-13,1.050579629e-13,1.379145395e-13,6.534364074e-13,4.530251985e-13,5.650451077e-14,6.706033255e-14,1.061805123e-13,1.640038458e-13
1.3984375,6.184430194e-13,3.796865025e-13,4.76073791e-13,2.31439389e-13,1.164563033e-13,1.238170148e-13,1.378765107e-13,3.250913056e-14,1.00429499e-13,3.281983507e-14,4.989892805e-13,8.472150225e-14,1.016138908e-13,9.172230285e-14,1.76867788e-13,2.584716467e-13,8.940990901e-14,2.185662412e-13,7.785506879e-14,2.326191789e-13,1.713942478e-13,1.803724644e-13,5.146551955e-14,2.586395181e-13,1.041117589e-13,1.365537612e-13,6.57684226e-13,4.471025182e-13,5.690478591e-14,6.643116236e-14,1.085837664e-13,1.63850845e-13
1.40625,6.195509886e-13,3.935144107e-13,4.755350742e-13,2.35317153e-13,1.1801581e-13,1.239698048e-13,1.34303081e-13,3.266674149e-14,9.980304599e-14,3.27349924e-14,4.997142769e-13,8.453952173e-14,9.971456552e-14,9.211398068e-14,1.767554587e-13,2.596892726e-13,8.9557142e-14,2.192203286e-13,7.810840355e-14,2.327112271e-13,1.728942878e-13,1.801618506e-13,5.046900206e-14,2.678645221e-13,1.032539119e-13,1.350642296e-13,6.617392102e-13,4.414678793e-13,5.727617549e-14,6.57837045e-14,1.109332414e-13,1.635974641e-13
1.4140625,6.208150201e-13,4.07971563e-13,4.7490642e-13,2.392341541e-13,1.195089554e-13,1.241169789e-13,1.307743827e-13,3.286065934e-14,9.910749535e-14,3.267096673e-14,5.00202911e-13,8.440983484e-14,9.790323524e-14,9.251015668e-14,1.766325819e-13,2.607416228e-13,8.993997745e-14,2.195432511e-13,7.839247548e-14,2.325371749e-13,1.74354537e-13,1.800166318e-13,4.953401704e-14,2.769699136e-13,1.022930003e-13,1.333013412e-13,6.655071223e-13,4.358410886e-13,5.756135416e-14,6.505289427e-14,1.131907934e-13,1.632206356e-13
1.421875,6.21438787e-13,4.229334315e-13,4.740215366e-13,2.432837133e-13,1.209815005e-13,1.242851054e-13,1.271850535e-13,3.306966387e-14,9.834014397e-14,3.26634437e-14,5.005662028e-13,8.433357941e-14,9.607750434e-14,9.285673232e-14,1.764659249e-13,2.617396516e-13,9.046176852e-14,2.196913761e-13,7.872519877e-14,2.322598967e-13,1.757936182e-13,1.799024643e-13,4.85681227e-14,2.859837731e-13,1.01317197e-13,1.314680635e-13,6.691733757e-13,4.299656656e-13,5.783329553e-14,6.431829535e-14,1.154497759e-13,1.628038995e-13
1.4296875,6.21085924e-13,4.383575053e-13,4.731642584e-13,2.474964844e-13,1.224845191e-13,1.245262396e-13,1.236100445e-13,3.330115987e-14,9.753909416e-14,3.272356592e-14,5.010359705e-13,8.428793774e-14,9.429510731e-14,9.325547221e-14,1.764534299e-13,2.628798449e-13,9.102908294e-14,2.199381746e-13,7.914299352e-14,2.321332835e-13,1.772080168e-13,1.796898321e-13,4.755423561e-14,2.951232642e-13,1.004031227e-13,1.297646682e-13,6.728464735e-13,4.240941467e-13,5.819376558e-14,6.36726746e-14,1.178119052e-13,1.623896651e-13
1.4375,6.202450503e-13,4.542787493e-13,4.723975282e-13,2.516660152e-13,1.239967645e-13,1.247940835e-13,1.201636653e-13,3.360858157e-14,9.671237233e-14,3.281223491e-14,5.015580071e-13,8.421478535e-14,9.260868528e-14,9.376378599e-14,1.76598917e-13,2.641434615e-13,9.160459094e-14,2.202366525e-13,7.965762885e-14,2.321762589e-13,1.785166488e-13,1.793276289e-13,4.654267659e-14,3.044823859e-13,9.946029172e-14,1.282258872e-13,6.766057185e-13,4.184516719e-13,5.860747019e-14,6.302647288e-14,1.20278419e-13,1.619805323e-13
1.4453125,6.191817203e-13,4.705951022e-13,4.716314327e-13,2.557207318e-13,1.254301305e-13,1.249981696e-13,1.168606087e-13,3.398972572e-14,9.587499879e-14,3.293092333e-14,5.01889552e-13,8.416295338e-14,9.101702758e-14,9.425496324e-14,1.766057954e-13,2.65411623e-13,9.217591903e-14,2.203987091e-13,8.027885779e-14,2.323051008e-13,1.796582818e-13,1.789636303e-13,4.555758133e-14,3.138758463e-13,9.855680945e-14,1.268645593e-13,6.806177878e-13,4.124862102e-13,5.899054061e-14,6.232307215e-14,1.228176764e-13,1.61597101e-13
1.453125,6.178658272e-13,4.875048616e-13,4.709087432e-13,2.598987463e-13,1.267998147e-13,1.2521409e-13,1.136793067e-13,3.440907384e-14,9.511821976e-14,3.307845901e-14,5.021878206e-13,8.409910875e-14,8.957600835e-14,9.47851601e-14,1.765896537e-13,2.667105616e-13,9.281288138e-14,2.205269362e-13,8.099082533e-14,2.32528865e-13,1.807595193e-13,1.787121354e-13,4.465117268e-14,3.233942552e-13,9.775658865e-14,1.255874376e-13,6.84940258e-13,4.063793131e-13,5.940675783e-14,6.161632132e-14,1.25416363e-13,1.61313504e-13
1.4609375,6.162258826e-13,5.047615228e-13,4.703276121e-13,2.640131518e-13,1.282555846e-13,1.254597604e-13,1.105840254e-13,3.483615397e-14,9.439889974e-14,3.324577242e-14,5.025531494e-13,8.40437579e-14,8.820587423e-14,9.535398085e-14,1.766270579e-13,2.680625766e-13,9.363122555e-14,2.207466446e-13,8.170787293e-14,2.328003e-13,1.818438439e-13,1.78475263e-13,4.377990975e-14,3.330360031e-13,9.693148113e-14,1.24255751e-13,6.892376381e-13,4.004022194e-13,5.99240763e-14,6.094202754e-14,1.280355909e-13,1.610136141e-13
1.46875,6.141584818e-13,5.22250946e-13,4.696984482e-13,2.680456387e-13,1.298301481e-13,1.257433885e-13,1.075464995e-13,3.524920663e-14,9.362246369e-14,3.347104287e-14,5.028765406e-13,8.399191822e-14,8.682754071e-14,9.591034928e-14,1.767611693e-13,2.694441011e-13,9.460723403e-14,2.210088031e-13,8.241952073e-14,2.330224728e-13,1.828461699e-13,1.781935629e-13,4.286897324e-14,3.425172725e-13,9.61120013e-14,1.229002313e-13,6.933419439e-13,3.943434668e-13,6.048218476e-14,6.029098087e-14,1.306255688e-13,1.606150412e-13
1.4765625,6.115851013e-13,5.399821043e-13,4.689269971e-13,2.722318673e-13,1.313616448e-13,1.259454397e-13,1.046344372e-13,3.568939982e-14,9.2750256e-14,3.378403277e-14,5.031167867e-13,8.391962675e-14,8.548188392e-14,9.639207013e-14,1.769669324e-13,2.708179135e-13,9.562534455e-14,2.211987281e-13,8.318646065e-14,2.332172302e-13,1.837640246e-13,1.778616756e-13,4.199428137e-14,3.5204423e-13,9.539834367e-14,1.216480136e-13,6.975280239e-13,3.880464583e-13,6.09503178e-14,5.967779229e-14,1.33157295e-13,1.601538401e-13
1.484375,6.086344689e-13,5.579311853e-13,4.681271219e-13,2.763902831e-13,1.327960772e-13,1.260309973e-13,1.018544325e-13,3.617504951e-14,9.180997855e-14,3.414094891e-14,5.03302471e-13,8.383618192e-14,8.421853997e-14,9.683531248e-14,1.771960397e-13,2.721678018e-13,9.665906031e-14,2.212851982e-13,8.404564776e-14,2.33511531e-13,1.846345521e-13,1.774771707e-13,4.122695542e-14,3.617343031e-13,9.473459043e-14,1.20497826e-13,7.019324911e-13,3.819128628e-13,6.133813333e-14,5.90630687e-14,1.356480176e-13,1.596485904e-13
1.4921875,6.053669637e-13,5.762369139e-13,4.672579949e-13,2.802584468e-13,1.342253514e-13,1.261846899e-13,9.908616699e-14,3.665254853e-14,9.085684302e-14,3.4505207e-14,5.033734556e-13,8.380701784e-14,8.305584605e-14,9.731521769e-14,1.774260817e-13,2.735450793e-13,9.769460262e-14,2.213294341e-13,8.498906559e-14,2.339085778e-13,1.854214067e-13,1.770772053e-13,4.052072439e-14,3.710267461e-13,9.411955455e-14,1.193574635e-13,7.063506813e-13,3.760208391e-13,6.176605879e-14,5.83866037e-14,1.381550764e-13,1.59117489e-13
1.5,6.015443052e-13,5.95087648e-13,4.661831942e-13,2.841561746e-13,1.3565752e-13,1.264500162e-13,9.63430359e-14,3.714630182e-14,8.989315923e-14,3.488937499e-14,5.032490503e-13,8.384239535e-14,8.19805045e-14,9.781176203e-14,1.776365501e-13,2.749413764e-13,9.863266605e-14,2.213417175e-13,8.602211772e-14,2.342654954e-13,1.860636425e-13,1.766574378e-13,3.984123403e-14,3.801019465e-13,9.362450076e-14,1.181634533e-13,7.10708027e-13,3.699356321e-13,6.221307145e-14,5.766867512e-14,1.406934127e-13,1.585697437e-13
1.5078125,5.970857291e-13,6.143663975e-13,4.649309211e-13,2.883909522e-13,1.370478201e-13,1.266818852e-13,9.372951894e-14,3.77196196e-14,8.889664715e-14,3.530724042e-14,5.029271714e-13,8.38793315e-14,8.090440537e-14,9.827475684e-14,1.777979713e-13,2.762665888e-13,9.949400317e-14,2.211995087e-13,8.716435271e-14,2.345759303e-13,1.865767021e-13,1.761756979e-13,3.915007379e-14,3.896768162e-13,9.315989042e-14,1.169339042e-13,7.150517671e-13,3.636546104e-13,6.258953574e-14,5.693763343e-14,1.432304672e-13,1.579662777e-13
1.515625,5.923954507e-13,6.340007062e-13,4.636528783e-13,2.928035922e-13,1.384214409e-13,1.268534278e-13,9.124351831e-14,3.831390906e-14,8.790777272e-14,3.57648296e-14,5.025145663e-13,8.390570072e-14,7.979662001e-14,9.874639037e-14,1.77968681e-13,2.775589671e-13,1.004634739e-13,2.208578828e-13,8.838526949e-14,2.350179416e-13,1.87069535e-13,1.756855753e-13,3.841859816e-14,3.993325879e-13,9.256893705e-14,1.157801027e-13,7.193198113e-13,3.575106978e-13,6.295923917e-14,5.618628327e-14,1.457782425e-13,1.573258569e-13
1.5234375,5.876349681e-13,6.540954489e-13,4.624991005e-13,2.972897295e-13,1.398042e-13,1.269464522e-13,8.892231423e-14,3.888667139e-14,8.694647016e-14,3.626701586e-14,5.020715244e-13,8.395196695e-14,7.874093965e-14,9.925334162e-14,1.781864726e-13,2.78844451e-13,1.015491627e-13,2.204519614e-13,8.965171063e-14,2.356509863e-13,1.876075e-13,1.752344651e-13,3.77132981e-14,4.085258995e-13,9.189588539e-14,1.147742226e-13,7.235868641e-13,3.514262268e-13,6.336370731e-14,5.545289052e-14,1.483572861e-13,1.566718976e-13
1.53125,5.823289083e-13,6.744598855e-13,4.614250297e-13,3.018564641e-13,1.411737355e-13,1.269200324e-13,8.681517472e-14,3.950879764e-14,8.595926815e-14,3.680961768e-14,5.014697776e-13,8.401419759e-14,7.777364307e-14,9.972589545e-14,1.783334761e-13,2.800075539e-13,1.025882354e-13,2.200344765e-13,9.100643977e-14,2.363777111e-13,1.880738088e-13,1.747633598e-13,3.704920052e-14,4.177422314e-13,9.133795646e-14,1.13841588e-13,7.279992285e-13,3.451893265e-13,6.370212235e-14,5.477517802e-14,1.509368129e-13,1.559451595e-13
1.5390625,5.763669362e-13,6.949296769e-13,4.602631679e-13,3.063962422e-13,1.425434071e-13,1.26925346e-13,8.479132455e-14,4.018689313e-14,8.492197212e-14,3.737907203e-14,5.007049716e-13,8.410866843e-14,7.686654008e-14,1.001526831e-13,1.784000443e-13,2.811709085e-13,1.036371979e-13,2.195433138e-13,9.246192762e-14,2.372032715e-13,1.883830813e-13,1.742707226e-13,3.63737079e-14,4.272804581e-13,9.09484894e-14,1.129078251e-13,7.324621623e-13,3.388931372e-13,6.39919684e-14,5.410131953e-14,1.535470969e-13,1.551693534e-13
1.546875,5.702011043e-13,7.156445588e-13,4.590525893e-13,3.109474275e-13,1.439779389e-13,1.270474256e-13,8.275947559e-14,4.086435387e-14,8.383795887e-14,3.795849902e-14,5.000151713e-13,8.428300011e-14,7.599011897e-14,1.005856679e-13,1.785148133e-13,2.825727514e-13,1.048639604e-13,2.190351713e-13,9.393609917e-14,2.382139123e-13,1.886529911e-13,1.73800432e-13,3.574146318e-14,4.368698236e-13,9.062186864e-14,1.120405085e-13,7.369216836e-13,3.326523978e-13,6.434875616e-14,5.339254948e-14,1.562695091e-13,1.544278567e-13
1.5546875,5.637398485e-13,7.364493419e-13,4.578496296e-13,3.155458229e-13,1.454532265e-13,1.271403959e-13,8.08204584e-14,4.156001042e-14,8.26961031e-14,3.856188215e-14,4.993925846e-13,8.450489633e-14,7.509504791e-14,1.009806024e-13,1.785900363e-13,2.8401364e-13,1.061817395e-13,2.185504674e-13,9.540005865e-14,2.393659992e-13,1.888731437e-13,1.732874481e-13,3.520879182e-14,4.463257697e-13,9.029722537e-14,1.113493036e-13,7.414385958e-13,3.264238199e-13,6.471115104e-14,5.269895669e-14,1.590397844e-13,1.536953967e-13
1.5625,5.56685475e-13,7.572109652e-13,4.565888795e-13,3.200213182e-13,1.468619708e-13,1.271880841e-13,7.903863116e-14,4.230544506e-14,8.152514007e-14,3.922935048e-14,4.986052397e-13,8.469213779e-14,7.418190589e-14,1.012929239e-13,1.785161379e-13,2.852476691e-13,1.074598922e-13,2.179752703e-13,9.692084933e-14,2.405752655e-13,1.88870186e-13,1.7270745e-13,3.471496668e-14,4.556100889e-13,8.992845634e-14,1.108517923e-13,7.458727088e-13,3.201682787e-13,6.497290663e-14,5.204100517e-14,1.617416264e-13,1.529655875e-13
1.5703125,5.495005002e-13,7.783275032e-13,4.553446055e-13,3.24465042e-13,1.482392012e-13,1.272740439e-13,7.737482617e-14,4.308359567e-14,8.035717214e-14,3.995357486e-14,4.977097623e-13,8.486196101e-14,7.332201494e-14,1.016066421e-13,1.78473768e-13,2.864845877e-13,1.087804933e-13,2.173261733e-13,9.852438516e-14,2.418645866e-13,1.887568216e-13,1.721765069e-13,3.420731736e-14,4.649658219e-13,8.948735105e-14,1.104466446e-13,7.501809175e-13,3.139357593e-13,6.52017436e-14,5.137665701e-14,1.644256814e-13,1.522560648e-13
1.578125,5.4250408e-13,7.998555264e-13,4.540476917e-13,3.290606021e-13,1.496822315e-13,1.273171681e-13,7.577185573e-14,4.387917642e-14,7.916683706e-14,4.070524679e-14,4.968410787e-13,8.508059276e-14,7.254323624e-14,1.019793844e-13,1.785284812e-13,2.878117622e-13,1.101208097e-13,2.167241338e-13,1.001490966e-13,2.431808328e-13,1.887424425e-13,1.717208656e-13,3.369459573e-14,4.745408449e-13,8.905002637e-14,1.099683815e-13,7.54497862e-13,3.078657986e-13,6.547804261e-14,5.071302458e-14,1.67124187e-13,1.514437147e-13
1.5859375,5.352291602e-13,8.214262001e-13,4.52547982e-13,3.336006792e-13,1.510952381e-13,1.272874005e-13,7.419206068e-14,4.468672695e-14,7.794979256e-14,4.151210271e-14,4.958947672e-13,8.531996566e-14,7.181764941e-14,1.023673796e-13,1.784728497e-13,2.889729202e-13,1.112614423e-13,2.160839598e-13,1.017620957e-13,2.443618684e-13,1.886552974e-13,1.712454536e-13,3.321379127e-14,4.838026384e-13,8.86233129e-14,1.093813285e-13,7.586583605e-13,3.020402109e-13,6.576723698e-14,5.008008141e-14,1.697378047e-13,1.504859509e-13
1.59375,5.27452788e-13,8.430757779e-13,4.511708188e-13,3.380910918e-13,1.524429418e-13,1.272762007e-13,7.269504214e-14,4.55176023e-14,7.67388408e-14,4.238312154e-14,4.948702257e-13,8.553138138e-14,7.109726838e-14,1.027329269e-13,1.783022948e-13,2.900631745e-13,1.122617646e-13,2.153362006e-13,1.034726514e-13,2.454950724e-13,1.883046225e-13,1.707346187e-13,3.279588475e-14,4.923820041e-13,8.818711281e-14,1.088887086e-13,7.625902114e-13,2.962886175e-13,6.602535884e-14,4.943614058e-14,1.723505877e-13,1.495501911e-13
1.6015625,5.194001047e-13,8.647484476e-13,4.499935098e-13,3.428587221e-13,1.53942602e-13,1.272224278e-13,7.134352104e-14,4.639133301e-14,7.551337667e-14,4.325442057e-14,4.938682362e-13,8.574321859e-14,7.032842096e-14,1.030374025e-13,1.782221846e-13,2.914736695e-13,1.1347693e-13,2.1462422e-13,1.054033117e-13,2.468826461e-13,1.878521855e-13,1.70212525e-13,3.242284072e-14,5.006853607e-13,8.78855951e-14,1.086521226e-13,7.666826888e-13,2.903611715e-13,6.623893795e-14,4.875094276e-14,1.751753589e-13,1.486727251e-13
1.609375,5.111368759e-13,8.861257712e-13,4.48556426e-13,3.477395526e-13,1.556278164e-13,1.27064264e-13,7.006061276e-14,4.728116833e-14,7.422400009e-14,4.411114094e-14,4.927844529e-13,8.596164188e-14,6.952559666e-14,1.032661142e-13,1.782742746e-13,2.931897733e-13,1.150039967e-13,2.13971421e-13,1.074680784e-13,2.485787545e-13,1.874261747e-13,1.6966837e-13,3.20748554e-14,5.091057836e-13,8.773612467e-14,1.085603119e-13,7.710024453e-13,2.842697019e-13,6.640814918e-14,4.808579225e-14,1.781218447e-13,1.477179221e-13
1.6171875,5.027633032e-13,9.07519403e-13,4.470315662e-13,3.525047695e-13,1.572874457e-13,1.269859767e-13,6.880379003e-14,4.814460069e-14,7.287652758e-14,4.501430025e-14,4.916259074e-13,8.612904113e-14,6.875173181e-14,1.035379693e-13,1.783960061e-13,2.949170658e-13,1.16642786e-13,2.132851417e-13,1.095139438e-13,2.503947292e-13,1.869652937e-13,1.691653251e-13,3.174280154e-14,5.175190751e-13,8.755638529e-14,1.084693613e-13,7.751877697e-13,2.782265323e-13,6.656654069e-14,4.747884863e-14,1.809468412e-13,1.46652657e-13
1.625,4.943736107e-13,9.293030885e-13,4.457492383e-13,3.574902819e-13,1.589250192e-13,1.270872999e-13,6.765298159e-14,4.89873998e-14,7.150670978e-14,4.598302278e-14,4.906436847e-13,8.62313321e-14,6.802618314e-14,1.039799102e-13,1.786074427e-13,2.96573894e-13,1.182866441e-13,2.126487612e-13,1.115714396e-13,2.521903938e-13,1.865041885e-13,1.687687917e-13,3.139625282e-14,5.2550108e-13,8.735050091e-14,1.083800422e-13,7.79197689e-13,2.723091986e-13,6.674652118e-14,4.687735497e-14,1.836621276e-13,1.454771902e-13
1.6328125,4.857072416e-13,9.510696886e-13,4.443544906e-13,3.627759655e-13,1.60636199e-13,1.271477314e-13,6.661339585e-14,4.984749374e-14,7.013196046e-14,4.698212551e-14,4.898337139e-13,8.632735008e-14,6.733422966e-14,1.045407523e-13,1.789317585e-13,2.982008874e-13,1.199090065e-13,2.121208651e-13,1.137172469e-13,2.539004313e-13,1.86071732e-13,1.683947942e-13,3.106737554e-14,5.329519715e-13,8.720391372e-14,1.082902495e-13,7.83191258e-13,2.664694414e-13,6.694935402e-14,4.624291289e-14,1.863749115e-13,1.441420983e-13
1.640625,4.766287219e-13,9.724053602e-13,4.429374425e-13,3.678723993e-13,1.62302429e-13,1.270129699e-13,6.563319518e-14,5.075865654e-14,6.876740934e-14,4.798076452e-14,4.88928874e-13,8.648052583e-14,6.662742357e-14,1.050700608e-13,1.792715463e-13,2.997794229e-13,1.214815893e-13,2.115496547e-13,1.159002444e-13,2.55556423e-13,1.855019625e-13,1.679683746e-13,3.080790024e-14,5.403886303e-13,8.704112817e-14,1.081999521e-13,7.871366604e-13,2.607974558e-13,6.715319239e-14,4.560438409e-14,1.890317324e-13,1.427176838e-13
1.6484375,4.673618859e-13,9.93295525e-13,4.41820148e-13,3.724981583e-13,1.638622997e-13,1.268152131e-13,6.474545387e-14,5.171613827e-14,6.742240228e-14,4.89671553e-14,4.878086554e-13,8.668319155e-14,6.585104178e-14,1.054576205e-13,1.794299133e-13,3.012760992e-13,1.230713988e-13,2.108025217e-13,1.180369906e-13,2.572171822e-13,1.847203607e-13,1.675507816e-13,3.056815921e-14,5.479857879e-13,8.683545109e-14,1.081810352e-13,7.908864257e-13,2.553534836e-13,6.728618479e-14,4.499659304e-14,1.91533912e-13,1.413127893e-13
1.65625,4.579977093e-13,1.013843648e-12,4.405232282e-13,3.767904677e-13,1.654207149e-13,1.266504448e-13,6.398185736e-14,5.270167934e-14,6.607218932e-14,4.996848291e-14,4.865126999e-13,8.683979554e-14,6.506418225e-14,1.057148816e-13,1.793244483e-13,3.02645121e-13,1.246556215e-13,2.09887699e-13,1.20119393e-13,2.588168019e-13,1.839001956e-13,1.671732264e-13,3.031481312e-14,5.552956222e-13,8.665373431e-14,1.082602689e-13,7.942826977e-13,2.498934268e-13,6.730116623e-14,4.442187122e-14,1.938913815e-13,1.398971586e-13
1.6640625,4.484665806e-13,1.034408684e-12,4.390301311e-13,3.810610469e-13,1.669706054e-13,1.264579446e-13,6.33041684e-14,5.374856857e-14,6.469791612e-14,5.10313694e-14,4.851653262e-13,8.688913511e-14,6.437197491e-14,1.059929826e-13,1.791177575e-13,3.039128396e-13,1.261021437e-13,2.089157737e-13,1.222399221e-13,2.604073259e-13,1.831282144e-13,1.667933632e-13,3.008163345e-14,5.623355518e-13,8.652334735e-14,1.08434064e-13,7.974627808e-13,2.44251335e-13,6.730461911e-14,4.386121908e-14,1.962365543e-13,1.384652623e-13
1.671875,4.387791108e-13,1.055167958e-12,4.378841207e-13,3.85511814e-13,1.684279874e-13,1.262395698e-13,6.268848997e-14,5.486099655e-14,6.334068419e-14,5.214630758e-14,4.839183484e-13,8.688436735e-14,6.374915405e-14,1.063700551e-13,1.789567826e-13,3.052043525e-13,1.275064709e-13,2.080052243e-13,1.244803537e-13,2.621815455e-13,1.822716732e-13,1.664256088e-13,2.986432668e-14,5.693047141e-13,8.645271197e-14,1.087276866e-13,8.007466621e-13,2.386337775e-13,6.741601372e-14,4.329819162e-14,1.986764372e-13,1.371071278e-13
1.6796875,4.290789229e-13,1.075689646e-12,4.367201707e-13,3.899367795e-13,1.698179805e-13,1.260381364e-13,6.216566975e-14,5.594727357e-14,6.206282428e-14,5.325957545e-14,4.827277686e-13,8.687969864e-14,6.311380249e-14,1.067309339e-13,1.78767666e-13,3.065055825e-13,1.289935244e-13,2.071389287e-13,1.267617836e-13,2.640560565e-13,1.812769049e-13,1.661299816e-13,2.96729792e-14,5.757987039e-13,8.640022191e-14,1.091111981e-13,8.039991474e-13,2.331859076e-13,6.759793876e-14,4.27254134e-14,2.011408479e-13,1.358112858e-13
1.6875,4.196365155e-13,1.095697784e-12,4.353134431e-13,3.940964134e-13,1.7121325e-13,1.258192558e-13,6.176975227e-14,5.696381677e-14,6.087881002e-14,5.435455612e-14,4.814232175e-13,8.686915719e-14,6.246255345e-14,1.070085945e-13,1.784597609e-13,3.077023406e-13,1.304120681e-13,2.062856721e-13,1.289882337e-13,2.658902239e-13,1.802505885e-13,1.659555878e-13,2.951584129e-14,5.818506534e-13,8.632395329e-14,1.095923089e-13,8.070309424e-13,2.277960727e-13,6.781049953e-14,4.213900242e-14,2.035451898e-13,1.345215327e-13
1.6953125,4.103939963e-13,1.115390686e-12,4.34243768e-13,3.98093687e-13,1.726316761e-13,1.255876192e-13,6.147866499e-14,5.794757397e-14,5.974859352e-14,5.5451246e-14,4.799786903e-13,8.684439301e-14,6.18250183e-14,1.072525893e-13,1.780615196e-13,3.088464903e-13,1.316947288e-13,2.054902342e-13,1.311939815e-13,2.678316763e-13,1.792205554e-13,1.659221098e-13,2.931003471e-14,5.882680877e-13,8.628702742e-14,1.102755537e-13,8.10164513e-13,2.223946699e-13,6.807471658e-14,4.156191506e-14,2.059201179e-13,1.332815183e-13
1.703125,4.008551728e-13,1.134883415e-12,4.332924738e-13,4.019841583e-13,1.740124772e-13,1.254230923e-13,6.126507718e-14,5.889145046e-14,5.861573197e-14,5.655205814e-14,4.784353902e-13,8.677890323e-14,6.121114391e-14,1.074585418e-13,1.776263017e-13,3.099899098e-13,1.329587701e-13,2.046431577e-13,1.3339201e-13,2.699003138e-13,1.781157202e-13,1.659497199e-13,2.904143418e-14,5.950042921e-13,8.630317704e-14,1.111236687e-13,8.134819652e-13,2.170188986e-13,6.83064556e-14,4.102046376e-14,2.082217443e-13,1.320559736e-13
1.7109375,3.909843654e-13,1.154117957e-12,4.319183014e-13,4.057111325e-13,1.752894338e-13,1.25315225e-13,6.11809708e-14,5.978758031e-14,5.744519828e-14,5.764543361e-14,4.767605484e-13,8.663001522e-14,6.061490011e-14,1.076479651e-13,1.772156743e-13,3.110317537e-13,1.34212873e-13,2.036102315e-13,1.355521277e-13,2.719215874e-13,1.769425821e-13,1.659196993e-13,2.881500269e-14,6.009829794e-13,8.627627426e-14,1.119809731e-13,8.16613765e-13,2.117665904e-13,6.842251479e-14,4.047366243e-14,2.103571816e-13,1.307004638e-13
1.71875,3.812723375e-13,1.172941461e-12,4.305036896e-13,4.093409218e-13,1.76518411e-13,1.251528255e-13,6.125163097e-14,6.068032149e-14,5.625028758e-14,5.874014826e-14,4.749685563e-13,8.642744373e-14,6.000970738e-14,1.079162809e-13,1.768668409e-13,3.119728124e-13,1.354811879e-13,2.025528387e-13,1.376895502e-13,2.739036748e-13,1.757754069e-13,1.658529871e-13,2.86500582e-14,6.060292827e-13,8.618180055e-14,1.128294885e-13,8.19486398e-13,2.067459038e-13,6.850653391e-14,3.988555348e-14,2.123704379e-13,1.292362034e-13
1.7265625,3.717575289e-13,1.191153222e-12,4.292705186e-13,4.128210483e-13,1.777997844e-13,1.248708446e-13,6.141509118e-14,6.159632643e-14,5.509154045e-14,5.985283205e-14,4.732085918e-13,8.62522019e-14,5.937306806e-14,1.082443566e-13,1.765188241e-13,3.129116253e-13,1.368003861e-13,2.016446397e-13,1.397790854e-13,2.758809009e-13,1.746217042e-13,1.65854775e-13,2.847801876e-14,6.111207976e-13,8.608117976e-14,1.137276958e-13,8.222075182e-13,2.018966541e-13,6.862465143e-14,3.931421924e-14,2.143165316e-13,1.278095616e-13
1.734375,3.621414117e-13,1.208797843e-12,4.279316664e-13,4.160846141e-13,1.791221441e-13,1.244728927e-13,6.168282596e-14,6.257431474e-14,5.400975732e-14,6.098830066e-14,4.716081267e-13,8.612747839e-14,5.870942168e-14,1.085428679e-13,1.761044337e-13,3.138387254e-13,1.380287382e-13,2.008044816e-13,1.418085076e-13,2.778591826e-13,1.733950338e-13,1.659318285e-13,2.828734291e-14,6.163887409e-13,8.601689399e-14,1.147054832e-13,8.247764571e-13,1.971418223e-13,6.874054142e-14,3.879071837e-14,2.161956531e-13,1.264504971e-13
1.7421875,3.524363241e-13,1.226040018e-12,4.265632058e-13,4.193424802e-13,1.804324763e-13,1.23989474e-13,6.209822622e-14,6.365510334e-14,5.296742041e-14,6.215778103e-14,4.700792697e-13,8.601551802e-14,5.802796089e-14,1.088011722e-13,1.756211123e-13,3.147301661e-13,1.391514329e-13,1.999263722e-13,1.43864236e-13,2.799826003e-13,1.720399834e-13,1.660244821e-13,2.812281516e-14,6.210296392e-13,8.598625963e-14,1.158005526e-13,8.272812589e-13,1.925780042e-13,6.885627927e-14,3.82649291e-14,2.180566465e-13,1.25126758e-13
1.75,3.427294812e-13,1.242925903e-12,4.252870025e-13,4.226124899e-13,1.817204417e-13,1.235176505e-13,6.25785783e-14,6.473948829e-14,5.192549324e-14,6.335849935e-14,4.684573429e-13,8.588902929e-14,5.733920769e-14,1.09024695e-13,1.750796565e-13,3.155863306e-13,1.403277832e-13,1.989730255e-13,1.459497624e-13,2.8226586e-13,1.706423987e-13,1.661190122e-13,2.800658394e-14,6.25147924e-13,8.594743352e-14,1.170020873e-13,8.296901496e-13,1.881816453e-13,6.897279391e-14,3.773398041e-14,2.19887157e-13,1.238273451e-13
1.7578125,3.330405833e-13,1.259500145e-12,4.240325383e-13,4.255537092e-13,1.829604983e-13,1.231651486e-13,6.309081581e-14,6.568249329e-14,5.091619012e-14,6.454329845e-14,4.667608837e-13,8.5739231e-14,5.667135972e-14,1.092323363e-13,1.745172128e-13,3.163491526e-13,1.415224084e-13,1.979399049e-13,1.479607088e-13,2.845721562e-13,1.692903463e-13,1.662342793e-13,2.78958641e-14,6.29261591e-13,8.587159601e-14,1.182722974e-13,8.31845975e-13,1.838208918e-13,6.905685992e-14,3.722150148e-14,2.215807988e-13,1.225186748e-13
1.765625,3.235097537e-13,1.275640426e-12,4.228168676e-13,4.280722337e-13,1.84133439e-13,1.228930695e-13,6.373078665e-14,6.65325829e-14,4.995997476e-14,6.56917756e-14,4.650507999e-13,8.553746733e-14,5.604112369e-14,1.094820698e-13,1.739698427e-13,3.169961494e-13,1.426583434e-13,1.969137384e-13,1.498608011e-13,2.868375088e-13,1.679138498e-13,1.663811235e-13,2.775087897e-14,6.329460991e-13,8.57634258e-14,1.196069765e-13,8.337938547e-13,1.795862647e-13,6.914969658e-14,3.66972486e-14,2.231046655e-13,1.21201133e-13
1.7734375,3.141915766e-13,1.291158501e-12,4.215137548e-13,4.303419731e-13,1.852806954e-13,1.225668531e-13,6.447662565e-14,6.743222597e-14,4.903474628e-14,6.683894989e-14,4.633090244e-13,8.527344903e-14,5.542401407e-14,1.097696944e-13,1.734070849e-13,3.175648944e-13,1.437625993e-13,1.959538612e-13,1.516800871e-13,2.889660181e-13,1.664342026e-13,1.665742887e-13,2.760248923e-14,6.359102493e-13,8.56410218e-14,1.209740385e-13,8.356038556e-13,1.755438284e-13,6.930863926e-14,3.615922812e-14,2.244942146e-13,1.198956233e-13
1.78125,3.050050354e-13,1.306303747e-12,4.201082102e-13,4.324483909e-13,1.864306391e-13,1.221524584e-13,6.524323636e-14,6.836536368e-14,4.815469276e-14,6.797346503e-14,4.616225971e-13,8.501475793e-14,5.479946363e-14,1.100521468e-13,1.72815321e-13,3.180761227e-13,1.447931804e-13,1.950103421e-13,1.534807719e-13,2.910213542e-13,1.648908089e-13,1.66841206e-13,2.746734327e-14,6.386073479e-13,8.55576751e-14,1.223766994e-13,8.373493205e-13,1.715762325e-13,6.951438144e-14,3.564652419e-14,2.258107809e-13,1.185570462e-13
1.7890625,2.959235082e-13,1.321229449e-12,4.189522512e-13,4.345510303e-13,1.875606399e-13,1.217381821e-13,6.610146718e-14,6.922551631e-14,4.733955799e-14,6.905461686e-14,4.600041052e-13,8.481185902e-14,5.418761734e-14,1.103359976e-13,1.722342436e-13,3.185611046e-13,1.458605893e-13,1.940444131e-13,1.5531747e-13,2.932486327e-13,1.633070485e-13,1.671805823e-13,2.7327078e-14,6.412380689e-13,8.553097675e-14,1.238705368e-13,8.391445074e-13,1.677461488e-13,6.973300279e-14,3.516526855e-14,2.271330223e-13,1.171818746e-13
1.796875,2.868936352e-13,1.335461704e-12,4.180688885e-13,4.368046719e-13,1.88672099e-13,1.213951853e-13,6.711972176e-14,7.001853718e-14,4.655878423e-14,7.011412319e-14,4.582319292e-13,8.459415364e-14,5.360273634e-14,1.106595137e-13,1.716931512e-13,3.19055284e-13,1.471877255e-13,1.930531679e-13,1.571413947e-13,2.95483571e-13,1.616709409e-13,1.675444398e-13,2.720289012e-14,6.436231088e-13,8.546537327e-14,1.254075899e-13,8.407624012e-13,1.64194328e-13,6.995845711e-14,3.470602185e-14,2.284479054e-13,1.158341918e-13
1.8046875,2.778681447e-13,1.348798891e-12,4.171517917e-13,4.389844841e-13,1.898062771e-13,1.210945715e-13,6.823767665e-14,7.080593049e-14,4.579114003e-14,7.117062374e-14,4.56344446e-13,8.428048812e-14,5.303602455e-14,1.110843772e-13,1.712340439e-13,3.195902161e-13,1.486419724e-13,1.920688228e-13,1.589005336e-13,2.975053837e-13,1.600457012e-13,1.679266675e-13,2.710161016e-14,6.453723328e-13,8.530610834e-14,1.269514257e-13,8.42060697e-13,1.60822365e-13,7.022165449e-14,3.423364557e-14,2.297253938e-13,1.144997709e-13
