Time,Fp1,AF3,F7,F3,FC1,FC5,T7,C3,CP1,CP5,P7,P3,Pz,PO3,O1,Oz,O2,PO4,P4,P8,CP6,CP2,C4,T8,FC6,FC2,F4,F8,AF4,Fp2,Fz,Cz,
-0.10156,2.914373749e-13,3.353255611e-13,1.820576615e-13,5.018705372e-13,4.163510151e-13,4.049920300e-13,3.907791202e-13,3.331803564e-13,3.871293235e-13,3.557336349e-13,1.803040399e-13,6.469109352e-13,3.365872438e-13,7.399850950e-13,7.448829403e-13,8.453259122e-13,1.720573356e-13,1.735474934e-13,1.295335072e-13,1.602975433e-13,3.473664872e-13,1.562757003e-14,1.868933508e-13,5.411422430e-13,9.237635080e-13,4.602132050e-14,7.618155761e-13,1.108435696e-12,9.397460178e-13,1.183259903e-12,3.336757692e-13,6.992413684e-14
-0.09375,3.138431558e-13,3.560438927e-13,1.957496420e-13,5.353342520e-13,4.412390291e-13,4.288703133e-13,4.047453664e-13,3.575560088e-13,4.125986576e-13,3.764897663e-13,1.899010200e-13,6.872386348e-13,3.550549900e-13,7.819592342e-13,7.735833938e-13,8.777176992e-13,1.844975572e-13,1.874950453e-13,1.379756712e-13,1.750750239e-13,3.710729165e-13,1.658364773e-14,1.963883417e-13,5.762304359e-13,9.709307742e-13,4.923079368e-14,7.992425254e-13,1.172804908e-12,9.880863713e-13,1.246587117e-12,3.550175030e-13,7.450048292e-14
-0.085938,3.374334367e-13,3.773554912e-13,2.108085892e-13,5.694615630e-13,4.667210055e-13,4.532344747e-13,4.184552317e-13,3.828482477e-13,4.386501578e-13,3.975514551e-13,1.993846869e-13,7.283294061e-13,3.736658986e-13,8.241727690e-13,8.013015622e-13,9.090814387e-13,1.976589929e-13,2.022833293e-13,1.467519076e-13,1.910178066e-13,3.956350365e-13,1.759929020e-14,2.059461421e-13,6.122536588e-13,1.018116531e-12,5.253769320e-14,8.362024407e-13,1.238370319e-12,1.036139847e-12,1.310097932e-12,3.767916489e-13,7.920853606e-14
-0.078125,3.619258084e-13,3.989198508e-13,2.268172025e-13,6.039538503e-13,4.928482626e-13,4.780041959e-13,4.315772741e-13,4.091967324e-13,4.653570388e-13,4.190468738e-13,2.085939005e-13,7.700796122e-13,3.924024073e-13,8.660853445e-13,8.275199786e-13,9.391204187e-13,2.115898750e-13,2.178884927e-13,1.558637266e-13,2.082406868e-13,4.212825101e-13,1.868584908e-14,2.156183608e-13,6.493800227e-13,1.065378547e-12,5.595066388e-14,8.725036989e-13,1.304358687e-12,1.083710064e-12,1.373390963e-12,3.988727201e-13,8.407192173e-14
-0.070312,3.870766300e-13,4.208781137e-13,2.434424762e-13,6.388592084e-13,5.196552255e-13,5.031353972e-13,4.442494107e-13,4.365375851e-13,4.925715977e-13,4.408029716e-13,2.173051112e-13,8.121259678e-13,4.113159322e-13,9.074335039e-13,8.518821343e-13,9.675441357e-13,2.262504504e-13,2.344972255e-13,1.654668511e-13,2.266552247e-13,4.479790751e-13,1.986276552e-14,2.253434514e-13,6.872660073e-13,1.112080056e-12,5.950031281e-14,9.080812210e-13,1.370628192e-12,1.130782446e-12,1.436276518e-12,4.211410267e-13,8.904802834e-14
-0.0625,4.129847130e-13,4.431147661e-13,2.609602851e-13,6.740773851e-13,5.470102942e-13,5.285315179e-13,4.565620909e-13,4.647171848e-13,5.202755030e-13,4.627117097e-13,2.255884929e-13,8.543565358e-13,4.304791722e-13,9.481258779e-13,8.743993452e-13,9.941573743e-13,2.414060114e-13,2.519865590e-13,1.755107725e-13,2.460863507e-13,4.753250383e-13,2.111753830e-14,2.350498998e-13,7.253659318e-13,1.157640658e-12,6.316793127e-14,9.428059023e-13,1.437058068e-12,1.176949397e-12,1.498473940e-12,4.434281010e-13,9.417481259e-14
-0.054688,4.393761489e-13,4.652663503e-13,2.793676981e-13,7.096908888e-13,5.750377294e-13,5.541367731e-13,4.684642514e-13,4.935730844e-13,5.483633568e-13,4.846369207e-13,2.333617101e-13,8.964080143e-13,4.496867313e-13,9.877009892e-13,8.952824505e-13,1.018965848e-12,2.570317710e-13,2.700621925e-13,1.858570632e-13,2.666083658e-13,5.033285708e-13,2.245439216e-14,2.447487900e-13,7.635723470e-13,1.202190730e-12,6.688196132e-14,9.761908442e-13,1.502804665e-12,1.221535273e-12,1.559179299e-12,4.656053801e-13,9.947044151e-14
-0.046875,4.663596000e-13,4.875097464e-13,2.990047015e-13,7.454647203e-13,6.033739099e-13,5.796961881e-13,4.801852961e-13,5.228000388e-13,5.766147759e-13,5.064889715e-13,2.403966119e-13,9.380569281e-13,4.688101179e-13,1.026009176e-12,9.145809660e-13,1.042002941e-12,2.734374888e-13,2.889033167e-13,1.965818827e-13,2.884562593e-13,5.321569576e-13,2.392739908e-14,2.545230803e-13,8.018960093e-13,1.245723078e-12,7.063864755e-14,1.008229205e-12,1.567417197e-12,1.264592024e-12,1.618211277e-12,4.876228224e-13,1.048969736e-13
-0.039062,4.941491239e-13,5.093923057e-13,3.201641431e-13,7.804973877e-13,6.314758608e-13,6.049549432e-13,4.924079889e-13,5.522631771e-13,6.049019979e-13,5.285153370e-13,2.468935802e-13,9.794224199e-13,4.877629860e-13,1.063086436e-12,9.323771174e-13,1.063280466e-12,2.907155029e-13,3.086339921e-13,2.076563239e-13,3.114736661e-13,5.616556594e-13,2.553517334e-14,2.644901389e-13,8.400850141e-13,1.288143139e-12,7.456751401e-14,1.039281709e-12,1.630659699e-12,1.306776246e-12,1.676200594e-12,5.095476763e-13,1.104731185e-13
-0.03125,5.220635510e-13,5.302629898e-13,3.422940094e-13,8.147483380e-13,6.596043630e-13,6.298720767e-13,5.054959061e-13,5.819731106e-13,6.330076173e-13,5.508326481e-13,2.531791716e-13,1.020265524e-12,5.062477837e-13,1.098560023e-12,9.488159179e-13,1.082813458e-12,3.087158316e-13,3.291158000e-13,2.190022520e-13,3.354194499e-13,5.917416111e-13,2.726913261e-14,2.746679486e-13,8.779220128e-13,1.329322136e-12,7.868207868e-14,1.069231679e-12,1.692680128e-12,1.348155736e-12,1.733121005e-12,5.313479262e-13,1.161139840e-13
-0.023438,5.502939533e-13,5.505664279e-13,3.657759852e-13,8.485624552e-13,6.879619480e-13,6.542775901e-13,5.188417996e-13,6.118396148e-13,6.609957360e-13,5.731918120e-13,2.591104886e-13,1.060336842e-12,5.243684360e-13,1.132092278e-12,9.633355225e-13,1.100277870e-12,3.273911165e-13,3.504956997e-13,2.307979426e-13,3.606431541e-13,6.225264789e-13,2.921067070e-14,2.849198355e-13,9.153882342e-13,1.368889804e-12,8.280172432e-14,1.097596602e-12,1.754225147e-12,1.387787972e-12,1.788384519e-12,5.525442664e-13,1.218046590e-13
-0.015625,5.794601097e-13,5.702114123e-13,3.910257336e-13,8.815862096e-13,7.162843585e-13,6.780900273e-13,5.318110691e-13,6.417778097e-13,6.891214073e-13,5.952521840e-13,2.642556453e-13,1.099383456e-12,5.423262206e-13,1.163380299e-12,9.751347098e-13,1.114940960e-12,3.465773302e-13,3.727067042e-13,2.430506923e-13,3.873024771e-13,6.538619311e-13,3.136110187e-14,2.950405359e-13,9.522279854e-13,1.406717591e-12,8.688233963e-14,1.123723881e-12,1.814591527e-12,1.424776039e-12,1.841519261e-12,5.727011849e-13,1.277413258e-13
-0.0078125,6.085546440e-13,5.884125757e-13,4.169518707e-13,9.135546260e-13,7.441640645e-13,7.012865427e-13,5.444375703e-13,6.714618186e-13,7.169860699e-13,6.167260914e-13,2.684048162e-13,1.136812048e-12,5.596296002e-13,1.191921963e-12,9.840836769e-13,1.126240797e-12,3.660334891e-13,3.952522346e-13,2.554794779e-13,4.149651633e-13,6.853164332e-13,3.361326388e-14,3.048960901e-13,9.879173672e-13,1.442442859e-12,9.098539710e-14,1.146904206e-12,1.871950549e-12,1.458580909e-12,1.891287450e-12,5.917630151e-13,1.338678025e-13
0,6.371598965e-13,6.051623816e-13,4.434999382e-13,9.438890836e-13,7.711178153e-13,7.236026028e-13,5.569113134e-13,7.004786476e-13,7.440600395e-13,6.376085348e-13,2.716779154e-13,1.172399941e-12,5.758433003e-13,1.217455468e-12,9.901998446e-13,1.134092667e-12,3.858730625e-13,4.180193752e-13,2.680318932e-13,4.436749161e-13,7.168727307e-13,3.599317779e-14,3.145677422e-13,1.022401534e-12,1.475398554e-12,9.509210766e-14,1.166642713e-12,1.925573752e-12,1.488561312e-12,1.936415254e-12,6.097253963e-13,1.400000040e-13
0.0078125,6.660893630e-13,6.206847066e-13,4.713581111e-13,9.724214849e-13,7.975356995e-13,7.451615564e-13,5.693273169e-13,7.289930081e-13,7.702752798e-13,6.580492366e-13,2.741060476e-13,1.206177692e-12,5.910745267e-13,1.240081334e-12,9.933635887e-13,1.138640452e-12,4.063773279e-13,4.413314098e-13,2.808955974e-13,4.737101130e-13,7.489558327e-13,3.862505186e-14,3.242208801e-13,1.056008835e-12,1.505605833e-12,9.924487521e-14,1.182714589e-12,1.975090781e-12,1.514681153e-12,1.977151640e-12,6.267313201e-13,1.461891096e-13
0.015625,6.952641952e-13,6.352514431e-13,5.001934352e-13,1.000001208e-12,8.240478492e-13,7.660016725e-13,5.816569738e-13,7.571667257e-13,7.954950955e-13,6.779986651e-13,2.755257143e-13,1.237989233e-12,6.054622040e-13,1.259945084e-12,9.936470132e-13,1.139943455e-12,4.274795208e-13,4.653487965e-13,2.941947697e-13,5.048149518e-13,7.815065057e-13,4.154273591e-14,3.339028432e-13,1.088498359e-12,1.533193929e-12,1.033964666e-13,1.195004964e-12,2.019837793e-12,1.537049524e-12,2.013698756e-12,6.426937561e-13,1.523394161e-13
0.023438,7.244809919e-13,6.488174982e-13,5.302769364e-13,1.025913807e-12,8.499824381e-13,7.853826392e-13,5.937856735e-13,7.846618585e-13,8.196590513e-13,6.973801293e-13,2.758833077e-13,1.267767891e-12,6.190400636e-13,1.276769094e-12,9.910516402e-13,1.137777292e-12,4.487359526e-13,4.897474615e-13,3.078605547e-13,5.368496530e-13,8.141123525e-13,4.473501444e-14,3.436586416e-13,1.119282295e-12,1.557883299e-12,1.073785409e-13,1.203164089e-12,2.059606007e-12,1.554980829e-12,2.045343699e-12,6.570120810e-13,1.582800987e-13
0.03125,7.533566120e-13,6.604909979e-13,5.615158582e-13,1.049294858e-12,8.747021731e-13,8.031458329e-13,6.056986996e-13,8.113496315e-13,8.428953076e-13,7.161742168e-13,2.751675968e-13,1.295197896e-12,6.317094566e-13,1.289855660e-12,9.854905196e-13,1.132109819e-12,4.699412461e-13,5.141560220e-13,3.217174431e-13,5.698728314e-13,8.467320594e-13,4.820562605e-14,3.535609420e-13,1.148213624e-12,1.579626297e-12,1.113059852e-13,1.206884130e-12,2.094051011e-12,1.568375066e-12,2.071728448e-12,6.696002311e-13,1.641436174e-13
0.039062,7.810453131e-13,6.703603449e-13,5.928918487e-13,1.071165381e-12,8.983280422e-13,8.197161852e-13,6.174278815e-13,8.371453726e-13,8.649921938e-13,7.343360666e-13,2.735536157e-13,1.319907652e-12,6.433895845e-13,1.299047478e-12,9.775430023e-13,1.123617501e-12,4.914752641e-13,5.388215917e-13,3.358380391e-13,6.037239051e-13,8.793513826e-13,5.197007563e-14,3.635932470e-13,1.175170906e-12,1.598311658e-12,1.153643270e-13,1.206356668e-12,2.122636262e-12,1.577679976e-12,2.092577445e-12,6.808410636e-13,1.700179208e-13
0.046875,8.081902605e-13,6.792767837e-13,6.250801361e-13,1.091126871e-12,9.205692334e-13,8.348993648e-13,6.290955294e-13,8.616382215e-13,8.855106493e-13,7.518189577e-13,2.715185829e-13,1.341914057e-12,6.540281910e-13,1.304700824e-12,9.681227650e-13,1.112766694e-12,5.136672540e-13,5.639702196e-13,3.503676755e-13,6.383389512e-13,9.117057574e-13,5.605353972e-14,3.737442588e-13,1.199703538e-12,1.613435618e-12,1.194711670e-13,1.201546134e-12,2.145127140e-12,1.582711355e-12,2.107895530e-12,6.906941992e-13,1.758278142e-13
0.054688,8.354317722e-13,6.869710841e-13,6.587975655e-13,1.107915787e-12,9.411954639e-13,8.485032312e-13,6.408617225e-13,8.846736279e-13,9.040367810e-13,7.683274384e-13,2.691215936e-13,1.360935507e-12,6.632254643e-13,1.306679527e-12,9.571381641e-13,1.099292407e-12,5.365252741e-13,5.893067812e-13,3.650842104e-13,6.737450903e-13,9.435612173e-13,6.042988081e-14,3.840406605e-13,1.221487745e-12,1.624478570e-12,1.235454625e-13,1.192150258e-12,2.160959671e-12,1.583805852e-12,2.118518938e-12,6.990893548e-13,1.815470499e-13
0.0625,8.619003606e-13,6.932939936e-13,6.933577758e-13,1.121806346e-12,9.603544751e-13,8.604932223e-13,6.526642580e-13,9.062724897e-13,9.205206647e-13,7.836137032e-13,2.660740656e-13,1.376832709e-12,6.708755065e-13,1.304923321e-12,9.445096993e-13,1.083505880e-12,5.601959264e-13,6.149410370e-13,3.799001691e-13,7.099787059e-13,9.748547041e-13,6.506266423e-14,3.944847373e-13,1.240341935e-12,1.631498508e-12,1.275861894e-13,1.179004602e-12,2.170222477e-12,1.582058696e-12,2.125202862e-12,7.061395788e-13,1.871000313e-13
0.070312,8.874056811e-13,6.986260241e-13,7.287573675e-13,1.132892965e-12,9.779821476e-13,8.707131352e-13,6.645554276e-13,9.263867045e-13,9.354776245e-13,7.981749301e-13,2.626170409e-13,1.390316859e-12,6.775211946e-13,1.300121825e-12,9.315865033e-13,1.066697582e-12,5.847961957e-13,6.413127444e-13,3.950702112e-13,7.469812293e-13,1.005663504e-12,6.996956295e-14,4.051735500e-13,1.256319515e-12,1.635663200e-12,1.315605723e-13,1.163884756e-12,2.174619137e-12,1.578223820e-12,2.129022348e-12,7.118511346e-13,1.924188194e-13
0.078125,9.120887708e-13,7.028407515e-13,7.648248679e-13,1.141327757e-12,9.940499861e-13,8.793234525e-13,6.770020033e-13,9.450363268e-13,9.489888504e-13,8.126695829e-13,2.592581736e-13,1.401699012e-12,6.833089621e-13,1.292667426e-12,9.191186020e-13,1.049807547e-12,6.101578945e-13,6.683223605e-13,4.105497348e-13,7.843682738e-13,1.035969684e-12,7.516870091e-14,4.163237610e-13,1.270053172e-12,1.638140431e-12,1.354431038e-13,1.147858084e-12,2.175465779e-12,1.572754604e-12,2.131297741e-12,7.162467552e-13,1.974833549e-13
0.085938,9.356632592e-13,7.060571178e-13,8.009068978e-13,1.147266443e-12,1.008423984e-12,8.861374208e-13,6.902709845e-13,9.618777015e-13,9.604707880e-13,8.270350424e-13,2.561970133e-13,1.410532198e-12,6.879845715e-13,1.282372811e-12,9.064801787e-13,1.032562455e-12,6.360619441e-13,6.957596982e-13,4.262424728e-13,8.220653831e-13,1.065795224e-12,8.071040456e-14,4.280283644e-13,1.282027554e-12,1.638867160e-12,1.392272239e-13,1.131052218e-12,2.173520842e-12,1.565966575e-12,2.132490187e-12,7.193743776e-13,2.022044800e-13
0.09375,9.585003523e-13,7.083832425e-13,8.371076383e-13,1.149721715e-12,1.020906179e-12,8.906575696e-13,7.040881016e-13,9.765181992e-13,9.697335878e-13,8.409471659e-13,2.533980682e-13,1.416692512e-12,6.914403780e-13,1.269251681e-12,8.934681822e-13,1.014081557e-12,6.622962965e-13,7.236395522e-13,4.422686701e-13,8.601123530e-13,1.095225104e-12,8.662934503e-14,4.400851824e-13,1.291971441e-12,1.637414257e-12,1.429541976e-13,1.113519024e-12,2.169939597e-12,1.558399038e-12,2.133173372e-12,7.213511255e-13,2.065643277e-13
0.10156,9.803627341e-13,7.092639971e-13,8.730100832e-13,1.148772398e-12,1.031809997e-12,8.930771946e-13,7.182426575e-13,9.892607947e-13,9.768931386e-13,8.544485255e-13,2.507134420e-13,1.420332065e-12,6.934423853e-13,1.253251554e-12,8.797650506e-13,9.941805723e-13,6.887906690e-13,7.517664264e-13,4.584278779e-13,8.977995852e-13,1.123782864e-12,9.281155250e-14,4.521857256e-13,1.299434830e-12,1.633598492e-12,1.466534227e-13,1.095647909e-12,2.164699444e-12,1.550731324e-12,2.133949882e-12,7.221751388e-13,2.105982488e-13
0.10938,1.000477272e-12,7.084980283e-13,9.084007640e-13,1.145451575e-12,1.041534142e-12,8.936874553e-13,7.328495009e-13,1.000450954e-12,9.819114684e-13,8.677369270e-13,2.481328065e-13,1.421410955e-12,6.939584835e-13,1.234239335e-12,8.648335579e-13,9.734170366e-13,7.155731782e-13,7.800048139e-13,4.745746672e-13,9.346511627e-13,1.150854167e-12,9.917208697e-14,4.642165806e-13,1.304055188e-12,1.627285712e-12,1.503389703e-13,1.077986761e-12,2.157688535e-12,1.542842596e-12,2.134593758e-12,7.215217726e-13,2.142584569e-13
0.11719,1.019426099e-12,7.063765223e-13,9.442580554e-13,1.139974211e-12,1.050315742e-12,8.925068027e-13,7.480320580e-13,1.009999745e-12,9.847219918e-13,8.808365661e-13,2.458129812e-13,1.419892188e-12,6.932844800e-13,1.212874296e-12,8.493242351e-13,9.521198335e-13,7.424604530e-13,8.085854741e-13,4.909487632e-13,9.708856367e-13,1.176358495e-12,1.057594033e-13,4.762170125e-13,1.305544927e-12,1.618635500e-12,1.541158433e-13,1.060672676e-12,2.149952460e-12,1.534256073e-12,2.135031884e-12,7.193594281e-13,2.175123198e-13
0.125,1.037784566e-12,7.031346707e-13,9.806802948e-13,1.132448475e-12,1.058371460e-12,8.895532491e-13,7.639294303e-13,1.017842349e-12,9.851248742e-13,8.937569821e-13,2.437947282e-13,1.416009176e-12,6.914609370e-13,1.190067147e-12,8.338310266e-13,9.305490376e-13,7.694823339e-13,8.375513140e-13,5.074816230e-13,1.006459685e-12,1.200210232e-12,1.125494259e-13,4.882001053e-13,1.303939509e-12,1.607868157e-12,1.580757227e-13,1.043399046e-12,2.141423957e-12,1.525064356e-12,2.135389763e-12,7.159447454e-13,2.203031916e-13
0.13281,1.055147045e-12,6.988964658e-13,1.017136310e-12,1.122645998e-12,1.065728301e-12,8.846633868e-13,7.806093175e-13,1.024063930e-12,9.831195988e-13,9.067163756e-13,2.421886166e-13,1.410200658e-12,6.886451093e-13,1.165968454e-12,8.181017776e-13,9.091578470e-13,7.969214922e-13,8.666863160e-13,5.239638985e-13,1.041059750e-12,1.222284815e-12,1.194587042e-13,5.001383872e-13,1.299483889e-12,1.595169871e-12,1.622333357e-13,1.026181280e-12,2.132726702e-12,1.515825874e-12,2.136114004e-12,7.112309207e-13,2.225537163e-13
0.14062,1.071388413e-12,6.936997654e-13,1.053487276e-12,1.110438593e-12,1.072455879e-12,8.778899796e-13,7.978440883e-13,1.028738619e-12,9.791203552e-13,9.197401695e-13,2.412527513e-13,1.402720099e-12,6.854065716e-13,1.140550309e-12,8.021393318e-13,8.880240777e-13,8.243985563e-13,8.959366147e-13,5.404657753e-13,1.074167795e-12,1.242539961e-12,1.264669776e-13,5.119345672e-13,1.292524633e-12,1.580906874e-12,1.665327245e-13,1.009263416e-12,2.125718729e-12,1.507067142e-12,2.138010487e-12,7.051661916e-13,2.242890859e-13
0.14844,1.086468986e-12,6.875944438e-13,1.089455607e-12,1.096280267e-12,1.078411617e-12,8.693399413e-13,8.153433316e-13,1.031749557e-12,9.733933125e-13,9.324307469e-13,2.409919420e-13,1.393577761e-12,6.821408288e-13,1.114006466e-12,7.859498332e-13,8.668958257e-13,8.512219912e-13,9.250997131e-13,5.569295257e-13,1.105297964e-12,1.260612211e-12,1.335556014e-13,5.234657235e-13,1.283178742e-12,1.565021313e-12,1.708967194e-13,9.924913209e-13,2.119030062e-12,1.498759656e-12,2.140680034e-12,6.978212112e-13,2.255393150e-13
0.15625,1.099970817e-12,6.804254232e-13,1.125074330e-12,1.079969814e-12,1.083171218e-12,8.589162852e-13,8.329165215e-13,1.033066044e-12,9.660409558e-13,9.446136105e-13,2.412306216e-13,1.382753252e-12,6.788588653e-13,1.086302718e-12,7.696846331e-13,8.457280063e-13,8.775971093e-13,9.538878375e-13,5.731354563e-13,1.134631710e-12,1.276113462e-12,1.406379042e-13,5.346342638e-13,1.270937069e-12,1.547205180e-12,1.754102022e-13,9.756189397e-13,2.111035167e-12,1.490517648e-12,2.143098806e-12,6.892069503e-13,2.263500258e-13
0.16406,1.111902586e-12,6.723919464e-13,1.160390336e-12,1.061805327e-12,1.086956093e-12,8.470866724e-13,8.505809636e-13,1.032990793e-12,9.570422649e-13,9.563568336e-13,2.419511900e-13,1.370089868e-12,6.754278150e-13,1.057575596e-12,7.543053080e-13,8.252330657e-13,9.044642153e-13,9.827197263e-13,5.889597405e-13,1.162597657e-12,1.288829965e-12,1.475793126e-13,5.452834200e-13,1.255679998e-12,1.527574850e-12,1.801181025e-13,9.583955886e-13,2.102974328e-12,1.482039831e-12,2.144759836e-12,6.796330649e-13,2.267942064e-13
0.17188,1.123037463e-12,6.645641337e-13,1.195434327e-12,1.042770894e-12,1.090075435e-12,8.342546075e-13,8.685000014e-13,1.031353823e-12,9.460292265e-13,9.672948244e-13,2.432162828e-13,1.355514579e-12,6.720417721e-13,1.028625114e-12,7.407636603e-13,8.067726949e-13,9.324541951e-13,1.012411916e-12,6.046318941e-13,1.189603993e-12,1.298886298e-12,1.543824257e-13,5.554005246e-13,1.238257185e-12,1.506048242e-12,1.849074369e-13,9.403898737e-13,2.094384457e-12,1.473491302e-12,2.145705965e-12,6.697275508e-13,2.268279098e-13
0.17969,1.133945493e-12,6.573872048e-13,1.230802851e-12,1.022805980e-12,1.092057915e-12,8.201087929e-13,8.865071757e-13,1.027515880e-12,9.328331311e-13,9.770165371e-13,2.451484714e-13,1.339423661e-12,6.692836484e-13,1.000340409e-12,7.294711124e-13,7.909816941e-13,9.613354925e-13,1.043243720e-12,6.206949153e-13,1.215679766e-12,1.307018995e-12,1.612233369e-13,5.652236430e-13,1.219374781e-12,1.482525481e-12,1.898163450e-13,9.216503656e-13,2.084198658e-12,1.465699327e-12,2.146997404e-12,6.600483158e-13,2.264426868e-13
0.1875,1.144377917e-12,6.505050296e-13,1.266309536e-12,1.002006553e-12,1.092520595e-12,8.046709674e-13,9.044172274e-13,1.021394247e-12,9.177910230e-13,9.855677215e-13,2.480344784e-13,1.322383202e-12,6.675049938e-13,9.731500222e-13,7.205085283e-13,7.775585305e-13,9.904717875e-13,1.074866689e-12,6.371519519e-13,1.240041646e-12,1.313576648e-12,1.681673411e-13,5.748540818e-13,1.199531949e-12,1.457737176e-12,1.948959377e-13,9.028482288e-13,2.073758506e-12,1.459143488e-12,2.149218095e-12,6.509986082e-13,2.257485619e-13
0.19531,1.154042293e-12,6.440111089e-13,1.301285472e-12,9.808439884e-13,1.091342462e-12,7.882298921e-13,9.222368832e-13,1.013207764e-12,9.013793315e-13,9.929134933e-13,2.520117810e-13,1.304767312e-12,6.667482485e-13,9.470461477e-13,7.137764652e-13,7.663918139e-13,1.019535579e-12,1.106685160e-12,6.534429657e-13,1.262540934e-12,1.318186682e-12,1.751239238e-13,5.842168541e-13,1.179395013e-12,1.432318747e-12,2.001092111e-13,8.846638790e-13,2.064559484e-12,1.454241815e-12,2.152605964e-12,6.428441572e-13,2.248138040e-13
0.20312,1.162467687e-12,6.376523563e-13,1.335673153e-12,9.590879563e-13,1.088241135e-12,7.708394660e-13,9.393614135e-13,1.003046534e-12,8.838970967e-13,9.988488256e-13,2.568532199e-13,1.286583632e-12,6.666325991e-13,9.216064023e-13,7.092713595e-13,7.573463437e-13,1.048345544e-12,1.138171254e-12,6.691411825e-13,1.283877740e-12,1.320716053e-12,1.819116296e-13,5.931967906e-13,1.159166621e-12,1.406259447e-12,2.055338210e-13,8.675809582e-13,2.057917915e-12,1.452173137e-12,2.158587525e-12,6.356642495e-13,2.236826635e-13
0.21094,1.168583591e-12,6.307916005e-13,1.368909699e-12,9.368306385e-13,1.083160449e-12,7.527509512e-13,9.549450803e-13,9.910472537e-13,8.650128500e-13,1.003311632e-12,2.623586732e-13,1.267300246e-12,6.661141366e-13,8.961832203e-13,7.071057490e-13,7.501690142e-13,1.076859089e-12,1.169028073e-12,6.838824421e-13,1.304219375e-12,1.321237908e-12,1.882398223e-13,6.015146597e-13,1.138903129e-12,1.379451746e-12,2.111936068e-13,8.516124488e-13,2.053694744e-12,1.453038531e-12,2.166910741e-12,6.295585143e-13,2.222951167e-13
0.21875,1.172255295e-12,6.236440328e-13,1.400368358e-12,9.145179709e-13,1.076226190e-12,7.341355805e-13,9.686934041e-13,9.770435274e-13,8.440802314e-13,1.005973471e-12,2.684797186e-13,1.246410082e-12,6.647513088e-13,8.707238076e-13,7.075147377e-13,7.453737796e-13,1.105517856e-12,1.199526677e-12,6.977255339e-13,1.323526747e-12,1.319830312e-12,1.940333098e-13,6.089900029e-13,1.118742119e-12,1.351364108e-12,2.170651886e-13,8.364078314e-13,2.050543951e-12,1.456500495e-12,2.176747305e-12,6.249380589e-13,2.204507005e-13
0.22656,1.174408617e-12,6.165464040e-13,1.430027403e-12,8.922691589e-13,1.067525456e-12,7.147873794e-13,9.803639010e-13,9.608064693e-13,8.211770096e-13,1.006327541e-12,2.750308056e-13,1.224272675e-12,6.633531990e-13,8.462769015e-13,7.105531855e-13,7.435844945e-13,1.134391207e-12,1.230379850e-12,7.111860539e-13,1.341322731e-12,1.316568500e-12,1.995039060e-13,6.157024824e-13,1.098375245e-12,1.321684862e-12,2.231744858e-13,8.223250249e-13,2.050651576e-12,1.464146871e-12,2.190758603e-12,6.220074659e-13,2.180705840e-13
0.23438,1.175240064e-12,6.092744344e-13,1.457985547e-12,8.698751955e-13,1.057186390e-12,6.945904334e-13,9.897361246e-13,9.427827904e-13,7.970229946e-13,1.004597936e-12,2.819624155e-13,1.201893072e-12,6.625241762e-13,8.239559056e-13,7.155674811e-13,7.443899009e-13,1.162790462e-12,1.261382965e-12,7.241282455e-13,1.356791479e-12,1.311305024e-12,2.047470338e-13,6.217293129e-13,1.078019553e-12,1.291592966e-12,2.295040006e-13,8.105698631e-13,2.056879317e-12,1.477305987e-12,2.211185967e-12,6.202724822e-13,2.152497961e-13
0.24219,1.174134811e-12,6.014802525e-13,1.484783209e-12,8.470141041e-13,1.045272083e-12,6.737875881e-13,9.969069172e-13,9.237145949e-13,7.722622621e-13,1.001603825e-12,2.896573373e-13,1.179982282e-12,6.620532274e-13,8.037598607e-13,7.220401420e-13,7.469526460e-13,1.190399427e-12,1.291358421e-12,7.359880295e-13,1.370365519e-12,1.304017785e-12,2.096865082e-13,6.271369543e-13,1.058548923e-12,1.262243637e-12,2.362300921e-13,8.017591858e-13,2.068852917e-12,1.495739419e-12,2.237421096e-12,6.194118047e-13,2.121635790e-13
0.25,1.170339390e-12,5.929000539e-13,1.510134773e-12,8.241551129e-13,1.031808978e-12,6.527456364e-13,1.001889236e-12,9.038949264e-13,7.471636087e-13,9.977211677e-13,2.984337833e-13,1.158430339e-12,6.615122610e-13,7.850385351e-13,7.304064407e-13,7.510543620e-13,1.217275372e-12,1.319842820e-12,7.465141672e-13,1.382469734e-12,1.294601700e-12,2.141320170e-13,6.317971652e-13,1.039782919e-12,1.233086411e-12,2.436177982e-13,7.954066646e-13,2.086346397e-12,1.519060513e-12,2.268599032e-12,6.197656319e-13,2.089603745e-13
0.25781,1.163626798e-12,5.838333405e-13,1.533056540e-12,8.018422273e-13,1.016769133e-12,6.315492034e-13,1.004685275e-12,8.832055032e-13,7.215797647e-13,9.927050659e-13,3.082385456e-13,1.136684952e-12,6.606492318e-13,7.674186724e-13,7.412656943e-13,7.572544410e-13,1.243500043e-12,1.347326094e-12,7.556727083e-13,1.392623625e-12,1.282708478e-12,2.178577912e-13,6.352305382e-13,1.020899079e-12,1.203235974e-12,2.516792300e-13,7.915806948e-13,2.109226457e-12,1.546931984e-12,2.303957645e-12,6.217357709e-13,2.055964536e-13
0.26562,1.154975337e-12,5.750500225e-13,1.554503895e-12,7.801148958e-13,1.000284669e-12,6.103094192e-13,1.005591394e-12,8.617399588e-13,6.954462107e-13,9.862566840e-13,3.189145265e-13,1.114648608e-12,6.598520518e-13,7.511479757e-13,7.548944410e-13,7.664712508e-13,1.269924388e-12,1.374719925e-12,7.639460506e-13,1.401125686e-12,1.268461043e-12,2.209034990e-13,6.370769208e-13,1.001846025e-12,1.172847110e-12,2.604161790e-13,7.914536457e-13,2.137427816e-12,1.580151863e-12,2.344486961e-12,6.257658376e-13,2.020103887e-13
0.27344,1.145432467e-12,5.671422027e-13,1.575835768e-12,7.598356480e-13,9.829286807e-13,5.894306690e-13,1.004909963e-12,8.398490591e-13,6.690851942e-13,9.782616786e-13,3.303247706e-13,1.092889299e-12,6.599117680e-13,7.371350942e-13,7.714412804e-13,7.793283970e-13,1.297286793e-12,1.402886635e-12,7.718208474e-13,1.408290006e-12,1.252092562e-12,2.233949719e-13,6.373084341e-13,9.830760577e-13,1.142460285e-12,2.698604374e-13,7.950981649e-13,2.172563988e-12,1.619710798e-12,2.391763408e-12,6.322687235e-13,1.982891921e-13
0.28125,1.134932503e-12,5.604088661e-13,1.596715594e-12,7.416374600e-13,9.649781310e-13,5.689727986e-13,1.002626744e-12,8.175045727e-13,6.427421618e-13,9.687322668e-13,3.424462856e-13,1.071958768e-12,6.611396069e-13,7.261303204e-13,7.909122528e-13,7.956032357e-13,1.324786372e-12,1.431377358e-12,7.789126207e-13,1.413779336e-12,1.233680097e-12,2.252791867e-13,6.360790705e-13,9.650929250e-13,1.112413028e-12,2.799779439e-13,8.014812957e-13,2.214229936e-12,1.664294305e-12,2.443967451e-12,6.411605342e-13,1.945489907e-13
0.28906,1.122870653e-12,5.546535078e-13,1.616857207e-12,7.250295738e-13,9.461505723e-13,5.488292041e-13,9.985874631e-13,7.946400217e-13,6.165485144e-13,9.578210645e-13,3.554372639e-13,1.051974511e-12,6.633328186e-13,7.177807285e-13,8.133353160e-13,8.144184111e-13,1.351398401e-12,1.458936049e-12,7.847601546e-13,1.417811053e-12,1.213570626e-12,2.265599141e-13,6.335454847e-13,9.481330921e-13,1.083047244e-12,2.908977254e-13,8.109904721e-13,2.261189541e-12,1.712822866e-12,2.499383281e-12,6.522648877e-13,1.909917571e-13
0.29688,1.108890729e-12,5.496076589e-13,1.636685376e-12,7.100113568e-13,9.264350371e-13,5.292917908e-13,9.930327170e-13,7.716531582e-13,5.907186654e-13,9.457589182e-13,3.694319141e-13,1.032678415e-12,6.661357755e-13,7.111185959e-13,8.387406014e-13,8.352130731e-13,1.377218047e-12,1.485277086e-12,7.893231318e-13,1.420707769e-12,1.191890562e-12,2.272606790e-13,6.295903571e-13,9.321422731e-13,1.054438640e-12,3.027253539e-13,8.243877716e-13,2.314711834e-12,1.765845613e-12,2.558459025e-12,6.657792639e-13,1.878268782e-13
0.30469,1.093241765e-12,5.455642243e-13,1.656930039e-12,6.970070976e-13,9.062219305e-13,5.105771403e-13,9.865396258e-13,7.487576962e-13,5.652295176e-13,9.326156285e-13,3.844466744e-13,1.013638701e-12,6.692123872e-13,7.055139718e-13,8.669461614e-13,8.581717211e-13,1.402636021e-12,1.510767160e-12,7.926508848e-13,1.422633604e-12,1.168741675e-12,2.272925675e-13,6.240875199e-13,9.172792462e-13,1.026242197e-12,3.153352636e-13,8.409657868e-13,2.374088434e-12,1.823243226e-12,2.620396629e-12,6.819344848e-13,1.850409178e-13
0.3125,1.076400482e-12,5.427175705e-13,1.678608608e-12,6.863813855e-13,8.859571120e-13,4.926283172e-13,9.793953598e-13,7.258868354e-13,5.399123993e-13,9.182772076e-13,4.004210260e-13,9.947889099e-13,6.725492571e-13,7.009922273e-13,8.978601541e-13,8.835207296e-13,1.427500075e-12,1.535503622e-12,7.948762139e-13,1.423516647e-12,1.144557606e-12,2.266702333e-13,6.172299581e-13,9.035746654e-13,9.986286802e-13,3.286624345e-13,8.603783409e-13,2.437388410e-12,1.884706593e-12,2.684441791e-12,7.005666165e-13,1.825836520e-13
0.32031,1.058381522e-12,5.409108837e-13,1.702108613e-12,6.781441652e-13,8.657055065e-13,4.753286105e-13,9.716046851e-13,7.030429215e-13,5.148953099e-13,9.026984181e-13,4.172844044e-13,9.765327870e-13,6.763553963e-13,6.980136131e-13,9.314840866e-13,9.109201860e-13,1.451040314e-12,1.558993110e-12,7.957146481e-13,1.422480518e-12,1.119308277e-12,2.254666201e-13,6.092206740e-13,8.909350441e-13,9.722693309e-13,3.428330375e-13,8.829630184e-13,2.505544906e-12,1.949873365e-12,2.750534588e-12,7.212429993e-13,1.805640571e-13
0.32812,1.038777195e-12,5.398493367e-13,1.727279839e-12,6.712922470e-13,8.449341772e-13,4.585448045e-13,9.631977354e-13,6.800237479e-13,4.904366080e-13,8.858628451e-13,4.350524299e-13,9.590754806e-13,6.805473308e-13,6.967033225e-13,9.675137102e-13,9.396901303e-13,1.472542877e-12,1.580280915e-12,7.945701823e-13,1.419361645e-12,1.092787305e-12,2.236475929e-13,6.001852954e-13,8.797304878e-13,9.471568553e-13,3.580999597e-13,9.083084158e-13,2.578476666e-12,2.017904083e-12,2.817576966e-12,7.438702680e-13,1.791417408e-13
0.33594,1.017170463e-12,5.389354318e-13,1.754097441e-12,6.655387616e-13,8.234193070e-13,4.423206453e-13,9.541488434e-13,6.566804576e-13,4.666008833e-13,8.677528290e-13,4.537875780e-13,9.423531884e-13,6.847536731e-13,6.966710062e-13,1.005693940e-12,9.693687653e-13,1.492303026e-12,1.599246223e-12,7.915524631e-13,1.415085129e-12,1.065262150e-12,2.212108703e-13,5.903174324e-13,8.700902528e-13,9.230860476e-13,3.747006794e-13,9.360734390e-13,2.654709085e-12,2.088974464e-12,2.885220275e-12,7.686552001e-13,1.783519916e-13
0.34375,9.937743323e-13,5.380017097e-13,1.782340476e-12,6.616364870e-13,8.015120727e-13,4.266552903e-13,9.444831526e-13,6.332181761e-13,4.432352722e-13,8.486343701e-13,4.736896993e-13,9.263181317e-13,6.887735106e-13,6.976247232e-13,1.046021380e-12,9.998114955e-13,1.511019285e-12,1.616624513e-12,7.871919716e-13,1.409927243e-12,1.037087001e-12,2.182574472e-13,5.797682511e-13,8.616825827e-13,9.004681553e-13,3.925827380e-13,9.661522539e-13,2.734354897e-12,2.163464544e-12,2.953939298e-12,7.955332334e-13,1.779563896e-13
0.35156,9.692534897e-13,5.373519774e-13,1.812232305e-12,6.593382224e-13,7.792848654e-13,4.113513307e-13,9.345092837e-13,6.097221026e-13,4.201057502e-13,8.287122386e-13,4.949396392e-13,9.106805540e-13,6.925804395e-13,6.992888858e-13,1.088150825e-12,1.030781819e-12,1.528603490e-12,1.632521528e-12,7.816650497e-13,1.403633211e-12,1.008472767e-12,2.148505918e-13,5.686015096e-13,8.543454604e-13,8.794437952e-13,4.115611921e-13,9.981444647e-13,2.816200356e-12,2.241203532e-12,3.023520836e-12,8.243252154e-13,1.777044676e-13
0.35938,9.435469766e-13,5.368179550e-13,1.844422364e-12,6.582756507e-13,7.566032253e-13,3.964464385e-13,9.244864149e-13,5.861326392e-13,3.972462124e-13,8.077467619e-13,5.171711939e-13,8.951890324e-13,6.960452238e-13,7.013506100e-13,1.131563810e-12,1.062018414e-12,1.544467525e-12,1.646513820e-12,7.749057405e-13,1.395982540e-12,9.794625520e-13,2.109750599e-13,5.568777948e-13,8.478903427e-13,8.597176525e-13,4.317073816e-13,1.031990294e-12,2.898233703e-12,2.322117703e-12,3.093496791e-12,8.548773293e-13,1.777621653e-13
0.36719,9.162408236e-13,5.362520949e-13,1.878203071e-12,6.587113727e-13,7.334612450e-13,3.821303456e-13,9.142500564e-13,5.625588510e-13,3.750005521e-13,7.856548627e-13,5.398437674e-13,8.800738851e-13,6.991468279e-13,7.039446058e-13,1.176210488e-12,1.093555557e-12,1.558305822e-12,1.658310015e-12,7.668474618e-13,1.387016385e-12,9.501290219e-13,2.066724708e-13,5.446930837e-13,8.423346738e-13,8.412976997e-13,4.532118404e-13,1.067542304e-12,2.981432926e-12,2.405327641e-12,3.163223231e-12,8.869648307e-13,1.784601707e-13
0.375,8.875244375e-13,5.357626730e-13,1.912899032e-12,6.604412352e-13,7.098237084e-13,3.684340457e-13,9.035880642e-13,5.391382100e-13,3.535708145e-13,7.625804974e-13,5.628345029e-13,8.655106689e-13,7.020613503e-13,7.072395330e-13,1.222158345e-12,1.125272377e-12,1.570169497e-12,1.667791437e-12,7.575777259e-13,1.377239290e-12,9.205995345e-13,2.020645286e-13,5.320687762e-13,8.377884752e-13,8.240365290e-13,4.761636009e-13,1.104401889e-12,3.066826288e-12,2.490198466e-12,3.232538670e-12,9.205996079e-13,1.799111394e-13
0.38281,8.577007064e-13,5.351975129e-13,1.949624191e-12,6.631348823e-13,6.856741384e-13,3.552893910e-13,8.926092295e-13,5.158770187e-13,3.330079967e-13,7.384997208e-13,5.861921679e-13,8.514894592e-13,7.048048285e-13,7.109867704e-13,1.269033068e-12,1.156632948e-12,1.579989409e-12,1.674993320e-12,7.472610607e-13,1.366452220e-12,8.908489302e-13,1.972546122e-13,5.190095852e-13,8.336510078e-13,8.074511526e-13,5.006085364e-13,1.142692053e-12,3.153197740e-12,2.577480572e-12,3.301959600e-12,9.557739750e-13,1.822004330e-13
0.39062,8.268630373e-13,5.346537137e-13,1.988450839e-12,6.666477923e-13,6.611669692e-13,3.426353930e-13,8.816154816e-13,4.929106460e-13,3.135005969e-13,7.138200352e-13,6.101980756e-13,8.382861164e-13,7.072792161e-13,7.149956281e-13,1.316345340e-12,1.187303795e-12,1.587421242e-12,1.679685860e-12,7.358721894e-13,1.354130364e-12,8.610852340e-13,1.922870460e-13,5.056971130e-13,8.296058632e-13,7.919175222e-13,5.265849645e-13,1.182966897e-12,3.240193408e-12,2.667695009e-12,3.371768636e-12,9.921980996e-13,1.854165724e-13
0.39844,7.950301968e-13,5.344172769e-13,2.028739046e-12,6.712737592e-13,6.369518266e-13,3.306228640e-13,8.713076861e-13,4.707973546e-13,2.951823791e-13,6.894350768e-13,6.353083833e-13,8.262041123e-13,7.094041386e-13,7.192283346e-13,1.364051124e-12,1.217371406e-12,1.592610621e-12,1.681822619e-12,7.233596345e-13,1.340978435e-12,8.315029453e-13,1.871014793e-13,4.922523812e-13,8.261954276e-13,7.785955802e-13,5.542102730e-13,1.226124638e-12,3.328366686e-12,2.760992150e-12,3.442153168e-12,1.029761595e-12,1.894312358e-13
0.40625,7.622504781e-13,5.344751374e-13,2.071836781e-12,6.778452996e-13,6.139094108e-13,3.194606043e-13,8.627282266e-13,4.500291263e-13,2.780080838e-13,6.658111668e-13,6.614971373e-13,8.152292460e-13,7.110470819e-13,7.235270760e-13,1.411969247e-12,1.246783443e-12,1.596252650e-12,1.682068442e-12,7.099193847e-13,1.327812623e-12,8.021798237e-13,1.816706033e-13,4.787517073e-13,8.236159187e-13,7.676287056e-13,5.834825525e-13,1.272375409e-12,3.417417398e-12,2.857192666e-12,3.512701703e-12,1.068382407e-12,1.941261091e-13
0.41406,7.287982586e-13,5.348649239e-13,2.118266916e-12,6.862855876e-13,5.921676887e-13,3.090638218e-13,8.563115784e-13,4.304632456e-13,2.619114977e-13,6.429694687e-13,6.883969530e-13,8.051852955e-13,7.122079202e-13,7.276891096e-13,1.458999279e-12,1.274952110e-12,1.598285657e-12,1.680371504e-12,6.957766898e-13,1.314557562e-12,7.737821439e-13,1.761457100e-13,4.654601100e-13,8.217557970e-13,7.581479171e-13,6.140552555e-13,1.320764099e-12,3.507382760e-12,2.955871842e-12,3.582784310e-12,1.107926137e-12,1.995481897e-13
0.42188,6.948586574e-13,5.355416513e-13,2.167278632e-12,6.958065550e-13,5.713471061e-13,2.993060708e-13,8.518621558e-13,4.117845033e-13,2.467979749e-13,6.208728896e-13,7.158439759e-13,7.959778461e-13,7.129189423e-13,7.316482934e-13,1.504513196e-12,1.301180472e-12,1.597660305e-12,1.675608486e-12,6.807744100e-13,1.301001294e-12,7.465388886e-13,1.705973292e-13,4.524277728e-13,8.205960591e-13,7.500388595e-13,6.458390095e-13,1.371191369e-12,3.598018467e-12,3.057500639e-12,3.652529406e-12,1.148582950e-12,2.056826766e-13
0.42969,6.606816045e-13,5.363612475e-13,2.219421470e-12,7.061611388e-13,5.514689239e-13,2.901805620e-13,8.495116474e-13,3.939584912e-13,2.326065700e-13,5.994856022e-13,7.440929787e-13,7.877195411e-13,7.130272557e-13,7.355756618e-13,1.549462786e-12,1.325390876e-12,1.593742641e-12,1.667330201e-12,6.646723454e-13,1.287065173e-12,7.198735133e-13,1.649834063e-13,4.396164137e-13,8.199776157e-13,7.439277970e-13,6.791241704e-13,1.424252928e-12,3.687411141e-12,3.161836668e-12,3.721298531e-12,1.190362589e-12,2.125217839e-13
0.4375,6.269633285e-13,5.374933438e-13,2.274876929e-12,7.173402537e-13,5.328343769e-13,2.816040125e-13,8.496721935e-13,3.770761233e-13,2.193622927e-13,5.790231615e-13,7.737372176e-13,7.804538283e-13,7.124390406e-13,7.395449927e-13,1.594406692e-12,1.347900915e-12,1.587132120e-12,1.656162670e-12,6.478010250e-13,1.273010554e-12,6.940571456e-13,1.594317579e-13,4.273807545e-13,8.199899811e-13,7.401706748e-13,7.138387782e-13,1.479909540e-12,3.774396205e-12,3.267896946e-12,3.788428421e-12,1.232975138e-12,2.201343689e-13
0.44531,5.937367958e-13,5.385370087e-13,2.333267745e-12,7.291917939e-13,5.155780872e-13,2.734512801e-13,8.526707864e-13,3.612407675e-13,2.069573499e-13,5.598749356e-13,8.048329619e-13,7.737918998e-13,7.107554565e-13,7.430370226e-13,1.638588322e-12,1.368852119e-12,1.578990607e-12,1.642722960e-12,6.304794964e-13,1.259355998e-12,6.698811817e-13,1.539968651e-13,4.159682047e-13,8.206884380e-13,7.385578073e-13,7.496970034e-13,1.537995226e-12,3.859449867e-12,3.376706127e-12,3.855111197e-12,1.276438375e-12,2.283282248e-13
0.45312,5.610649957e-13,5.398671167e-13,2.394512636e-12,7.418978687e-13,4.997937387e-13,2.656095232e-13,8.586589932e-13,3.463239002e-13,1.954297447e-13,5.419975419e-13,8.363894248e-13,7.674217500e-13,7.081800930e-13,7.454581751e-13,1.680950433e-12,1.387775403e-12,1.569604190e-12,1.627086417e-12,6.128808547e-13,1.246229656e-12,6.470292463e-13,1.489120080e-13,4.054276327e-13,8.213081181e-13,7.380894457e-13,7.866189253e-13,1.597459699e-12,3.942590984e-12,3.488433217e-12,3.920973620e-12,1.320506667e-12,2.372299200e-13
0.46094,5.295215306e-13,5.414612321e-13,2.457330907e-12,7.550206600e-13,4.851605892e-13,2.580927645e-13,8.675303264e-13,3.320965337e-13,1.848899692e-13,5.249729018e-13,8.674481927e-13,7.611587686e-13,7.049307797e-13,7.467796168e-13,1.721379884e-12,1.404728230e-12,1.559187577e-12,1.609237301e-12,5.952014330e-13,1.233597143e-12,6.255330822e-13,1.442416452e-13,3.957403712e-13,8.212605139e-13,7.379745994e-13,8.243458413e-13,1.657607057e-12,4.023441760e-12,3.603065781e-12,3.986322746e-12,1.365297452e-12,2.468448504e-13
0.46875,4.996684898e-13,5.431914958e-13,2.521430500e-12,7.685146759e-13,4.715155183e-13,2.510129841e-13,8.787862799e-13,3.185484725e-13,1.753528973e-13,5.085917908e-13,8.981307914e-13,7.551353692e-13,7.011044487e-13,7.474498244e-13,1.760103193e-12,1.419725805e-12,1.547391653e-12,1.589582265e-12,5.777347231e-13,1.221477034e-12,6.053445317e-13,1.400242797e-13,3.867702561e-13,8.209143004e-13,7.388662077e-13,8.629072605e-13,1.719162751e-12,4.101898365e-12,3.721555101e-12,4.052991904e-12,1.411034259e-12,2.571564789e-13
0.47656,4.711546584e-13,5.449513692e-13,2.587025485e-12,7.820590411e-13,4.587833451e-13,2.443573827e-13,8.924698317e-13,3.057739929e-13,1.667927147e-13,4.930770717e-13,9.291056550e-13,7.496031247e-13,6.964946729e-13,7.475963242e-13,1.797048387e-12,1.432621644e-12,1.534349730e-12,1.568293793e-12,5.604643387e-13,1.210394151e-12,5.863261604e-13,1.363121508e-13,3.784274703e-13,8.202290430e-13,7.412297491e-13,9.024320741e-13,1.782328664e-12,4.178123755e-12,3.844896645e-12,4.122235549e-12,1.457718117e-12,2.681998984e-13
0.48438,4.436574585e-13,5.468091918e-13,2.653121548e-12,7.950261017e-13,4.469252499e-13,2.381110567e-13,9.089424661e-13,2.939350116e-13,1.592258671e-13,4.785755088e-13,9.604712729e-13,7.446393233e-13,6.909926667e-13,7.470966171e-13,1.832334600e-12,1.443496471e-12,1.520658078e-12,1.545324863e-12,5.435247392e-13,1.200975300e-12,5.688969769e-13,1.331967365e-13,3.708326719e-13,8.191544658e-13,7.444877930e-13,9.429734007e-13,1.847244942e-12,4.253208795e-12,3.973967652e-12,4.194873356e-12,1.505355805e-12,2.800452259e-13
0.49219,4.171581010e-13,5.485388986e-13,2.719477795e-12,8.079681591e-13,4.361665869e-13,2.324597577e-13,9.284777298e-13,2.833694975e-13,1.526034739e-13,4.651739219e-13,9.917646877e-13,7.400852504e-13,6.844849680e-13,7.458166378e-13,1.866024032e-12,1.452503176e-12,1.506694137e-12,1.521166316e-12,5.272692266e-13,1.193325151e-12,5.531481824e-13,1.305682415e-13,3.638518433e-13,8.182901920e-13,7.484416002e-13,9.845157606e-13,1.914307364e-12,4.327429716e-12,4.109302570e-12,4.271288876e-12,1.554019776e-12,2.925850469e-13
0.5,3.916787650e-13,5.501760573e-13,2.785557817e-12,8.215266998e-13,4.268060435e-13,2.275169623e-13,9.512642534e-13,2.742430887e-13,1.468189555e-13,4.530307740e-13,1.022278044e-12,7.355786597e-13,6.768349313e-13,7.434826918e-13,1.897177733e-12,1.459864765e-12,1.493117378e-12,1.496360307e-12,5.117493743e-13,1.187642821e-12,5.389312521e-13,1.282613533e-13,3.572228012e-13,8.178184797e-13,7.529827885e-13,1.026586935e-12,1.982213865e-12,4.400046611e-12,4.250183824e-12,4.350847006e-12,1.603559244e-12,3.056058581e-13
0.50781,3.677879023e-13,5.530364954e-13,2.850757267e-12,8.359287032e-13,4.190306621e-13,2.231702688e-13,9.768807260e-13,2.663573948e-13,1.418072793e-13,4.420494858e-13,1.051442498e-12,7.309061888e-13,6.683619132e-13,7.400366679e-13,1.925221571e-12,1.466008997e-12,1.480683422e-12,1.471088217e-12,4.970372620e-13,1.184288752e-12,5.265283976e-13,1.263808413e-13,3.509652771e-13,8.175406192e-13,7.579409548e-13,1.068945662e-12,2.050602688e-12,4.470980750e-12,4.397256382e-12,4.434290389e-12,1.654172066e-12,3.190510963e-13
0.51562,3.459869430e-13,5.574409430e-13,2.915705261e-12,8.508762061e-13,4.125063081e-13,2.192800317e-13,1.004855906e-12,2.596259547e-13,1.376408256e-13,4.322602478e-13,1.079558837e-12,7.266917681e-13,6.596865761e-13,7.362772107e-13,1.951382941e-12,1.471281808e-12,1.469202880e-12,1.445406624e-12,4.832752327e-13,1.183091605e-12,5.163230353e-13,1.249341355e-13,3.450897350e-13,8.176340834e-13,7.636739161e-13,1.111906236e-12,2.120766187e-12,4.540828342e-12,4.551941135e-12,4.522988655e-12,1.706511339e-12,3.327944399e-13
0.52344,3.261211840e-13,5.630442105e-13,2.979669498e-12,8.659374509e-13,4.072547444e-13,2.157499046e-13,1.035095078e-12,2.542136103e-13,1.343735272e-13,4.238759117e-13,1.107062254e-12,7.234171547e-13,6.509312196e-13,7.327590708e-13,1.975533506e-12,1.474963229e-12,1.457116308e-12,1.418814917e-12,4.703039128e-13,1.183545765e-12,5.081316907e-13,1.239838058e-13,3.396725337e-13,8.185405251e-13,7.698953188e-13,1.155450988e-12,2.191666733e-12,4.610152532e-12,4.713633149e-12,4.616533641e-12,1.760141438e-12,3.469051789e-13
0.53125,3.081611999e-13,5.699675163e-13,3.041655562e-12,8.811901665e-13,4.035870639e-13,2.126354409e-13,1.067821545e-12,2.503534816e-13,1.319643303e-13,4.172111634e-13,1.133891292e-12,7.206889849e-13,6.418014434e-13,7.286946563e-13,1.995584801e-12,1.475767708e-12,1.443908016e-12,1.390817614e-12,4.580742681e-13,1.186089491e-12,5.023208496e-13,1.237518905e-13,3.349666828e-13,8.201204920e-13,7.760880626e-13,1.199269315e-12,2.261242814e-12,4.677540313e-12,4.880764555e-12,4.713076395e-12,1.814615078e-12,3.615199941e-13
0.53906,2.926508287e-13,5.786824232e-13,3.102194494e-12,8.971027083e-13,4.017499045e-13,2.100504988e-13,1.103360991e-12,2.480931372e-13,1.304190817e-13,4.125122543e-13,1.159747793e-12,7.180307904e-13,6.325502044e-13,7.235484727e-13,2.011695458e-12,1.473994225e-12,1.430909852e-12,1.362184963e-12,4.470415704e-13,1.191448423e-12,4.994880624e-13,1.244956516e-13,3.312839343e-13,8.220511384e-13,7.827359897e-13,1.243630818e-12,2.329828747e-12,4.740531146e-12,5.054103104e-12,4.812683254e-12,1.870587002e-12,3.766789099e-13
0.54688,2.797547507e-13,5.889164052e-13,3.159971043e-12,9.132814404e-13,4.015905660e-13,2.079525268e-13,1.141721908e-12,2.472972260e-13,1.298225978e-13,4.096424269e-13,1.184058549e-12,7.153541359e-13,6.238035519e-13,7.178418214e-13,2.025454460e-12,1.470851528e-12,1.418665736e-12,1.333812721e-12,4.374094617e-13,1.199288392e-12,4.991207932e-13,1.262266359e-13,3.285459065e-13,8.242128746e-13,7.901268126e-13,1.288634918e-12,2.397752403e-12,4.799170323e-12,5.235047631e-12,4.917228868e-12,1.928450560e-12,3.924148311e-13
0.55469,2.694489300e-13,6.002701967e-13,3.214570001e-12,9.294786310e-13,4.026597652e-13,2.063665303e-13,1.182128296e-12,2.478049098e-13,1.302832626e-13,4.080415463e-13,1.206166340e-12,7.125152446e-13,6.155997109e-13,7.116905804e-13,2.036713735e-12,1.466752624e-12,1.407079588e-12,1.305738154e-12,4.290602597e-13,1.209100487e-12,5.005072070e-13,1.288415140e-13,3.263529847e-13,8.265622096e-13,7.977335676e-13,1.334090583e-12,2.464310906e-12,4.854847401e-12,5.423786874e-12,5.027471482e-12,1.987974555e-12,4.088318070e-13
0.5625,2.619796859e-13,6.127554022e-13,3.266546753e-12,9.457596603e-13,4.046644088e-13,2.053796539e-13,1.224274349e-12,2.495457591e-13,1.318354979e-13,4.074997011e-13,1.226382851e-12,7.094520048e-13,6.076229852e-13,7.048012142e-13,2.045179086e-12,1.461761707e-12,1.396800233e-12,1.278031966e-12,4.220589801e-13,1.221248684e-12,5.040572890e-13,1.323713868e-13,3.245959225e-13,8.296463702e-13,8.053810534e-13,1.380162977e-12,2.529121891e-12,4.907889063e-12,5.620101780e-12,5.143104231e-12,2.049153124e-12,4.258729071e-13
0.57031,2.572079012e-13,6.263542779e-13,3.314198987e-12,9.619284390e-13,4.076528611e-13,2.050214463e-13,1.268384055e-12,2.526753911e-13,1.342941991e-13,4.081161133e-13,1.245114896e-12,7.060097880e-13,5.996175471e-13,6.970460360e-13,2.051066315e-12,1.455775556e-12,1.387871987e-12,1.250658718e-12,4.163689756e-13,1.236136733e-12,5.102153411e-13,1.368898147e-13,3.233633782e-13,8.341960855e-13,8.131856421e-13,1.427017326e-12,2.591566282e-12,4.957640386e-12,5.823750263e-12,5.264035613e-12,2.112159450e-12,4.434027774e-13
0.57812,2.551357285e-13,6.413295632e-13,3.357637927e-12,9.781012396e-13,4.114444078e-13,2.054094828e-13,1.313783350e-12,2.573189170e-13,1.376319312e-13,4.096262834e-13,1.261516515e-12,7.018387980e-13,5.916015680e-13,6.881551588e-13,2.053449986e-12,1.447980821e-12,1.379655171e-12,1.223395863e-12,4.119632458e-13,1.253709657e-12,5.188236529e-13,1.424467860e-13,3.225338436e-13,8.402032603e-13,8.209751871e-13,1.474120586e-12,2.650558584e-12,5.003166614e-12,6.033646298e-12,5.389210942e-12,2.177080071e-12,4.613967292e-13
0.58594,2.560084532e-13,6.583252603e-13,3.397353138e-12,9.943591400e-13,4.158247105e-13,2.064710663e-13,1.359775565e-12,2.633415888e-13,1.420788412e-13,4.117128565e-13,1.274533092e-12,6.968089119e-13,5.836105920e-13,6.779852832e-13,2.051734392e-12,1.438121686e-12,1.372420427e-12,1.196634741e-12,4.088458059e-13,1.273749941e-12,5.298771356e-13,1.489175587e-13,3.218990374e-13,8.476556631e-13,8.286605794e-13,1.520358741e-12,2.705850123e-12,5.044658412e-12,6.250125348e-12,5.519280219e-12,2.243649549e-12,4.796159734e-13
0.59375,2.598621050e-13,6.776992957e-13,3.430476593e-12,1.010623939e-12,4.207687075e-13,2.079823343e-13,1.406205172e-12,2.707388816e-13,1.476744668e-13,4.143077045e-13,1.283897309e-12,6.912553322e-13,5.760835834e-13,6.669562779e-13,2.046448988e-12,1.426392011e-12,1.366092048e-12,1.171038943e-12,4.072552347e-13,1.296220693e-12,5.433658463e-13,1.562501026e-13,3.213583435e-13,8.566995990e-13,8.364778187e-13,1.565385121e-12,2.757836016e-12,5.082504228e-12,6.472971761e-12,5.654887010e-12,2.311345166e-12,4.977899005e-13
0.60156,2.667750864e-13,6.997469914e-13,3.457849038e-12,1.027308715e-12,4.262196886e-13,2.101032764e-13,1.451733018e-12,2.794375548e-13,1.543011936e-13,4.170975430e-13,1.289415749e-12,6.852809782e-13,5.691492219e-13,6.554272664e-13,2.038908659e-12,1.413766328e-12,1.360956312e-12,1.146989694e-12,4.074954858e-13,1.321630586e-12,5.596210514e-13,1.646044468e-13,3.209679347e-13,8.673453730e-13,8.443823916e-13,1.610017954e-12,2.807571267e-12,5.115774172e-12,6.702951426e-12,5.796351037e-12,2.380757604e-12,5.161699666e-13
0.60938,2.771069308e-13,7.249338623e-13,3.481785982e-12,1.044212562e-12,4.318832833e-13,2.129116997e-13,1.495208938e-12,2.891806840e-13,1.620715099e-13,4.199737656e-13,1.291520093e-12,6.789800691e-13,5.627487107e-13,6.435251335e-13,2.029610621e-12,1.400843989e-12,1.356978365e-12,1.124676709e-12,4.095579125e-13,1.349799143e-12,5.789453409e-13,1.741780796e-13,3.208378362e-13,8.802125449e-13,8.522588271e-13,1.654151370e-12,2.855174884e-12,5.145554449e-12,6.940336599e-12,5.944037369e-12,2.451973658e-12,5.350498289e-13
0.61719,2.909045642e-13,7.536766145e-13,3.501762507e-12,1.061112789e-12,4.378328995e-13,2.162149496e-13,1.537193394e-12,3.001115443e-13,1.711503514e-13,4.232968120e-13,1.291415772e-12,6.727127179e-13,5.570477075e-13,6.313634687e-13,2.018847678e-12,1.387975062e-12,1.354836456e-12,1.104051550e-12,4.132212771e-13,1.380147902e-12,6.011988702e-13,1.851152178e-13,3.212219809e-13,8.962336219e-13,8.605936425e-13,1.697490773e-12,2.900937138e-12,5.175818681e-12,7.185697966e-12,6.099803616e-12,2.524441017e-12,5.545714989e-13
0.625,3.082550430e-13,7.862969777e-13,3.517860087e-12,1.078343842e-12,4.443231352e-13,2.200549741e-13,1.578576012e-12,3.124845913e-13,1.816534164e-13,4.273600309e-13,1.289988025e-12,6.669174414e-13,5.525575932e-13,6.192390697e-13,2.007335252e-12,1.375366176e-12,1.355189093e-12,1.085189169e-12,4.185805918e-13,1.412884238e-12,6.265157499e-13,1.975418549e-13,3.224460113e-13,9.156129361e-13,8.701639379e-13,1.740267210e-12,2.946226070e-12,5.208281957e-12,7.440388278e-12,6.265283277e-12,2.598343527e-12,5.748240474e-13
0.63281,3.291541265e-13,8.224159595e-13,3.529270002e-12,1.095333016e-12,4.511852425e-13,2.244814619e-13,1.619334781e-12,3.262525223e-13,1.935959502e-13,4.321577462e-13,1.286982332e-12,6.616780075e-13,5.496728460e-13,6.074500116e-13,1.994685826e-12,1.362423852e-12,1.356393983e-12,1.068113993e-12,4.256240574e-13,1.447521829e-12,6.547683056e-13,2.113214876e-13,3.244076135e-13,9.377684964e-13,8.809209532e-13,1.781516753e-12,2.990752663e-12,5.241315873e-12,7.703173714e-12,6.439247632e-12,2.673345915e-12,5.954733437e-13
0.64062,3.532479805e-13,8.616359971e-13,3.535760077e-12,1.112025537e-12,4.583112025e-13,2.294504746e-13,1.658702350e-12,3.413829219e-13,2.067773936e-13,4.374693539e-13,1.281563261e-12,6.566458958e-13,5.484358617e-13,5.958464482e-13,1.979800317e-12,1.348645597e-12,1.357017153e-12,1.052324891e-12,4.340865735e-13,1.483004562e-12,6.853405180e-13,2.264184180e-13,3.269556573e-13,9.625969743e-13,8.922258450e-13,1.820640747e-12,3.033311836e-12,5.274788476e-12,7.971411292e-12,6.619367053e-12,2.748675463e-12,6.163137145e-13
0.64844,3.811239312e-13,9.050513510e-13,3.540115136e-12,1.130055327e-12,4.659858887e-13,2.350838087e-13,1.696328452e-12,3.578380652e-13,2.211839465e-13,4.432173725e-13,1.273887843e-12,6.516915190e-13,5.489787214e-13,5.841372898e-13,1.962930674e-12,1.334295380e-12,1.357859901e-12,1.037616058e-12,4.440159999e-13,1.519815897e-12,7.183354729e-13,2.432117163e-13,3.303669670e-13,9.910675469e-13,9.042762221e-13,1.858691959e-12,3.074372152e-12,5.309738168e-12,8.245340566e-12,6.805506071e-12,2.824631835e-12,6.378424875e-13
0.65625,4.137293016e-13,9.535088688e-13,3.541711578e-12,1.149881713e-12,4.740575272e-13,2.415829224e-13,1.732596008e-12,3.755725243e-13,2.371799654e-13,4.495766603e-13,1.264789961e-12,6.469738665e-13,5.514306039e-13,5.723818934e-13,1.945196956e-12,1.320028552e-12,1.359779792e-12,1.024595794e-12,4.555929234e-13,1.558558559e-12,7.539653950e-13,2.618262097e-13,3.346413680e-13,1.023134099e-12,9.175076623e-13,1.896029552e-12,3.114214494e-12,5.345129108e-12,8.526397954e-12,6.999205574e-12,2.901578098e-12,6.604683144e-13
0.66406,4.504620892e-13,1.006337011e-12,3.540217124e-12,1.170179542e-12,4.821712916e-13,2.490887768e-13,1.767304629e-12,3.945852678e-13,2.550084855e-13,4.564528176e-13,1.254087989e-12,6.424613777e-13,5.555512095e-13,5.604746139e-13,1.927051670e-12,1.306538394e-12,1.362923409e-12,1.013468959e-12,4.686639009e-13,1.598103700e-12,7.915224283e-13,2.821690144e-13,3.396041699e-13,1.057346314e-12,9.314170647e-13,1.932221043e-12,3.152677233e-12,5.380131643e-12,8.814819796e-12,7.201028562e-12,2.979119940e-12,6.841744283e-13
0.67188,4.906282419e-13,1.062214218e-12,3.537046656e-12,1.189168569e-12,4.906095146e-13,2.573660113e-13,1.799942740e-12,4.149403749e-13,2.746358414e-13,4.637116516e-13,1.241599222e-12,6.384253414e-13,5.613238394e-13,5.483098349e-13,1.907775405e-12,1.292915729e-12,1.366259016e-12,1.003391660e-12,4.828911616e-13,1.637246257e-12,8.305352198e-13,3.041905119e-13,3.454133801e-13,1.093459123e-12,9.458486596e-13,1.966729173e-12,3.189562368e-12,5.415696005e-12,9.108941903e-12,7.409318637e-12,3.056358564e-12,7.086927537e-13
0.67969,5.354023297e-13,1.122133080e-12,3.528389253e-12,1.207643172e-12,4.995809440e-13,2.662529582e-13,1.830361629e-12,4.369052928e-13,2.960663741e-13,4.716289930e-13,1.228316380e-12,6.353187477e-13,5.690112206e-13,5.364303212e-13,1.888040215e-12,1.278890209e-12,1.369182369e-12,9.940904051e-13,4.982024754e-13,1.676495146e-12,8.713367315e-13,3.278865785e-13,3.521866043e-13,1.132763856e-12,9.610645426e-13,1.998985245e-12,3.224460770e-12,5.452304381e-12,9.408473897e-12,7.625000855e-12,3.132968846e-12,7.339413310e-13
0.6875,5.849471979e-13,1.187007199e-12,3.512049429e-12,1.227932474e-12,5.077787968e-13,2.762532573e-13,1.858847057e-12,4.604695687e-13,3.194712599e-13,4.802946281e-13,1.215129827e-12,6.330013183e-13,5.788011551e-13,5.250573934e-13,1.868477929e-12,1.265226726e-12,1.372508870e-12,9.865584071e-13,5.150684561e-13,1.716953550e-12,9.143588294e-13,3.534260896e-13,3.598519681e-13,1.175571131e-12,9.772826338e-13,2.029682520e-12,3.256589634e-12,5.490029773e-12,9.713167838e-12,7.848319693e-12,3.209803793e-12,7.602988368e-13
0.69531,6.385713200e-13,1.256686887e-12,3.494521197e-12,1.249395719e-12,5.152412955e-13,2.874246864e-13,1.885337582e-12,4.851320625e-13,3.449340119e-13,4.891634077e-13,1.201131169e-12,6.308734779e-13,5.905267707e-13,5.133221114e-13,1.847689089e-12,1.251441691e-12,1.376895358e-12,9.808192244e-13,5.334491941e-13,1.758483990e-12,9.594255573e-13,3.810205003e-13,3.685623284e-13,1.221385103e-12,9.951340365e-13,2.059669300e-12,3.286144808e-12,5.528311648e-12,1.002096174e-11,8.076395191e-12,3.286574804e-12,7.881052326e-13
0.70312,6.969369990e-13,1.331216891e-12,3.473181872e-12,1.270319310e-12,5.236066732e-13,2.993072740e-13,1.908451450e-12,5.110220719e-13,3.724982482e-13,4.976768560e-13,1.184768849e-12,6.286971028e-13,6.041794011e-13,5.007956514e-13,1.824274434e-12,1.236428750e-12,1.380905951e-12,9.760326550e-13,5.529943499e-13,1.800094984e-12,1.006509113e-12,4.106135622e-13,3.783539885e-13,1.270907733e-12,1.014651648e-12,2.087983318e-12,3.312363823e-12,5.564450438e-12,1.032943973e-11,8.308230434e-12,3.361181493e-12,8.173398956e-13
0.71094,7.597548173e-13,1.410318583e-12,3.440037693e-12,1.292178865e-12,5.319392620e-13,3.120403413e-13,1.926770633e-12,5.383816225e-13,4.023001040e-13,5.057353707e-13,1.165929518e-12,6.268061655e-13,6.202335917e-13,4.881527320e-13,1.799048114e-12,1.220941057e-12,1.383804491e-12,9.725866827e-13,5.740175923e-13,1.841175969e-12,1.055815168e-12,4.422705374e-13,3.891947369e-13,1.324906840e-12,1.034960317e-12,2.113846940e-12,3.334431007e-12,5.596319163e-12,1.063770231e-11,8.543997675e-12,3.433005057e-12,8.480681806e-13
0.71875,8.258351929e-13,1.492858123e-12,3.402973927e-12,1.314805282e-12,5.384871234e-13,3.254674695e-13,1.941020554e-12,5.666016216e-13,4.341900971e-13,5.135894583e-13,1.145565005e-12,6.255920803e-13,6.386500866e-13,4.758515120e-13,1.772937539e-12,1.205505380e-12,1.386059872e-12,9.705010514e-13,5.961831498e-13,1.880666540e-12,1.106387522e-12,4.759748911e-13,4.013946113e-13,1.382715208e-12,1.057016650e-12,2.137181215e-12,3.353085835e-12,5.625577745e-12,1.094301604e-11,8.779891928e-12,3.501430800e-12,8.801092856e-13
0.72656,8.959863933e-13,1.578952913e-12,3.371007169e-12,1.336210388e-12,5.447957306e-13,3.391097042e-13,1.951565938e-12,5.956301615e-13,4.677970403e-13,5.213108538e-13,1.123762313e-12,6.250543517e-13,6.588544482e-13,4.637249722e-13,1.745837922e-12,1.189247081e-12,1.387446372e-12,9.687425303e-13,6.186137789e-13,1.917686581e-12,1.157303340e-12,5.114055312e-13,4.151714619e-13,1.443675256e-12,1.082044693e-12,2.157586194e-12,3.368206565e-12,5.654398725e-12,1.124261251e-11,9.013896990e-12,3.564477855e-12,9.131157939e-13
0.73438,9.709687439e-13,1.669968156e-12,3.336253762e-12,1.358177739e-12,5.518249518e-13,3.532069196e-13,1.956798116e-12,6.257423839e-13,5.031457698e-13,5.286383426e-13,1.100070772e-12,6.252699997e-13,6.811579622e-13,4.517633732e-13,1.717716115e-12,1.172088011e-12,1.387813867e-12,9.676894908e-13,6.417961999e-13,1.952918009e-12,1.209064613e-12,5.485664581e-13,4.302892713e-13,1.507676548e-12,1.108519946e-12,2.175257517e-12,3.378907149e-12,5.682171340e-12,1.153748860e-11,9.248745815e-12,3.622107229e-12,9.474036832e-13
0.74219,1.049964783e-12,1.765249553e-12,3.291746631e-12,1.381067660e-12,5.572920694e-13,3.677934253e-13,1.956147456e-12,6.562719046e-13,5.404324112e-13,5.355680007e-13,1.074872164e-12,6.265221727e-13,7.060024488e-13,4.400996731e-13,1.688213540e-12,1.154194081e-12,1.386694853e-12,9.676738607e-13,6.660638531e-13,1.986066544e-12,1.261383200e-12,5.875400025e-13,4.464816563e-13,1.573879289e-12,1.135451353e-12,2.190550851e-12,3.385200469e-12,5.707215591e-12,1.182614745e-11,9.483270778e-12,3.674853353e-12,9.833324565e-13
0.75,1.132496829e-12,1.863021105e-12,3.242006058e-12,1.402422493e-12,5.605114413e-13,3.826854769e-13,1.950202478e-12,6.870902254e-13,5.795396280e-13,5.422524751e-13,1.048512834e-12,6.285696417e-13,7.329106147e-13,4.285411360e-13,1.657058654e-12,1.135119478e-12,1.383106400e-12,9.674026355e-13,6.904887201e-13,2.015437565e-12,1.313150258e-12,6.281630684e-13,4.639017571e-13,1.641812286e-12,1.163874763e-12,2.203208215e-12,3.387123905e-12,5.727564545e-12,1.210391299e-11,9.712344049e-12,3.721851106e-12,1.020635810e-12
0.75781,1.218791708e-12,1.963875518e-12,3.189771684e-12,1.424276572e-12,5.632996484e-13,3.980396722e-13,1.939146125e-12,7.186898837e-13,6.203053914e-13,5.484513893e-13,1.020720571e-12,6.310720316e-13,7.618345849e-13,4.170136505e-13,1.624868625e-12,1.115155198e-12,1.377479866e-12,9.668689840e-13,7.150013088e-13,2.041329879e-12,1.364583310e-12,6.704590370e-13,4.828713920e-13,1.712221463e-12,1.194272086e-12,2.212792924e-12,3.384935626e-12,5.740430263e-12,1.236960603e-11,9.933994044e-12,3.762883669e-12,1.059019880e-12
0.76562,1.309450092e-12,2.068749287e-12,3.134583461e-12,1.448492378e-12,5.659834648e-13,4.136743775e-13,1.923109759e-12,7.507408702e-13,6.626596157e-13,5.539161835e-13,9.914282579e-13,6.341872469e-13,7.930851945e-13,4.058219378e-13,1.591860498e-12,1.095121725e-12,1.370775714e-12,9.671187463e-13,7.401284106e-13,2.064719500e-12,1.415741568e-12,7.143925473e-13,5.033989973e-13,1.784694696e-12,1.226339826e-12,2.218792568e-12,3.378897995e-12,5.745976884e-12,1.262228280e-11,1.014832481e-11,3.797302101e-12,1.098393489e-12
0.77344,1.404098858e-12,2.176156878e-12,3.079179829e-12,1.471733347e-12,5.678685437e-13,4.295258307e-13,1.901612842e-12,7.830526157e-13,7.064947730e-13,5.586847296e-13,9.603901824e-13,6.378016777e-13,8.263506705e-13,3.947919806e-13,1.557474220e-12,1.075020965e-12,1.362733594e-12,9.676701827e-13,7.655548926e-13,2.084361078e-12,1.465306294e-12,7.598255775e-13,5.253114569e-13,1.857269782e-12,1.259071396e-12,2.221346076e-12,3.368717003e-12,5.748000369e-12,1.285967331e-11,1.035496048e-11,3.823568666e-12,1.138771616e-12
0.78125,1.501661612e-12,2.284831297e-12,3.025018498e-12,1.492467467e-12,5.692153480e-13,4.457226225e-13,1.874255863e-12,8.158398477e-13,7.519296565e-13,5.628347932e-13,9.273688398e-13,6.417080658e-13,8.618181593e-13,3.833815531e-13,1.521124278e-12,1.053748676e-12,1.352407538e-12,9.678067520e-13,7.910680924e-13,2.099256140e-12,1.512610349e-12,8.070041838e-13,5.485516126e-13,1.929011566e-12,1.292041324e-12,2.220843850e-12,3.355393476e-12,5.745690616e-12,1.308277976e-11,1.055398709e-11,3.841555940e-12,1.180508324e-12
0.78906,1.603761224e-12,2.395972045e-12,2.970272508e-12,1.513050342e-12,5.698852889e-13,4.623676252e-13,1.842249018e-12,8.488972672e-13,7.993581471e-13,5.665593340e-13,8.934485982e-13,6.464684323e-13,9.002519620e-13,3.718460097e-13,1.482985060e-12,1.030648911e-12,1.339271709e-12,9.678353625e-13,8.169793659e-13,2.110720092e-12,1.558213838e-12,8.562702238e-13,5.731866600e-13,2.000910704e-12,1.326592190e-12,2.216898902e-12,3.339628692e-12,5.734219467e-12,1.329195662e-11,1.074523102e-11,3.851869435e-12,1.224214884e-12
0.79688,1.711988922e-12,2.511268720e-12,2.913461431e-12,1.535663972e-12,5.691223401e-13,4.802391282e-13,1.807131951e-12,8.821466096e-13,8.489315554e-13,5.700354301e-13,8.598967261e-13,6.526684542e-13,9.417700112e-13,3.608298979e-13,1.444464139e-12,1.006702510e-12,1.323993167e-12,9.680817408e-13,8.434311195e-13,2.119695098e-12,1.602278178e-12,9.075474759e-13,5.992330916e-13,2.074262210e-12,1.362482861e-12,2.209811202e-12,3.319290721e-12,5.716310009e-12,1.348420562e-11,1.092728873e-11,3.855276901e-12,1.269969208e-12
0.80469,1.824470078e-12,2.630290876e-12,2.856364732e-12,1.560125402e-12,5.675137688e-13,4.993818422e-13,1.769611902e-12,9.155737417e-13,9.003816086e-13,5.732087738e-13,8.267652835e-13,6.602705943e-13,9.861079626e-13,3.504973329e-13,1.406423461e-12,9.826389295e-13,1.307057061e-12,9.682813289e-13,8.700695554e-13,2.125081366e-12,1.644020663e-12,9.602463381e-13,6.264176147e-13,2.148879142e-12,1.398287490e-12,2.200624715e-12,3.293387250e-12,5.698101700e-12,1.365838550e-11,1.109869162e-11,3.852681167e-12,1.316996069e-12
0.8125,1.940647737e-12,2.751007065e-12,2.803569068e-12,1.583900632e-12,5.662481261e-13,5.189156378e-13,1.729812461e-12,9.490731926e-13,9.533074676e-13,5.760979172e-13,7.942256179e-13,6.691198460e-13,1.033049556e-12,3.410653238e-13,1.369003533e-12,9.586974735e-13,1.288078554e-12,9.680719380e-13,8.964409633e-13,2.126461379e-12,1.682854100e-12,1.013867801e-12,6.545000275e-13,2.223712191e-12,1.434681975e-12,2.189460967e-12,3.263937251e-12,5.676420645e-12,1.381654183e-11,1.126007995e-11,3.843969519e-12,1.364942052e-12
0.82031,2.062033380e-12,2.872830549e-12,2.753317114e-12,1.606290185e-12,5.649758124e-13,5.390687623e-13,1.687854979e-12,9.826870987e-13,1.007300658e-12,5.787197986e-13,7.629727770e-13,6.790822565e-13,1.082629579e-12,3.328912080e-13,1.333332218e-12,9.362133381e-13,1.268286499e-12,9.683174642e-13,9.232085484e-13,2.125544408e-12,1.719036278e-12,1.068664805e-12,6.836217862e-13,2.298057088e-12,1.471752662e-12,2.176389006e-12,3.232236045e-12,5.646140597e-12,1.396139419e-11,1.141431360e-11,3.829330190e-12,1.414386966e-12
0.82812,2.188376547e-12,2.996607922e-12,2.700567886e-12,1.629004867e-12,5.628661308e-13,5.599469741e-13,1.644334944e-12,1.015839419e-12,1.062136283e-12,5.808487378e-13,7.328602789e-13,6.900313163e-13,1.135318655e-12,3.258687015e-13,1.299255702e-12,9.153879723e-13,1.249343941e-12,9.703990494e-13,9.513677561e-13,2.123263213e-12,1.752703280e-12,1.124820335e-12,7.138076512e-13,2.371198994e-12,1.508448425e-12,2.161946923e-12,3.198368377e-12,5.610732447e-12,1.409320849e-11,1.156238083e-11,3.809484890e-12,1.465407529e-12
0.83594,2.318871428e-12,3.122072145e-12,2.650240484e-12,1.651776150e-12,5.603804836e-13,5.809933825e-13,1.599304585e-12,1.047898785e-12,1.117843085e-12,5.824167183e-13,7.032438077e-13,7.020550088e-13,1.191267493e-12,3.197680269e-13,1.264986143e-12,8.948109734e-13,1.230359514e-12,9.739720763e-13,9.803693227e-13,2.118898472e-12,1.783497837e-12,1.181832536e-12,7.448231646e-13,2.443629406e-12,1.545472650e-12,2.145817069e-12,3.162306738e-12,5.574189758e-12,1.420846682e-11,1.170101703e-11,3.783770030e-12,1.517287624e-12
0.84375,2.452943579e-12,3.248619699e-12,2.605813172e-12,1.673870837e-12,5.580302399e-13,6.025442477e-13,1.552746721e-12,1.079162798e-12,1.174272383e-12,5.835808245e-13,6.741700469e-13,7.152744339e-13,1.250278158e-12,3.147128205e-13,1.231053589e-12,8.746313415e-13,1.210406912e-12,9.780664179e-13,1.009539583e-12,2.112425100e-12,1.811509061e-12,1.239459979e-12,7.766579645e-13,2.517032787e-12,1.583840728e-12,2.127242402e-12,3.123453980e-12,5.535623878e-12,1.430458008e-11,1.182712564e-11,3.751687284e-12,1.569595629e-12
0.85156,2.589691852e-12,3.376411225e-12,2.562930828e-12,1.695876639e-12,5.553736723e-13,6.246664414e-13,1.506039514e-12,1.109762463e-12,1.231109815e-12,5.842874090e-13,6.458927376e-13,7.295505980e-13,1.312323063e-12,3.108487323e-13,1.198778490e-12,8.554668325e-13,1.190130072e-12,9.826785380e-13,1.039258330e-12,2.104305553e-12,1.837054245e-12,1.297822838e-12,8.093586760e-13,2.590940429e-12,1.623350951e-12,2.106703605e-12,3.081706410e-12,5.495024919e-12,1.438246223e-11,1.194082123e-11,3.714364700e-12,1.622394916e-12
0.85938,2.728589133e-12,3.504889302e-12,2.523961961e-12,1.718176530e-12,5.525651047e-13,6.469371308e-13,1.459588229e-12,1.139317029e-12,1.288061990e-12,5.842836621e-13,6.180892348e-13,7.444890763e-13,1.377047325e-12,3.080878427e-13,1.167253499e-12,8.368157212e-13,1.169624854e-12,9.876926624e-13,1.069425544e-12,2.094523583e-12,1.859974160e-12,1.356642558e-12,8.426400096e-13,2.663840052e-12,1.662798656e-12,2.085172961e-12,3.037599162e-12,5.451893750e-12,1.444337549e-11,1.204188976e-11,3.672739038e-12,1.675703951e-12
0.86719,2.869375009e-12,3.632761543e-12,2.489336820e-12,1.740936174e-12,5.501618623e-13,6.692190707e-13,1.412153421e-12,1.167452290e-12,1.344538582e-12,5.833914055e-13,5.905024115e-13,7.597250804e-13,1.443996771e-12,3.063286272e-13,1.135708755e-12,8.187751473e-13,1.148736363e-12,9.929593318e-13,1.099646514e-12,2.083194310e-12,1.880148826e-12,1.415539350e-12,8.762166417e-13,2.735513362e-12,1.700796358e-12,2.061859278e-12,2.990850966e-12,5.402822968e-12,1.448767045e-11,1.212952169e-11,3.626339383e-12,1.729177178e-12
0.875,3.012974580e-12,3.759343275e-12,2.454077921e-12,1.763007945e-12,5.474488609e-13,6.910002214e-13,1.364315394e-12,1.193720326e-12,1.400153768e-12,5.816200035e-13,5.634724039e-13,7.751779803e-13,1.513230123e-12,3.055049683e-13,1.104361265e-12,8.013351190e-13,1.127651912e-12,9.987324703e-13,1.129900208e-12,2.069748811e-12,1.897159057e-12,1.474471609e-12,9.100422888e-13,2.804329143e-12,1.737131148e-12,2.035636005e-12,2.940605938e-12,5.347873543e-12,1.451419480e-11,1.220507243e-11,3.573924391e-12,1.782720746e-12
0.88281,3.159710515e-12,3.885303006e-12,2.423590804e-12,1.783756660e-12,5.439319138e-13,7.125118122e-13,1.317831896e-12,1.218038465e-12,1.455244633e-12,5.790467745e-13,5.371514812e-13,7.909481702e-13,1.585004285e-12,3.056318922e-13,1.073000319e-12,7.836558107e-13,1.106266478e-12,1.004968504e-12,1.159922874e-12,2.053269523e-12,1.910029599e-12,1.533371391e-12,9.437466096e-13,2.868305243e-12,1.771344843e-12,2.007583513e-12,2.886514268e-12,5.290089046e-12,1.452077337e-11,1.226813303e-11,3.515772013e-12,1.836657758e-12
0.89062,3.307210617e-12,4.011683990e-12,2.401550908e-12,1.805536123e-12,5.404911685e-13,7.344028195e-13,1.273049049e-12,1.240470180e-12,1.509909375e-12,5.756543309e-13,5.113881537e-13,8.071749685e-13,1.659750851e-12,3.071040193e-13,1.041531217e-12,7.659143626e-13,1.085024673e-12,1.011898524e-12,1.189952810e-12,2.034757290e-12,1.919117714e-12,1.592055270e-12,9.768173647e-13,2.928680192e-12,1.803075465e-12,1.978859087e-12,2.829673542e-12,5.228730861e-12,1.450836532e-11,1.231589703e-11,3.454279007e-12,1.890643471e-12
0.89844,3.454770412e-12,4.136528053e-12,2.384268612e-12,1.828159542e-12,5.371763678e-13,7.558975150e-13,1.230357185e-12,1.260692564e-12,1.563805397e-12,5.715027229e-13,4.864305355e-13,8.238779819e-13,1.737654867e-12,3.100966448e-13,1.009997635e-12,7.485806455e-13,1.064256200e-12,1.019678132e-12,1.220506457e-12,2.015441512e-12,1.925550454e-12,1.650593669e-12,1.009563941e-12,2.986530048e-12,1.833526085e-12,1.949144408e-12,2.771934893e-12,5.162407011e-12,1.447969487e-11,1.234929629e-11,3.390142753e-12,1.944179634e-12
0.90625,3.602849847e-12,4.255947877e-12,2.374072944e-12,1.848668418e-12,5.335764099e-13,7.765568778e-13,1.190774521e-12,1.278704167e-12,1.616932409e-12,5.667005027e-13,4.623121924e-13,8.407653375e-13,1.818173113e-12,3.140617294e-13,9.783041853e-13,7.310807312e-13,1.042839106e-12,1.027289727e-12,1.250976009e-12,1.994321409e-12,1.928718130e-12,1.709032310e-12,1.042354723e-12,3.040241626e-12,1.862313937e-12,1.918270630e-12,2.713388192e-12,5.093525767e-12,1.443362186e-11,1.236996735e-11,3.321428405e-12,1.997579757e-12
0.91406,3.749326915e-12,4.369873658e-12,2.370814696e-12,1.868329350e-12,5.304767845e-13,7.970122993e-13,1.154267926e-12,1.294877131e-12,1.669153185e-12,5.610791275e-13,4.385628993e-13,8.575068143e-13,1.900903084e-12,3.189554397e-13,9.470853002e-13,7.135297391e-13,1.020329741e-12,1.034253325e-12,1.280895426e-12,1.970532757e-12,1.927903424e-12,1.767095939e-12,1.074744834e-12,3.088886381e-12,1.888186488e-12,1.886200749e-12,2.652910782e-12,5.024068964e-12,1.436786040e-11,1.237588175e-11,3.248020507e-12,2.050836028e-12
0.92188,3.893921884e-12,4.480815565e-12,2.373286219e-12,1.889342636e-12,5.278368844e-13,8.175382441e-13,1.120608757e-12,1.309346766e-12,1.719876154e-12,5.545766458e-13,4.155292125e-13,8.740792045e-13,1.985622453e-12,3.254012517e-13,9.173192289e-13,6.971155610e-13,9.979743266e-13,1.041274294e-12,1.310613541e-12,1.944853505e-12,1.923610711e-12,1.824676550e-12,1.106522273e-12,3.132761437e-12,1.911815819e-12,1.853231627e-12,2.590492266e-12,4.953525981e-12,1.428339447e-11,1.236611497e-11,3.172167344e-12,2.103580021e-12
0.92969,4.038147918e-12,4.588856128e-12,2.385796854e-12,1.910486721e-12,5.251379136e-13,8.382434182e-13,1.090847548e-12,1.322036676e-12,1.768812930e-12,5.476588566e-13,3.941322757e-13,8.906678627e-13,2.071861952e-12,3.334731807e-13,8.892130290e-13,6.821582801e-13,9.764726323e-13,1.048464719e-12,1.339894344e-12,1.917815125e-12,1.915579201e-12,1.881585620e-12,1.137641178e-12,3.171367258e-12,1.933094276e-12,1.820404490e-12,2.526545162e-12,4.882000479e-12,1.418103433e-11,1.234110812e-11,3.094567724e-12,2.155930633e-12
0.9375,4.180769720e-12,4.693185504e-12,2.403888215e-12,1.931199866e-12,5.234263477e-13,8.586199686e-13,1.065777678e-12,1.332694699e-12,1.815795300e-12,5.406475523e-13,3.743236624e-13,9.073316570e-13,2.159568660e-12,3.431389432e-13,8.623403037e-13,6.682499077e-13,9.558877490e-13,1.055791414e-12,1.368547772e-12,1.889707536e-12,1.903702903e-12,1.937142720e-12,1.167536487e-12,3.204843502e-12,1.951699378e-12,1.787730797e-12,2.461115155e-12,4.810883645e-12,1.406011237e-11,1.230058286e-11,3.014609670e-12,2.207502616e-12
0.94531,4.320816939e-12,4.794136794e-12,2.423416667e-12,1.952134983e-12,5.226933215e-13,8.777880300e-13,1.044871105e-12,1.340889673e-12,1.860275641e-12,5.332378202e-13,3.555645639e-13,9.237676668e-13,2.248742234e-12,3.545146759e-13,8.362680698e-13,6.555162814e-13,9.367086095e-13,1.063840356e-12,1.397178949e-12,1.861476049e-12,1.889350812e-12,1.991161204e-12,1.196078158e-12,3.234757746e-12,1.968088355e-12,1.754606801e-12,2.394400180e-12,4.741667933e-12,1.392204776e-11,1.224544596e-11,2.933289961e-12,2.257318929e-12
0.95312,4.458387187e-12,4.891299869e-12,2.450425154e-12,1.973305118e-12,5.217708618e-13,8.957478001e-13,1.028239761e-12,1.346118797e-12,1.901973993e-12,5.251319103e-13,3.378744932e-13,9.396962025e-13,2.339034957e-12,3.673150472e-13,8.111348299e-13,6.441105217e-13,9.188599906e-13,1.072645542e-12,1.425941187e-12,1.833280866e-12,1.872946501e-12,2.043967546e-12,1.223404467e-12,3.260783538e-12,1.981051055e-12,1.721200421e-12,2.326479142e-12,4.675287785e-12,1.376852593e-11,1.217567512e-11,2.851859756e-12,2.305073478e-12
0.96094,4.592300244e-12,4.983299941e-12,2.484214676e-12,1.994390830e-12,5.214233790e-13,9.125169444e-13,1.016783480e-12,1.348458368e-12,1.941075034e-12,5.164958324e-13,3.213981152e-13,9.551805278e-13,2.430317447e-12,3.816122587e-13,7.878869390e-13,6.340256454e-13,9.018029961e-13,1.081626199e-12,1.454156223e-12,1.804088233e-12,1.853550522e-12,2.095261889e-12,1.249098534e-12,3.280414816e-12,1.990602099e-12,1.687394508e-12,2.257417594e-12,4.611666586e-12,1.359836229e-11,1.209029701e-11,2.769699749e-12,2.351069558e-12
0.96875,4.721637496e-12,5.069192561e-12,2.520974873e-12,2.014734109e-12,5.221817581e-13,9.280668813e-13,1.009804090e-12,1.348695995e-12,1.977341462e-12,5.075450822e-13,3.061111926e-13,9.701709793e-13,2.522171467e-12,3.976542374e-13,7.669914623e-13,6.254673966e-13,8.857843350e-13,1.090571405e-12,1.481251758e-12,1.773749699e-12,1.831099071e-12,2.144508763e-12,1.272921567e-12,3.293306740e-12,1.998521685e-12,1.652901026e-12,2.187672018e-12,4.551180793e-12,1.341089711e-11,1.199034883e-11,2.686449094e-12,2.395338091e-12
0.97656,4.846116811e-12,5.149060512e-12,2.561426088e-12,2.035232422e-12,5.232744865e-13,9.425569309e-13,1.006242200e-12,1.346829142e-12,2.010189172e-12,4.982968473e-13,2.921206351e-13,9.846279836e-13,2.614205773e-12,4.151918001e-13,7.475410109e-13,6.181123786e-13,8.712390969e-13,1.100053026e-12,1.507575402e-12,1.743396082e-12,1.806398116e-12,2.191491414e-12,1.294839779e-12,3.301291039e-12,2.004414803e-12,1.617851971e-12,2.117792871e-12,4.495440955e-12,1.320843427e-11,1.187658021e-11,2.603306693e-12,2.437117338e-12
0.98438,4.966448552e-12,5.223950794e-12,2.605610146e-12,2.057611181e-12,5.252024409e-13,9.555337304e-13,1.007041771e-12,1.342384641e-12,2.039551592e-12,4.888244649e-13,2.794386439e-13,9.987149331e-13,2.706811014e-12,4.343232820e-13,7.291782678e-13,6.117560421e-13,8.582460429e-13,1.110885145e-12,1.533815755e-12,1.713590523e-12,1.779939956e-12,2.236103929e-12,1.314747503e-12,3.304947939e-12,2.007725022e-12,1.582374491e-12,2.048089369e-12,4.444528187e-12,1.299336105e-11,1.174985355e-11,2.521092742e-12,2.475718817e-12
0.99219,5.083178926e-12,5.294489188e-12,2.656333779e-12,2.080683963e-12,5.283484885e-13,9.670574445e-13,1.013089720e-12,1.335743246e-12,2.065447871e-12,4.791125790e-13,2.677491178e-13,1.011960445e-12,2.799581397e-12,4.549748497e-13,7.127798935e-13,6.072044948e-13,8.469405200e-13,1.122849000e-12,1.559663999e-12,1.684057978e-12,1.752122696e-12,2.278556530e-12,1.332956216e-12,3.304158594e-12,2.008511675e-12,1.546944201e-12,1.978303126e-12,4.397187013e-12,1.276614732e-11,1.161176009e-11,2.439747960e-12,2.511612470e-12
1,5.193668411e-12,5.359771110e-12,2.711728122e-12,2.103080028e-12,5.321673889e-13,9.773504469e-13,1.023876130e-12,1.326756138e-12,2.087364806e-12,4.689026966e-13,2.568225545e-13,1.023633866e-12,2.891284524e-12,4.764264257e-13,6.983202754e-13,6.045155202e-13,8.372493245e-13,1.135242786e-12,1.584650438e-12,1.654835930e-12,1.723687894e-12,2.318824199e-12,1.349572122e-12,3.299200865e-12,2.006099956e-12,1.511592558e-12,1.908025423e-12,4.353787172e-12,1.252668649e-11,1.146141335e-11,2.359162159e-12,2.544928258e-12
1.0078,5.296318766e-12,5.418463347e-12,2.765374643e-12,2.125450915e-12,5.368944016e-13,9.854549241e-13,1.038897637e-12,1.314837859e-12,2.105098056e-12,4.582527150e-13,2.468106436e-13,1.033899088e-12,2.981834997e-12,4.987667850e-13,6.852337508e-13,6.029938825e-13,8.290478134e-13,1.148389726e-12,1.609190418e-12,1.626113841e-12,1.694921570e-12,2.356313547e-12,1.364299745e-12,3.289674206e-12,2.001221922e-12,1.475517654e-12,1.837586953e-12,4.314752454e-12,1.227643464e-11,1.129952564e-11,2.279376233e-12,2.574544135e-12
1.0156,5.392598938e-12,5.470455055e-12,2.821500593e-12,2.147447341e-12,5.422927358e-13,9.912978483e-13,1.057816198e-12,1.300554812e-12,2.119163648e-12,4.475005426e-13,2.378980644e-13,1.043143255e-12,3.071574954e-12,5.223543844e-13,6.738551834e-13,6.029290670e-13,8.225461803e-13,1.162601405e-12,1.633185008e-12,1.597684692e-12,1.665357606e-12,2.391081288e-12,1.377298384e-12,3.275302591e-12,1.994086624e-12,1.438879962e-12,1.767563644e-12,4.279571042e-12,1.201768156e-11,1.112959178e-11,2.200915867e-12,2.600168502e-12
1.0234,5.481948832e-12,5.516553720e-12,2.882472596e-12,2.168934477e-12,5.478035343e-13,9.956880448e-13,1.080694773e-12,1.284227404e-12,2.129857911e-12,4.365525924e-13,2.300119208e-13,1.051317002e-12,3.159900557e-12,5.468362422e-13,6.644407978e-13,6.047068921e-13,8.177730345e-13,1.177305112e-12,1.655764543e-12,1.569290532e-12,1.634925103e-12,2.423572951e-12,1.388724604e-12,3.256594570e-12,1.983288734e-12,1.402342448e-12,1.698148277e-12,4.248172506e-12,1.175098386e-11,1.095123194e-11,2.124377110e-12,2.622562867e-12
1.0312,5.563258306e-12,5.556367923e-12,2.942316089e-12,2.190421210e-12,5.542216652e-13,9.983175700e-13,1.108005128e-12,1.265628068e-12,2.136936208e-12,4.252746687e-13,2.231134521e-13,1.058399126e-12,3.245847783e-12,5.722012455e-13,6.571968790e-13,6.084298706e-13,8.146107318e-13,1.192263652e-12,1.676658997e-12,1.540706123e-12,1.603838158e-12,2.453482707e-12,1.398437429e-12,3.233238267e-12,1.969581321e-12,1.365856274e-12,1.629601450e-12,4.219513522e-12,1.147653760e-11,1.076364767e-11,2.049733017e-12,2.641700455e-12
1.0391,5.636672508e-12,5.588557791e-12,3.001598041e-12,2.210914289e-12,5.619253399e-13,9.991202998e-13,1.139610510e-12,1.245388663e-12,2.140327303e-12,4.140514871e-13,2.173545020e-13,1.064424414e-12,3.328880801e-12,5.986659705e-13,6.526211048e-13,6.146080928e-13,8.131409813e-13,1.207745842e-12,1.696101532e-12,1.511787931e-12,1.571815932e-12,2.480564139e-12,1.406480210e-12,3.204713886e-12,1.954209819e-12,1.329617019e-12,1.562464638e-12,4.193448964e-12,1.119598690e-11,1.056965114e-11,1.976753664e-12,2.657191768e-12
1.0469,5.701059866e-12,5.613596640e-12,3.060645552e-12,2.230480287e-12,5.700643465e-13,9.987582462e-13,1.175134888e-12,1.223992256e-12,2.140342643e-12,4.031143527e-13,2.127149584e-13,1.069465202e-12,3.408926839e-12,6.261712688e-13,6.505255127e-13,6.233142460e-13,8.134925213e-13,1.223937576e-12,1.714218438e-12,1.483062079e-12,1.539020892e-12,2.504895640e-12,1.412659165e-12,3.172160066e-12,1.937049219e-12,1.293930150e-12,1.497328740e-12,4.172885854e-12,1.091003374e-11,1.037020978e-11,1.905389991e-12,2.669314927e-12
1.0547,5.756352240e-12,5.632761516e-12,3.115863393e-12,2.249725625e-12,5.780368995e-13,9.973290736e-13,1.213733426e-12,1.201338378e-12,2.137108059e-12,3.922856276e-13,2.090202118e-13,1.073629643e-12,3.485635612e-12,6.547476676e-13,6.506371715e-13,6.344117089e-13,8.159553765e-13,1.240946756e-12,1.731031188e-12,1.455421791e-12,1.506259088e-12,2.526117101e-12,1.416685885e-12,3.136640328e-12,1.918736712e-12,1.258658211e-12,1.434416497e-12,4.158445329e-12,1.061875214e-11,1.016537218e-11,1.836138906e-12,2.678153878e-12
1.0625,5.803560934e-12,5.645589841e-12,3.168032349e-12,2.267795789e-12,5.859233592e-13,9.945491602e-13,1.254019014e-12,1.177521711e-12,2.130358298e-12,3.815363108e-13,2.061928015e-13,1.076809885e-12,3.558326130e-12,6.841557489e-13,6.528612425e-13,6.480230126e-13,8.207922300e-13,1.258820590e-12,1.746622173e-12,1.429130665e-12,1.473838647e-12,2.543943412e-12,1.418764302e-12,3.097612537e-12,1.899599320e-12,1.223615775e-12,1.373628083e-12,4.148017950e-12,1.032376218e-11,9.956909739e-12,1.769890553e-12,2.682872934e-12
1.0703,5.841942510e-12,5.651952928e-12,3.216582670e-12,2.285672153e-12,5.941862729e-13,9.899714328e-13,1.295690259e-12,1.152398981e-12,2.119776684e-12,3.708986539e-13,2.041290631e-13,1.078882348e-12,3.626523899e-12,7.141358123e-13,6.568988430e-13,6.639520333e-13,8.279230233e-13,1.277805424e-12,1.761028177e-12,1.403827951e-12,1.441683119e-12,2.558357301e-12,1.419090982e-12,3.054915321e-12,1.879468106e-12,1.188423849e-12,1.315168252e-12,4.141622026e-12,1.002589033e-11,9.744600062e-12,1.706487864e-12,2.682688068e-12
1.0781,5.871545771e-12,5.653153644e-12,3.260285512e-12,2.304464777e-12,6.026286319e-13,9.836760625e-13,1.338508572e-12,1.126008215e-12,2.105410485e-12,3.603244987e-13,2.029415850e-13,1.079802959e-12,3.689407729e-12,7.448577553e-13,6.635314973e-13,6.825212221e-13,8.371163388e-13,1.297844644e-12,1.773720674e-12,1.378976311e-12,1.409706534e-12,2.569251132e-12,1.417763711e-12,3.008975847e-12,1.858911047e-12,1.153168165e-12,1.259201949e-12,4.140061158e-12,9.725243059e-12,9.528482907e-12,1.645119834e-12,2.678092896e-12
1.0859,5.893242796e-12,5.649151475e-12,3.300720027e-12,2.322167582e-12,6.103922166e-13,9.765470100e-13,1.381458869e-12,1.099105281e-12,2.088018865e-12,3.499992301e-13,2.029863421e-13,1.079736418e-12,3.746372765e-12,7.764101890e-13,6.737568661e-13,7.043320088e-13,8.480774879e-13,1.318110220e-12,1.784227346e-12,1.354060126e-12,1.377546509e-12,2.576741264e-12,1.414793569e-12,2.959606828e-12,1.837883985e-12,1.118666958e-12,1.205816665e-12,4.144283867e-12,9.424428985e-12,9.312368537e-12,1.586064119e-12,2.670091467e-12
1.0938,5.906183520e-12,5.639167012e-12,3.336104630e-12,2.337587866e-12,6.174417789e-13,9.686662726e-13,1.424102663e-12,1.072074063e-12,2.068288874e-12,3.401769125e-13,2.041115849e-13,1.079208390e-12,3.797822508e-12,8.088294496e-13,6.870976135e-13,7.289587968e-13,8.609652793e-13,1.338458836e-12,1.792868048e-12,1.329260748e-12,1.345024300e-12,2.580616725e-12,1.409561631e-12,2.907413000e-12,1.816707512e-12,1.084901001e-12,1.155944662e-12,4.155469240e-12,9.126178309e-12,9.098660158e-12,1.530041969e-12,2.658332406e-12
1.1016,5.909808368e-12,5.624408329e-12,3.364294164e-12,2.351890424e-12,6.242405607e-13,9.594840467e-13,1.465696999e-12,1.044656970e-12,2.045680419e-12,3.309077064e-13,2.060746339e-13,1.078262738e-12,3.843668479e-12,8.419460182e-13,7.031630037e-13,7.561602474e-13,8.764838503e-13,1.359654382e-12,1.799813292e-12,1.305626825e-12,1.312695112e-12,2.580190852e-12,1.401674928e-12,2.853487369e-12,1.796524395e-12,1.051288494e-12,1.110147888e-12,4.171832121e-12,8.831056614e-12,8.886227146e-12,1.477451800e-12,2.641631029e-12
1.1094,5.905026781e-12,5.606127865e-12,3.386519197e-12,2.366125813e-12,6.310215156e-13,9.490296084e-13,1.505674110e-12,1.016789316e-12,2.019599921e-12,3.222836604e-13,2.092737879e-13,1.076537547e-12,3.883655829e-12,8.753586737e-13,7.222202601e-13,7.863651916e-13,8.947469804e-13,1.381929355e-12,1.805166581e-12,1.283750244e-12,1.281326959e-12,2.575670911e-12,1.391724156e-12,2.797591574e-12,1.776885621e-12,1.018176515e-12,1.067642537e-12,4.191836309e-12,8.539897092e-12,8.675154823e-12,1.428741954e-12,2.620132752e-12
1.1172,5.892083859e-12,5.582849486e-12,3.403566063e-12,2.379446927e-12,6.377839263e-13,9.372739920e-13,1.544413406e-12,9.887559620e-13,1.990606496e-12,3.145203926e-13,2.137796890e-13,1.074190498e-12,3.918377551e-12,9.090602412e-13,7.442832059e-13,8.194888267e-13,9.153253160e-13,1.405117446e-12,1.809391601e-12,1.263019662e-12,1.250924899e-12,2.567566721e-12,1.380015775e-12,2.739697728e-12,1.757407345e-12,9.861235322e-13,1.028255949e-12,4.217109419e-12,8.253105649e-12,8.466872282e-12,1.383488568e-12,2.594855333e-12
1.125,5.869414186e-12,5.552893119e-12,3.413845118e-12,2.389523224e-12,6.439233608e-13,9.240000082e-13,1.580668653e-12,9.607657111e-13,1.959056447e-12,3.075956946e-13,2.190739091e-13,1.071050214e-12,3.947280834e-12,9.425804359e-13,7.691590730e-13,8.551273505e-13,9.379284544e-13,1.428810473e-12,1.812023247e-12,1.242720758e-12,1.220776641e-12,2.555229685e-12,1.366080062e-12,2.680616239e-12,1.739215290e-12,9.548777547e-13,9.924572664e-13,4.247079725e-12,7.969505610e-12,8.260843697e-12,1.340469769e-12,2.565581725e-12
1.1328,5.836265802e-12,5.517319921e-12,3.415150397e-12,2.396600805e-12,6.490933281e-13,9.093469733e-13,1.613230446e-12,9.327800230e-13,1.924751923e-12,3.011169076e-13,2.249755239e-13,1.066491165e-12,3.969163240e-12,9.750103601e-13,7.961528856e-13,8.928612457e-13,9.621746221e-13,1.452387200e-12,1.812264447e-12,1.223024268e-12,1.190790388e-12,2.538060071e-12,1.349768826e-12,2.620396508e-12,1.722112050e-12,9.238195428e-13,9.598413173e-13,4.278512856e-12,7.689492164e-12,8.056145614e-12,1.299560312e-12,2.531537548e-12
1.1406,5.794882177e-12,5.477621108e-12,3.409381219e-12,2.402637802e-12,6.536122220e-13,8.936222690e-13,1.643101677e-12,9.048442662e-13,1.887936057e-12,2.947760219e-13,2.314744009e-13,1.060701082e-12,3.984560483e-12,1.006591376e-12,8.251053877e-13,9.325457498e-13,9.879778597e-13,1.476042024e-12,1.810458662e-12,1.204306082e-12,1.161554804e-12,2.516492301e-12,1.331468239e-12,2.558808954e-12,1.704763605e-12,8.926771573e-13,9.299848716e-13,4.309702980e-12,7.414576788e-12,7.853443345e-12,1.261348653e-12,2.493163885e-12
1.1484,5.746305915e-12,5.433783119e-12,3.398737781e-12,2.406702976e-12,6.574448404e-13,8.770702617e-13,1.670038284e-12,8.770685409e-13,1.848816038e-12,2.885928168e-13,2.384707715e-13,1.053979434e-12,3.994313374e-12,1.037750591e-12,8.570046114e-13,9.747729015e-13,1.015616253e-12,1.500197019e-12,1.807026000e-12,1.186179304e-12,1.132817003e-12,2.491009580e-12,1.311404582e-12,2.495622918e-12,1.686944376e-12,8.616609186e-13,9.027745800e-13,4.340255883e-12,7.144222130e-12,7.653009342e-12,1.225593469e-12,2.451207184e-12
1.1562,5.688963686e-12,5.385497558e-12,3.380658075e-12,2.407157670e-12,6.603678400e-13,8.595987658e-13,1.693014927e-12,8.493657346e-13,1.807531297e-12,2.826255155e-13,2.460094861e-13,1.046115683e-12,3.998213059e-12,1.068094837e-12,8.916931824e-13,1.019882890e-12,1.044975762e-12,1.524546651e-12,1.801979988e-12,1.168238550e-12,1.103947513e-12,2.461748848e-12,1.289581508e-12,2.430433741e-12,1.669148872e-12,8.311361996e-13,8.780046698e-13,4.370407098e-12,6.878107616e-12,7.454829408e-12,1.191858075e-12,2.405814716e-12
1.1641,5.623033718e-12,5.331540425e-12,3.354820489e-12,2.403683762e-12,6.620432278e-13,8.411193796e-13,1.712612107e-12,8.218309282e-13,1.764569068e-12,2.769596834e-13,2.540625407e-13,1.037110602e-12,3.995694882e-12,1.097328822e-12,9.282382449e-13,1.067390581e-12,1.075829997e-12,1.548767316e-12,1.795378462e-12,1.151064681e-12,1.075306783e-12,2.428575794e-12,1.266143930e-12,2.364054197e-12,1.651752337e-12,8.014098187e-13,8.560008804e-13,4.400662081e-12,6.618134012e-12,7.260223606e-12,1.160214583e-12,2.357321229e-12
1.1719,5.549125591e-12,5.271007886e-12,3.322233398e-12,2.396146695e-12,6.619894140e-13,8.220198673e-13,1.728554769e-12,7.946808306e-13,1.719907695e-12,2.716669305e-13,2.625927323e-13,1.026935894e-12,3.986213836e-12,1.125160569e-12,9.668999256e-13,1.116821189e-12,1.108092059e-12,1.572767897e-12,1.786975541e-12,1.135175280e-12,1.047257471e-12,2.391216528e-12,1.241183185e-12,2.297748261e-12,1.634617966e-12,7.725259312e-13,8.369481917e-13,4.430505315e-12,6.365645685e-12,7.070063302e-12,1.130751180e-12,2.305835776e-12
1.1797,5.467157017e-12,5.206200369e-12,3.281647680e-12,2.384956114e-12,6.603174919e-13,8.024270371e-13,1.739785355e-12,7.678289543e-13,1.673503960e-12,2.666236754e-13,2.717641070e-13,1.015778104e-12,3.969962975e-12,1.151580854e-12,1.007848356e-12,1.168299509e-12,1.141583872e-12,1.596581346e-12,1.776626853e-12,1.120077352e-12,1.019368785e-12,2.349961869e-12,1.214564111e-12,2.231290934e-12,1.617295037e-12,7.442536666e-13,8.205648684e-13,4.458958741e-12,6.120960882e-12,6.884360937e-12,1.103603210e-12,2.251057076e-12
1.1875,5.378874334e-12,5.138103340e-12,3.235583717e-12,2.369716093e-12,6.570265352e-13,7.821756636e-13,1.746450362e-12,7.414158869e-13,1.626268605e-12,2.618953359e-13,2.815715618e-13,1.004254236e-12,3.947138453e-12,1.176994640e-12,1.050720471e-12,1.222303585e-12,1.176040315e-12,1.619977811e-12,1.764232883e-12,1.105172583e-12,9.913218104e-13,2.305350605e-12,1.186498306e-12,2.164150143e-12,1.599817158e-12,7.166514212e-13,8.069903180e-13,4.485849398e-12,5.884722174e-12,6.703882422e-12,1.078811025e-12,2.193630260e-12
1.1953,5.284322352e-12,5.063882926e-12,3.186191705e-12,2.349611128e-12,6.518176607e-13,7.615182044e-13,1.748594182e-12,7.157404635e-13,1.578583048e-12,2.576081814e-13,2.917416924e-13,9.919216826e-13,3.916729280e-12,1.200716406e-12,1.095667382e-12,1.278677385e-12,1.210855441e-12,1.642077586e-12,1.749393534e-12,1.090385602e-12,9.632525927e-13,2.257630682e-12,1.157750930e-12,2.096860415e-12,1.582397094e-12,6.900976923e-13,7.960810140e-13,4.512372377e-12,5.656416253e-12,6.528553434e-12,1.055718852e-12,2.134568657e-12
1.2031,5.181582291e-12,4.983388214e-12,3.131835949e-12,2.325532075e-12,6.451430676e-13,7.407405539e-13,1.745986108e-12,6.904729322e-13,1.529712389e-12,2.534380429e-13,3.023049271e-13,9.776773720e-13,3.878227942e-12,1.221714369e-12,1.142860657e-12,1.336695980e-12,1.245575930e-12,1.662705260e-12,1.732438444e-12,1.075962258e-12,9.354849377e-13,2.207475117e-12,1.128967965e-12,2.029917543e-12,1.565209818e-12,6.648424091e-13,7.875214930e-13,4.539701433e-12,5.434948493e-12,6.357167384e-12,1.033759363e-12,2.073963481e-12
1.2109,5.071842279e-12,4.898861872e-12,3.073245523e-12,2.298267414e-12,6.373917419e-13,7.200873367e-13,1.739204416e-12,6.654070789e-13,1.479485470e-12,2.492416674e-13,3.137445065e-13,9.616833268e-13,3.832101230e-12,1.240151869e-12,1.192097648e-12,1.396093769e-12,1.280276510e-12,1.682192980e-12,1.713781583e-12,1.062106018e-12,9.080568979e-13,2.155331612e-12,1.100056618e-12,1.963099365e-12,1.548657488e-12,6.409819227e-13,7.816150224e-13,4.565855265e-12,5.221259019e-12,6.189678325e-12,1.013336691e-12,2.011723383e-12
1.2188,4.956589614e-12,4.809863193e-12,3.010927090e-12,2.267895400e-12,6.283124826e-13,6.999227079e-13,1.728639514e-12,6.411169396e-13,1.428532879e-12,2.453948840e-13,3.262800538e-13,9.447586706e-13,3.778199781e-12,1.256343243e-12,1.243037117e-12,1.456752476e-12,1.314644940e-12,1.699660232e-12,1.692882869e-12,1.048726278e-12,8.806416722e-13,2.100515802e-12,1.070435733e-12,1.896578495e-12,1.532606817e-12,6.183292179e-13,7.779533158e-13,4.587428302e-12,5.016662345e-12,6.026299484e-12,9.949350976e-13,1.947967103e-12
1.2266,4.835662602e-12,4.715879530e-12,2.944551884e-12,2.234330327e-12,6.178856067e-13,6.801206639e-13,1.713590490e-12,6.179783109e-13,1.377237261e-12,2.422348680e-13,3.397136479e-13,9.271069148e-13,3.716476531e-12,1.270269836e-12,1.295635823e-12,1.518492612e-12,1.348271732e-12,1.714491040e-12,1.669739914e-12,1.036001270e-12,8.534557887e-13,2.043006276e-12,1.040101875e-12,1.830914811e-12,1.516460726e-12,5.966412582e-13,7.758882862e-13,4.604597629e-12,4.821101780e-12,5.867159139e-12,9.784243092e-13,1.882809396e-12
1.2344,4.710136574e-12,4.617175355e-12,2.876465162e-12,2.196683681e-12,6.062942575e-13,6.603656744e-13,1.693091394e-12,5.959398090e-13,1.325655268e-12,2.399487802e-13,3.539067662e-13,9.085375078e-13,3.647481155e-12,1.281847431e-12,1.350080948e-12,1.581242965e-12,1.381179165e-12,1.727139246e-12,1.644751741e-12,1.024125864e-12,8.267653419e-13,1.983767562e-12,1.009733266e-12,1.765677899e-12,1.500387819e-12,5.761860312e-13,7.759666543e-13,4.618389283e-12,4.634382355e-12,5.713101414e-12,9.634858901e-13,1.816684302e-12
1.2422,4.580394440e-12,4.512965416e-12,2.807225486e-12,2.155123830e-12,5.936677570e-13,6.407209610e-13,1.667088272e-12,5.749901856e-13,1.273883728e-12,2.383946161e-13,3.685863711e-13,8.888407598e-13,3.571522740e-12,1.290531398e-12,1.405653995e-12,1.644233903e-12,1.412897799e-12,1.737272581e-12,1.617616649e-12,1.012455827e-12,8.001490148e-13,1.922993016e-12,9.797439448e-13,1.700026082e-12,1.484928632e-12,5.572447466e-13,7.780691769e-13,4.625988148e-12,4.455724569e-12,5.563261458e-12,9.498418562e-13,1.750061092e-12
1.25,4.447100722e-12,4.404843940e-12,2.736254467e-12,2.110856706e-12,5.800510634e-13,6.211481089e-13,1.636657451e-12,5.549219776e-13,1.222082447e-12,2.371207445e-13,3.834046109e-13,8.679609860e-13,3.489407809e-12,1.296058721e-12,1.461080606e-12,1.706418437e-12,1.442785909e-12,1.744477162e-12,1.588804942e-12,1.000782526e-12,7.742451897e-13,1.860980239e-12,9.503633754e-13,1.633858024e-12,1.469667295e-12,5.396566960e-13,7.809094606e-13,4.625301888e-12,4.284534416e-12,5.416210542e-12,9.374881358e-13,1.683215198e-12
1.2578,4.313149778e-12,4.295508703e-12,2.665095331e-12,2.064185128e-12,5.653694187e-13,6.016165476e-13,1.603020341e-12,5.356268770e-13,1.170382027e-12,2.359674387e-13,3.983644609e-13,8.460690994e-13,3.402288290e-12,1.299060808e-12,1.515795508e-12,1.767649412e-12,1.470825603e-12,1.749189245e-12,1.559276255e-12,9.895752708e-13,7.501849383e-13,1.798423834e-12,9.215076619e-13,1.567764267e-12,1.453834840e-12,5.233510711e-13,7.841992845e-13,4.616929788e-12,4.122281839e-12,5.272817427e-12,9.268734322e-13,1.616343331e-12
1.2656,4.177551824e-12,4.183729732e-12,2.593054272e-12,2.015241763e-12,5.497370080e-13,5.824859963e-13,1.566461899e-12,5.174398410e-13,1.118959581e-12,2.349990577e-13,4.136305640e-13,8.234891820e-13,3.310200851e-12,1.300096606e-12,1.569928455e-12,1.828200867e-12,1.496872352e-12,1.751141763e-12,1.528279118e-12,9.781521154e-13,7.263467898e-13,1.734497284e-12,8.921195820e-13,1.503233530e-12,1.437926386e-12,5.084225397e-13,7.883854593e-13,4.599348666e-12,3.969080741e-12,5.132435404e-12,9.181806284e-13,1.549375271e-12
1.2734,4.036991936e-12,4.068052808e-12,2.518135322e-12,1.963615258e-12,5.331733698e-13,5.640094414e-13,1.526646376e-12,5.004785666e-13,1.068181206e-12,2.342598757e-13,4.294048110e-13,8.005358422e-13,3.213029241e-12,1.298872089e-12,1.623601881e-12,1.887622662e-12,1.520262635e-12,1.749435367e-12,1.494566337e-12,9.659001030e-13,7.003980789e-13,1.668301636e-12,8.616735533e-13,1.441091533e-12,1.422701552e-12,4.948097280e-13,7.929756601e-13,4.571489488e-12,3.822015107e-12,4.992347877e-12,9.107426472e-13,1.482546589e-12
1.2812,3.893802831e-12,3.949977108e-12,2.442228229e-12,1.908560382e-12,5.154827206e-13,5.462386106e-13,1.483576797e-12,4.845569306e-13,1.018353898e-12,2.336646188e-13,4.453065696e-13,7.770958414e-13,3.111765373e-12,1.294586972e-12,1.675519635e-12,1.944392400e-12,1.540444837e-12,1.744041374e-12,1.458653242e-12,9.537008736e-13,6.734988321e-13,1.600987052e-12,8.311802364e-13,1.380285739e-12,1.407006616e-12,4.824787003e-13,7.967468554e-13,4.534594063e-12,3.679697432e-12,4.852419539e-12,9.037923399e-13,1.416620812e-12
1.2891,3.750758832e-12,3.830044532e-12,2.367231433e-12,1.850923569e-12,4.968471414e-13,5.292695135e-13,1.437340663e-12,4.695867345e-13,9.694140165e-13,2.327535868e-13,4.601414383e-13,7.528135873e-13,3.007391585e-12,1.287079405e-12,1.723873599e-12,1.997528742e-12,1.557669211e-12,1.735866564e-12,1.421910214e-12,9.418731549e-13,6.477780588e-13,1.533781027e-12,8.012810663e-13,1.320684659e-12,1.389423896e-12,4.716244683e-13,7.992834531e-13,4.487932166e-12,3.542945720e-12,4.713536136e-12,8.974545412e-13,1.351865738e-12
1.2969,3.606910294e-12,3.708301748e-12,2.291903867e-12,1.791606499e-12,4.775627636e-13,5.130122500e-13,1.387837552e-12,4.554864358e-13,9.213109079e-13,2.313851242e-13,4.736308256e-13,7.278806634e-13,2.900426155e-12,1.277114046e-12,1.769061252e-12,2.047779836e-12,1.572671493e-12,1.725761525e-12,1.384814898e-12,9.299396140e-13,6.230821436e-13,1.466696714e-12,7.718031919e-13,1.263434127e-12,1.370836206e-12,4.623792891e-13,8.014073009e-13,4.432598608e-12,3.411909133e-12,4.575648340e-12,8.922838975e-13,1.288199103e-12
1.3047,3.464266585e-12,3.586830359e-12,2.218511910e-12,1.730678408e-12,4.577446634e-13,4.973629996e-13,1.335267715e-12,4.423569044e-13,8.743682355e-13,2.299497704e-13,4.864856678e-13,7.027380384e-13,2.791799424e-12,1.265160269e-12,1.811712445e-12,2.095476245e-12,1.585422319e-12,1.713772827e-12,1.347166612e-12,9.181508537e-13,5.993029859e-13,1.399931541e-12,7.430803717e-13,1.208371022e-12,1.352490877e-12,4.546488958e-13,8.037133860e-13,4.372121063e-12,3.286482322e-12,4.439764937e-12,8.882537434e-13,1.226092281e-12
1.3125,3.325362591e-12,3.466668957e-12,2.151134479e-12,1.668847837e-12,4.377272859e-13,4.824593290e-13,1.280087265e-12,4.303150535e-13,8.288144403e-13,2.283025670e-13,4.986978307e-13,6.772897881e-13,2.682426394e-12,1.251155002e-12,1.850940677e-12,2.140050478e-12,1.595469881e-12,1.699706111e-12,1.309023680e-12,9.066985227e-13,5.770686895e-13,1.334135663e-12,7.155396994e-13,1.155106470e-12,1.333832178e-12,4.486014392e-13,8.061154540e-13,4.305844549e-12,3.166616314e-12,4.306423513e-12,8.851008292e-13,1.166161981e-12
1.3203,3.187997098e-12,3.347139739e-12,2.087145619e-12,1.606331488e-12,4.177748146e-13,4.682973023e-13,1.223277201e-12,4.189826929e-13,7.846862384e-13,2.261153085e-13,5.100637249e-13,6.514228265e-13,2.572456019e-12,1.235343103e-12,1.887297219e-12,2.182123014e-12,1.602999173e-12,1.683739170e-12,1.270466058e-12,8.952874570e-13,5.556804712e-13,1.269578374e-12,6.890648805e-13,1.103661097e-12,1.314094604e-12,4.445685711e-13,8.087548464e-13,4.234182844e-12,3.051368032e-12,4.174560919e-12,8.827898704e-13,1.108622588e-12
1.3281,3.051416547e-12,3.228697678e-12,2.024385529e-12,1.542624722e-12,3.977489653e-13,4.548944065e-13,1.166062236e-12,4.082031333e-13,7.423040739e-13,2.237043461e-13,5.207562802e-13,6.255269894e-13,2.461854984e-12,1.217916285e-12,1.922001098e-12,2.222108638e-12,1.608046535e-12,1.665734503e-12,1.231233425e-12,8.838877227e-13,5.344326119e-13,1.206179194e-12,6.634696423e-13,1.053456888e-12,1.293370098e-12,4.422732430e-13,8.117784741e-13,4.160741435e-12,2.940069400e-12,4.044105171e-12,8.810989794e-13,1.053602267e-12
1.3359,2.917585149e-12,3.111924408e-12,1.965883901e-12,1.478611247e-12,3.775869783e-13,4.426889282e-13,1.108077906e-12,3.983485709e-13,7.017835323e-13,2.212336451e-13,5.306462138e-13,5.998222352e-13,2.350984855e-12,1.198601421e-12,1.954058623e-12,2.258718759e-12,1.610169183e-12,1.645314357e-12,1.191325172e-12,8.724812390e-13,5.136945875e-13,1.143887777e-12,6.384450758e-13,1.004661411e-12,1.271895677e-12,4.412474014e-13,8.153746098e-13,4.084292351e-12,2.833426188e-12,3.915904164e-12,8.800034061e-13,1.001231777e-12
1.3438,2.786329276e-12,2.996802998e-12,1.910827374e-12,1.415728525e-12,3.575556278e-13,4.318155842e-13,1.048132003e-12,3.892805889e-13,6.626413751e-13,2.185032186e-13,5.397949951e-13,5.743084258e-13,2.240561385e-12,1.177618220e-12,1.982333299e-12,2.291205076e-12,1.609417937e-12,1.622803877e-12,1.151061777e-12,8.610758445e-13,4.932648138e-13,1.082601657e-12,6.135710105e-13,9.579606247e-13,1.250550289e-12,4.414443186e-13,8.202679726e-13,4.003213092e-12,2.731985716e-12,3.789908406e-12,8.800474888e-13,9.512008129e-13
1.3516,2.657810070e-12,2.884125926e-12,1.857771574e-12,1.353908791e-12,3.380647096e-13,4.218034039e-13,9.871299092e-13,3.806164314e-13,6.247400380e-13,2.156878229e-13,5.485612725e-13,5.492650490e-13,2.131404271e-12,1.155796061e-12,2.007338985e-12,2.319943649e-12,1.606224276e-12,1.598848678e-12,1.110608058e-12,8.499837804e-13,4.730190435e-13,1.022503574e-12,5.892217202e-13,9.133941629e-13,1.230114345e-12,4.427910694e-13,8.264564234e-13,3.920211750e-12,2.634823957e-12,3.665667985e-12,8.813496606e-13,9.031229180e-13
1.3594,2.533575001e-12,2.774285742e-12,1.809378702e-12,1.292549672e-12,3.194284196e-13,4.124520683e-13,9.275511651e-13,3.725867287e-13,5.886084462e-13,2.130264319e-13,5.566805744e-13,5.247452546e-13,2.024149599e-12,1.133282859e-12,2.029665144e-12,2.345186900e-12,1.600785525e-12,1.573702149e-12,1.070377476e-12,8.391874165e-13,4.540283121e-13,9.646505118e-13,5.663959710e-13,8.715337906e-13,1.209085350e-12,4.451608886e-13,8.327662295e-13,3.836650787e-12,2.540925799e-12,3.543369756e-12,8.832915230e-13,8.575088183e-13
1.3672,2.413960367e-12,2.666988273e-12,1.765384520e-12,1.231948840e-12,3.016437809e-13,4.038949985e-13,8.706398249e-13,3.653606426e-13,5.547250838e-13,2.103045357e-13,5.636037896e-13,5.006103865e-13,1.919376498e-12,1.109769200e-12,2.049283587e-12,2.367457643e-12,1.592888883e-12,1.547434378e-12,1.031066198e-12,8.282947305e-13,4.369630656e-13,9.098619027e-13,5.451459103e-13,8.329804097e-13,1.186195677e-12,4.484022813e-13,8.388144370e-13,3.752459235e-12,2.450405948e-12,3.423652775e-12,8.853817693e-13,8.152239466e-13
1.375,2.299374097e-12,2.562666613e-12,1.723984160e-12,1.172485245e-12,2.845283377e-13,3.961450389e-13,8.158953702e-13,3.586697787e-13,5.231727017e-13,2.073383005e-13,5.694977558e-13,4.772095392e-13,1.817312791e-12,1.085569082e-12,2.066438807e-12,2.387149978e-12,1.581750119e-12,1.519702171e-12,9.924824669e-13,8.170878853e-13,4.212483915e-13,8.575660974e-13,5.246067102e-13,7.970492752e-13,1.163343907e-12,4.520841642e-13,8.451832189e-13,3.666452395e-12,2.363337969e-12,3.306389989e-12,8.877119577e-13,7.763352227e-13
1.3828,2.189670870e-12,2.461398616e-12,1.685322758e-12,1.114262673e-12,2.680862825e-13,3.893018255e-13,7.627616612e-13,3.524054892e-13,4.935524283e-13,2.043651822e-13,5.747912237e-13,4.546404638e-13,1.717298365e-12,1.060666164e-12,2.080979575e-12,2.403063837e-12,1.566639919e-12,1.489421821e-12,9.536664070e-13,8.053686298e-13,4.062201523e-13,8.070354956e-13,5.045656813e-13,7.630180861e-13,1.141599531e-12,4.560675666e-13,8.514144553e-13,3.575150059e-12,2.278828135e-12,3.189696887e-12,8.907346329e-13,7.404076444e-13
1.3906,2.083230835e-12,2.362684041e-12,1.648692852e-12,1.057920634e-12,2.524975790e-13,3.834575084e-13,7.114244879e-13,3.466315572e-13,4.653591396e-13,2.015384694e-13,5.790045427e-13,4.324265796e-13,1.618864318e-12,1.034306595e-12,2.090900131e-12,2.413252622e-12,1.547693254e-12,1.456027739e-12,9.145935275e-13,7.930443039e-13,3.922534480e-13,7.582423847e-13,4.852548451e-13,7.313963174e-13,1.119010709e-12,4.605107895e-13,8.563235647e-13,3.477054457e-12,2.195745091e-12,3.071427845e-12,8.946055017e-13,7.069620297e-13
1.3984,1.980272657e-12,2.266760126e-12,1.613988542e-12,1.003794117e-12,2.378749626e-13,3.784449710e-13,6.620390990e-13,3.412923292e-13,4.385970195e-13,1.986552412e-13,5.815916782e-13,4.106401942e-13,1.522678114e-12,1.006760791e-12,2.095048980e-12,2.417139832e-12,1.525408383e-12,1.420392917e-12,8.761090256e-13,7.804016995e-13,3.800551143e-13,7.112744903e-13,4.665520860e-13,7.029822323e-13,1.095021605e-12,4.652882455e-13,8.597920704e-13,3.373036824e-12,2.113812442e-12,2.951900119e-12,8.991070100e-13,6.755635979e-13
1.4062,1.882500725e-12,2.173962860e-12,1.581919448e-12,9.513131687e-13,2.242949806e-13,3.741053582e-13,6.147556746e-13,3.363239037e-13,4.135508911e-13,1.956973073e-13,5.830815292e-13,3.897568628e-13,1.429567982e-12,9.790734541e-13,2.095375864e-12,2.415850101e-12,1.500248416e-12,1.383546784e-12,8.385654329e-13,7.675495246e-13,3.695347389e-13,6.666242903e-13,4.489777244e-13,6.777824491e-13,1.071096856e-12,4.704829288e-13,8.621208487e-13,3.265011538e-12,2.033841534e-12,2.833309915e-12,9.041738311e-13,6.463723070e-13
1.4141,1.789898285e-12,2.084235483e-12,1.551502047e-12,9.004409198e-13,2.118823858e-13,3.704708453e-13,5.700851893e-13,3.319061461e-13,3.904702306e-13,1.928439326e-13,5.835543791e-13,3.697923353e-13,1.339978446e-12,9.512773570e-13,2.092684203e-12,2.411002262e-12,1.473071057e-12,1.345975722e-12,8.021103200e-13,7.543670140e-13,3.606547284e-13,6.250727973e-13,4.334212673e-13,6.564143893e-13,1.047276894e-12,4.763964417e-13,8.629901653e-13,3.155890276e-12,1.956458058e-12,2.716889271e-12,9.095527403e-13,6.200771187e-13
1.4219,1.701559562e-12,1.997592295e-12,1.521276835e-12,8.516288380e-13,2.005473600e-13,3.677937602e-13,5.280781164e-13,3.282385992e-13,3.694524374e-13,1.898827966e-13,5.822431347e-13,3.506155366e-13,1.254183989e-12,9.231102853e-13,2.085698667e-12,2.403507257e-12,1.444470084e-12,1.308245509e-12,7.669523672e-13,7.410746026e-13,3.534439873e-13,5.864986966e-13,4.193875134e-13,6.400601364e-13,1.023154079e-12,4.829038525e-13,8.621708118e-13,3.045686096e-12,1.881212444e-12,2.602536615e-12,9.148091549e-13,5.970111107e-13
1.4297,1.617632656e-12,1.913988906e-12,1.491507199e-12,8.045620821e-13,1.898788341e-13,3.661790356e-13,4.883120055e-13,3.249709169e-13,3.500231209e-13,1.864424641e-13,5.793381081e-13,3.322175433e-13,1.171896370e-12,8.949631936e-13,2.074893092e-12,2.392757092e-12,1.413854099e-12,1.270301617e-12,7.326444998e-13,7.277780145e-13,3.475170621e-13,5.501681755e-13,4.059807534e-13,6.268965529e-13,9.995896972e-13,4.897951724e-13,8.595846149e-13,2.933264518e-12,1.807424837e-12,2.489713841e-12,9.200321510e-13,5.766527259e-13
1.4375,1.538418035e-12,1.833122920e-12,1.464206589e-12,7.587791290e-13,1.796735946e-13,3.651426304e-13,4.507464950e-13,3.216338652e-13,3.315849254e-13,1.825687366e-13,5.754765757e-13,3.145376862e-13,1.092471323e-12,8.668683266e-13,2.060238263e-12,2.376626625e-12,1.380366764e-12,1.231036124e-12,6.986598044e-13,7.141224874e-13,3.433661041e-13,5.158508750e-13,3.935234083e-13,6.139818804e-13,9.766736447e-13,4.969708746e-13,8.548747304e-13,2.819835342e-12,1.734722945e-12,2.377616933e-12,9.250789241e-13,5.580457719e-13
1.4453,1.463097917e-12,1.754750554e-12,1.439557956e-12,7.147467042e-13,1.702229493e-13,3.644244172e-13,4.155627020e-13,3.184607465e-13,3.143515768e-13,1.784814438e-13,5.704452367e-13,2.976499458e-13,1.015932916e-12,8.384552406e-13,2.039545469e-12,2.353236852e-12,1.344074812e-12,1.190070274e-12,6.652721434e-13,6.999909283e-13,3.413512523e-13,4.838228832e-13,3.824580178e-13,6.025033785e-13,9.532884562e-13,5.042735902e-13,8.478346202e-13,2.705739551e-12,1.662962097e-12,2.266173592e-12,9.292819480e-13,5.409440735e-13
1.4531,1.391585401e-12,1.679747069e-12,1.415224109e-12,6.735005823e-13,1.618017261e-13,3.645451227e-13,3.828270739e-13,3.158464831e-13,2.989219942e-13,1.741579708e-13,5.638444417e-13,2.818601038e-13,9.431677163e-13,8.100208678e-13,2.013102279e-12,2.323721568e-12,1.306327185e-12,1.148756274e-12,6.334014952e-13,6.857331890e-13,3.406195126e-13,4.545419678e-13,3.726900246e-13,5.947917325e-13,9.293365451e-13,5.117592854e-13,8.386801533e-13,2.592728340e-12,1.592683284e-12,2.156856206e-12,9.329333294e-13,5.259613891e-13
1.4609,1.325144290e-12,1.609609073e-12,1.390233191e-12,6.353584459e-13,1.543315183e-13,3.657182672e-13,3.525209389e-13,3.136206990e-13,2.853409034e-13,1.694638781e-13,5.556218153e-13,2.673554277e-13,8.749963213e-13,7.821935282e-13,1.983326560e-12,2.291732530e-12,1.269358203e-12,1.108889371e-12,6.040926122e-13,6.717906326e-13,3.413900859e-13,4.282709500e-13,3.641363810e-13,5.903680536e-13,9.056385340e-13,5.195034647e-13,8.279194656e-13,2.485601800e-12,1.524882804e-12,2.051607325e-12,9.370817322e-13,5.132409413e-13
1.4688,1.263472158e-12,1.544551034e-12,1.364177234e-12,5.996059535e-13,1.475948452e-13,3.675470684e-13,3.244862100e-13,3.114368209e-13,2.731930319e-13,1.644089377e-13,5.461111177e-13,2.539839128e-13,8.113374203e-13,7.550784289e-13,1.950559910e-12,2.258500764e-12,1.233889670e-12,1.071094490e-12,5.774009430e-13,6.583643795e-13,3.441741633e-13,4.045696999e-13,3.563148276e-13,5.881234833e-13,8.823893158e-13,5.273234882e-13,8.158658865e-13,2.385168495e-12,1.459889265e-12,1.951130024e-12,9.421178796e-13,5.021415753e-13
1.4766,1.205752111e-12,1.484441286e-12,1.336488743e-12,5.659302992e-13,1.414318147e-13,3.698872126e-13,2.985400038e-13,3.092150609e-13,2.621693673e-13,1.591635307e-13,5.360066238e-13,2.415464414e-13,7.515167255e-13,7.284623752e-13,1.914217257e-12,2.221548849e-12,1.197908413e-12,1.034492374e-12,5.523879034e-13,6.454164810e-13,3.485388109e-13,3.829126100e-13,3.489004832e-13,5.876097103e-13,8.594576107e-13,5.350127516e-13,8.024707494e-13,2.289148770e-12,1.397435684e-12,1.854801581e-12,9.478849326e-13,4.922314795e-13
1.4844,1.152647111e-12,1.429342649e-12,1.308167592e-12,5.346729667e-13,1.358334396e-13,3.727373221e-13,2.746492363e-13,3.069931730e-13,2.521506618e-13,1.539086488e-13,5.256003515e-13,2.299703983e-13,6.949506556e-13,7.021251487e-13,1.874676961e-12,2.179385359e-12,1.159618929e-12,9.978489794e-13,5.286150894e-13,6.329625022e-13,3.551594819e-13,3.634758680e-13,3.425756915e-13,5.893048715e-13,8.368062759e-13,5.423082072e-13,7.881495686e-13,2.197636954e-12,1.337570254e-12,1.762327216e-12,9.539517963e-13,4.834613287e-13
1.4922,1.103296035e-12,1.377780227e-12,1.279490347e-12,5.056817872e-13,1.309009287e-13,3.758465431e-13,2.530136827e-13,3.047130642e-13,2.430827395e-13,1.486433063e-13,5.145257191e-13,2.191342678e-13,6.411928895e-13,6.757280257e-13,1.831790112e-12,2.132100905e-12,1.119118513e-12,9.604627541e-13,5.060249041e-13,6.207484397e-13,3.641600989e-13,3.463488697e-13,3.375489587e-13,5.945482104e-13,8.142478744e-13,5.488988546e-13,7.733690985e-13,2.110552300e-12,1.280096190e-12,1.673594025e-12,9.596032468e-13,4.757436722e-13
1.5,1.056029337e-12,1.328727327e-12,1.249915776e-12,4.787626926e-13,1.266859586e-13,3.791623834e-13,2.337528589e-13,3.023630839e-13,2.350997533e-13,1.432814183e-13,5.027589253e-13,2.091474080e-13,5.901586737e-13,6.492281564e-13,1.785118176e-12,2.079112891e-12,1.077084666e-12,9.221744809e-13,4.845226687e-13,6.084085196e-13,3.743528668e-13,3.312149622e-13,3.331930634e-13,6.028268815e-13,7.917174663e-13,5.546511210e-13,7.577178230e-13,2.027104321e-12,1.224230603e-12,1.587785846e-12,9.646536075e-13,4.691314906e-13
1.5078,1.011715671e-12,1.283310879e-12,1.219786829e-12,4.540122452e-13,1.231456168e-13,3.829718420e-13,2.164584789e-13,3.000485252e-13,2.283461471e-13,1.380259307e-13,4.911077959e-13,2.004779798e-13,5.423261504e-13,6.234099112e-13,1.736282102e-12,2.022023535e-12,1.034818596e-12,8.838300602e-13,4.646907695e-13,5.964184883e-13,3.863251656e-13,3.181178369e-13,3.294627622e-13,6.125047730e-13,7.695423150e-13,5.595551547e-13,7.413548405e-13,1.948864411e-12,1.170275361e-12,1.505569173e-12,9.697420104e-13,4.638550554e-13
1.5156,9.711607344e-13,1.241789282e-12,1.189210037e-12,4.311269223e-13,1.200818996e-13,3.873410974e-13,2.006378923e-13,2.976823220e-13,2.225599969e-13,1.332013506e-13,4.802795594e-13,1.931927530e-13,4.978357299e-13,5.990458270e-13,1.687717352e-12,1.964412476e-12,9.936244463e-13,8.467075385e-13,4.469307236e-13,5.852794409e-13,4.005266814e-13,3.069705828e-13,3.263858195e-13,6.242573784e-13,7.484602019e-13,5.635990469e-13,7.255115323e-13,1.877553684e-12,1.119302993e-12,1.428830267e-12,9.753771651e-13,4.597369865e-13
1.5234,9.332890194e-13,1.203399008e-12,1.158565304e-12,4.102490788e-13,1.173517294e-13,3.920580178e-13,1.863290456e-13,2.950742593e-13,2.172910021e-13,1.287370857e-13,4.702950029e-13,1.867845507e-13,4.561369641e-13,5.758701488e-13,1.639618178e-12,1.906830355e-12,9.532836637e-13,8.109098530e-13,4.308891786e-13,5.747840318e-13,4.161609334e-13,2.973873355e-13,3.238243677e-13,6.391426472e-13,7.291078527e-13,5.666390126e-13,7.105140075e-13,1.811854854e-12,1.070931553e-12,1.356874982e-12,9.814908749e-13,4.562396300e-13
1.5312,8.976164533e-13,1.168622708e-12,1.127861424e-12,3.921616702e-13,1.153029848e-13,3.971323398e-13,1.739724506e-13,2.922718394e-13,2.122976890e-13,1.244160574e-13,4.609283545e-13,1.809165047e-13,4.170838992e-13,5.534329953e-13,1.591335614e-12,1.848327631e-12,9.136627554e-13,7.761653950e-13,4.167479417e-13,5.652509585e-13,4.345445128e-13,2.896918843e-13,3.223800377e-13,6.563806680e-13,7.114382060e-13,5.684530465e-13,6.958220826e-13,1.749836962e-12,1.024436937e-12,1.288158702e-12,9.881072330e-13,4.530826479e-13
1.5391,8.646121692e-13,1.137746917e-12,1.095913458e-12,3.764627401e-13,1.142548819e-13,4.025771826e-13,1.638876485e-13,2.893563238e-13,2.075941126e-13,1.202919601e-13,4.517898478e-13,1.756548414e-13,3.809719859e-13,5.319703312e-13,1.543247468e-12,1.789092562e-12,8.753584126e-13,7.428292305e-13,4.046330392e-13,5.570058195e-13,4.565610802e-13,2.841455389e-13,3.222007699e-13,6.755948175e-13,6.952243190e-13,5.689027191e-13,6.814111297e-13,1.692715237e-12,9.805018033e-13,1.223821652e-12,9.953269439e-13,4.500790422e-13
1.5469,8.341783066e-13,1.109464535e-12,1.063050878e-12,3.618958884e-13,1.138497292e-13,4.080042035e-13,1.556675272e-13,2.863813437e-13,2.034576086e-13,1.163997246e-13,4.424699448e-13,1.711772107e-13,3.474632770e-13,5.114634191e-13,1.494821688e-12,1.727623127e-12,8.375673008e-13,7.103017843e-13,3.934907055e-13,5.490841202e-13,4.799472861e-13,2.801922125e-13,3.225672442e-13,6.974580872e-13,6.801093775e-13,5.676991352e-13,6.670638223e-13,1.642050199e-12,9.394955027e-13,1.164701050e-12,1.002375125e-12,4.470216433e-13
1.5547,8.054895757e-13,1.082271419e-12,1.030474353e-12,3.483628504e-13,1.138272883e-13,4.132712268e-13,1.486118979e-13,2.836001994e-13,2.001631847e-13,1.126306596e-13,4.330805909e-13,1.675444362e-13,3.159994403e-13,4.913341235e-13,1.444759838e-12,1.661908848e-12,7.991588223e-13,6.772237244e-13,3.826438900e-13,5.406157722e-13,5.035092029e-13,2.776791541e-13,3.235139246e-13,7.218104342e-13,6.653369392e-13,5.646172351e-13,6.519439916e-13,1.595894440e-12,9.005469155e-13,1.109308634e-12,1.008221293e-12,4.441727342e-13
1.5625,7.778283746e-13,1.055785705e-12,9.981975412e-13,3.364705195e-13,1.144607468e-13,4.187889560e-13,1.427880902e-13,2.811480415e-13,1.976358636e-13,1.089853641e-13,4.239612491e-13,1.645924498e-13,2.866980072e-13,4.715057655e-13,1.393472143e-12,1.593253439e-12,7.606377581e-13,6.436452683e-13,3.727564920e-13,5.317950041e-13,5.282635774e-13,2.769048972e-13,3.254011117e-13,7.475468614e-13,6.511113004e-13,5.601287919e-13,6.358858916e-13,1.553146882e-12,8.630296910e-13,1.056854394e-12,1.013212239e-12,4.419373781e-13
1.5703,7.507787072e-13,1.030770960e-12,9.658540172e-13,3.261861638e-13,1.158759192e-13,4.247298676e-13,1.386274798e-13,2.787892580e-13,1.955543816e-13,1.055119508e-13,4.151972967e-13,1.620179992e-13,2.598276162e-13,4.522592929e-13,1.342238708e-12,1.524250943e-12,7.227783247e-13,6.105779030e-13,3.646705966e-13,5.230768622e-13,5.548640383e-13,2.779152868e-13,3.281829144e-13,7.740291481e-13,6.386614307e-13,5.548879564e-13,6.195373793e-13,1.515577069e-12,8.270633434e-13,1.007732225e-12,1.018445921e-12,4.402464719e-13
1.5781,7.241263221e-13,1.008102122e-12,9.324978184e-13,3.173479870e-13,1.180741624e-13,4.308589564e-13,1.361774496e-13,2.763182002e-13,1.935986310e-13,1.021706530e-13,4.066979056e-13,1.595665712e-13,2.354021476e-13,4.335477069e-13,1.291608505e-12,1.455928819e-12,6.861274111e-13,5.787615985e-13,3.586726638e-13,5.148457800e-13,5.834002127e-13,2.807460181e-13,3.320402715e-13,8.012292895e-13,6.283398006e-13,5.489547559e-13,6.032967518e-13,1.482132247e-12,7.930283238e-13,9.618556810e-13,1.024190056e-12,4.387414676e-13
1.5859,6.985994367e-13,9.881100515e-13,8.978028533e-13,3.101484226e-13,1.210617945e-13,4.370206382e-13,1.353146054e-13,2.737978450e-13,1.917171891e-13,9.891085737e-14,3.984524781e-13,1.572528588e-13,2.134791246e-13,4.154932213e-13,1.241960342e-12,1.388225554e-12,6.514534766e-13,5.487937508e-13,3.544761824e-13,5.072098386e-13,6.133130080e-13,2.852272552e-13,3.368763379e-13,8.286956655e-13,6.192920845e-13,5.422047436e-13,5.869594058e-13,1.450087949e-12,7.610746982e-13,9.191167833e-13,1.030207626e-12,4.371314781e-13
1.5938,6.749497485e-13,9.707437140e-13,8.630030422e-13,3.045237152e-13,1.245765852e-13,4.431560526e-13,1.358629373e-13,2.713244347e-13,1.901277403e-13,9.574421409e-14,3.908489457e-13,1.553245277e-13,1.938903186e-13,3.983747889e-13,1.193643170e-12,1.320886497e-12,6.186932689e-13,5.206418848e-13,3.514803958e-13,5.000425919e-13,6.440806357e-13,2.910476376e-13,3.422875059e-13,8.558849285e-13,6.106316308e-13,5.347674267e-13,5.699895676e-13,1.420616105e-12,7.307661715e-13,8.794469924e-13,1.036439281e-12,4.354177524e-13
1.6016,6.522101393e-13,9.552538764e-13,8.283332154e-13,3.000921928e-13,1.284709721e-13,4.491428554e-13,1.376702567e-13,2.688499319e-13,1.888140433e-13,9.268549011e-14,3.842234412e-13,1.538389337e-13,1.760698076e-13,3.819332337e-13,1.146636930e-12,1.253917498e-12,5.873802318e-13,4.935304640e-13,3.492827053e-13,4.933896186e-13,6.762972747e-13,2.980797800e-13,3.483718359e-13,8.831413778e-13,6.028232491e-13,5.267172396e-13,5.520808998e-13,1.395313431e-12,7.016498721e-13,8.423725100e-13,1.042667625e-12,4.336593945e-13
1.6094,6.293705218e-13,9.405997798e-13,7.938417358e-13,2.966893831e-13,1.328280366e-13,4.548716319e-13,1.406825274e-13,2.663263912e-13,1.875124582e-13,8.969766434e-14,3.783224266e-13,1.525969979e-13,1.596079816e-13,3.658258309e-13,1.100995429e-12,1.187493024e-12,5.576768339e-13,4.670795188e-13,3.477739318e-13,4.872057269e-13,7.099708205e-13,3.060550059e-13,3.551283697e-13,9.111986209e-13,5.970001396e-13,5.179357821e-13,5.333301881e-13,1.372644667e-12,6.736471889e-13,8.077275784e-13,1.048568542e-12,4.315918817e-13
1.6172,6.069464615e-13,9.267800408e-13,7.608824780e-13,2.943844755e-13,1.376795616e-13,4.604012208e-13,1.448366747e-13,2.638534007e-13,1.861452497e-13,8.684094970e-14,3.729311955e-13,1.514687967e-13,1.444753133e-13,3.502241410e-13,1.057212640e-12,1.122227997e-12,5.296231260e-13,4.414647860e-13,3.469638597e-13,4.812736198e-13,7.441462219e-13,3.149290547e-13,3.624153252e-13,9.404855677e-13,5.925715985e-13,5.084682455e-13,5.137990677e-13,1.352156671e-12,6.465707962e-13,7.753931365e-13,1.054092834e-12,4.291151817e-13
1.625,5.854836594e-13,9.141608364e-13,7.292994130e-13,2.929526720e-13,1.430575368e-13,4.657599647e-13,1.502085769e-13,2.614386183e-13,1.847647401e-13,8.428157651e-14,3.682604285e-13,1.505157669e-13,1.307775936e-13,3.355137013e-13,1.016244772e-12,1.059579071e-12,5.032536628e-13,4.169379446e-13,3.468198989e-13,4.753084968e-13,7.786575292e-13,3.249300304e-13,3.705742107e-13,9.706269979e-13,5.888417337e-13,4.985772164e-13,4.937914722e-13,1.335443580e-12,6.205000265e-13,7.452200210e-13,1.059210596e-12,4.265050897e-13
1.6328,5.649334994e-13,9.022117963e-13,6.980598220e-13,2.919680173e-13,1.487866980e-13,4.707094081e-13,1.567637005e-13,2.588692869e-13,1.834842548e-13,8.206912357e-14,3.646278582e-13,1.499563126e-13,1.186392140e-13,3.220363083e-13,9.789796623e-13,1.000094664e-12,4.790538559e-13,3.939109436e-13,3.472850431e-13,4.689713184e-13,8.139670959e-13,3.359342262e-13,3.797930542e-13,1.000017153e-12,5.870254412e-13,4.883218124e-13,4.740127523e-13,1.322531635e-12,5.961676351e-13,7.180341551e-13,1.063830809e-12,4.238638888e-13
1.6406,5.453543578e-13,8.909021267e-13,6.680085985e-13,2.916552376e-13,1.547809977e-13,4.751906271e-13,1.642079569e-13,2.561000152e-13,1.824596787e-13,8.019637828e-14,3.621915589e-13,1.499083881e-13,1.081474419e-13,3.099635918e-13,9.452821959e-13,9.429741000e-13,4.572682631e-13,3.727753525e-13,3.486554977e-13,4.628378269e-13,8.508382970e-13,3.479924773e-13,3.899143308e-13,1.027463833e-12,5.875078532e-13,4.775627617e-13,4.546826268e-13,1.312298787e-12,5.738615787e-13,6.943258213e-13,1.068180868e-12,4.211341566e-13
1.6484,5.270323481e-13,8.813041295e-13,6.397127574e-13,2.925084886e-13,1.614325742e-13,4.794863637e-13,1.725796497e-13,2.533954019e-13,1.816479347e-13,7.868600987e-14,3.607464074e-13,1.502398990e-13,9.926793904e-14,2.992545096e-13,9.145245938e-13,8.883954064e-13,4.379145183e-13,3.536260641e-13,3.512168169e-13,4.581906364e-13,8.898542467e-13,3.612806280e-13,4.008421227e-13,1.054150935e-12,5.895640685e-13,4.662712545e-13,4.355970856e-13,1.304004053e-12,5.531467327e-13,6.732162931e-13,1.072502945e-12,4.182907632e-13
1.6562,5.099920606e-13,8.731553612e-13,6.119804105e-13,2.942643164e-13,1.688339528e-13,4.837629629e-13,1.820594224e-13,2.510179494e-13,1.810214785e-13,7.752157061e-14,3.601482681e-13,1.508745780e-13,9.177627491e-14,2.897109110e-13,8.865844136e-13,8.368446093e-13,4.207276361e-13,3.362332117e-13,3.544397884e-13,4.550390988e-13,9.300631323e-13,3.754350179e-13,4.124032233e-13,1.082328527e-12,5.933312207e-13,4.544772852e-13,4.166450978e-13,1.297165528e-12,5.337451999e-13,6.542758676e-13,1.076463414e-12,4.154928605e-13
1.6641,4.936399983e-13,8.647233969e-13,5.846660267e-13,2.963769582e-13,1.766607056e-13,4.881098049e-13,1.925859379e-13,2.490266411e-13,1.807293346e-13,7.673057193e-14,3.605238654e-13,1.517454834e-13,8.530260580e-14,2.808675440e-13,8.610249655e-13,7.875775407e-13,4.050968123e-13,3.200751956e-13,3.575552747e-13,4.523364537e-13,9.701155762e-13,3.901149557e-13,4.244490849e-13,1.112264393e-12,5.986650356e-13,4.423088845e-13,3.975698828e-13,1.292360348e-12,5.153722451e-13,6.375000351e-13,1.079633152e-12,4.131983663e-13
1.6719,4.776796933e-13,8.553015556e-13,5.594612199e-13,2.986307830e-13,1.847064956e-13,4.924790776e-13,2.040926346e-13,2.471957663e-13,1.807018322e-13,7.628727530e-14,3.617284370e-13,1.526297559e-13,7.962691019e-14,2.724395197e-13,8.370911380e-13,7.402260433e-13,3.908497047e-13,3.047943481e-13,3.604077261e-13,4.494581004e-13,1.009756648e-12,4.051447037e-13,4.368784672e-13,1.141580395e-12,6.052724923e-13,4.299679001e-13,3.784596920e-13,1.289491257e-12,4.977543076e-13,6.223641091e-13,1.082133224e-12,4.114386220e-13
1.6797,4.623170057e-13,8.449175328e-13,5.368134858e-13,3.008539389e-13,1.928243577e-13,4.963732162e-13,2.161783231e-13,2.451666731e-13,1.807605026e-13,7.605662377e-14,3.637502603e-13,1.535182915e-13,7.477899601e-14,2.646877239e-13,8.149764120e-13,6.944582420e-13,3.774936035e-13,2.901833829e-13,3.630392292e-13,4.458437258e-13,1.049136889e-12,4.204363639e-13,4.495487531e-13,1.168145873e-12,6.132784641e-13,4.174187190e-13,3.598149256e-13,1.286347981e-12,4.811186116e-13,6.087425257e-13,1.084029963e-12,4.097557026e-13
1.6875,4.469224724e-13,8.330749278e-13,5.152244612e-13,3.027551269e-13,2.010038043e-13,4.994234989e-13,2.282063693e-13,2.428744700e-13,1.809363517e-13,7.600151619e-14,3.668578115e-13,1.545387715e-13,7.070515779e-14,2.576053476e-13,7.950096423e-13,6.492554536e-13,3.642087535e-13,2.757918003e-13,3.653431032e-13,4.411093293e-13,1.088343695e-12,4.362140464e-13,4.624059214e-13,1.192202055e-12,6.220317167e-13,4.045585536e-13,3.413774755e-13,1.282651212e-12,4.652220394e-13,5.963149151e-13,1.084828815e-12,4.081436278e-13
