Time,Fp1,AF3,F7,F3,FC1,FC5,T7,C3,CP1,CP5,P7,P3,Pz,PO3,O1,Oz,O2,PO4,P4,P8,CP6,CP2,C4,T8,FC6,FC2,F4,F8,AF4,Fp2,Fz,Cz,
-0.10156,3.385850929e-14,5.230644532e-14,3.575657113e-14,2.968088425e-14,3.525767178e-15,1.313728200e-16,9.939561681e-15,1.161454856e-15,3.315302122e-15,4.861634420e-15,1.233960295e-14,3.314013145e-15,1.723043141e-14,1.060309669e-14,6.732822195e-14,3.498519257e-14,1.053512790e-13,1.296232942e-14,1.192894528e-14,2.471501875e-14,2.130979942e-14,1.001739621e-14,3.061056452e-15,2.536323546e-14,1.006803315e-14,9.928533536e-15,6.433386782e-15,1.015299358e-14,2.921776902e-14,4.400071030e-14,1.966138435e-14,5.082743845e-15
-0.09375,4.334083542e-14,5.895097241e-14,4.338020460e-14,2.871304084e-14,3.868141071e-15,1.185696296e-16,1.219693015e-14,1.092772954e-15,3.233495972e-15,6.345998120e-15,1.588788876e-14,2.986051891e-15,1.692651096e-14,1.150190389e-14,7.369529879e-14,4.115560331e-14,1.384636180e-13,1.799125100e-14,1.485373935e-14,3.259688498e-14,2.605508505e-14,1.220929178e-14,4.823924286e-15,3.079365138e-14,1.193253485e-14,1.312442227e-14,6.289982211e-15,1.023475101e-14,2.965897694e-14,4.780414086e-14,2.111488453e-14,4.795197899e-15
-0.085938,5.494503783e-14,6.610356741e-14,5.049768333e-14,2.558500345e-14,4.328340697e-15,1.474044294e-16,1.360846402e-14,1.080995619e-15,3.026578831e-15,7.480804516e-15,1.880637243e-14,2.752314407e-15,1.611142383e-14,1.229894529e-14,7.726642285e-14,4.674166896e-14,1.706009228e-13,2.508133340e-14,1.898469746e-14,4.141111511e-14,3.106422794e-14,1.458650680e-14,6.880343057e-15,3.515865774e-14,1.262710624e-14,1.675380528e-14,6.161177188e-15,1.012051814e-14,2.933354984e-14,5.078653823e-14,2.198920841e-14,4.475885208e-15
-0.078125,6.714774920e-14,7.357030990e-14,5.623414932e-14,2.106290180e-14,5.265492942e-15,2.950759549e-16,1.439729003e-14,1.255942806e-15,2.632954248e-15,8.473343362e-15,2.165890218e-14,2.357314528e-15,1.468474050e-14,1.241789472e-14,7.769516672e-14,4.948554939e-14,1.916299095e-13,3.394966799e-14,2.388790378e-14,4.909617730e-14,3.625136228e-14,1.718214624e-14,8.956935150e-15,3.802871842e-14,1.255260637e-14,1.967022728e-14,5.675518783e-15,9.425902193e-15,2.855029131e-14,5.292906451e-14,2.147646679e-14,4.441243963e-15
-0.070312,7.834002335e-14,8.236529488e-14,5.966721580e-14,1.724539552e-14,6.825618009e-15,5.646774734e-16,1.500735694e-14,1.769753252e-15,2.174942782e-15,9.251315036e-15,2.454432385e-14,1.946798155e-15,1.353911407e-14,1.155771979e-14,7.373662802e-14,4.807888317e-14,1.981648905e-13,4.356635492e-14,2.940534977e-14,5.402650428e-14,4.140275967e-14,1.970546862e-14,1.100969517e-14,3.918704291e-14,1.166949567e-14,2.130481117e-14,4.462609081e-15,8.064345066e-15,2.640640594e-14,5.260118787e-14,1.916934582e-14,4.617282572e-15
-0.0625,8.771754559e-14,9.146466565e-14,5.963942568e-14,1.491981072e-14,8.795583118e-15,1.086088635e-15,1.526066493e-14,2.836838199e-15,1.674759424e-15,9.673307074e-15,2.705016327e-14,1.718983061e-15,1.288171082e-14,1.026577139e-14,6.793139826e-14,4.504395678e-14,1.940181440e-13,5.380284791e-14,3.542745252e-14,5.663034474e-14,4.622780448e-14,2.155926877e-14,1.277624006e-14,3.899074932e-14,9.925762616e-15,2.227695800e-14,3.603995292e-15,6.813954797e-15,2.491071416e-14,5.191013674e-14,1.688926034e-14,4.875154858e-15
-0.054688,9.478557291e-14,9.936711253e-14,5.601462375e-14,1.432259877e-14,1.091292679e-14,1.974586525e-15,1.510097338e-14,4.595466987e-15,1.264124316e-15,9.828998073e-15,2.914430675e-14,1.636896816e-15,1.284655842e-14,8.843486982e-15,6.202520150e-14,4.118024195e-14,1.780143719e-13,6.570786336e-14,4.212032588e-14,5.706199226e-14,5.023984369e-14,2.227823178e-14,1.359176968e-14,3.818285284e-14,8.081757469e-15,2.193437400e-14,3.043758707e-15,6.573080358e-15,2.570094101e-14,5.354811534e-14,1.505390863e-14,5.009257202e-15
-0.046875,9.826565858e-14,1.039654048e-13,4.943139739e-14,1.533768240e-14,1.272211969e-14,3.333895821e-15,1.466246479e-14,6.999619491e-15,1.001189307e-15,9.927900307e-15,3.075414707e-14,1.550063195e-15,1.331697835e-14,7.415912223e-15,5.557666992e-14,3.684910970e-14,1.524921931e-13,7.832814685e-14,4.909715873e-14,5.464132120e-14,5.310206624e-14,2.173620653e-14,1.339180691e-14,3.620454520e-14,7.024115029e-15,2.019854130e-14,2.636981840e-15,7.360649564e-15,2.819121312e-14,5.637226545e-14,1.392452746e-14,4.765512333e-15
-0.039062,9.770353858e-14,1.031834268e-13,4.076168885e-14,1.723298492e-14,1.385496782e-14,5.252655908e-15,1.409257054e-14,9.944422402e-15,1.019569692e-15,9.830453721e-15,3.127029812e-14,1.558563597e-15,1.408235444e-14,6.472440695e-15,4.976999188e-14,3.399660884e-14,1.242803033e-13,9.061617891e-14,5.527703052e-14,4.942637526e-14,5.408670962e-14,1.999588138e-14,1.237250522e-14,3.374663331e-14,6.874675140e-15,1.752929666e-14,2.656902322e-15,9.670755124e-15,3.210146919e-14,6.008101396e-14,1.379244534e-14,4.196441660e-15
-0.03125,9.362214712e-14,9.696500834e-14,3.170184612e-14,1.946977048e-14,1.405724475e-14,7.497181218e-15,1.344946446e-14,1.299318766e-14,1.418569326e-15,9.359796326e-15,3.020597458e-14,1.622797182e-15,1.517884618e-14,6.136603375e-15,4.452041098e-14,3.302602918e-14,9.869079548e-14,1.019123297e-13,6.038871071e-14,4.289509034e-14,5.254891664e-14,1.755622192e-14,1.064995702e-14,3.143966837e-14,7.363119131e-15,1.457114458e-14,3.201504351e-15,1.443919151e-14,3.712355028e-14,6.481775368e-14,1.436111179e-14,3.485124229e-15
-0.023438,8.599183328e-14,8.662311196e-14,2.352664373e-14,2.115760226e-14,1.342435196e-14,1.017234431e-14,1.268497982e-14,1.600938777e-14,2.253779923e-15,8.777719941e-15,2.792657106e-14,1.673117715e-15,1.621350029e-14,5.886960755e-15,3.956089034e-14,3.372386656e-14,7.748241093e-14,1.107273077e-13,6.410185084e-14,3.628452813e-14,4.936874881e-14,1.472500234e-14,8.616055212e-15,2.900000532e-14,8.372142498e-15,1.194851312e-14,3.991310873e-15,2.010026800e-14,4.186340316e-14,6.837568782e-14,1.563504360e-14,2.941208495e-15
-0.015625,7.617611154e-14,7.325537735e-14,1.667382532e-14,2.185783515e-14,1.232625651e-14,1.322398033e-14,1.168518830e-14,1.887400436e-14,3.821949296e-15,8.118188508e-15,2.456080417e-14,1.999316947e-15,1.697156164e-14,5.885787683e-15,3.579694292e-14,3.623144271e-14,6.221294923e-14,1.160883602e-13,6.597488043e-14,2.963307207e-14,4.464810263e-14,1.178381444e-14,6.638454020e-15,2.744986143e-14,9.920950662e-15,9.867344050e-15,5.047836456e-15,2.619204403e-14,4.592343559e-14,7.067723993e-14,1.734761372e-14,2.640005863e-15
-0.0078125,6.539174041e-14,5.815773569e-14,1.156883810e-14,2.131953159e-14,1.053246813e-14,1.560913106e-14,1.075131410e-14,2.058570563e-14,6.101624659e-15,7.167730344e-15,2.054631606e-14,2.597050804e-15,1.758263270e-14,6.126007205e-15,3.208715430e-14,3.892472895e-14,5.149297104e-14,1.176258727e-13,6.545977243e-14,2.310024525e-14,3.805657429e-14,9.193658661e-15,4.764566727e-15,2.521478618e-14,1.164523917e-14,8.502896562e-15,6.184805669e-15,3.315902916e-14,4.895964467e-14,7.262766565e-14,1.856533282e-14,2.689507838e-15
0,5.390502203e-14,4.363364238e-14,8.021522412e-15,1.955813225e-14,8.376759276e-15,1.645520886e-14,1.016225099e-14,2.031312977e-14,8.516703053e-15,6.212234633e-15,1.692627026e-14,3.571397823e-15,1.805525597e-14,6.403518093e-15,2.829928052e-14,4.107984939e-14,4.366156032e-14,1.144411804e-13,6.243586121e-14,1.707935757e-14,3.050077211e-14,7.192481955e-15,3.288390206e-15,2.252589826e-14,1.260945730e-14,7.976945037e-15,7.175518157e-15,4.240565341e-14,5.009461019e-14,7.257766516e-14,1.886482016e-14,2.945111207e-15
0.0078125,4.322009484e-14,3.224979504e-14,5.838511974e-15,1.688880438e-14,6.516893975e-15,1.636094168e-14,9.965857645e-15,1.898934312e-14,1.058444153e-14,5.903879358e-15,1.435486027e-14,4.842222758e-15,1.749326812e-14,6.312325610e-15,2.539538171e-14,4.292062779e-14,3.833525331e-14,1.073587362e-13,5.703363568e-14,1.258693188e-14,2.369826957e-14,5.564800133e-15,2.212597553e-15,2.157308483e-14,1.239481515e-14,8.406179234e-15,7.905337274e-15,5.166684673e-14,4.945872270e-14,7.013484106e-14,1.908910001e-14,3.332942744e-15
0.015625,3.407725529e-14,2.344696093e-14,4.338915326e-15,1.477546348e-14,4.991217734e-15,1.595058335e-14,1.021429192e-14,1.715563345e-14,1.288021613e-14,6.380974858e-15,1.275233390e-14,6.200760293e-15,1.653382827e-14,6.221231351e-15,2.279328549e-14,4.376371056e-14,3.420481991e-14,9.791919895e-14,5.051358313e-14,9.549426067e-15,1.787404909e-14,4.323865949e-15,1.470776839e-15,2.020721660e-14,1.169713483e-14,9.291533964e-15,8.277372967e-15,5.926134658e-14,4.704346995e-14,6.597460594e-14,1.917467227e-14,3.930796257e-15
0.023438,2.531626146e-14,1.611295797e-14,3.136052130e-15,1.210342908e-14,3.656635721e-15,1.398766453e-14,1.126045765e-14,1.394036255e-14,1.468718979e-14,8.025552553e-15,1.343592316e-14,7.998109302e-15,1.502755755e-14,5.916437081e-15,1.967413144e-14,4.161214140e-14,2.930752067e-14,8.521142337e-14,4.228189926e-14,6.805947854e-15,1.302662069e-14,3.512426955e-15,1.087025233e-15,1.848461650e-14,1.072692928e-14,9.834121339e-15,8.022592101e-15,6.955277632e-14,4.265483355e-14,6.062357540e-14,1.770201504e-14,4.186908769e-15
0.03125,1.828247976e-14,1.170896872e-14,2.338411356e-15,9.811213354e-15,2.936887784e-15,1.098235349e-14,1.315936478e-14,1.034316588e-14,1.516844674e-14,1.095677473e-14,1.653939757e-14,9.543628936e-15,1.302962029e-14,5.366012125e-15,1.624911016e-14,3.828744764e-14,2.546888824e-14,7.141704275e-14,3.362905413e-14,4.740325259e-15,9.792816884e-15,3.134790322e-15,9.705146269e-16,1.779644818e-14,9.300403822e-15,1.007126153e-14,7.171290234e-15,7.878201703e-14,3.666204855e-14,5.345526364e-14,1.526187833e-14,4.000398544e-15
0.039062,1.323779689e-14,9.275862759e-15,1.724695920e-15,8.651753228e-15,2.848229142e-15,8.449679800e-15,1.596510485e-14,7.350447379e-15,1.456762734e-14,1.455868158e-14,1.984061650e-14,1.067610193e-14,1.094577082e-14,5.265429024e-15,1.386846059e-14,3.505287874e-14,2.447797817e-14,5.957154603e-14,2.586466533e-14,3.937669106e-15,8.485045981e-15,2.991591442e-15,1.078958945e-15,1.759862378e-14,7.515263853e-15,1.059087471e-14,6.624590107e-15,8.467291764e-14,3.076575925e-14,4.597808783e-14,1.352534799e-14,3.673900007e-15
0.046875,9.630717075e-15,7.803459187e-15,1.266862941e-15,8.593414585e-15,3.320870122e-15,6.477474088e-15,1.959184981e-14,4.930269311e-15,1.340381056e-14,1.853641934e-14,2.485267025e-14,1.163662178e-14,9.230562345e-15,5.639790061e-15,1.166140812e-14,3.061093275e-14,2.552289345e-14,4.909538496e-14,1.924507525e-14,3.895327588e-15,7.923397856e-15,3.180655495e-15,1.499342274e-15,1.615946446e-14,5.931158827e-15,1.073057962e-14,6.083146980e-15,8.750033266e-14,2.443249878e-14,3.809391344e-14,1.158307129e-14,3.415595997e-15
0.054688,7.235244452e-15,7.590063418e-15,8.470150894e-16,9.845073793e-15,4.546633346e-15,4.590661868e-15,2.327747067e-14,2.979733510e-15,1.164508213e-14,2.209660710e-14,2.955169148e-14,1.203999277e-14,7.824191410e-15,6.763847508e-15,9.830808341e-15,2.625433008e-14,2.763057331e-14,3.939846431e-14,1.400945724e-14,4.105995383e-15,7.569373045e-15,3.487727255e-15,2.134221188e-15,1.473966106e-14,5.254393440e-15,9.894404978e-15,5.881155709e-15,8.753831499e-14,1.848821390e-14,3.051430132e-14,9.101912024e-15,3.061622696e-15
0.0625,6.052144932e-15,9.145671409e-15,5.907236637e-16,1.322561258e-14,7.043186940e-15,3.319882622e-15,2.729264122e-14,1.750399243e-15,9.498185115e-15,2.494745066e-14,3.345278660e-14,1.154464354e-14,6.997067965e-15,8.853290033e-15,8.916956054e-15,2.322165131e-14,3.149948936e-14,3.084069269e-14,1.083288689e-14,4.939983233e-15,7.929699206e-15,4.130234250e-15,3.120478431e-15,1.411791245e-14,5.280665831e-15,8.909742518e-15,6.367781547e-15,8.174953560e-14,1.349536465e-14,2.320219827e-14,7.662282256e-15,2.754724620e-15
0.070312,6.094410676e-15,1.233490888e-14,4.747588484e-16,1.831871692e-14,1.051887538e-14,3.030606941e-15,3.113972659e-14,1.229671587e-15,7.669587284e-15,2.602641368e-14,3.542074160e-14,1.031277013e-14,7.362457265e-15,1.231249635e-14,8.207079664e-15,2.162023971e-14,3.674145903e-14,2.476329798e-14,9.934163913e-15,6.840461048e-15,8.314006019e-15,4.909973946e-15,4.347495379e-15,1.244674033e-14,6.402269515e-15,8.289559504e-15,7.710372194e-15,6.998745671e-14,1.000128619e-14,1.683818047e-14,7.480684265e-15,2.609745891e-15
0.078125,6.942995008e-15,1.747110394e-14,4.880872496e-16,2.467537976e-14,1.465057026e-14,3.451738918e-15,3.363984949e-14,1.162610586e-15,6.383101040e-15,2.537308687e-14,3.497793462e-14,8.896401614e-15,8.374382151e-15,1.667911810e-14,8.309409904e-15,2.199724182e-14,4.122317145e-14,2.059918557e-14,1.111210842e-14,1.015834986e-14,8.307743923e-15,5.658588277e-15,5.935679287e-15,1.038152587e-14,9.105175157e-15,7.586085455e-15,9.430847301e-15,5.748736466e-14,7.835577136e-15,1.221123205e-14,7.954027831e-15,2.742158465e-15
0.085938,8.695637973e-15,2.550456829e-14,4.687068889e-16,3.153151116e-14,1.945949812e-14,4.549983868e-15,3.531227250e-14,1.522332844e-15,5.470477136e-15,2.395312055e-14,3.297637058e-14,7.297874932e-15,9.928384855e-15,2.163420489e-14,8.525197742e-15,2.400626098e-14,4.408942900e-14,1.735276468e-14,1.439058488e-14,1.504801230e-14,8.415211067e-15,6.316733836e-15,7.671025020e-15,8.931717821e-15,1.284680767e-14,6.947480989e-15,1.162069205e-14,4.412584416e-14,6.884159055e-15,8.733377755e-15,9.778654789e-15,2.955091703e-15
0.09375,1.152912472e-14,3.511147691e-14,5.303807136e-16,3.833675896e-14,2.444685342e-14,6.223615516e-15,3.569574969e-14,2.329362941e-15,5.112772846e-15,2.168989507e-14,2.858935393e-14,5.577793982e-15,1.184892052e-14,2.710624942e-14,9.587576110e-15,2.802319140e-14,4.713152440e-14,1.640411643e-14,1.983797399e-14,2.143997145e-14,9.393342986e-15,6.950188506e-15,9.622906361e-15,7.701877339e-15,1.721535462e-14,6.946420619e-15,1.390367512e-14,3.146351867e-14,7.480080828e-15,7.267368601e-15,1.268299321e-14,3.175700459e-15
0.10156,1.477183611e-14,4.518789009e-14,5.990990920e-16,4.411090875e-14,2.853628565e-14,8.310228658e-15,3.484916133e-14,3.572829854e-15,5.194618857e-15,1.941748790e-14,2.272249558e-14,4.141088720e-15,1.359764045e-14,3.183136036e-14,1.120949546e-14,3.227347297e-14,4.923507489e-14,1.773104806e-14,2.708061634e-14,2.897204885e-14,1.151164920e-14,7.513074647e-15,1.184847307e-14,7.006082354e-15,2.167604087e-14,7.292407467e-15,1.508902110e-14,2.272161705e-14,8.885977378e-15,7.566047634e-15,1.621009977e-14,3.396398125e-15
0.10938,1.776818549e-14,5.662489068e-14,5.659482352e-16,4.663471465e-14,3.057687722e-14,1.061245745e-14,3.328923272e-14,5.263696235e-15,5.322041430e-15,1.839799344e-14,1.790026600e-14,3.025789004e-15,1.400907698e-14,3.378144496e-14,1.221017154e-14,3.574714413e-14,4.964247815e-14,2.089792788e-14,3.523700172e-14,3.710891476e-14,1.519241086e-14,7.922842235e-15,1.382784399e-14,7.073988186e-15,2.477324508e-14,8.222917863e-15,1.562187186e-14,1.699028174e-14,1.089076066e-14,9.173929738e-15,2.007008630e-14,3.644508069e-15
0.11719,2.219249131e-14,6.852330780e-14,7.106746600e-16,4.766001339e-14,3.137002201e-14,1.303711134e-14,3.001293835e-14,7.157229540e-15,5.388225755e-15,1.780609993e-14,1.393201938e-14,2.390689750e-15,1.394670642e-14,3.473950109e-14,1.295911327e-14,3.850508378e-14,4.989575557e-14,2.619248706e-14,4.518976530e-14,4.523881243e-14,2.043200250e-14,8.754101124e-15,1.541484317e-14,7.504407701e-15,2.585118746e-14,9.424676148e-15,1.649792213e-14,1.371140700e-14,1.408826796e-14,1.229515003e-14,2.454808655e-14,3.873248057e-15
0.125,2.594111515e-14,7.478113459e-14,9.674888847e-16,4.665218649e-14,3.096518735e-14,1.480561313e-14,2.513243856e-14,9.145603997e-15,5.593188903e-15,1.718983018e-14,1.036815579e-14,1.997733862e-15,1.409782537e-14,3.543456817e-14,1.433303491e-14,4.048862522e-14,5.086826106e-14,3.316246410e-14,5.531170906e-14,5.143287678e-14,2.661815827e-14,1.005929173e-14,1.719059067e-14,7.678961886e-15,2.626950387e-14,1.102068838e-14,1.720211417e-14,1.384981751e-14,1.717132054e-14,1.565135982e-14,2.803837089e-14,4.184721630e-15
0.13281,2.680528975e-14,7.551284341e-14,1.354140535e-15,4.256714947e-14,2.909195525e-14,1.513557878e-14,2.061727947e-14,1.087553716e-14,5.907394432e-15,1.740471406e-14,8.182572725e-15,1.600498587e-15,1.282582546e-14,3.297746153e-14,1.418381468e-14,3.845548548e-14,4.785047657e-14,3.831724634e-14,6.204976623e-14,5.323476940e-14,3.204035136e-14,1.184603222e-14,1.894975969e-14,7.534044751e-15,2.482301193e-14,1.166238997e-14,1.545425305e-14,1.619587706e-14,1.830232399e-14,1.769350218e-14,2.878231996e-14,4.662606152e-15
0.14062,2.661357758e-14,7.478850260e-14,1.954157460e-15,3.659084219e-14,2.571619427e-14,1.458437401e-14,1.716686417e-14,1.197766638e-14,6.019543147e-15,1.792415557e-14,7.300772045e-15,1.515252065e-15,1.068467697e-14,2.838441802e-14,1.249730949e-14,3.386231273e-14,4.239940074e-14,4.103545160e-14,6.597452657e-14,5.194499302e-14,3.593531208e-14,1.388437759e-14,1.930750245e-14,7.031228364e-15,2.115003822e-14,1.158745407e-14,1.364579274e-14,2.087308192e-14,1.994830948e-14,2.018890247e-14,2.906958927e-14,5.145849629e-15
0.14844,2.621500638e-14,6.982771161e-14,3.444173765e-15,3.079515975e-14,2.220278443e-14,1.386758299e-14,1.305391407e-14,1.217228614e-14,5.802719715e-15,1.730338662e-14,7.105918050e-15,1.840416682e-15,9.393058856e-15,2.498896203e-14,1.184904203e-14,3.074983884e-14,3.883682550e-14,4.330043977e-14,6.831389242e-14,4.856039878e-14,3.783282672e-14,1.572721351e-14,1.888345120e-14,6.059383123e-15,1.802852026e-14,1.197068860e-14,1.334808486e-14,2.687352001e-14,2.147216135e-14,2.201468726e-14,2.921833287e-14,5.757262258e-15
0.15625,2.514948913e-14,5.979689395e-14,6.491176536e-15,2.602752747e-14,1.980466629e-14,1.229051978e-14,9.704076303e-15,1.152964900e-14,5.559912800e-15,1.645414327e-14,7.869307529e-15,2.409550974e-15,8.369843384e-15,2.211106444e-14,1.185223131e-14,2.626408374e-14,3.420016876e-14,4.160134129e-14,6.543665700e-14,4.142088797e-14,3.676077549e-14,1.739012842e-14,1.859852296e-14,4.951196071e-15,1.599994015e-14,1.124946803e-14,1.179474017e-14,3.167791768e-14,1.970142467e-14,2.037833083e-14,2.684874172e-14,6.470877839e-15
0.16406,2.501899596e-14,4.932951972e-14,1.097231965e-14,2.267991340e-14,1.828998087e-14,1.023971842e-14,8.075792591e-15,1.045703204e-14,5.422429638e-15,1.595636259e-14,8.911018052e-15,3.450194668e-15,7.435524251e-15,1.992969676e-14,1.258851170e-14,2.166687253e-14,2.999063245e-14,3.633369236e-14,5.770269907e-14,3.202693523e-14,3.288359990e-14,1.817698043e-14,1.739724305e-14,3.760103129e-15,1.431985461e-14,1.020742953e-14,9.953827839e-15,3.516422598e-14,1.762960542e-14,1.808148824e-14,2.493468000e-14,6.994595910e-15
0.17188,2.817950261e-14,4.134929017e-14,1.836324489e-14,2.127147796e-14,1.796019554e-14,8.599462664e-15,7.225994035e-15,9.177724175e-15,5.654133808e-15,1.554967001e-14,9.698226905e-15,5.073001512e-15,7.164603603e-15,1.902683679e-14,1.541226652e-14,1.913553286e-14,2.916751763e-14,3.123709880e-14,4.856807170e-14,2.346827762e-14,2.715592821e-14,1.757629846e-14,1.503667121e-14,2.602333663e-15,1.386262794e-14,9.326271107e-15,8.769165387e-15,3.922789433e-14,1.637553094e-14,1.693756721e-14,2.423992953e-14,7.451797837e-15
0.17969,3.619014939e-14,3.703802204e-14,2.845929805e-14,2.331890703e-14,1.881346225e-14,7.652759109e-15,6.624755065e-15,7.979661987e-15,6.241219513e-15,1.501558239e-14,1.013944802e-14,7.112067997e-15,8.097527505e-15,1.970508172e-14,1.970343664e-14,1.784654618e-14,3.122799253e-14,2.786470201e-14,3.976925519e-14,1.673921182e-14,2.083609093e-14,1.586801058e-14,1.215115522e-14,1.797473549e-15,1.505650419e-14,9.095729514e-15,8.371773919e-15,4.077378870e-14,1.515813109e-14,1.583925049e-14,2.583067311e-14,7.848101735e-15
0.1875,4.847310205e-14,3.700675961e-14,4.013201912e-14,2.899336181e-14,2.053114213e-14,7.532690780e-15,6.156386686e-15,7.139375445e-15,7.480581767e-15,1.416428260e-14,1.070572501e-14,9.484642166e-15,1.031401625e-14,2.229800720e-14,2.629515841e-14,1.860598227e-14,3.546268560e-14,2.702996253e-14,3.123800750e-14,1.138650195e-14,1.442575697e-14,1.320102220e-14,9.045684863e-15,1.504703167e-15,1.703950391e-14,9.470362533e-15,8.918591342e-15,3.796047584e-14,1.456761022e-14,1.590890610e-14,2.950387032e-14,8.235902058e-15
0.19531,6.353943585e-14,4.164056084e-14,5.297997920e-14,3.778214569e-14,2.307408192e-14,8.326701821e-15,5.736068077e-15,6.768553820e-15,9.013851404e-15,1.288790006e-14,1.178595417e-14,1.151754093e-14,1.372732854e-14,2.602324890e-14,3.401562507e-14,2.028902914e-14,4.102694437e-14,2.917571918e-14,2.481930541e-14,8.304124269e-15,9.540874764e-15,1.066645818e-14,6.593856490e-15,1.812855044e-15,2.011784479e-14,9.680785849e-15,9.695766749e-15,3.465883749e-14,1.477037102e-14,1.723615825e-14,3.439518319e-14,8.765080100e-15
0.20312,7.874247700e-14,4.944321593e-14,6.420179609e-14,4.958372973e-14,2.615654636e-14,1.043490592e-14,5.479781246e-15,7.309844306e-15,1.064161493e-14,1.160397333e-14,1.271666423e-14,1.303361369e-14,1.789712433e-14,3.042462879e-14,4.226900399e-14,2.172463945e-14,4.534140541e-14,3.385786609e-14,2.133470060e-14,7.188022214e-15,6.585207227e-15,8.414722257e-15,4.606427311e-15,3.351664036e-15,2.281951398e-14,1.056289705e-14,1.008856653e-14,3.004188022e-14,1.448641145e-14,1.825177415e-14,4.053332925e-14,8.800508251e-15
0.21094,9.202949627e-14,5.716938815e-14,7.204623944e-14,6.211060269e-14,2.874572590e-14,1.258255679e-14,5.654733505e-15,8.858210477e-15,1.276232739e-14,1.015528194e-14,1.374615974e-14,1.453900748e-14,2.316485934e-14,3.555532871e-14,5.093600394e-14,2.348819375e-14,4.729441498e-14,4.061805696e-14,2.042439479e-14,6.780501590e-15,4.676669587e-15,6.718096598e-15,2.877455882e-15,6.117563589e-15,2.386386570e-14,1.146669647e-14,1.073269235e-14,2.475513953e-14,1.427369638e-14,2.104702579e-14,4.520279239e-14,8.598112298e-15
0.21875,9.974841261e-14,6.371932199e-14,7.522467536e-14,7.152356710e-14,3.097337854e-14,1.426626865e-14,7.307549696e-15,1.016182297e-14,1.351786499e-14,8.138327915e-15,1.443487613e-14,1.470964759e-14,2.809253728e-14,3.871832352e-14,5.723405423e-14,2.351164846e-14,4.627624167e-14,4.716492583e-14,2.167134234e-14,7.008790277e-15,4.228302424e-15,6.181946035e-15,1.960328906e-15,9.752086883e-15,2.564559952e-14,1.096398914e-14,1.115223476e-14,2.234755977e-14,1.428606223e-14,2.450944068e-14,4.673014980e-14,8.632015264e-15
0.22656,1.000023082e-13,6.836336452e-14,7.297297203e-14,7.838496398e-14,3.316975858e-14,1.658061720e-14,1.133783751e-14,1.190130030e-14,1.276136363e-14,6.196435668e-15,1.446301159e-14,1.317063360e-14,3.159016343e-14,4.014287167e-14,6.246044499e-14,2.289987281e-14,4.327801587e-14,5.146570479e-14,2.338346452e-14,7.981042627e-15,5.072514954e-15,6.274903591e-15,1.683545377e-15,1.575244839e-14,2.827931472e-14,1.010799978e-14,1.085127687e-14,2.212997151e-14,1.345177687e-14,2.597619275e-14,4.666783321e-14,8.295799375e-15
0.23438,9.300238106e-14,6.875927664e-14,6.616022616e-14,8.101942278e-14,3.518027653e-14,1.794166027e-14,1.841233922e-14,1.466852180e-14,1.189290009e-14,5.013717655e-15,1.387108491e-14,1.095259592e-14,3.386465283e-14,4.026566940e-14,6.541365802e-14,2.120404099e-14,3.755415106e-14,5.271476872e-14,2.480059753e-14,9.100309531e-15,6.699868727e-15,6.458860318e-15,1.799210497e-15,2.426323649e-14,3.099081069e-14,9.329488986e-15,9.983895105e-15,2.532486799e-14,1.141514716e-14,2.613440247e-14,4.351890395e-14,7.535922851e-15
0.24219,8.031946445e-14,6.338614184e-14,5.637998429e-14,7.792962760e-14,3.656219289e-14,1.700823070e-14,2.951317289e-14,1.717132808e-14,1.075503346e-14,5.097211637e-15,1.208752883e-14,8.865471639e-15,3.430727984e-14,3.946564039e-14,6.404392859e-14,1.759228545e-14,2.914733084e-14,4.951034420e-14,2.510476033e-14,9.744671276e-15,8.904970338e-15,7.000196211e-15,2.525543427e-15,3.391305906e-14,3.416907631e-14,7.306825652e-15,9.914610961e-15,3.309514060e-14,9.418606213e-15,2.672473633e-14,3.652229726e-14,6.968183797e-15
0.25,6.550018989e-14,5.558065757e-14,4.576028064e-14,7.143390193e-14,3.713867242e-14,1.575489768e-14,4.395215007e-14,1.822488538e-14,8.409336243e-15,6.278805770e-15,1.041898497e-14,7.001588437e-15,3.249705734e-14,3.833928707e-14,6.210852190e-14,1.510076976e-14,2.276478248e-14,4.443864790e-14,2.460437417e-14,1.085522509e-14,1.159003753e-14,7.371170516e-15,3.847562720e-15,4.323005214e-14,3.910476967e-14,5.350859179e-15,1.137866925e-14,4.428736950e-14,8.769125618e-15,2.773521913e-14,2.910369268e-14,6.619778451e-15
0.25781,5.000429812e-14,4.695884660e-14,3.732791623e-14,6.464978975e-14,3.777832585e-14,1.513547333e-14,5.897140826e-14,1.942246083e-14,5.987547915e-15,8.534820669e-15,9.443545495e-15,5.337812914e-15,2.941702131e-14,3.632348020e-14,6.072368092e-14,1.378618751e-14,1.734593121e-14,3.793560025e-14,2.335390876e-14,1.315232007e-14,1.533675432e-14,7.029690237e-15,5.698540639e-15,5.394803777e-14,4.637611440e-14,4.161601396e-15,1.210648412e-14,5.691987974e-14,7.840937601e-15,2.658319462e-14,2.306153633e-14,5.818526912e-15
0.26562,3.711351433e-14,3.822851735e-14,3.334242214e-14,5.935615226e-14,3.912471901e-14,1.450411164e-14,7.440513566e-14,2.057910675e-14,4.404323146e-15,1.234821594e-14,8.462732561e-15,4.424911972e-15,2.556208028e-14,3.395919513e-14,5.704052850e-14,1.282379211e-14,1.307039149e-14,3.109858779e-14,2.158053466e-14,1.663729318e-14,2.024003129e-14,6.395139796e-15,8.115722251e-15,6.595392281e-14,5.567335942e-14,3.136023729e-15,1.242544483e-14,7.060700816e-14,6.767752671e-15,2.458076103e-14,1.787933674e-14,4.804208185e-15
0.27344,2.702338511e-14,2.931900816e-14,3.309450567e-14,5.610001671e-14,4.043389643e-14,1.420875750e-14,8.955357983e-14,2.068316379e-14,3.452897427e-15,1.728035628e-14,8.089805954e-15,4.322423021e-15,2.120672070e-14,3.185796864e-14,5.141092993e-14,1.297131022e-14,9.938088778e-15,2.497587304e-14,1.947479690e-14,1.997645386e-14,2.516079104e-14,5.687923105e-15,1.108763294e-14,7.498923278e-14,6.572621793e-14,2.463724613e-15,1.419056221e-14,8.569776278e-14,6.734256725e-15,2.347438924e-14,1.385394379e-14,4.050237802e-15
0.28125,2.068054793e-14,2.201557711e-14,3.738960842e-14,5.593891479e-14,4.088320774e-14,1.507290367e-14,1.007323705e-13,1.972116313e-14,3.056698108e-15,2.230015648e-14,7.995911761e-15,4.563846116e-15,1.695970564e-14,2.958193844e-14,4.507315050e-14,1.391551046e-14,8.353928406e-15,2.117949843e-14,1.769910006e-14,2.313839543e-14,2.935018120e-14,4.849218611e-15,1.424568636e-14,7.981263018e-14,7.372583868e-14,2.419113672e-15,1.672105559e-14,9.684752649e-14,7.129802991e-15,2.189963727e-14,1.148790986e-14,3.620386547e-15
0.28906,1.832652877e-14,1.716623917e-14,4.474035808e-14,5.945359635e-14,4.043866081e-14,1.744605696e-14,1.043576356e-13,1.891620585e-14,3.530366420e-15,2.757040595e-14,7.754551131e-15,5.232996479e-15,1.383473503e-14,2.778985524e-14,3.878194273e-14,1.588679463e-14,8.775249350e-15,2.024734964e-14,1.642440474e-14,2.673764533e-14,3.411081442e-14,3.916076309e-15,1.736589524e-14,8.487720087e-14,7.918268195e-14,3.114512413e-15,1.840049039e-14,1.028999808e-13,7.352593694e-15,2.002085773e-14,1.057798344e-14,3.482427041e-15
0.29688,1.809935925e-14,1.481197319e-14,5.133668392e-14,6.487340646e-14,3.963716563e-14,2.104642777e-14,1.014048060e-13,1.882269810e-14,5.042444037e-15,3.348577150e-14,7.470245045e-15,6.220529476e-15,1.173295226e-14,2.633696322e-14,3.292800766e-14,1.762040450e-14,1.012498847e-14,2.115586639e-14,1.557277220e-14,3.042735137e-14,3.918857538e-14,3.174413983e-15,2.030835401e-14,9.038887915e-14,8.314608360e-14,4.522270525e-15,1.897676645e-14,1.092598648e-13,7.600991015e-15,1.891369765e-14,1.125766004e-14,3.969446375e-15
0.30469,1.891877565e-14,1.417760802e-14,5.710412382e-14,7.040167822e-14,3.940827947e-14,2.504924432e-14,9.449812946e-14,1.951543789e-14,7.414637029e-15,3.944661724e-14,7.643411148e-15,7.423782387e-15,9.952505156e-15,2.468687600e-14,2.770271098e-14,1.959970297e-14,1.244378624e-14,2.324882219e-14,1.489426700e-14,3.300351249e-14,4.298001590e-14,2.680242431e-15,2.240850969e-14,9.280354456e-14,8.377863300e-14,6.562211502e-15,1.954438591e-14,1.167865426e-13,8.610026423e-15,1.949866914e-14,1.287344438e-14,5.346801777e-15
0.3125,2.052692603e-14,1.558259971e-14,6.197559629e-14,7.476375505e-14,3.893234715e-14,2.854447837e-14,8.283044400e-14,2.079419907e-14,1.046481258e-14,4.453261535e-14,7.877444881e-15,8.923173201e-15,9.194652696e-15,2.361842311e-14,2.467108392e-14,2.162083693e-14,1.546555181e-14,2.555576680e-14,1.421919208e-14,3.401634408e-14,4.517021386e-14,2.528935176e-15,2.363958187e-14,9.319332639e-14,8.105042172e-14,9.036757193e-15,2.102950172e-14,1.241367838e-13,1.005090263e-14,2.151704355e-14,1.470303529e-14,7.882714961e-15
0.32031,2.146685232e-14,1.882139781e-14,6.209747031e-14,7.552311172e-14,3.702209934e-14,3.098672941e-14,6.719717489e-14,2.257048978e-14,1.398123285e-14,4.807384880e-14,8.716840920e-15,1.058545105e-14,9.491927455e-15,2.253187124e-14,2.436055012e-14,2.228557101e-14,1.793738079e-14,2.675446902e-14,1.322420105e-14,3.424659053e-14,4.681991619e-14,2.715361628e-15,2.429405560e-14,9.371833438e-14,7.506715473e-14,1.167216199e-14,2.142086598e-14,1.290800700e-13,1.107128714e-14,2.378436751e-14,1.719206435e-14,1.158335818e-14
0.32812,2.113753821e-14,2.338265850e-14,5.725492770e-14,7.188702762e-14,3.439035428e-14,3.212639248e-14,5.133173110e-14,2.462980731e-14,1.752458751e-14,5.065302512e-14,1.011266529e-14,1.273246933e-14,1.034100155e-14,2.164512645e-14,2.601656030e-14,2.256375620e-14,1.937907978e-14,2.668662447e-14,1.197765001e-14,3.341152726e-14,4.799399954e-14,3.144725291e-15,2.413890837e-14,9.433598361e-14,6.764654157e-14,1.420863112e-14,1.945393932e-14,1.350443241e-13,1.258919459e-14,2.774646421e-14,2.075013732e-14,1.610699803e-14
0.33594,1.929962831e-14,2.816888008e-14,5.046101081e-14,6.423612402e-14,3.240048014e-14,3.160364751e-14,3.971118562e-14,2.682845652e-14,2.081214013e-14,5.281699719e-14,1.191126305e-14,1.545034812e-14,1.149581942e-14,2.119891286e-14,2.885588993e-14,2.194496371e-14,1.953689074e-14,2.508396656e-14,1.087219971e-14,3.071634613e-14,4.838525061e-14,3.821928254e-15,2.325765221e-14,9.291983223e-14,6.136001631e-14,1.603274133e-14,1.865655830e-14,1.452733730e-13,1.544062371e-14,3.437370017e-14,2.448774180e-14,2.089455597e-14
0.34375,1.715441528e-14,3.257435996e-14,4.399096324e-14,5.423758574e-14,3.088185257e-14,2.927874022e-14,3.038825146e-14,2.842567685e-14,2.291542811e-14,5.261663331e-14,1.257733562e-14,1.774128927e-14,1.275067301e-14,1.991430451e-14,3.241943039e-14,1.942749952e-14,1.897107152e-14,2.282116631e-14,1.009181682e-14,2.711007819e-14,4.810714575e-14,4.582151515e-15,2.210453922e-14,8.808209039e-14,5.584955447e-14,1.699540035e-14,2.030616608e-14,1.504054011e-13,1.756286300e-14,3.965782762e-14,2.721106465e-14,2.525050997e-14
0.35156,1.464619070e-14,3.581621509e-14,3.488363404e-14,4.272107376e-14,2.815121619e-14,2.573462874e-14,2.378570915e-14,2.828586805e-14,2.359320233e-14,4.864863148e-14,1.298111890e-14,1.908221140e-14,1.405804908e-14,1.777228730e-14,3.720156568e-14,1.644530061e-14,1.743443079e-14,2.072886891e-14,9.657051481e-15,2.352785930e-14,4.751168664e-14,5.462380943e-15,2.065233360e-14,8.094386476e-14,4.910365214e-14,1.739081464e-14,1.992747089e-14,1.437826849e-13,1.754201798e-14,4.132073120e-14,2.910545951e-14,2.897673559e-14
0.35938,1.172710994e-14,3.795418420e-14,2.433488084e-14,3.091921372e-14,2.414351192e-14,2.168109830e-14,2.229267568e-14,2.642595216e-14,2.262126609e-14,4.258357076e-14,1.483615357e-14,1.951218537e-14,1.466733536e-14,1.537583787e-14,4.368154934e-14,1.441071747e-14,1.470777198e-14,1.950826195e-14,9.493915372e-15,1.953972277e-14,4.667404231e-14,6.102189967e-15,1.853625267e-14,7.193966090e-14,4.141070494e-14,1.705018754e-14,1.753796385e-14,1.311123277e-13,1.692316081e-14,4.140887037e-14,3.065074402e-14,3.118671751e-14
0.36719,8.843354263e-15,3.870849983e-14,1.683004560e-14,2.020480164e-14,2.048095467e-14,1.750405906e-14,2.266052310e-14,2.383259615e-14,2.041492392e-14,3.656273956e-14,1.807973102e-14,1.914112104e-14,1.423405882e-14,1.323474494e-14,4.869640947e-14,1.206480894e-14,1.157330688e-14,1.898515050e-14,9.334819701e-15,1.525232021e-14,4.498081205e-14,6.232115030e-15,1.583370848e-14,6.099816139e-14,3.450412518e-14,1.563465858e-14,1.831318689e-14,1.192905662e-13,1.721231254e-14,4.200122439e-14,3.076289019e-14,3.088768243e-14
0.375,6.735560543e-15,3.864267539e-14,1.203664073e-14,1.265391999e-14,1.834883661e-14,1.409610456e-14,2.367539760e-14,2.078106697e-14,1.721509342e-14,2.987831210e-14,2.274779327e-14,1.739611631e-14,1.296828784e-14,1.110783095e-14,5.229488979e-14,9.583322755e-15,9.076321482e-15,1.943067219e-14,9.231473946e-15,1.173173072e-14,4.304104911e-14,5.951495150e-15,1.335085433e-14,4.913942835e-14,2.910592347e-14,1.389527686e-14,1.929380993e-14,1.034160401e-13,1.602551035e-14,3.981097955e-14,2.831113096e-14,2.865963932e-14
0.38281,5.496225269e-15,3.784031919e-14,8.359327866e-15,7.174111814e-15,1.558616637e-14,1.124775554e-14,2.719093143e-14,1.647116341e-14,1.354766583e-14,2.281767989e-14,3.221161423e-14,1.476195491e-14,1.133423012e-14,9.680723251e-15,5.888254794e-14,8.848905922e-15,6.953399476e-15,2.019638429e-14,9.048414292e-15,8.682669698e-15,3.990467503e-14,5.483943187e-15,1.090032259e-14,3.630561572e-14,2.295976861e-14,1.238934543e-14,1.752546008e-14,8.313245647e-14,1.401930358e-14,3.464876138e-14,2.482407155e-14,2.548230572e-14
0.39062,5.012297547e-15,3.841105298e-14,6.400611795e-15,3.946366775e-15,1.223841355e-14,9.471446510e-15,2.923562289e-14,1.235725671e-14,1.026797486e-14,1.782138410e-14,4.443259975e-14,1.266867807e-14,9.459595060e-15,9.671502836e-15,6.582426096e-14,8.455651032e-15,5.016764500e-15,2.043985410e-14,8.385683344e-15,6.183819569e-15,3.516677412e-14,4.797252345e-15,8.514972646e-15,2.559274905e-14,1.733592298e-14,1.082914466e-14,1.830871379e-14,6.740187668e-14,1.383020014e-14,3.083098868e-14,2.096977095e-14,2.116646425e-14
0.39844,5.278156162e-15,4.088643866e-14,5.860224266e-15,3.001166151e-15,9.607264071e-15,8.817886807e-15,2.834327337e-14,9.203076750e-15,7.637023699e-15,1.461264018e-14,5.760395320e-14,1.093703631e-14,7.482863010e-15,1.043215098e-14,6.950148815e-14,7.772782712e-15,3.711093036e-15,1.970125198e-14,7.186143151e-15,4.355209531e-15,2.997171482e-14,4.202575477e-15,6.389643659e-15,1.713944286e-14,1.319329685e-14,9.775115069e-15,2.022444196e-14,5.756014739e-14,1.510429227e-14,2.906722766e-14,1.727105412e-14,1.658944900e-14
0.40625,6.307360297e-15,4.433789689e-14,7.007447806e-15,3.485123032e-15,8.265232114e-15,8.542677520e-15,2.689417317e-14,6.597960348e-15,5.897644460e-15,1.362805944e-14,7.359263790e-14,1.044363348e-14,5.859589892e-15,1.242642330e-14,7.263186564e-14,7.147796546e-15,2.728722468e-15,1.786105843e-14,5.972707866e-15,3.232176928e-15,2.495272143e-14,3.740280467e-15,4.483973405e-15,1.101088116e-14,1.058231816e-14,9.223430327e-15,2.112422928e-14,5.357260049e-14,1.823359530e-14,2.966778962e-14,1.480181494e-14,1.268382948e-14
0.41406,8.249672309e-15,4.858365443e-14,9.322682148e-15,4.690528671e-15,7.819328151e-15,8.296134995e-15,2.498109297e-14,4.815941082e-15,5.177141974e-15,1.503012433e-14,8.697140551e-14,1.144383006e-14,4.806369221e-15,1.462091105e-14,7.276435059e-14,6.124585423e-15,2.090445093e-15,1.540410183e-14,4.815753859e-15,2.615439612e-15,1.986402149e-14,3.625043711e-15,3.119298325e-15,7.406292324e-15,9.851767515e-15,8.525605157e-15,2.233732210e-14,5.530114345e-14,2.342526515e-14,3.285370715e-14,1.349858367e-14,9.519298419e-15
0.42188,1.098342788e-14,5.402885593e-14,1.205516693e-14,6.311239303e-15,8.256188668e-15,8.169179501e-15,2.152899149e-14,4.188007105e-15,5.472374575e-15,1.758067130e-14,9.527763698e-14,1.311932018e-14,4.289410882e-15,1.638135963e-14,6.949229118e-14,5.213487433e-15,1.802900227e-15,1.233316869e-14,3.917743527e-15,2.610586989e-15,1.622576936e-14,4.021212908e-15,2.198089818e-15,5.509294992e-15,1.017367260e-14,7.629999364e-15,2.456918057e-14,6.040110812e-14,3.031445548e-14,3.824061866e-14,1.271978530e-14,7.497770345e-15
0.42969,1.454191131e-14,5.944082898e-14,1.465218797e-14,8.485659018e-15,1.035523709e-14,8.188104639e-15,1.789103326e-14,4.701981345e-15,6.927219029e-15,2.112902839e-14,1.002835509e-13,1.547249986e-14,4.337978737e-15,1.812347742e-14,6.479886485e-14,4.564150480e-15,1.803695045e-15,9.433593375e-15,3.596384608e-15,3.078019866e-15,1.390380435e-14,4.671927862e-15,1.622986250e-15,4.792992228e-15,1.096670480e-14,7.499584081e-15,2.569544539e-14,6.538649326e-14,3.649853106e-14,4.337433231e-14,1.318257531e-14,6.830387081e-15
0.4375,1.850251268e-14,6.273455979e-14,1.719628078e-14,1.119400974e-14,1.442903501e-14,8.194397644e-15,1.591562698e-14,6.071059704e-15,9.243648181e-15,2.529145968e-14,1.006094469e-13,1.753571329e-14,4.405953195e-15,1.929570937e-14,5.823439890e-14,4.329940973e-15,2.230219369e-15,7.400763812e-15,3.973361176e-15,3.937892796e-15,1.246897309e-14,5.621269682e-15,1.477161295e-15,4.485938444e-15,1.166001476e-14,8.111056776e-15,2.551423971e-14,7.381066734e-14,4.083664692e-14,4.805180929e-14,1.435770173e-14,6.751835568e-15
0.44531,2.294024184e-14,6.561700318e-14,2.043703762e-14,1.426262178e-14,2.085351327e-14,8.205972142e-15,1.489327497e-14,8.766760372e-15,1.309819226e-14,3.070436037e-14,9.544012163e-14,1.911324880e-14,4.437252477e-15,2.064455929e-14,5.032165757e-14,4.783582542e-15,3.039212652e-15,6.545393299e-15,4.986908142e-15,5.327664492e-15,1.262206343e-14,7.031889416e-15,1.612489644e-15,4.942313331e-15,1.237593199e-14,8.037527027e-15,2.695103547e-14,8.804485161e-14,4.544249229e-14,5.521472622e-14,1.483395214e-14,7.508909274e-15
0.45312,2.746036790e-14,6.870155467e-14,2.582415602e-14,1.733024591e-14,2.983313834e-14,8.347993101e-15,1.573361169e-14,1.245841598e-14,1.838363010e-14,3.685021311e-14,8.700919364e-14,2.103359829e-14,5.266387459e-15,2.287282265e-14,4.327997848e-14,5.739554620e-15,4.121789203e-15,7.116725160e-15,6.808700513e-15,7.515436381e-15,1.533682013e-14,8.251863121e-15,2.047919827e-15,6.566455600e-15,1.409743702e-14,7.803815156e-15,3.101853198e-14,9.930360173e-14,4.816019641e-14,6.005676919e-14,1.478464488e-14,8.492029665e-15
0.46094,3.203137772e-14,7.152671109e-14,3.313836082e-14,2.075364406e-14,4.003882215e-14,8.973937483e-15,1.855027377e-14,1.664991157e-14,2.434878805e-14,4.265113908e-14,7.717584222e-14,2.283304932e-14,6.929454215e-15,2.531974059e-14,3.667857684e-14,6.651677399e-15,5.518999906e-15,9.047018415e-15,9.429576071e-15,1.052168208e-14,2.047070084e-14,9.616891137e-15,3.494801247e-15,9.401014231e-15,1.826549345e-14,8.956001325e-15,3.513104126e-14,1.068103437e-13,4.620896575e-14,6.030275642e-14,1.461118642e-14,9.248582782e-15
0.46875,3.836451488e-14,7.579314712e-14,4.812067341e-14,2.471112618e-14,5.051519471e-14,1.007458346e-14,2.288691733e-14,2.100929033e-14,3.043885602e-14,4.732681595e-14,6.516891835e-14,2.391731536e-14,9.154625176e-15,2.831998820e-14,3.039619029e-14,7.547479928e-15,7.345157083e-15,1.264430660e-14,1.290821385e-14,1.495874696e-14,2.781210618e-14,1.187030112e-14,5.995504299e-15,1.314576596e-14,2.611019248e-14,1.093900374e-14,4.046876212e-14,1.180843747e-13,4.210765342e-14,6.066735686e-14,1.409787267e-14,9.876336148e-15
0.47656,4.705787555e-14,8.102837906e-14,7.370094530e-14,2.967611421e-14,6.132792171e-14,1.137571739e-14,2.809342031e-14,2.534725299e-14,3.651122644e-14,5.258403128e-14,5.433159788e-14,2.609387733e-14,1.237050998e-14,3.240990269e-14,2.542657940e-14,8.461811081e-15,9.466262245e-15,1.774803247e-14,1.669466251e-14,2.113511635e-14,3.689627977e-14,1.432490221e-14,9.182413560e-15,1.829678572e-14,3.966928737e-14,1.271249800e-14,5.003582890e-14,1.286175812e-13,3.880832539e-14,6.366816870e-14,1.312283706e-14,1.085177510e-14
0.48438,5.782532807e-14,8.889111719e-14,1.121855311e-13,3.501452778e-14,7.046514458e-14,1.225713992e-14,3.518191733e-14,2.768009728e-14,4.011524800e-14,5.502535247e-14,4.546390007e-14,2.788820664e-14,1.631048626e-14,3.528427748e-14,2.197599754e-14,8.766456315e-15,1.146905039e-14,2.392621717e-14,2.061416950e-14,2.876105636e-14,4.770724804e-14,1.707820460e-14,1.389864024e-14,2.434091889e-14,5.923440527e-14,1.487051304e-14,5.798168671e-14,1.279599502e-13,3.399484726e-14,6.331920271e-14,1.213780840e-14,1.134634423e-14
0.49219,7.331117227e-14,9.620476283e-14,1.720934295e-13,3.945131273e-14,7.349768601e-14,1.251511688e-14,4.152772109e-14,2.762876094e-14,4.076828688e-14,5.269699803e-14,3.749317135e-14,2.829158261e-14,2.019280293e-14,3.624889733e-14,1.885137237e-14,7.945889388e-15,1.323731409e-14,2.968084754e-14,2.400765001e-14,3.749514891e-14,5.835957769e-14,2.071924444e-14,1.968446247e-14,3.012239173e-14,8.148703036e-14,1.800208776e-14,6.038458942e-14,1.211156168e-13,2.700557978e-14,6.042044675e-14,1.135921553e-14,1.208988957e-14
0.5,9.065410464e-14,1.008464751e-13,2.486080754e-13,4.394358605e-14,7.133462284e-14,1.256883885e-14,4.845390969e-14,2.624439620e-14,3.869784236e-14,4.798399830e-14,3.020961426e-14,2.724558932e-14,2.233052592e-14,3.486311394e-14,1.653555805e-14,6.595991109e-15,1.483422702e-14,3.417852354e-14,2.637013493e-14,4.729367027e-14,6.668572980e-14,2.442578839e-14,2.530936439e-14,3.456958779e-14,1.048545438e-13,2.161824823e-14,6.132873954e-14,1.152157786e-13,2.079549936e-14,5.929493245e-14,1.087328567e-14,1.304584031e-14
0.50781,1.106545667e-13,1.056819611e-13,3.429550626e-13,4.943004861e-14,6.784175741e-14,1.237612202e-14,6.068047303e-14,2.386089662e-14,3.456754278e-14,4.267778158e-14,2.515846379e-14,2.523944845e-14,2.353841762e-14,3.154855174e-14,1.587136542e-14,5.648058984e-15,1.682056507e-14,3.819059367e-14,2.809433618e-14,5.803409647e-14,7.252173156e-14,2.784934019e-14,3.025585388e-14,3.807825881e-14,1.264813223e-13,2.494246153e-14,6.100854995e-14,1.063182025e-13,1.669108452e-14,6.065945433e-14,1.024709928e-14,1.457068574e-14
0.51562,1.349774144e-13,1.099229458e-13,4.577653514e-13,5.391228720e-14,6.143664840e-14,1.173047191e-14,7.974806498e-14,2.003429418e-14,2.919673328e-14,3.633615796e-14,2.203027776e-14,2.274838727e-14,2.450177168e-14,2.738848535e-14,1.719083049e-14,4.743205914e-15,1.848195373e-14,4.072997155e-14,2.885292590e-14,6.794474543e-14,7.524457164e-14,3.108453498e-14,3.451535983e-14,4.061475129e-14,1.419986726e-13,2.797660511e-14,5.602255045e-14,9.299793035e-14,1.454024839e-14,6.269147606e-14,9.569747536e-15,1.686829271e-14
0.52344,1.600934695e-13,1.098426743e-13,5.852709776e-13,5.675044588e-14,5.241758123e-14,1.113176028e-14,1.057987445e-13,1.648516929e-14,2.437055196e-14,3.065420773e-14,2.059398532e-14,2.067816807e-14,2.371944502e-14,2.273590791e-14,2.073042544e-14,3.596318327e-15,1.884237806e-14,3.950660627e-14,2.765640155e-14,7.594297080e-14,7.415896870e-14,3.402869306e-14,3.787975184e-14,4.216103296e-14,1.470738113e-13,3.175771251e-14,4.671062790e-14,8.376194739e-14,1.478392502e-14,6.598016420e-14,9.379898198e-15,2.029411610e-14
0.53125,1.840518547e-13,1.095627885e-13,7.148534390e-13,6.019287323e-14,4.472845995e-14,1.186269249e-14,1.412338761e-13,1.504929589e-14,2.185681401e-14,2.755252409e-14,2.102179384e-14,2.021655264e-14,2.116569780e-14,1.844527133e-14,2.617397100e-14,2.570417219e-15,1.840093507e-14,3.569142766e-14,2.511899121e-14,8.163261097e-14,6.918320819e-14,3.591816830e-14,3.928877025e-14,4.255543335e-14,1.420171971e-13,3.632852373e-14,3.788885713e-14,8.180367172e-14,1.828786339e-14,7.350733180e-14,9.623892789e-15,2.548983378e-14
0.53906,2.100680500e-13,1.133437421e-13,8.441230240e-13,6.504009957e-14,4.140638598e-14,1.367664473e-14,1.879515562e-13,1.590680519e-14,2.203278008e-14,2.756642831e-14,2.480701533e-14,2.232067481e-14,1.942715766e-14,1.613590948e-14,3.213157301e-14,1.833440264e-15,1.858350237e-14,3.138863321e-14,2.210779659e-14,8.505823689e-14,6.216592284e-14,3.655910634e-14,3.862937202e-14,4.260284166e-14,1.302023452e-13,4.038865779e-14,3.115080567e-14,8.030549731e-14,2.663340341e-14,8.582449117e-14,9.583408276e-15,3.181534886e-14
0.54688,2.346888685e-13,1.153772950e-13,9.770598652e-13,6.981313855e-14,4.025508034e-14,1.665403680e-14,2.378276509e-13,1.901963689e-14,2.511832585e-14,3.006791492e-14,3.232633142e-14,2.675422345e-14,1.822973999e-14,1.567081844e-14,3.861064028e-14,1.413957220e-15,1.859158365e-14,2.616602944e-14,1.859638891e-14,8.517896990e-14,5.450391536e-14,3.630479281e-14,3.713008735e-14,4.338595291e-14,1.119890894e-13,4.449878098e-14,2.387706678e-14,7.952820994e-14,3.725994477e-14,9.537899575e-14,1.007201386e-14,3.904451276e-14
0.55469,2.566154430e-13,1.176972747e-13,1.095047389e-12,7.502573207e-14,3.975807752e-14,2.090079044e-14,2.778967276e-13,2.466779371e-14,3.045651189e-14,3.539139301e-14,4.509698369e-14,3.414284432e-14,1.712757075e-14,1.791806869e-14,4.733658242e-14,1.325626503e-15,1.801740054e-14,2.079101444e-14,1.517624457e-14,8.265574816e-14,4.668061548e-14,3.523067728e-14,3.510790806e-14,4.518834231e-14,8.829259113e-14,4.826974863e-14,1.681170368e-14,8.697467101e-14,4.883399749e-14,1.049321774e-13,1.055398465e-14,4.658559365e-14
0.5625,2.755634368e-13,1.211400024e-13,1.186075158e-12,8.085129915e-14,4.166040518e-14,2.562755982e-14,3.101158367e-13,3.207562925e-14,3.648838149e-14,4.145808461e-14,6.253128019e-14,4.252072614e-14,1.620719009e-14,2.180935109e-14,5.559746213e-14,1.140884284e-15,1.798617923e-14,1.665037353e-14,1.207566803e-14,7.856164613e-14,3.939625945e-14,3.293107890e-14,3.255896124e-14,4.781950921e-14,6.731253869e-14,5.127655424e-14,1.271967174e-14,9.325627660e-14,6.367476272e-14,1.180712098e-13,1.044098865e-14,5.304923303e-14
0.57031,2.881015306e-13,1.213762565e-13,1.258805923e-12,8.864424273e-14,4.384447906e-14,3.064164099e-14,3.298010295e-13,3.904574016e-14,4.131700063e-14,4.483574850e-14,8.250890691e-14,4.932972820e-14,1.593821085e-14,2.538690772e-14,6.205821671e-14,9.047947038e-16,1.866679054e-14,1.393247571e-14,9.672757036e-15,7.205462867e-14,3.363024495e-14,2.992267444e-14,2.989936795e-14,5.098114068e-14,5.050735549e-14,5.309549250e-14,1.027097293e-14,8.929598583e-14,7.875489583e-14,1.258989991e-13,1.063961451e-14,5.824177434e-14
0.57812,2.902112842e-13,1.146148721e-13,1.292935861e-12,9.822553646e-14,4.281670543e-14,3.476790584e-14,3.218194180e-13,4.492832487e-14,4.393442949e-14,4.706375566e-14,1.070497057e-13,5.491987546e-14,1.537556446e-14,2.889854153e-14,6.935638933e-14,8.310382332e-16,2.005862171e-14,1.326445627e-14,8.296368079e-15,6.316471952e-14,2.939041053e-14,2.592070275e-14,2.707092537e-14,5.493787302e-14,3.692567595e-14,5.184001924e-14,8.478393154e-15,8.420699090e-14,8.806901720e-14,1.236486801e-13,1.058523247e-14,6.013585813e-14
0.58594,2.822936924e-13,1.036234112e-13,1.266010666e-12,1.099954746e-13,4.161742469e-14,3.755439539e-14,2.907338016e-13,5.002650639e-14,4.361867687e-14,4.837597708e-14,1.340798741e-13,5.821808486e-14,1.393582407e-14,3.171808136e-14,7.709404742e-14,8.502264901e-16,2.235803565e-14,1.503221145e-14,8.265474624e-15,5.420700732e-14,2.614782070e-14,2.140437539e-14,2.396412693e-14,5.836985064e-14,2.788805203e-14,4.711989241e-14,6.883353194e-15,8.058123609e-14,9.273113728e-14,1.191110652e-13,9.506035877e-15,5.799434938e-14
0.59375,2.639090370e-13,9.154025151e-14,1.188442188e-12,1.231538730e-13,4.170939539e-14,3.911259741e-14,2.512610687e-13,5.273644683e-14,4.031975047e-14,4.641400532e-14,1.568387912e-13,5.710030830e-14,1.227478888e-14,3.209218654e-14,8.211280869e-14,8.535391309e-16,2.618482353e-14,1.879401992e-14,9.675394761e-15,4.660738665e-14,2.399604641e-14,1.724850290e-14,2.109424105e-14,6.013270310e-14,2.316684803e-14,4.095172488e-14,5.468149897e-15,7.020585312e-14,9.690591351e-14,1.146793902e-13,8.205604518e-15,5.317713149e-14
0.60156,2.362845335e-13,7.751056495e-14,1.080529020e-12,1.350958669e-13,4.013897983e-14,3.850161609e-14,2.083806233e-13,5.120038369e-14,3.453004267e-14,4.038585427e-14,1.722501327e-13,5.197024327e-14,1.112589603e-14,3.011512874e-14,8.385634056e-14,1.247093106e-15,3.151598304e-14,2.524343917e-14,1.276857147e-14,4.044367524e-14,2.309724027e-14,1.381691976e-14,1.842352362e-14,6.025281991e-14,1.995672969e-14,3.385021831e-14,5.514715688e-15,5.429893177e-14,9.773151473e-14,1.025690353e-13,7.301024540e-15,4.673723341e-14
0.60938,2.036116776e-13,6.396325495e-14,9.426562997e-13,1.459835402e-13,3.672556170e-14,3.668447824e-14,1.605666201e-13,4.737418367e-14,2.832907464e-14,3.365590154e-14,1.819274583e-13,4.533991807e-14,1.063041712e-14,2.774869182e-14,8.506784743e-14,1.951628048e-15,3.724000788e-14,3.367173554e-14,1.752463653e-14,3.595852688e-14,2.343637104e-14,1.166357974e-14,1.566650844e-14,5.981023989e-14,1.927736607e-14,2.598267311e-14,7.226223674e-15,4.354094603e-14,9.073741066e-14,8.362100058e-14,6.742408072e-15,3.924993465e-14
0.61719,1.718574985e-13,5.662036204e-14,7.861763742e-13,1.535827826e-13,3.532053593e-14,3.400243701e-14,1.144209898e-13,4.298801162e-14,2.245296281e-14,2.758872541e-14,1.880022697e-13,3.780253224e-14,1.121616750e-14,2.551244406e-14,8.820076133e-14,2.724110564e-15,4.228583033e-14,4.318167495e-14,2.404941899e-14,3.359988965e-14,2.447250627e-14,1.112714761e-14,1.282655084e-14,5.741807063e-14,1.924849937e-14,1.846315735e-14,8.831375591e-15,3.733247507e-14,7.850822187e-14,6.504939635e-14,5.899569467e-15,3.132373181e-14
0.625,1.472371434e-13,5.513764291e-14,6.422537219e-13,1.529940462e-13,3.527758898e-14,2.948786765e-14,7.861221025e-14,3.739993074e-14,1.801290790e-14,2.125812764e-14,1.857654817e-13,2.957612182e-14,1.394647664e-14,2.340896695e-14,9.197736861e-14,3.458222117e-15,4.580413607e-14,5.320148158e-14,3.184120366e-14,3.361981558e-14,2.574443185e-14,1.206874266e-14,1.016752462e-14,5.167190550e-14,1.857219980e-14,1.215628580e-14,1.041841517e-14,3.408645976e-14,6.631681887e-14,5.075714927e-14,4.721316864e-15,2.404416671e-14
0.63281,1.324478869e-13,5.647223064e-14,5.291612232e-13,1.439233798e-13,3.406661642e-14,2.418095817e-14,5.499224641e-14,3.039534362e-14,1.546842717e-14,1.447085653e-14,1.732902387e-13,2.157111582e-14,1.747958179e-14,2.177979698e-14,9.434193615e-14,4.334657950e-15,4.841339894e-14,6.307590705e-14,3.994881789e-14,3.594136998e-14,2.756795866e-14,1.434786723e-14,7.679796172e-15,4.386093648e-14,1.858711215e-14,7.387843705e-15,1.440344043e-14,3.565967269e-14,5.638995911e-14,3.916101208e-14,4.346389307e-15,1.858982598e-14
0.64062,1.278742984e-13,6.060007606e-14,4.470798852e-13,1.297571083e-13,3.258224189e-14,2.009667987e-14,3.793423792e-14,2.419455583e-14,1.509786446e-14,9.511324398e-15,1.575203163e-13,1.533727384e-14,2.102209778e-14,2.164687709e-14,9.716594883e-14,5.533181361e-15,5.033281241e-14,7.256930639e-14,4.797606075e-14,4.057993477e-14,3.094537733e-14,1.740870625e-14,5.601144560e-15,3.722048032e-14,2.145327457e-14,4.455915008e-15,2.141622164e-14,4.252430541e-14,4.624415603e-14,2.951163690e-14,4.256987517e-15,1.503799507e-14
0.64844,1.339459471e-13,6.781285986e-14,3.869563917e-13,1.108171907e-13,3.292660171e-14,1.682362814e-14,2.740625917e-14,1.947358374e-14,1.639642320e-14,6.114906712e-15,1.411249317e-13,1.090885109e-14,2.547545087e-14,2.314693971e-14,1.032807497e-13,6.582669283e-15,4.989071835e-14,8.088751730e-14,5.543848972e-14,4.629763986e-14,3.463740587e-14,2.016535443e-14,3.798751459e-15,3.110865287e-14,2.654257739e-14,2.898926399e-15,2.758065982e-14,5.026952222e-14,3.569589890e-14,2.530155433e-14,3.557979432e-15,1.265158807e-14
0.65625,1.446055673e-13,7.332105134e-14,3.404247965e-13,9.111565604e-14,3.510538395e-14,1.516130699e-14,2.251037433e-14,1.628431503e-14,1.878135800e-14,3.525501970e-15,1.226752088e-13,8.029762798e-15,2.877659844e-14,2.533824624e-14,1.090003163e-13,8.287719430e-15,4.731044550e-14,8.565074443e-14,5.987681387e-14,4.973893751e-14,3.629827391e-14,2.193049613e-14,2.635575746e-15,2.498421912e-14,3.351833684e-14,2.516802140e-15,3.068443302e-14,5.556711771e-14,2.876395476e-14,2.534107515e-14,3.484951857e-15,1.149777314e-14
0.66406,1.574663789e-13,7.612283651e-14,3.115451241e-13,7.540844738e-14,3.848372393e-14,1.542175234e-14,2.229064774e-14,1.424480757e-14,2.092021956e-14,1.973832964e-15,1.025811012e-13,6.520625417e-15,2.870729297e-14,2.803922619e-14,1.118439535e-13,1.191535062e-14,4.443539890e-14,8.720724561e-14,6.106652389e-14,5.118906835e-14,3.682554034e-14,2.272192149e-14,1.896071166e-15,2.007479396e-14,4.187041087e-14,2.967050594e-15,3.461103011e-14,6.041210471e-14,2.589106359e-14,2.707910187e-14,4.034509648e-15,1.096280312e-14
0.67188,1.685536283e-13,7.777363387e-14,2.839792495e-13,6.553378489e-14,4.192132503e-14,1.711236160e-14,2.423744769e-14,1.302679512e-14,2.260899587e-14,1.481351543e-15,8.453860326e-14,6.265146880e-15,2.669046248e-14,3.059758765e-14,1.112129198e-13,1.753891347e-14,4.173127764e-14,8.529336834e-14,5.911485229e-14,5.203335655e-14,3.715218055e-14,2.253208000e-14,1.520941638e-15,1.751410669e-14,5.013277283e-14,3.805240224e-15,3.898459929e-14,6.496847424e-14,2.617672466e-14,3.194990536e-14,4.906391839e-15,1.087414914e-14
0.67969,1.713448828e-13,7.927144640e-14,2.424873125e-13,6.224663248e-14,4.472098184e-14,1.966395959e-14,2.580082726e-14,1.235543873e-14,2.310851435e-14,1.830534837e-15,7.020658237e-14,7.067605910e-15,2.437792875e-14,3.212855512e-14,1.057308747e-13,2.483542969e-14,3.983502201e-14,8.085971568e-14,5.439356024e-14,5.174666855e-14,3.557560258e-14,2.078242509e-14,1.729625390e-15,1.722397433e-14,5.734380006e-14,4.962046067e-15,3.869574022e-14,6.399040257e-14,2.993245532e-14,3.936151832e-14,6.568640264e-15,1.054532566e-14
0.6875,1.682457209e-13,8.318619073e-14,1.990208020e-13,6.521679552e-14,4.644061116e-14,2.241569644e-14,2.515361156e-14,1.188268849e-14,2.239618044e-14,3.167919439e-15,5.967588117e-14,8.833116080e-15,2.191472083e-14,3.363169277e-14,9.793763577e-14,3.363914857e-14,3.969337760e-14,7.537806667e-14,4.859407441e-14,5.025877224e-14,3.199298672e-14,1.867542717e-14,2.209472742e-15,1.842513069e-14,6.135456529e-14,6.451851278e-15,3.343525635e-14,5.999424390e-14,3.679431413e-14,4.701814366e-14,9.119962551e-15,1.007081028e-14
0.69531,1.625284952e-13,8.856224314e-14,1.622100666e-13,7.132324232e-14,4.665900684e-14,2.436465953e-14,2.440803688e-14,1.122350665e-14,2.012153164e-14,5.849351430e-15,5.108507114e-14,1.072593535e-14,1.812055494e-14,3.436287771e-14,8.686988579e-14,4.346796280e-14,4.048300964e-14,6.745844524e-14,4.194458110e-14,4.907375205e-14,2.844651280e-14,1.676242202e-14,2.689526875e-15,2.060577529e-14,6.216313161e-14,7.268267707e-15,2.833981075e-14,5.900085327e-14,4.467641258e-14,5.428483837e-14,1.194196984e-14,9.197663562e-15
0.70312,1.517887673e-13,9.442022991e-14,1.287519952e-13,7.923463306e-14,4.462124822e-14,2.482321921e-14,2.295449762e-14,1.028662843e-14,1.760094609e-14,9.786153152e-15,4.420022359e-14,1.281673896e-14,1.519736903e-14,3.347537066e-14,7.114102982e-14,5.096701908e-14,4.173296734e-14,5.848681344e-14,3.574148336e-14,4.949146743e-14,2.482573898e-14,1.518196133e-14,3.671076211e-15,2.344564331e-14,6.134473845e-14,7.165290962e-15,2.532953061e-14,6.407522979e-14,5.350876153e-14,6.317981724e-14,1.487956647e-14,8.112208952e-15
0.71094,1.391311616e-13,1.000317467e-13,1.031886196e-13,8.451066114e-14,3.956168498e-14,2.378982036e-14,2.030066295e-14,8.949665479e-15,1.526321626e-14,1.516648946e-14,4.068655573e-14,1.546058068e-14,1.415088010e-14,3.273155234e-14,5.730005994e-14,5.537864842e-14,4.227491645e-14,5.030912865e-14,3.124038301e-14,5.099370016e-14,2.096233542e-14,1.398833520e-14,5.083846083e-15,2.632359469e-14,5.762987320e-14,6.744392077e-15,2.226713772e-14,7.160100229e-14,6.438175610e-14,7.561508802e-14,1.782384514e-14,7.145745868e-15
0.71875,1.248480149e-13,1.048695677e-13,8.481771012e-14,8.466633226e-14,3.300534320e-14,2.154726695e-14,1.818470518e-14,7.946890272e-15,1.331316201e-14,2.152388946e-14,3.993507187e-14,1.787358210e-14,1.429299820e-14,3.127230443e-14,4.551719831e-14,5.703804692e-14,4.160555409e-14,4.241885608e-14,2.836106877e-14,5.352738127e-14,1.792406849e-14,1.353501007e-14,6.461651045e-15,2.852977818e-14,5.178656221e-14,6.337288291e-15,2.081639207e-14,8.579950462e-14,7.593678462e-14,8.997580355e-14,2.038764127e-14,6.615027728e-15
0.72656,1.118917234e-13,1.083255545e-13,7.433541975e-14,8.197636472e-14,2.632217503e-14,1.820843477e-14,1.840303611e-14,7.529017114e-15,1.225309772e-14,2.787553756e-14,3.999722684e-14,1.952029023e-14,1.570444092e-14,2.910419696e-14,3.496569125e-14,5.559220879e-14,3.976480816e-14,3.530579115e-14,2.752531470e-14,5.721820370e-14,1.629589725e-14,1.407900851e-14,8.053038158e-15,2.942978161e-14,4.720919702e-14,5.478575149e-15,2.381416203e-14,1.085528112e-13,8.635190646e-14,1.042079796e-13,2.284094819e-14,6.505355594e-15
0.73438,9.932082254e-14,1.061614960e-13,7.031486148e-14,7.632807834e-14,2.040083400e-14,1.454215653e-14,2.129110899e-14,7.970905832e-15,1.209872232e-14,3.343922038e-14,4.017344811e-14,2.016763393e-14,1.746102455e-14,2.648686654e-14,2.614641909e-14,4.953373334e-14,3.586978861e-14,2.845781380e-14,2.791266048e-14,5.995979313e-14,1.590758250e-14,1.533384871e-14,1.052896563e-14,3.069119560e-14,4.314478483e-14,4.375571538e-15,2.777313098e-14,1.309443943e-13,9.321821512e-14,1.146341973e-13,2.422687844e-14,7.031986474e-15
0.74219,8.592505911e-14,9.775115056e-14,7.095591280e-14,6.529867509e-14,1.473414878e-14,1.089428041e-14,2.578253600e-14,9.094965165e-15,1.255570817e-14,3.707186696e-14,3.985701056e-14,1.936639567e-14,1.950738578e-14,2.340326692e-14,1.946942543e-14,4.012188333e-14,2.992529044e-14,2.170396525e-14,2.842501638e-14,6.012149215e-14,1.600127086e-14,1.643976253e-14,1.333686934e-14,3.132424041e-14,3.846324285e-14,4.012733546e-15,3.148187035e-14,1.469418160e-13,9.534882469e-14,1.199479200e-13,2.393628343e-14,7.977589032e-15
0.75,7.393494889e-14,8.855055156e-14,7.217228790e-14,5.201693086e-14,1.020964302e-14,7.872781657e-15,3.177118048e-14,1.071439484e-14,1.352643001e-14,3.880003931e-14,3.865158757e-14,1.785422334e-14,2.239752178e-14,2.149836929e-14,1.602446017e-14,3.119819648e-14,2.526146190e-14,1.657864202e-14,2.917740283e-14,5.859877140e-14,1.602817895e-14,1.717488148e-14,1.542068015e-14,3.039786262e-14,3.353609991e-14,4.200530204e-15,3.709329369e-14,1.613301424e-13,9.514725973e-14,1.233691610e-13,2.315471416e-14,9.394440104e-15
0.75781,6.405007428e-14,7.765046313e-14,7.387151788e-14,4.057158113e-14,7.843857486e-15,5.776348245e-15,3.885734762e-14,1.259166073e-14,1.476342721e-14,3.848655955e-14,3.728333026e-14,1.583389464e-14,2.567936341e-14,2.052628279e-14,1.494892965e-14,2.591778633e-14,2.433777972e-14,1.273836375e-14,2.934022529e-14,5.481914579e-14,1.568448860e-14,1.780710809e-14,1.702533769e-14,2.816971841e-14,2.968782289e-14,4.056550840e-15,4.227099000e-14,1.725327535e-13,9.173464922e-14,1.229233220e-13,2.195522315e-14,1.117322982e-14
0.76562,5.479040042e-14,6.249563512e-14,7.822525257e-14,3.004554649e-14,5.893646870e-15,4.445385253e-15,4.317817855e-14,1.366876540e-14,1.544123979e-14,3.516002408e-14,3.462258762e-14,1.287294435e-14,2.834196793e-14,2.015432068e-14,1.535200811e-14,2.406701739e-14,2.741376500e-14,9.911676676e-15,2.875702111e-14,4.927632422e-14,1.522691482e-14,1.783691872e-14,1.844919873e-14,2.644082130e-14,2.672464241e-14,4.063265586e-15,4.292016868e-14,1.725336240e-13,8.239251647e-14,1.146543548e-13,1.969847474e-14,1.247419515e-14
0.77344,4.661208393e-14,4.841595794e-14,7.949370166e-14,2.102797097e-14,4.088746269e-15,3.769782286e-15,4.450500139e-14,1.392331906e-14,1.577237159e-14,3.006973180e-14,3.025282950e-14,9.809364807e-15,3.013505172e-14,2.177820581e-14,1.870700210e-14,2.614817853e-14,3.576744386e-14,8.417155663e-15,2.643054604e-14,4.225628735e-14,1.390162080e-14,1.678337648e-14,1.880661850e-14,2.404378584e-14,2.293820289e-14,4.255246981e-15,4.217288210e-14,1.639709770e-13,7.164384939e-14,1.053929914e-13,1.722955535e-14,1.317130298e-14
0.78125,4.166244798e-14,3.848623364e-14,8.018613730e-14,1.451627988e-14,3.327082548e-15,3.924410878e-15,4.546892015e-14,1.381453867e-14,1.600054601e-14,2.555458352e-14,2.504446227e-14,7.497606038e-15,3.197997208e-14,2.527981727e-14,2.510386867e-14,3.367710607e-14,5.026273616e-14,9.657897010e-15,2.387562923e-14,3.608100157e-14,1.195004633e-14,1.538615110e-14,1.793132885e-14,2.041651848e-14,2.089730790e-14,4.103573910e-15,4.494648612e-14,1.625489737e-13,6.365195864e-14,1.015308990e-13,1.523548694e-14,1.341376157e-14
0.78906,3.790066524e-14,2.881729183e-14,7.887110774e-14,1.112812991e-14,3.114034037e-15,4.675307992e-15,4.435821369e-14,1.281634698e-14,1.566111440e-14,2.090361364e-14,2.088393622e-14,5.526652377e-15,3.341443828e-14,2.988608673e-14,3.269647887e-14,4.314488262e-14,6.775993477e-14,1.278691095e-14,2.102610114e-14,3.135999535e-14,9.828793626e-15,1.363797340e-14,1.628849183e-14,1.709153906e-14,2.045926186e-14,3.408171329e-15,4.484508718e-14,1.577139899e-13,5.508279200e-14,9.568764696e-14,1.375790508e-14,1.279571994e-14
0.79688,3.602138506e-14,2.113832057e-14,7.720355347e-14,1.056676751e-14,2.818423719e-15,5.858290059e-15,3.956046495e-14,1.106299677e-14,1.508314415e-14,1.568965806e-14,1.659552759e-14,3.971217041e-15,3.459727324e-14,3.530292803e-14,3.986903076e-14,5.386657396e-14,8.813123580e-14,1.775915852e-14,1.896915286e-14,2.814354798e-14,7.944057522e-15,1.218799031e-14,1.469579037e-14,1.446377185e-14,2.033197069e-14,2.903585762e-15,4.114763371e-14,1.492360211e-13,4.716776648e-14,9.037738681e-14,1.283567687e-14,1.140335922e-14
0.80469,3.573264282e-14,1.714691059e-14,7.279613991e-14,1.209433128e-14,2.923215476e-15,7.832118262e-15,3.336418650e-14,9.831496298e-15,1.466915563e-14,1.164226221e-14,1.228260824e-14,3.194505152e-15,3.468923332e-14,4.130934155e-14,4.847381893e-14,6.519157025e-14,1.083008762e-13,2.428004895e-14,1.784433466e-14,2.725984485e-14,6.778153666e-15,1.121553579e-14,1.355341195e-14,1.262966547e-14,2.086785241e-14,2.754008664e-15,4.051604249e-14,1.543787141e-13,4.369484621e-14,9.182722170e-14,1.306194154e-14,1.015012991e-14
0.8125,3.531314716e-14,1.498878779e-14,6.509209527e-14,1.559399020e-14,3.755616348e-15,1.109167019e-14,2.886937880e-14,9.582630993e-15,1.348848902e-14,9.396661386e-15,9.484449705e-15,2.810004071e-15,3.321178879e-14,4.720141074e-14,5.725809747e-14,7.389582458e-14,1.255211753e-13,3.079059099e-14,1.763582935e-14,2.825789448e-14,6.418233994e-15,9.961916669e-15,1.187163220e-14,1.175833440e-14,2.161600469e-14,2.573536207e-15,4.114288814e-14,1.620328403e-13,4.119970897e-14,9.100079591e-14,1.429730799e-14,8.896192392e-15
0.82031,3.350094215e-14,1.374927798e-14,5.715779783e-14,2.130497735e-14,5.227178252e-15,1.549196161e-14,2.489753248e-14,1.008182444e-14,1.171112274e-14,7.653578666e-15,8.489649625e-15,2.336211076e-15,3.109473644e-14,5.095291311e-14,6.196804913e-14,7.710218500e-14,1.364013919e-13,3.566728225e-14,1.789566953e-14,2.833195197e-14,6.213654128e-15,8.758760713e-15,1.003723492e-14,1.146056560e-14,2.173312434e-14,2.838977946e-15,3.490603401e-14,1.669670429e-13,3.464127478e-14,8.137969905e-14,1.522927570e-14,7.800368819e-15
0.82812,3.123802215e-14,1.420827176e-14,4.707828587e-14,2.842093699e-14,7.261587003e-15,2.101352522e-14,2.106499355e-14,1.168079660e-14,1.015043871e-14,6.189619638e-15,7.978722832e-15,1.960264315e-15,2.794136598e-14,5.158205894e-14,6.138716297e-14,7.516220964e-14,1.417620412e-13,3.791687031e-14,1.866371829e-14,2.900696480e-14,6.721646232e-15,7.986795964e-15,9.071121608e-15,1.266807395e-14,2.005004622e-14,3.322053555e-15,2.814217642e-14,1.857828883e-13,3.092812178e-14,7.569889529e-14,1.543242752e-14,7.497682142e-15
0.83594,2.826584700e-14,1.661138073e-14,3.581900118e-14,3.666488188e-14,8.919751059e-15,2.796474645e-14,1.882454422e-14,1.464673739e-14,8.879601121e-15,5.548034377e-15,7.640243249e-15,1.853521184e-15,2.320965356e-14,4.987855440e-14,5.879878296e-14,7.082260169e-14,1.431573165e-13,3.784825548e-14,1.932279743e-14,2.994925336e-14,7.390945835e-15,6.916249800e-15,7.954970428e-15,1.392522630e-14,1.825821693e-14,3.657887871e-15,2.735260282e-14,2.194160075e-13,3.004914010e-14,7.333414362e-14,1.616482548e-14,8.148147742e-15
0.84375,2.507638211e-14,2.060870531e-14,2.835626066e-14,4.674147957e-14,1.063915463e-14,3.657695524e-14,1.827335288e-14,1.947178277e-14,8.025058229e-15,5.888700206e-15,8.400169043e-15,1.891156454e-15,1.820828693e-14,4.649315880e-14,5.510847588e-14,6.385556934e-14,1.387419531e-13,3.509800943e-14,1.898379854e-14,2.836840367e-14,7.393775926e-15,5.758936820e-15,6.426889958e-15,1.432186915e-14,1.654579403e-14,4.310920548e-15,2.632589627e-14,2.521741074e-13,2.587290054e-14,6.449135899e-14,1.687722094e-14,1.019622245e-14
0.85156,2.178378717e-14,2.549338827e-14,2.196999103e-14,5.699908797e-14,1.387285890e-14,4.559450700e-14,1.936777054e-14,2.589038546e-14,8.107760157e-15,7.025234873e-15,1.058913773e-14,1.994069489e-15,1.398262684e-14,4.004869747e-14,4.650795004e-14,5.343627795e-14,1.287922988e-13,2.963043909e-14,1.811947843e-14,2.455861563e-14,6.912454215e-15,4.952029288e-15,5.009442772e-15,1.404186680e-14,1.443133483e-14,5.263094373e-15,2.654317162e-14,2.995475544e-13,2.294173024e-14,5.859217359e-14,1.547288942e-14,1.339481086e-14
0.85938,1.883023311e-14,3.019013632e-14,1.506626696e-14,6.445572440e-14,1.586600411e-14,5.384419636e-14,2.294589524e-14,3.174496039e-14,9.045604481e-15,8.806416371e-15,1.402163223e-14,2.236554940e-15,1.040633092e-14,3.252986380e-14,3.628416280e-14,4.350130203e-14,1.191992991e-13,2.390072530e-14,1.693824098e-14,2.240756119e-14,6.375183469e-15,4.284564484e-15,3.667394369e-15,1.342662093e-14,1.325266292e-14,6.356150585e-15,3.234952877e-14,3.751922305e-13,2.605185619e-14,6.462114130e-14,1.355194541e-14,1.755284992e-14
0.86719,1.640388379e-14,3.449986689e-14,1.180110010e-14,6.951831113e-14,1.513634208e-14,6.185975533e-14,2.491252257e-14,3.647618230e-14,1.105506451e-14,9.823605640e-15,1.753879310e-14,2.519567977e-15,7.380780453e-15,2.631051407e-14,2.919847319e-14,3.641200373e-14,1.103004177e-13,1.929345965e-14,1.527740113e-14,1.991845015e-14,5.579837966e-15,4.115573160e-15,2.556406066e-15,1.285384414e-14,1.416232618e-14,7.903458861e-15,3.589394658e-14,4.420888092e-13,2.669206035e-14,6.733721765e-14,1.353897288e-14,2.330418741e-14
0.875,1.492192077e-14,3.904379345e-14,1.188317813e-14,7.202639629e-14,1.469533368e-14,6.829129610e-14,2.363076705e-14,4.137183722e-14,1.397306042e-14,1.064420568e-14,2.030276329e-14,3.158927703e-15,5.286052525e-15,2.105740166e-14,2.395492564e-14,3.068459479e-14,9.754727963e-14,1.551515365e-14,1.271904165e-14,1.643991654e-14,3.913256084e-15,4.238381957e-15,1.588730106e-15,1.238173616e-14,1.714076725e-14,1.002680794e-14,3.838584360e-14,4.971706517e-13,2.386633899e-14,6.514095420e-14,1.451082925e-14,2.976408597e-14
0.88281,1.362155889e-14,4.124784721e-14,1.321758026e-14,6.894117027e-14,1.489552526e-14,7.143277369e-14,2.294773895e-14,4.564832585e-14,1.733413395e-14,1.246014392e-14,2.344091118e-14,4.120973033e-15,4.246323451e-15,1.656118080e-14,1.867464769e-14,2.515041045e-14,8.193061089e-14,1.315433803e-14,1.046212304e-14,1.467987952e-14,2.566104991e-15,5.009866805e-15,1.128377589e-15,1.276572474e-14,2.155258758e-14,1.270591462e-14,4.805750031e-14,5.782936337e-13,2.647779343e-14,7.301459592e-14,1.437339476e-14,3.595531843e-14
0.89062,1.267705784e-14,4.116631411e-14,1.523107246e-14,6.114374288e-14,1.324807030e-14,7.167058713e-14,2.427469141e-14,4.675681097e-14,2.050717690e-14,1.427099469e-14,2.699928511e-14,4.881146136e-15,4.025885047e-15,1.355457287e-14,1.433848232e-14,2.095380915e-14,6.768596847e-14,1.253706401e-14,8.814681720e-15,1.501327480e-14,1.916235494e-15,6.561257095e-15,1.329904656e-15,1.384386962e-14,2.553775391e-14,1.560616644e-14,5.345680500e-14,6.497622595e-13,2.842254998e-14,7.980430634e-14,1.412010141e-14,4.157236681e-14
0.89844,1.126313690e-14,3.820086559e-14,1.795654728e-14,5.247718559e-14,1.067762741e-14,7.025654905e-14,2.398616014e-14,4.468329101e-14,2.310480499e-14,1.414492604e-14,2.870767842e-14,5.571671281e-15,4.591984906e-15,1.192279078e-14,1.183596464e-14,1.949412465e-14,5.468558476e-14,1.409121314e-14,7.736305628e-15,1.683776185e-14,1.375844060e-15,8.424038485e-15,1.755318323e-15,1.527785790e-14,2.904843568e-14,1.838567375e-14,4.754682037e-14,6.794189407e-13,2.467653832e-14,7.607946545e-14,1.530440744e-14,4.632142319e-14
0.90625,1.038635160e-14,3.291307411e-14,2.366105955e-14,4.567015135e-14,9.070543601e-15,6.714484220e-14,2.014900800e-14,4.146330707e-14,2.492074575e-14,1.328290032e-14,2.706310589e-14,6.483818518e-15,5.985599426e-15,1.212730174e-14,1.069082219e-14,2.005807511e-14,4.249447842e-14,1.806458888e-14,8.139343525e-15,1.971287258e-14,1.336266351e-15,1.051432628e-14,2.423010129e-15,1.766346231e-14,3.362993955e-14,2.036375501e-14,4.289673571e-14,6.965059249e-13,2.109595813e-14,7.143764107e-14,1.667705262e-14,4.934090801e-14
0.91406,1.110376616e-14,2.836649729e-14,2.963772492e-14,4.183198309e-14,8.361019431e-15,6.263006842e-14,1.604837392e-14,3.794032358e-14,2.534862554e-14,1.305358002e-14,2.389857238e-14,6.996705208e-15,7.324453524e-15,1.313183659e-14,9.679453927e-15,2.126201680e-14,3.241184480e-14,2.236477018e-14,9.306251299e-15,2.192903000e-14,2.380891122e-15,1.289064368e-14,3.679183606e-15,1.868042441e-14,3.713834218e-14,2.210381252e-14,4.205936834e-14,7.124085962e-13,2.015477682e-14,7.043494216e-14,1.664173434e-14,5.015129149e-14
0.92188,1.144609393e-14,2.363715357e-14,3.280777182e-14,4.167940622e-14,8.420090383e-15,5.806355714e-14,1.405139419e-14,3.398184326e-14,2.469593886e-14,1.263279691e-14,2.092353269e-14,7.372359984e-15,8.796047351e-15,1.442509368e-14,8.900815436e-15,2.364671378e-14,2.512748322e-14,2.697673690e-14,1.155122763e-14,2.207457056e-14,4.729974437e-15,1.570151094e-14,5.724112833e-15,1.766411076e-14,3.921393817e-14,2.366591131e-14,3.703344242e-14,7.006510957e-13,2.085614748e-14,7.067900219e-14,1.555911686e-14,4.930727762e-14
0.92969,1.363443041e-14,1.954045602e-14,3.908557050e-14,4.602994807e-14,8.965416416e-15,5.398702794e-14,1.213996952e-14,2.952921250e-14,2.368918884e-14,1.182561933e-14,1.834071410e-14,7.845932676e-15,1.148712982e-14,1.631840758e-14,7.975707123e-15,2.628947159e-14,2.062061447e-14,3.117176193e-14,1.517697252e-14,2.065818812e-14,8.415159827e-15,1.903975986e-14,8.159147575e-15,1.631278518e-14,4.104841610e-14,2.348070573e-14,2.761288256e-14,6.600423383e-13,2.204478594e-14,7.018918891e-14,1.402468971e-14,4.739634141e-14
0.9375,1.794231786e-14,1.810368688e-14,4.653130477e-14,5.156028165e-14,8.876294079e-15,4.947622152e-14,9.356268524e-15,2.514505921e-14,2.153067787e-14,1.143870402e-14,1.634318616e-14,8.032762226e-15,1.406705326e-14,1.766403226e-14,7.484960751e-15,2.846780351e-14,1.827044960e-14,3.314892679e-14,1.878112819e-14,1.815250123e-14,1.353814011e-14,2.187645229e-14,1.054719236e-14,1.436456077e-14,4.462427254e-14,2.134395307e-14,2.117761012e-14,6.067234897e-13,2.445538183e-14,7.073846782e-14,1.197680669e-14,4.345850586e-14
0.94531,2.249297736e-14,1.928579285e-14,5.038005095e-14,5.588321083e-14,8.600617374e-15,4.414294325e-14,7.185963368e-15,2.160065689e-14,1.855172285e-14,1.213461989e-14,1.632050062e-14,7.949597478e-15,1.532973908e-14,1.861148760e-14,6.488489627e-15,2.971103755e-14,1.816066117e-14,3.308837870e-14,2.197792912e-14,1.478023361e-14,1.962450672e-14,2.347915141e-14,1.275290620e-14,1.188265704e-14,5.073265826e-14,1.926960561e-14,1.899633925e-14,5.515169486e-13,2.861757816e-14,7.458412571e-14,9.589925489e-15,3.753771183e-14
0.95312,2.795597620e-14,2.200650984e-14,5.532820492e-14,5.776157903e-14,8.188058469e-15,3.820894825e-14,6.439969396e-15,1.916532717e-14,1.553654089e-14,1.311199253e-14,1.819169186e-14,7.839166534e-15,1.590647735e-14,1.908934760e-14,5.983235110e-15,2.863821500e-14,1.835228078e-14,3.154206611e-14,2.478733993e-14,1.186891834e-14,2.603129460e-14,2.460631611e-14,1.532282074e-14,9.479373092e-15,5.820879811e-14,1.778845221e-14,1.841604506e-14,4.901561135e-13,3.355295045e-14,8.078483943e-14,7.800906652e-15,3.140632797e-14
0.96094,3.313006975e-14,2.511421246e-14,5.917127911e-14,5.700417873e-14,7.241490986e-15,3.227185584e-14,6.876362707e-15,1.764441292e-14,1.285449004e-14,1.434358204e-14,2.183743334e-14,7.891402172e-15,1.610000180e-14,1.914358359e-14,6.094731241e-15,2.649446298e-14,1.878434279e-14,2.890038454e-14,2.624598115e-14,9.593101207e-15,3.164420647e-14,2.478777886e-14,1.697818411e-14,8.458155584e-15,6.924774591e-14,1.466351237e-14,2.173571736e-14,4.271270724e-13,3.668082525e-14,8.452144343e-14,6.156688896e-15,2.556606711e-14
0.96875,3.860666241e-14,3.021728780e-14,5.938543647e-14,5.400108639e-14,6.220274193e-15,2.607149194e-14,8.999783492e-15,1.655523328e-14,1.030323162e-14,1.588039046e-14,2.665179375e-14,8.023439903e-15,1.583743228e-14,1.905339512e-14,6.410130763e-15,2.359212132e-14,1.954997610e-14,2.600036635e-14,2.664910504e-14,8.881903622e-15,3.565031523e-14,2.336741401e-14,1.665475622e-14,7.855910596e-15,8.310916396e-14,1.117991301e-14,3.267083297e-14,3.692183631e-13,3.903895761e-14,8.579785341e-14,5.495133196e-15,1.979752146e-14
0.97656,4.213084787e-14,3.396021220e-14,5.950592176e-14,5.000687913e-14,5.672768100e-15,1.975054544e-14,1.295968996e-14,1.638205371e-14,8.438517490e-15,1.724806071e-14,3.065604916e-14,8.440472135e-15,1.473268132e-14,1.899126530e-14,8.620370854e-15,1.930650673e-14,1.792673794e-14,2.399643798e-14,2.515960095e-14,9.674011539e-15,3.727222143e-14,2.096823362e-14,1.583723152e-14,7.244678912e-15,9.723783158e-14,9.105019646e-15,5.315141656e-14,3.181532610e-13,3.971017378e-14,8.414193322e-14,5.535489150e-15,1.455107644e-14
0.98438,4.188270301e-14,3.307003565e-14,6.214385779e-14,4.624407498e-14,5.808380225e-15,1.427027990e-14,1.847146343e-14,1.718342108e-14,7.384897966e-15,1.855897474e-14,3.376568320e-14,8.895087180e-15,1.258102688e-14,1.847579879e-14,1.113249168e-14,1.513249130e-14,1.513415270e-14,2.238137963e-14,2.183401243e-14,1.062841772e-14,3.592885831e-14,1.807942902e-14,1.455149937e-14,7.838498875e-15,1.116738058e-13,7.863813585e-15,8.402330852e-14,2.762787854e-13,3.752544987e-14,7.733219962e-14,5.696820380e-15,1.031429817e-14
0.99219,3.931182919e-14,3.068326942e-14,6.571714241e-14,4.431426078e-14,6.682695071e-15,9.911161236e-15,2.483328926e-14,1.845492077e-14,6.626159897e-15,1.939996265e-14,3.544022640e-14,9.687666494e-15,1.012572932e-14,1.829566238e-14,1.395530776e-14,1.230805528e-14,1.251850239e-14,2.185160696e-14,1.777958739e-14,1.098948551e-14,3.217345040e-14,1.503782017e-14,1.214741893e-14,8.596759110e-15,1.234017738e-13,7.302751348e-15,1.210731480e-13,2.439934883e-13,3.529391363e-14,6.842823820e-14,6.547669284e-15,7.523193200e-15
1,3.597359411e-14,2.884105809e-14,7.235944521e-14,4.323474079e-14,7.759823521e-15,6.578199001e-15,3.134284001e-14,1.914710873e-14,6.464509545e-15,1.913420389e-14,3.386208769e-14,1.087440192e-14,8.300515621e-15,1.869957433e-14,1.737185891e-14,1.035112582e-14,1.009970487e-14,2.233083970e-14,1.380472473e-14,1.092268232e-14,2.757748497e-14,1.244676219e-14,9.890602110e-15,8.338371620e-15,1.260306516e-13,7.153783159e-15,1.629317962e-13,2.216731691e-13,3.320196105e-14,5.815924623e-14,7.353997214e-15,5.732995903e-15
1.0078,3.174888135e-14,2.639822298e-14,8.298585018e-14,4.203013023e-14,8.786811130e-15,4.327420084e-15,3.759814286e-14,1.918922468e-14,6.541812579e-15,1.783403411e-14,3.009514429e-14,1.129824060e-14,6.803694839e-15,1.803108621e-14,1.951327513e-14,8.256516260e-15,7.901394784e-15,2.238432847e-14,1.002363158e-14,1.035882763e-14,2.320189052e-14,1.070838489e-14,8.964379452e-15,7.586123793e-15,1.204800419e-13,7.642195835e-15,2.126196083e-13,1.972051149e-13,3.219440334e-14,4.623418242e-14,7.868840792e-15,5.061925424e-15
1.0156,2.694893549e-14,2.291180413e-14,9.780489742e-14,3.931035573e-14,9.761690555e-15,3.173186693e-15,4.335254657e-14,1.881959211e-14,6.575750183e-15,1.621500347e-14,2.618108139e-14,1.133304036e-14,5.288358578e-15,1.678942099e-14,2.089354184e-14,6.811231032e-15,7.419738026e-15,2.154780605e-14,7.178446166e-15,9.328727430e-15,1.975557767e-14,9.795190469e-15,9.053866086e-15,7.093890350e-15,1.094103398e-13,8.164122466e-15,2.595019087e-13,1.735206831e-13,3.337793138e-14,3.659184192e-14,8.460873662e-15,5.177630193e-15
1.0234,2.228304908e-14,1.966362797e-14,1.141003826e-13,3.398653065e-14,9.954000728e-15,2.823422579e-15,4.720620771e-14,1.733508971e-14,6.717132161e-15,1.417497320e-14,2.175771828e-14,1.107214348e-14,3.999221667e-15,1.495094361e-14,2.125009560e-14,5.624228035e-15,9.343422402e-15,2.062770385e-14,5.899366303e-15,8.263943888e-15,1.769474535e-14,9.461944215e-15,9.727639304e-15,6.742690379e-15,9.354066637e-14,8.628052812e-15,2.891452354e-13,1.545566187e-13,3.470284742e-14,2.879186934e-14,9.302781478e-15,5.671698935e-15
1.0312,1.949242862e-14,1.711040907e-14,1.248794737e-13,2.851183348e-14,8.999835894e-15,3.160925243e-15,4.706646676e-14,1.489674479e-14,6.571172331e-15,1.138043115e-14,1.797083114e-14,1.022400202e-14,3.010839286e-15,1.289191013e-14,2.149715577e-14,4.769006384e-15,1.248699158e-14,2.063282656e-14,6.580853846e-15,7.319321701e-15,1.787851864e-14,9.512907032e-15,1.205219044e-14,6.536144870e-15,7.290877247e-14,8.605148248e-15,3.043105150e-13,1.376596003e-13,3.551236728e-14,2.247741850e-14,1.001315065e-14,6.550884398e-15
1.0391,1.995040953e-14,1.534276556e-14,1.296898636e-13,2.506704547e-14,7.988933843e-15,3.800232536e-15,4.412974544e-14,1.266793650e-14,6.103832758e-15,8.731758876e-15,1.673967893e-14,8.904108711e-15,2.235957576e-15,1.053783120e-14,2.161623737e-14,4.064463249e-15,1.732954193e-14,2.245822908e-14,9.327909301e-15,6.799545365e-15,1.991263562e-14,8.962440607e-15,1.484115521e-14,6.806869379e-15,5.392501560e-14,7.563633478e-15,3.150107739e-13,1.188880174e-13,3.888844688e-14,2.056677644e-14,1.080914253e-14,6.770553520e-15
1.0469,2.372527264e-14,1.420253141e-14,1.367712225e-13,2.290931887e-14,7.461241800e-15,4.787764368e-15,4.152895515e-14,1.073362340e-14,6.149677311e-15,6.909920705e-15,1.834728928e-14,7.771853851e-15,1.816695025e-15,8.597932322e-15,2.266204337e-14,3.164971139e-15,2.275028786e-14,2.712659608e-14,1.345847049e-14,6.195719409e-15,2.226030984e-14,7.816226619e-15,1.619203245e-14,8.784033698e-15,4.005769946e-14,6.161525145e-15,3.059879886e-13,1.077682227e-13,4.326187638e-14,2.274101572e-14,1.209136093e-14,6.310493865e-15
1.0547,3.112143714e-14,1.296286302e-14,1.452151340e-13,2.344098103e-14,7.410460266e-15,5.981469242e-15,3.778705560e-14,9.069833795e-15,6.222089236e-15,5.669004389e-15,2.199473966e-14,6.716090410e-15,1.643732939e-15,7.700636531e-15,2.555941894e-14,2.748145992e-15,2.643514071e-14,3.389414109e-14,1.839216771e-14,5.257915680e-15,2.508583288e-14,6.878323938e-15,1.700747506e-14,1.356119682e-14,3.082805829e-14,4.963192221e-15,2.747359374e-13,1.016732819e-13,4.515832584e-14,2.401304380e-14,1.350285291e-14,6.266198128e-15
1.0625,4.206901989e-14,1.144269988e-14,1.538303640e-13,2.653256379e-14,8.187832502e-15,6.367728032e-15,3.138320243e-14,8.446346059e-15,5.828542285e-15,5.355005538e-15,2.781113497e-14,5.968342689e-15,1.618388123e-15,7.996955730e-15,3.102370590e-14,2.767265896e-15,2.762082086e-14,4.238070225e-14,2.396973017e-14,4.144911568e-15,2.821050670e-14,5.655539542e-15,1.798636539e-14,2.105970796e-14,2.654437230e-14,3.828544794e-15,2.410642432e-13,9.483801136e-14,4.604522348e-14,2.404311146e-14,1.444656172e-14,5.977185815e-15
1.0703,5.454813980e-14,1.035259123e-14,1.651611863e-13,2.914052875e-14,9.394268935e-15,6.248830508e-15,2.445299544e-14,8.815092077e-15,5.499469329e-15,6.723586240e-15,3.706286951e-14,6.309135869e-15,1.841328870e-15,1.005113357e-14,4.015985417e-14,2.953062442e-15,2.775024601e-14,5.233787672e-14,2.977629929e-14,3.270652244e-15,3.110232875e-14,4.038705079e-15,1.841846645e-14,3.252214332e-14,2.721320555e-14,3.024673925e-15,2.128246416e-13,8.803584594e-14,4.866455992e-14,2.530176372e-14,1.480579986e-14,5.153574532e-15
1.0781,6.741472420e-14,9.563036181e-15,1.825980041e-13,3.054425681e-14,1.065318984e-14,6.056802056e-15,1.887045339e-14,1.001198949e-14,5.785262210e-15,9.156486555e-15,4.770371629e-14,7.553623103e-15,2.196557915e-15,1.376185984e-14,5.074999857e-14,3.505321791e-15,2.598835013e-14,6.172025440e-14,3.470023871e-14,2.362803391e-15,3.313968181e-14,2.547208771e-15,1.799426741e-14,4.726881085e-14,2.936177855e-14,2.873185551e-15,1.761011788e-13,8.931896654e-14,5.304763387e-14,2.711507606e-14,1.517394394e-14,4.680338958e-15
1.0859,8.032574938e-14,9.124543484e-15,2.055645962e-13,3.121497307e-14,1.225662381e-14,5.500664858e-15,1.397103098e-14,1.208740914e-14,6.420864719e-15,1.205322264e-14,5.555024805e-14,9.524490036e-15,2.688542570e-15,1.850953168e-14,6.065377197e-14,4.346551123e-15,2.147060753e-14,6.797307355e-14,3.792144891e-14,1.452266195e-15,3.369179438e-14,1.457942905e-15,1.699692845e-14,6.281950836e-14,3.202671511e-14,3.165611887e-15,1.417694051e-13,8.870278240e-14,5.619549707e-14,2.508000614e-14,1.513087874e-14,4.970121120e-15
1.0938,9.060254760e-14,9.586161709e-15,2.253335064e-13,2.847168424e-14,1.351371121e-14,4.275460229e-15,9.703284455e-15,1.428838664e-14,7.321841242e-15,1.605398896e-14,6.070746541e-14,1.279671513e-14,3.900167782e-15,2.485625447e-14,6.968829937e-14,4.893286845e-15,1.589082153e-14,7.012744475e-14,3.956472130e-14,9.848951629e-16,3.268842997e-14,7.821616228e-16,1.571298226e-14,7.936626298e-14,3.551623339e-14,3.828214174e-15,1.226516002e-13,8.479961529e-14,5.552753162e-14,2.039698936e-14,1.414285415e-14,5.498496926e-15
1.1016,9.770586354e-14,1.153516046e-14,2.420731512e-13,2.286866189e-14,1.339120167e-14,3.064611434e-15,6.328387295e-15,1.541587555e-14,8.424331797e-15,1.995780940e-14,6.426728202e-14,1.680281749e-14,6.013715747e-15,3.270507367e-14,7.853279641e-14,5.771470261e-15,1.105825014e-14,6.880015449e-14,4.023260958e-14,8.806959263e-16,2.901541258e-14,5.310995948e-16,1.399905049e-14,9.407287647e-14,3.603150148e-14,4.997594766e-15,1.041761104e-13,8.717868313e-14,5.160903161e-14,1.709329444e-14,1.236784740e-14,5.946857168e-15
1.1094,1.024760876e-13,1.496128748e-14,2.586726369e-13,1.741768719e-14,1.249175758e-14,2.138515662e-15,4.236802853e-15,1.601986180e-14,9.543251209e-15,2.157902005e-14,6.228983051e-14,1.972528641e-14,8.686014040e-15,4.015715689e-14,8.462603126e-14,7.766330706e-15,6.973589910e-15,6.481776442e-14,4.021196376e-14,1.251076797e-15,2.418552986e-14,5.925164613e-16,1.200965132e-14,1.000211892e-13,3.481509619e-14,6.899360808e-15,8.454810288e-14,9.275960993e-14,4.780988856e-14,1.502756051e-14,1.099953047e-14,6.495638431e-15
1.1172,1.033952182e-13,1.848543271e-14,2.650690017e-13,1.283968289e-14,1.189397630e-14,1.450810413e-15,2.977127531e-15,1.692644743e-14,1.112585967e-14,2.246387285e-14,5.520297318e-14,2.205676397e-14,1.154671142e-14,4.633401728e-14,8.693130453e-14,9.691057700e-15,4.058847507e-15,5.766695246e-14,3.854578888e-14,2.353399536e-15,1.979012709e-14,8.740252890e-16,1.031476732e-14,9.996044448e-14,3.533399355e-14,9.744523950e-15,7.390177327e-14,8.746669983e-14,4.242356155e-14,1.187533294e-14,1.043186445e-14,7.295969641e-15
1.125,9.884660291e-14,2.256807314e-14,2.575136636e-13,9.089847061e-15,1.135826718e-14,9.493219896e-16,2.272016100e-15,1.722794613e-14,1.266682774e-14,2.331468838e-14,4.651567515e-14,2.412753508e-14,1.487461190e-14,5.166323768e-14,8.710208957e-14,1.263328905e-14,2.302980596e-15,4.978936693e-14,3.626206900e-14,4.378017016e-15,1.622906424e-14,1.299975817e-15,8.750792329e-15,9.700573102e-14,3.742247464e-14,1.343246069e-14,7.138219948e-14,8.247399858e-14,3.431442922e-14,9.329128521e-15,1.098682930e-14,7.897431334e-15
1.1328,9.278526950e-14,2.821718077e-14,2.476133054e-13,6.064695483e-15,1.029938382e-14,6.423287205e-16,2.043882113e-15,1.652078307e-14,1.376689129e-14,2.319558365e-14,3.767095176e-14,2.531324671e-14,1.820307364e-14,5.554150459e-14,8.628344065e-14,1.677445489e-14,1.720385515e-15,4.228565877e-14,3.395814633e-14,7.702290121e-15,1.406737814e-14,1.783801230e-15,6.969688100e-15,8.788275144e-14,3.963532828e-14,1.845806325e-14,7.119435546e-14,8.028812269e-14,2.515536426e-14,8.945922060e-15,1.338550601e-14,8.065859771e-15
1.1406,8.658940073e-14,3.442070864e-14,2.389300552e-13,4.068203890e-15,8.955778395e-15,6.118840113e-16,2.635476406e-15,1.527657039e-14,1.425160237e-14,2.162704541e-14,2.794225969e-14,2.487634576e-14,2.057289421e-14,5.667386972e-14,8.308233478e-14,2.015304638e-14,1.872119517e-15,3.597068141e-14,3.163871408e-14,1.207661583e-14,1.429816161e-14,2.238998477e-15,5.541708018e-15,7.270149084e-14,4.236994575e-14,2.502018236e-14,7.362490874e-14,7.373576970e-14,1.972075187e-14,1.055460726e-14,1.829495801e-14,7.789380631e-15
1.1484,7.508250690e-14,3.805062859e-14,2.199928727e-13,3.086024045e-15,7.794127172e-15,7.134566017e-16,3.668542446e-15,1.375045283e-14,1.385621293e-14,1.959581594e-14,1.881696503e-14,2.331143334e-14,2.137788622e-14,5.475327998e-14,7.742745498e-14,2.232202388e-14,2.369429251e-15,2.989174942e-14,2.816212959e-14,1.694644809e-14,1.660195719e-14,2.307111256e-15,5.030675988e-15,5.737482336e-14,4.704360863e-14,3.285027004e-14,8.123864337e-14,6.128691605e-14,1.874528586e-14,1.083784004e-14,2.470096601e-14,7.310160982e-15
1.1562,6.132090566e-14,4.005741527e-14,2.011311307e-13,2.891231427e-15,6.930300813e-15,1.027002446e-15,4.739257799e-15,1.233586445e-14,1.307346838e-14,1.801063167e-14,1.240601598e-14,2.152710800e-14,2.104020754e-14,5.159163071e-14,7.243120852e-14,2.455965673e-14,3.073367566e-15,2.528871923e-14,2.409739211e-14,2.202279013e-14,1.940439163e-14,2.264111395e-15,5.457742366e-15,4.352003874e-14,5.330132383e-14,4.206555075e-14,9.378713882e-14,5.272607717e-14,1.876493341e-14,9.972003407e-15,3.204234786e-14,7.288445047e-15
1.1641,4.969036119e-14,4.159236671e-14,1.916826906e-13,3.394171485e-15,6.530614979e-15,1.542886290e-15,6.539188075e-15,1.131065524e-14,1.229518335e-14,1.647473996e-14,8.364892335e-15,1.944328428e-14,1.976211583e-14,4.710873687e-14,6.862395718e-14,2.541584554e-14,3.784459635e-15,2.295520336e-14,2.088938670e-14,2.735603652e-14,2.257257086e-14,2.501193704e-15,6.415397701e-15,3.133679566e-14,5.806564313e-14,5.023375732e-14,1.089695343e-13,5.203635352e-14,2.171475124e-14,1.079887106e-14,3.973225284e-14,7.226684654e-15
1.1719,3.933586840e-14,4.048536120e-14,1.807480782e-13,4.368954077e-15,6.208283749e-15,1.837381377e-15,8.913664263e-15,1.040625945e-14,1.092985456e-14,1.446465644e-14,5.715213264e-15,1.693635401e-14,1.743811181e-14,4.126999036e-14,6.384357075e-14,2.308469481e-14,4.469614052e-15,2.187426646e-14,1.796460374e-14,3.188888023e-14,2.529113060e-14,2.650075538e-15,7.576905478e-15,2.127267643e-14,5.982595696e-14,5.547653565e-14,1.217700435e-13,5.435601130e-14,2.732492176e-14,1.143305301e-14,4.515785439e-14,6.450952029e-15
1.1797,2.967924158e-14,3.703692480e-14,1.659849616e-13,5.698207327e-15,5.842517706e-15,2.132208024e-15,1.078010110e-14,9.502666335e-15,9.170440175e-15,1.240520471e-14,4.479465426e-15,1.474803659e-14,1.459563689e-14,3.662162877e-14,5.984570447e-14,2.010523235e-14,5.354648738e-15,2.179693217e-14,1.494728965e-14,3.507062745e-14,2.598821529e-14,2.675206318e-15,9.443096172e-15,1.363436521e-14,6.000038019e-14,5.975289071e-14,1.283589934e-13,6.175893918e-14,3.164152008e-14,1.134654966e-14,4.808015862e-14,5.739649623e-15
1.1875,2.164525338e-14,3.326997924e-14,1.528577660e-13,7.119173151e-15,6.009843095e-15,2.712205589e-15,1.249878135e-14,9.025937562e-15,7.746800939e-15,1.059555864e-14,4.512486566e-15,1.309946074e-14,1.197628026e-14,3.417997801e-14,5.843633959e-14,1.723437325e-14,7.083784347e-15,2.294701532e-14,1.280781506e-14,3.736203231e-14,2.472430669e-14,3.207455627e-15,1.222778905e-14,8.913952882e-15,5.701428595e-14,6.184504915e-14,1.276151449e-13,7.510597457e-14,3.418012079e-14,1.203564764e-14,4.807887544e-14,5.524065722e-15
1.1953,1.592623826e-14,2.741225347e-14,1.410573629e-13,8.161520978e-15,6.460215165e-15,3.395941403e-15,1.395740811e-14,9.129760553e-15,6.888601931e-15,8.901842628e-15,5.021591931e-15,1.182297893e-14,9.780821194e-15,3.343972801e-14,5.725950707e-14,1.323818320e-14,9.245324702e-15,2.378823022e-14,1.111140471e-14,3.662410754e-14,2.235453317e-14,4.089948291e-15,1.436899808e-14,6.365847157e-15,5.036846648e-14,5.820175477e-14,1.218231219e-13,8.750370814e-14,3.614983265e-14,1.317655746e-14,4.435819243e-14,5.085604217e-15
1.2031,1.377707803e-14,2.013881404e-14,1.282730957e-13,8.224337120e-15,7.864990048e-15,4.510234928e-15,1.584026728e-14,9.925358398e-15,6.751432686e-15,7.264421771e-15,5.405740297e-15,1.095166857e-14,9.056365330e-15,3.459183243e-14,5.513248777e-14,9.747939383e-15,1.353888577e-14,2.670838354e-14,1.075452637e-14,3.413061447e-14,1.947002113e-14,5.651564717e-15,1.584663041e-14,4.984356129e-15,4.262061406e-14,5.062332703e-14,1.126569204e-13,9.558005066e-14,3.646553422e-14,1.499513903e-14,3.785340933e-14,4.864872550e-15
1.2109,1.282693458e-14,1.494348758e-14,1.120834417e-13,9.402074555e-15,9.490124089e-15,6.682742091e-15,1.624723944e-14,1.084287050e-14,7.258560458e-15,5.761694085e-15,5.924468593e-15,1.078237838e-14,9.647948201e-15,3.828645584e-14,5.349326813e-14,7.607165696e-15,2.009673495e-14,2.973448968e-14,1.122123508e-14,3.193183042e-14,1.706265134e-14,7.581406499e-15,1.697859037e-14,5.149703817e-15,3.458464684e-14,4.279854087e-14,9.731847468e-14,9.802705060e-14,3.599818565e-14,1.768208031e-14,3.131706060e-14,5.140468126e-15
1.2188,1.266401745e-14,1.120749804e-14,9.437362284e-14,1.089136355e-14,1.074198799e-14,9.882964387e-15,1.503775655e-14,1.143536859e-14,8.085099481e-15,4.652559646e-15,6.742157953e-15,1.075497584e-14,1.049970799e-14,4.343750125e-14,5.302836289e-14,6.319249806e-15,2.550724429e-14,2.973448654e-14,1.183684085e-14,2.803564718e-14,1.542289192e-14,9.705781282e-15,1.728339488e-14,6.751168988e-15,2.657992183e-14,3.493133523e-14,7.878930041e-14,9.744039218e-14,3.573978114e-14,2.137280283e-14,2.517741272e-14,5.778775676e-15
1.2266,1.414668859e-14,7.976598814e-15,8.180817077e-14,1.231937287e-14,1.260794471e-14,1.434920209e-14,1.381961648e-14,1.208023686e-14,9.588333697e-15,3.930952147e-15,7.374218190e-15,1.079712269e-14,1.322580139e-14,4.963176451e-14,5.273291579e-14,6.197457151e-15,3.096817483e-14,2.897931330e-14,1.348876883e-14,2.318699161e-14,1.487487851e-14,1.234298765e-14,1.636281061e-14,9.784787718e-15,2.060296877e-14,2.682679500e-14,6.582732072e-14,9.414984050e-14,3.626243840e-14,2.583387257e-14,2.036403445e-14,7.162671857e-15
1.2344,1.446347482e-14,6.108862001e-15,6.861779863e-14,1.506539030e-14,1.496209471e-14,1.960142940e-14,1.263765248e-14,1.288051102e-14,1.103635083e-14,3.913005476e-15,8.111135590e-15,1.045176496e-14,1.618863812e-14,5.403742262e-14,5.169297723e-14,6.168734805e-15,3.672553337e-14,2.755580070e-14,1.569695562e-14,1.832646870e-14,1.490531697e-14,1.484907016e-14,1.482866207e-14,1.377155979e-14,1.770001590e-14,2.082259735e-14,5.986502101e-14,9.057724462e-14,3.803188591e-14,3.137623973e-14,1.785173891e-14,9.101678515e-15
1.2422,1.289002651e-14,5.164391163e-15,5.332253872e-14,1.893171198e-14,1.580496418e-14,2.461506660e-14,1.099693443e-14,1.318831917e-14,1.228683925e-14,4.425409230e-15,9.346641202e-15,9.731763687e-15,1.849673971e-14,5.654866353e-14,5.175710284e-14,6.299126261e-15,4.014900836e-14,2.384904775e-14,1.792153692e-14,1.431436361e-14,1.517751674e-14,1.659409447e-14,1.281004334e-14,1.945817958e-14,1.736169112e-14,1.730529543e-14,5.825591519e-14,9.793377040e-14,4.168068172e-14,4.013303780e-14,1.715710593e-14,1.090908977e-14
1.25,1.177655971e-14,4.037286966e-15,4.575183699e-14,2.114237193e-14,1.476298040e-14,2.859829786e-14,9.316483318e-15,1.240195081e-14,1.359714771e-14,5.490350772e-15,1.106608858e-14,8.911938529e-15,2.163191158e-14,5.760793721e-14,5.316782814e-14,7.019317789e-15,4.149839887e-14,1.929747006e-14,2.017988551e-14,1.057292955e-14,1.520459336e-14,1.805067890e-14,1.017423444e-14,2.526390962e-14,2.111855400e-14,1.590943401e-14,6.169192518e-14,1.146019670e-13,4.654627940e-14,5.002822226e-14,1.807547832e-14,1.271121749e-14
1.2578,1.121020962e-14,3.701965878e-15,4.319692556e-14,2.304872680e-14,1.444816933e-14,3.060764983e-14,1.023100024e-14,1.148745588e-14,1.478989490e-14,7.175942821e-15,1.372728034e-14,7.868132506e-15,2.570636034e-14,5.644007618e-14,5.586736702e-14,8.110517223e-15,4.211825001e-14,1.554882653e-14,2.308219526e-14,7.818128625e-15,1.541293054e-14,1.961993997e-14,8.179162869e-15,2.974508867e-14,2.844247818e-14,1.651017417e-14,6.857041521e-14,1.365470142e-13,5.237906347e-14,6.047240556e-14,1.979942036e-14,1.446808949e-14
1.2656,9.100917474e-15,4.172420139e-15,4.140463552e-14,2.525410922e-14,1.417881312e-14,2.994361953e-14,1.200531789e-14,1.072732277e-14,1.557884613e-14,8.688752623e-15,1.804830392e-14,7.140110397e-15,2.896012046e-14,5.372453765e-14,6.020591713e-14,9.387486780e-15,4.230853061e-14,1.273764787e-14,2.536283522e-14,6.175960039e-15,1.501049442e-14,1.984858680e-14,6.729296971e-15,3.351410521e-14,3.908914425e-14,1.774490462e-14,8.238864086e-14,1.694147350e-13,6.159199455e-14,7.469654428e-14,2.108586496e-14,1.485188193e-14
1.2734,6.756752688e-15,4.308384647e-15,4.759658084e-14,2.572599650e-14,1.217182440e-14,2.755657104e-14,1.453037376e-14,9.225470469e-15,1.607337279e-14,1.098741256e-14,2.465713477e-14,7.028106315e-15,3.180833249e-14,5.036322828e-14,6.676298711e-14,1.127307327e-14,4.235507873e-14,1.092582891e-14,2.712676970e-14,5.415243580e-15,1.431596673e-14,1.940681488e-14,5.630764519e-15,3.460074616e-14,5.297693693e-14,1.905641253e-14,1.035017141e-13,2.027479553e-13,7.326997856e-14,8.999166291e-14,2.271007707e-14,1.426334494e-14
1.2812,6.380314805e-15,5.036479029e-15,5.382820304e-14,2.570980756e-14,1.096214340e-14,2.399209116e-14,2.101895465e-14,7.543204171e-15,1.666895822e-14,1.394858939e-14,3.128461612e-14,7.319462073e-15,3.630620178e-14,4.660825121e-14,7.255473010e-14,1.339375065e-14,4.232298410e-14,1.078985464e-14,2.908934930e-14,5.902991998e-15,1.488277811e-14,2.014129579e-14,5.438235644e-15,3.239280862e-14,6.667653863e-14,1.978844549e-14,1.165934117e-13,2.201718538e-13,8.021513392e-14,9.787529845e-14,2.348773970e-14,1.397443696e-14
1.2891,7.275168096e-15,6.759543345e-15,5.965517653e-14,2.624300857e-14,1.153467418e-14,1.981807184e-14,2.642809660e-14,6.213451614e-15,1.675505235e-14,1.565829345e-14,3.626793934e-14,7.825980320e-15,3.976873901e-14,4.199135931e-14,7.523248321e-14,1.457693750e-14,4.222682805e-14,1.100222760e-14,2.981656095e-14,6.598624142e-15,1.615023712e-14,2.015254765e-14,5.662636408e-15,2.766553713e-14,7.875068763e-14,1.988300190e-14,1.197815419e-13,2.276849709e-13,8.433807611e-14,1.020766563e-13,2.210480019e-14,1.309999148e-14
1.2969,9.441880400e-15,9.535165637e-15,7.082068406e-14,2.778980197e-14,1.229727550e-14,1.600038565e-14,3.250738108e-14,5.179137854e-15,1.622449500e-14,1.687128387e-14,4.282852379e-14,8.848587413e-15,4.172698574e-14,3.757200469e-14,7.711067656e-14,1.638756948e-14,4.306161700e-14,1.186946453e-14,3.059857452e-14,8.114298268e-15,1.826131905e-14,1.926405491e-14,6.055982959e-15,2.206331000e-14,8.832092882e-14,1.889749994e-14,1.270185765e-13,2.322548346e-13,9.194234034e-14,1.090352807e-13,1.985898742e-14,1.141760947e-14
1.3047,1.343084833e-14,1.331377343e-14,8.292481302e-14,3.023770508e-14,1.422898708e-14,1.396385613e-14,4.405066529e-14,4.367255924e-15,1.553871271e-14,1.885789510e-14,5.008796905e-14,1.048555989e-14,4.286134904e-14,3.398192236e-14,7.762424570e-14,1.842571898e-14,4.238670243e-14,1.305256053e-14,3.082230449e-14,1.014658112e-14,2.084646746e-14,1.834045748e-14,6.691652745e-15,1.739953627e-14,9.378348982e-14,1.709183920e-14,1.341856499e-13,2.179610409e-13,9.648009786e-14,1.102044373e-13,1.821466539e-14,9.979170231e-15
1.3125,2.065185327e-14,1.797765808e-14,9.669460143e-14,3.376853611e-14,1.754482128e-14,1.372916591e-14,5.723066463e-14,3.981848004e-15,1.466714456e-14,2.081235782e-14,5.239950282e-14,1.186702452e-14,4.177584705e-14,2.947932223e-14,7.188072039e-14,1.899864093e-14,3.987106646e-14,1.306952849e-14,2.911646332e-14,1.153906502e-14,2.325668247e-14,1.693071181e-14,6.900187601e-15,1.449093666e-14,9.125302791e-14,1.448862102e-14,1.222802027e-13,1.853232979e-13,8.954275956e-14,9.976873469e-14,1.510243722e-14,8.900775581e-15
1.3203,3.052661300e-14,2.339937091e-14,1.223062963e-13,3.758232415e-14,1.994738802e-14,1.529720354e-14,7.208372135e-14,4.379493694e-15,1.338341102e-14,2.226126125e-14,5.124584845e-14,1.293318543e-14,3.931877749e-14,2.529492814e-14,6.381968879e-14,2.119161392e-14,3.852877615e-14,1.289253031e-14,2.708697787e-14,1.261647675e-14,2.509434168e-14,1.503777504e-14,6.860379686e-15,1.518328228e-14,8.446061766e-14,1.204926127e-14,1.029720135e-13,1.591975569e-13,8.126136694e-14,9.017335266e-14,1.106820266e-14,7.657754835e-15
1.3281,4.402077492e-14,3.092319768e-14,1.611516782e-13,4.437786174e-14,2.361767942e-14,1.797984133e-14,9.299838185e-14,5.502689404e-15,1.223233778e-14,2.496305294e-14,5.193322679e-14,1.456013794e-14,3.627562476e-14,2.272738421e-14,5.750092123e-14,2.510157078e-14,3.823297961e-14,1.315136362e-14,2.517287436e-14,1.490387088e-14,2.685439770e-14,1.315556990e-14,6.826437937e-15,2.166005063e-14,7.506700390e-14,9.350205694e-15,9.128122881e-14,1.401044510e-13,7.752496511e-14,8.644182692e-14,8.027792988e-15,6.536802060e-15
1.3359,5.828564725e-14,3.865848413e-14,2.069492769e-13,5.575005431e-14,3.128360451e-14,2.144624912e-14,1.198714746e-13,7.944466175e-15,1.100445287e-14,2.958759462e-14,5.103393023e-14,1.547965899e-14,3.082593296e-14,1.996877827e-14,5.056069852e-14,2.930347149e-14,3.612706538e-14,1.351889035e-14,2.266781757e-14,1.755461304e-14,2.853692381e-14,1.156971073e-14,7.242756881e-15,3.526095134e-14,6.324368219e-14,6.771291006e-15,7.806677687e-14,1.163501932e-13,6.891278088e-14,7.783592722e-14,5.927527421e-15,5.377721310e-15
1.3438,7.438358474e-14,4.910343089e-14,2.658903071e-13,7.768292039e-14,4.734924935e-14,2.625747853e-14,1.463016412e-13,1.213812108e-14,9.244814012e-15,3.334287170e-14,4.570558089e-14,1.475840660e-14,2.535827222e-14,1.841232391e-14,4.408038750e-14,3.663213176e-14,3.419597487e-14,1.493261292e-14,2.051556926e-14,2.081021974e-14,3.098409455e-14,1.121025208e-14,8.632527756e-15,5.755373939e-14,5.085641072e-14,5.110729791e-15,5.755845360e-14,1.005749327e-13,5.422006150e-14,6.366316327e-14,4.016776268e-15,4.086790920e-15
1.3516,9.305120238e-14,6.694572953e-14,3.315468102e-13,1.192896446e-13,7.972599135e-14,3.188007157e-14,1.738087253e-13,1.832236581e-14,7.776904645e-15,3.725815872e-14,4.170803677e-14,1.404591033e-14,2.268830093e-14,2.103372368e-14,4.365323776e-14,4.892092782e-14,3.404449183e-14,1.944118663e-14,2.129539949e-14,2.636931357e-14,3.572116639e-14,1.281800871e-14,1.207327933e-14,8.999384240e-14,4.272293497e-14,4.576711806e-15,4.243385683e-14,1.049953659e-13,4.431032499e-14,5.547611151e-14,3.108294421e-15,3.182214173e-15
1.3594,1.214212473e-13,9.664571990e-14,4.170389039e-13,1.858042578e-13,1.389567486e-13,3.856430760e-14,2.026259266e-13,2.736571617e-14,6.924535043e-15,4.305107957e-14,4.072479784e-14,1.404498553e-14,2.276469782e-14,2.706959222e-14,4.847696860e-14,6.480091541e-14,3.518230518e-14,2.695697105e-14,2.543768611e-14,3.616847827e-14,4.429663564e-14,1.643039566e-14,1.790094104e-14,1.340378725e-13,4.026423709e-14,4.583961166e-15,3.634065129e-14,1.161138712e-13,3.949516557e-14,5.316941873e-14,2.672251640e-15,2.732722165e-15
1.3672,1.603376328e-13,1.433892066e-13,5.211062596e-13,2.890879585e-13,2.388467003e-13,4.697022828e-14,2.238652402e-13,3.890544207e-14,5.924619922e-15,4.580315860e-14,3.688179395e-14,1.398710405e-14,2.664972000e-14,3.903699317e-14,5.724065650e-14,8.635380141e-14,3.684543261e-14,3.880920281e-14,3.395767957e-14,5.110496912e-14,5.732128183e-14,2.219306074e-14,2.669874291e-14,1.886371007e-13,4.429322517e-14,5.660287004e-15,3.246689155e-14,1.264530891e-13,3.286815899e-14,4.614492990e-14,2.683579832e-15,2.520193260e-15
1.375,2.216475671e-13,2.095727485e-13,6.856991131e-13,4.292688043e-13,3.874600602e-13,5.714386033e-14,2.341185313e-13,5.162852860e-14,4.979314001e-15,4.424008189e-14,3.302184582e-14,1.438767944e-14,3.462468204e-14,5.826633205e-14,7.761603584e-14,1.217840446e-13,4.571483678e-14,5.836506942e-14,4.868591175e-14,7.177482429e-14,7.531805420e-14,2.960973364e-14,3.846221704e-14,2.534554728e-13,5.747492143e-14,8.158746059e-15,2.981133177e-14,1.524235552e-13,2.528370218e-14,3.635787523e-14,3.629696700e-15,2.820106083e-15
1.3828,3.174741165e-13,2.952572217e-13,9.531693183e-13,6.097816306e-13,6.006908710e-13,6.963114153e-14,2.350272990e-13,6.634837461e-14,4.656693068e-15,4.088430015e-14,3.302127802e-14,1.638529344e-14,4.531278378e-14,8.272051042e-14,1.114194212e-13,1.699043445e-13,6.339763802e-14,8.335355852e-14,6.765882130e-14,9.710741042e-14,9.683447583e-14,3.739791654e-14,5.291211919e-14,3.243089217e-13,8.301972165e-14,1.170720923e-14,3.339944818e-14,1.943106651e-13,2.101002031e-14,3.180187927e-14,5.323623914e-15,3.677113060e-15
1.3906,4.629323530e-13,4.027999296e-13,1.375917397e-12,8.219660503e-13,8.827769032e-13,8.373386020e-14,2.337202431e-13,8.181778131e-14,4.960878063e-15,3.638585602e-14,3.808311312e-14,2.074838696e-14,5.848643137e-14,1.115764877e-13,1.532863152e-13,2.226181940e-13,8.888257386e-14,1.128443128e-13,9.020933566e-14,1.282402638e-13,1.219482222e-13,4.585594982e-14,7.034049084e-14,3.956784790e-13,1.226464523e-13,1.686137581e-14,4.449921986e-14,2.347250919e-13,2.008097410e-14,3.093297924e-14,7.695511037e-15,5.408595412e-15
1.3984,6.696371620e-13,5.339656174e-13,1.999807638e-12,1.051397279e-12,1.233755073e-12,9.793410157e-14,2.264182531e-13,9.527036599e-14,5.933430308e-15,3.004894922e-14,5.042364644e-14,2.820743765e-14,7.424533749e-14,1.455583882e-13,2.060191718e-13,2.861647620e-13,1.281220939e-13,1.503088375e-13,1.171513034e-13,1.660265845e-13,1.493965571e-13,5.499763413e-14,9.019822878e-14,4.606596195e-13,1.735338511e-13,2.456194949e-14,5.711520839e-14,2.640795111e-13,1.912677260e-14,3.049590535e-14,1.155966442e-14,8.433940893e-15
1.4062,9.247110862e-13,6.730445619e-13,2.819866360e-12,1.281607744e-12,1.628533762e-12,1.110526794e-13,2.177003159e-13,1.055894645e-13,7.927095042e-15,2.377311187e-14,7.276478038e-14,3.832190992e-14,8.892175707e-14,1.790078476e-13,2.693886458e-13,3.572964226e-13,1.780056208e-13,1.889023343e-13,1.427971030e-13,2.037689802e-13,1.744075894e-13,6.292436381e-14,1.105125346e-13,5.131697945e-13,2.337462507e-13,3.539189141e-14,6.784404237e-14,3.015325465e-13,1.673016338e-14,3.314391719e-14,1.728621882e-14,1.307977648e-14
1.4141,1.222467924e-12,8.064049311e-13,3.845989708e-12,1.516753672e-12,2.058838880e-12,1.248696833e-13,2.204433834e-13,1.146993505e-13,1.060657138e-14,1.998130720e-14,1.042763992e-13,4.993949103e-14,1.016114944e-13,2.091819115e-13,3.311619459e-13,4.223605296e-13,2.335140865e-13,2.268974749e-13,1.653738595e-13,2.393413155e-13,1.958355410e-13,7.008079657e-14,1.301816458e-13,5.460290214e-13,3.015218086e-13,4.856736785e-14,8.011167579e-14,3.399634950e-13,1.498824941e-14,4.168028389e-14,2.507629513e-14,1.954263627e-14
1.4219,1.549991829e-12,9.250518337e-13,5.032666056e-12,1.754352388e-12,2.498823883e-12,1.396877481e-13,2.373487211e-13,1.225502274e-13,1.405382678e-14,1.903371397e-14,1.429356758e-13,6.319505496e-14,1.131612437e-13,2.372356334e-13,3.880629542e-13,4.791270864e-13,2.964408775e-13,2.663084670e-13,1.851606746e-13,2.723135890e-13,2.116946890e-13,7.716653128e-14,1.483325542e-13,5.561032326e-13,3.660189744e-13,6.432851212e-14,9.132541270e-14,3.651015491e-13,1.467594453e-14,5.917510703e-14,3.578275068e-14,2.818296478e-14
1.4297,1.869176711e-12,1.017816125e-12,6.314053459e-12,1.998114463e-12,2.911614377e-12,1.569232418e-13,2.623893242e-13,1.302164013e-13,1.837193006e-14,2.090057433e-14,1.872151943e-13,7.726125822e-14,1.222303164e-13,2.598040178e-13,4.349755918e-13,5.228513501e-13,3.572031000e-13,3.009115720e-13,1.997366340e-13,2.975762860e-13,2.203099159e-13,8.379066072e-14,1.648976331e-13,5.472694904e-13,4.262956444e-13,8.502966502e-14,9.957781312e-14,3.741408012e-13,1.493786125e-14,8.631476939e-14,4.951382601e-14,4.015573410e-14
1.4375,2.134049900e-12,1.076681839e-12,7.538988867e-12,2.251539787e-12,3.254587922e-12,1.779077318e-13,2.999865886e-13,1.386110307e-13,2.283686011e-14,2.511031706e-14,2.309665174e-13,8.908575941e-14,1.273971419e-13,2.720989335e-13,4.615976685e-13,5.433509626e-13,4.028880525e-13,3.246448235e-13,2.074602494e-13,3.130778071e-13,2.208189763e-13,8.915382858e-14,1.774727026e-13,5.216309152e-13,4.779145746e-13,1.081730378e-13,1.024352476e-13,3.828934450e-13,1.571384961e-14,1.188312439e-13,6.563434402e-14,5.433794915e-14
1.4453,2.336967586e-12,1.090991178e-12,8.647463267e-12,2.520141223e-12,3.504855188e-12,2.040583072e-13,3.513426727e-13,1.486749160e-13,2.712685768e-14,3.003941485e-14,2.667683589e-13,9.831861095e-14,1.309144974e-13,2.778786893e-13,4.674614338e-13,5.444070818e-13,4.362184397e-13,3.426050030e-13,2.108650591e-13,3.200470548e-13,2.137937640e-13,9.378812299e-14,1.843129259e-13,4.754326296e-13,5.113477049e-13,1.297453528e-13,1.012662970e-13,3.832501570e-13,1.717749186e-14,1.557195566e-13,8.388207762e-14,6.933224823e-14
1.4531,2.461309413e-12,1.064144272e-12,9.522887112e-12,2.777437944e-12,3.653909726e-12,2.332228767e-13,4.055656984e-13,1.595908126e-13,3.081465229e-14,3.496841194e-14,2.943721704e-13,1.056890829e-13,1.337686445e-13,2.812671109e-13,4.588598384e-13,5.330840371e-13,4.600718796e-13,3.585307200e-13,2.115644630e-13,3.186813208e-13,2.006103181e-13,9.768348411e-14,1.859323843e-13,4.191254530e-13,5.257837124e-13,1.489387058e-13,9.859712579e-14,3.854065647e-13,1.946268915e-14,1.915791961e-13,1.035799425e-13,8.364608336e-14
1.4609,2.480696627e-12,1.001124402e-12,1.007170390e-11,2.996194202e-12,3.691225506e-12,2.623311419e-13,4.529546731e-13,1.702591122e-13,3.339821551e-14,3.871598522e-14,3.090039355e-13,1.087696109e-13,1.346787290e-13,2.778491010e-13,4.323116810e-13,5.062977662e-13,4.665470456e-13,3.670473832e-13,2.092998256e-13,3.100603446e-13,1.846560743e-13,1.005345933e-13,1.845071829e-13,3.660034297e-13,5.321845575e-13,1.665923050e-13,9.480069106e-14,3.947042245e-13,2.190651047e-14,2.203903786e-13,1.216725354e-13,9.669202318e-14
1.4688,2.384707611e-12,9.076242568e-13,1.014273918e-11,3.114984545e-12,3.607626564e-12,2.832414949e-13,4.918984459e-13,1.779239773e-13,3.436178959e-14,4.052166911e-14,3.063662630e-13,1.066757990e-13,1.326246834e-13,2.652344859e-13,3.876635833e-13,4.626169890e-13,4.515164202e-13,3.640534610e-13,2.030382785e-13,2.938686347e-13,1.665324456e-13,1.009051245e-13,1.775455729e-13,3.158103832e-13,5.242957877e-13,1.766542890e-13,8.840200262e-14,4.213802685e-13,2.416052638e-14,2.357245052e-13,1.336546434e-13,1.054333266e-13
1.4766,2.209189979e-12,7.912016115e-13,9.794199993e-12,3.112032856e-12,3.422815303e-12,2.933756701e-13,5.197438197e-13,1.812322368e-13,3.349730255e-14,4.130476825e-14,2.944487780e-13,1.011337897e-13,1.284681405e-13,2.470479237e-13,3.359935972e-13,4.122298411e-13,4.242409364e-13,3.542343416e-13,1.935593013e-13,2.723433901e-13,1.473245098e-13,9.786208969e-14,1.644947816e-13,2.673913127e-13,5.012115225e-13,1.762679989e-13,8.335719274e-14,4.705704392e-13,2.561997694e-14,2.359630512e-13,1.388908294e-13,1.080476773e-13
1.4844,1.963646908e-12,6.592564408e-13,9.003830318e-12,2.961141363e-12,3.174251491e-12,2.886572281e-13,5.307665751e-13,1.792221239e-13,3.101919011e-14,4.149983880e-14,2.731238438e-13,9.252163758e-14,1.226660801e-13,2.250841341e-13,2.827685535e-13,3.605792927e-13,3.914321648e-13,3.412388364e-13,1.817204016e-13,2.484096156e-13,1.294311063e-13,9.253122801e-14,1.477623579e-13,2.254510568e-13,4.640603110e-13,1.670233186e-13,7.817562875e-14,5.508843340e-13,2.487159149e-14,2.194538877e-13,1.360811286e-13,1.047944691e-13
1.4922,1.666156198e-12,5.250986111e-13,7.849103907e-12,2.684485999e-12,2.877109542e-12,2.690570874e-13,5.157085989e-13,1.739846334e-13,2.751033298e-14,4.062244384e-14,2.412473348e-13,8.105055583e-14,1.147964069e-13,1.989629551e-13,2.284375159e-13,3.062342052e-13,3.503802066e-13,3.219518988e-13,1.676489759e-13,2.224115879e-13,1.136549392e-13,8.427311081e-14,1.279921730e-13,1.930704487e-13,4.202357381e-13,1.502455775e-13,7.261331844e-14,6.650521175e-13,2.277541491e-14,1.921411842e-13,1.244440966e-13,9.622199337e-14
1.5,1.346563275e-12,4.013592541e-13,6.507828022e-12,2.344575317e-12,2.548878515e-12,2.406195425e-13,4.837221319e-13,1.679942488e-13,2.313495668e-14,3.908864181e-14,2.070147538e-13,6.805568737e-14,1.042745459e-13,1.701556217e-13,1.774401915e-13,2.511806826e-13,3.023874339e-13,2.944723680e-13,1.501127654e-13,1.953873657e-13,9.944617257e-14,7.275721845e-14,1.057260060e-13,1.688098543e-13,3.743540560e-13,1.279990717e-13,7.088223851e-14,8.119999972e-13,2.054675182e-14,1.609227771e-13,1.070312388e-13,8.375294943e-14
1.5078,1.046636436e-12,2.912818659e-13,5.232036266e-12,2.011930837e-12,2.219560462e-12,2.115932465e-13,4.425742386e-13,1.627013953e-13,1.883690729e-14,3.732419679e-14,1.734378267e-13,5.501305848e-14,9.217742559e-14,1.403470660e-13,1.330863831e-13,2.001108667e-13,2.542463946e-13,2.617033773e-13,1.296125889e-13,1.685669020e-13,8.678829825e-14,5.977349393e-14,8.347050311e-14,1.486684073e-13,3.353824457e-13,1.034945403e-13,7.673542480e-14,9.925032266e-13,1.829551887e-14,1.328829928e-13,8.779477052e-14,6.979197971e-14
1.5156,7.835143348e-13,2.028199447e-13,4.172195911e-12,1.782712060e-12,1.928246683e-12,1.909899112e-13,3.897642711e-13,1.607832135e-13,1.492566519e-14,3.477415990e-14,1.401733679e-13,4.343642376e-14,8.042489306e-14,1.143941975e-13,9.715313985e-14,1.571171476e-13,2.096376620e-13,2.291376259e-13,1.091777953e-13,1.440070106e-13,7.657544978e-14,4.694695377e-14,6.370346637e-14,1.349857291e-13,3.169682643e-13,8.063062492e-14,9.222880570e-14,1.195120245e-12,1.653992388e-14,1.142264160e-13,7.072413565e-14,5.641153269e-14
1.5234,5.732736324e-13,1.385028421e-13,3.482088482e-12,1.699111754e-12,1.657160639e-12,1.841995945e-13,3.277996073e-13,1.628554378e-13,1.150502581e-14,3.121351980e-14,1.100505696e-13,3.266854031e-14,6.825975486e-14,9.089957768e-14,6.884202711e-14,1.202907271e-13,1.680497321e-13,1.953384229e-13,8.915222775e-14,1.224767316e-13,6.801870537e-14,3.459031705e-14,4.730292035e-14,1.279391373e-13,3.291038237e-13,6.258413413e-14,1.187502031e-13,1.394546220e-12,1.697198935e-14,1.102129878e-13,5.910544918e-14,4.523113547e-14
1.5312,4.233587986e-13,1.031272529e-13,3.219706291e-12,1.796806871e-12,1.425992178e-12,1.963126333e-13,2.668159330e-13,1.698812698e-13,8.978157693e-15,2.670205950e-14,8.719125175e-14,2.390768798e-14,5.812297911e-14,7.341051949e-14,4.997290835e-14,9.424881365e-14,1.344654336e-13,1.636904818e-13,7.144947725e-14,1.058043732e-13,6.120392907e-14,2.387616041e-14,3.531240584e-14,1.268232741e-13,3.743983382e-13,5.155787880e-14,1.559962981e-13,1.566926909e-12,1.958716120e-14,1.186358812e-13,5.614028953e-14,3.781437271e-14
1.5391,3.331617747e-13,8.840361601e-14,3.361813497e-12,2.029704578e-12,1.228851553e-12,2.229557852e-13,2.131882478e-13,1.760631319e-13,7.478825101e-15,2.144715919e-14,7.114245271e-14,1.799792311e-14,4.995967097e-14,6.178166051e-14,3.954805512e-14,7.846952058e-14,1.086544512e-13,1.349968906e-13,5.633702816e-14,9.122597222e-14,5.544675999e-14,1.550880835e-14,2.860063040e-14,1.265567498e-13,4.520090594e-13,4.733279037e-14,1.987446782e-13,1.698663580e-12,2.281416479e-14,1.365359040e-13,6.056835132e-14,3.385507045e-14
1.5469,2.911888401e-13,9.256767118e-14,3.769040707e-12,2.356560364e-12,1.078228034e-12,2.594158118e-13,1.672482911e-13,1.822870265e-13,6.940055287e-15,1.643775114e-14,5.974400013e-14,1.421936295e-14,4.409189537e-14,5.608217993e-14,3.590605446e-14,7.233298783e-14,9.398469699e-14,1.136155115e-13,4.608173153e-14,8.052799067e-14,5.174765205e-14,9.873991391e-15,2.605169788e-14,1.298539386e-13,5.432874532e-13,4.880274311e-14,2.374751811e-13,1.768393964e-12,2.626081597e-14,1.595100583e-13,7.072873613e-14,3.319336309e-14
1.5547,2.797532046e-13,1.073399873e-13,4.279935500e-12,2.683870488e-12,9.448652693e-13,2.972754388e-13,1.284408613e-13,1.858844796e-13,7.099475522e-15,1.179661667e-14,5.368564950e-14,1.240498877e-14,4.033964080e-14,5.655884276e-14,3.952312257e-14,7.652593032e-14,8.884081228e-14,9.890515611e-14,3.878220033e-14,7.239181008e-14,4.886059754e-14,6.423025609e-15,2.696456863e-14,1.350656091e-13,6.353662426e-13,5.419393866e-14,2.686071856e-13,1.754015458e-12,3.002669798e-14,1.784310847e-13,8.407154836e-14,3.502585366e-14
1.5625,2.848330303e-13,1.220666165e-13,4.718160178e-12,2.936894402e-12,8.321797806e-13,3.287567726e-13,9.821829635e-14,1.842207127e-13,7.726980024e-15,7.832454732e-15,5.243834654e-14,1.187008355e-14,3.767414937e-14,5.924980742e-14,4.692437351e-14,8.786545474e-14,9.222967547e-14,8.914096782e-14,3.444104142e-14,6.670633498e-14,4.667557921e-14,4.919148581e-15,3.007795904e-14,1.397548600e-13,7.032413851e-13,6.047199224e-14,2.845813223e-13,1.653238038e-12,3.213665024e-14,1.889211761e-13,9.650081689e-14,3.811025508e-14
1.5703,2.971430333e-13,1.289208131e-13,4.969340719e-12,3.038349493e-12,7.268649452e-13,3.425002745e-13,7.655723238e-14,1.767697771e-13,8.583077260e-15,5.159097266e-15,4.801136043e-14,1.092193011e-14,3.415040427e-14,5.932982805e-14,5.214758838e-14,9.731109263e-14,9.726722296e-14,7.990807345e-14,3.138226870e-14,6.068948955e-14,4.484815477e-14,4.795950136e-15,3.308566340e-14,1.405446910e-13,7.299403917e-13,6.375232884e-14,2.779964105e-13,1.490811437e-12,3.149058802e-14,1.969719274e-13,1.016465222e-13,4.045290551e-14
1.5781,3.004242109e-13,1.292023905e-13,4.966262184e-12,2.995201175e-12,6.295323071e-13,3.400966475e-13,5.885428188e-14,1.643837195e-13,9.313965887e-15,3.448599987e-15,4.312744384e-14,1.047187212e-14,3.050886627e-14,6.100934211e-14,6.068487733e-14,1.083638761e-13,1.055815440e-13,7.394856864e-14,2.844339537e-14,5.451649512e-14,4.264687589e-14,5.679588776e-15,3.601123079e-14,1.369108426e-13,7.163929672e-13,6.564875732e-14,2.548004455e-13,1.277501142e-12,3.043861189e-14,1.948813754e-13,1.026377103e-13,4.250144454e-14
1.5859,2.897632191e-13,1.212364486e-13,4.661854634e-12,2.775775791e-12,5.247893817e-13,3.194014420e-13,4.449461450e-14,1.458266065e-13,9.903402284e-15,2.608193803e-15,3.962410237e-14,1.013742715e-14,2.674055274e-14,6.086644700e-14,6.828795276e-14,1.188323598e-13,1.131241202e-13,6.849326415e-14,2.507691063e-14,4.829099907e-14,3.904567295e-14,6.831300592e-15,3.776376157e-14,1.281408792e-13,6.615467908e-13,6.426786737e-14,2.210265263e-13,1.032225549e-12,3.053693173e-14,1.800370197e-13,9.890859108e-14,4.296789794e-14
1.5938,2.776690866e-13,1.050240399e-13,4.197606812e-12,2.455481447e-12,4.277348276e-13,2.886094098e-13,3.300647023e-14,1.257771911e-13,1.028334432e-14,2.625437163e-15,3.630189538e-14,9.567991471e-15,2.275497426e-14,5.651507695e-14,7.068140318e-14,1.223225060e-13,1.145548542e-13,6.091276323e-14,2.218260092e-14,4.306505662e-14,3.521411259e-14,8.084949956e-15,3.749197789e-14,1.159929183e-13,5.754165010e-13,5.929815325e-14,1.818492849e-13,7.900249726e-13,3.160433125e-14,1.658994899e-13,9.054782787e-14,4.166730069e-14
1.6016,2.542320811e-13,8.262573323e-14,3.571094377e-12,2.053913053e-12,3.354559803e-13,2.465644414e-13,2.529169662e-14,1.041440763e-13,1.014000044e-14,3.673687335e-15,3.156547208e-14,8.769601980e-15,1.837071476e-14,4.913222334e-14,6.881477811e-14,1.170858459e-13,1.098187528e-13,5.135501193e-14,1.913080203e-14,3.739133474e-14,3.088807493e-14,8.975701480e-15,3.518862311e-14,1.006814048e-13,4.707448069e-13,5.113551215e-14,1.399132164e-13,5.798680251e-13,3.310211593e-14,1.538786815e-13,7.721806389e-14,3.775831527e-14
1.6094,2.216712819e-13,6.103607827e-14,2.884117009e-12,1.636895699e-12,2.537881305e-13,2.016242995e-13,1.859368762e-14,8.266555674e-14,9.401859407e-15,5.662953508e-15,2.896224802e-14,8.595668911e-15,1.468416415e-14,4.190829086e-14,6.551787167e-14,1.079825468e-13,1.017168181e-13,4.221993943e-14,1.680030716e-14,3.191205593e-14,2.599986210e-14,9.193723789e-15,3.145913888e-14,8.323937687e-14,3.668345741e-13,4.290516500e-14,1.019510172e-13,4.074836371e-13,3.628929762e-14,1.427854543e-13,6.349329114e-14,3.277117109e-14
1.6172,1.849650362e-13,4.366238905e-14,2.204825102e-12,1.239613296e-12,1.843296436e-13,1.612911508e-13,1.295512603e-14,6.346998104e-14,8.144390592e-15,8.880961043e-15,3.150024831e-14,9.658329346e-15,1.219381592e-14,3.584953199e-14,6.147244580e-14,9.644267788e-14,9.097115303e-14,3.430223839e-14,1.617620237e-14,2.784335603e-14,2.124651606e-14,8.630346293e-15,2.629114547e-14,6.521253505e-14,2.711200995e-13,3.574181080e-14,7.370271287e-14,2.752422887e-13,4.177551644e-14,1.318324348e-13,5.244372830e-14,2.741794185e-14
1.625,1.547800861e-13,2.963913724e-14,1.636692049e-12,9.037361088e-13,1.287850114e-13,1.301651044e-13,9.513677645e-15,4.750032416e-14,6.885052957e-15,1.356990169e-14,4.008985862e-14,1.237770570e-14,1.098757256e-14,3.158075232e-14,5.734806676e-14,8.210960581e-14,7.817495945e-14,2.722173266e-14,1.707251953e-14,2.514560628e-14,1.732945710e-14,8.227123328e-15,2.163019856e-14,4.936135283e-14,1.925713598e-13,3.126068742e-14,5.456629729e-14,1.845339900e-13,4.934892328e-14,1.267171197e-13,4.485077245e-14,2.321749726e-14
1.6328,1.251618311e-13,1.878698506e-14,1.154468419e-12,6.375917295e-13,8.886372055e-14,1.091396313e-13,8.153367444e-15,3.520548667e-14,5.684901211e-15,2.038450780e-14,5.578308320e-14,1.717101865e-14,1.073069725e-14,3.051601957e-14,5.488415963e-14,6.554738524e-14,6.577605180e-14,2.216387686e-14,1.967062363e-14,2.292486582e-14,1.392388706e-14,7.412654992e-15,1.729223675e-14,3.530735812e-14,1.320503529e-13,3.009409630e-14,4.255824501e-14,1.293985620e-13,5.836178801e-14,1.259621630e-13,4.104327916e-14,2.057395727e-14
1.6406,9.783609210e-14,1.224401765e-14,7.837051042e-13,4.449565427e-13,6.133516776e-14,1.009699198e-13,8.496832386e-15,2.578387786e-14,4.360602819e-15,2.940970034e-14,7.947563355e-14,2.388429951e-14,1.116065791e-14,3.359096412e-14,5.714545661e-14,5.117491412e-14,5.530658322e-14,1.925307729e-14,2.310356739e-14,2.119118994e-14,1.158844510e-14,6.837683246e-15,1.412591894e-14,2.448066966e-14,9.010306949e-14,3.342831335e-14,3.803683759e-14,9.324177900e-14,6.510229687e-14,1.207727060e-13,4.291400653e-14,2.065458254e-14
1.6484,7.792193644e-14,8.263291074e-15,5.290074154e-13,3.196407474e-13,4.261605811e-14,1.044671136e-13,1.035345250e-14,1.902809446e-14,3.309403319e-15,3.971592272e-14,1.089373250e-13,3.203244449e-14,1.236207544e-14,4.010833390e-14,6.510175059e-14,4.067711738e-14,4.732829734e-14,1.798054460e-14,2.690684764e-14,1.943987771e-14,1.020841019e-14,7.215937957e-15,1.315781946e-14,1.651811547e-14,6.379001555e-14,4.054121713e-14,3.804604959e-14,7.185441494e-14,6.920890719e-14,1.141200825e-13,4.932235788e-14,2.338166676e-14
1.6562,6.273102060e-14,5.948574170e-15,3.605233829e-13,2.500066600e-13,3.188734221e-14,1.177452545e-13,1.358320554e-14,1.494888559e-14,2.684221926e-15,5.094056222e-14,1.427930402e-13,4.150901736e-14,1.401951763e-14,4.946371848e-14,7.931013078e-14,3.420408157e-14,4.201028990e-14,1.798807060e-14,3.093411245e-14,1.768745484e-14,9.637478947e-15,8.102040065e-15,1.378601571e-14,1.127052297e-14,4.847425320e-14,5.024894380e-14,3.938498779e-14,6.073290983e-14,7.167655712e-14,1.071534490e-13,5.970534582e-14,2.818031304e-14
1.6641,4.792217474e-14,4.926932819e-15,2.432441957e-13,2.181132074e-13,2.661199378e-14,1.352003996e-13,1.800709750e-14,1.257888710e-14,2.282201411e-15,6.269933015e-14,1.798759137e-13,5.133082735e-14,1.519008387e-14,5.973068459e-14,9.794389468e-14,3.221770049e-14,3.835373810e-14,1.815467416e-14,3.373180417e-14,1.537158168e-14,9.259464520e-15,9.352397893e-15,1.559591761e-14,8.290640941e-15,3.960542342e-14,6.052675208e-14,4.185204619e-14,5.079159891e-14,7.146503313e-14,9.605399238e-14,7.176633029e-14,3.404876335e-14
1.6719,3.580072511e-14,4.793497210e-15,1.749374919e-13,2.099930121e-13,2.375709965e-14,1.522222449e-13,2.389210996e-14,1.138796054e-14,2.011931138e-15,7.291054124e-14,2.128325167e-13,5.917986892e-14,1.548799717e-14,6.712596166e-14,1.148220246e-13,3.266545076e-14,3.461112629e-14,1.742209099e-14,3.439803847e-14,1.251608558e-14,9.285372558e-15,1.093886611e-14,1.841054191e-14,6.585739684e-15,3.585291096e-14,6.947505230e-14,4.440479218e-14,4.026414713e-14,6.649713329e-14,7.972518902e-14,8.347387523e-14,3.936703708e-14
1.6797,2.745910149e-14,4.955556741e-15,1.313197273e-13,2.074499182e-13,2.299245722e-14,1.625214775e-13,2.980778078e-14,1.112460013e-14,1.914482206e-15,7.958328854e-14,2.367575603e-13,6.449620740e-14,1.514738602e-14,7.125499828e-14,1.266450347e-13,3.353071773e-14,3.061364492e-14,1.658548774e-14,3.369586359e-14,9.592354371e-15,9.680845257e-15,1.234076205e-14,2.078167662e-14,5.884035556e-15,3.222028405e-14,7.503236448e-14,4.218870200e-14,3.164541307e-14,5.832019211e-14,6.336786916e-14,9.184008803e-14,4.273663663e-14
1.6875,2.096566075e-14,5.843353788e-15,9.906918536e-14,2.054692256e-13,2.355154227e-14,1.643354930e-13,3.353641436e-14,1.166891153e-14,1.937996121e-15,8.213597515e-14,2.509441426e-13,6.753510042e-14,1.428914870e-14,7.228665721e-14,1.321473489e-13,3.454193441e-14,2.652385881e-14,1.579125520e-14,3.241377609e-14,7.580081657e-15,1.061852908e-14,1.275694851e-14,2.187973040e-14,5.764752576e-15,2.898441162e-14,7.712547417e-14,3.809871173e-14,2.541893646e-14,4.989146799e-14,4.977322847e-14,9.589617442e-14,4.393105161e-14
