Time,Fp1,AF3,F7,F3,FC1,FC5,T7,C3,CP1,CP5,P7,P3,Pz,PO3,O1,Oz,O2,PO4,P4,P8,CP6,CP2,C4,T8,FC6,FC2,F4,F8,AF4,Fp2,Fz,Cz,
-0.10156,1.412664270e-14,9.397819388e-15,1.803863077e-13,9.143469466e-15,9.516115220e-15,1.241516632e-14,8.614066674e-15,2.424091229e-14,2.778766316e-14,3.549755157e-14,3.432672018e-14,4.959919110e-14,1.050461277e-15,3.102685330e-14,1.540478790e-14,2.683621917e-14,4.951839984e-14,6.441881751e-15,1.676920352e-15,2.076576274e-14,3.306858497e-14,2.328829378e-15,2.827144464e-14,1.137465598e-13,1.056843750e-13,8.142006334e-16,3.761354754e-14,2.428849659e-13,1.104539365e-14,3.188314614e-14,5.729271382e-15,8.067417910e-15
-0.09375,1.731123806e-14,1.012755616e-14,1.910630520e-13,1.105492008e-14,1.132257959e-14,1.764306439e-14,9.902295715e-15,2.927937368e-14,2.921348052e-14,3.990067350e-14,3.471047080e-14,5.499301971e-14,8.976120032e-16,3.307686783e-14,1.524582965e-14,3.180642948e-14,6.476272674e-14,6.939566291e-15,1.805720050e-15,2.618997627e-14,3.908797511e-14,2.632239427e-15,3.081575042e-14,1.660490505e-13,1.411508396e-13,8.741451636e-16,3.664434760e-14,2.629766334e-13,1.368873046e-14,3.821006886e-14,8.430639024e-15,7.780972173e-15
-0.085938,2.020815200e-14,1.085122842e-14,1.895470595e-13,1.257394565e-14,1.264889270e-14,2.337020255e-14,1.063678300e-14,3.294724774e-14,2.841463313e-14,4.213407083e-14,3.287382092e-14,5.768330246e-14,6.886250377e-16,3.300193568e-14,1.431741120e-14,3.657559448e-14,7.919931377e-14,7.374621551e-15,1.924810431e-15,3.066396797e-14,4.375585031e-14,2.875195266e-15,3.109918604e-14,2.282049421e-13,1.810750583e-13,9.146011467e-16,3.313602509e-14,2.689483692e-13,1.635240109e-14,4.358785768e-14,1.145708524e-14,6.959628123e-15
-0.078125,2.273834587e-14,1.181416758e-14,1.757748321e-13,1.368158012e-14,1.333495581e-14,2.827936878e-14,1.122175302e-14,3.461775847e-14,2.574902255e-14,4.184159049e-14,2.966027631e-14,5.823476555e-14,5.068332699e-16,3.137126644e-14,1.348647778e-14,4.185231043e-14,9.109137287e-14,8.138395998e-15,2.112695111e-15,3.433105271e-14,4.711434402e-14,3.040805322e-15,2.931586439e-14,2.982383275e-13,2.229110244e-13,9.916469149e-16,2.826986640e-14,2.606679343e-13,1.907163879e-14,4.807335729e-14,1.453412411e-14,5.878067219e-15
-0.070312,2.544807354e-14,1.322834081e-14,1.545400644e-13,1.525322421e-14,1.333364162e-14,3.178654673e-14,1.288053351e-14,3.397992521e-14,2.157945680e-14,3.945103684e-14,2.672386052e-14,5.664334197e-14,3.899923619e-16,2.837811909e-14,1.296929463e-14,4.707800717e-14,9.809608533e-14,9.041486453e-15,2.508645054e-15,3.691209861e-14,4.925699988e-14,3.157532130e-15,2.553648225e-14,3.694180708e-13,2.641385160e-13,1.078581542e-15,2.371150314e-14,2.454549388e-13,2.130612406e-14,5.117732681e-14,1.709683242e-14,4.750413190e-15
-0.0625,2.870805919e-14,1.535371935e-14,1.286824442e-13,1.832757718e-14,1.304486162e-14,3.358119662e-14,1.596788314e-14,3.077219845e-14,1.662897592e-14,3.547949851e-14,2.513891381e-14,5.333842624e-14,4.105599608e-16,2.461913299e-14,1.300959834e-14,5.213560446e-14,9.947814571e-14,9.941792979e-15,3.368169047e-15,3.713801160e-14,5.091449618e-14,3.322841441e-15,2.071691148e-14,4.360010018e-13,3.034353905e-13,1.196628320e-15,2.075149213e-14,2.268917428e-13,2.231289372e-14,5.297520533e-14,1.891838429e-14,3.835604565e-15
-0.054688,3.329326695e-14,1.809899420e-14,1.041195764e-13,2.413785622e-14,1.330045525e-14,3.348637025e-14,2.117195037e-14,2.595120444e-14,1.208895405e-14,3.073585770e-14,2.574233331e-14,4.993929120e-14,6.438105466e-16,2.108878066e-14,1.400574898e-14,5.715920917e-14,9.575644547e-14,1.063688106e-14,4.790538621e-15,3.491063917e-14,5.178629243e-14,3.597342125e-15,1.634935046e-14,4.922044170e-13,3.365203802e-13,1.373237938e-15,2.017774152e-14,2.112010054e-13,2.191412276e-14,5.386343633e-14,1.993529829e-14,3.261739196e-15
-0.046875,3.981525715e-14,2.090543986e-14,8.402893407e-14,3.337726881e-14,1.436812318e-14,3.255201081e-14,2.953417353e-14,2.087705285e-14,8.457770606e-15,2.606649421e-14,2.882275805e-14,4.742327646e-14,1.121743936e-15,1.801910186e-14,1.597924431e-14,6.264903666e-14,8.875803327e-14,1.077689912e-14,7.027836764e-15,3.218266216e-14,5.229851326e-14,3.964158855e-15,1.295330800e-14,5.376242078e-13,3.607857116e-13,1.645199401e-15,2.102001858e-14,2.005983089e-13,2.028346680e-14,5.459442588e-14,2.002419625e-14,2.917931961e-15
-0.039062,4.969779176e-14,2.391926916e-14,7.114039130e-14,4.602275723e-14,1.635122004e-14,3.227160798e-14,4.126782328e-14,1.597895190e-14,5.600051768e-15,2.212792424e-14,3.484493525e-14,4.587540036e-14,1.938607260e-15,1.598730192e-14,1.948535690e-14,6.946421609e-14,7.957814774e-14,1.045130387e-14,1.039936678e-14,2.904245718e-14,5.307423699e-14,4.461713348e-15,1.070522681e-14,5.659616875e-13,3.733273852e-13,2.141272165e-15,2.253851775e-14,1.985405245e-13,1.806195805e-14,5.486857964e-14,1.947349493e-14,2.670490781e-15
-0.03125,6.279708479e-14,2.759771252e-14,6.710944530e-14,6.203730162e-14,2.015810816e-14,3.323755397e-14,5.597646314e-14,1.143104387e-14,3.640260524e-15,1.915446556e-14,4.311200360e-14,4.555698007e-14,2.995552323e-15,1.557760171e-14,2.508960492e-14,7.961286084e-14,7.316038949e-14,1.068037502e-14,1.495956196e-14,2.458941189e-14,5.431306988e-14,5.020780664e-15,9.678839472e-15,5.765131371e-13,3.716942533e-13,3.015685912e-15,2.367097883e-14,2.049984876e-13,1.614906691e-14,5.497683077e-14,1.967434743e-14,2.750513519e-15
-0.023438,7.853306660e-14,3.106462890e-14,7.069450924e-14,7.926618998e-14,2.533702368e-14,3.721226409e-14,7.248171737e-14,8.411137916e-15,2.572790502e-15,1.746411371e-14,5.187457034e-14,4.630256777e-14,4.104622986e-15,1.586734107e-14,3.169269675e-14,9.188643028e-14,7.238263524e-14,1.203853771e-14,2.035009114e-14,1.976945839e-14,5.577930407e-14,5.550198187e-15,9.380549354e-15,5.720258650e-13,3.569835804e-13,4.013159400e-15,2.400839384e-14,2.195596960e-13,1.528641228e-14,5.482557202e-14,2.075116683e-14,2.968708356e-15
-0.015625,9.600505077e-14,3.339470869e-14,8.112838322e-14,9.451846934e-14,3.036008395e-14,4.508922684e-14,8.868019354e-14,6.925350766e-15,1.963236906e-15,1.683183766e-14,6.022993161e-14,4.747852027e-14,5.128104639e-15,1.669519955e-14,3.805332001e-14,1.035071332e-13,7.504449196e-14,1.400726001e-14,2.603337057e-14,1.568388586e-14,5.803848523e-14,5.987980543e-15,9.199547321e-15,5.574112793e-13,3.321918155e-13,4.962083026e-15,2.366358115e-14,2.406319091e-13,1.549465601e-14,5.425281331e-14,2.218423535e-14,3.182892011e-15
-0.0078125,1.142378342e-13,3.513958990e-14,9.772871627e-14,1.060206606e-13,3.513729526e-14,5.717737908e-14,1.025653101e-13,6.440909251e-15,1.558701771e-15,1.667223241e-14,6.720076448e-14,4.814074051e-14,6.097573503e-15,1.852742496e-14,4.457042538e-14,1.148212057e-13,8.210737880e-14,1.720974448e-14,3.170336604e-14,1.210606435e-14,6.141272812e-14,6.299442238e-15,8.816288257e-15,5.337231636e-13,2.992971666e-13,6.016523496e-15,2.253467957e-14,2.668611954e-13,1.664612938e-14,5.289639392e-14,2.445246878e-14,3.656580313e-15
0,1.313834998e-13,3.636593115e-14,1.187992358e-13,1.151501626e-13,4.003337359e-14,7.284319361e-14,1.124467076e-13,7.266111566e-15,1.386065199e-15,1.660643655e-14,7.151395829e-14,4.760302956e-14,6.845913098e-15,2.062684763e-14,5.053601203e-14,1.249962719e-13,9.466494418e-14,2.202442795e-14,3.685231250e-14,9.098339955e-15,6.639482659e-14,6.422739137e-15,8.430536408e-15,5.058200617e-13,2.610956284e-13,7.106687234e-15,2.114208394e-14,2.956106982e-13,1.812976357e-14,5.088431552e-14,2.781920757e-14,4.595996681e-15
0.0078125,1.442038894e-13,3.603879292e-14,1.422875315e-13,1.209379667e-13,4.335118730e-14,8.985380268e-14,1.179616952e-13,9.041240563e-15,1.358046191e-15,1.654931005e-14,7.188507785e-14,4.528971984e-14,6.957054994e-15,2.168713359e-14,5.332643474e-14,1.297374801e-13,1.067329267e-13,2.636179346e-14,3.974415808e-14,6.523608265e-15,7.271564365e-14,6.273058023e-15,8.022286846e-15,4.783418309e-13,2.239832184e-13,8.042964393e-15,1.956481613e-14,3.255572557e-13,1.889218433e-14,4.826447886e-14,3.097741952e-14,5.916856209e-15
0.015625,1.511690775e-13,3.369595735e-14,1.687157988e-13,1.230259685e-13,4.417527723e-14,1.067456638e-13,1.183808957e-13,1.141950338e-14,1.361852024e-15,1.580614431e-14,6.749899335e-14,4.074983261e-14,6.648197849e-15,2.164061765e-14,5.223265214e-14,1.266532415e-13,1.154744217e-13,2.909816168e-14,4.022927605e-14,5.107970099e-15,7.983491643e-14,5.903736434e-15,8.188715544e-15,4.554103530e-13,1.926204928e-13,9.189514921e-15,1.810099589e-14,3.475142391e-13,1.856446257e-14,4.512379626e-14,3.291409563e-14,7.395271145e-15
0.023438,1.524998659e-13,3.086263599e-14,2.010866204e-13,1.243271113e-13,4.322969609e-14,1.225863604e-13,1.155495243e-13,1.407879628e-14,1.455716270e-15,1.484610543e-14,6.021894021e-14,3.491636728e-14,6.310141093e-15,2.121680422e-14,4.890552137e-14,1.186705463e-13,1.210910907e-13,3.107281554e-14,3.878145521e-14,4.939035903e-15,8.771709387e-14,5.364201140e-15,9.377809766e-15,4.362060399e-13,1.662318872e-13,1.106887185e-14,1.732925961e-14,3.669969649e-13,1.737246755e-14,4.238581956e-14,3.404002093e-14,9.132382729e-15
0.03125,1.470747551e-13,2.811789182e-14,2.349285139e-13,1.280363126e-13,4.139875201e-14,1.353742564e-13,1.112032806e-13,1.723483834e-14,1.639172701e-15,1.383972015e-14,5.134925530e-14,2.815949674e-14,5.801973842e-15,2.002116225e-14,4.352882244e-14,1.068662942e-13,1.221373175e-13,3.153608175e-14,3.556785035e-14,6.092696250e-15,9.522814871e-14,4.677714449e-15,1.219310333e-14,4.202440500e-13,1.480807581e-13,1.373465017e-14,1.780569064e-14,3.841871835e-13,1.563445876e-14,4.033087842e-14,3.447551131e-14,1.080371066e-14
0.039062,1.355286901e-13,2.496291053e-14,2.658540743e-13,1.320865106e-13,3.821958731e-14,1.417645781e-13,1.047368478e-13,2.056203378e-14,2.023992426e-15,1.267915850e-14,4.137906173e-14,2.159233282e-14,5.234679120e-15,1.823188659e-14,3.666062074e-14,9.139880086e-14,1.175034905e-13,2.961625666e-14,3.058820183e-14,8.038840623e-15,1.019079754e-13,3.924577029e-15,1.668120582e-14,4.084222010e-13,1.392310811e-13,1.694603275e-14,2.024497417e-14,3.907800442e-13,1.403355108e-14,3.892378260e-14,3.369864127e-14,1.228753988e-14
0.046875,1.193662167e-13,2.125207316e-14,2.941978691e-13,1.349322317e-13,3.389610937e-14,1.428961400e-13,9.709705352e-14,2.351295074e-14,2.491036976e-15,1.123132017e-14,3.112711573e-14,1.576900958e-14,4.942819522e-15,1.632426360e-14,2.986680310e-14,7.463062995e-14,1.093574154e-13,2.630862729e-14,2.504902800e-14,1.140718192e-14,1.055197304e-13,3.272598111e-15,2.247494380e-14,3.992359977e-13,1.348731676e-13,2.066732421e-14,2.546984048e-14,3.841644061e-13,1.332377593e-14,3.805306135e-14,3.155179040e-14,1.313663523e-14
0.054688,1.016105094e-13,1.811041469e-14,3.177516042e-13,1.356892865e-13,2.898751089e-14,1.379342082e-13,8.979998458e-14,2.586805420e-14,2.976728715e-15,1.024827684e-14,2.221893800e-14,1.133412446e-14,4.928349758e-15,1.478392993e-14,2.433862921e-14,5.909268659e-14,9.859678951e-14,2.274538928e-14,1.998765002e-14,1.627710747e-14,1.055332724e-13,2.796963659e-15,2.928871008e-14,3.897147667e-13,1.318915448e-13,2.373896940e-14,3.380566814e-14,3.715214361e-13,1.387012459e-14,3.728856658e-14,2.841771622e-14,1.304718389e-14
0.0625,8.338520169e-14,1.606228409e-14,3.274646010e-13,1.336448904e-13,2.475716859e-14,1.272355934e-13,8.143699219e-14,2.747077741e-14,3.399452880e-15,9.237279956e-15,1.586575744e-14,8.423883736e-15,5.032480970e-15,1.392139246e-14,2.083696954e-14,4.609802926e-14,8.745187770e-14,1.937984435e-14,1.587733437e-14,2.142055396e-14,1.029151279e-13,2.524118753e-15,3.628616731e-14,3.745163417e-13,1.289309427e-13,2.550058577e-14,4.381397502e-14,3.526337765e-13,1.515585597e-14,3.643504841e-14,2.530378306e-14,1.229437013e-14
0.070312,6.608357960e-14,1.415658497e-14,3.210245127e-13,1.255997556e-13,2.107912364e-14,1.118479693e-13,7.128035329e-14,2.804280241e-14,3.785238272e-15,8.056318166e-15,1.191799438e-14,7.092268996e-15,5.270878436e-15,1.389408923e-14,1.967715235e-14,3.637969530e-14,7.723174461e-14,1.671017621e-14,1.307705117e-14,2.624474594e-14,9.729672977e-14,2.478674799e-15,4.215318656e-14,3.558846143e-13,1.247867643e-13,2.598161603e-14,5.502874629e-14,3.224794789e-13,1.704100932e-14,3.528691920e-14,2.208672453e-14,1.116072725e-14
0.078125,5.072821242e-14,1.191498904e-14,3.032500218e-13,1.112048300e-13,1.771068031e-14,9.404663715e-14,5.986310786e-14,2.725790290e-14,3.997167262e-15,6.868262509e-15,9.764331647e-15,6.758767930e-15,5.602034062e-15,1.425895525e-14,2.039076300e-14,2.926368755e-14,6.755040867e-14,1.483028390e-14,1.162102276e-14,3.151721538e-14,8.791330341e-14,2.706553634e-15,4.553313412e-14,3.309818289e-13,1.148231727e-13,2.489712483e-14,6.438911329e-14,2.840316225e-13,1.864400947e-14,3.332819287e-14,1.874069639e-14,9.607156598e-15
0.085938,3.840458749e-14,9.846097236e-15,2.747676197e-13,9.342336696e-14,1.499492019e-14,7.529900493e-14,4.868205230e-14,2.540303153e-14,3.933848826e-15,5.784280753e-15,9.360950826e-15,7.073762441e-15,5.777407082e-15,1.494222807e-14,2.242706440e-14,2.428683907e-14,5.842404603e-14,1.384497774e-14,1.138155171e-14,3.678359234e-14,7.664346969e-14,3.242289258e-15,4.617783706e-14,3.011104676e-13,1.011472506e-13,2.252272026e-14,7.274833443e-14,2.431638713e-13,1.995501435e-14,3.061572285e-14,1.548109429e-14,8.136325882e-15
0.09375,2.921696307e-14,7.970732464e-15,2.355068785e-13,7.383026711e-14,1.300612588e-14,5.659624494e-14,3.854094786e-14,2.283832777e-14,3.662832622e-15,4.980344547e-15,1.000996258e-14,7.738385246e-15,5.844559667e-15,1.574619750e-14,2.493692462e-14,2.048657588e-14,4.979519553e-14,1.339587691e-14,1.197551185e-14,4.167761019e-14,6.385794220e-14,4.022567064e-15,4.364837019e-14,2.667349904e-13,8.563995021e-14,1.917287546e-14,7.806292039e-14,2.022356290e-13,2.061740691e-14,2.715157073e-14,1.231060998e-14,7.160768531e-15
0.10156,2.342891695e-14,6.182724503e-15,1.913696626e-13,5.680111758e-14,1.175730721e-14,3.997461595e-14,3.004341332e-14,2.016455570e-14,3.303539447e-15,4.470592361e-15,1.087194225e-14,8.294810420e-15,5.817075778e-15,1.639738359e-14,2.681689589e-14,1.755494733e-14,4.195511144e-14,1.320934032e-14,1.296369271e-14,4.498317106e-14,5.041951957e-14,4.970232395e-15,3.854397878e-14,2.310980321e-13,6.983329643e-14,1.534720071e-14,7.867550698e-14,1.601126669e-13,2.043303746e-14,2.344603310e-14,9.397940814e-15,6.949224997e-15
0.10938,2.104891360e-14,4.369097324e-15,1.491779891e-13,4.387290119e-14,1.108205225e-14,2.687851669e-14,2.414535503e-14,1.794433250e-14,2.984244868e-15,4.346995554e-15,1.172390059e-14,8.405033909e-15,5.560263159e-15,1.636616857e-14,2.728283792e-14,1.498506254e-14,3.501910543e-14,1.278820759e-14,1.386008915e-14,4.743005119e-14,3.782434351e-14,6.053465689e-15,3.175337195e-14,1.937663112e-13,5.392451508e-14,1.174423651e-14,7.479993485e-14,1.227542915e-13,1.948463976e-14,1.968835414e-14,6.928925231e-15,7.751120700e-15
0.11719,2.264317744e-14,2.877694145e-15,1.118239179e-13,3.642130825e-14,1.068621796e-14,1.728330902e-14,2.051112429e-14,1.657695685e-14,2.812204788e-15,4.660022678e-15,1.249156943e-14,8.236821435e-15,4.967002346e-15,1.551479062e-14,2.629903843e-14,1.308170153e-14,2.921735442e-14,1.190648419e-14,1.438653326e-14,4.894337765e-14,2.672325641e-14,7.245157860e-15,2.422001300e-14,1.586716473e-13,4.046152951e-14,8.825242692e-15,7.016438012e-14,9.232059752e-14,1.872336866e-14,1.639990317e-14,4.880359258e-15,9.364991327e-15
0.125,2.783222520e-14,1.704291125e-15,8.091196871e-14,3.368535098e-14,1.031280752e-14,1.136807149e-14,1.875673858e-14,1.626530986e-14,2.975946615e-15,5.275547928e-15,1.247658025e-14,7.895498534e-15,4.280515384e-15,1.399380706e-14,2.382853129e-14,1.198621108e-14,2.539658229e-14,1.052623731e-14,1.433028554e-14,4.912657256e-14,1.738567872e-14,8.238963930e-15,1.715733177e-14,1.273902076e-13,3.024963665e-14,6.439957045e-15,6.416366877e-14,6.821317524e-14,1.792297021e-14,1.368339998e-14,3.223049820e-15,1.176391308e-14
0.13281,3.582832320e-14,9.669387200e-16,5.899856989e-14,3.359121497e-14,9.550348688e-15,8.499887446e-15,1.819055105e-14,1.665746011e-14,3.541344129e-15,6.023977963e-15,1.167331188e-14,7.379839468e-15,3.723959814e-15,1.217549167e-14,2.043253281e-14,1.257435261e-14,2.445832351e-14,9.085741854e-15,1.356251574e-14,4.743277539e-14,1.044563670e-14,8.921336039e-15,1.145155183e-14,1.017957839e-13,2.385788830e-14,4.725128911e-15,5.695377381e-14,4.975610057e-14,1.702033596e-14,1.177843719e-14,2.008267781e-15,1.419927209e-14
0.14062,4.556670610e-14,5.851814427e-16,4.563988466e-14,3.444264313e-14,8.596011180e-15,8.108680507e-15,1.809097471e-14,1.762853751e-14,4.468245607e-15,6.720905811e-15,1.061583581e-14,6.639964542e-15,3.181436262e-15,9.942515227e-15,1.665837137e-14,1.500710992e-14,2.663348615e-14,7.714569655e-15,1.227727195e-14,4.605012776e-14,5.638799392e-15,9.265285672e-15,7.209224544e-15,8.059811351e-14,2.086266437e-14,3.582713794e-15,5.056348172e-14,3.721545275e-14,1.642448339e-14,1.053538037e-14,1.192656285e-15,1.612546665e-14
0.14844,5.707035654e-14,5.602596227e-16,3.855504062e-14,3.480104872e-14,7.456535077e-15,9.137157685e-15,1.761671899e-14,1.872787772e-14,5.732203769e-15,6.974277578e-15,9.460580010e-15,6.165587553e-15,2.990522435e-15,7.814232246e-15,1.374320443e-14,1.961610311e-14,3.238618063e-14,7.181505351e-15,1.094040854e-14,4.587334729e-14,2.988598925e-15,9.261927608e-15,5.096909208e-15,6.559888559e-14,2.133646740e-14,2.837265124e-15,4.698613493e-14,2.906883752e-14,1.642997879e-14,1.010605393e-14,7.080736060e-16,1.746060105e-14
0.15625,6.792921903e-14,7.868921897e-16,3.472494263e-14,3.395849587e-14,6.162080271e-15,1.149145234e-14,1.788934193e-14,1.961520914e-14,7.192110005e-15,6.901831205e-15,8.274117414e-15,5.943511738e-15,3.134841374e-15,5.974083398e-15,1.161420458e-14,2.537687010e-14,4.027740383e-14,7.392430219e-15,9.850175759e-15,4.738989340e-14,2.020621413e-15,8.792427023e-15,5.082855796e-15,5.521034515e-14,2.450603142e-14,2.249594722e-15,4.599942619e-14,2.471222966e-14,1.675803759e-14,1.009039889e-14,4.559995620e-16,1.803667276e-14
0.16406,7.530471313e-14,1.162061401e-15,3.182766529e-14,3.235923706e-14,5.138143214e-15,1.496605776e-14,1.943210542e-14,2.036844439e-14,8.444705695e-15,6.402564937e-15,7.334929567e-15,5.586673602e-15,3.399282685e-15,4.430757827e-15,1.057268891e-14,3.258263320e-14,5.038981946e-14,8.896650124e-15,9.432507180e-15,5.146480027e-14,2.470148167e-15,7.868818579e-15,6.966203912e-15,4.821286985e-14,3.093167632e-14,1.776608575e-15,4.795942814e-14,2.309315514e-14,1.728442872e-14,1.014436499e-14,3.231500534e-16,1.761042938e-14
0.17188,7.916200565e-14,1.586445063e-15,2.878390772e-14,3.195267393e-14,4.781770360e-15,1.977934964e-14,2.261940513e-14,2.173271249e-14,9.558454856e-15,5.750652646e-15,6.834662487e-15,5.279739025e-15,3.963348121e-15,3.263468559e-15,1.015957513e-14,3.901251494e-14,6.060381083e-14,1.147384621e-14,9.822011518e-15,5.961867015e-14,4.211268358e-15,6.787513059e-15,1.055029291e-14,4.436540517e-14,4.079334960e-14,1.451870631e-15,5.259869136e-14,2.524168962e-14,1.803708892e-14,1.027390827e-14,3.376951043e-16,1.666440232e-14
0.17969,7.896278466e-14,2.062116564e-15,2.602231302e-14,3.415611835e-14,4.583763314e-15,2.615867642e-14,2.759157661e-14,2.393524566e-14,1.072601174e-14,5.069869967e-15,6.826586579e-15,5.217931149e-15,4.513690129e-15,2.449951564e-15,9.965104897e-15,4.423785368e-14,7.051308370e-14,1.489666796e-14,1.099349897e-14,7.215306438e-14,6.751609018e-15,5.613617249e-15,1.559620888e-14,4.351847303e-14,5.418167034e-14,1.171797297e-15,6.032444308e-14,3.150819297e-14,1.941008950e-14,1.030992144e-14,3.954297507e-16,1.569532613e-14
0.1875,7.526194375e-14,2.867158161e-15,2.399704886e-14,4.026338801e-14,5.087042768e-15,3.466831510e-14,3.434856034e-14,2.741217848e-14,1.185764243e-14,4.710519544e-15,6.981953403e-15,5.195690536e-15,5.348367987e-15,2.101739439e-15,1.025275037e-14,4.858117711e-14,8.048500053e-14,1.980263370e-14,1.313249474e-14,8.988420455e-14,9.880746033e-15,4.630813001e-15,2.178140670e-14,4.605949380e-14,7.095902336e-14,1.190394790e-15,6.966714933e-14,4.262551517e-14,2.071895541e-14,9.959475944e-15,5.446883230e-16,1.513053041e-14
0.19531,6.669439525e-14,3.784174451e-15,2.343039435e-14,5.122814582e-14,6.405424842e-15,4.539724723e-14,4.261519874e-14,3.178941699e-14,1.281459069e-14,5.031402212e-15,7.122087516e-15,5.101389762e-15,6.200351799e-15,1.878582677e-15,9.959235064e-15,4.894460758e-14,8.609062781e-14,2.411569326e-14,1.560655080e-14,1.088694231e-13,1.341803608e-14,3.995520987e-15,2.829950803e-14,5.456273324e-14,9.004336417e-14,1.428712151e-15,7.662525619e-14,5.719280166e-14,2.153073885e-14,9.362230672e-15,9.090473534e-16,1.489826378e-14
0.20312,5.615672107e-14,4.800935664e-15,2.546751508e-14,6.509228732e-14,7.381705476e-15,5.767781742e-14,5.115526240e-14,3.660879674e-14,1.376428475e-14,5.981543772e-15,7.676812199e-15,4.939171872e-15,6.918746907e-15,1.731549671e-15,9.333063002e-15,4.658122666e-14,8.788949003e-14,2.761096424e-14,1.782314315e-14,1.275916267e-13,1.627676217e-14,3.776958679e-15,3.390652975e-14,7.194680741e-14,1.099609816e-13,1.795283920e-15,7.993336416e-14,7.391441441e-14,2.219091878e-14,8.691705145e-15,1.268681385e-15,1.484892758e-14
0.21094,4.629185469e-14,6.396050248e-15,2.939636058e-14,8.187911746e-14,8.216403432e-15,7.221408290e-14,5.857390106e-14,4.237116281e-14,1.506703783e-14,7.538741616e-15,7.904844013e-15,4.751112125e-15,8.114987975e-15,1.778110736e-15,9.348941622e-15,4.348951650e-14,8.918258128e-14,3.155690882e-14,1.987825377e-14,1.477202818e-13,1.794535871e-14,4.185053044e-15,3.763307961e-14,1.019009647e-13,1.310450263e-13,2.324056999e-15,7.883680182e-14,8.971334806e-14,2.228502838e-14,8.394299164e-15,1.674656870e-15,1.516272971e-14
0.21875,3.717220151e-14,8.202608677e-15,3.394613470e-14,9.933788041e-14,9.165786238e-15,8.696405231e-14,6.419323078e-14,4.726652574e-14,1.670453852e-14,9.620921700e-15,7.743275157e-15,4.582895931e-15,9.258527570e-15,1.708590792e-15,9.914248845e-15,3.839724108e-14,8.741468527e-14,3.368947208e-14,2.091662933e-14,1.646293032e-13,1.794471841e-14,5.122594178e-15,3.895756425e-14,1.438467602e-13,1.489517409e-13,3.053192932e-15,7.340196931e-14,1.004938412e-13,2.219149374e-14,8.664675653e-15,2.196234232e-15,1.567508600e-14
0.22656,2.970501840e-14,9.558648310e-15,3.852912325e-14,1.139432491e-13,9.804434664e-15,9.943901339e-14,6.592811850e-14,4.976356247e-14,1.822979047e-14,1.177308808e-14,7.318111376e-15,4.303436364e-15,9.893528594e-15,1.402731370e-15,1.081994731e-14,3.143214117e-14,8.077580627e-14,3.250937356e-14,2.044738966e-14,1.743612633e-13,1.707544826e-14,6.439411208e-15,3.823693649e-14,1.982073248e-13,1.600727710e-13,3.832024421e-15,6.362149680e-14,1.056096074e-13,2.185913842e-14,9.647649872e-15,2.782724719e-15,1.590851304e-14
0.23438,2.550735024e-14,1.003818514e-14,4.101696155e-14,1.219152145e-13,9.067774207e-15,1.083381116e-13,6.388388372e-14,4.927266914e-14,1.922765565e-14,1.364988382e-14,6.985378271e-15,4.019228834e-15,1.019829568e-14,1.155154790e-15,1.208066254e-14,2.445476851e-14,7.041576532e-14,2.925400958e-14,1.832022673e-14,1.747439357e-13,1.511716068e-14,8.227562265e-15,3.518636698e-14,2.571184717e-13,1.618712685e-13,4.226605616e-15,5.231720084e-14,1.028245057e-13,2.238092155e-14,1.158454725e-14,2.920064060e-15,1.507040566e-14
0.24219,2.499377058e-14,1.050774823e-14,3.956103105e-14,1.265166787e-13,8.271932903e-15,1.157215455e-13,5.884543833e-14,4.751134756e-14,1.993137927e-14,1.507743852e-14,6.481730304e-15,3.703530057e-15,1.066723537e-14,1.103058783e-15,1.338104102e-14,1.906533605e-14,6.030828458e-14,2.622235465e-14,1.599050522e-14,1.706645086e-13,1.308902950e-14,1.009143007e-14,3.052843366e-14,3.139694450e-13,1.583571532e-13,4.406265719e-15,4.316144374e-14,9.500761273e-14,2.352934403e-14,1.433511197e-14,2.772171511e-15,1.346227152e-14
0.25,2.685972872e-14,1.050058111e-14,3.597504285e-14,1.261826258e-13,7.679185485e-15,1.202981428e-13,5.183315086e-14,4.380148407e-14,2.038122014e-14,1.590117697e-14,6.116276965e-15,3.268619809e-15,1.071547827e-14,1.178780387e-15,1.492962777e-14,1.504395939e-14,5.053532370e-14,2.199183981e-14,1.334523625e-14,1.607579594e-13,1.200018059e-14,1.195493141e-14,2.539193771e-14,3.627577936e-13,1.487326858e-13,4.705916159e-15,3.753186046e-14,8.470617217e-14,2.457133907e-14,1.731327737e-14,2.745925164e-15,1.170346544e-14
0.25781,3.112253818e-14,9.850343155e-15,3.072288677e-14,1.194650368e-13,6.654502546e-15,1.203651204e-13,4.308943015e-14,3.820534185e-14,2.009970071e-14,1.574060665e-14,6.248281229e-15,2.772754688e-15,1.038894396e-14,1.391664218e-15,1.607062782e-14,1.215129305e-14,4.034021663e-14,1.675053697e-14,1.068807785e-14,1.429096951e-13,1.212543396e-14,1.342873595e-14,2.054272524e-14,3.960041976e-13,1.337178175e-13,4.882308219e-15,3.551019295e-14,7.455941418e-14,2.530423130e-14,1.991999155e-14,2.615674401e-15,9.578697966e-15
0.26562,3.705131906e-14,9.186147211e-15,2.487669583e-14,1.079540081e-13,5.580894249e-15,1.170370071e-13,3.426950199e-14,3.221171359e-14,1.921247998e-14,1.469609450e-14,7.500597061e-15,2.374829283e-15,1.031648532e-14,1.922505724e-15,1.632586094e-14,1.046849470e-14,3.112680307e-14,1.251824224e-14,8.843898807e-15,1.228691737e-13,1.305627773e-14,1.458336993e-14,1.633382312e-14,4.082287377e-13,1.183460566e-13,4.857822989e-15,3.766433251e-14,6.940624804e-14,2.531657717e-14,2.182172527e-14,2.293590342e-15,7.288508767e-15
0.27344,4.203792448e-14,9.143253308e-15,2.003228290e-14,9.512247292e-14,5.116340101e-15,1.120281273e-13,2.651480075e-14,2.687357863e-14,1.793242997e-14,1.306683473e-14,1.033926699e-14,2.191130185e-15,1.057731724e-14,3.021986051e-15,1.575926681e-14,1.006088821e-14,2.406934170e-14,9.507796780e-15,8.166979744e-15,1.043963901e-13,1.438952218e-14,1.510634098e-14,1.289148669e-14,4.033030554e-13,1.095576099e-13,5.078795434e-15,4.346324472e-14,7.359689214e-14,2.414104544e-14,2.240546970e-14,2.278423844e-15,5.354500875e-15
0.28125,4.480150651e-14,9.673014104e-15,1.606884716e-14,8.095498922e-14,5.178592820e-15,1.055056683e-13,2.056933462e-14,2.282543738e-14,1.630375696e-14,1.108796143e-14,1.417931800e-14,2.264141355e-15,1.102843868e-14,4.724193680e-15,1.471345920e-14,1.072413031e-14,1.955679373e-14,7.474524501e-15,8.429036145e-15,8.705519705e-14,1.522592151e-14,1.489617548e-14,1.019313155e-14,3.834577797e-13,1.102546656e-13,5.702284995e-15,5.069565151e-14,8.543970931e-14,2.208092633e-14,2.142229449e-14,2.868957649e-15,4.074620477e-15
0.28906,4.516763043e-14,1.069090067e-14,1.370956057e-14,6.673002618e-14,6.029499559e-15,9.728436065e-14,1.658703040e-14,2.050487323e-14,1.444335193e-14,9.149008398e-15,1.942460827e-14,2.663786416e-15,1.164000336e-14,7.230161258e-15,1.367124031e-14,1.212567555e-14,1.758389941e-14,6.327136813e-15,9.652021160e-15,7.191247286e-14,1.539140932e-14,1.403847438e-14,8.178211801e-15,3.521237539e-13,1.223392579e-13,7.048747558e-15,5.850777261e-14,1.066575382e-13,2.007148523e-14,1.895234969e-14,4.372603239e-15,3.379251497e-15
0.29688,4.263408819e-14,1.247035520e-14,1.344382088e-14,5.422879039e-14,8.096548944e-15,8.797467564e-14,1.497522737e-14,2.025812600e-14,1.268291206e-14,7.556493204e-15,2.551238688e-14,3.386177821e-15,1.257058166e-14,1.047196365e-14,1.316668837e-14,1.450175379e-14,1.806427201e-14,6.228804486e-15,1.154937307e-14,6.021958527e-14,1.546000619e-14,1.291061701e-14,6.533559854e-15,3.160364894e-13,1.450694075e-13,9.221836285e-15,6.815713270e-14,1.345402141e-13,1.960647222e-14,1.578206889e-14,6.947260267e-15,3.315391593e-15
0.30469,3.778837595e-14,1.461567457e-14,1.425644277e-14,4.530985735e-14,1.147500031e-14,7.893009525e-14,1.580367174e-14,2.181018114e-14,1.078909469e-14,6.667582787e-15,3.012752537e-14,4.241338958e-15,1.358242922e-14,1.390195907e-14,1.281919652e-14,1.683640956e-14,1.976981073e-14,7.150980922e-15,1.419397489e-14,5.178952793e-14,1.583123620e-14,1.163794377e-14,5.069879585e-15,2.813474496e-13,1.759755246e-13,1.208600693e-14,7.860233436e-14,1.635011201e-13,2.141708721e-14,1.280232630e-14,1.084086415e-14,3.743860153e-15
0.3125,3.132625369e-14,1.691252577e-14,1.592107489e-14,4.082804767e-14,1.614518477e-14,7.104088245e-14,1.849832378e-14,2.453783207e-14,8.916861331e-15,6.307136061e-15,3.254492847e-14,5.108111895e-15,1.440774222e-14,1.758339069e-14,1.299110085e-14,1.896427057e-14,2.244833715e-14,8.793233513e-15,1.728739636e-14,4.716806891e-14,1.748646551e-14,1.057469575e-14,3.861469988e-15,2.515265813e-13,2.105924958e-13,1.523134809e-14,8.843561387e-14,1.898974839e-13,2.544713219e-14,1.018918488e-14,1.592017999e-14,4.491702697e-15
0.32031,2.520792174e-14,1.954156991e-14,1.906908512e-14,4.062479636e-14,2.111209708e-14,6.466577520e-14,2.262576357e-14,2.762575348e-14,7.176814506e-15,6.520424585e-15,3.350638631e-14,5.879676894e-15,1.533539530e-14,2.058021762e-14,1.366262961e-14,2.071148680e-14,2.492270223e-14,1.074418501e-14,2.060805787e-14,4.451045620e-14,2.107052636e-14,1.021943593e-14,3.178854747e-15,2.268633154e-13,2.468219332e-13,1.804468410e-14,9.770945278e-14,2.147588901e-13,3.122684018e-14,8.263917529e-15,2.112166212e-14,5.133276352e-15
0.32812,2.041274814e-14,2.242082978e-14,2.392450018e-14,4.389095407e-14,2.571931536e-14,6.017146924e-14,2.734077998e-14,3.005443176e-14,5.735426269e-15,7.061515401e-15,3.285441982e-14,6.269975340e-15,1.598643982e-14,2.221240128e-14,1.483052942e-14,2.198458683e-14,2.694136487e-14,1.269503547e-14,2.412750441e-14,4.363765253e-14,2.633755923e-14,1.055605905e-14,2.900810012e-15,2.055632517e-13,2.763257071e-13,2.063339459e-14,1.090646565e-13,2.292607420e-13,3.794657368e-14,7.287694788e-15,2.598421440e-14,5.762790927e-15
0.33594,1.715157736e-14,2.485473715e-14,2.994135071e-14,4.880993678e-14,2.877919326e-14,5.767059485e-14,3.128397050e-14,3.111729778e-14,4.323581410e-15,7.453179496e-15,2.992006901e-14,6.352688556e-15,1.586175052e-14,2.236911109e-14,1.637134934e-14,2.175621237e-14,2.716991955e-14,1.381878508e-14,2.712458715e-14,4.246836487e-14,3.226239865e-14,1.143804431e-14,3.131981522e-15,1.870677694e-13,2.960553914e-13,2.198578305e-14,1.176984718e-13,2.338353967e-13,4.358378174e-14,6.869726937e-15,2.930704837e-14,5.977033355e-15
0.34375,1.560023620e-14,2.683560226e-14,3.628685878e-14,5.276594524e-14,2.930657657e-14,5.735433815e-14,3.346166407e-14,3.069234661e-14,3.189262085e-15,7.523506248e-15,2.604281370e-14,6.143050854e-15,1.560229887e-14,2.161124139e-14,1.838652478e-14,2.028203239e-14,2.547134841e-14,1.419529128e-14,2.861731520e-14,4.015947028e-14,3.699783575e-14,1.261436559e-14,3.777230096e-15,1.681919303e-13,3.039729694e-13,2.244096989e-14,1.240556888e-13,2.289261807e-13,4.711968593e-14,6.617408528e-15,3.000313624e-14,5.892802899e-15
0.35156,1.496312804e-14,2.757586611e-14,4.258846100e-14,5.370859684e-14,2.768524042e-14,5.794786600e-14,3.453869093e-14,2.939063561e-14,2.510530603e-15,7.402643983e-15,2.319423479e-14,5.715047662e-15,1.491177881e-14,1.978092069e-14,2.088417490e-14,1.793956319e-14,2.212267208e-14,1.366436550e-14,2.843412562e-14,3.685256708e-14,3.966870586e-14,1.357724239e-14,4.689692806e-15,1.491964459e-13,3.019584042e-13,2.268608465e-14,1.298084842e-13,2.178282142e-13,4.818454730e-14,6.306559859e-15,2.810537397e-14,6.022532473e-15
0.35938,1.406306331e-14,2.739078228e-14,4.779196589e-14,5.187452988e-14,2.526546901e-14,5.911748810e-14,3.339378272e-14,2.870597169e-14,2.210840005e-15,6.847235506e-15,2.214169389e-14,5.247214395e-15,1.359214574e-14,1.766789874e-14,2.371349785e-14,1.586944745e-14,1.912482785e-14,1.318394404e-14,2.681144008e-14,3.458917707e-14,3.977099658e-14,1.389124682e-14,5.779580013e-15,1.321717347e-13,2.870154708e-13,2.410988894e-14,1.355258420e-13,2.008142035e-13,4.732628142e-14,5.611394619e-15,2.471560481e-14,6.695688010e-15
0.36719,1.300623219e-14,2.608926409e-14,5.061676585e-14,4.706513869e-14,2.281186699e-14,6.038845725e-14,3.024579064e-14,2.957032751e-14,2.295232900e-15,5.912330004e-15,2.296525723e-14,4.921473997e-15,1.197122929e-14,1.641548712e-14,2.672392997e-14,1.471932256e-14,1.727567707e-14,1.354485669e-14,2.395273984e-14,3.327496193e-14,3.720303334e-14,1.325500307e-14,6.897820277e-15,1.200737384e-13,2.644434434e-13,2.669779185e-14,1.383156183e-13,1.827199106e-13,4.482481443e-14,4.695930367e-15,2.039662883e-14,7.909027587e-15
0.375,1.155312573e-14,2.388659490e-14,4.992973082e-14,4.154785049e-14,2.214433388e-14,6.241499659e-14,2.681323072e-14,3.279477531e-14,2.843225387e-15,4.847019378e-15,2.493521506e-14,4.674871280e-15,1.057715246e-14,1.645778800e-14,2.969041007e-14,1.527541113e-14,1.787284789e-14,1.583426993e-14,2.105881914e-14,3.498853661e-14,3.353623922e-14,1.185774191e-14,8.130947594e-15,1.170168669e-13,2.447412038e-13,3.096368281e-14,1.382318796e-13,1.681921302e-13,4.158778791e-14,3.775142621e-15,1.646390901e-14,1.029830807e-14
0.38281,9.502207634e-15,2.158540498e-14,4.671268895e-14,3.792292149e-14,2.462414272e-14,6.550671250e-14,2.411272979e-14,3.815216487e-14,3.720465975e-15,3.852665867e-15,2.727515190e-14,4.402421109e-15,9.507736866e-15,1.783008105e-14,3.239931717e-14,1.809095732e-14,2.163782862e-14,2.025150778e-14,1.909840207e-14,4.117561212e-14,3.125554100e-14,9.993139625e-15,9.772515346e-15,1.275874815e-13,2.291660418e-13,3.692506023e-14,1.363331824e-13,1.588635162e-13,3.858986507e-14,3.015408393e-15,1.430675810e-14,1.375675728e-14
0.39062,7.202831136e-15,1.984877657e-14,4.169904412e-14,3.871342754e-14,2.987426731e-14,6.946052298e-14,2.260230950e-14,4.436381092e-14,4.793997259e-15,2.987311862e-15,2.927284477e-14,4.099363018e-15,8.626693843e-15,2.003436028e-14,3.448894508e-14,2.296973509e-14,2.807298724e-14,2.647583158e-14,1.857751860e-14,5.137363725e-14,3.107813281e-14,7.933249371e-15,1.174334611e-14,1.552883012e-13,2.217323264e-13,4.284317653e-14,1.304703381e-13,1.558096223e-13,3.538053255e-14,2.460999495e-15,1.401724327e-14,1.767049856e-14
0.39844,5.459520129e-15,1.847203940e-14,3.649487888e-14,4.417116866e-14,3.695473560e-14,7.422378205e-14,2.320128847e-14,4.988854329e-14,6.038552842e-15,2.320926455e-15,3.054322498e-14,3.867813462e-15,8.108880616e-15,2.266888400e-14,3.644176124e-14,2.975684149e-14,3.623238675e-14,3.374999647e-14,2.002545906e-14,6.404933625e-14,3.377487103e-14,5.917895177e-15,1.400745212e-14,1.984800894e-13,2.298823217e-13,4.710909789e-14,1.192741521e-13,1.591819642e-13,3.185018387e-14,2.201200014e-15,1.523060893e-14,2.145110092e-14
0.40625,4.403532111e-15,1.772825738e-14,3.275342343e-14,5.330660114e-14,4.484418122e-14,7.878090075e-14,2.641107233e-14,5.321634874e-14,7.419735139e-15,1.919255074e-15,3.037199105e-14,3.605130823e-15,7.944212434e-15,2.517948877e-14,3.801752787e-14,3.753772545e-14,4.416601127e-14,4.024687981e-14,2.285157632e-14,7.760551014e-14,3.936838601e-14,4.225657628e-15,1.627684510e-14,2.531461892e-13,2.524371300e-13,4.953922568e-14,1.045066782e-13,1.655768686e-13,2.778347087e-14,2.187472376e-15,1.728004654e-14,2.516132792e-14
0.41406,4.009688054e-15,1.795211323e-14,3.305596492e-14,6.394757491e-14,5.121245933e-14,8.239265237e-14,3.146798093e-14,5.304357905e-14,8.876019014e-15,1.846213580e-15,2.857192616e-14,3.378538535e-15,7.778299422e-15,2.673412339e-14,3.924242007e-14,4.516928143e-14,5.061513452e-14,4.463182841e-14,2.641310427e-14,8.989219305e-14,4.711572258e-14,3.123311776e-15,1.818493402e-14,3.163101416e-13,2.825050609e-13,5.026889149e-14,8.904663183e-14,1.712797146e-13,2.364570989e-14,2.298590036e-15,1.942379893e-14,2.815842394e-14
0.42188,4.521235222e-15,1.791726666e-14,3.802097529e-14,7.246901418e-14,5.316439355e-14,8.452736733e-14,3.732066854e-14,4.863127747e-14,1.002098264e-14,1.964340826e-15,2.566010992e-14,3.350859739e-15,7.181097432e-15,2.685760302e-14,4.018340881e-14,5.081494186e-14,5.336822787e-14,4.612538186e-14,2.924792113e-14,9.714303864e-14,5.370543135e-14,2.368472481e-15,1.938455270e-14,3.784166821e-13,3.146972547e-13,4.757434108e-14,7.174371827e-14,1.735669254e-13,1.880023786e-14,2.518841950e-15,2.004753611e-14,2.896400675e-14
0.42969,5.945786236e-15,1.817785452e-14,4.885973471e-14,7.742849913e-14,5.167413085e-14,8.454905473e-14,4.394645674e-14,4.137318888e-14,1.084360612e-14,2.287719683e-15,2.268502354e-14,3.463267386e-15,6.568261154e-15,2.621525861e-14,4.160246973e-14,5.494918325e-14,5.250043777e-14,4.499731375e-14,3.106462997e-14,9.844390356e-14,5.854819308e-14,2.009941015e-15,1.964398756e-14,4.240636394e-13,3.447268631e-13,4.244226417e-14,5.419801642e-14,1.698912874e-13,1.418500988e-14,2.910413035e-15,1.945626471e-14,2.837995737e-14
0.4375,8.286425988e-15,1.847485087e-14,6.554250494e-14,7.827988024e-14,4.804056300e-14,8.152441543e-14,4.902166150e-14,3.300016369e-14,1.161279460e-14,2.645283250e-15,1.944195110e-14,3.484372842e-15,5.896312875e-15,2.466258611e-14,4.330550551e-14,5.777841532e-14,4.896175563e-14,4.121094749e-14,3.141815811e-14,9.491951971e-14,6.116141670e-14,2.000214909e-15,1.905181330e-14,4.536856288e-13,3.638734639e-13,3.753320306e-14,3.998754759e-14,1.595306902e-13,1.040716908e-14,3.253814602e-15,1.827388458e-14,2.730581907e-14
0.44531,1.216796576e-14,1.789785205e-14,8.464346668e-14,7.409041088e-14,4.186548134e-14,7.618064708e-14,5.117285098e-14,2.459600714e-14,1.220555977e-14,2.986998056e-15,1.615635030e-14,3.491389364e-15,4.831409500e-15,2.219639821e-14,4.423841689e-14,5.806286371e-14,4.285077105e-14,3.532114567e-14,2.957972431e-14,8.617008888e-14,5.936484304e-14,2.150758156e-15,1.769738774e-14,4.629813231e-13,3.647976011e-13,3.256362994e-14,2.873695820e-14,1.441462512e-13,7.475331843e-15,3.592834138e-15,1.613192342e-14,2.505497989e-14
0.45312,1.712376581e-14,1.618584709e-14,1.055473761e-13,6.544674084e-14,3.328994517e-14,6.977679189e-14,5.071698624e-14,1.699582434e-14,1.227506012e-14,3.258466531e-15,1.346798834e-14,3.489487465e-15,3.540423325e-15,1.907895708e-14,4.432534917e-14,5.558480570e-14,3.442715625e-14,2.839619686e-14,2.591064833e-14,7.353593379e-14,5.300336688e-14,2.353233202e-15,1.645835406e-14,4.464466284e-13,3.510822733e-13,2.695570643e-14,1.936693814e-14,1.275862960e-13,5.177904457e-15,4.040669797e-15,1.300122498e-14,2.163711232e-14
0.46094,2.269600873e-14,1.433705995e-14,1.278728550e-13,5.677466524e-14,2.557339929e-14,6.304097971e-14,4.782626434e-14,1.151594071e-14,1.192316350e-14,3.445349869e-15,1.200100190e-14,3.503334933e-15,2.568407972e-15,1.657051231e-14,4.431042522e-14,5.246122389e-14,2.656949219e-14,2.217939599e-14,2.139370180e-14,5.986316659e-14,4.507895741e-14,2.553948058e-15,1.621536113e-14,4.041977585e-13,3.273595253e-13,2.227895155e-14,1.301218497e-14,1.114601271e-13,4.131752480e-15,4.649200531e-15,1.086924751e-14,1.877439100e-14
0.46875,2.870354663e-14,1.273979940e-14,1.493253670e-13,4.959429737e-14,1.968182442e-14,5.598686178e-14,4.198305244e-14,7.924909365e-15,1.156999494e-14,3.505315945e-15,1.134505418e-14,3.304975905e-15,1.935007159e-15,1.463719297e-14,4.412121880e-14,5.004559733e-14,2.036535053e-14,1.712480961e-14,1.687557532e-14,4.789946623e-14,3.652576724e-14,2.721702695e-15,1.714838160e-14,3.508693555e-13,2.966494364e-13,1.974910316e-14,1.024705253e-14,9.801749030e-14,3.892986397e-15,5.335699984e-15,9.802526066e-15,1.714642567e-14
0.47656,3.422641480e-14,1.074203448e-14,1.671601273e-13,4.307469585e-14,1.552232411e-14,4.888149749e-14,3.406993835e-14,5.895651371e-15,1.104878615e-14,3.491921705e-15,1.155195488e-14,3.068174371e-15,1.314214270e-15,1.263583404e-14,4.266923756e-14,4.730398669e-14,1.592778976e-14,1.321247352e-14,1.239830932e-14,3.842736986e-14,2.796453939e-14,2.787662864e-15,1.999891719e-14,2.922027566e-13,2.632550887e-13,1.883881821e-14,9.597118203e-15,8.888229821e-14,4.277532111e-15,6.183952963e-15,9.731761638e-15,1.667123125e-14
0.48438,3.773421653e-14,9.351604053e-15,1.810332776e-13,3.939897992e-14,1.285901148e-14,4.269685851e-14,2.615733195e-14,4.796299188e-15,1.020373737e-14,3.374630718e-15,1.268986467e-14,2.916854733e-15,9.740197326e-16,1.095939511e-14,3.993417058e-14,4.414127168e-14,1.313370765e-14,1.051014584e-14,8.754588133e-15,3.234828660e-14,2.074869583e-14,2.764346506e-15,2.426389745e-14,2.338336479e-13,2.353969317e-13,1.871004595e-14,1.093824435e-14,8.420033352e-14,5.368613431e-15,7.127643817e-15,1.090636117e-14,1.688639150e-14
0.49219,3.893637651e-14,8.764380416e-15,1.925838145e-13,3.747394894e-14,1.112672910e-14,3.708039610e-14,1.872410887e-14,4.257957664e-15,9.207352464e-15,3.248037593e-15,1.525416325e-14,2.994104894e-15,9.942942466e-16,1.026737664e-14,3.697549887e-14,4.246459825e-14,1.277284371e-14,8.898691813e-15,5.879877266e-15,2.962289001e-14,1.558193442e-14,2.637020238e-15,2.935260709e-14,1.817697729e-13,2.167158631e-13,1.913844649e-14,1.508516344e-14,8.329751366e-14,6.414894020e-15,8.272158044e-15,1.232696798e-14,1.770308932e-14
0.5,3.790323842e-14,9.377343434e-15,2.018729936e-13,3.650189402e-14,1.082519374e-14,3.237685150e-14,1.233688462e-14,4.106321951e-15,8.088644442e-15,3.098740711e-15,1.941608457e-14,3.248146130e-15,1.232572618e-15,1.028678112e-14,3.412046700e-14,4.232521999e-14,1.496651283e-14,8.496164802e-15,4.008293755e-15,3.058150796e-14,1.284440949e-14,2.417572865e-15,3.416420270e-14,1.407180778e-13,2.074416225e-13,2.037619485e-14,2.133595896e-14,8.501249878e-14,7.637651034e-15,9.547374314e-15,1.434446668e-14,1.895043982e-14
0.50781,3.481402571e-14,1.067800525e-14,2.058996090e-13,3.532092593e-14,1.126720105e-14,2.772623961e-14,7.713039736e-15,4.444325254e-15,6.967039125e-15,2.862166626e-15,2.485727541e-14,3.522301275e-15,1.560028577e-15,1.035312222e-14,3.074742100e-14,4.266651316e-14,1.972828261e-14,9.036131121e-15,2.817142203e-15,3.368485491e-14,1.159707191e-14,2.341482699e-15,3.791127220e-14,1.117498484e-13,2.051133758e-13,2.176675787e-14,2.879169809e-14,8.669381566e-14,8.736230442e-15,1.086170775e-14,1.642255389e-14,1.997815375e-14
0.51562,2.982266008e-14,1.224300712e-14,2.039610844e-13,3.445714044e-14,1.200724795e-14,2.418552840e-14,4.853673193e-15,5.211649863e-15,5.984531022e-15,2.591994485e-15,3.130215763e-14,3.763302940e-15,1.979752782e-15,1.042508282e-14,2.695254732e-14,4.256841993e-14,2.600209414e-14,9.775544670e-15,2.076244161e-15,3.857787168e-14,1.119304069e-14,2.564475026e-15,3.889933218e-14,9.508513445e-14,2.065217945e-13,2.280358198e-14,3.607698372e-14,8.858877149e-14,9.537161789e-15,1.191506254e-14,1.792334464e-14,2.024408830e-14
0.52344,2.349285192e-14,1.283269538e-14,2.000232519e-13,3.227943062e-14,1.290986893e-14,2.189477170e-14,3.751873106e-15,6.676300675e-15,5.040333981e-15,2.402272697e-15,3.928181464e-14,4.081949172e-15,2.517986692e-15,1.092376456e-14,2.390727154e-14,4.242928394e-14,3.301781200e-14,1.045378395e-14,1.576463749e-15,4.402287910e-14,1.091038637e-14,3.160345108e-15,3.737448170e-14,8.683205104e-14,2.074491921e-13,2.266160813e-14,4.198110135e-14,9.056905013e-14,9.313819270e-15,1.301953854e-14,1.808374807e-14,1.971463223e-14
0.53125,1.750503697e-14,1.273608985e-14,1.950050300e-13,2.866712645e-14,1.389090015e-14,2.042961640e-14,4.443800057e-15,8.597423824e-15,4.144033575e-15,2.303146914e-15,4.782606025e-14,4.603716668e-15,3.162359090e-15,1.171486298e-14,2.183039171e-14,4.260528366e-14,4.118502891e-14,1.147040720e-14,1.200601212e-15,4.834009976e-14,1.027650045e-14,4.407868949e-15,3.449453584e-14,8.318059885e-14,2.046313691e-13,2.145997463e-14,4.627641417e-14,8.910074386e-14,8.681921630e-15,1.484073301e-14,1.728646003e-14,1.804871900e-14
0.53906,1.237830313e-14,1.226345321e-14,1.843129031e-13,2.507319399e-14,1.484534764e-14,1.954193222e-14,6.696541906e-15,1.100994134e-14,3.451542390e-15,2.195880478e-15,5.475073460e-14,4.943482684e-15,3.731059958e-15,1.225830542e-14,2.007332372e-14,4.213281664e-14,4.908037588e-14,1.219706915e-14,9.976236312e-16,5.166774141e-14,9.411808766e-15,6.230980787e-15,3.030672097e-14,8.318820486e-14,1.960447412e-13,1.966299982e-14,4.816526033e-14,8.403795098e-14,7.667576155e-15,1.690099581e-14,1.561064277e-14,1.567196078e-14
0.54688,8.319181259e-15,1.070937881e-14,1.728594853e-13,2.166533217e-14,1.569968801e-14,1.948403430e-14,1.045013432e-14,1.351189747e-14,2.965237092e-15,2.183425661e-15,5.987887158e-14,5.264481165e-15,4.255697157e-15,1.295551563e-14,1.925472431e-14,4.038094374e-14,5.509811129e-14,1.215957317e-14,9.090411185e-16,5.281352485e-14,8.342058859e-15,8.662879172e-15,2.592573266e-14,8.386428813e-14,1.800757142e-13,1.715367617e-14,4.721470947e-14,7.666403090e-14,6.296076959e-15,1.961795343e-14,1.313475341e-14,1.302326930e-14
0.55469,5.643928871e-15,8.583523598e-15,1.649894671e-13,1.876059303e-14,1.625376820e-14,1.994597637e-14,1.532894893e-14,1.566234086e-14,2.734902405e-15,2.250237170e-15,6.225753311e-14,5.647652249e-15,4.815112133e-15,1.390314977e-14,1.952852924e-14,3.917476899e-14,6.053633128e-14,1.178957896e-14,9.210863638e-16,5.183501332e-14,7.509177001e-15,1.148048494e-14,2.293826249e-14,8.387357699e-14,1.645119728e-13,1.431882970e-14,4.437952670e-14,6.731354798e-14,5.093418216e-15,2.315989095e-14,1.071100243e-14,1.048514833e-14
0.5625,4.562005278e-15,6.680070791e-15,1.616813103e-13,1.658136208e-14,1.597342838e-14,2.048572500e-14,2.089978607e-14,1.741323536e-14,2.662988489e-15,2.281686326e-15,6.103535078e-14,5.967882404e-15,5.258456109e-15,1.490581331e-14,2.053865187e-14,3.868857836e-14,6.407840150e-14,1.105803806e-14,1.015823187e-15,4.875684005e-14,7.419876509e-15,1.416303603e-14,2.163001096e-14,8.154920297e-14,1.525342128e-13,1.112139288e-14,4.073766248e-14,5.633026488e-14,4.077092343e-15,2.724925675e-14,8.102267534e-15,7.920467076e-15
0.57031,5.147623355e-15,5.194144427e-15,1.632267457e-13,1.581227670e-14,1.564082113e-14,2.089461408e-14,2.619627022e-14,1.863445954e-14,2.794854695e-15,2.216358611e-15,5.596386600e-14,6.065591763e-15,5.545275330e-15,1.546571684e-14,2.158949154e-14,3.901495478e-14,6.607211563e-14,1.008079940e-14,1.146334993e-15,4.476181938e-14,8.388063989e-15,1.631929159e-14,2.178222076e-14,7.882792396e-14,1.492290417e-13,8.316579724e-15,3.784328902e-14,4.737429236e-14,3.422035381e-15,3.115286751e-14,5.950009876e-15,5.975970300e-15
0.57812,7.847786377e-15,3.938014696e-15,1.724184770e-13,1.613406234e-14,1.451556139e-14,2.142641514e-14,3.055554132e-14,1.910430450e-14,3.106578782e-15,2.131028854e-15,4.847927778e-14,5.891000518e-15,5.520866215e-15,1.548117758e-14,2.251455610e-14,4.057792324e-14,6.751786387e-14,9.291594857e-15,1.373425987e-15,4.059817675e-14,1.048420479e-14,1.736543248e-14,2.269998516e-14,7.563469771e-14,1.564316369e-13,5.944488034e-15,3.538498537e-14,4.154304143e-14,3.287287251e-15,3.493835607e-14,4.398865336e-15,4.564817477e-15
0.58594,1.311717092e-14,3.266299187e-15,1.886327669e-13,1.685879589e-14,1.276258910e-14,2.215813406e-14,3.382390263e-14,1.899032164e-14,3.631457555e-15,2.056408860e-15,3.927155131e-14,5.483407480e-15,5.346282365e-15,1.505377674e-14,2.275578064e-14,4.324062679e-14,6.853442722e-14,9.424188864e-15,1.786181269e-15,3.700974709e-14,1.403048349e-14,1.722891831e-14,2.453225438e-14,7.403426913e-14,1.743958566e-13,4.088513877e-15,3.357830625e-14,3.965513705e-14,3.757021458e-15,3.814453596e-14,3.374382357e-15,3.754370470e-15
0.59375,2.055084459e-14,2.990368670e-15,2.068478912e-13,1.759694894e-14,1.101958360e-14,2.351094864e-14,3.470171761e-14,1.858064685e-14,4.288585836e-15,2.019237507e-15,2.957892901e-14,4.774512047e-15,4.843328545e-15,1.393266276e-14,2.192320018e-14,4.639756233e-14,6.786556053e-14,1.036881695e-14,2.422432708e-15,3.481172761e-14,1.892036775e-14,1.585678269e-14,2.606486643e-14,7.470442006e-14,1.955141740e-13,2.827786564e-15,3.185892169e-14,4.182031697e-14,4.930431777e-15,4.055163448e-14,3.015812528e-15,3.667090715e-15
0.60156,3.021105588e-14,2.861842347e-15,2.233067057e-13,1.759797985e-14,9.203483263e-15,2.560844113e-14,3.327598745e-14,1.806748450e-14,5.153428281e-15,2.117431519e-15,2.063291066e-14,3.782685889e-15,4.031472912e-15,1.243368132e-14,2.017994445e-14,5.007499635e-14,6.696057124e-14,1.253819307e-14,3.383619137e-15,3.391093726e-14,2.527499705e-14,1.349280699e-14,2.770742748e-14,8.082389411e-14,2.142860594e-13,2.018495877e-15,3.006522266e-14,4.801733572e-14,6.803858194e-15,4.218989629e-14,3.146460635e-15,4.265874710e-15
0.60938,4.103227705e-14,2.975733828e-15,2.367927510e-13,1.676351353e-14,7.404723379e-15,2.871854741e-14,3.059326558e-14,1.756994605e-14,6.261672923e-15,2.361138330e-15,1.335073803e-14,2.759996949e-15,3.240404019e-15,1.133696430e-14,1.768304488e-14,5.356772387e-14,6.591029697e-14,1.574835124e-14,4.675293052e-15,3.376586873e-14,3.369735828e-14,1.055639354e-14,2.963698496e-14,9.372972842e-14,2.262936900e-13,1.655048012e-15,2.705643814e-14,5.599645904e-14,9.284629988e-15,4.369179417e-14,3.637537098e-15,5.608174307e-15
0.61719,4.950778326e-14,3.290438602e-15,2.430505866e-13,1.486166175e-14,6.049140931e-15,3.254303181e-14,2.674870432e-14,1.717762652e-14,7.493606410e-15,2.793265463e-15,8.005209854e-15,1.871440725e-15,2.649095408e-15,1.095312551e-14,1.461404888e-14,5.629160417e-14,6.391626847e-14,1.893797829e-14,6.143156374e-15,3.365895539e-14,4.300508635e-14,7.762424477e-15,3.113729644e-14,1.158590535e-13,2.260515474e-13,1.502420626e-15,2.298647571e-14,6.484605912e-14,1.218208429e-14,4.526297130e-14,4.322186753e-15,7.506488751e-15
0.625,5.416311058e-14,3.521219372e-15,2.384527440e-13,1.229077622e-14,5.226621832e-15,3.694750971e-14,2.244497805e-14,1.690275405e-14,8.932408643e-15,3.382793401e-15,4.379796739e-15,1.186979168e-15,2.140203194e-15,1.122645199e-14,1.170045083e-14,5.843287684e-14,6.135960918e-14,2.156399753e-14,7.360881781e-15,3.281368053e-14,5.239125065e-14,5.393382637e-15,3.177083569e-14,1.458117279e-13,2.125565393e-13,1.568506668e-15,1.927354579e-14,7.364937893e-14,1.531338615e-14,4.682864041e-14,5.080889594e-15,9.949226706e-15
0.63281,5.542331602e-14,3.569244862e-15,2.219043426e-13,9.569277954e-15,4.723848549e-15,4.178790924e-14,1.866536101e-14,1.666765441e-14,1.068423566e-14,3.986206919e-15,2.282777614e-15,6.515117927e-16,1.916058217e-15,1.191220628e-14,9.020364371e-15,5.880378035e-14,5.851368854e-14,2.288577423e-14,8.151453372e-15,3.054437328e-14,6.058242482e-14,3.461105633e-15,3.198898642e-14,1.844296137e-13,1.884623092e-13,1.646385278e-15,1.561946721e-14,8.086745518e-14,1.800737998e-14,4.766939260e-14,5.562124085e-15,1.308805256e-14
0.64062,5.306070638e-14,3.614039504e-15,1.996329346e-13,7.175210077e-15,4.550623495e-15,4.632396659e-14,1.602209411e-14,1.659626505e-14,1.247288045e-14,4.596215370e-15,1.376173374e-15,3.526091697e-16,2.211952578e-15,1.302965827e-14,6.921084113e-15,5.776061376e-14,5.477241876e-14,2.276391673e-14,8.578441430e-15,2.739591388e-14,6.687364648e-14,2.180165073e-15,3.197013832e-14,2.296833253e-13,1.624595955e-13,1.786238268e-15,1.272587131e-14,8.630300063e-14,2.018106139e-14,4.807982988e-14,5.821388191e-15,1.648877986e-14
0.64844,4.673828798e-14,3.345906397e-15,1.721698847e-13,5.393285959e-15,4.433148889e-15,5.072223314e-14,1.514801075e-14,1.680261160e-14,1.408446432e-14,5.093088617e-15,1.257142670e-15,2.246093752e-16,2.782493647e-15,1.365675783e-14,5.430282574e-15,5.549445766e-14,4.994679053e-14,2.069472917e-14,8.380745083e-15,2.389543605e-14,6.942848117e-14,1.431613718e-15,3.138774880e-14,2.772468670e-13,1.389299263e-13,2.115539365e-15,1.143785315e-14,8.832694847e-14,2.109506620e-14,4.717299012e-14,5.668342263e-15,2.006490273e-14
0.65625,4.111826594e-14,2.810027264e-15,1.400764759e-13,4.652506418e-15,4.048835413e-15,5.465039795e-14,1.607745401e-14,1.719061331e-14,1.594471660e-14,5.425096808e-15,1.782225109e-15,2.078067691e-16,3.791498008e-15,1.316018152e-14,4.503318419e-15,5.234179840e-14,4.465160842e-14,1.763540680e-14,7.536568700e-15,2.115092270e-14,6.771412416e-14,1.065254211e-15,3.083377534e-14,3.198794076e-13,1.221098637e-13,2.851220295e-15,1.142376058e-14,8.785090256e-14,2.066844788e-14,4.410272487e-14,4.945157977e-15,2.385804790e-14
0.66406,3.849250762e-14,2.476906729e-15,1.084672674e-13,5.113069130e-15,3.464864296e-15,5.758261233e-14,1.880435103e-14,1.786755162e-14,1.771215359e-14,5.564129178e-15,2.695223171e-15,2.960231948e-16,5.298631125e-15,1.199698379e-14,3.807749712e-15,4.768412468e-14,3.858965877e-14,1.537745570e-14,6.495329014e-15,2.040985760e-14,6.190249905e-14,9.533210543e-16,3.135369964e-14,3.593226793e-13,1.167727905e-13,4.184820458e-15,1.279126837e-14,8.385511424e-14,1.948613289e-14,3.927025077e-14,3.886242362e-15,2.709945020e-14
0.67188,3.924685686e-14,2.699886075e-15,8.286445737e-14,6.550686088e-15,2.902204908e-15,5.861504502e-14,2.318525645e-14,1.885808847e-14,1.873595412e-14,5.514488011e-15,3.867976182e-15,4.690880249e-16,6.698284436e-15,1.040661276e-14,3.324797574e-15,4.298811958e-14,3.344183349e-14,1.464829014e-14,5.678368809e-15,2.286130507e-14,5.390030037e-14,9.830520795e-16,3.304324518e-14,3.911853202e-13,1.232737998e-13,6.417335485e-15,1.552327708e-14,7.595686280e-14,1.780401560e-14,3.357516631e-14,2.954840959e-15,2.933219042e-14
0.67969,4.270588394e-14,3.185650322e-15,6.109764810e-14,8.628063903e-15,2.276537092e-15,5.868380845e-14,2.862618192e-14,1.974776120e-14,1.891612704e-14,5.287914952e-15,5.358982813e-15,6.640775427e-16,7.919461952e-15,8.102086711e-15,3.051556498e-15,3.874072561e-14,2.974909323e-14,1.537751974e-14,5.021839414e-15,2.819953263e-14,4.471412854e-14,1.053100701e-15,3.640373615e-14,4.107663034e-13,1.378953559e-13,9.500647222e-15,1.834471371e-14,6.574740078e-14,1.532851713e-14,2.709452018e-14,1.987618428e-15,3.019975049e-14
0.6875,4.870084517e-14,4.253116687e-15,4.274962684e-14,1.129643799e-14,1.644561972e-15,5.829669466e-14,3.400048565e-14,2.067260392e-14,1.862011982e-14,5.064398150e-15,6.842523673e-15,9.637035831e-16,9.355703658e-15,5.870180314e-15,2.781080021e-15,3.485549032e-14,2.749376973e-14,1.802178474e-14,4.534593477e-15,3.567897991e-14,3.551746642e-14,1.167984085e-15,4.097266750e-14,4.153539529e-13,1.577039381e-13,1.301018847e-14,2.127850049e-14,5.494143069e-14,1.297192149e-14,2.034770651e-14,1.215095866e-15,2.979701394e-14
0.69531,5.354979538e-14,5.835596647e-15,2.961275519e-14,1.398895811e-14,1.063083080e-15,5.622085713e-14,3.853972741e-14,2.132550340e-14,1.758219666e-14,4.813214938e-15,7.709683555e-15,1.261579726e-15,1.012712721e-14,4.293320363e-15,2.314829844e-15,3.082379856e-14,2.683217067e-14,2.144385474e-14,4.077620162e-15,4.400833869e-14,2.769391057e-14,1.388587646e-15,4.644841104e-14,4.102905011e-13,1.729410972e-13,1.658182625e-14,2.392833825e-14,4.355224981e-14,1.124846318e-14,1.475410542e-14,7.557405966e-16,2.794981532e-14
0.70312,5.478682880e-14,6.892126321e-15,2.164465242e-14,1.573583076e-14,6.418506284e-16,5.332283590e-14,4.140963090e-14,2.195464192e-14,1.565984441e-14,4.534151087e-15,8.420961924e-15,1.468363537e-15,9.805785915e-15,3.177355019e-15,1.736944361e-15,2.634310169e-14,2.656031308e-14,2.338890575e-14,3.578385754e-15,5.096157828e-14,2.189253361e-14,1.573658462e-15,5.205326897e-14,3.936849207e-13,1.802551025e-13,1.940879498e-14,2.519354326e-14,3.245027562e-14,9.808385022e-15,1.050945013e-14,4.745352520e-16,2.484242904e-14
0.71094,5.284265697e-14,7.383625971e-15,1.725037412e-14,1.661740660e-14,3.966604275e-16,5.059804498e-14,4.218616235e-14,2.219936111e-14,1.318304501e-14,4.343694193e-15,8.761615158e-15,1.647757582e-15,8.990509836e-15,2.450212824e-15,1.236889662e-15,2.170342550e-14,2.579304431e-14,2.386196107e-14,3.097345469e-15,5.619329230e-14,1.799032139e-14,1.768780330e-15,5.659235412e-14,3.655901979e-13,1.790190902e-13,2.113636838e-14,2.464481218e-14,2.314223643e-14,8.681813464e-15,7.734341476e-15,3.340088750e-16,2.082456201e-14
0.71875,4.805478029e-14,7.556547034e-15,1.512036985e-14,1.665028964e-14,4.081459867e-16,4.852596915e-14,4.029770072e-14,2.227607965e-14,1.055477647e-14,4.157143493e-15,8.630363056e-15,1.888965406e-15,7.921851606e-15,2.065707248e-15,8.311226379e-16,1.751520438e-14,2.450926925e-14,2.270880344e-14,2.598516288e-15,5.958666227e-14,1.562593635e-14,1.941524466e-15,5.992916491e-14,3.280547180e-13,1.674944927e-13,2.154858075e-14,2.288619308e-14,1.608656519e-14,8.014646496e-15,6.151473128e-15,2.862586826e-16,1.657313470e-14
0.72656,4.179700313e-14,7.310561476e-15,1.500058130e-14,1.630747990e-14,6.319115823e-16,4.646040684e-14,3.596530079e-14,2.217232692e-14,8.206558029e-15,4.108872030e-15,8.114933513e-15,2.179487503e-15,6.451920896e-15,2.081633522e-15,4.495845485e-16,1.372747865e-14,2.207596937e-14,1.944394647e-14,2.002030279e-15,5.969890656e-14,1.428127848e-14,2.114427340e-15,6.096419764e-14,2.846439007e-13,1.463421311e-13,2.041791769e-14,2.042704560e-14,1.117423046e-14,7.900643046e-15,5.573203787e-15,2.535815161e-16,1.250749112e-14
0.73438,3.502366733e-14,6.122739709e-15,1.696811438e-14,1.534982807e-14,1.185756845e-15,4.495554639e-14,2.993462475e-14,2.202236410e-14,6.053305788e-15,4.027489860e-15,7.941664396e-15,2.444094823e-15,4.836392883e-15,2.279417289e-15,2.625850515e-16,1.104482739e-14,1.825455639e-14,1.429876589e-14,1.451535385e-15,5.732730865e-14,1.312986053e-14,2.251393305e-15,6.079403377e-14,2.388658981e-13,1.202418527e-13,1.826028196e-14,1.724610648e-14,7.849627459e-15,7.760274946e-15,5.568501412e-15,2.374512239e-16,8.954101149e-15
0.74219,3.029372643e-14,5.025457029e-15,2.085069522e-14,1.573856903e-14,2.074580183e-15,4.447998483e-14,2.346373594e-14,2.162399675e-14,4.579043766e-15,3.961655085e-15,8.144734915e-15,2.676879359e-15,3.786299358e-15,3.035595399e-15,4.216987780e-16,1.073684005e-14,1.507048733e-14,9.545977681e-15,1.090015614e-15,5.430622468e-14,1.194002719e-14,2.292110894e-15,5.911374859e-14,1.917712338e-13,9.550345532e-14,1.574436979e-14,1.397154339e-14,6.338504539e-15,7.667911713e-15,5.881596516e-15,3.080810577e-16,6.214804768e-15
0.75,2.766832055e-14,4.948749694e-15,2.461629034e-14,1.779362677e-14,3.167541199e-15,4.445147372e-14,1.748088072e-14,2.110837557e-14,3.709920565e-15,3.996726396e-15,8.544310501e-15,2.797982437e-15,3.202484294e-15,4.404011705e-15,1.006067213e-15,1.337455824e-14,1.386551306e-14,5.920158879e-15,8.657651310e-16,5.004767382e-14,1.061180365e-14,2.343374555e-15,5.502605522e-14,1.493468808e-13,7.325015344e-14,1.322701401e-14,1.180822094e-14,6.199330797e-15,7.995977598e-15,6.568487853e-15,5.668040835e-16,4.432411337e-15
0.75781,2.682151905e-14,5.862152604e-15,2.845195236e-14,2.128015014e-14,4.483710537e-15,4.347865914e-14,1.238098980e-14,2.053412466e-14,3.275229157e-15,4.104268690e-15,9.351277576e-15,2.963037876e-15,3.267680264e-15,6.220148677e-15,2.154698959e-15,1.864749500e-14,1.503501202e-14,3.831805657e-15,8.010690461e-16,4.547513784e-14,9.069876615e-15,2.381802021e-15,5.075290042e-14,1.143310473e-13,5.667538742e-14,1.141910872e-14,1.135277847e-14,7.321554467e-15,8.587732816e-15,7.615153934e-15,1.183637699e-15,3.459729621e-15
0.76562,2.704502520e-14,7.985600281e-15,3.347965266e-14,2.664021436e-14,6.061035091e-15,4.215382346e-14,8.404440955e-15,1.961189611e-14,3.287272616e-15,4.182576023e-15,1.004906297e-14,3.155025827e-15,4.374239394e-15,8.771388679e-15,4.083462383e-15,2.624442177e-14,1.890902913e-14,3.926333843e-15,8.919593863e-16,4.023378245e-14,7.305011881e-15,2.270132759e-15,4.587074976e-14,8.627424189e-14,4.618449121e-14,1.052254678e-14,1.271156884e-14,9.299693051e-15,8.987691937e-15,9.136385310e-15,2.404362137e-15,3.229624870e-15
0.77344,2.663379042e-14,1.175752257e-14,3.893308492e-14,3.300305975e-14,7.875698699e-15,4.009701832e-14,5.684224065e-15,1.860353811e-14,3.399701938e-15,4.319357536e-15,1.051487584e-14,3.633468397e-15,6.760116632e-15,1.210109603e-14,6.870969616e-15,3.529400197e-14,2.508990559e-14,6.395819496e-15,1.174928823e-15,3.408459585e-14,5.640710273e-15,2.198964780e-15,3.945926485e-14,6.630087207e-14,4.095548503e-14,1.020959509e-14,1.565308635e-14,1.236482039e-14,9.220482702e-15,1.147128733e-14,4.562157235e-15,3.546356259e-15
0.78125,2.609067168e-14,1.723830253e-14,4.397436349e-14,3.951733688e-14,9.989447532e-15,3.709651514e-14,4.143000068e-15,1.782456470e-14,3.615050062e-15,4.625885724e-15,1.060504104e-14,4.811030651e-15,1.068769282e-14,1.580828827e-14,1.052572127e-14,4.511283910e-14,3.314275652e-14,1.146763676e-14,1.821471393e-15,2.765747806e-14,4.159701944e-15,2.301036594e-15,3.240327938e-14,5.567983810e-14,3.829065372e-14,1.068132413e-14,1.932959947e-14,1.695435919e-14,9.431675781e-15,1.481329318e-14,7.762071138e-15,4.296485877e-15
0.78906,2.668296256e-14,2.329291925e-14,4.944479991e-14,4.542451601e-14,1.223408233e-14,3.266041994e-14,3.784558662e-15,1.728002318e-14,4.223631175e-15,5.256797169e-15,1.092619797e-14,7.091375069e-15,1.624694653e-14,1.948798171e-14,1.451466482e-14,5.397856681e-14,4.085007120e-14,1.873045281e-14,2.842998777e-15,2.178027921e-14,3.157635929e-15,2.616595099e-15,2.496779608e-14,5.167064379e-14,3.830842549e-14,1.190605696e-14,2.331513071e-14,2.293744378e-14,9.602922362e-15,1.905300696e-14,1.206446874e-14,5.457070976e-15
0.79688,2.748278675e-14,2.864145489e-14,5.657015799e-14,4.876868254e-14,1.397707030e-14,2.738912799e-14,4.539920154e-15,1.701503442e-14,5.306074012e-15,6.137844519e-15,1.159848145e-14,1.068592586e-14,2.324628253e-14,2.286438443e-14,1.845238713e-14,6.070868671e-14,4.703038948e-14,2.775969838e-14,4.276706245e-15,1.605446969e-14,2.625300219e-15,3.149823241e-15,1.816203906e-14,5.207366364e-14,3.947158303e-14,1.361804542e-14,2.791633820e-14,3.020180946e-14,9.759364926e-15,2.373324588e-14,1.718968083e-14,6.872044690e-15
0.80469,2.845691276e-14,3.286690407e-14,6.580948506e-14,4.878826710e-14,1.478298897e-14,2.174944958e-14,6.057599291e-15,1.709727186e-14,6.997793481e-15,7.352940798e-15,1.298650198e-14,1.548523752e-14,3.105631636e-14,2.558961513e-14,2.172316893e-14,6.478770109e-14,5.132099076e-14,3.802333199e-14,5.812986148e-15,1.112022339e-14,2.525264312e-15,3.866920043e-15,1.235751929e-14,5.729231637e-14,4.023669482e-14,1.506347127e-14,3.187596526e-14,3.965816938e-14,9.928660170e-15,2.887496743e-14,2.194167884e-14,7.971933067e-15
0.8125,3.151592847e-14,3.577239511e-14,7.589632928e-14,4.607519522e-14,1.514739180e-14,1.656127799e-14,8.437442934e-15,1.794576674e-14,9.723936223e-15,9.104179285e-15,1.574597901e-14,2.146630867e-14,3.928930198e-14,2.760156541e-14,2.410396092e-14,6.667178356e-14,5.336876949e-14,4.864040234e-14,7.428355006e-15,7.499696056e-15,2.786402109e-15,4.709239925e-15,8.207222735e-15,6.463808981e-14,4.061453839e-14,1.653132164e-14,3.411181994e-14,5.158958759e-14,1.040656938e-14,3.431282455e-14,2.626033002e-14,8.983565830e-15
0.82031,3.693920362e-14,3.598681804e-14,8.563745338e-14,4.075394553e-14,1.485179182e-14,1.227599402e-14,1.138615618e-14,1.954852064e-14,1.335937661e-14,1.124012832e-14,1.946130556e-14,2.770076631e-14,4.682023085e-14,2.837752138e-14,2.500651381e-14,6.557708120e-14,5.229198894e-14,5.767664152e-14,8.742913814e-15,4.817370684e-15,3.205625782e-15,5.439411225e-15,5.958606365e-15,7.352859931e-14,4.183751733e-14,1.781818718e-14,3.574348589e-14,6.494555184e-14,1.139204903e-14,3.921715157e-14,2.944760129e-14,9.877091919e-15
0.82812,4.202564627e-14,3.337318192e-14,9.353500762e-14,3.385693619e-14,1.356236904e-14,9.458390652e-15,1.365122849e-14,2.156469076e-14,1.757478373e-14,1.340878776e-14,2.341246761e-14,3.353799035e-14,5.250240379e-14,2.805449635e-14,2.448127944e-14,6.189632520e-14,4.884153723e-14,6.356970658e-14,9.429933036e-15,3.275408920e-15,3.892028670e-15,5.957817764e-15,5.439566556e-15,8.204302812e-14,4.184359316e-14,1.890191733e-14,3.795956106e-14,7.813670694e-14,1.276809684e-14,4.292351150e-14,3.051289750e-14,1.039701513e-14
0.83594,4.705361631e-14,2.897772444e-14,9.894436960e-14,2.628729786e-14,1.162544510e-14,8.220440551e-15,1.553351569e-14,2.395036848e-14,2.207870654e-14,1.519971047e-14,2.672778278e-14,3.823526530e-14,5.569327315e-14,2.674338785e-14,2.274000855e-14,5.620594797e-14,4.405343763e-14,6.646094243e-14,9.331404805e-15,2.443748686e-15,5.204928687e-15,6.161177743e-15,6.818016940e-15,9.193007525e-14,4.100126185e-14,1.961605978e-14,4.010968192e-14,9.093343134e-14,1.465510316e-14,4.526662381e-14,2.969988580e-14,1.054893399e-14
0.84375,5.246481684e-14,2.382555178e-14,1.005263490e-13,1.923863980e-14,9.589808305e-15,8.786349765e-15,1.668316519e-14,2.613361552e-14,2.575192374e-14,1.658279519e-14,2.924501900e-14,4.083885362e-14,5.600273627e-14,2.485289795e-14,2.065631896e-14,5.010884685e-14,3.913058233e-14,6.641297801e-14,8.611904621e-15,2.056321672e-15,7.294499763e-15,5.908618760e-15,1.031651309e-14,1.018542603e-13,3.912256903e-14,2.026457217e-14,4.256954343e-14,1.022739332e-13,1.688329949e-14,4.585353601e-14,2.718826548e-14,1.055300259e-14
0.85156,5.661391576e-14,1.882150537e-14,9.717932392e-14,1.363669280e-14,7.756280181e-15,1.093230872e-14,1.680805392e-14,2.743708294e-14,2.803957228e-14,1.708678220e-14,2.989607663e-14,4.120228195e-14,5.344273066e-14,2.273688959e-14,1.888776727e-14,4.408338546e-14,3.463993662e-14,6.330823336e-14,7.361893459e-15,1.931058225e-15,1.074566986e-14,5.267986842e-15,1.626961959e-14,1.132401066e-13,3.638520799e-14,2.107705440e-14,4.801845292e-14,1.103639145e-13,1.888207357e-14,4.472997096e-14,2.316667765e-14,1.013832174e-14
0.85938,5.783585106e-14,1.420920235e-14,8.875053471e-14,9.735495452e-15,6.310910110e-15,1.473456989e-14,1.607281241e-14,2.776726883e-14,2.854512813e-14,1.659073578e-14,2.832329526e-14,3.924126022e-14,4.833741203e-14,2.023336036e-14,1.759678223e-14,3.800196267e-14,3.097501026e-14,5.765893618e-14,5.823984256e-15,1.893150317e-15,1.564662398e-14,4.442534607e-15,2.475039954e-14,1.251029748e-13,3.328767948e-14,2.229863180e-14,5.684258472e-14,1.129123108e-13,2.042722788e-14,4.181606342e-14,1.848439366e-14,9.556762976e-15
0.86719,5.676318629e-14,1.044854745e-14,7.722180652e-14,7.584518916e-15,5.570306909e-15,2.064664331e-14,1.540641994e-14,2.657441027e-14,2.702609121e-14,1.534565000e-14,2.526503529e-14,3.515152779e-14,4.121000805e-14,1.748924766e-14,1.707636700e-14,3.225547473e-14,2.876769664e-14,5.188931954e-14,4.312867067e-15,2.208548279e-15,2.214351780e-14,3.507864063e-15,3.630885710e-14,1.396262030e-13,3.098459921e-14,2.375411371e-14,6.763394591e-14,1.106692703e-13,2.141916599e-14,3.733234050e-14,1.376353106e-14,8.902049910e-15
0.875,5.411840684e-14,8.394776488e-15,6.559345187e-14,7.334299825e-15,6.045885042e-15,2.916147692e-14,1.558937029e-14,2.401144074e-14,2.398483381e-14,1.372724240e-14,2.159387806e-14,2.973062110e-14,3.338648720e-14,1.538938447e-14,1.823482768e-14,2.804708898e-14,2.894907396e-14,4.708702418e-14,3.267435782e-15,2.976440427e-15,2.967187331e-14,2.535864536e-15,5.119978720e-14,1.575218254e-13,3.207358365e-14,2.560368669e-14,8.210229303e-14,1.060296190e-13,2.151758447e-14,3.197898082e-14,9.564596712e-15,8.224767806e-15
0.88281,5.005233275e-14,7.579890537e-15,5.543251286e-14,9.133333202e-15,7.737355369e-15,4.053072819e-14,1.603857111e-14,2.075300232e-14,2.008824862e-14,1.206014320e-14,1.761978076e-14,2.407168734e-14,2.617672841e-14,1.387617838e-14,2.092911854e-14,2.540041118e-14,3.188801576e-14,4.354083175e-14,2.870731129e-15,4.461471832e-15,3.750449692e-14,1.730736034e-15,6.826479440e-14,1.797353410e-13,3.790787619e-14,2.838213989e-14,1.008611680e-13,9.821319480e-14,2.100554552e-14,2.649764689e-14,6.541500364e-15,7.650888419e-15
0.89062,4.420304070e-14,7.771040169e-15,4.777030403e-14,1.351140159e-14,1.110661690e-14,5.439569019e-14,1.764934323e-14,1.749347748e-14,1.600612742e-14,1.045114445e-14,1.379312404e-14,1.827615445e-14,1.951197217e-14,1.243233826e-14,2.432516606e-14,2.312667902e-14,3.676167181e-14,4.078687897e-14,3.091231555e-15,7.078543062e-15,4.581833218e-14,1.102333447e-15,8.618292415e-14,2.044929312e-13,4.968855387e-14,3.079207934e-14,1.182729706e-13,8.809418519e-14,1.967487195e-14,2.112737892e-14,4.464419679e-15,7.363051730e-15
0.89844,3.699250334e-14,9.098605370e-15,4.421131502e-14,2.058230763e-14,1.601496565e-14,7.030504481e-14,2.027118340e-14,1.509085178e-14,1.273508254e-14,9.325306772e-15,1.083993497e-14,1.323489330e-14,1.395879600e-14,1.170074222e-14,2.846858523e-14,2.172091937e-14,4.296738504e-14,3.951103109e-14,4.171139521e-15,1.082019860e-14,5.387707413e-14,6.686679558e-16,1.030624555e-13,2.319723536e-13,6.964875501e-14,3.232684055e-14,1.324737895e-13,7.977665779e-14,1.779536922e-14,1.635536363e-14,3.422427317e-15,7.326775994e-15
0.90625,3.012817319e-14,1.036556504e-14,4.481205801e-14,3.049317929e-14,2.218186003e-14,8.653008730e-14,2.368629258e-14,1.421581526e-14,1.057326942e-14,8.702638620e-15,9.198355020e-15,9.330329660e-15,1.018826840e-14,1.204929790e-14,3.395544811e-14,2.187650273e-14,5.123799010e-14,3.974839226e-14,6.265737893e-15,1.536228889e-14,6.043044873e-14,3.955113554e-16,1.174320133e-13,2.630935776e-13,9.746998539e-14,3.336113971e-14,1.441850188e-13,7.405373539e-14,1.604190329e-14,1.265607636e-14,3.340065685e-15,7.780264753e-15
0.91406,2.521223562e-14,1.203006225e-14,4.799235758e-14,4.369107710e-14,2.986697943e-14,1.008005539e-13,2.798906494e-14,1.511195104e-14,9.420696101e-15,8.367881216e-15,8.589165470e-15,6.365694068e-15,7.674143176e-15,1.339158634e-14,4.022257553e-14,2.332584382e-14,6.041445904e-14,3.961338022e-14,9.253307796e-15,2.090087786e-14,6.620334844e-14,2.758278084e-16,1.270699190e-13,2.943895104e-13,1.316507253e-13,3.288681238e-14,1.486610690e-13,6.957362076e-14,1.445852216e-14,9.841906935e-15,4.366226178e-15,8.841238579e-15
0.92188,2.293392781e-14,1.440905113e-14,5.314154169e-14,5.978751662e-14,3.850200841e-14,1.108467987e-13,3.307278664e-14,1.747903408e-14,8.939530973e-15,8.424305685e-15,9.029012615e-15,4.213588603e-15,6.068033376e-15,1.576164409e-14,4.672516534e-14,2.597981835e-14,6.996603660e-14,3.956644223e-14,1.298352208e-14,2.640089162e-14,7.107260473e-14,3.010770725e-16,1.309036203e-13,3.226159465e-13,1.704321373e-13,3.109137955e-14,1.439240630e-13,6.678708203e-14,1.346169181e-14,7.974504665e-15,6.537206338e-15,1.045592559e-14
0.92969,2.421905087e-14,1.711632703e-14,5.801143366e-14,7.670381450e-14,4.685336523e-14,1.141880735e-13,3.842223868e-14,2.087609321e-14,8.913818318e-15,8.681673073e-15,1.007986186e-14,2.773900952e-15,5.341382080e-15,1.883534813e-14,5.231040237e-14,2.925667420e-14,7.872679490e-14,3.970573394e-14,1.714097711e-14,3.142970519e-14,7.487664159e-14,4.873883478e-16,1.280825453e-13,3.428077666e-13,2.097122010e-13,2.768058391e-14,1.295568872e-13,6.697002991e-14,1.328093995e-14,6.939136398e-15,9.631099282e-15,1.246434842e-14
0.9375,3.017414180e-14,1.967436609e-14,6.186749376e-14,9.290679053e-14,5.387087582e-14,1.111742477e-13,4.418514597e-14,2.479807755e-14,8.943917838e-15,9.074330537e-15,1.138446956e-14,2.001389032e-15,5.416584181e-15,2.256501230e-14,5.759103170e-14,3.334864957e-14,8.626560105e-14,4.027835714e-14,2.135832591e-14,3.557244220e-14,7.719063517e-14,7.844912375e-16,1.200413769e-13,3.529691849e-13,2.454184778e-13,2.318843556e-14,1.104486992e-13,6.697106330e-14,1.411120877e-14,6.579775364e-15,1.338732218e-14,1.466700777e-14
0.94531,4.052269894e-14,2.246602272e-14,6.409978644e-14,1.073087607e-13,5.851317570e-14,1.022676169e-13,4.946763081e-14,2.809638200e-14,8.561996605e-15,9.469240771e-15,1.252788948e-14,1.472669519e-15,6.054140850e-15,2.694141779e-14,6.209574021e-14,3.796633442e-14,9.174497429e-14,4.079813239e-14,2.495194190e-14,3.778412921e-14,7.750437392e-14,1.242778058e-15,1.081716046e-13,3.506631564e-13,2.710902263e-13,1.857575134e-14,8.930397001e-14,6.449691503e-14,1.583220203e-14,6.651535962e-15,1.731318977e-14,1.671529435e-14
0.95312,5.397536897e-14,2.538586934e-14,6.665489762e-14,1.179397134e-13,6.063762432e-14,8.873237942e-14,5.402427236e-14,3.016375222e-14,7.875899910e-15,9.658518134e-15,1.339901351e-14,1.183234418e-15,6.968833933e-15,3.130498291e-14,6.503126780e-14,4.252365170e-14,9.478367797e-14,4.201349164e-14,2.746902127e-14,3.862000076e-14,7.631496419e-14,1.799208277e-15,9.556376958e-14,3.370017866e-13,2.854602335e-13,1.443462322e-14,6.847771495e-14,6.073073408e-14,1.827738872e-14,7.170899288e-15,2.131453775e-14,1.881719222e-14
0.96094,6.925900708e-14,2.717850979e-14,6.729105705e-14,1.227997171e-13,5.930269066e-14,7.271894532e-14,5.739440958e-14,3.080239568e-14,6.861752321e-15,1.001813692e-14,1.343177114e-14,1.164163735e-15,7.746365202e-15,3.422941016e-14,6.533396589e-14,4.528599112e-14,9.385875861e-14,4.358762071e-14,2.828424615e-14,3.839667025e-14,7.215840175e-14,2.344316619e-15,8.346652944e-14,3.079488011e-13,2.837615943e-13,1.110664050e-14,5.121125673e-14,5.691548843e-14,2.085004368e-14,7.775384592e-15,2.430910707e-14,2.030035810e-14
0.96875,8.616244621e-14,2.808776369e-14,6.737419383e-14,1.219826343e-13,5.451934224e-14,5.701948007e-14,5.835246626e-14,2.990709196e-14,5.505178871e-15,1.005567173e-14,1.304041236e-14,1.376866330e-15,8.490519556e-15,3.640541910e-14,6.452129143e-14,4.671705397e-14,8.985235575e-14,4.590450635e-14,2.765186791e-14,3.690847906e-14,6.533982476e-14,2.966931765e-15,7.446224905e-14,2.701256256e-13,2.670554158e-13,8.996024238e-15,4.025789455e-14,5.136593672e-14,2.331345971e-14,8.435081046e-15,2.614725553e-14,2.090611555e-14
0.97656,9.951925660e-14,2.809607423e-14,6.704086957e-14,1.164494873e-13,4.737009839e-14,4.277066869e-14,5.648271970e-14,2.786036429e-14,4.321623113e-15,9.723222903e-15,1.238581500e-14,1.750263061e-15,8.819422213e-15,3.727450566e-14,6.174217194e-14,4.652988521e-14,8.220063253e-14,4.775101293e-14,2.535310138e-14,3.432014362e-14,5.710054856e-14,3.541479585e-15,6.982970513e-14,2.288452850e-13,2.360593598e-13,8.231502947e-15,3.540161370e-14,4.541059282e-14,2.474200696e-14,8.948995955e-15,2.621797594e-14,2.095447260e-14
0.98438,1.091957132e-13,2.702206636e-14,6.593621831e-14,1.065111483e-13,3.903829885e-14,3.149971134e-14,5.333131390e-14,2.492887719e-14,3.305582178e-15,9.176831214e-15,1.160614903e-14,2.189289684e-15,8.525108889e-15,3.643832798e-14,5.750267105e-14,4.475696078e-14,7.178813547e-14,4.902123295e-14,2.201485310e-14,3.145817520e-14,4.810842487e-14,4.046811507e-15,6.824108891e-14,1.880254738e-13,1.987415666e-13,8.334563663e-15,3.486748942e-14,4.220762536e-14,2.470519234e-14,9.247393442e-15,2.488929056e-14,2.061772574e-14
0.99219,1.153792245e-13,2.495044349e-14,6.289567739e-14,9.344253067e-14,3.010741113e-14,2.410799196e-14,4.829386026e-14,2.184578266e-14,2.504577474e-15,8.470739925e-15,1.089520315e-14,2.582108365e-15,7.713205869e-15,3.415247566e-14,5.299146476e-14,4.143724810e-14,5.970039747e-14,4.962341907e-14,1.819724227e-14,2.850572426e-14,3.870739738e-14,4.663161676e-15,6.894068312e-14,1.536495345e-13,1.600382198e-13,9.191696754e-15,3.801986354e-14,4.191047530e-14,2.368654440e-14,9.334669669e-15,2.249294399e-14,1.977824681e-14
1,1.172527527e-13,2.249480699e-14,6.021546486e-14,7.920818227e-14,2.164321862e-14,2.054053640e-14,4.103108356e-14,1.933149853e-14,1.951311159e-15,7.444331449e-15,1.070061371e-14,2.985043095e-15,6.572887657e-15,3.103767664e-14,4.861912593e-14,3.762265597e-14,4.772387407e-14,4.954706354e-14,1.438452826e-14,2.591333062e-14,3.055439377e-14,5.399001563e-15,6.990901287e-14,1.300320973e-13,1.266805873e-13,1.028011840e-14,4.131356388e-14,4.518044098e-14,2.158366676e-14,9.126020439e-15,1.938492334e-14,1.879823011e-14
1.0078,1.135615941e-13,2.034282977e-14,5.900975194e-14,6.578260910e-14,1.492915781e-14,2.042154578e-14,3.348031342e-14,1.795415759e-14,1.722971615e-15,6.228787609e-15,1.123857957e-14,3.415923862e-15,5.241033281e-15,2.777192684e-14,4.527259073e-14,3.483744918e-14,3.769832539e-14,4.949788760e-14,1.112446343e-14,2.415174829e-14,2.452039617e-14,6.257594369e-15,6.857059238e-14,1.172238376e-13,1.026766168e-13,1.125149613e-14,4.240120961e-14,5.068645926e-14,1.864865141e-14,8.745994249e-15,1.650713496e-14,1.831997287e-14
1.0156,1.062563894e-13,1.896136546e-14,5.896837507e-14,5.377539339e-14,1.021048416e-14,2.363617009e-14,2.684921719e-14,1.764061904e-14,1.714724922e-15,5.157028559e-15,1.217243754e-14,3.808514838e-15,3.864710810e-15,2.459600453e-14,4.387631022e-14,3.330640350e-14,3.000432256e-14,4.961015992e-14,8.670415076e-15,2.403463646e-14,2.108959514e-14,7.293644234e-15,6.396314106e-14,1.150966084e-13,9.142265733e-14,1.261975924e-14,4.305349167e-14,5.722479024e-14,1.540470402e-14,8.326347838e-15,1.427273471e-14,1.845491366e-14
1.0234,9.780349754e-14,1.834253815e-14,6.078770577e-14,4.328151986e-14,7.067235452e-15,2.925796019e-14,2.096253045e-14,1.853069547e-14,1.848266315e-15,4.246884188e-15,1.343912259e-14,4.260508874e-15,2.605068326e-15,2.196027912e-14,4.445959278e-14,3.280741872e-14,2.545562941e-14,5.003947090e-14,7.152980287e-15,2.488347222e-14,2.025132085e-14,8.608760230e-15,5.617356777e-14,1.210384092e-13,9.336789971e-14,1.424352231e-14,4.205751005e-14,6.335513853e-14,1.229124854e-14,7.615434533e-15,1.272327167e-14,1.898018005e-14
1.0312,8.953020662e-14,1.934998164e-14,6.594849101e-14,3.512333532e-14,5.709203443e-15,3.671894800e-14,1.594587382e-14,2.054656834e-14,2.178957596e-15,3.443105120e-15,1.547965441e-14,4.847865998e-15,1.632988611e-15,2.090986003e-14,4.746086608e-14,3.424979956e-14,2.487672038e-14,5.235259489e-14,6.737197211e-15,2.760611511e-14,2.238133743e-14,1.030701920e-14,4.684605879e-14,1.347003022e-13,1.082277368e-13,1.612806345e-14,3.884966334e-14,6.741403608e-14,9.760334683e-15,7.037748083e-15,1.248709083e-14,1.991261516e-14
1.0391,8.143440956e-14,2.325839783e-14,7.014712118e-14,3.003008898e-14,5.944038897e-15,4.460968424e-14,1.312528705e-14,2.300854642e-14,2.674871695e-15,2.869697567e-15,1.812968817e-14,5.310015775e-15,1.015561479e-15,2.132786310e-14,5.252688756e-14,3.724340776e-14,2.712619634e-14,5.616018634e-14,7.494542827e-15,3.275388710e-14,2.732161780e-14,1.239424316e-14,3.627181656e-14,1.530234356e-13,1.346692993e-13,1.870428641e-14,3.482853397e-14,6.730487540e-14,8.174905195e-15,6.762260511e-15,1.358310335e-14,2.109080265e-14
1.0469,7.449779040e-14,2.955199528e-14,7.190939668e-14,2.708703632e-14,6.833344402e-15,5.152406564e-14,1.230485920e-14,2.533759786e-14,3.297905481e-15,2.545813368e-15,2.076896439e-14,5.512029733e-15,7.861726691e-16,2.270697456e-14,5.853680511e-14,3.997773807e-14,3.055260677e-14,5.942940522e-14,8.954735028e-15,3.933347298e-14,3.413823191e-14,1.473363475e-14,2.667670998e-14,1.767921910e-13,1.699013148e-13,2.154163015e-14,3.249505880e-14,6.266065985e-14,7.475141354e-15,6.379423419e-15,1.501212033e-14,2.212474355e-14
1.0547,6.895974588e-14,3.699528334e-14,7.223675023e-14,2.553737556e-14,7.698243247e-15,5.579179579e-14,1.358297684e-14,2.692728036e-14,3.903685926e-15,2.449991787e-15,2.283179472e-14,5.577843841e-15,9.359961165e-16,2.510181112e-14,6.478228729e-14,4.187969627e-14,3.395772056e-14,6.158923723e-14,1.073513305e-14,4.638494928e-14,4.106652262e-14,1.707381900e-14,1.939695013e-14,2.077211230e-13,2.118993288e-13,2.410374851e-14,3.040159348e-14,5.565603772e-14,7.580281599e-15,5.857215710e-15,1.640229520e-14,2.262000547e-14
1.0625,6.503436577e-14,4.536983905e-14,7.090497699e-14,2.509517571e-14,8.404813164e-15,5.764455382e-14,1.674086595e-14,2.742647239e-14,4.354864239e-15,2.554245900e-15,2.432820969e-14,5.407645879e-15,1.512172659e-15,2.846402305e-14,7.072316005e-14,4.327047052e-14,3.648712893e-14,6.226284088e-14,1.271205376e-14,5.377852151e-14,4.770275887e-14,1.940362307e-14,1.463429516e-14,2.437985860e-13,2.579086640e-13,2.606549297e-14,2.851379458e-14,4.855085165e-14,8.265930554e-15,5.508128716e-15,1.747789599e-14,2.243915733e-14
1.0703,6.137228007e-14,5.401737417e-14,6.784720494e-14,2.458200439e-14,8.667914002e-15,5.733347461e-14,2.119428976e-14,2.658193047e-14,4.578680206e-15,2.771184113e-15,2.532830396e-14,5.052711540e-15,2.638333740e-15,3.245698625e-14,7.568641936e-14,4.390415294e-14,3.698431479e-14,6.007292193e-14,1.452199507e-14,6.044668243e-14,5.287682014e-14,2.124314407e-14,1.204314002e-14,2.835239413e-13,3.047642798e-13,2.688402330e-14,2.719027805e-14,4.133293725e-14,9.386766107e-15,5.257137932e-15,1.777291623e-14,2.154197913e-14
1.0781,5.616586346e-14,6.116924704e-14,6.424453116e-14,2.377155295e-14,8.424730190e-15,5.418138767e-14,2.576034423e-14,2.444231207e-14,4.504356390e-15,2.982927924e-15,2.515290440e-14,4.628241957e-15,4.296141833e-15,3.625119953e-14,7.786985457e-14,4.270037799e-14,3.425601851e-14,5.415884908e-14,1.556221497e-14,6.483254207e-14,5.589410649e-14,2.225221113e-14,1.094215298e-14,3.227076003e-13,3.435444991e-13,2.600672379e-14,2.612552948e-14,3.629996219e-14,1.072136608e-14,4.901462737e-15,1.707478111e-14,1.963156122e-14
1.0859,4.959672606e-14,6.454843007e-14,6.192323449e-14,2.228102732e-14,7.669881216e-15,4.864978479e-14,3.036794583e-14,2.129978287e-14,4.146106150e-15,3.173502057e-15,2.313628760e-14,4.259103047e-15,6.385680264e-15,3.930902970e-14,7.714215586e-14,4.042900918e-14,2.982748207e-14,4.614812764e-14,1.555038775e-14,6.620155384e-14,5.580360446e-14,2.264201551e-14,1.049769126e-14,3.572361940e-13,3.719708913e-13,2.377863247e-14,2.435986585e-14,3.535259393e-14,1.200445568e-14,4.554086183e-15,1.545238985e-14,1.710711319e-14
1.0938,4.192614718e-14,6.389079160e-14,6.173160014e-14,2.024474540e-14,7.040501608e-15,4.296132825e-14,3.335203508e-14,1.828040314e-14,3.640892775e-15,3.469138002e-15,1.997276473e-14,3.961910471e-15,8.670669199e-15,4.134522955e-14,7.369165272e-14,3.767597517e-14,2.483113733e-14,3.745596606e-14,1.462416266e-14,6.498598351e-14,5.362119579e-14,2.189228222e-14,1.019202610e-14,3.784420525e-13,3.846904404e-13,2.027964050e-14,2.173668299e-14,3.709469509e-14,1.323921797e-14,4.247229404e-15,1.305025850e-14,1.424965526e-14
1.1016,3.454038515e-14,6.144204051e-14,6.276324844e-14,1.827592848e-14,6.859791775e-15,3.774017667e-14,3.387029623e-14,1.578374336e-14,3.123362204e-15,3.963779394e-15,1.654156369e-14,3.733704053e-15,1.115692170e-14,4.238351547e-14,6.854140215e-14,3.542690712e-14,2.059681973e-14,2.980049176e-14,1.327296004e-14,6.105821351e-14,5.051694355e-14,1.995929118e-14,9.962919491e-15,3.847856391e-13,3.815937121e-13,1.619872660e-14,2.022689939e-14,4.002579815e-14,1.406397912e-14,4.127551867e-15,1.060890026e-14,1.141756002e-14
1.1094,2.746333749e-14,5.603188203e-14,6.362335162e-14,1.725944051e-14,7.497895569e-15,3.247216592e-14,3.183122038e-14,1.457328766e-14,2.913559770e-15,4.687847717e-15,1.311911921e-14,3.538162380e-15,1.367154842e-14,4.182979222e-14,6.132789637e-14,3.346759937e-14,1.726595063e-14,2.349196730e-14,1.152171789e-14,5.391098282e-14,4.666654420e-14,1.731137786e-14,1.000884723e-14,3.764916901e-13,3.599212902e-13,1.196861942e-14,1.945691355e-14,4.521362491e-14,1.479271064e-14,4.136517188e-15,8.543094289e-15,8.880254260e-15
1.1172,2.173382703e-14,4.828493145e-14,6.254634647e-14,1.748485105e-14,8.882700371e-15,2.845223992e-14,2.902584899e-14,1.482187096e-14,2.830906076e-15,5.697600069e-15,9.832907815e-15,3.265518700e-15,1.538155366e-14,3.870119050e-14,5.239237948e-14,3.176962322e-14,1.632434263e-14,2.002663621e-14,9.761028542e-15,4.500078947e-14,4.237078111e-14,1.421458805e-14,1.068589472e-14,3.527549619e-13,3.251826072e-13,8.287153295e-15,1.999768901e-14,4.958302386e-14,1.525750997e-14,4.352796739e-15,7.178298287e-15,6.686458421e-15
1.125,1.897218090e-14,4.245798215e-14,6.171421164e-14,2.007953618e-14,1.103730742e-14,2.653029992e-14,2.638314114e-14,1.686826117e-14,3.036901380e-15,7.270938740e-15,7.561108223e-15,3.012237479e-15,1.618878160e-14,3.416260282e-14,4.366148610e-14,3.105063210e-14,1.788294907e-14,1.970516433e-14,8.978624346e-15,3.602384736e-14,3.830625790e-14,1.109955126e-14,1.230175838e-14,3.145606610e-13,2.841164612e-13,5.548734839e-15,2.390334866e-14,5.084316854e-14,1.564214564e-14,5.192106527e-15,6.960191091e-15,5.050444960e-15
1.1328,1.865386499e-14,3.888435238e-14,6.265653720e-14,2.479474630e-14,1.354814909e-14,2.662131811e-14,2.530768227e-14,2.025544874e-14,3.666347596e-15,8.993692533e-15,6.562313796e-15,2.933698949e-15,1.673644031e-14,2.932033446e-14,3.591108187e-14,3.131889458e-14,2.067847442e-14,2.101727077e-14,9.217090364e-15,2.716059108e-14,3.463450745e-14,8.292171586e-15,1.489917553e-14,2.708162709e-13,2.387457473e-13,3.797448617e-15,3.060393303e-14,5.256737381e-14,1.633294165e-14,6.747775020e-15,7.742474185e-15,4.122758825e-15
1.1406,2.123517467e-14,3.747229222e-14,6.433837450e-14,3.176889263e-14,1.606201264e-14,2.863904502e-14,2.739441897e-14,2.467828336e-14,4.632725985e-15,1.059532597e-14,6.381251854e-15,3.113324511e-15,1.714285080e-14,2.493657051e-14,2.988288923e-14,3.297904086e-14,2.474266113e-14,2.412318670e-14,1.069147585e-14,1.930411986e-14,3.107686104e-14,6.179502336e-15,1.848480486e-14,2.262272508e-13,1.933037819e-13,3.271083797e-15,4.019344576e-14,5.449156301e-14,1.763116674e-14,9.173016695e-15,9.491036088e-15,3.724903108e-15
1.1484,2.654724754e-14,3.875116384e-14,6.834256165e-14,3.979007518e-14,1.812857382e-14,3.156430007e-14,3.257353080e-14,2.935530987e-14,6.039230171e-15,1.195768692e-14,7.040635341e-15,3.725014001e-15,1.697250276e-14,2.146882044e-14,2.538901196e-14,3.555752909e-14,2.847787138e-14,2.742649658e-14,1.321146702e-14,1.313493850e-14,2.728211268e-14,4.807524376e-15,2.299323571e-14,1.834091445e-13,1.519030355e-13,3.786491557e-15,5.168352062e-14,5.503920551e-14,1.989869582e-14,1.289750477e-14,1.172620119e-14,3.697184278e-15
1.1562,3.347075698e-14,4.233856647e-14,7.563851264e-14,4.743889262e-14,1.960591914e-14,3.475144756e-14,4.021806123e-14,3.369018064e-14,7.961072009e-15,1.274578796e-14,8.086778272e-15,4.916862516e-15,1.636302370e-14,1.938873472e-14,2.237806752e-14,3.850084749e-14,3.095537222e-14,2.965986304e-14,1.611031676e-14,8.539322211e-15,2.385714330e-14,4.156979023e-15,2.826288643e-14,1.464294718e-13,1.157520574e-13,5.327215477e-15,6.440551986e-14,5.486556299e-14,2.286521893e-14,1.779199960e-14,1.404854289e-14,3.871657491e-15
1.1641,4.141774890e-14,4.663284702e-14,8.550630041e-14,5.309721960e-14,1.981800260e-14,3.772664691e-14,4.887564858e-14,3.696750078e-14,1.027159803e-14,1.272567211e-14,9.469673906e-15,6.976291837e-15,1.600375014e-14,1.987374763e-14,2.174951614e-14,4.200220403e-14,3.134913222e-14,3.011159808e-14,1.895180146e-14,5.715585551e-15,2.123000328e-14,4.284381204e-15,3.403202760e-14,1.213828794e-13,8.559375697e-14,7.923270030e-15,7.854774943e-14,5.523389844e-14,2.650750214e-14,2.411101975e-14,1.621729810e-14,3.996461665e-15
1.1719,5.008123068e-14,4.980941335e-14,9.529489028e-14,5.609854456e-14,1.866064419e-14,4.039111501e-14,5.656802274e-14,3.891648156e-14,1.263396106e-14,1.194269547e-14,1.075333055e-14,9.703167049e-15,1.576739466e-14,2.258664338e-14,2.345293477e-14,4.554432358e-14,2.992049393e-14,2.916395390e-14,2.130272024e-14,4.183694405e-15,1.904784081e-14,4.869346934e-15,4.003533189e-14,1.094189097e-13,6.150794246e-14,1.138658300e-14,9.067213649e-14,5.441170964e-14,3.008134739e-14,3.140981070e-14,1.772263083e-14,3.892856435e-15
1.1797,5.816766713e-14,5.146322735e-14,1.043145098e-13,5.557196153e-14,1.657150986e-14,4.291891097e-14,6.172394902e-14,3.931128657e-14,1.499321494e-14,1.063736698e-14,1.180238874e-14,1.318654172e-14,1.563723143e-14,2.724974721e-14,2.755643831e-14,4.902545810e-14,2.751806175e-14,2.694365411e-14,2.268984409e-14,3.560023804e-15,1.708263324e-14,5.883525089e-15,4.558517251e-14,1.102859315e-13,4.316259173e-14,1.512895122e-14,9.787184800e-14,5.051433988e-14,3.298904938e-14,3.904388231e-14,1.819251078e-14,3.838046832e-15
1.1875,6.206057647e-14,5.104704765e-14,1.114088624e-13,5.170303838e-14,1.440453884e-14,4.746309782e-14,6.281930464e-14,3.883440139e-14,1.727922556e-14,9.127211828e-15,1.272778136e-14,1.714845335e-14,1.519145897e-14,3.296806135e-14,3.416402568e-14,5.259722627e-14,2.540713401e-14,2.419898503e-14,2.285048730e-14,3.915738172e-15,1.559142056e-14,7.044978746e-15,4.906755231e-14,1.214528605e-13,3.086102568e-14,1.872522919e-14,1.014866295e-13,4.594683026e-14,3.474627845e-14,4.621764478e-14,1.827742289e-14,4.111536681e-15
1.1953,6.174517458e-14,4.723663055e-14,1.150742635e-13,4.524389899e-14,1.227881535e-14,5.655181971e-14,5.961659023e-14,3.825658805e-14,1.872873292e-14,7.711026940e-15,1.325030639e-14,2.078035987e-14,1.416025179e-14,3.808116097e-14,4.254943259e-14,5.516647862e-14,2.461220486e-14,2.134783433e-14,2.170010948e-14,5.146222649e-15,1.394007280e-14,8.021361575e-15,4.971856170e-14,1.387197437e-13,2.533096269e-14,2.181848437e-14,1.015514589e-13,4.072416476e-14,3.469407549e-14,5.212204645e-14,1.783264454e-14,4.638265759e-15
1.2031,5.905877461e-14,4.101492370e-14,1.143396148e-13,3.872860758e-14,1.109324137e-14,7.212632791e-14,5.375515301e-14,3.761498651e-14,1.899954971e-14,6.535016546e-15,1.309143415e-14,2.382560505e-14,1.274511245e-14,4.153828659e-14,5.206295184e-14,5.667806379e-14,2.596941345e-14,1.966063913e-14,1.976149124e-14,7.147140711e-15,1.215042667e-14,8.630769764e-15,4.766568864e-14,1.565871321e-13,2.680950587e-14,2.393547741e-14,9.610254619e-14,3.364627614e-14,3.270764469e-14,5.556955335e-14,1.725870513e-14,5.434714067e-15
1.2109,5.239777210e-14,3.389835491e-14,1.111104728e-13,3.336020242e-14,1.099628160e-14,9.476132342e-14,4.556608175e-14,3.711216389e-14,1.859884866e-14,5.832266880e-15,1.262906365e-14,2.601095004e-14,1.095062381e-14,4.286540901e-14,6.184586927e-14,5.621316100e-14,2.904353409e-14,1.893478704e-14,1.723511031e-14,1.008885406e-14,1.061945045e-14,8.755843477e-15,4.321697037e-14,1.710979735e-13,3.629834789e-14,2.429352866e-14,8.602214138e-14,2.705660310e-14,2.929964520e-14,5.588175036e-14,1.661563846e-14,6.673278894e-15
1.2188,4.263803267e-14,2.674185935e-14,1.069934498e-13,3.009609154e-14,1.177188781e-14,1.226848296e-13,3.629322856e-14,3.728992454e-14,1.752706741e-14,5.453257034e-15,1.165702221e-14,2.675847993e-14,8.756345992e-15,4.120008239e-14,6.958189681e-14,5.322855185e-14,3.259942878e-14,1.883706009e-14,1.451897024e-14,1.369390464e-14,9.682291830e-15,8.332790513e-15,3.685110571e-14,1.763140645e-13,5.293949722e-14,2.247312374e-14,7.404841022e-14,2.262440955e-14,2.528359846e-14,5.306066821e-14,1.582622946e-14,7.785475737e-15
1.2266,3.380157512e-14,2.034012662e-14,1.017180541e-13,2.978781672e-14,1.301587306e-14,1.524885473e-13,2.774556444e-14,3.774989731e-14,1.570957844e-14,5.311658036e-15,1.017106388e-14,2.595262205e-14,6.412412687e-15,3.667036524e-14,7.343339815e-14,4.823560363e-14,3.513963470e-14,1.885991951e-14,1.195378701e-14,1.865418714e-14,9.791443946e-15,7.353670662e-15,3.023492539e-14,1.731836099e-13,7.653236701e-14,1.937608200e-14,6.316815580e-14,2.112163306e-14,2.177022088e-14,4.748928463e-14,1.502435150e-14,8.334188169e-15
1.2344,2.827630094e-14,1.532750341e-14,9.592975107e-14,3.120443979e-14,1.401530822e-14,1.795291200e-13,2.117219180e-14,3.784054290e-14,1.413241198e-14,5.503499415e-15,8.289396415e-15,2.400967374e-14,4.381580284e-15,3.022649666e-14,7.248223610e-14,4.109712465e-14,3.479998549e-14,1.786292066e-14,9.588260647e-15,2.475127293e-14,1.081666417e-14,6.044098383e-15,2.506507371e-14,1.650687534e-13,1.042872848e-13,1.560833817e-14,5.369487914e-14,2.198776685e-14,1.924515977e-14,4.014165706e-14,1.374572507e-14,8.430717412e-15
1.2422,2.604399848e-14,1.170695874e-14,9.168716228e-14,3.350292725e-14,1.420294245e-14,2.007473378e-13,1.641590350e-14,3.808084926e-14,1.324135428e-14,5.799585101e-15,6.526771636e-15,2.150896822e-14,2.983856874e-15,2.395360179e-14,6.680507930e-14,3.316228071e-14,3.202513665e-14,1.600710970e-14,7.754517680e-15,3.353230961e-14,1.264881095e-14,4.734400726e-15,2.187996954e-14,1.560415911e-13,1.341201255e-13,1.142286736e-14,4.705711951e-14,2.575875115e-14,1.791439550e-14,3.214826458e-14,1.199585646e-14,8.054675540e-15
1.25,2.861425406e-14,9.499912560e-15,8.778413255e-14,3.592428109e-14,1.390146136e-14,2.113121503e-13,1.394588482e-14,3.897544221e-14,1.300701115e-14,5.914806620e-15,4.989857487e-15,1.862206473e-14,2.312294097e-15,1.881843532e-14,5.683129478e-14,2.625540623e-14,2.780311328e-14,1.379451471e-14,6.524665348e-15,4.488445189e-14,1.496806334e-14,3.572972457e-15,2.064939607e-14,1.479301523e-13,1.627193064e-13,7.833856929e-15,4.609792136e-14,3.107823783e-14,1.751222459e-14,2.455546050e-14,1.015244335e-14,7.077634594e-15
1.2578,3.628280158e-14,8.426757005e-15,8.468587393e-14,3.720295903e-14,1.404507562e-14,2.091996865e-13,1.298921976e-14,4.075466267e-14,1.405237982e-14,6.235869044e-15,3.617003617e-15,1.574483175e-14,2.486848864e-15,1.600743033e-14,4.518810937e-14,2.227386248e-14,2.425163808e-14,1.183543667e-14,6.105187475e-15,5.958289581e-14,1.757466097e-14,2.856829228e-15,2.103009838e-14,1.442000085e-13,1.864516900e-13,5.469037234e-15,4.798290220e-14,3.724026898e-14,1.761718128e-14,1.806361018e-14,8.993669513e-15,6.426666695e-15
1.2656,4.911255564e-14,8.189607845e-15,7.917169969e-14,3.671328088e-14,1.497450423e-14,1.958162326e-13,1.260366040e-14,4.309081941e-14,1.573984425e-14,6.405466444e-15,2.765432279e-15,1.364995739e-14,3.398485373e-15,1.602553432e-14,3.309911956e-14,2.091590832e-14,2.234414300e-14,1.061756186e-14,6.393876852e-15,7.602802607e-14,1.998895285e-14,2.907836095e-15,2.161815484e-14,1.441286005e-13,2.034524304e-13,4.172291951e-15,4.965865268e-14,4.367372015e-14,1.764665373e-14,1.332077020e-14,9.122553373e-15,6.383080322e-15
1.2734,6.623198256e-14,8.768807963e-15,7.164206564e-14,3.572208257e-14,1.757920729e-14,1.752390003e-13,1.211821859e-14,4.616397146e-14,1.733580827e-14,6.192338559e-15,2.488218055e-15,1.196430760e-14,4.806769150e-15,1.837794545e-14,2.300006322e-14,2.254145057e-14,2.370617649e-14,1.149224002e-14,7.483999772e-15,9.323570559e-14,2.234481367e-14,3.670926655e-15,2.218908298e-14,1.437845663e-13,2.128706798e-13,3.892350480e-15,5.130472179e-14,4.767218776e-14,1.728779931e-14,9.982055412e-15,1.120053354e-14,7.175064009e-15
1.2812,8.304409332e-14,1.023827351e-14,6.280767150e-14,3.415425597e-14,2.136220142e-14,1.484098844e-13,1.150105602e-14,4.888429554e-14,1.839259310e-14,5.673325090e-15,2.563107452e-15,1.041377039e-14,6.378467651e-15,2.166137507e-14,1.541400766e-14,2.564872474e-14,2.732371331e-14,1.367723081e-14,8.857308453e-15,1.087655700e-13,2.444167808e-14,4.890605508e-15,2.214980523e-14,1.417728245e-13,2.134687329e-13,4.097270736e-15,5.083615140e-14,4.992883284e-14,1.735404887e-14,7.468736674e-15,1.504355044e-14,8.668302917e-15
1.2891,9.670506253e-14,1.229020419e-14,5.293527277e-14,3.225183347e-14,2.574382321e-14,1.192788807e-13,1.048470746e-14,4.999974629e-14,1.855710443e-14,5.106285318e-15,2.993042876e-15,9.017317814e-15,7.847526901e-15,2.474882276e-14,1.049242729e-14,2.859235522e-14,3.111177850e-14,1.605419057e-14,1.007523559e-14,1.195186648e-13,2.590040195e-14,6.383215279e-15,2.125612999e-14,1.354581220e-13,2.025492953e-13,4.468827656e-15,4.685757471e-14,5.033516122e-14,1.805665919e-14,5.792124595e-15,2.001739374e-14,1.037944015e-14
1.2969,1.063394328e-13,1.431196563e-14,4.171247781e-14,2.993242701e-14,2.922249864e-14,9.311026562e-14,9.304845402e-15,4.875433209e-14,1.733766474e-14,4.464831156e-15,3.947539747e-15,7.727196950e-15,9.064640552e-15,2.650296869e-14,7.962134507e-15,2.994458595e-14,3.385427757e-14,1.847888922e-14,1.084439745e-14,1.249987853e-13,2.647635655e-14,7.780814352e-15,1.966124801e-14,1.250592355e-13,1.859951378e-13,4.847122591e-15,3.952296878e-14,4.932855887e-14,2.026819381e-14,4.512517049e-15,2.490342449e-14,1.163449175e-14
1.3047,1.099331292e-13,1.541860134e-14,3.093562069e-14,2.717966238e-14,3.038374262e-14,7.287752351e-14,8.628960970e-15,4.519696724e-14,1.517612935e-14,4.019729195e-15,5.565225116e-15,6.573806015e-15,9.738633250e-15,2.600213866e-14,7.224218115e-15,2.950952638e-14,3.474369198e-14,2.002057929e-14,1.094191518e-14,1.249287556e-13,2.567631779e-14,8.636096283e-15,1.786695219e-14,1.098955239e-13,1.637233028e-13,5.209687680e-15,3.259361854e-14,4.756910420e-14,2.393115774e-14,3.407770878e-15,2.812994402e-14,1.201585208e-14
1.3125,1.060938441e-13,1.545324437e-14,2.185252617e-14,2.397441987e-14,2.912241565e-14,5.871184024e-14,8.858323722e-15,3.939037625e-14,1.278554564e-14,3.897167369e-15,7.868887820e-15,5.641997340e-15,9.675790109e-15,2.337746405e-14,7.989633355e-15,2.821022880e-14,3.418887171e-14,2.015446011e-14,1.036865961e-14,1.195234679e-13,2.329268361e-14,8.853612137e-15,1.578298442e-14,9.440946624e-14,1.389767409e-13,5.567745824e-15,2.656700492e-14,4.681553908e-14,2.869430912e-14,2.493636068e-15,2.896553020e-14,1.145392834e-14
1.3203,9.833585805e-14,1.485776739e-14,1.593796371e-14,2.112232419e-14,2.589608485e-14,5.260535394e-14,9.679051657e-15,3.208927680e-14,1.092505316e-14,4.188011382e-15,1.077587323e-14,5.163557133e-15,8.983832464e-15,1.982107495e-14,1.080228992e-14,2.820304113e-14,3.449821022e-14,1.984333646e-14,9.639424987e-15,1.105858548e-13,1.993314417e-14,8.342140611e-15,1.370697998e-14,7.943195618e-14,1.151371471e-13,6.017596783e-15,2.141030545e-14,4.883909197e-14,3.324498371e-14,1.824759594e-15,2.739621460e-14,1.010207280e-14
1.3281,9.223060221e-14,1.301937779e-14,1.341112182e-14,1.839154331e-14,2.079683809e-14,5.357100623e-14,1.113794615e-14,2.506210890e-14,9.958914223e-15,4.817814370e-15,1.410872496e-14,5.250792162e-15,7.893073663e-15,1.631499678e-14,1.597108293e-14,3.120398534e-14,3.749279977e-14,1.995248661e-14,9.151401326e-15,9.984809795e-14,1.556582847e-14,7.153301491e-15,1.136364772e-14,6.536099823e-14,9.541766066e-14,6.428878787e-15,1.902097459e-14,5.361092963e-14,3.648977691e-14,1.390561055e-15,2.333745196e-14,8.225311699e-15
1.3359,9.194109514e-14,1.134454716e-14,1.484898177e-14,1.704685595e-14,1.588616817e-14,5.931542923e-14,1.227358440e-14,1.935020348e-14,1.027249646e-14,5.440915079e-15,1.755314666e-14,5.932363873e-15,6.612997891e-15,1.401374808e-14,2.433113848e-14,3.965434834e-14,4.523484590e-14,2.156157774e-14,9.620888913e-15,8.911435756e-14,1.117513016e-14,5.828133399e-15,9.043448759e-15,5.470082453e-14,8.220764838e-14,6.733127024e-15,1.852788806e-14,6.147203843e-14,3.714723143e-14,1.101618858e-15,1.813652977e-14,6.493757703e-15
1.3438,9.910507819e-14,1.069309352e-14,1.993758161e-14,1.695406749e-14,1.222676253e-14,6.852967496e-14,1.308646341e-14,1.542483002e-14,1.160489254e-14,6.044310246e-15,2.052960028e-14,7.152472111e-15,5.113067225e-15,1.346792119e-14,3.554469974e-14,5.293765587e-14,5.633225478e-14,2.440673177e-14,1.078769738e-14,7.873743086e-14,7.564208631e-15,4.630162935e-15,6.903195674e-15,4.849828932e-14,7.466439050e-14,6.898759517e-15,1.775680147e-14,7.234735766e-14,3.540883689e-14,9.648119376e-16,1.292902722e-14,5.297608742e-15
1.3516,1.146847581e-13,1.100292614e-14,2.779158264e-14,1.755054765e-14,9.736450429e-15,7.828249563e-14,1.401119985e-14,1.363693783e-14,1.319613877e-14,6.321015810e-15,2.263220101e-14,8.727791547e-15,3.837669243e-15,1.512200211e-14,4.956334471e-14,7.106759641e-14,7.028181740e-14,2.870548566e-14,1.269076562e-14,6.903631477e-14,5.000985784e-15,3.873161246e-15,5.054585164e-15,4.854475412e-14,7.509393827e-14,6.898606440e-15,1.701372256e-14,8.440354763e-14,3.129129317e-14,9.192003330e-16,8.513446647e-15,4.634310946e-15
1.3594,1.338051229e-13,1.230952373e-14,3.706215277e-14,1.864541092e-14,8.357943422e-15,8.684281658e-14,1.474206638e-14,1.353185282e-14,1.437926836e-14,6.177449455e-15,2.393687297e-14,1.032328834e-14,2.905413102e-15,1.846717045e-14,6.492931625e-14,9.151889256e-14,8.321990456e-14,3.283930516e-14,1.454269535e-14,5.908856064e-14,3.518423864e-15,3.509149459e-15,3.627719199e-15,5.625508302e-14,8.126696631e-14,6.794709853e-15,1.594518595e-14,9.595730077e-14,2.589829915e-14,9.016110420e-16,5.272238934e-15,4.457331137e-15
1.3672,1.526373023e-13,1.434495677e-14,4.619008984e-14,1.954844744e-14,7.802599882e-15,9.246949256e-14,1.579359133e-14,1.443450167e-14,1.463451648e-14,5.810126072e-15,2.389609748e-14,1.158439219e-14,2.388109103e-15,2.286699692e-14,8.059751541e-14,1.124277355e-13,9.263357980e-14,3.613415500e-14,1.567982430e-14,4.921444078e-14,3.305788154e-15,3.640353574e-15,2.908653417e-15,7.411043518e-14,9.486520657e-14,6.647547868e-15,1.439443368e-14,1.041831410e-13,1.991916289e-14,9.037969519e-16,3.049557615e-15,4.430111134e-15
1.375,1.653808174e-13,1.606989681e-14,5.337371676e-14,1.941854877e-14,7.198881077e-15,9.546404219e-14,1.732324824e-14,1.580337382e-14,1.385474359e-14,5.205403839e-15,2.238970732e-14,1.243820683e-14,2.206314921e-15,2.672484285e-14,9.335432008e-14,1.296148760e-13,9.564506636e-14,3.770961436e-14,1.567285066e-14,3.980530558e-14,4.241062503e-15,3.940280254e-15,3.023022636e-15,1.014993704e-13,1.147812391e-13,6.679902704e-15,1.206834533e-14,1.080460712e-13,1.488357584e-14,9.473785126e-16,1.756880316e-15,4.328413593e-15
1.3828,1.703661864e-13,1.662013973e-14,5.807597457e-14,1.838841762e-14,6.121527594e-15,9.520102194e-14,1.992733961e-14,1.684801038e-14,1.191535722e-14,4.549634899e-15,2.067053249e-14,1.316506537e-14,2.334858956e-15,2.983378528e-14,1.033313646e-13,1.418723613e-13,9.226019501e-14,3.705799361e-14,1.468710700e-14,3.142817932e-14,6.451336796e-15,4.286586888e-15,4.219326475e-15,1.358197625e-13,1.412345844e-13,6.807875633e-15,1.114611845e-14,1.083078641e-13,1.096608636e-14,1.039337611e-15,9.824632640e-16,3.878661476e-15
1.3906,1.671225324e-13,1.664296727e-14,5.854905724e-14,1.736651043e-14,5.108441702e-15,9.147917630e-14,2.269574902e-14,1.710460269e-14,9.245422461e-15,4.042512628e-15,1.870844110e-14,1.348882187e-14,2.629943611e-15,3.134850491e-14,1.097423913e-13,1.499488541e-13,8.511052175e-14,3.495753826e-14,1.299028548e-14,2.484507045e-14,9.651430274e-15,4.640664841e-15,6.478963783e-15,1.720323885e-13,1.705815793e-13,6.838039718e-15,1.264190034e-14,1.050625190e-13,8.033156431e-15,1.209878857e-15,5.564363049e-16,3.193849975e-15
1.3984,1.547979154e-13,1.611141367e-14,5.466154729e-14,1.667473302e-14,4.086200004e-15,8.385140518e-14,2.552065927e-14,1.634050012e-14,6.480357364e-15,3.634414854e-15,1.617078309e-14,1.339203318e-14,2.854480068e-15,3.042828331e-14,1.101536793e-13,1.507238693e-13,7.409397519e-14,3.156512828e-14,1.071370010e-14,2.057813586e-14,1.321423083e-14,4.703333270e-15,9.910428459e-15,2.024469620e-13,1.993936285e-13,6.914178719e-15,1.642508664e-14,9.833836747e-14,6.033455807e-15,1.386327390e-15,3.707673595e-16,2.473678557e-15
1.4062,1.383019419e-13,1.470054330e-14,4.774052885e-14,1.715220361e-14,3.257513812e-15,7.487467084e-14,2.785138053e-14,1.486357721e-14,4.248252742e-15,3.406839654e-15,1.340351854e-14,1.294604607e-14,2.904753562e-15,2.738346700e-14,1.049934977e-13,1.442813057e-13,6.143573943e-14,2.735293037e-14,8.479973142e-15,1.917040984e-14,1.673306445e-14,4.451981758e-15,1.410850555e-14,2.198363962e-13,2.228375531e-13,6.920724622e-15,2.306456027e-14,8.914413243e-14,4.747832409e-15,1.504669152e-15,3.589113334e-16,2.068439287e-15
1.4141,1.217190737e-13,1.271968731e-14,3.963889795e-14,1.975844432e-14,2.844591117e-15,6.410775033e-14,2.932118315e-14,1.266403256e-14,2.697518742e-15,3.193187325e-15,1.097021550e-14,1.240373175e-14,2.810577656e-15,2.323718354e-14,9.532676819e-14,1.316453903e-13,4.879321754e-14,2.283601167e-14,6.740401924e-15,2.010543035e-14,1.961775730e-14,4.099732167e-15,1.862876626e-14,2.205012866e-13,2.353510628e-13,7.097093306e-15,3.372504294e-14,7.953200964e-14,3.923637881e-15,1.560533931e-15,4.963472696e-16,2.151766025e-15
1.4219,1.074078465e-13,1.127663353e-14,3.079287935e-14,2.496720907e-14,3.121173055e-15,5.332898637e-14,2.910291754e-14,1.021538034e-14,1.848825075e-15,2.897204176e-15,8.769387855e-15,1.171959084e-14,2.772280424e-15,1.838725594e-14,8.254635802e-14,1.154835812e-13,3.770063770e-14,1.883145982e-14,5.552468229e-15,2.323424552e-14,2.093858303e-14,3.724269681e-15,2.279197484e-14,2.059022155e-13,2.329110890e-13,7.544314573e-15,4.822114482e-14,7.024587202e-14,3.342873177e-15,1.609415586e-15,8.159817165e-16,2.839311322e-15
1.4297,9.401133082e-14,1.028141355e-14,2.287152681e-14,3.311384703e-14,4.039081018e-15,4.497570981e-14,2.795753568e-14,8.128215615e-15,1.852060793e-15,2.589204291e-15,6.807884551e-15,1.084700582e-14,2.770581420e-15,1.355952946e-14,6.755693054e-14,9.603817696e-14,2.795582239e-14,1.530990423e-14,4.733530423e-15,2.791889496e-14,2.029546177e-14,3.306741156e-15,2.600525646e-14,1.802477694e-13,2.168849770e-13,8.364618166e-15,6.485567665e-14,6.201700542e-14,3.246773302e-15,1.609689990e-15,1.275591856e-15,4.229305568e-15
1.4375,8.366296070e-14,9.579318680e-15,1.703357288e-14,4.335288704e-14,5.471037070e-15,3.950058149e-14,2.616370512e-14,6.660763940e-15,2.635667415e-15,2.281879677e-15,5.263658665e-15,9.763254444e-15,3.096545352e-15,9.537450211e-15,5.251718493e-14,7.616815949e-14,2.070366446e-14,1.245147481e-14,4.356152842e-15,3.421838251e-14,1.839547860e-14,3.107307725e-15,2.795700887e-14,1.505250142e-13,1.909573891e-13,9.726966660e-15,8.203035653e-14,5.454488369e-14,3.665660574e-15,1.705838925e-15,1.834592162e-15,6.417853590e-15
1.4453,7.478559935e-14,9.056679657e-15,1.319009425e-14,5.454014952e-14,7.368987074e-15,3.640292209e-14,2.354210795e-14,5.974620859e-15,3.897892029e-15,1.976772268e-15,4.159190139e-15,8.507453584e-15,3.860222897e-15,6.684381883e-15,3.858009131e-14,5.735590191e-14,1.507906745e-14,1.006639415e-14,4.193541228e-15,4.106239568e-14,1.574027647e-14,3.260198105e-15,2.906568473e-14,1.250269048e-13,1.592754558e-13,1.172350790e-14,9.833870740e-14,4.862768504e-14,4.897854507e-15,2.076445573e-15,2.574794228e-15,9.003911107e-15
1.4531,6.559784513e-14,9.118062970e-15,1.136252132e-14,6.528084528e-14,9.488448797e-15,3.568295722e-14,2.079480472e-14,5.978707844e-15,5.382450024e-15,1.822913145e-15,3.506739853e-15,7.298857916e-15,5.063367590e-15,5.017486289e-15,2.678197107e-14,4.152731958e-14,1.089122552e-14,8.230519171e-15,4.124411214e-15,4.744271331e-14,1.260797142e-14,3.882138840e-15,2.922126042e-14,1.097039049e-13,1.280397188e-13,1.419131438e-14,1.121419024e-13,4.470626119e-14,6.826217014e-15,2.851946467e-15,3.276620987e-15,1.148775770e-14
1.4609,5.655929914e-14,9.536492369e-15,1.067932820e-14,7.339301289e-14,1.143464120e-14,3.629900369e-14,1.921081600e-14,6.478610533e-15,7.008159249e-15,1.894547547e-15,3.148658749e-15,6.186469502e-15,6.584897411e-15,4.357973209e-15,1.744223483e-14,2.900199310e-14,7.994764102e-15,6.866571676e-15,3.997395723e-15,5.314581823e-14,9.710799107e-15,4.904927632e-15,2.930987264e-14,1.057421546e-13,1.019433608e-13,1.724998810e-14,1.214282679e-13,4.270642645e-14,9.731633735e-15,4.180605400e-15,4.063184326e-15,1.383196983e-14
1.4688,4.797168312e-14,1.002904477e-14,1.035924206e-14,7.709595892e-14,1.266831221e-14,3.665386728e-14,1.911259617e-14,7.118719981e-15,8.438439257e-15,2.261276062e-15,2.977618396e-15,5.302617431e-15,8.235966296e-15,4.332473335e-15,1.073603707e-14,2.012798006e-14,6.284838809e-15,5.786808076e-15,3.681336161e-15,5.759409225e-14,7.569861960e-15,6.183249280e-15,2.941570539e-14,1.116818975e-13,8.319251778e-14,2.047913806e-14,1.241115120e-13,4.210162881e-14,1.342343395e-14,6.058733303e-15,4.795206664e-15,1.530656155e-14
1.4766,3.931758599e-14,1.012123086e-14,1.010045546e-14,7.508501089e-14,1.266024682e-14,3.562382197e-14,2.024310885e-14,7.508834730e-15,9.318654488e-15,3.073546853e-15,3.133338385e-15,4.898579563e-15,9.553495920e-15,4.428016302e-15,6.497450175e-15,1.551840904e-14,6.307550740e-15,5.358860644e-15,3.247197178e-15,6.102198904e-14,6.447281008e-15,7.377021009e-15,3.000618346e-14,1.226767489e-13,7.094505007e-14,2.470831192e-14,1.224188250e-13,4.174416764e-14,1.834812096e-14,8.368562312e-15,5.761483607e-15,1.569303380e-14
1.4844,3.293025250e-14,9.747708660e-15,1.007050493e-14,6.881367516e-14,1.187372825e-14,3.361260838e-14,2.262930383e-14,7.620216986e-15,9.663019406e-15,4.328331610e-15,3.900908569e-15,5.256319795e-15,9.989540762e-15,4.269021375e-15,4.073904249e-15,1.364422452e-14,7.832040319e-15,5.725420200e-15,2.806965520e-15,6.322387988e-14,6.173486372e-15,8.267110174e-15,3.091616376e-14,1.350277271e-13,6.346992646e-14,2.923901278e-14,1.169040723e-13,4.134830699e-14,2.410718228e-14,1.080349402e-14,6.975713066e-15,1.527279401e-14
1.4922,2.924592155e-14,9.330333082e-15,1.039930398e-14,6.022256074e-14,1.046973872e-14,3.120944790e-14,2.630294638e-14,7.535431318e-15,9.510325000e-15,6.190209225e-15,5.491300041e-15,6.199798493e-15,9.866985536e-15,4.037545443e-15,2.983005207e-15,1.357322770e-14,1.118262340e-14,7.116962491e-15,2.392499868e-15,6.401203411e-14,6.501242246e-15,8.675621426e-15,3.180227834e-14,1.437471932e-13,5.800004338e-14,3.350605311e-14,1.066019637e-13,4.012958966e-14,2.994047452e-14,1.329888737e-14,8.254475276e-15,1.403364401e-14
1.5,2.846833905e-14,8.653576350e-15,1.137779195e-14,4.988496612e-14,8.425339671e-15,2.867511079e-14,3.051594944e-14,7.002259517e-15,8.594930865e-15,8.414878852e-15,8.056663205e-15,7.616885701e-15,9.213771234e-15,3.612656813e-15,2.945989930e-15,1.507513365e-14,1.681513690e-14,9.826096570e-15,2.058647691e-15,6.455428103e-14,7.408227966e-15,8.415232361e-15,3.304238101e-14,1.482949598e-13,5.406727437e-14,3.747305502e-14,9.390009355e-14,3.723836441e-14,3.591108005e-14,1.550049037e-14,9.847900145e-15,1.180065215e-14
1.5078,2.996416510e-14,7.563721504e-15,1.388224279e-14,3.958628894e-14,6.408414426e-15,2.693184595e-14,3.426322264e-14,6.334242922e-15,7.233623660e-15,1.091302744e-14,1.141235876e-14,9.572217650e-15,8.018443648e-15,2.963251004e-15,3.438908071e-15,1.676436953e-14,2.437817411e-14,1.355740499e-14,2.053747808e-15,6.573121217e-14,8.980650335e-15,7.597822074e-15,3.417608043e-14,1.481403195e-13,5.173258849e-14,4.057977401e-14,8.062401857e-14,3.284016357e-14,4.158988426e-14,1.726517163e-14,1.185576374e-14,9.312197383e-15
1.5156,3.482371386e-14,6.336056551e-15,1.703670588e-14,3.157931013e-14,4.813106985e-15,2.688842484e-14,3.658818970e-14,5.773624522e-15,5.771297633e-15,1.325460372e-14,1.485590921e-14,1.180117465e-14,6.635971688e-15,2.478560130e-15,4.330901940e-15,1.837105682e-14,3.339778179e-14,1.818607741e-14,2.177178629e-15,6.631466282e-14,1.051856199e-14,6.595175999e-15,3.596739620e-14,1.435640424e-13,5.378650139e-14,4.169891273e-14,6.694214803e-14,2.772109836e-14,4.539900332e-14,1.847029669e-14,1.328161399e-14,6.948774350e-15
1.5234,4.205965780e-14,5.306076554e-15,2.110542544e-14,2.568222361e-14,3.602537606e-15,2.877244698e-14,3.697779459e-14,5.481910049e-15,4.459316285e-15,1.510456346e-14,1.792615821e-14,1.379949875e-14,5.498762709e-15,2.407677358e-15,5.478461028e-15,1.935200641e-14,4.305029720e-14,2.327115434e-14,2.433105408e-15,6.688337077e-14,1.218749702e-14,5.722883373e-15,3.854526959e-14,1.334499976e-13,6.307588211e-14,4.101857193e-14,5.362842044e-14,2.341691685e-14,4.708683908e-14,1.916806819e-14,1.406257110e-14,4.904974022e-15
1.5312,5.076797421e-14,4.860824457e-15,2.534381100e-14,2.202821535e-14,2.955224888e-15,3.233698736e-14,3.610572590e-14,5.534192642e-15,3.367869677e-15,1.599266955e-14,2.017475364e-14,1.535098436e-14,4.861099750e-15,2.789827816e-15,6.851197643e-15,1.988269245e-14,5.182332262e-14,2.778374949e-14,2.869319220e-15,6.704982510e-14,1.382644791e-14,5.218414373e-15,4.188758056e-14,1.207510371e-13,8.261686453e-14,3.834173068e-14,4.155537857e-14,2.112975294e-14,4.639241001e-14,1.935427136e-14,1.395446100e-14,3.241783643e-15
1.5391,6.078992861e-14,5.380985314e-15,3.118706996e-14,2.010879114e-14,2.637770055e-15,3.702839767e-14,3.418841830e-14,5.861527106e-15,2.567749547e-15,1.596718458e-14,2.100541547e-14,1.649792863e-14,4.679138914e-15,3.558301055e-15,8.205281263e-15,1.956098964e-14,5.851364778e-14,3.105102468e-14,3.583249004e-15,6.615883049e-14,1.542024632e-14,5.341384098e-15,4.610639420e-14,1.053820317e-13,1.145500854e-13,3.405400280e-14,3.178422029e-14,2.105999393e-14,4.347023809e-14,1.917891773e-14,1.289908471e-14,2.052825436e-15
1.5469,7.207103359e-14,6.958013792e-15,3.970307502e-14,1.899011643e-14,2.582448525e-15,4.176045881e-14,3.178972604e-14,6.452062277e-15,2.078576502e-15,1.493528564e-14,2.018907560e-14,1.738647496e-14,4.968052379e-15,4.697363349e-15,9.510405831e-15,1.855519495e-14,6.155762025e-14,3.236458717e-14,4.579702325e-15,6.430308047e-14,1.704833861e-14,6.150269111e-15,5.078838413e-14,8.900410640e-14,1.583087912e-13,2.874904283e-14,2.363099341e-14,2.464185308e-14,3.845653482e-14,1.873749575e-14,1.113457229e-14,1.327727918e-15
1.5547,8.552384295e-14,9.672960127e-15,5.630768499e-14,1.835085980e-14,2.558939680e-15,4.578804543e-14,3.057514656e-14,7.532211238e-15,1.824726279e-15,1.304865472e-14,1.869477524e-14,1.798528044e-14,5.804090712e-15,6.060547012e-15,1.062482274e-14,1.706097576e-14,6.011717194e-14,3.161309987e-14,6.062934226e-15,6.198602840e-14,1.902726106e-14,7.631226538e-15,5.549792980e-14,7.473486050e-14,2.131466803e-13,2.299730463e-14,1.727366542e-14,3.075536121e-14,3.245577261e-14,1.798991880e-14,9.010524621e-15,8.845662917e-16
1.5625,1.002903511e-13,1.403306099e-14,8.692741361e-14,1.781623285e-14,2.658632213e-15,4.748829194e-14,3.105845237e-14,8.935774455e-15,1.689310284e-15,1.098704241e-14,1.738306887e-14,1.803159123e-14,7.021991097e-15,7.447318466e-15,1.164956559e-14,1.575022484e-14,5.535449674e-14,2.925766330e-14,8.374196847e-15,6.041984831e-14,2.210660851e-14,9.590145558e-15,5.907883529e-14,6.527416222e-14,2.753273302e-13,1.757975499e-14,1.332941707e-14,3.780847320e-14,2.636143856e-14,1.734905314e-14,7.289679169e-15,7.898743422e-16
1.5703,1.168015521e-13,1.909424464e-14,1.376662549e-13,1.756971345e-14,2.740828883e-15,4.629336726e-14,3.220668764e-14,1.081978705e-14,1.646871778e-15,9.411890034e-15,1.675397291e-14,1.800797804e-14,8.290568676e-15,8.585343589e-15,1.236929309e-14,1.476757773e-14,4.822406525e-14,2.573621011e-14,1.114096801e-14,5.960868619e-14,2.624487724e-14,1.162786531e-14,6.036520107e-14,6.073452622e-14,3.400016951e-13,1.287147602e-14,1.080654634e-14,4.412206044e-14,2.137079145e-14,1.683741662e-14,6.124782842e-15,1.029211850e-15
1.5781,1.334597464e-13,2.399490594e-14,2.125460968e-13,1.684733911e-14,2.817040287e-15,4.201580728e-14,3.428063347e-14,1.306498164e-14,1.620961036e-15,8.739938467e-15,1.761846206e-14,1.818578409e-14,9.689902148e-15,9.574608815e-15,1.287669022e-14,1.469001919e-14,3.998740817e-14,2.253900916e-14,1.449787991e-14,5.971833502e-14,3.174283334e-14,1.345945622e-14,5.919840124e-14,6.349527836e-14,4.065485357e-13,9.014455076e-15,9.485160295e-15,4.799718809e-14,1.792750385e-14,1.663246097e-14,5.709042394e-15,1.648485688e-15
1.5859,1.505391463e-13,2.803389010e-14,3.106680644e-13,1.609115575e-14,2.971737057e-15,3.555841703e-14,3.658856908e-14,1.575096560e-14,1.601221572e-15,8.972360367e-15,1.987639421e-14,1.852084901e-14,1.118340778e-14,1.047250198e-14,1.333895705e-14,1.616094826e-14,3.340110030e-14,2.130580487e-14,1.819504075e-14,6.086417404e-14,3.868594687e-14,1.471281120e-14,5.523777606e-14,7.184424456e-14,4.718568286e-13,6.072827861e-15,8.996703650e-15,4.826479501e-14,1.611682763e-14,1.699872094e-14,5.845560316e-15,2.640084733e-15
1.5938,1.639690699e-13,3.143037019e-14,4.240560738e-13,1.551173963e-14,3.441822184e-15,2.783231236e-14,3.787689606e-14,1.843121285e-14,1.568202886e-15,9.942403978e-15,2.363139239e-14,1.848563682e-14,1.258208400e-14,1.128936839e-14,1.403146294e-14,1.954927124e-14,3.068443615e-14,2.339097668e-14,2.169717725e-14,6.298338779e-14,4.701858228e-14,1.526369698e-14,4.882107312e-14,8.544145062e-14,5.326003037e-13,4.195978718e-15,8.922207197e-15,4.373415920e-14,1.588887180e-14,1.820980662e-14,6.505038236e-15,4.025803547e-15
1.6016,1.701345501e-13,3.294016807e-14,5.395277988e-13,1.500179989e-14,4.016557850e-15,1.988888102e-14,3.823003446e-14,2.096917907e-14,1.666966638e-15,1.135572976e-14,2.712039793e-14,1.782707887e-14,1.369483669e-14,1.189279471e-14,1.433509082e-14,2.423858573e-14,3.153907878e-14,2.892263196e-14,2.420869169e-14,6.462775305e-14,5.547496897e-14,1.487483484e-14,4.089757481e-14,1.035156112e-13,5.852603639e-13,3.144817625e-15,9.273003944e-15,3.635962290e-14,1.698373995e-14,1.998505533e-14,7.201223469e-15,5.742548300e-15
1.6094,1.702405731e-13,3.184580252e-14,6.426583142e-13,1.460976759e-14,5.103676899e-15,1.327639396e-14,3.735338200e-14,2.237368231e-14,1.828075648e-15,1.257058155e-14,3.027682646e-14,1.671168001e-14,1.443973485e-14,1.254831789e-14,1.465627160e-14,3.019026106e-14,3.595739904e-14,3.794612729e-14,2.615053248e-14,6.594279151e-14,6.395150727e-14,1.364805745e-14,3.309444019e-14,1.262329892e-13,6.281462075e-13,2.837113312e-15,9.875131442e-15,2.804068456e-14,1.906251648e-14,2.220061030e-14,8.096881411e-15,7.514186240e-15
1.6172,1.640639334e-13,2.905758265e-14,7.231600859e-13,1.483438412e-14,6.438205170e-15,1.013572553e-14,3.641300824e-14,2.257566926e-14,2.191553970e-15,1.327032744e-14,3.288536831e-14,1.548899076e-14,1.501867241e-14,1.345162400e-14,1.513069226e-14,3.679390974e-14,4.270703463e-14,4.889461926e-14,2.751770504e-14,6.614857325e-14,7.123867462e-14,1.188444784e-14,2.613554837e-14,1.536377735e-13,6.587697114e-13,3.042725810e-15,1.081280149e-14,2.062064425e-14,2.216826808e-14,2.488680227e-14,8.874057206e-15,8.963669592e-15
1.625,1.495005621e-13,2.592339211e-14,7.644941045e-13,1.722020182e-14,8.131442286e-15,1.201355599e-14,3.642435408e-14,2.164556773e-14,2.660887526e-15,1.341598609e-14,3.417545601e-14,1.359913871e-14,1.530973537e-14,1.416752576e-14,1.487378066e-14,4.239857920e-14,4.912644187e-14,5.953940500e-14,2.758153752e-14,6.482369868e-14,7.618287296e-14,9.930575743e-15,2.112067665e-14,1.857548421e-13,6.686649245e-13,3.568107321e-15,1.238689257e-14,1.608001857e-14,2.560977970e-14,2.751568701e-14,9.505031629e-15,1.008944487e-14
1.6328,1.302396778e-13,2.266372639e-14,7.680074697e-13,2.468743013e-14,1.017483492e-14,2.092258917e-14,3.764997945e-14,2.043121360e-14,3.362220885e-15,1.287246810e-14,3.422427537e-14,1.139691040e-14,1.505925583e-14,1.446677605e-14,1.420431400e-14,4.609115602e-14,5.305583408e-14,6.819827363e-14,2.627646293e-14,6.200823494e-14,7.741820548e-14,7.953015710e-15,1.788362727e-14,2.267610813e-13,6.559952029e-13,4.353389484e-15,1.503332423e-14,1.606305309e-14,2.991610342e-14,2.970376066e-14,9.834136196e-15,1.041457853e-14
1.6406,1.113082634e-13,1.882652084e-14,7.458374818e-13,4.049824922e-14,1.273084061e-14,3.889300250e-14,4.123875330e-14,1.983957704e-14,4.469973131e-15,1.197165790e-14,3.404170255e-14,9.600238315e-15,1.433919823e-14,1.432910064e-14,1.312765545e-14,4.711089048e-14,5.384692206e-14,7.279568535e-14,2.429069935e-14,5.792125104e-14,7.497223028e-14,6.155893481e-15,1.632032959e-14,2.729963457e-13,6.211103847e-13,5.075961028e-15,1.837581761e-14,2.160457429e-14,3.497166857e-14,3.169173949e-14,9.746450623e-15,9.934317604e-15
1.6484,9.504643463e-14,1.561287477e-14,7.145475676e-13,6.865967981e-14,1.638723775e-14,6.803915825e-14,4.739393741e-14,2.176899349e-14,6.210594429e-15,1.122374923e-14,3.412159678e-14,9.020372513e-15,1.348674411e-14,1.392638424e-14,1.203020796e-14,4.549210198e-14,5.120782137e-14,7.223459560e-14,2.168686752e-14,5.292739288e-14,6.923082541e-14,4.789725173e-15,1.603630971e-14,3.235999125e-13,5.672106989e-13,5.703086056e-15,2.327949418e-14,3.270882856e-14,4.122156037e-14,3.382016293e-14,9.370013070e-15,9.223050313e-15
1.6562,8.289881910e-14,1.359174129e-14,6.834002496e-13,1.113766081e-13,2.166889232e-14,1.087704128e-13,5.585852020e-14,2.774845735e-14,8.702202744e-15,1.073596289e-14,3.469753853e-14,9.747202988e-15,1.248193351e-14,1.294731787e-14,1.098201212e-14,4.155436384e-14,4.550734908e-14,6.698422236e-14,1.836204514e-14,4.801421580e-14,6.014286466e-14,3.859782355e-15,1.690704056e-14,3.761943566e-13,4.960100156e-13,6.158811628e-15,2.987552856e-14,4.943799815e-14,4.821646383e-14,3.577214275e-14,8.967079343e-15,8.695388598e-15
1.6641,7.719837090e-14,1.197290168e-14,6.693632156e-13,1.690567770e-13,2.912601646e-14,1.590199162e-13,6.556277634e-14,3.888126614e-14,1.224252778e-14,1.068488009e-14,3.552312887e-14,1.244956090e-14,1.107621581e-14,1.144758532e-14,1.036442681e-14,3.540130513e-14,3.755568962e-14,5.783439086e-14,1.462082919e-14,4.383173482e-14,4.897524704e-14,3.170031619e-15,1.915543234e-14,4.277099295e-13,4.131692449e-13,6.199938151e-15,3.735176542e-14,7.074577949e-14,5.549191014e-14,3.774720047e-14,8.594679473e-15,8.865642136e-15
1.6719,7.774281960e-14,1.017008169e-14,6.814178727e-13,2.373018783e-13,3.901038762e-14,2.145923663e-13,7.576042285e-14,5.455183585e-14,1.682620858e-14,1.143443974e-14,3.662287383e-14,1.694707786e-14,9.505248467e-15,9.898330090e-15,1.071384870e-14,2.859331057e-14,2.953771057e-14,4.682916075e-14,1.122215257e-14,4.204849385e-14,3.809799162e-14,2.637116506e-15,2.340617538e-14,4.709731337e-13,3.296652630e-13,5.982658925e-15,4.547564297e-14,9.513456113e-14,6.305251775e-14,3.996494158e-14,8.845390471e-15,1.012369013e-14
1.6797,8.116239279e-14,8.715766899e-15,7.126751047e-13,3.079246849e-13,5.028013391e-14,2.713874346e-13,8.473748810e-14,7.389927906e-14,2.220759287e-14,1.300189422e-14,3.699353721e-14,2.296868374e-14,8.062451406e-15,8.753532422e-15,1.179285391e-14,2.195726525e-14,2.235579968e-14,3.521299101e-14,8.466175461e-15,4.300282200e-14,2.826643809e-14,2.306508975e-15,2.956329365e-14,5.008098199e-13,2.512406318e-13,5.540963441e-15,5.359181486e-14,1.199031753e-13,6.957862697e-14,4.176543618e-14,9.702848270e-15,1.238971316e-14
1.6875,8.699638554e-14,7.570458094e-15,7.542892163e-13,3.725898508e-13,6.223164021e-14,3.225982502e-13,9.061761534e-14,9.502576219e-14,2.814000138e-14,1.567733327e-14,3.583283012e-14,2.976851535e-14,6.676334576e-15,8.136780630e-15,1.342677480e-14,1.616205684e-14,1.686090197e-14,2.488741442e-14,6.466877318e-15,4.693030219e-14,2.045312124e-14,2.105328208e-15,3.723703356e-14,5.154632881e-13,1.831627474e-13,5.013520032e-15,6.146183599e-14,1.433495902e-13,7.446524998e-14,4.286314908e-14,1.131138328e-14,1.538106891e-14
