Time,Fp1,AF3,F7,F3,FC1,FC5,T7,C3,CP1,CP5,P7,P3,Pz,PO3,O1,Oz,O2,PO4,P4,P8,CP6,CP2,C4,T8,FC6,FC2,F4,F8,AF4,Fp2,Fz,Cz,
-0.10156,5.098885533e-14,1.302670329e-13,1.651473910e-13,1.548021447e-13,1.261805746e-13,9.467402352e-14,1.560283934e-13,4.171419508e-13,2.688077055e-13,6.890751713e-14,2.086178543e-13,3.209860702e-13,2.147838214e-13,2.748965702e-13,9.959414848e-14,1.123181023e-13,1.289238088e-13,1.420693831e-13,8.891246535e-14,5.451336144e-13,5.221601645e-14,3.327511884e-14,1.553059474e-13,1.813253258e-13,1.020724218e-13,6.790523657e-14,7.759017027e-14,1.311622973e-13,1.558333142e-13,4.910872822e-14,7.497101080e-14,4.709569497e-14
-0.09375,6.611793434e-14,1.523686584e-13,1.750677959e-13,1.866870806e-13,1.506122432e-13,1.087305923e-13,1.700428588e-13,4.900115612e-13,2.957548020e-13,8.319982094e-14,2.494101737e-13,3.476517370e-13,2.265965629e-13,3.025880777e-13,1.160575381e-13,1.260012646e-13,1.440624324e-13,1.694582592e-13,1.189379503e-13,6.310092966e-13,6.099414312e-14,4.149237644e-14,1.781102805e-13,2.184118389e-13,1.202484519e-13,9.089496984e-14,9.618030303e-14,1.463688376e-13,1.772336180e-13,5.871209909e-14,9.103493786e-14,5.789268354e-14
-0.085938,8.391825893e-14,1.753296037e-13,1.819702830e-13,2.228152517e-13,1.784852106e-13,1.247685381e-13,1.812969308e-13,5.639587406e-13,3.176252202e-13,9.962614507e-14,2.928833744e-13,3.690981082e-13,2.355338355e-13,3.268042255e-13,1.340743819e-13,1.396553982e-13,1.590485603e-13,2.012307332e-13,1.555251299e-13,7.196590190e-13,7.170710579e-14,5.158365762e-14,1.987322594e-13,2.545171327e-13,1.394542158e-13,1.198644299e-13,1.202607319e-13,1.582117818e-13,2.010759479e-13,7.061085154e-14,1.111204952e-13,6.994488070e-14
-0.078125,1.041015335e-13,1.991302228e-13,1.871972910e-13,2.642563468e-13,2.117847595e-13,1.441146153e-13,1.890052507e-13,6.368838586e-13,3.334642204e-13,1.191209562e-13,3.364197182e-13,3.851958455e-13,2.427187209e-13,3.490317697e-13,1.534770904e-13,1.531739314e-13,1.736038649e-13,2.386521311e-13,1.994950969e-13,8.081132341e-13,8.540612369e-14,6.314749140e-14,2.159406283e-13,2.876793466e-13,1.588933572e-13,1.548126045e-13,1.518745476e-13,1.674405945e-13,2.292671402e-13,8.493132243e-14,1.369270836e-13,8.349008633e-14
-0.070312,1.284285250e-13,2.252111603e-13,1.926401854e-13,3.133824004e-13,2.518286441e-13,1.690715843e-13,1.935197677e-13,7.046625853e-13,3.411992447e-13,1.418963989e-13,3.773053519e-13,3.959743297e-13,2.494978854e-13,3.726744799e-13,1.760806123e-13,1.678160146e-13,1.889949888e-13,2.846545157e-13,2.529320855e-13,8.915869609e-13,1.026652173e-13,7.656358423e-14,2.285190658e-13,3.185351901e-13,1.789279115e-13,1.955417395e-13,1.923902945e-13,1.751002928e-13,2.629344587e-13,1.021089103e-13,1.699146345e-13,9.794437611e-14
-0.0625,1.576200048e-13,2.555257607e-13,2.030722749e-13,3.728352780e-13,3.010572356e-13,2.006764484e-13,1.948912897e-13,7.642611639e-13,3.409102141e-13,1.676952718e-13,4.124988481e-13,4.030513285e-13,2.584726810e-13,4.000177727e-13,2.039471630e-13,1.876302873e-13,2.095107721e-13,3.436291749e-13,3.169030125e-13,9.657055323e-13,1.242558489e-13,9.145043895e-14,2.353622295e-13,3.421129975e-13,1.995980188e-13,2.423175526e-13,2.441288018e-13,1.832862499e-13,3.057587612e-13,1.220580830e-13,2.139462423e-13,1.129061834e-13
-0.054688,1.930142715e-13,2.916509668e-13,2.184551672e-13,4.445635992e-13,3.623229899e-13,2.394376716e-13,1.941640976e-13,8.137143222e-13,3.346973931e-13,1.954958333e-13,4.401677806e-13,4.084762131e-13,2.715596505e-13,4.324667990e-13,2.350811424e-13,2.135885916e-13,2.368527538e-13,4.155404770e-13,3.906607217e-13,1.026189236e-12,1.503089359e-13,1.072091431e-13,2.347753619e-13,3.582597985e-13,2.187329461e-13,2.936756750e-13,3.075433847e-13,1.931627153e-13,3.589549547e-13,1.434525196e-13,2.707421750e-13,1.276372143e-13
-0.046875,2.364509839e-13,3.351986653e-13,2.379896371e-13,5.311776980e-13,4.372095775e-13,2.874486174e-13,1.920133616e-13,8.525874690e-13,3.249868135e-13,2.245834331e-13,4.601420264e-13,4.142856124e-13,2.921608351e-13,4.741891442e-13,2.702451798e-13,2.455568501e-13,2.706978556e-13,5.031992600e-13,4.769138055e-13,1.074012828e-12,1.808688269e-13,1.243771752e-13,2.277752693e-13,3.672365073e-13,2.368125551e-13,3.476705172e-13,3.823982549e-13,2.045101294e-13,4.226252174e-13,1.657779603e-13,3.410865991e-13,1.418659412e-13
-0.039062,2.893232533e-13,3.873314094e-13,2.622229514e-13,6.328203349e-13,5.266865751e-13,3.440081352e-13,1.889434880e-13,8.836780486e-13,3.151647596e-13,2.537880618e-13,4.739224758e-13,4.217301532e-13,3.239077505e-13,5.254790548e-13,3.094383631e-13,2.839498347e-13,3.112679552e-13,6.071483077e-13,5.759034253e-13,1.112387490e-12,2.155628627e-13,1.440992165e-13,2.169863738e-13,3.700933547e-13,2.539832793e-13,4.038942599e-13,4.679398163e-13,2.188798264e-13,4.981896493e-13,1.882242121e-13,4.260672062e-13,1.557187901e-13
-0.03125,3.514358754e-13,4.490271020e-13,2.885550540e-13,7.507966947e-13,6.290877694e-13,4.083376113e-13,1.865043724e-13,9.050287266e-13,3.074964964e-13,2.816000906e-13,4.820701255e-13,4.320110496e-13,3.693780644e-13,5.849192391e-13,3.483819721e-13,3.277534905e-13,3.568238670e-13,7.220012366e-13,6.807194192e-13,1.139471518e-12,2.521472840e-13,1.672314253e-13,2.028246115e-13,3.657878561e-13,2.676338819e-13,4.569174945e-13,5.583824563e-13,2.369738552e-13,5.823931964e-13,2.096796406e-13,5.218224828e-13,1.671287905e-13
-0.023438,4.258695504e-13,5.244004353e-13,3.183992026e-13,8.895901558e-13,7.438471897e-13,4.806600884e-13,1.849328862e-13,9.137803025e-13,3.051405192e-13,3.069353999e-13,4.868224849e-13,4.461829158e-13,4.297931455e-13,6.534270795e-13,3.843257329e-13,3.752528906e-13,4.061986185e-13,8.457609081e-13,7.894719792e-13,1.150345756e-12,2.896377015e-13,1.955224867e-13,1.845274568e-13,3.593672423e-13,2.759968894e-13,5.010237500e-13,6.488192057e-13,2.598455624e-13,6.735360774e-13,2.307833320e-13,6.265186685e-13,1.748097814e-13
-0.015625,5.130558250e-13,6.150747584e-13,3.565111885e-13,1.048527985e-12,8.675291199e-13,5.582577057e-13,1.845355560e-13,9.127821258e-13,3.101613164e-13,3.268773483e-13,4.920566329e-13,4.632843057e-13,5.048252298e-13,7.309005685e-13,4.208486893e-13,4.279525368e-13,4.607990641e-13,9.823238662e-13,9.037465601e-13,1.150615304e-12,3.262294049e-13,2.308720869e-13,1.645753937e-13,3.522109156e-13,2.806625418e-13,5.352070764e-13,7.347530044e-13,2.874947820e-13,7.709800868e-13,2.522566790e-13,7.394325778e-13,1.796476984e-13
-0.0078125,6.104049502e-13,7.181283495e-13,4.019228804e-13,1.223459120e-12,9.966309930e-13,6.394790999e-13,1.843494255e-13,9.044994520e-13,3.232058755e-13,3.411769696e-13,5.005071100e-13,4.824771339e-13,5.932169790e-13,8.158556435e-13,4.613342271e-13,4.883197320e-13,5.221054776e-13,1.131494874e-12,1.020222103e-12,1.152610774e-12,3.602748325e-13,2.735902866e-13,1.458032931e-13,3.455837446e-13,2.814224639e-13,5.609318401e-13,8.130003973e-13,3.175980717e-13,8.722098976e-13,2.738041685e-13,8.589516892e-13,1.839260878e-13
0,7.193400261e-13,8.343439400e-13,4.548385852e-13,1.414766331e-12,1.128505536e-12,7.232705386e-13,1.829740614e-13,8.883488672e-13,3.446309867e-13,3.523088201e-13,5.128868246e-13,5.052020779e-13,6.927238645e-13,9.089767737e-13,5.067815387e-13,5.592111940e-13,5.910193165e-13,1.293723874e-12,1.136899072e-12,1.159950337e-12,3.911638413e-13,3.247769728e-13,1.302165685e-13,3.444916665e-13,2.783393485e-13,5.772287862e-13,8.820673328e-13,3.496932966e-13,9.767655978e-13,2.962276339e-13,9.838060456e-13,1.893838600e-13
0.0078125,8.346974621e-13,9.581905821e-13,5.168845621e-13,1.613445929e-12,1.256123226e-12,8.037892771e-13,1.796694134e-13,8.625550160e-13,3.724599895e-13,3.607563749e-13,5.283606085e-13,5.311745440e-13,7.963063484e-13,1.006187217e-12,5.559881398e-13,6.377378120e-13,6.627476126e-13,1.462766544e-12,1.249511369e-12,1.173750397e-12,4.179160687e-13,3.828838037e-13,1.187997364e-13,3.521948208e-13,2.728393420e-13,5.818066601e-13,9.359030154e-13,3.813990588e-13,1.079403698e-12,3.192155534e-13,1.107760824e-12,1.967279604e-13
0.015625,9.498555951e-13,1.080919885e-12,5.804200727e-13,1.807940707e-12,1.375463936e-12,8.782720683e-13,1.747360037e-13,8.274522381e-13,4.044750627e-13,3.670073889e-13,5.444826317e-13,5.605651013e-13,8.989041545e-13,1.105382546e-12,6.086320527e-13,7.168955029e-13,7.319640434e-13,1.628440224e-12,1.353503684e-12,1.196789456e-12,4.404461810e-13,4.451094092e-13,1.121935994e-13,3.718637609e-13,2.657221348e-13,5.770951661e-13,9.720234983e-13,4.073388223e-13,1.173940457e-12,3.413533657e-13,1.227479750e-12,2.083592682e-13
0.023438,1.061472884e-12,1.195926888e-12,6.408566548e-13,1.988957773e-12,1.485672215e-12,9.472785143e-13,1.687334555e-13,7.844865276e-13,4.378021682e-13,3.720074016e-13,5.601434475e-13,5.946408434e-13,9.948493029e-13,1.209008353e-12,6.691246320e-13,7.939032290e-13,7.988872621e-13,1.785172305e-12,1.446811395e-12,1.230722851e-12,4.592613300e-13,5.092757595e-13,1.113156705e-13,4.067620210e-13,2.579714235e-13,5.666192613e-13,9.938077241e-13,4.251690120e-13,1.258484461e-12,3.609215378e-13,1.342184009e-12,2.261252676e-13
0.03125,1.159629967e-12,1.292754119e-12,6.909607537e-13,2.142249730e-12,1.582433654e-12,1.008076708e-12,1.627113012e-13,7.314269459e-13,4.659201552e-13,3.754758399e-13,5.714010651e-13,6.287351459e-13,1.073926274e-12,1.312601777e-12,7.363615151e-13,8.677006202e-13,8.630601826e-13,1.923973810e-12,1.522255986e-12,1.271876483e-12,4.731941589e-13,5.680797455e-13,1.167911077e-13,4.558615828e-13,2.505619036e-13,5.525018426e-13,9.991032457e-13,4.323487164e-13,1.325480167e-12,3.743967137e-13,1.444956599e-12,2.495458395e-13
0.039062,1.239699595e-12,1.364671792e-12,7.245671719e-13,2.258455648e-12,1.665158697e-12,1.059860732e-12,1.588735917e-13,6.711703609e-13,4.850781988e-13,3.771313299e-13,5.773990584e-13,6.607580562e-13,1.128330246e-12,1.413889087e-12,8.083684097e-13,9.353456966e-13,9.207703895e-13,2.037087167e-12,1.575646427e-12,1.316409316e-12,4.829110590e-13,6.174298699e-13,1.282919916e-13,5.157897654e-13,2.432957476e-13,5.368283688e-13,9.887734615e-13,4.282072593e-13,1.371045865e-12,3.794144488e-13,1.533253074e-12,2.786921663e-13
0.046875,1.296545040e-12,1.405137227e-12,7.382311680e-13,2.330156327e-12,1.736190694e-12,1.101331190e-12,1.591153969e-13,6.077556153e-13,4.921484682e-13,3.777088002e-13,5.784401737e-13,6.882650434e-13,1.154080307e-12,1.510598970e-12,8.821521251e-13,9.910479630e-13,9.693809664e-13,2.115476171e-12,1.605730896e-12,1.358948879e-12,4.894564399e-13,6.560927568e-13,1.455481192e-13,5.823645329e-13,2.368245172e-13,5.227596396e-13,9.680084908e-13,4.123077578e-13,1.392358140e-12,3.751225139e-13,1.606506820e-12,3.107182353e-13
0.054688,1.324922812e-12,1.410360365e-12,7.316058217e-13,2.351927791e-12,1.791851244e-12,1.132292175e-12,1.644954958e-13,5.445963014e-13,4.866184579e-13,3.766166118e-13,5.735019592e-13,7.092021218e-13,1.148387734e-12,1.599167754e-12,9.531496537e-13,1.031314188e-12,1.007680929e-12,2.154656934e-12,1.611780961e-12,1.389971118e-12,4.922351357e-13,6.821632200e-13,1.669857817e-13,6.465294268e-13,2.320473904e-13,5.113531413e-13,9.404225600e-13,3.853965014e-13,1.389352535e-12,3.625437504e-13,1.661087860e-12,3.426395453e-13
0.0625,1.328755453e-12,1.384156782e-12,7.082971272e-13,2.328277344e-12,1.832523606e-12,1.153535664e-12,1.757761075e-13,4.840509923e-13,4.667221019e-13,3.737709402e-13,5.635392594e-13,7.214769647e-13,1.110734622e-12,1.679661240e-12,1.019554661e-12,1.058096908e-12,1.037251878e-12,2.159630041e-12,1.598400864e-12,1.406513068e-12,4.918870038e-13,6.963659929e-13,1.918506019e-13,7.050306292e-13,2.292523372e-13,5.028663931e-13,9.110725648e-13,3.483540609e-13,1.365908370e-12,3.432122824e-13,1.699828375e-12,3.696155942e-13
0.070312,1.309222714e-12,1.328296237e-12,6.721482596e-13,2.262383886e-12,1.854112124e-12,1.163497567e-12,1.923871102e-13,4.303643794e-13,4.345563767e-13,3.680422624e-13,5.489488783e-13,7.203943950e-13,1.048326938e-12,1.749930031e-12,1.080153466e-12,1.071783743e-12,1.056891891e-12,2.136838590e-12,1.569053489e-12,1.404947817e-12,4.868661161e-13,7.007938708e-13,2.182947512e-13,7.465528429e-13,2.290117011e-13,4.961847893e-13,8.803354265e-13,3.042388830e-13,1.322709577e-12,3.186566783e-13,1.720401631e-12,3.901212694e-13
0.078125,1.274959124e-12,1.250200230e-12,6.332353388e-13,2.162048710e-12,1.851607572e-12,1.162556145e-12,2.118301890e-13,3.867792095e-13,3.943969989e-13,3.589831084e-13,5.298151468e-13,7.070779715e-13,9.686192968e-13,1.812567936e-12,1.133686235e-12,1.075081662e-12,1.066503156e-12,2.095125252e-12,1.527284426e-12,1.380511547e-12,4.766617716e-13,6.971348003e-13,2.438547796e-13,7.689974691e-13,2.297538234e-13,4.903152149e-13,8.491838876e-13,2.599431602e-13,1.264531919e-12,2.906485359e-13,1.723243643e-12,4.028944010e-13
0.085938,1.233845156e-12,1.158353158e-12,5.974076600e-13,2.039394884e-12,1.821363633e-12,1.153164213e-12,2.294688523e-13,3.541231293e-13,3.486167215e-13,3.478123626e-13,5.053635598e-13,6.801462086e-13,8.792651235e-13,1.864835261e-12,1.178434840e-12,1.069038478e-12,1.065846775e-12,2.044477957e-12,1.479479849e-12,1.327739014e-12,4.601365213e-13,6.877373004e-13,2.679882623e-13,7.685679766e-13,2.317690749e-13,4.817858455e-13,8.180879051e-13,2.193534637e-13,1.192458552e-12,2.629884399e-13,1.706951118e-12,4.043303279e-13
0.09375,1.189472630e-12,1.061737037e-12,5.738277524e-13,1.908220324e-12,1.763755667e-12,1.137126811e-12,2.418022654e-13,3.337533775e-13,3.023675461e-13,3.356699655e-13,4.751377123e-13,6.439573296e-13,7.916945698e-13,1.911229461e-12,1.216555623e-12,1.058623480e-12,1.057029690e-12,1.997431827e-12,1.429092610e-12,1.251968320e-12,4.371935411e-13,6.725869583e-13,2.891804571e-13,7.492525698e-13,2.358343934e-13,4.686790059e-13,7.909318855e-13,1.848420624e-13,1.115043807e-12,2.378643784e-13,1.673075593e-12,3.946750132e-13
0.10156,1.152905839e-12,9.721224591e-13,5.706909922e-13,1.784522104e-12,1.686285182e-12,1.121888605e-12,2.474712143e-13,3.234318572e-13,2.577392500e-13,3.234989167e-13,4.393267435e-13,6.026358284e-13,7.119250173e-13,1.957865262e-12,1.257962967e-12,1.052757852e-12,1.046392640e-12,1.966604257e-12,1.383301482e-12,1.162050915e-12,4.099872753e-13,6.550110909e-13,3.066406938e-13,7.156543244e-13,2.426468713e-13,4.512421314e-13,7.713883953e-13,1.598182376e-13,1.039798444e-12,2.170316607e-13,1.627674574e-12,3.760605011e-13
0.10938,1.125065139e-12,8.958812047e-13,5.937866472e-13,1.676626771e-12,1.592905849e-12,1.108344324e-12,2.462243936e-13,3.207089161e-13,2.180568287e-13,3.129097044e-13,4.020992324e-13,5.604917030e-13,6.436872570e-13,2.003865652e-12,1.307665000e-12,1.059132627e-12,1.040770999e-12,1.958594788e-12,1.346718519e-12,1.071434395e-12,3.811877422e-13,6.334686648e-13,3.189440574e-13,6.721793711e-13,2.511676254e-13,4.313668115e-13,7.631211915e-13,1.461334134e-13,9.731471610e-13,2.020443170e-13,1.575318144e-12,3.526044941e-13
0.11719,1.110447339e-12,8.351848817e-13,6.463089293e-13,1.583680558e-12,1.486749461e-12,1.095129450e-12,2.376285060e-13,3.230978096e-13,1.877405531e-13,3.054926397e-13,3.629105932e-13,5.234357582e-13,5.931073103e-13,2.049160480e-12,1.361850847e-12,1.076569378e-12,1.040254577e-12,1.968222508e-12,1.315297820e-12,9.815452514e-13,3.512515313e-13,6.097922153e-13,3.268314547e-13,6.280143533e-13,2.597201330e-13,4.088458766e-13,7.641329034e-13,1.445115168e-13,9.182266587e-13,1.924323361e-13,1.515471982e-12,3.278123223e-13
0.125,1.110241959e-12,7.907790186e-13,7.283307720e-13,1.502730981e-12,1.369462167e-12,1.081492955e-12,2.230392269e-13,3.260201755e-13,1.690129412e-13,3.024760552e-13,3.257618250e-13,4.983042165e-13,5.626070630e-13,2.093103831e-12,1.413303806e-12,1.094409502e-12,1.036477039e-12,1.986140714e-12,1.285445337e-12,8.886923644e-13,3.217649195e-13,5.883668894e-13,3.323837590e-13,5.873493261e-13,2.676758303e-13,3.819647058e-13,7.739592091e-13,1.543379985e-13,8.767527555e-13,1.884903581e-13,1.448824903e-12,3.042846123e-13
0.13281,1.120262441e-12,7.569196090e-13,8.343801847e-13,1.428088877e-12,1.244887890e-12,1.065359284e-12,2.045305757e-13,3.302385182e-13,1.624807771e-13,3.027757446e-13,2.916858507e-13,4.849338226e-13,5.488957583e-13,2.127647797e-12,1.454974519e-12,1.105537342e-12,1.023570516e-12,1.999229763e-12,1.250140529e-12,7.978410105e-13,2.939221202e-13,5.675424108e-13,3.361414017e-13,5.566198105e-13,2.726504500e-13,3.524953690e-13,7.925505547e-13,1.747310533e-13,8.500677352e-13,1.878259212e-13,1.375024438e-12,2.838858666e-13
0.14062,1.136585944e-12,7.324481489e-13,9.568530569e-13,1.360318458e-12,1.121676706e-12,1.045939595e-12,1.867299251e-13,3.350477879e-13,1.671807041e-13,3.072382296e-13,2.637423303e-13,4.849676615e-13,5.477531823e-13,2.146935439e-12,1.482859672e-12,1.106908213e-12,1.001434390e-12,1.997284860e-12,1.206436131e-12,7.129889073e-13,2.690957634e-13,5.486514117e-13,3.411348575e-13,5.361663888e-13,2.741553407e-13,3.202303716e-13,8.188055657e-13,2.042062201e-13,8.361946045e-13,1.892945905e-13,1.295475547e-12,2.670243379e-13
0.14844,1.150797815e-12,7.130619664e-13,1.085516215e-12,1.294924446e-12,1.007498360e-12,1.019700338e-12,1.726433085e-13,3.376706448e-13,1.809716200e-13,3.151240648e-13,2.429144988e-13,4.987582471e-13,5.569602761e-13,2.146226004e-12,1.495565923e-12,1.099521321e-12,9.734682781e-13,1.973378035e-12,1.156067584e-12,6.393628469e-13,2.487059025e-13,5.318972479e-13,3.481259746e-13,5.280617036e-13,2.720171131e-13,2.904501075e-13,8.545735735e-13,2.377406400e-13,8.367335951e-13,1.921320783e-13,1.217269038e-12,2.530026724e-13
0.15625,1.157433396e-12,6.940477925e-13,1.209315165e-12,1.222881112e-12,8.977328091e-13,9.814701570e-13,1.642782817e-13,3.377211221e-13,2.009343628e-13,3.229841499e-13,2.282042504e-13,5.221229390e-13,5.734700532e-13,2.120425347e-12,1.482514155e-12,1.078201317e-12,9.360163046e-13,1.916920428e-12,1.094227630e-12,5.724552909e-13,2.298872049e-13,5.174705728e-13,3.573297446e-13,5.296213012e-13,2.658540853e-13,2.622571410e-13,8.888792164e-13,2.729644575e-13,8.436762412e-13,1.951042046e-13,1.137158993e-12,2.413779933e-13
0.16406,1.146769503e-12,6.676904907e-13,1.314824315e-12,1.137651534e-12,7.925463824e-13,9.293268417e-13,1.607533020e-13,3.372583860e-13,2.233709653e-13,3.281381625e-13,2.179531945e-13,5.476998681e-13,5.915953211e-13,2.062284497e-12,1.434049292e-12,1.032342558e-12,8.829930903e-13,1.820015098e-12,1.018064181e-12,5.095284800e-13,2.128069847e-13,5.052026012e-13,3.684656002e-13,5.368981377e-13,2.552527878e-13,2.361392963e-13,9.136131518e-13,3.035084898e-13,8.469037256e-13,1.970955233e-13,1.054139101e-12,2.307529069e-13
0.17188,1.119644043e-12,6.336151982e-13,1.384444400e-12,1.042556075e-12,6.937736128e-13,8.645757974e-13,1.633990590e-13,3.368855199e-13,2.450477396e-13,3.300863687e-13,2.110063357e-13,5.680359794e-13,6.050708242e-13,1.963648135e-12,1.347029187e-12,9.610955769e-13,8.156280247e-13,1.683570810e-12,9.298814305e-13,4.508138531e-13,1.973915897e-13,4.950268007e-13,3.806096372e-13,5.436165510e-13,2.394219536e-13,2.136846111e-13,9.251845574e-13,3.260357607e-13,8.420896949e-13,1.976438808e-13,9.726932580e-13,2.203606499e-13
0.17969,1.068756708e-12,5.889709331e-13,1.416076242e-12,9.399383115e-13,6.019023503e-13,7.940208381e-13,1.733584643e-13,3.368310523e-13,2.610941890e-13,3.249898887e-13,2.041654248e-13,5.793738160e-13,6.076456396e-13,1.828276601e-12,1.229802954e-12,8.706596950e-13,7.386397202e-13,1.514465148e-12,8.315572557e-13,3.986522149e-13,1.828484690e-13,4.833272617e-13,3.922391973e-13,5.475017851e-13,2.207149149e-13,1.941082912e-13,9.184598720e-13,3.380271510e-13,8.218582889e-13,1.961788843e-13,8.890849057e-13,2.090221873e-13
0.1875,1.000832235e-12,5.379330011e-13,1.400740385e-12,8.368477798e-13,5.218469743e-13,7.235753633e-13,1.875053973e-13,3.376417255e-13,2.685608618e-13,3.128028681e-13,1.990737153e-13,5.792106135e-13,5.997985835e-13,1.668567168e-12,1.098465411e-12,7.737417270e-13,6.621860348e-13,1.331131005e-12,7.339489995e-13,3.567633301e-13,1.702119195e-13,4.696918092e-13,4.011866661e-13,5.447636367e-13,2.020916918e-13,1.802806433e-13,8.958907528e-13,3.338736890e-13,7.898502124e-13,1.945237137e-13,8.114988913e-13,1.938311662e-13
0.19531,9.217505174e-13,4.832553990e-13,1.348123414e-12,7.333692911e-13,4.487873577e-13,6.532866144e-13,2.032296071e-13,3.411645254e-13,2.666793088e-13,2.966570532e-13,1.950029213e-13,5.651025606e-13,5.815525459e-13,1.489193111e-12,9.608537782e-13,6.747589383e-13,5.870120466e-13,1.141767581e-12,6.383249770e-13,3.194947319e-13,1.582080975e-13,4.552136426e-13,4.057439622e-13,5.384896671e-13,1.838338076e-13,1.702300624e-13,8.536659497e-13,3.156910405e-13,7.442900722e-13,1.931824786e-13,7.391450499e-13,1.749098973e-13
0.20312,8.309334253e-13,4.232208808e-13,1.255233229e-12,6.286621487e-13,3.821954305e-13,5.873665935e-13,2.184197147e-13,3.452122903e-13,2.545950307e-13,2.782875186e-13,1.909562286e-13,5.356402945e-13,5.484273170e-13,1.292718995e-12,8.189260122e-13,5.718374189e-13,5.118835246e-13,9.496348723e-13,5.440688642e-13,2.798463042e-13,1.462203702e-13,4.380567696e-13,4.068777707e-13,5.199735121e-13,1.667001499e-13,1.619274371e-13,7.909503101e-13,2.866765967e-13,6.806276094e-13,1.911075282e-13,6.672852871e-13,1.544984574e-13
0.21094,7.436673463e-13,3.673627667e-13,1.130173427e-12,5.347469311e-13,3.269570064e-13,5.317155897e-13,2.333722101e-13,3.469848459e-13,2.359112492e-13,2.603928293e-13,1.887800455e-13,4.956535716e-13,5.056817835e-13,1.094721204e-12,6.857747875e-13,4.746580597e-13,4.423959899e-13,7.716500965e-13,4.596331778e-13,2.436517836e-13,1.360939729e-13,4.218421535e-13,4.038600503e-13,4.914583198e-13,1.520497475e-13,1.569801580e-13,7.171374177e-13,2.503794235e-13,6.112747977e-13,1.887623771e-13,6.054159165e-13,1.350312131e-13
0.21875,6.616480838e-13,3.170919051e-13,9.874482822e-13,4.515619908e-13,2.804781436e-13,4.857113803e-13,2.473029580e-13,3.465763132e-13,2.111152608e-13,2.449283968e-13,1.888646766e-13,4.467201672e-13,4.543616933e-13,9.048433085e-13,5.676085036e-13,3.878427333e-13,3.791606623e-13,6.133485911e-13,3.852576641e-13,2.110761436e-13,1.279301917e-13,4.040756488e-13,3.946259231e-13,4.520269903e-13,1.405945792e-13,1.543817460e-13,6.388496926e-13,2.108926301e-13,5.402510556e-13,1.854096891e-13,5.521339706e-13,1.158733620e-13
0.22656,5.851052081e-13,2.744177532e-13,8.362683228e-13,3.814553378e-13,2.425338577e-13,4.514098702e-13,2.595326992e-13,3.442453803e-13,1.833659922e-13,2.330393929e-13,1.914619252e-13,3.934274633e-13,4.000477449e-13,7.314659992e-13,4.666300327e-13,3.109879674e-13,3.216674094e-13,4.788425697e-13,3.219895417e-13,1.820130295e-13,1.221862506e-13,3.853972769e-13,3.805223158e-13,4.092558423e-13,1.319158105e-13,1.533221631e-13,5.632860879e-13,1.711290278e-13,4.723454038e-13,1.820962447e-13,5.072129647e-13,9.978528049e-14
0.23438,5.238330742e-13,2.438780266e-13,6.902540299e-13,3.286995705e-13,2.169639234e-13,4.263322328e-13,2.689407891e-13,3.377467267e-13,1.561798998e-13,2.271242230e-13,1.985959065e-13,3.421642716e-13,3.498197330e-13,5.838006668e-13,3.868811237e-13,2.472094430e-13,2.714386276e-13,3.721070534e-13,2.722433549e-13,1.585730047e-13,1.197437832e-13,3.699275931e-13,3.631085222e-13,3.673854667e-13,1.245508989e-13,1.550432878e-13,4.996880069e-13,1.357499855e-13,4.163445791e-13,1.784275839e-13,4.765243423e-13,8.659660355e-14
0.24219,4.744816721e-13,2.239526686e-13,5.583338475e-13,2.886913179e-13,2.002898589e-13,4.063228931e-13,2.752995820e-13,3.274092974e-13,1.321972415e-13,2.272311993e-13,2.094356659e-13,2.963601068e-13,3.073044932e-13,4.667325485e-13,3.269693828e-13,1.959809377e-13,2.272063345e-13,2.907615582e-13,2.334239361e-13,1.388598161e-13,1.192100654e-13,3.553397099e-13,3.423530629e-13,3.269262399e-13,1.188780410e-13,1.583716633e-13,4.515488903e-13,1.094593591e-13,3.734538538e-13,1.742474086e-13,4.572750589e-13,7.601262798e-14
0.25,4.354056694e-13,2.148053241e-13,4.445218406e-13,2.613536685e-13,1.936521179e-13,3.895895008e-13,2.794680692e-13,3.147778284e-13,1.133725505e-13,2.326055891e-13,2.248489038e-13,2.589605306e-13,2.746648679e-13,3.795859634e-13,2.840741443e-13,1.548358159e-13,1.886378101e-13,2.326226631e-13,2.044709509e-13,1.225097678e-13,1.207538248e-13,3.446398883e-13,3.211823257e-13,2.929621105e-13,1.134310742e-13,1.627555756e-13,4.236548750e-13,9.148893669e-14,3.460342312e-13,1.696083332e-13,4.512503718e-13,6.808294453e-14
0.25781,3.962895660e-13,2.111917758e-13,3.498428928e-13,2.431750365e-13,1.931615172e-13,3.700832135e-13,2.818223665e-13,2.999225406e-13,9.984302805e-14,2.426835100e-13,2.410762713e-13,2.283121657e-13,2.492911413e-13,3.096949558e-13,2.494393716e-13,1.205455020e-13,1.555179734e-13,1.905760489e-13,1.792740360e-13,1.074678650e-13,1.229223195e-13,3.355135063e-13,3.014741343e-13,2.620466669e-13,1.067170348e-13,1.672255294e-13,4.119539398e-13,8.248539089e-14,3.298382593e-13,1.634390827e-13,4.512834995e-13,6.262389942e-14
0.26562,3.567744756e-13,2.090068423e-13,2.735834371e-13,2.289301876e-13,1.948794347e-13,3.465257936e-13,2.846232365e-13,2.806952527e-13,9.148763774e-14,2.555543957e-13,2.561577631e-13,2.060913981e-13,2.316995246e-13,2.568671888e-13,2.191245604e-13,9.187805544e-14,1.254201098e-13,1.590824716e-13,1.550505964e-13,9.611944523e-14,1.250468924e-13,3.263899685e-13,2.842679828e-13,2.371474871e-13,9.932416521e-14,1.708840353e-13,4.125751698e-13,8.395033371e-14,3.234278566e-13,1.550343551e-13,4.523275770e-13,5.999681828e-14
0.27344,3.205050562e-13,2.083070457e-13,2.160687676e-13,2.189622986e-13,2.029703132e-13,3.174238925e-13,2.887735936e-13,2.568421339e-13,8.706025854e-14,2.700063547e-13,2.703259561e-13,1.898284623e-13,2.214265889e-13,2.204234961e-13,1.962913871e-13,7.165154505e-14,9.894988392e-14,1.392751944e-13,1.338300003e-13,8.927534228e-14,1.268002459e-13,3.188928475e-13,2.710816235e-13,2.174999161e-13,9.189094527e-14,1.747139459e-13,4.237824965e-13,9.590977940e-14,3.259848871e-13,1.446917091e-13,4.578108978e-13,5.909931038e-14
0.28125,2.833703257e-13,2.076088777e-13,1.723464204e-13,2.108314054e-13,2.150198933e-13,2.836212229e-13,2.953443916e-13,2.315084714e-13,8.621636497e-14,2.824396166e-13,2.831011719e-13,1.789480582e-13,2.174508378e-13,1.957509766e-13,1.779330862e-13,5.768518846e-14,7.715721180e-14,1.290256960e-13,1.151106677e-13,8.492931021e-14,1.274772974e-13,3.096778184e-13,2.610244276e-13,2.024355308e-13,8.509350838e-14,1.788475935e-13,4.424882484e-13,1.177562667e-13,3.345352497e-13,1.335547979e-13,4.644941779e-13,5.877294470e-14
0.28906,2.481767260e-13,2.073517125e-13,1.416453405e-13,2.081819040e-13,2.318026566e-13,2.512167199e-13,3.034977309e-13,2.059608203e-13,8.811097728e-14,2.903033880e-13,2.942096506e-13,1.735220086e-13,2.190631911e-13,1.801334777e-13,1.613647044e-13,4.665777579e-14,6.024779102e-14,1.259325175e-13,1.006734311e-13,8.478838380e-14,1.286175672e-13,2.981964534e-13,2.525513210e-13,1.938957062e-13,7.880281731e-14,1.827347929e-13,4.674737776e-13,1.481421597e-13,3.482802671e-13,1.225135681e-13,4.721517169e-13,5.828634372e-14
0.29688,2.126592084e-13,2.047476953e-13,1.245240984e-13,2.077031701e-13,2.504010856e-13,2.181772517e-13,3.106075473e-13,1.789509911e-13,9.127875746e-14,2.918267704e-13,3.020611816e-13,1.715072516e-13,2.238348308e-13,1.648713552e-13,1.427446457e-13,3.651292219e-14,4.694412566e-14,1.221732096e-13,8.784394771e-14,9.042014271e-14,1.294857313e-13,2.836953329e-13,2.448655185e-13,1.917121489e-13,7.336813283e-14,1.853804335e-13,4.925299699e-13,1.859998693e-13,3.633170823e-13,1.115287051e-13,4.759815216e-13,5.795665605e-14
0.30469,1.793638216e-13,1.974409531e-13,1.203622629e-13,2.059434374e-13,2.687711228e-13,1.866860068e-13,3.136599029e-13,1.523066050e-13,9.512459778e-14,2.873356803e-13,3.063938092e-13,1.720658209e-13,2.293547724e-13,1.494587578e-13,1.240746019e-13,3.087018825e-14,3.704803896e-14,1.182894834e-13,7.574642673e-14,9.997567501e-14,1.299405878e-13,2.657227279e-13,2.372587187e-13,1.925557417e-13,6.962577553e-14,1.870290582e-13,5.121517541e-13,2.309535308e-13,3.760264294e-13,1.003571313e-13,4.722495654e-13,5.804137621e-14
0.3125,1.547362207e-13,1.913216970e-13,1.281073482e-13,2.085388931e-13,2.907366330e-13,1.604860112e-13,3.140237017e-13,1.277499943e-13,1.006624777e-13,2.785656495e-13,3.108860363e-13,1.763501019e-13,2.372196375e-13,1.398359557e-13,1.091447981e-13,3.123176964e-14,3.346664062e-14,1.200998371e-13,6.783008164e-14,1.124955364e-13,1.315584474e-13,2.469568721e-13,2.287719460e-13,1.973612290e-13,6.680584159e-14,1.887604735e-13,5.296822738e-13,2.808859336e-13,3.881108405e-13,9.044386515e-14,4.676187694e-13,5.896894653e-14
0.32031,1.401376791e-13,1.884317948e-13,1.445787285e-13,2.156993629e-13,3.163551469e-13,1.397810332e-13,3.131482295e-13,1.073221620e-13,1.082588448e-13,2.658676477e-13,3.166490053e-13,1.842948054e-13,2.457261953e-13,1.342513484e-13,9.913956487e-14,3.526601465e-14,3.712760848e-14,1.269632093e-13,6.453531143e-14,1.262506921e-13,1.354361337e-13,2.272043563e-13,2.175442661e-13,2.066302784e-13,6.482277776e-14,1.903190319e-13,5.441752457e-13,3.321044639e-13,3.993355169e-13,8.226260092e-14,4.640585091e-13,6.014547776e-14
0.32812,1.347087394e-13,1.885419988e-13,1.663569924e-13,2.251447767e-13,3.427741891e-13,1.262582802e-13,3.118218317e-13,9.192270013e-14,1.179834033e-13,2.512022303e-13,3.224622173e-13,1.955953419e-13,2.526824013e-13,1.301846722e-13,9.523064086e-14,4.172314981e-14,4.729412866e-14,1.366860960e-13,6.500100068e-14,1.391383190e-13,1.412003275e-13,2.065861730e-13,2.037539589e-13,2.174314991e-13,6.391702132e-14,1.907394090e-13,5.554405291e-13,3.846247648e-13,4.072664753e-13,7.650962242e-14,4.606384332e-13,6.173449737e-14
0.33594,1.381885835e-13,1.915911608e-13,1.912110425e-13,2.353535272e-13,3.659278949e-13,1.185316961e-13,3.087363736e-13,8.012811685e-14,1.283124819e-13,2.347112396e-13,3.293643961e-13,2.076405034e-13,2.554244544e-13,1.256651824e-13,9.659195167e-14,5.091912044e-14,6.245413441e-14,1.484563901e-13,6.874478932e-14,1.538212166e-13,1.483595266e-13,1.863213386e-13,1.883600715e-13,2.283701703e-13,6.344506625e-14,1.899665113e-13,5.634655322e-13,4.370399845e-13,4.123591696e-13,7.268955893e-14,4.558225295e-13,6.363161306e-14
0.34375,1.464904273e-13,1.998126932e-13,2.193030590e-13,2.493457099e-13,3.882287914e-13,1.163976586e-13,3.038546855e-13,7.118924897e-14,1.396954190e-13,2.181722315e-13,3.379522429e-13,2.227257541e-13,2.578189757e-13,1.256257404e-13,1.030910547e-13,6.399234948e-14,8.240054057e-14,1.647535404e-13,7.576154764e-14,1.706431089e-13,1.577553380e-13,1.672803436e-13,1.724375651e-13,2.378990630e-13,6.317007251e-14,1.901221339e-13,5.733015651e-13,4.901421627e-13,4.188021387e-13,6.991531147e-14,4.539202017e-13,6.654705336e-14
0.35156,1.594919709e-13,2.128350546e-13,2.487100666e-13,2.658237553e-13,4.105256876e-13,1.185058788e-13,2.991823617e-13,6.495238920e-14,1.522195407e-13,2.027738215e-13,3.464235952e-13,2.387480404e-13,2.600998381e-13,1.300971301e-13,1.133221064e-13,8.059488946e-14,1.083209049e-13,1.856326409e-13,8.591320302e-14,1.892482279e-13,1.695131404e-13,1.501441956e-13,1.576551645e-13,2.454098487e-13,6.238934795e-14,1.909690919e-13,5.835233258e-13,5.408635099e-13,4.266663155e-13,6.857756555e-14,4.567799558e-13,7.085422018e-14
0.35938,1.732817366e-13,2.304357519e-13,2.754728983e-13,2.826556432e-13,4.306747844e-13,1.225630591e-13,2.965904057e-13,6.062315271e-14,1.639620530e-13,1.880210461e-13,3.549819468e-13,2.522411494e-13,2.601251288e-13,1.383975530e-13,1.275803647e-13,1.015666023e-13,1.399414401e-13,2.112527073e-13,9.848624943e-14,2.092930714e-13,1.828018803e-13,1.338194464e-13,1.456151446e-13,2.513427755e-13,6.102766921e-14,1.919173927e-13,5.931579810e-13,5.882301604e-13,4.355064343e-13,6.875149969e-14,4.631223947e-13,7.651394894e-14
0.36719,1.882376706e-13,2.527973838e-13,2.996785907e-13,3.003231701e-13,4.490287304e-13,1.272350196e-13,2.961372323e-13,5.853658822e-14,1.736904457e-13,1.750741356e-13,3.636741624e-13,2.621103461e-13,2.589081844e-13,1.511473257e-13,1.457462998e-13,1.260509909e-13,1.742293569e-13,2.401744567e-13,1.126880859e-13,2.298019000e-13,1.978339080e-13,1.183729503e-13,1.373564928e-13,2.531333292e-13,5.882618654e-14,1.936538574e-13,6.058733815e-13,6.278273611e-13,4.487174743e-13,6.957428633e-14,4.751980467e-13,8.351286174e-14
0.375,2.025738837e-13,2.779521883e-13,3.187784170e-13,3.168972324e-13,4.634673418e-13,1.320859220e-13,2.969018017e-13,5.789495024e-14,1.799253534e-13,1.641276086e-13,3.703309096e-13,2.670792551e-13,2.560528329e-13,1.667690456e-13,1.650206864e-13,1.506024651e-13,2.068149848e-13,2.682327677e-13,1.264757320e-13,2.488745969e-13,2.131173587e-13,1.039968072e-13,1.342173549e-13,2.537756230e-13,5.669313734e-14,1.953097156e-13,6.195603302e-13,6.551798620e-13,4.649409453e-13,7.103479862e-14,4.894895137e-13,9.152197765e-14
0.38281,2.167224511e-13,3.040719711e-13,3.339735123e-13,3.306548516e-13,4.725687511e-13,1.373545632e-13,2.971214210e-13,5.738091555e-14,1.812677863e-13,1.554897038e-13,3.763737982e-13,2.670529251e-13,2.518033551e-13,1.859656609e-13,1.831685365e-13,1.733563610e-13,2.369798402e-13,2.935177206e-13,1.392897609e-13,2.667729499e-13,2.279996002e-13,9.050495610e-14,1.372713881e-13,2.528605261e-13,5.469695210e-14,1.961990601e-13,6.313807931e-13,6.706978640e-13,4.818084663e-13,7.263038875e-14,5.033948226e-13,9.989573983e-14
0.39062,2.336206691e-13,3.321598696e-13,3.480937620e-13,3.434787319e-13,4.768051375e-13,1.427356646e-13,2.964603556e-13,5.652869674e-14,1.763422311e-13,1.489201958e-13,3.830111345e-13,2.614058807e-13,2.471067240e-13,2.104540203e-13,2.021450541e-13,1.965614123e-13,2.651112007e-13,3.185660776e-13,1.530924469e-13,2.868979946e-13,2.431362712e-13,7.894135020e-14,1.456415191e-13,2.523305130e-13,5.368880591e-14,1.975133586e-13,6.439071387e-13,6.749655905e-13,5.012429334e-13,7.523667590e-14,5.185292228e-13,1.080880063e-13
0.39844,2.522799399e-13,3.624202278e-13,3.653659460e-13,3.573749377e-13,4.755650712e-13,1.486082127e-13,2.945157066e-13,5.516662398e-14,1.670673100e-13,1.437126785e-13,3.885884458e-13,2.525340414e-13,2.428519383e-13,2.380209615e-13,2.204880936e-13,2.208889359e-13,2.916058698e-13,3.426128986e-13,1.672142367e-13,3.090210247e-13,2.575266443e-13,6.881099768e-14,1.592222981e-13,2.533820192e-13,5.546854098e-14,1.994623851e-13,6.571003869e-13,6.668958553e-13,5.222385981e-13,7.817745137e-14,5.333637647e-13,1.160250909e-13
0.40625,2.760997468e-13,3.938538704e-13,3.872332757e-13,3.714421724e-13,4.679851713e-13,1.541252666e-13,2.913353812e-13,5.338939529e-14,1.556996297e-13,1.398100715e-13,3.931742772e-13,2.419704741e-13,2.392132592e-13,2.662097496e-13,2.348698649e-13,2.437770329e-13,3.166237598e-13,3.626952526e-13,1.804968329e-13,3.318234937e-13,2.701263813e-13,6.070265685e-14,1.778416100e-13,2.554614876e-13,6.026118179e-14,1.994917072e-13,6.669670781e-13,6.445903865e-13,5.413412607e-13,8.120349275e-14,5.426523563e-13,1.233210700e-13
0.41406,3.018202071e-13,4.245220874e-13,4.186106067e-13,3.844899449e-13,4.537513047e-13,1.587953430e-13,2.840573937e-13,5.140532693e-14,1.440531774e-13,1.374632908e-13,3.955601207e-13,2.321279665e-13,2.371669393e-13,2.949740087e-13,2.452976366e-13,2.636201589e-13,3.410356599e-13,3.795875819e-13,1.926921644e-13,3.539561409e-13,2.801483368e-13,5.446792942e-14,1.995357973e-13,2.564207227e-13,6.948282516e-14,1.961010924e-13,6.699690300e-13,6.126761883e-13,5.554522115e-13,8.440693177e-14,5.422660542e-13,1.290841251e-13
0.42188,3.309511877e-13,4.528626296e-13,4.628999575e-13,3.941819578e-13,4.331508654e-13,1.615962129e-13,2.704454111e-13,5.004879813e-14,1.343652427e-13,1.364001444e-13,3.959619503e-13,2.258065972e-13,2.372120421e-13,3.229214646e-13,2.503583964e-13,2.797231927e-13,3.637104135e-13,3.931038779e-13,2.039505493e-13,3.727869187e-13,2.863282165e-13,4.985809306e-14,2.234122267e-13,2.535673588e-13,8.456665073e-14,1.890673315e-13,6.640235592e-13,5.769802436e-13,5.621201956e-13,8.703290486e-14,5.320526354e-13,1.332916678e-13
0.42969,3.608049472e-13,4.756932028e-13,5.199857786e-13,3.977355952e-13,4.077771262e-13,1.623306835e-13,2.522912863e-13,5.047493325e-14,1.282554604e-13,1.360799491e-13,3.933747317e-13,2.237643652e-13,2.395450959e-13,3.489124429e-13,2.507394372e-13,2.903219920e-13,3.806388123e-13,4.001053995e-13,2.136381356e-13,3.856309675e-13,2.877709657e-13,4.765918521e-14,2.489491075e-13,2.455492650e-13,1.040454832e-13,1.782989653e-13,6.489290775e-13,5.414404954e-13,5.602503735e-13,8.945225015e-14,5.122829188e-13,1.362998703e-13
0.4375,3.903596909e-13,4.926398840e-13,5.928479124e-13,3.958497211e-13,3.788877677e-13,1.614095212e-13,2.311056911e-13,5.284372471e-14,1.273085558e-13,1.370841600e-13,3.877073548e-13,2.279905113e-13,2.444203488e-13,3.719748253e-13,2.465511323e-13,2.935674852e-13,3.901667049e-13,4.003717324e-13,2.220907937e-13,3.919759549e-13,2.846832267e-13,4.778245674e-14,2.743228038e-13,2.314085925e-13,1.282261862e-13,1.640844460e-13,6.291258338e-13,5.094665565e-13,5.522716232e-13,9.233185123e-14,4.841367347e-13,1.387188544e-13
0.44531,4.161874873e-13,5.035590760e-13,6.775502100e-13,3.898798167e-13,3.484913317e-13,1.593765552e-13,2.079689559e-13,5.766674525e-14,1.316448274e-13,1.389912217e-13,3.782443704e-13,2.372618232e-13,2.519594907e-13,3.934786916e-13,2.393271594e-13,2.908373098e-13,3.938374603e-13,3.960156183e-13,2.287810055e-13,3.922639381e-13,2.771206831e-13,5.009086937e-14,2.984721644e-13,2.115660763e-13,1.558588123e-13,1.472155536e-13,6.051423124e-13,4.841420408e-13,5.386802325e-13,9.528416212e-14,4.502362262e-13,1.408292541e-13
0.45312,4.350001725e-13,5.060920011e-13,7.676988530e-13,3.799856108e-13,3.180672681e-13,1.548448201e-13,1.843783935e-13,6.572479911e-14,1.393694590e-13,1.415302921e-13,3.658293420e-13,2.476980353e-13,2.591482456e-13,4.104294182e-13,2.297362689e-13,2.840449506e-13,3.942962701e-13,3.877990202e-13,2.327217253e-13,3.865305459e-13,2.652221801e-13,5.362726295e-14,3.207462303e-13,1.857140467e-13,1.840294711e-13,1.288361750e-13,5.777222060e-13,4.648483933e-13,5.183967943e-13,9.747877044e-14,4.128398541e-13,1.417336706e-13
0.46094,4.421616959e-13,4.998412752e-13,8.598975750e-13,3.670990356e-13,2.873703855e-13,1.489578519e-13,1.617182756e-13,7.710490012e-14,1.493060662e-13,1.446289484e-13,3.507828141e-13,2.593783806e-13,2.661504183e-13,4.232525996e-13,2.200458731e-13,2.760280759e-13,3.911819703e-13,3.769085252e-13,2.332263781e-13,3.720082003e-13,2.482509741e-13,5.857877176e-14,3.400854748e-13,1.584449146e-13,2.093819576e-13,1.100969464e-13,5.502359134e-13,4.542090634e-13,4.939138040e-13,9.952754811e-14,3.740981893e-13,1.410201958e-13
0.46875,4.393764830e-13,4.838369372e-13,9.500888613e-13,3.524015832e-13,2.580379986e-13,1.423661305e-13,1.413533275e-13,9.207590966e-14,1.611175709e-13,1.474539903e-13,3.333723924e-13,2.715585972e-13,2.731020638e-13,4.319334645e-13,2.105150980e-13,2.664518239e-13,3.826038086e-13,3.632405588e-13,2.290711364e-13,3.493221242e-13,2.267322524e-13,6.523663919e-14,3.547847765e-13,1.336870950e-13,2.289478703e-13,9.232618432e-14,5.212347062e-13,4.509168314e-13,4.653172178e-13,1.021574953e-13,3.355846910e-13,1.385898782e-13
0.47656,4.255244040e-13,4.577582081e-13,1.029650687e-12,3.352785769e-13,2.305589895e-13,1.352967383e-13,1.252071803e-13,1.105048653e-13,1.739367462e-13,1.495470374e-13,3.148287247e-13,2.824355761e-13,2.792570500e-13,4.351451172e-13,1.994789522e-13,2.538278585e-13,3.685242024e-13,3.465038665e-13,2.202113443e-13,3.200965622e-13,2.019503857e-13,7.211574973e-14,3.648266167e-13,1.152531059e-13,2.408190825e-13,7.621834180e-14,4.915571989e-13,4.530229603e-13,4.328187675e-13,1.050641124e-13,2.969853258e-13,1.355371181e-13
0.48438,4.036939011e-13,4.235943241e-13,1.091352894e-12,3.166305376e-13,2.059147424e-13,1.283267898e-13,1.144259824e-13,1.318168745e-13,1.871258595e-13,1.503165941e-13,2.958160097e-13,2.907842888e-13,2.857047412e-13,4.335321058e-13,1.868724033e-13,2.389151561e-13,3.512060129e-13,3.283180112e-13,2.085907435e-13,2.890339553e-13,1.758138112e-13,7.890798334e-14,3.711911745e-13,1.085669845e-13,2.440268691e-13,6.243094109e-14,4.614365500e-13,4.583794722e-13,3.976034212e-13,1.081662036e-13,2.597129982e-13,1.313642705e-13
0.49219,3.772569799e-13,3.860516179e-13,1.130338142e-12,2.986956050e-13,1.849530238e-13,1.218039866e-13,1.078022563e-13,1.538352015e-13,1.981756134e-13,1.491522557e-13,2.779696847e-13,2.954375356e-13,2.927719036e-13,4.272999985e-13,1.744379515e-13,2.234247529e-13,3.314377913e-13,3.109344443e-13,1.958857433e-13,2.574316559e-13,1.497035503e-13,8.510261925e-14,3.749045997e-13,1.150921483e-13,2.398055662e-13,5.169600635e-14,4.328504138e-13,4.623340672e-13,3.621871112e-13,1.109843905e-13,2.258633881e-13,1.246172107e-13
0.5,3.492952160e-13,3.478844447e-13,1.146187563e-12,2.828275536e-13,1.671683314e-13,1.167513008e-13,1.055489075e-13,1.753501210e-13,2.062099405e-13,1.453734947e-13,2.605689615e-13,2.963963952e-13,3.020911852e-13,4.163338971e-13,1.618350508e-13,2.075228807e-13,3.097561277e-13,2.949314180e-13,1.829187679e-13,2.273059315e-13,1.251008436e-13,8.933057758e-14,3.764737572e-13,1.362141525e-13,2.292076611e-13,4.376245689e-14,4.064071765e-13,4.610591871e-13,3.284676156e-13,1.129640122e-13,1.961235701e-13,1.158272535e-13
0.50781,3.242475686e-13,3.104078786e-13,1.133225302e-12,2.687325901e-13,1.522828991e-13,1.133453517e-13,1.061958938e-13,1.949522915e-13,2.088719840e-13,1.380749322e-13,2.433987326e-13,2.911181496e-13,3.119870135e-13,4.006792987e-13,1.494410943e-13,1.921680321e-13,2.880215173e-13,2.808750998e-13,1.708492484e-13,2.013995448e-13,1.028395498e-13,9.175999655e-14,3.761125570e-13,1.698450681e-13,2.139805910e-13,3.803572918e-14,3.788798475e-13,4.502193341e-13,2.949145990e-13,1.134027155e-13,1.700462062e-13,1.055556095e-13
0.51562,3.037302162e-13,2.754897359e-13,1.093228535e-12,2.569515156e-13,1.408382441e-13,1.125454024e-13,1.075974562e-13,2.112721172e-13,2.069927188e-13,1.286169331e-13,2.269297632e-13,2.806372830e-13,3.239739192e-13,3.815236189e-13,1.381527731e-13,1.785811085e-13,2.685038751e-13,2.699816406e-13,1.607743512e-13,1.804061038e-13,8.356039159e-14,9.229426692e-14,3.755831600e-13,2.122087228e-13,1.980668639e-13,3.425114389e-14,3.530756321e-13,4.291018088e-13,2.635736822e-13,1.121641352e-13,1.478152021e-13,9.515700763e-14
0.52344,2.879693864e-13,2.442864611e-13,1.031910411e-12,2.487395318e-13,1.311696690e-13,1.148761214e-13,1.087869799e-13,2.239689239e-13,2.014491576e-13,1.178220559e-13,2.108154804e-13,2.653581829e-13,3.395015062e-13,3.598822251e-13,1.278688758e-13,1.673118754e-13,2.513582565e-13,2.619344847e-13,1.527584785e-13,1.650186021e-13,6.788689350e-14,9.025705142e-14,3.743274221e-13,2.586453916e-13,1.830407791e-13,3.157954488e-14,3.301906300e-13,3.987551401e-13,2.353831214e-13,1.092924758e-13,1.284259126e-13,8.483308688e-14
0.53125,2.742065200e-13,2.166396447e-13,9.540416207e-13,2.455512159e-13,1.235372572e-13,1.212256382e-13,1.103636038e-13,2.312721694e-13,1.899461798e-13,1.054889387e-13,1.960622714e-13,2.443264022e-13,3.579062687e-13,3.373653574e-13,1.202367816e-13,1.589593236e-13,2.362906116e-13,2.567197506e-13,1.475624048e-13,1.554163516e-13,5.631040985e-14,8.484854565e-14,3.700425061e-13,3.071019356e-13,1.707582385e-13,2.994679143e-14,3.120538459e-13,3.573336887e-13,2.118119416e-13,1.048493851e-13,1.127572414e-13,7.450451389e-14
0.53906,2.622803850e-13,1.942331522e-13,8.730809561e-13,2.494532946e-13,1.195699733e-13,1.339544021e-13,1.120314957e-13,2.327552575e-13,1.744272753e-13,9.236891743e-14,1.858615004e-13,2.201071578e-13,3.778976119e-13,3.166276034e-13,1.172406755e-13,1.548287979e-13,2.247093685e-13,2.544761907e-13,1.464676714e-13,1.528442174e-13,4.925769812e-14,7.789455025e-14,3.618346439e-13,3.548041756e-13,1.623252997e-13,2.912205369e-14,3.014263379e-13,3.096663612e-13,1.947403738e-13,9.939835284e-14,1.025338218e-13,6.527878837e-14
0.54688,2.499655908e-13,1.763747777e-13,7.978291799e-13,2.600345071e-13,1.173947668e-13,1.532089823e-13,1.139731741e-13,2.292242767e-13,1.572990152e-13,8.010566914e-14,1.810272258e-13,1.942119533e-13,3.985999635e-13,2.992996289e-13,1.198762856e-13,1.557326406e-13,2.173039286e-13,2.543664724e-13,1.487454425e-13,1.575988869e-13,4.621236980e-14,7.036997074e-14,3.502557928e-13,3.963895725e-13,1.578950151e-13,2.906212969e-14,3.009013316e-13,2.586002444e-13,1.860789583e-13,9.428620213e-14,9.622524370e-14,5.750653959e-14
0.55469,2.353468742e-13,1.619321863e-13,7.306871155e-13,2.764543698e-13,1.152284473e-13,1.788900958e-13,1.163878605e-13,2.243956156e-13,1.411443707e-13,6.939656025e-14,1.828988667e-13,1.691287437e-13,4.173016538e-13,2.835069567e-13,1.269489652e-13,1.610392149e-13,2.136648043e-13,2.555048182e-13,1.533759877e-13,1.696278149e-13,4.719457535e-14,6.307678095e-14,3.349627224e-13,4.291891258e-13,1.550717610e-13,2.974568438e-14,3.070280049e-13,2.091046778e-13,1.830132550e-13,8.951029084e-14,9.158777247e-14,5.192025950e-14
0.5625,2.179847397e-13,1.512954881e-13,6.748173107e-13,3.017240480e-13,1.138023306e-13,2.124608163e-13,1.203087686e-13,2.186580065e-13,1.262870015e-13,6.084800410e-14,1.938718927e-13,1.462524802e-13,4.315944994e-13,2.702563533e-13,1.393943487e-13,1.716859144e-13,2.145420289e-13,2.587092347e-13,1.605200259e-13,1.889051453e-13,5.227990150e-14,5.759663292e-14,3.146700673e-13,4.581430312e-13,1.519743191e-13,3.154243016e-14,3.184803485e-13,1.654418880e-13,1.842455332e-13,8.602605139e-14,8.856733943e-14,4.835848783e-14
0.57031,1.985668463e-13,1.444384136e-13,6.261502976e-13,3.346380415e-13,1.123606259e-13,2.512044519e-13,1.253409833e-13,2.124150527e-13,1.129948853e-13,5.438465003e-14,2.133744774e-13,1.263463511e-13,4.376168325e-13,2.561163315e-13,1.552422835e-13,1.851889577e-13,2.176633657e-13,2.617702783e-13,1.696796384e-13,2.158928819e-13,6.120184758e-14,5.445012094e-14,2.908871884e-13,4.823719202e-13,1.475631579e-13,3.459815611e-14,3.332627550e-13,1.306485884e-13,1.890579640e-13,8.388843179e-14,8.599461440e-14,4.659253396e-14
0.57812,1.801412320e-13,1.409133591e-13,5.846084965e-13,3.725755411e-13,1.107456221e-13,2.927697541e-13,1.316639139e-13,2.070337982e-13,1.037693867e-13,4.979568544e-14,2.404704821e-13,1.112870512e-13,4.347003916e-13,2.415259380e-13,1.737947512e-13,2.003080843e-13,2.214685584e-13,2.644198295e-13,1.804703862e-13,2.487993629e-13,7.290335811e-14,5.403130889e-14,2.641022240e-13,5.029891135e-13,1.425806509e-13,3.945183080e-14,3.518455120e-13,1.068950940e-13,1.963204295e-13,8.234658077e-14,8.302022513e-14,4.739605110e-14
0.58594,1.661370949e-13,1.403029115e-13,5.426260989e-13,4.122835635e-13,1.088112790e-13,3.334210638e-13,1.389964771e-13,2.035065911e-13,9.911533511e-14,4.679892488e-14,2.711625427e-13,1.011583017e-13,4.254206004e-13,2.271197976e-13,1.924169458e-13,2.143155395e-13,2.242237676e-13,2.666875092e-13,1.915285241e-13,2.856787086e-13,8.627686354e-14,5.636605878e-14,2.361446500e-13,5.215217616e-13,1.361413548e-13,4.623989648e-14,3.723099810e-13,9.460654034e-14,2.052150675e-13,8.105640711e-14,7.985535067e-14,5.020404886e-14
0.59375,1.566595321e-13,1.412864934e-13,4.974761931e-13,4.478052378e-13,1.049106532e-13,3.679245352e-13,1.472236805e-13,2.014105328e-13,9.750234422e-14,4.493622185e-14,3.002950585e-13,9.419365867e-14,4.094638214e-13,2.107428423e-13,2.077465154e-13,2.252581369e-13,2.244725467e-13,2.684897736e-13,2.010018762e-13,3.218592474e-13,9.983906159e-14,6.124701746e-14,2.092052897e-13,5.385116216e-13,1.287710985e-13,5.449346629e-14,3.904044764e-13,9.201581421e-14,2.129519606e-13,7.966765668e-14,7.580734714e-14,5.437975710e-14
0.60156,1.526866501e-13,1.422420412e-13,4.496662354e-13,4.748822905e-13,9.874847844e-14,3.916357939e-13,1.565337207e-13,2.006088483e-13,9.924887359e-14,4.384993903e-14,3.238421398e-13,8.922564626e-14,3.878856837e-13,1.916992540e-13,2.170599164e-13,2.310622092e-13,2.213865612e-13,2.692696136e-13,2.082159799e-13,3.541447516e-13,1.131560248e-13,6.889354974e-14,1.836805376e-13,5.540879901e-13,1.213699793e-13,6.408184261e-14,4.038115892e-13,9.621373302e-14,2.188375223e-13,7.823304715e-14,7.077527426e-14,6.058564037e-14
0.60938,1.575821410e-13,1.447910100e-13,4.022933858e-13,4.925142563e-13,9.187468972e-14,4.034081646e-13,1.662509511e-13,2.023685096e-13,1.053598577e-13,4.361103662e-14,3.400289143e-13,8.764326942e-14,3.639448932e-13,1.740616040e-13,2.226075571e-13,2.331815276e-13,2.157019419e-13,2.712854335e-13,2.151466326e-13,3.783431255e-13,1.247783078e-13,7.895599343e-14,1.601374986e-13,5.685186800e-13,1.146686292e-13,7.460016979e-14,4.126204168e-13,1.068752528e-13,2.247156226e-13,7.711450050e-14,6.565047502e-14,6.910927550e-14
0.61719,1.692457136e-13,1.493036740e-13,3.596339519e-13,5.004035931e-13,8.531376139e-14,4.034269262e-13,1.746692777e-13,2.056129849e-13,1.159634823e-13,4.415120870e-14,3.468654918e-13,8.988023606e-14,3.417646562e-13,1.604143877e-13,2.246281556e-13,2.307693637e-13,2.065297085e-13,2.749457743e-13,2.215122746e-13,3.910767698e-13,1.336640419e-13,9.030229811e-14,1.397520253e-13,5.855306952e-13,1.097627899e-13,8.591461628e-14,4.169022710e-13,1.223972311e-13,2.298247440e-13,7.706465420e-14,6.087628901e-14,7.960302630e-14
0.625,1.861802057e-13,1.560853954e-13,3.256303764e-13,4.977378603e-13,7.856789633e-14,3.906444385e-13,1.805284506e-13,2.104160061e-13,1.319778253e-13,4.521997368e-14,3.430009866e-13,9.563133135e-14,3.242208302e-13,1.501556342e-13,2.216483099e-13,2.236893250e-13,1.950125311e-13,2.806487471e-13,2.268689717e-13,3.927740422e-13,1.394969079e-13,1.017531764e-13,1.221946302e-13,6.047701057e-13,1.069605897e-13,9.769024050e-14,4.158384577e-13,1.401062158e-13,2.355798138e-13,7.852604078e-14,5.758042985e-14,9.332895886e-14
0.63281,2.067965774e-13,1.636327326e-13,3.016464232e-13,4.838315596e-13,7.073640254e-14,3.670396768e-13,1.859445928e-13,2.193252864e-13,1.538552880e-13,4.671937087e-14,3.269647254e-13,1.037018731e-13,3.139017937e-13,1.440806264e-13,2.136706156e-13,2.133812919e-13,1.832845642e-13,2.855066046e-13,2.285514861e-13,3.814706879e-13,1.410145877e-13,1.137143695e-13,1.083496916e-13,6.286996688e-13,1.063484030e-13,1.086884789e-13,4.085868480e-13,1.582534234e-13,2.393449846e-13,8.110285148e-14,5.498623471e-14,1.101980629e-13
0.64062,2.311293867e-13,1.722731631e-13,2.911486114e-13,4.618901464e-13,6.347491154e-14,3.352078547e-13,1.911094311e-13,2.324854247e-13,1.803985057e-13,4.918760381e-14,3.013402798e-13,1.133564889e-13,3.100309842e-13,1.418271166e-13,2.007130925e-13,2.003098471e-13,1.722374434e-13,2.884855489e-13,2.273962884e-13,3.582255216e-13,1.390330659e-13,1.264189285e-13,9.922287592e-14,6.592993335e-13,1.058954464e-13,1.178707431e-13,3.932293967e-13,1.752061542e-13,2.404969259e-13,8.520404532e-14,5.231210091e-14,1.290109410e-13
0.64844,2.572895314e-13,1.841477307e-13,2.975041737e-13,4.371909167e-13,5.867035998e-14,3.005338346e-13,1.946688937e-13,2.496176480e-13,2.117156461e-13,5.272077458e-14,2.704966271e-13,1.263049126e-13,3.142038750e-13,1.447834422e-13,1.857606302e-13,1.859502471e-13,1.624071803e-13,2.900499456e-13,2.258317426e-13,3.251937381e-13,1.346067139e-13,1.385184118e-13,9.474956902e-14,6.947893331e-13,1.062159862e-13,1.251066759e-13,3.730835677e-13,1.909244885e-13,2.409177342e-13,9.116061102e-14,5.057460402e-14,1.495323530e-13
0.65625,2.842302923e-13,1.990309480e-13,3.179666138e-13,4.126481562e-13,5.669158999e-14,2.668731544e-13,1.943221292e-13,2.719901916e-13,2.471879158e-13,5.734355803e-14,2.374645451e-13,1.423452386e-13,3.265736229e-13,1.536297793e-13,1.710026663e-13,1.716680575e-13,1.552217874e-13,2.904056274e-13,2.238734744e-13,2.893488972e-13,1.284665283e-13,1.507847632e-13,9.550602162e-14,7.373389837e-13,1.071433493e-13,1.305808755e-13,3.476656980e-13,2.030719858e-13,2.386182896e-13,9.935191684e-14,4.956626217e-14,1.707451149e-13
0.66406,3.129635360e-13,2.158089785e-13,3.493807910e-13,3.894781004e-13,5.746117554e-14,2.366514787e-13,1.904052114e-13,2.994946433e-13,2.841869521e-13,6.298432607e-14,2.043221947e-13,1.598655682e-13,3.453380956e-13,1.685113774e-13,1.580181497e-13,1.581955078e-13,1.514613962e-13,2.882999748e-13,2.211027355e-13,2.529620999e-13,1.208465951e-13,1.642934918e-13,1.010584542e-13,7.858778222e-13,1.088037701e-13,1.341018352e-13,3.185424233e-13,2.118558899e-13,2.337242804e-13,1.088075042e-13,4.897559826e-14,1.917430256e-13
0.67188,3.442563854e-13,2.348004096e-13,3.912931458e-13,3.706973361e-13,6.124457284e-14,2.117744190e-13,1.836820074e-13,3.309456515e-13,3.224803286e-13,6.952804899e-14,1.728152688e-13,1.795795797e-13,3.714342326e-13,1.903404015e-13,1.484055789e-13,1.470733695e-13,1.517414150e-13,2.845671312e-13,2.171503556e-13,2.188993203e-13,1.117612179e-13,1.799690195e-13,1.111076977e-13,8.396183183e-13,1.117545419e-13,1.355805105e-13,2.882213929e-13,2.191456854e-13,2.275019829e-13,1.190647785e-13,4.808449970e-14,2.118807102e-13
0.67969,3.774990183e-13,2.535161110e-13,4.331572907e-13,3.543645645e-13,6.828435968e-14,1.906099176e-13,1.755422221e-13,3.630043942e-13,3.585657730e-13,7.639134683e-14,1.444061033e-13,1.987276780e-13,3.987653172e-13,2.145428288e-13,1.410353342e-13,1.373774360e-13,1.549360904e-13,2.782603436e-13,2.115098561e-13,1.907905618e-13,1.017086025e-13,1.980507367e-13,1.251786102e-13,8.962536876e-13,1.148279862e-13,1.355912308e-13,2.572028509e-13,2.224742759e-13,2.182611434e-13,1.287984796e-13,4.663873489e-14,2.298994797e-13
0.6875,4.121655962e-13,2.701556693e-13,4.706329986e-13,3.373484831e-13,7.725584112e-14,1.729777352e-13,1.649883030e-13,3.956329558e-13,3.904879106e-13,8.369684684e-14,1.211081292e-13,2.166385180e-13,4.209683971e-13,2.368565628e-13,1.357352135e-13,1.280585197e-13,1.596865191e-13,2.680888130e-13,2.045002786e-13,1.699472552e-13,9.149729725e-14,2.176429705e-13,1.415930694e-13,9.583804874e-13,1.171101213e-13,1.344922575e-13,2.255858875e-13,2.232536001e-13,2.063647574e-13,1.380703275e-13,4.457518556e-14,2.446410064e-13
0.69531,4.489994138e-13,2.822216589e-13,4.995104829e-13,3.192312692e-13,8.759973353e-14,1.591928621e-13,1.505271842e-13,4.289249910e-13,4.176767199e-13,9.210764576e-14,1.025178218e-13,2.324082306e-13,4.376795577e-13,2.577632647e-13,1.329267912e-13,1.201551883e-13,1.657892628e-13,2.561380708e-13,1.969861102e-13,1.559841011e-13,8.234219912e-14,2.385857617e-13,1.611455899e-13,1.022110710e-12,1.190546625e-13,1.336256090e-13,1.944817792e-13,2.207589976e-13,1.933587802e-13,1.464566628e-13,4.236184819e-14,2.580866273e-13
0.70312,4.880909587e-13,2.905146507e-13,5.161176197e-13,3.026793811e-13,9.949627719e-14,1.487562567e-13,1.344245754e-13,4.599079049e-13,4.417205598e-13,1.013774678e-13,8.922261520e-14,2.464141787e-13,4.501641013e-13,2.778846525e-13,1.329228910e-13,1.148503908e-13,1.739547369e-13,2.458463524e-13,1.910587588e-13,1.492967961e-13,7.507023029e-14,2.612028869e-13,1.823015790e-13,1.087504465e-12,1.197269065e-13,1.349195802e-13,1.653381835e-13,2.175164023e-13,1.813143241e-13,1.541333673e-13,4.154144206e-14,2.712468880e-13
0.71094,5.273740872e-13,2.939352188e-13,5.174903558e-13,2.846633907e-13,1.114128758e-13,1.393599558e-13,1.180828419e-13,4.872762222e-13,4.614272411e-13,1.102436595e-13,8.033299332e-14,2.574508373e-13,4.529983897e-13,2.920368961e-13,1.337633006e-13,1.118559104e-13,1.830126176e-13,2.362364834e-13,1.856173300e-13,1.490317454e-13,6.937647019e-14,2.847269461e-13,2.048234963e-13,1.149290015e-12,1.189864338e-13,1.376083965e-13,1.396272423e-13,2.126641350e-13,1.711550106e-13,1.604239443e-13,4.193386558e-14,2.828367768e-13
0.71875,5.654450059e-13,2.916047906e-13,5.030778092e-13,2.631711540e-13,1.222212673e-13,1.293612909e-13,1.038385516e-13,5.114015856e-13,4.778756038e-13,1.195139719e-13,7.490574151e-14,2.659743710e-13,4.470385952e-13,2.983382586e-13,1.339347390e-13,1.097752800e-13,1.907914658e-13,2.281816855e-13,1.808844307e-13,1.532790021e-13,6.659402593e-14,3.090756106e-13,2.290814009e-13,1.202840294e-12,1.167304059e-13,1.424982118e-13,1.187703661e-13,2.058654616e-13,1.645912246e-13,1.647922289e-13,4.451550324e-14,2.951961689e-13
0.72656,6.039292419e-13,2.855630388e-13,4.766933264e-13,2.405824315e-13,1.307760326e-13,1.196794314e-13,9.278592934e-14,5.305309462e-13,4.928836667e-13,1.295019372e-13,7.340069570e-14,2.741345816e-13,4.340777117e-13,2.956997900e-13,1.316737349e-13,1.077934465e-13,1.959487321e-13,2.204371100e-13,1.781655673e-13,1.610801965e-13,6.702861021e-14,3.353445403e-13,2.542741961e-13,1.253061622e-12,1.130407974e-13,1.494029735e-13,1.010919789e-13,1.970305364e-13,1.609322037e-13,1.684229553e-13,4.890563198e-14,3.090712893e-13
0.73438,6.392691007e-13,2.775040871e-13,4.434335073e-13,2.211171697e-13,1.380775481e-13,1.109375501e-13,8.605316864e-14,5.421920283e-13,5.054108130e-13,1.401219466e-13,7.453421682e-14,2.821965069e-13,4.185481529e-13,2.882870373e-13,1.283414184e-13,1.074552866e-13,2.004102726e-13,2.153737639e-13,1.793943661e-13,1.728637964e-13,7.047406779e-14,3.635173898e-13,2.807898879e-13,1.293129402e-12,1.088821035e-13,1.575657765e-13,8.739429217e-14,1.869877530e-13,1.596514542e-13,1.716076496e-13,5.600342801e-14,3.232215111e-13
0.74219,6.694368090e-13,2.682137581e-13,4.055506053e-13,2.035223931e-13,1.425118823e-13,1.016673012e-13,8.374397076e-14,5.444316220e-13,5.153287151e-13,1.514718488e-13,7.741049603e-14,2.897385173e-13,4.014682866e-13,2.769402697e-13,1.225867010e-13,1.081758754e-13,2.032932208e-13,2.124267605e-13,1.836832508e-13,1.852637292e-13,7.688799533e-14,3.919383874e-13,3.096235425e-13,1.318379167e-12,1.041469643e-13,1.660237032e-13,7.713576636e-14,1.762939732e-13,1.604767576e-13,1.744777560e-13,6.562567611e-14,3.368929508e-13
0.75,6.912968616e-13,2.577443410e-13,3.655202725e-13,1.899966380e-13,1.457502883e-13,9.388462516e-14,8.581658806e-14,5.376140796e-13,5.218223067e-13,1.619529651e-13,8.253934769e-14,2.957613115e-13,3.834759581e-13,2.635550977e-13,1.150437343e-13,1.096623468e-13,2.046355605e-13,2.110783764e-13,1.898243902e-13,1.961366078e-13,8.661201952e-14,4.186510576e-13,3.410202752e-13,1.328523512e-12,9.939751797e-14,1.742151040e-13,6.930150773e-14,1.637726252e-13,1.622484848e-13,1.763370038e-13,7.726645734e-14,3.504949631e-13
0.75781,7.063070730e-13,2.469003035e-13,3.274631671e-13,1.822159872e-13,1.486569339e-13,8.821870070e-14,9.153235291e-14,5.202840842e-13,5.250181438e-13,1.708658418e-13,8.872845020e-14,3.006343991e-13,3.672432929e-13,2.502702413e-13,1.056609911e-13,1.112370328e-13,2.047355158e-13,2.097113636e-13,1.958264908e-13,2.067417251e-13,9.803164254e-14,4.426400469e-13,3.726910353e-13,1.327477098e-12,9.460231990e-14,1.818363387e-13,6.473730884e-14,1.518437281e-13,1.649585461e-13,1.767714322e-13,8.954296706e-14,3.637510353e-13
0.76562,7.147499007e-13,2.378171514e-13,2.966242820e-13,1.826216661e-13,1.524175644e-13,8.644820853e-14,9.996296962e-14,4.941618896e-13,5.228357922e-13,1.768175547e-13,9.599151433e-14,3.049436267e-13,3.538421064e-13,2.415043707e-13,9.508046474e-14,1.112318244e-13,2.023122091e-13,2.072911653e-13,2.020512106e-13,2.167430844e-13,1.098592246e-13,4.633803327e-13,4.048822053e-13,1.318805606e-12,8.966650907e-14,1.876171033e-13,6.217182350e-14,1.400614144e-13,1.687078744e-13,1.760038097e-13,1.024178556e-13,3.743138651e-13
0.77344,7.159983873e-13,2.304466786e-13,2.732300908e-13,1.898799598e-13,1.571244622e-13,8.853334988e-14,1.101360285e-13,4.628189662e-13,5.136228174e-13,1.789920008e-13,1.037673246e-13,3.081835263e-13,3.434498941e-13,2.402141688e-13,8.536641116e-14,1.099877679e-13,1.983423468e-13,2.038930831e-13,2.077646850e-13,2.260624204e-13,1.211781103e-13,4.791569232e-13,4.362136489e-13,1.304826763e-12,8.500449852e-14,1.927975765e-13,6.194887681e-14,1.284816975e-13,1.729912547e-13,1.741703302e-13,1.153138674e-13,3.827739863e-13
0.78125,7.114887053e-13,2.244370752e-13,2.580740862e-13,2.027404205e-13,1.625551310e-13,9.401845946e-14,1.216274385e-13,4.296546198e-13,4.986714006e-13,1.775998384e-13,1.116833833e-13,3.106233637e-13,3.364973216e-13,2.465678796e-13,7.621339751e-14,1.069262454e-13,1.930159232e-13,1.979640895e-13,2.113657136e-13,2.348087819e-13,1.312964661e-13,4.893605014e-13,4.643046895e-13,1.291478829e-12,8.006163104e-14,1.982900608e-13,6.439989838e-14,1.173019760e-13,1.768358819e-13,1.714502583e-13,1.269445118e-13,3.910822492e-13
0.78906,6.979229538e-13,2.195108761e-13,2.505690739e-13,2.228585614e-13,1.707415031e-13,1.053521820e-13,1.342289120e-13,3.996499006e-13,4.779279740e-13,1.733405383e-13,1.200081391e-13,3.134192369e-13,3.327330287e-13,2.613129970e-13,6.851614976e-14,1.022191681e-13,1.869898987e-13,1.897331853e-13,2.130768935e-13,2.451166053e-13,1.404100630e-13,4.941391625e-13,4.901382269e-13,1.286739242e-12,7.488009124e-14,2.047841172e-13,6.914497390e-14,1.057070507e-13,1.795624503e-13,1.690680151e-13,1.379549747e-13,3.986985148e-13
0.79688,6.767988438e-13,2.151575784e-13,2.476726536e-13,2.478586734e-13,1.826617647e-13,1.216238009e-13,1.473883285e-13,3.749577936e-13,4.518221806e-13,1.659364467e-13,1.301716070e-13,3.169226845e-13,3.322352334e-13,2.851946888e-13,6.319291033e-14,9.629926736e-14,1.802390424e-13,1.813881029e-13,2.134544553e-13,2.588737002e-13,1.487416542e-13,4.919959719e-13,5.130513786e-13,1.294090564e-12,6.965726262e-14,2.136170310e-13,7.761273287e-14,9.448163009e-14,1.810028030e-13,1.674349839e-13,1.493135026e-13,4.068812215e-13
0.80469,6.477010658e-13,2.094501474e-13,2.483174788e-13,2.735290752e-13,1.961785368e-13,1.413553274e-13,1.608326747e-13,3.584477557e-13,4.220214419e-13,1.554505875e-13,1.424720503e-13,3.207087102e-13,3.330716101e-13,3.140528784e-13,5.967898944e-14,8.952934268e-14,1.727893104e-13,1.723221228e-13,2.107477379e-13,2.790233303e-13,1.558069436e-13,4.812797291e-13,5.281918853e-13,1.312370429e-12,6.442674637e-14,2.262085858e-13,9.121055899e-14,8.304985404e-14,1.812366935e-13,1.660471077e-13,1.602799800e-13,4.166950465e-13
0.8125,6.115352160e-13,2.016204615e-13,2.519765797e-13,2.982639098e-13,2.105318615e-13,1.643328197e-13,1.738802736e-13,3.506602854e-13,3.890950917e-13,1.433755528e-13,1.565203373e-13,3.254257237e-13,3.346087604e-13,3.458498724e-13,5.819242304e-14,8.168608038e-14,1.639262679e-13,1.627003194e-13,2.056271520e-13,3.073640828e-13,1.616128012e-13,4.655674165e-13,5.354224412e-13,1.340999051e-12,5.910974194e-14,2.431004381e-13,1.094878446e-13,7.252067687e-14,1.803070241e-13,1.647963758e-13,1.713471550e-13,4.273509633e-13
0.82031,5.737485053e-13,1.927477218e-13,2.600704388e-13,3.196088560e-13,2.251619931e-13,1.884518144e-13,1.876244122e-13,3.509520538e-13,3.568533527e-13,1.323368755e-13,1.745634987e-13,3.316649294e-13,3.402765679e-13,3.784237219e-13,5.861058932e-14,7.314798707e-14,1.537389695e-13,1.537298841e-13,2.011323794e-13,3.440416354e-13,1.687297026e-13,4.483750674e-13,5.363465301e-13,1.384136198e-12,5.445513481e-14,2.645007478e-13,1.323516716e-13,6.417667051e-14,1.811097764e-13,1.642313805e-13,1.846501886e-13,4.416823529e-13
0.82812,5.342985165e-13,1.834046744e-13,2.711165844e-13,3.377671661e-13,2.402911219e-13,2.119133842e-13,2.042819093e-13,3.583576426e-13,3.273773020e-13,1.246071326e-13,1.958491988e-13,3.397789343e-13,3.506129446e-13,4.089911568e-13,6.043120381e-14,6.548755953e-14,1.439896089e-13,1.484330252e-13,1.976043507e-13,3.913196505e-13,1.795039641e-13,4.309886590e-13,5.304506494e-13,1.441612408e-12,5.020461426e-14,2.910491702e-13,1.587989268e-13,5.843061277e-14,1.848610894e-13,1.642476151e-13,2.009122911e-13,4.598263261e-13
0.83594,4.952871801e-13,1.726574626e-13,2.870766820e-13,3.520925356e-13,2.552883572e-13,2.333622213e-13,2.227292395e-13,3.703065772e-13,2.997224885e-13,1.224611579e-13,2.196870907e-13,3.477764259e-13,3.613165052e-13,4.330300885e-13,6.338555741e-14,5.935494856e-14,1.355053433e-13,1.464563375e-13,1.942928230e-13,4.461083567e-13,1.939946091e-13,4.148605725e-13,5.213461741e-13,1.514218752e-12,4.660483639e-14,3.218827921e-13,1.880948662e-13,5.705564142e-14,1.908140755e-13,1.649870830e-13,2.201359646e-13,4.789971017e-13
0.84375,4.600117537e-13,1.620413589e-13,3.073386137e-13,3.637708245e-13,2.707535188e-13,2.518034533e-13,2.419599477e-13,3.824993163e-13,2.749334111e-13,1.273931519e-13,2.466046940e-13,3.541943287e-13,3.717118180e-13,4.467318757e-13,6.730872368e-14,5.557186552e-14,1.286171309e-13,1.485216487e-13,1.918291497e-13,5.047852687e-13,2.132093188e-13,4.006682114e-13,5.102022243e-13,1.596571918e-12,4.385864748e-14,3.560278637e-13,2.188919467e-13,6.005049921e-14,1.998891643e-13,1.655534318e-13,2.423777349e-13,4.984257679e-13
0.85156,4.303076486e-13,1.528500078e-13,3.335254545e-13,3.692369029e-13,2.869858240e-13,2.656532622e-13,2.596024339e-13,3.923152008e-13,2.545172946e-13,1.400859174e-13,2.769176261e-13,3.607907353e-13,3.827598098e-13,4.520156257e-13,7.308398200e-14,5.477102705e-14,1.239275662e-13,1.536612919e-13,1.917765856e-13,5.664767852e-13,2.379788627e-13,3.909142990e-13,4.996150628e-13,1.686166160e-12,4.194143095e-14,3.947265919e-13,2.513714720e-13,6.869697909e-14,2.133747542e-13,1.669563212e-13,2.688730206e-13,5.177896541e-13
0.85938,4.067049393e-13,1.451900234e-13,3.700547319e-13,3.684631197e-13,3.045047385e-13,2.736913894e-13,2.741428536e-13,3.983186021e-13,2.374271176e-13,1.609563653e-13,3.108010947e-13,3.662088274e-13,3.914507595e-13,4.478742706e-13,7.989417901e-14,5.675335157e-14,1.223345766e-13,1.622172941e-13,1.946129924e-13,6.279837282e-13,2.675715608e-13,3.852430876e-13,4.912732666e-13,1.784643207e-12,4.080697365e-14,4.369424466e-13,2.844445519e-13,8.444538017e-14,2.312434643e-13,1.707833448e-13,2.989116711e-13,5.359603338e-13
0.86719,3.880239393e-13,1.398296720e-13,4.135068171e-13,3.674304618e-13,3.248646015e-13,2.786060732e-13,2.842386063e-13,3.977270128e-13,2.232525469e-13,1.885214437e-13,3.499950619e-13,3.709775556e-13,3.980842584e-13,4.380424991e-13,8.886483437e-14,6.255314510e-14,1.245087957e-13,1.738849456e-13,2.008551812e-13,6.832599980e-13,3.000962281e-13,3.833044679e-13,4.862533480e-13,1.880839196e-12,4.030232705e-14,4.803249530e-13,3.168716062e-13,1.067457035e-13,2.533228123e-13,1.754658989e-13,3.307585573e-13,5.523393130e-13
0.875,3.753128170e-13,1.374366171e-13,4.602229347e-13,3.669190243e-13,3.493640912e-13,2.824145458e-13,2.891275569e-13,3.896813512e-13,2.121431750e-13,2.201239810e-13,3.950259814e-13,3.767788724e-13,4.016286556e-13,4.232094031e-13,1.005203193e-13,7.233900807e-14,1.295689030e-13,1.860533491e-13,2.106014255e-13,7.262402252e-13,3.338016788e-13,3.850011315e-13,4.860371754e-13,1.970363115e-12,4.024503591e-14,5.240672246e-13,3.487335241e-13,1.345420678e-13,2.792838174e-13,1.812880169e-13,3.643587001e-13,5.667324882e-13
0.88281,3.682010874e-13,1.383676628e-13,5.079651225e-13,3.708291769e-13,3.792858897e-13,2.874819436e-13,2.868912084e-13,3.756229617e-13,2.025095998e-13,2.535082585e-13,4.447889735e-13,3.832019774e-13,4.000739910e-13,4.053782929e-13,1.147567145e-13,8.551448525e-14,1.361025447e-13,1.982320273e-13,2.240241432e-13,7.536562244e-13,3.658529943e-13,3.893174025e-13,4.909671353e-13,2.050301310e-12,4.051168101e-14,5.639096220e-13,3.787208882e-13,1.671564698e-13,3.075910494e-13,1.881608112e-13,3.977517754e-13,5.768660361e-13
0.89062,3.661991670e-13,1.434967190e-13,5.523274043e-13,3.815455293e-13,4.154164691e-13,2.953639370e-13,2.768122882e-13,3.565466284e-13,1.941420464e-13,2.864261723e-13,4.990449827e-13,3.916729990e-13,3.952135437e-13,3.884187509e-13,1.321478333e-13,1.016001135e-13,1.423485329e-13,2.108748607e-13,2.428431909e-13,7.602068180e-13,3.941408810e-13,3.962690014e-13,5.023343637e-13,2.116867653e-12,4.095355285e-14,5.966433961e-13,4.049612792e-13,2.019916875e-13,3.376126973e-13,1.957632566e-13,4.304653691e-13,5.825487953e-13
0.89844,3.674279572e-13,1.528795192e-13,5.914152067e-13,4.018052259e-13,4.576328149e-13,3.091281615e-13,2.611459587e-13,3.347331774e-13,1.868580254e-13,3.152459941e-13,5.555764225e-13,4.034901515e-13,3.894559065e-13,3.753343375e-13,1.533151768e-13,1.203628648e-13,1.489064111e-13,2.234961741e-13,2.665675691e-13,7.469008621e-13,4.171974211e-13,4.060988255e-13,5.203059134e-13,2.167967694e-12,4.172873917e-14,6.197029629e-13,4.259601406e-13,2.380363339e-13,3.677304796e-13,2.027459100e-13,4.605615517e-13,5.838350975e-13
0.90625,3.703250723e-13,1.671361080e-13,6.224035685e-13,4.322307091e-13,5.044291012e-13,3.283173913e-13,2.418236059e-13,3.125134823e-13,1.795444017e-13,3.387910094e-13,6.116520710e-13,4.178001566e-13,3.830566172e-13,3.686113442e-13,1.773935219e-13,1.413452863e-13,1.563589747e-13,2.364450747e-13,2.952189192e-13,7.156479266e-13,4.337638510e-13,4.193355353e-13,5.457788919e-13,2.195960520e-12,4.288098147e-14,6.291180514e-13,4.397991632e-13,2.710942172e-13,3.969121170e-13,2.086624900e-13,4.869239035e-13,5.796236537e-13
0.91406,3.745265641e-13,1.851457205e-13,6.447984336e-13,4.709947115e-13,5.536161337e-13,3.510034886e-13,2.209309978e-13,2.899735353e-13,1.725103584e-13,3.569324113e-13,6.667581452e-13,4.325604373e-13,3.764931476e-13,3.661733953e-13,2.028236315e-13,1.631074787e-13,1.638023346e-13,2.505449843e-13,3.287337709e-13,6.704386050e-13,4.440953324e-13,4.344093410e-13,5.779204854e-13,2.205308914e-12,4.436002585e-14,6.246502918e-13,4.456399270e-13,2.974677575e-13,4.245243414e-13,2.142618311e-13,5.088683430e-13,5.716435599e-13
0.92188,3.781585822e-13,2.060623864e-13,6.578386710e-13,5.175954841e-13,6.030561341e-13,3.778975843e-13,1.991831626e-13,2.709426115e-13,1.656936981e-13,3.695327580e-13,7.193227408e-13,4.470114640e-13,3.699185550e-13,3.693188333e-13,2.285438976e-13,1.852237877e-13,1.708510030e-13,2.669094871e-13,3.656288834e-13,6.135867066e-13,4.475059280e-13,4.510901025e-13,6.165710911e-13,2.196755535e-12,4.583798481e-14,6.062750956e-13,4.442446753e-13,3.166794739e-13,4.505915565e-13,2.198263767e-13,5.264642341e-13,5.597033636e-13
0.92969,3.806357558e-13,2.304065523e-13,6.687410417e-13,5.728686275e-13,6.502986319e-13,4.093832244e-13,1.776759930e-13,2.550874656e-13,1.577255207e-13,3.796251934e-13,7.692886200e-13,4.608112963e-13,3.620654368e-13,3.773178269e-13,2.540026868e-13,2.064020923e-13,1.757635914e-13,2.846482028e-13,4.045363570e-13,5.488410194e-13,4.454371208e-13,4.681178950e-13,6.598478008e-13,2.169789669e-12,4.709872536e-14,5.764547838e-13,4.365140713e-13,3.283368256e-13,4.752891568e-13,2.268823283e-13,5.408682078e-13,5.441206383e-13
0.9375,3.829635479e-13,2.562269665e-13,6.814464808e-13,6.325521913e-13,6.915697341e-13,4.422847969e-13,1.564166835e-13,2.416236727e-13,1.495269864e-13,3.865783213e-13,8.150480943e-13,4.715014423e-13,3.533988302e-13,3.873383100e-13,2.786054336e-13,2.271442561e-13,1.804909896e-13,3.054092549e-13,4.443851537e-13,4.835153992e-13,4.388114605e-13,4.850821776e-13,7.055282414e-13,2.132318731e-12,4.864625123e-14,5.395106631e-13,4.231780071e-13,3.327123540e-13,4.982849220e-13,2.353898053e-13,5.509767730e-13,5.267060610e-13
0.94531,3.841780523e-13,2.809490177e-13,6.945333781e-13,6.897941730e-13,7.217681510e-13,4.735285713e-13,1.358260102e-13,2.316587739e-13,1.424458435e-13,3.895196164e-13,8.508108473e-13,4.776487912e-13,3.439315295e-13,3.979975522e-13,3.003097707e-13,2.470197157e-13,1.850373194e-13,3.267003071e-13,4.807453212e-13,4.208502794e-13,4.272819933e-13,4.992458875e-13,7.514039621e-13,2.086505436e-12,5.009589322e-14,4.977500711e-13,4.056468180e-13,3.310433780e-13,5.191283319e-13,2.442658259e-13,5.558696262e-13,5.073684437e-13
0.95312,3.833362683e-13,3.012714602e-13,7.090613772e-13,7.400349225e-13,7.381223242e-13,5.017853108e-13,1.177829772e-13,2.242941413e-13,1.377063930e-13,3.901300856e-13,8.724420428e-13,4.791199620e-13,3.337191691e-13,4.069219456e-13,3.176137735e-13,2.645867415e-13,1.892820451e-13,3.453805376e-13,5.087103534e-13,3.628107827e-13,4.109342269e-13,5.071530590e-13,7.916887393e-13,2.035834824e-12,5.131723621e-14,4.553180159e-13,3.847774954e-13,3.255903109e-13,5.340374661e-13,2.528664189e-13,5.543430986e-13,4.872926811e-13
0.96094,3.821751798e-13,3.175489725e-13,7.248909064e-13,7.804017012e-13,7.393235554e-13,5.263770533e-13,1.028977003e-13,2.196014052e-13,1.369706439e-13,3.889142295e-13,8.798740644e-13,4.779961566e-13,3.252689812e-13,4.139972224e-13,3.287056688e-13,2.786446651e-13,1.917683119e-13,3.610686381e-13,5.274700741e-13,3.118519409e-13,3.903138925e-13,5.093807350e-13,8.241032441e-13,1.986848354e-12,5.208515639e-14,4.147306480e-13,3.626944904e-13,3.190206854e-13,5.425378182e-13,2.614879274e-13,5.458904315e-13,4.664063447e-13
0.96875,3.803564305e-13,3.272060058e-13,7.466287477e-13,8.015886567e-13,7.217062230e-13,5.443416955e-13,9.039922058e-14,2.171262955e-13,1.427433058e-13,3.859777677e-13,8.702656506e-13,4.761880466e-13,3.200675138e-13,4.194855232e-13,3.332548668e-13,2.867338564e-13,1.905311971e-13,3.708707637e-13,5.357731922e-13,2.679216397e-13,3.645364953e-13,5.042379676e-13,8.463660675e-13,1.936577286e-12,5.302373863e-14,3.764744221e-13,3.386875459e-13,3.144362640e-13,5.423974784e-13,2.711733776e-13,5.299185796e-13,4.442204694e-13
0.97656,3.786961242e-13,3.303003237e-13,7.729655289e-13,8.044675671e-13,6.868593729e-13,5.563331774e-13,8.038331626e-14,2.156161132e-13,1.569519594e-13,3.819893600e-13,8.435327367e-13,4.755896963e-13,3.200959995e-13,4.236170327e-13,3.313512342e-13,2.887244175e-13,1.859208093e-13,3.754940258e-13,5.335413872e-13,2.315739842e-13,3.340909187e-13,4.901709397e-13,8.527723014e-13,1.880873528e-12,5.446036604e-14,3.428046050e-13,3.140343871e-13,3.148557535e-13,5.339097053e-13,2.811058561e-13,5.073270413e-13,4.213315351e-13
0.98438,3.791656500e-13,3.288659577e-13,8.056504547e-13,7.913265153e-13,6.388686621e-13,5.637570210e-13,7.331764585e-14,2.159009944e-13,1.821534085e-13,3.772813855e-13,8.004934556e-13,4.796984224e-13,3.271713618e-13,4.307501023e-13,3.242621731e-13,2.862233266e-13,1.806748098e-13,3.773435665e-13,5.229772393e-13,2.029940264e-13,3.002897865e-13,4.683593789e-13,8.423910831e-13,1.818633005e-12,5.683370285e-14,3.147116404e-13,2.910162331e-13,3.238260284e-13,5.172826928e-13,2.916959707e-13,4.793671604e-13,3.982172640e-13
0.99219,3.851578840e-13,3.240522087e-13,8.431351470e-13,7.627676559e-13,5.817997632e-13,5.641443082e-13,7.033890065e-14,2.181720228e-13,2.204718857e-13,3.732582793e-13,7.452899898e-13,4.902422782e-13,3.414103335e-13,4.384045200e-13,3.121772046e-13,2.802346023e-13,1.765254809e-13,3.764066762e-13,5.052331620e-13,1.803909096e-13,2.655732330e-13,4.403285453e-13,8.164093306e-13,1.752506194e-12,6.009500097e-14,2.914627172e-13,2.703430755e-13,3.456255149e-13,4.944254040e-13,3.021041785e-13,4.473382524e-13,3.765585952e-13
1,3.990195008e-13,3.190524110e-13,8.857514916e-13,7.225333670e-13,5.217172474e-13,5.559733649e-13,7.083257499e-14,2.218364374e-13,2.732679205e-13,3.699105782e-13,6.819747680e-13,5.119253803e-13,3.665896532e-13,4.515919273e-13,2.967569710e-13,2.716630577e-13,1.730061059e-13,3.743960165e-13,4.840095817e-13,1.631197495e-13,2.323007838e-13,4.102984758e-13,7.764949657e-13,1.683649340e-12,6.448744469e-14,2.733072690e-13,2.539545538e-13,3.811838794e-13,4.691267046e-13,3.142086620e-13,4.150818311e-13,3.569547189e-13
1.0078,4.224206667e-13,3.165038241e-13,9.346214864e-13,6.747164288e-13,4.628636333e-13,5.390889124e-13,7.574354095e-14,2.260462373e-13,3.424348950e-13,3.668721489e-13,6.169208296e-13,5.491546526e-13,4.052265222e-13,4.726592618e-13,2.810513423e-13,2.623305655e-13,1.710565281e-13,3.732840336e-13,4.629356370e-13,1.512485055e-13,2.021953484e-13,3.812655513e-13,7.254072216e-13,1.608646587e-12,7.017856068e-14,2.598531988e-13,2.427426510e-13,4.323795991e-13,4.445169214e-13,3.280698587e-13,3.854935894e-13,3.409292698e-13
1.0156,4.572479783e-13,3.186434126e-13,9.870549193e-13,6.274787134e-13,4.093161882e-13,5.156387319e-13,8.470907085e-14,2.332408099e-13,4.285048696e-13,3.650183827e-13,5.559954687e-13,6.037755294e-13,4.587087749e-13,5.013461970e-13,2.664690219e-13,2.539498267e-13,1.721623043e-13,3.750949009e-13,4.433619548e-13,1.451363424e-13,1.766321668e-13,3.567028606e-13,6.671700276e-13,1.532861960e-12,7.729560788e-14,2.496197500e-13,2.366985259e-13,5.007596089e-13,4.223760274e-13,3.420714537e-13,3.596004142e-13,3.308330616e-13
1.0234,5.020144911e-13,3.250786187e-13,1.035031617e-12,5.804117362e-13,3.629391294e-13,4.857231750e-13,9.796954542e-14,2.447841032e-13,5.262784902e-13,3.647129357e-13,5.032241464e-13,6.739068964e-13,5.233092853e-13,5.363269504e-13,2.528473087e-13,2.473276482e-13,1.761147297e-13,3.787337478e-13,4.268338973e-13,1.443778970e-13,1.566888532e-13,3.380474065e-13,6.070448619e-13,1.457410832e-12,8.498060847e-14,2.422065835e-13,2.355114467e-13,5.833037946e-13,4.029132897e-13,3.547687948e-13,3.377954252e-13,3.271590774e-13
1.0312,5.529739308e-13,3.339505178e-13,1.080670747e-12,5.331550038e-13,3.245886675e-13,4.482433733e-13,1.136247300e-13,2.611707312e-13,6.308378724e-13,3.663679516e-13,4.616042809e-13,7.534524771e-13,5.940860133e-13,5.721626467e-13,2.409189983e-13,2.434117827e-13,1.838052168e-13,3.849108404e-13,4.150807614e-13,1.488261508e-13,1.432016757e-13,3.254119103e-13,5.475461121e-13,1.381335879e-12,9.288961534e-14,2.379673121e-13,2.375564225e-13,6.742815914e-13,3.866878850e-13,3.669217767e-13,3.203826446e-13,3.319665763e-13
1.0391,6.049805230e-13,3.444477277e-13,1.119455172e-12,4.888977904e-13,2.945980368e-13,4.067055326e-13,1.311222416e-13,2.851537530e-13,7.405733822e-13,3.684364359e-13,4.302221916e-13,8.391680123e-13,6.687022855e-13,6.065043917e-13,2.309460274e-13,2.415632752e-13,1.930753310e-13,3.916925447e-13,4.061927011e-13,1.579098894e-13,1.356113536e-13,3.190473061e-13,4.906599864e-13,1.305658530e-12,1.005148293e-13,2.368421441e-13,2.403789843e-13,7.668509726e-13,3.715936684e-13,3.767361193e-13,3.063905234e-13,3.481369984e-13
1.0469,6.528396624e-13,3.547675315e-13,1.146967884e-12,4.482445331e-13,2.720818626e-13,3.634323724e-13,1.497972830e-13,3.158496251e-13,8.504692543e-13,3.704004709e-13,4.099175629e-13,9.280661412e-13,7.408211193e-13,6.350374089e-13,2.221512878e-13,2.409646481e-13,2.029397969e-13,3.973958722e-13,3.993174110e-13,1.712029360e-13,1.332463483e-13,3.175618113e-13,4.399421304e-13,1.228408070e-12,1.072805748e-13,2.393479547e-13,2.432152289e-13,8.555874260e-13,3.566595523e-13,3.835715346e-13,2.947526911e-13,3.754159909e-13
1.0547,6.874625770e-13,3.599143405e-13,1.164120131e-12,4.092932308e-13,2.535347055e-13,3.221212719e-13,1.687894013e-13,3.519789462e-13,9.524507122e-13,3.719289716e-13,3.985605584e-13,1.009696629e-12,8.002902636e-13,6.527378955e-13,2.134540917e-13,2.417738624e-13,2.137338986e-13,3.995367296e-13,3.920495575e-13,1.883555432e-13,1.348990946e-13,3.182087668e-13,3.970790674e-13,1.151829079e-12,1.125093155e-13,2.438192417e-13,2.428768454e-13,9.285190154e-13,3.389405551e-13,3.867562278e-13,2.822512619e-13,4.128746379e-13
1.0625,7.039813812e-13,3.574161764e-13,1.167148561e-12,3.714773772e-13,2.400647511e-13,2.846460171e-13,1.872259687e-13,3.899410573e-13,1.037532337e-12,3.706626574e-13,3.961522345e-13,1.075636408e-12,8.400612340e-13,6.582989993e-13,2.048159947e-13,2.441648713e-13,2.252046388e-13,3.999626990e-13,3.861611986e-13,2.084557274e-13,1.404684219e-13,3.192787482e-13,3.615906269e-13,1.075817419e-12,1.158682735e-13,2.518382531e-13,2.381450949e-13,9.715945275e-13,3.191101088e-13,3.865913854e-13,2.693019250e-13,4.576734715e-13
1.0703,7.012749685e-13,3.479636835e-13,1.157083909e-12,3.365151904e-13,2.310124202e-13,2.524248411e-13,2.034514297e-13,4.261675639e-13,1.101812619e-12,3.661011291e-13,3.992948651e-13,1.125093159e-12,8.583853434e-13,6.499823437e-13,1.958198170e-13,2.465044392e-13,2.357779494e-13,3.979002485e-13,3.807855798e-13,2.294967196e-13,1.475356499e-13,3.191561427e-13,3.314813891e-13,9.977627014e-13,1.171980981e-13,2.627078466e-13,2.303843980e-13,9.854199232e-13,2.973505486e-13,3.837356989e-13,2.559300687e-13,5.060570868e-13
1.0781,6.771926260e-13,3.306617354e-13,1.136779756e-12,3.023292796e-13,2.231790878e-13,2.244456858e-13,2.182438367e-13,4.596398039e-13,1.143178972e-12,3.584821914e-13,4.063247098e-13,1.154359470e-12,8.535428033e-13,6.255047787e-13,1.858848778e-13,2.460481167e-13,2.431015303e-13,3.914306336e-13,3.745823886e-13,2.520703494e-13,1.552295345e-13,3.172227929e-13,3.061345345e-13,9.220410409e-13,1.170870226e-13,2.761584104e-13,2.185052313e-13,9.665913199e-13,2.735501113e-13,3.798244519e-13,2.414262876e-13,5.541019135e-13
1.0859,6.352279492e-13,3.058939760e-13,1.111657901e-12,2.705159812e-13,2.164322739e-13,2.015252929e-13,2.322360714e-13,4.872484301e-13,1.162384749e-12,3.492588827e-13,4.147171594e-13,1.165953073e-12,8.311193932e-13,5.904836361e-13,1.763177829e-13,2.428326689e-13,2.462611261e-13,3.820287125e-13,3.690669921e-13,2.745509888e-13,1.629476045e-13,3.133145149e-13,2.846530457e-13,8.498044895e-13,1.167584111e-13,2.915520966e-13,2.037019233e-13,9.188742979e-13,2.499700139e-13,3.772824845e-13,2.265117611e-13,5.971280643e-13
1.0938,5.822279455e-13,2.762442806e-13,1.082599920e-12,2.428333728e-13,2.116708729e-13,1.846443133e-13,2.449638375e-13,5.052690108e-13,1.158551945e-12,3.371592617e-13,4.229608952e-13,1.162032486e-12,7.936649626e-13,5.501318184e-13,1.680454747e-13,2.376539962e-13,2.467957443e-13,3.732612318e-13,3.660630316e-13,2.949686254e-13,1.699422545e-13,3.069800291e-13,2.648843870e-13,7.831342544e-13,1.175473920e-13,3.081436559e-13,1.890175590e-13,8.506780804e-13,2.289227442e-13,3.753530843e-13,2.121211497e-13,6.309866945e-13
1.1016,5.230770652e-13,2.432877406e-13,1.045230403e-12,2.182324219e-13,2.071078138e-13,1.712587771e-13,2.566931557e-13,5.122313950e-13,1.131158087e-12,3.227075820e-13,4.290922612e-13,1.140607603e-12,7.413694876e-13,5.025200238e-13,1.609041761e-13,2.295300308e-13,2.421090159e-13,3.634683493e-13,3.640361775e-13,3.102503078e-13,1.747898791e-13,2.980241088e-13,2.455795143e-13,7.217475089e-13,1.187557682e-13,3.235283428e-13,1.753755387e-13,7.666019471e-13,2.115270603e-13,3.733198211e-13,1.992176806e-13,6.499015335e-13
1.1094,4.677948125e-13,2.107757387e-13,1.002030224e-12,1.996552543e-13,2.040659103e-13,1.617955165e-13,2.689315559e-13,5.096413225e-13,1.085412739e-12,3.077523940e-13,4.320315584e-13,1.106016271e-12,6.825237712e-13,4.526258563e-13,1.558395343e-13,2.196456928e-13,2.331753155e-13,3.539322526e-13,3.631081772e-13,3.211233268e-13,1.774354604e-13,2.875754327e-13,2.263598144e-13,6.658231701e-13,1.209959111e-13,3.365124899e-13,1.654213119e-13,6.796465370e-13,1.993660570e-13,3.703012335e-13,1.883381330e-13,6.541711417e-13
1.1172,4.217646026e-13,1.816376817e-13,9.546488916e-13,1.856389771e-13,1.995722947e-13,1.557327785e-13,2.797289491e-13,4.976888890e-13,1.027588446e-12,2.934557149e-13,4.280339372e-13,1.064935279e-12,6.243562351e-13,4.049230786e-13,1.513304471e-13,2.065367926e-13,2.196113034e-13,3.423933688e-13,3.614346104e-13,3.263051540e-13,1.762859347e-13,2.777654975e-13,2.081987439e-13,6.187568198e-13,1.249535703e-13,3.437369374e-13,1.599041118e-13,6.019121797e-13,1.915641750e-13,3.640212579e-13,1.790603178e-13,6.426373682e-13
1.125,3.860927084e-13,1.560238407e-13,9.009624271e-13,1.755366311e-13,1.936632324e-13,1.517084441e-13,2.886555508e-13,4.780313811e-13,9.601914808e-13,2.799888179e-13,4.185178086e-13,1.015407410e-12,5.695740548e-13,3.568199059e-13,1.468295448e-13,1.912723383e-13,2.033960877e-13,3.304747423e-13,3.601749875e-13,3.239924017e-13,1.716525989e-13,2.685818300e-13,1.908375102e-13,5.795714135e-13,1.302694466e-13,3.441118567e-13,1.589573667e-13,5.360455460e-13,1.888205408e-13,3.536601179e-13,1.722491580e-13,6.142108188e-13
1.1328,3.611284957e-13,1.344335195e-13,8.420485085e-13,1.686256489e-13,1.862798607e-13,1.506162352e-13,2.951636809e-13,4.523518615e-13,8.850488934e-13,2.669083917e-13,4.035417337e-13,9.555691999e-13,5.178508425e-13,3.101985983e-13,1.430269869e-13,1.757718635e-13,1.862735126e-13,3.178714409e-13,3.570104998e-13,3.150615840e-13,1.638450291e-13,2.603518077e-13,1.744346437e-13,5.460987033e-13,1.367020112e-13,3.375546263e-13,1.620223055e-13,4.862130732e-13,1.891572995e-13,3.369195169e-13,1.670920950e-13,5.724602832e-13
1.1406,3.466663112e-13,1.175031213e-13,7.832909125e-13,1.629968874e-13,1.770062753e-13,1.524990019e-13,3.007038400e-13,4.251485195e-13,8.094916426e-13,2.542395062e-13,3.841977156e-13,8.911123831e-13,4.713878440e-13,2.677662558e-13,1.398470526e-13,1.605202801e-13,1.699560629e-13,3.038108450e-13,3.511814385e-13,3.018921445e-13,1.532419127e-13,2.541949828e-13,1.599978944e-13,5.216204124e-13,1.440487215e-13,3.248822292e-13,1.692566369e-13,4.536403544e-13,1.912696567e-13,3.159462706e-13,1.625431640e-13,5.223218847e-13
1.1484,3.405469901e-13,1.050802128e-13,7.276239691e-13,1.585371671e-13,1.673007459e-13,1.572228545e-13,3.019975938e-13,3.997423940e-13,7.378575453e-13,2.417321025e-13,3.630595207e-13,8.255130402e-13,4.318511853e-13,2.322240267e-13,1.373142028e-13,1.468427926e-13,1.565710408e-13,2.893287053e-13,3.443252471e-13,2.870581735e-13,1.407944600e-13,2.525283584e-13,1.470693457e-13,5.073949272e-13,1.515796454e-13,3.076148512e-13,1.797124496e-13,4.349077048e-13,1.935814981e-13,2.934907275e-13,1.583751080e-13,4.698435644e-13
1.1562,3.414056770e-13,9.773780700e-14,6.782127748e-13,1.550900722e-13,1.575911426e-13,1.657204749e-13,3.007731018e-13,3.761632021e-13,6.692756995e-13,2.295792570e-13,3.415877493e-13,7.582678517e-13,3.974686198e-13,2.069427729e-13,1.361461040e-13,1.354726671e-13,1.465586070e-13,2.755730074e-13,3.367921038e-13,2.719602114e-13,1.271643390e-13,2.555691537e-13,1.363875562e-13,5.003283233e-13,1.588119788e-13,2.873202782e-13,1.937478347e-13,4.269864919e-13,1.959720619e-13,2.713797088e-13,1.552999023e-13,4.162243254e-13
1.1641,3.420752781e-13,9.350749995e-14,6.339001200e-13,1.521230855e-13,1.480142859e-13,1.792697490e-13,2.953155062e-13,3.566922867e-13,6.031955462e-13,2.158170472e-13,3.233018435e-13,6.886840157e-13,3.650301345e-13,1.924491031e-13,1.365838097e-13,1.277532417e-13,1.418785923e-13,2.625933687e-13,3.278197146e-13,2.579348518e-13,1.128115922e-13,2.604425212e-13,1.281907219e-13,4.957020422e-13,1.647018934e-13,2.644881674e-13,2.091732740e-13,4.268327225e-13,1.956507467e-13,2.494345966e-13,1.514122601e-13,3.641674142e-13
1.1719,3.420104909e-13,9.118771160e-14,5.952088347e-13,1.486769130e-13,1.392636251e-13,1.963626039e-13,2.878183398e-13,3.412392911e-13,5.402621375e-13,2.003279404e-13,3.092758273e-13,6.175830519e-13,3.334848598e-13,1.898095708e-13,1.380518470e-13,1.234239147e-13,1.418356133e-13,2.515922554e-13,3.181518079e-13,2.470590800e-13,9.859247489e-14,2.661588521e-13,1.226483050e-13,4.908648696e-13,1.684921175e-13,2.421711863e-13,2.253706451e-13,4.328466945e-13,1.915333613e-13,2.277864550e-13,1.460701608e-13,3.178529137e-13
1.1797,3.372943235e-13,9.039496349e-14,5.634786207e-13,1.471972476e-13,1.318726198e-13,2.188687325e-13,2.802056763e-13,3.301995168e-13,4.801191359e-13,1.836459905e-13,2.995602258e-13,5.485993398e-13,3.026605229e-13,2.009543121e-13,1.401381509e-13,1.233685776e-13,1.464069624e-13,2.441593761e-13,3.080183581e-13,2.410061609e-13,8.588863616e-14,2.705809487e-13,1.191622079e-13,4.814799885e-13,1.702719124e-13,2.221602872e-13,2.416755007e-13,4.422763422e-13,1.842539272e-13,2.074430498e-13,1.393032286e-13,2.772159178e-13
1.1875,3.252061766e-13,8.990968131e-14,5.348120717e-13,1.467222706e-13,1.254126598e-13,2.453756198e-13,2.727970294e-13,3.229535496e-13,4.212522433e-13,1.660771116e-13,2.955598347e-13,4.818088680e-13,2.695232476e-13,2.252220012e-13,1.424388705e-13,1.276187824e-13,1.538805391e-13,2.397746224e-13,2.971410098e-13,2.411608262e-13,7.526617413e-14,2.695804543e-13,1.182283799e-13,4.626742310e-13,1.703115400e-13,2.045695649e-13,2.577751873e-13,4.537496283e-13,1.724028181e-13,1.877883520e-13,1.297656883e-13,2.419649246e-13
1.1953,3.055163689e-13,9.016749070e-14,5.095573332e-13,1.471278099e-13,1.207695114e-13,2.748611008e-13,2.640098414e-13,3.164376342e-13,3.646301931e-13,1.485231437e-13,2.967571790e-13,4.213952514e-13,2.367582084e-13,2.629878460e-13,1.453363346e-13,1.362569637e-13,1.638217746e-13,2.416287423e-13,2.888333805e-13,2.484346658e-13,6.681272595e-14,2.624621414e-13,1.209392311e-13,4.306336070e-13,1.709745628e-13,1.918771578e-13,2.753175332e-13,4.683785927e-13,1.586042084e-13,1.699718950e-13,1.189815569e-13,2.121715781e-13
1.2031,2.841144666e-13,9.129169135e-14,4.875213580e-13,1.485861618e-13,1.171620612e-13,3.043538598e-13,2.539422022e-13,3.091871356e-13,3.121768582e-13,1.319531721e-13,3.006564644e-13,3.688625685e-13,2.078123267e-13,3.121465922e-13,1.485661234e-13,1.487596252e-13,1.738451895e-13,2.496948131e-13,2.835701263e-13,2.614600231e-13,6.042545650e-14,2.511328049e-13,1.275054527e-13,3.903292932e-13,1.732715965e-13,1.835019473e-13,2.915779506e-13,4.853967829e-13,1.439524315e-13,1.535973249e-13,1.076908791e-13,1.873058582e-13
1.2109,2.615436375e-13,9.244445169e-14,4.701677895e-13,1.500020726e-13,1.131024090e-13,3.326386983e-13,2.435625192e-13,3.015868648e-13,2.638639859e-13,1.161718019e-13,3.046808788e-13,3.240349458e-13,1.829059436e-13,3.704740998e-13,1.531514933e-13,1.645459064e-13,1.827825002e-13,2.626473995e-13,2.805654150e-13,2.793545458e-13,5.648030579e-14,2.347486296e-13,1.367841609e-13,3.427839707e-13,1.782346592e-13,1.792698396e-13,3.069392296e-13,5.024062190e-13,1.290204956e-13,1.374115261e-13,9.586007132e-14,1.675395769e-13
1.2188,2.415415036e-13,9.559793911e-14,4.623577381e-13,1.532639250e-13,1.090405755e-13,3.562314539e-13,2.330735000e-13,2.920772338e-13,2.229906708e-13,1.024760734e-13,3.071866872e-13,2.927802355e-13,1.670743410e-13,4.363968765e-13,1.584062999e-13,1.819378237e-13,1.887524660e-13,2.804164255e-13,2.804334069e-13,2.990774581e-13,5.430327120e-14,2.153782471e-13,1.481102228e-13,2.938588142e-13,1.879406901e-13,1.787017975e-13,3.232349608e-13,5.210348118e-13,1.164909460e-13,1.224649586e-13,8.512166168e-14,1.519587152e-13
1.2266,2.256351467e-13,9.941630412e-14,4.616425398e-13,1.565473992e-13,1.045978844e-13,3.726067599e-13,2.217926947e-13,2.807494633e-13,1.888053244e-13,9.116479283e-14,3.073498610e-13,2.725039883e-13,1.593765597e-13,5.057399184e-13,1.633577868e-13,1.979758982e-13,1.899079145e-13,2.999376798e-13,2.828048802e-13,3.172458071e-13,5.349807085e-14,1.937084561e-13,1.616661505e-13,2.469725682e-13,2.016750110e-13,1.807249932e-13,3.382632578e-13,5.357069708e-13,1.061741834e-13,1.088748562e-13,7.579212594e-14,1.401131643e-13
1.2344,2.141115578e-13,1.040639575e-13,4.709315371e-13,1.582896558e-13,1.000965592e-13,3.816264372e-13,2.080168746e-13,2.664665968e-13,1.611125494e-13,8.207535946e-14,3.025967779e-13,2.655277671e-13,1.600466930e-13,5.801207309e-13,1.679705658e-13,2.113104984e-13,1.860309157e-13,3.208696490e-13,2.890076656e-13,3.305536397e-13,5.296015501e-14,1.712928451e-13,1.770618004e-13,2.047350236e-13,2.198079619e-13,1.851324829e-13,3.518076710e-13,5.484664025e-13,9.888656283e-14,9.748079433e-14,6.859005164e-14,1.307768844e-13
1.2422,2.095251151e-13,1.094437076e-13,4.914398991e-13,1.595086159e-13,9.541923555e-14,3.827337067e-13,1.940967127e-13,2.503140582e-13,1.420296989e-13,7.537747631e-14,2.923042349e-13,2.708197849e-13,1.709411590e-13,6.566216023e-13,1.726057407e-13,2.213638608e-13,1.780771247e-13,3.412848761e-13,2.994636798e-13,3.395474584e-13,5.284891258e-14,1.514689351e-13,1.925170088e-13,1.704429327e-13,2.416585904e-13,1.916826313e-13,3.630136410e-13,5.569551081e-13,9.496987465e-14,8.827293454e-14,6.484013629e-14,1.242172646e-13
1.25,2.095564390e-13,1.145220689e-13,5.199346992e-13,1.603154432e-13,9.138583086e-14,3.773318357e-13,1.812441690e-13,2.336708790e-13,1.291347045e-13,7.031703220e-14,2.786268502e-13,2.840596776e-13,1.897726959e-13,7.328660157e-13,1.775575703e-13,2.284997285e-13,1.678719244e-13,3.594289989e-13,3.130167450e-13,3.435008226e-13,5.326680240e-14,1.339038185e-13,2.067852404e-13,1.450458176e-13,2.645945446e-13,1.989767887e-13,3.710456337e-13,5.600903855e-13,9.360807047e-14,8.077886757e-14,6.428914901e-14,1.192052276e-13
1.2578,2.125415747e-13,1.195275253e-13,5.562064895e-13,1.609197938e-13,8.853574378e-14,3.678263943e-13,1.701683516e-13,2.168160687e-13,1.224574345e-13,6.764009547e-14,2.600996595e-13,3.060933029e-13,2.163719294e-13,8.090094212e-13,1.820282270e-13,2.300364566e-13,1.533635037e-13,3.716177527e-13,3.286872128e-13,3.402379694e-13,5.387367508e-14,1.189082399e-13,2.175826431e-13,1.301262268e-13,2.863602406e-13,2.055059583e-13,3.759901991e-13,5.594449551e-13,9.480659293e-14,7.534789145e-14,6.738200434e-14,1.154465844e-13
1.2656,2.194361205e-13,1.249746751e-13,5.980447975e-13,1.633741948e-13,8.841726659e-14,3.572799989e-13,1.619728270e-13,2.029048128e-13,1.224566460e-13,6.751701773e-14,2.395329427e-13,3.358415261e-13,2.512588804e-13,8.839212866e-13,1.866145246e-13,2.271856482e-13,1.369998885e-13,3.805400684e-13,3.492037244e-13,3.308580466e-13,5.477498216e-14,1.074038461e-13,2.235455375e-13,1.242814136e-13,3.056320647e-13,2.127024282e-13,3.792698948e-13,5.524191903e-13,9.892407015e-14,7.206275112e-14,7.512515642e-14,1.134350147e-13
1.2734,2.284288578e-13,1.296734240e-13,6.373817836e-13,1.678857236e-13,9.104615168e-14,3.475509027e-13,1.560427832e-13,1.915684089e-13,1.255396282e-13,6.811167333e-14,2.184066009e-13,3.685125962e-13,2.919224855e-13,9.532142912e-13,1.899171203e-13,2.191130133e-13,1.188365830e-13,3.845112639e-13,3.729309010e-13,3.147060922e-13,5.539339051e-14,9.961939357e-14,2.250139583e-13,1.263566393e-13,3.206964204e-13,2.192365065e-13,3.784744384e-13,5.390503161e-13,1.042674444e-13,7.001553436e-14,8.684665743e-14,1.112471332e-13
1.2812,2.378287080e-13,1.328648679e-13,6.696606112e-13,1.746585272e-13,9.641914815e-14,3.406407778e-13,1.527508244e-13,1.818396488e-13,1.304933918e-13,6.926778738e-14,1.982045328e-13,4.023419271e-13,3.363275630e-13,1.017206142e-12,1.926639902e-13,2.075915103e-13,1.008536575e-13,3.839186480e-13,3.990644260e-13,2.942336541e-13,5.605938153e-14,9.521322882e-14,2.222712190e-13,1.360746570e-13,3.305998684e-13,2.254869695e-13,3.737960075e-13,5.192611248e-13,1.098930294e-13,6.895097107e-14,1.019297748e-13,1.101794459e-13
1.2891,2.498877250e-13,1.357001926e-13,6.902039544e-13,1.840583743e-13,1.052369067e-13,3.378949422e-13,1.518465123e-13,1.746011800e-13,1.374228826e-13,7.137646802e-14,1.806390609e-13,4.371699580e-13,3.840873480e-13,1.075154368e-12,1.960284596e-13,1.944370716e-13,8.437830940e-14,3.800945088e-13,4.277396461e-13,2.723113262e-13,5.754741247e-14,9.369245344e-14,2.150185922e-13,1.530314708e-13,3.335880214e-13,2.328462330e-13,3.663017822e-13,4.976080790e-13,1.161956708e-13,6.879064098e-14,1.204629212e-13,1.099188377e-13
1.2969,2.633217007e-13,1.381318998e-13,6.940871370e-13,1.973321568e-13,1.172422679e-13,3.408826119e-13,1.498849958e-13,1.684064074e-13,1.438080489e-13,7.349594864e-14,1.654644534e-13,4.700505061e-13,4.319932080e-13,1.121739688e-12,1.989690590e-13,1.790936457e-13,6.858548822e-14,3.724016482e-13,4.570113938e-13,2.491095166e-13,5.946510906e-14,9.430826167e-14,2.026661451e-13,1.754973423e-13,3.298676672e-13,2.408041157e-13,3.549854834e-13,4.748299563e-13,1.227129655e-13,6.938110398e-14,1.421280407e-13,1.091728303e-13
1.3047,2.802478468e-13,1.402148420e-13,6.807502452e-13,2.141092387e-13,1.327813557e-13,3.479108559e-13,1.467975622e-13,1.617692165e-13,1.482802937e-13,7.546956882e-14,1.530176003e-13,4.991558779e-13,4.768623207e-13,1.155410629e-12,2.015776395e-13,1.640844947e-13,5.500297670e-14,3.640361275e-13,4.858407287e-13,2.260849639e-13,6.209548556e-14,9.644860812e-14,1.872098429e-13,2.028171207e-13,3.211204953e-13,2.501753845e-13,3.434284732e-13,4.517670414e-13,1.298149697e-13,7.004533583e-14,1.670167240e-13,1.088219078e-13
1.3125,2.994148320e-13,1.426843051e-13,6.526091713e-13,2.335184478e-13,1.518963448e-13,3.574827948e-13,1.404224049e-13,1.553974653e-13,1.521892819e-13,7.778286662e-14,1.438838677e-13,5.248726594e-13,5.175854681e-13,1.176424082e-12,2.037701029e-13,1.508007666e-13,4.447374608e-14,3.538460120e-13,5.118011535e-13,2.034660969e-13,6.574764232e-14,9.929298341e-14,1.702088757e-13,2.336263718e-13,3.077206999e-13,2.603226352e-13,3.333556284e-13,4.327673680e-13,1.374188312e-13,7.100799533e-14,1.948467091e-13,1.088197062e-13
1.3203,3.209933621e-13,1.459799853e-13,6.140355322e-13,2.537137155e-13,1.737469805e-13,3.684569866e-13,1.312766008e-13,1.481506708e-13,1.559281638e-13,8.020905602e-14,1.366962931e-13,5.491671849e-13,5.544758057e-13,1.188358360e-12,2.058417974e-13,1.388179156e-13,3.717781758e-14,3.432659440e-13,5.342379263e-13,1.834992383e-13,7.062401457e-14,1.023132370e-13,1.536021986e-13,2.674907288e-13,2.914555494e-13,2.723041262e-13,3.267167822e-13,4.203591378e-13,1.456085051e-13,7.323826032e-14,2.248609022e-13,1.092387792e-13
1.3281,3.455298733e-13,1.507039882e-13,5.699184513e-13,2.748278544e-13,1.982121399e-13,3.815023919e-13,1.197305712e-13,1.397319809e-13,1.599351145e-13,8.207479936e-14,1.304476793e-13,5.718285666e-13,5.869900593e-13,1.192129793e-12,2.083535419e-13,1.286905149e-13,3.315771046e-14,3.345240622e-13,5.532549318e-13,1.679515358e-13,7.702578417e-14,1.055311889e-13,1.380267193e-13,3.006907153e-13,2.731797731e-13,2.871229570e-13,3.236785649e-13,4.155822857e-13,1.553504739e-13,7.629485225e-14,2.568510411e-13,1.110983476e-13
1.3359,3.689631061e-13,1.566293469e-13,5.230897540e-13,2.968946267e-13,2.247286541e-13,3.946912581e-13,1.058140222e-13,1.312421887e-13,1.650875799e-13,8.290372126e-14,1.249002072e-13,5.908936188e-13,6.148764954e-13,1.184745609e-12,2.098357051e-13,1.198530117e-13,3.232837774e-14,3.253439766e-13,5.657810227e-13,1.553968627e-13,8.470975783e-14,1.088705185e-13,1.244918259e-13,3.324763838e-13,2.532489403e-13,3.030584995e-13,3.226107567e-13,4.171549840e-13,1.655909728e-13,7.982145050e-14,2.895242270e-13,1.144924503e-13
1.3438,3.864310880e-13,1.626785043e-13,4.743935382e-13,3.177753498e-13,2.511144003e-13,4.067045171e-13,9.074439085e-14,1.231956844e-13,1.717118814e-13,8.393638668e-14,1.191289795e-13,6.076376365e-13,6.366440714e-13,1.166853831e-12,2.089989908e-13,1.124728734e-13,3.474205395e-14,3.145529502e-13,5.695203674e-13,1.451398833e-13,9.327517747e-14,1.117305408e-13,1.144897394e-13,3.599941780e-13,2.321602954e-13,3.189959943e-13,3.248101862e-13,4.218899807e-13,1.756516883e-13,8.429920049e-14,3.200718252e-13,1.187356135e-13
1.3516,3.956995103e-13,1.693544217e-13,4.279666144e-13,3.354369548e-13,2.756460838e-13,4.151428836e-13,7.538436622e-14,1.171548749e-13,1.810520515e-13,8.541312685e-14,1.121608751e-13,6.235648233e-13,6.541580075e-13,1.140537418e-12,2.051018436e-13,1.066398291e-13,4.093921448e-14,3.019166503e-13,5.663326739e-13,1.378488643e-13,1.021974806e-13,1.134859724e-13,1.085414437e-13,3.803547959e-13,2.110164178e-13,3.337382978e-13,3.292675584e-13,4.266104975e-13,1.858083575e-13,9.033707990e-14,3.476515404e-13,1.234430817e-13
1.3594,3.952884578e-13,1.760149170e-13,3.855241295e-13,3.479017602e-13,2.963927131e-13,4.165511947e-13,6.265018515e-14,1.124902227e-13,1.916518095e-13,8.636838421e-14,1.036334970e-13,6.363887136e-13,6.659973462e-13,1.104135272e-12,1.967160412e-13,1.014540964e-13,5.113101037e-14,2.868478080e-13,5.565368430e-13,1.328289820e-13,1.109699812e-13,1.145433558e-13,1.061889459e-13,3.941054211e-13,1.899989593e-13,3.466160556e-13,3.343195106e-13,4.275401220e-13,1.945639153e-13,9.682502983e-14,3.706928216e-13,1.288876848e-13
1.3672,3.848093994e-13,1.821304983e-13,3.506815672e-13,3.546521934e-13,3.116818963e-13,4.108306870e-13,5.333046934e-14,1.093034583e-13,2.029730016e-13,8.669394047e-14,9.304664154e-14,6.464562258e-13,6.712153514e-13,1.058271413e-12,1.857887360e-13,9.768391149e-14,6.516941017e-14,2.700622307e-13,5.402991523e-13,1.287665803e-13,1.186901049e-13,1.147514241e-13,1.066835313e-13,3.991595338e-13,1.702506944e-13,3.557055957e-13,3.363373191e-13,4.229414239e-13,2.008925111e-13,1.031876659e-13,3.869150218e-13,1.352798871e-13
1.375,3.651709471e-13,1.884585433e-13,3.249360586e-13,3.580074352e-13,3.204777175e-13,4.002241703e-13,4.781062902e-14,1.090789504e-13,2.143324306e-13,8.594177401e-14,8.112845910e-14,6.530518664e-13,6.712678816e-13,1.006638602e-12,1.736673503e-13,9.627507294e-14,8.376687504e-14,2.517210274e-13,5.187587318e-13,1.257298215e-13,1.244991636e-13,1.144590981e-13,1.096675788e-13,3.995087610e-13,1.521363341e-13,3.591979689e-13,3.341193099e-13,4.119548167e-13,2.041910608e-13,1.084961691e-13,3.952345234e-13,1.417035234e-13
1.3828,3.359962825e-13,1.939535891e-13,3.072956761e-13,3.562845164e-13,3.212546948e-13,3.848630865e-13,4.688658311e-14,1.101272557e-13,2.229196031e-13,8.464267862e-14,6.989630135e-14,6.520328059e-13,6.613412507e-13,9.497667452e-13,1.615063001e-13,9.683792818e-14,1.065322305e-13,2.312693594e-13,4.911442617e-13,1.234383450e-13,1.281212058e-13,1.134825903e-13,1.145869933e-13,3.950793063e-13,1.357827211e-13,3.568084663e-13,3.272352178e-13,3.915483561e-13,2.023890678e-13,1.122891813e-13,3.938401808e-13,1.488660642e-13
1.3906,3.007767892e-13,1.982904225e-13,2.983076232e-13,3.470112951e-13,3.132769139e-13,3.653386003e-13,5.048083531e-14,1.113812942e-13,2.270970264e-13,8.271343699e-14,5.916039598e-14,6.434342906e-13,6.395573645e-13,8.915945628e-13,1.521865614e-13,1.011089551e-13,1.332542515e-13,2.113268199e-13,4.595924076e-13,1.226892870e-13,1.287913339e-13,1.109698565e-13,1.200530919e-13,3.901096361e-13,1.214723837e-13,3.496684599e-13,3.146566341e-13,3.647002791e-13,1.953618974e-13,1.132988409e-13,3.828115668e-13,1.563905228e-13
1.3984,2.649702646e-13,2.016504614e-13,2.962550960e-13,3.311762384e-13,2.976480552e-13,3.428091762e-13,5.862038227e-14,1.138976260e-13,2.265756306e-13,8.035356116e-14,5.014539865e-14,6.273145862e-13,6.061630885e-13,8.315753217e-13,1.471001707e-13,1.094513675e-13,1.631985766e-13,1.925625098e-13,4.255671209e-13,1.231792678e-13,1.269087980e-13,1.072497733e-13,1.244997014e-13,3.881371527e-13,1.089249326e-13,3.387360943e-13,2.985991863e-13,3.337470506e-13,1.841964434e-13,1.113216900e-13,3.635854241e-13,1.638192967e-13
1.4062,2.322788992e-13,2.038318393e-13,2.971410680e-13,3.087823017e-13,2.746515067e-13,3.177786675e-13,7.058615371e-14,1.162274507e-13,2.205990438e-13,7.665298969e-14,4.443115420e-14,6.040054952e-13,5.631441060e-13,7.709027352e-13,1.472688567e-13,1.212802336e-13,1.943572109e-13,1.757093675e-13,3.901769547e-13,1.248946191e-13,1.219424890e-13,1.027532802e-13,1.267708057e-13,3.894889600e-13,9.801778514e-14,3.248980634e-13,2.798057320e-13,3.013140028e-13,1.703584497e-13,1.056105454e-13,3.373858419e-13,1.711030408e-13
1.4141,2.062376828e-13,2.055388230e-13,3.006026585e-13,2.823073247e-13,2.471730506e-13,2.925147538e-13,8.576777287e-14,1.184644518e-13,2.090737549e-13,7.235034320e-14,4.193822401e-14,5.756223690e-13,5.130278606e-13,7.148907771e-13,1.532884251e-13,1.357884027e-13,2.240336462e-13,1.622728005e-13,3.566363222e-13,1.278284608e-13,1.147355533e-13,9.800189693e-14,1.270340334e-13,3.942811032e-13,8.900905173e-14,3.099229072e-13,2.610240335e-13,2.700190431e-13,1.558090615e-13,9.766577219e-14,3.078358258e-13,1.779064050e-13
1.4219,1.886972446e-13,2.067536855e-13,3.035315616e-13,2.535890476e-13,2.179870870e-13,2.675325968e-13,1.030353567e-13,1.206791972e-13,1.936361968e-13,6.795425097e-14,4.347018198e-14,5.434540994e-13,4.578308767e-13,6.649215186e-13,1.641459903e-13,1.516262809e-13,2.493900361e-13,1.515900034e-13,3.251219905e-13,1.326436589e-13,1.060792018e-13,9.472337254e-14,1.249678048e-13,4.005484114e-13,8.182964864e-14,2.935170711e-13,2.429300332e-13,2.403126376e-13,1.426034413e-13,8.813269919e-14,2.777556646e-13,1.844830158e-13
1.4297,1.796980693e-13,2.077451630e-13,3.014247931e-13,2.241780932e-13,1.885608433e-13,2.437511109e-13,1.209742532e-13,1.234084076e-13,1.750957768e-13,6.367144855e-14,4.907677661e-14,5.082532647e-13,3.992513004e-13,6.219642554e-13,1.785548032e-13,1.680274981e-13,2.683592603e-13,1.444079230e-13,2.964413028e-13,1.399184232e-13,9.671129786e-14,9.306714796e-14,1.217600263e-13,4.091186213e-13,7.677378556e-14,2.775399562e-13,2.260747354e-13,2.148620219e-13,1.319641167e-13,7.776988710e-14,2.487720583e-13,1.904632498e-13
1.4375,1.801790389e-13,2.082818958e-13,2.958096075e-13,1.953775892e-13,1.612781595e-13,2.215997548e-13,1.401991148e-13,1.270068158e-13,1.553550854e-13,6.027838885e-14,5.794419497e-14,4.716658406e-13,3.427063004e-13,5.858948049e-13,1.946078011e-13,1.829317518e-13,2.793033981e-13,1.417276890e-13,2.734675092e-13,1.492281342e-13,8.733264237e-14,9.275919200e-14,1.174966099e-13,4.188939137e-13,7.345037783e-14,2.633887083e-13,2.117502746e-13,1.954845284e-13,1.257611390e-13,6.752286144e-14,2.234364349e-13,1.957973938e-13
1.4453,1.913723719e-13,2.076030246e-13,2.838798377e-13,1.688993992e-13,1.373887011e-13,2.006753260e-13,1.604392812e-13,1.322418733e-13,1.368368299e-13,5.796587083e-14,6.948130940e-14,4.352180652e-13,2.937324932e-13,5.558324787e-13,2.105212537e-13,1.942390229e-13,2.806378756e-13,1.421342182e-13,2.571283866e-13,1.598662644e-13,7.806494557e-14,9.533387578e-14,1.119520156e-13,4.295636147e-13,7.173327979e-14,2.507797796e-13,1.987153156e-13,1.810869904e-13,1.245594585e-13,5.804794071e-14,2.032842566e-13,2.009508886e-13
1.4531,2.130698675e-13,2.067611339e-13,2.688057881e-13,1.463235104e-13,1.172850746e-13,1.816378698e-13,1.805857989e-13,1.404253645e-13,1.205826056e-13,5.758492806e-14,8.205411134e-14,4.003455318e-13,2.529201834e-13,5.315173587e-13,2.243009736e-13,2.008124949e-13,2.722479392e-13,1.453434813e-13,2.476122039e-13,1.713772971e-13,6.995473984e-14,1.009919823e-13,1.068006255e-13,4.404858759e-13,7.170153576e-14,2.407194953e-13,1.875108747e-13,1.744297090e-13,1.291150863e-13,5.053403154e-14,1.893555839e-13,2.068096738e-13
1.4609,2.442520250e-13,2.055017218e-13,2.490046460e-13,1.284646764e-13,1.017392000e-13,1.648758806e-13,2.001923577e-13,1.524317138e-13,1.083537693e-13,5.906235516e-14,9.468093630e-14,3.668075616e-13,2.228805271e-13,5.096673808e-13,2.333443508e-13,2.025406030e-13,2.553578440e-13,1.514380793e-13,2.458231570e-13,1.829661361e-13,6.329889295e-14,1.089564821e-13,1.023881863e-13,4.514700460e-13,7.290047264e-14,2.328435241e-13,1.782113734e-13,1.745963649e-13,1.394286741e-13,4.504626895e-14,1.816816550e-13,2.128335381e-13
1.4688,2.832302714e-13,2.050159026e-13,2.254427154e-13,1.165211757e-13,9.091144321e-14,1.510319882e-13,2.197643821e-13,1.685533833e-13,1.005587826e-13,6.229699015e-14,1.056550706e-13,3.340174810e-13,2.020673051e-13,4.872739482e-13,2.369332865e-13,2.006929527e-13,2.336167595e-13,1.585461655e-13,2.496307436e-13,1.944667888e-13,5.766793581e-14,1.184833090e-13,9.891534466e-14,4.587449765e-13,7.408923594e-14,2.260186347e-13,1.704316553e-13,1.808390585e-13,1.543177459e-13,4.125720377e-14,1.796815504e-13,2.186993791e-13
1.4766,3.272044720e-13,2.057234205e-13,2.030297585e-13,1.094778293e-13,8.455097568e-14,1.393481196e-13,2.392559729e-13,1.906751954e-13,9.732136685e-14,6.810511862e-14,1.142385102e-13,3.021325393e-13,1.887651821e-13,4.622870291e-13,2.360946758e-13,1.954906298e-13,2.097850379e-13,1.666038586e-13,2.573050366e-13,2.057395643e-13,5.368889802e-14,1.276170295e-13,9.642214804e-14,4.605270642e-13,7.552546278e-14,2.208035145e-13,1.647960685e-13,1.937001662e-13,1.730997444e-13,3.964359812e-14,1.830025263e-13,2.243152714e-13
1.4844,3.727284324e-13,2.074229523e-13,1.816359095e-13,1.074155713e-13,8.316426453e-14,1.298263563e-13,2.599090899e-13,2.173772287e-13,9.793960671e-14,7.642078601e-14,1.204362491e-13,2.708211321e-13,1.820315751e-13,4.348773235e-13,2.315782390e-13,1.885649697e-13,1.865436823e-13,1.755786905e-13,2.675216235e-13,2.159519570e-13,5.156812714e-14,1.351969700e-13,9.430791513e-14,4.549619275e-13,7.612164858e-14,2.173168189e-13,1.609546823e-13,2.116671861e-13,1.948805715e-13,3.988860387e-14,1.914580207e-13,2.296769741e-13
1.4922,4.154286556e-13,2.100626230e-13,1.620525900e-13,1.102199995e-13,8.616072142e-14,1.240964497e-13,2.792802436e-13,2.473230114e-13,1.025316911e-13,8.584578484e-14,1.252811812e-13,2.406142197e-13,1.805738437e-13,4.057983726e-13,2.228937556e-13,1.807293310e-13,1.662706580e-13,1.853799719e-13,2.784931298e-13,2.249864192e-13,5.050038220e-14,1.406941089e-13,9.228319694e-14,4.405477543e-13,7.634973304e-14,2.151988744e-13,1.589422817e-13,2.327867693e-13,2.189127821e-13,4.167968449e-14,2.037077137e-13,2.345160396e-13
1.5,4.519848095e-13,2.140381405e-13,1.482691288e-13,1.175966675e-13,9.315014595e-14,1.224981059e-13,2.962953366e-13,2.813536094e-13,1.114319728e-13,9.657071478e-14,1.295542444e-13,2.130365180e-13,1.834476317e-13,3.768457877e-13,2.128409543e-13,1.738667662e-13,1.506933975e-13,1.968184638e-13,2.887020350e-13,2.327317847e-13,5.005293476e-14,1.433306892e-13,8.954037733e-14,4.184935952e-13,7.686565958e-14,2.147973669e-13,1.598199457e-13,2.539802806e-13,2.440320391e-13,4.519879818e-14,2.183152851e-13,2.390129863e-13
1.5078,4.793115981e-13,2.188456382e-13,1.413063339e-13,1.293858984e-13,1.037326301e-13,1.238605806e-13,3.109207857e-13,3.166334327e-13,1.233785738e-13,1.081722528e-13,1.348423585e-13,1.878297970e-13,1.888364308e-13,3.477443890e-13,2.029946779e-13,1.697216380e-13,1.410985734e-13,2.085522069e-13,2.947563386e-13,2.400086345e-13,5.055711769e-14,1.421690425e-13,8.556527681e-14,3.882738140e-13,7.708991654e-14,2.163150547e-13,1.639208042e-13,2.762264986e-13,2.684158148e-13,4.959498419e-14,2.332047422e-13,2.428615897e-13
1.5156,4.911523939e-13,2.234090756e-13,1.422912786e-13,1.441248744e-13,1.163730546e-13,1.279539651e-13,3.222241632e-13,3.483956793e-13,1.366443614e-13,1.199036721e-13,1.418340633e-13,1.651964462e-13,1.947878744e-13,3.189357171e-13,1.942828195e-13,1.677494569e-13,1.373814850e-13,2.204077091e-13,2.944397107e-13,2.473033961e-13,5.165844475e-14,1.369509270e-13,8.019023472e-14,3.525203454e-13,7.728531316e-14,2.193495707e-13,1.694970891e-13,2.989312832e-13,2.890724688e-13,5.394042904e-14,2.461436065e-13,2.459786283e-13
1.5234,4.895992784e-13,2.270295674e-13,1.526107836e-13,1.612950730e-13,1.310874268e-13,1.346182717e-13,3.293680113e-13,3.725090498e-13,1.505165887e-13,1.296633561e-13,1.508301017e-13,1.472894009e-13,2.010479391e-13,2.918865071e-13,1.864398960e-13,1.670999248e-13,1.382752535e-13,2.325127268e-13,2.885684155e-13,2.541044928e-13,5.285460577e-14,1.282635191e-13,7.388668189e-14,3.125328707e-13,7.781040121e-14,2.241275552e-13,1.755855339e-13,3.248188788e-13,3.045550518e-13,5.727834551e-14,2.571682670e-13,2.482236225e-13
1.5312,4.740597780e-13,2.297818820e-13,1.718706546e-13,1.784047491e-13,1.459280464e-13,1.425032771e-13,3.308336392e-13,3.885605205e-13,1.651137600e-13,1.388147397e-13,1.622615956e-13,1.351292237e-13,2.076232986e-13,2.661518325e-13,1.779839998e-13,1.657995244e-13,1.421602224e-13,2.436810409e-13,2.768138442e-13,2.595722716e-13,5.389233561e-14,1.171324570e-13,6.780578084e-14,2.709048148e-13,7.934688912e-14,2.299153740e-13,1.817312682e-13,3.564093534e-13,3.119159887e-13,5.988328415e-14,2.642858806e-13,2.484829166e-13
1.5391,4.487777828e-13,2.293972431e-13,2.012818451e-13,1.925025783e-13,1.588684817e-13,1.506424685e-13,3.263265094e-13,3.950425424e-13,1.800484131e-13,1.467072681e-13,1.770959110e-13,1.304106298e-13,2.144407975e-13,2.438870175e-13,1.704874587e-13,1.641444451e-13,1.478966004e-13,2.531834757e-13,2.586167127e-13,2.647251610e-13,5.402636211e-14,1.049446202e-13,6.167294311e-14,2.314137465e-13,8.140635162e-14,2.362763300e-13,1.860325383e-13,3.934199625e-13,3.100222266e-13,6.122145642e-14,2.654958602e-13,2.483685019e-13
1.5469,4.154866964e-13,2.274371371e-13,2.417386884e-13,2.051609509e-13,1.699024024e-13,1.588569657e-13,3.172649651e-13,3.919000608e-13,1.960332995e-13,1.531441800e-13,1.943166795e-13,1.351751936e-13,2.208800267e-13,2.253339465e-13,1.647069732e-13,1.624142495e-13,1.540227916e-13,2.603595494e-13,2.349282765e-13,2.683482461e-13,5.366252013e-14,9.267995968e-14,5.639975256e-14,1.945217227e-13,8.335241149e-14,2.437234886e-13,1.890009267e-13,4.395875618e-13,2.995423634e-13,6.162514420e-14,2.611319787e-13,2.483262544e-13
1.5547,3.781206590e-13,2.241386403e-13,2.928326564e-13,2.149036486e-13,1.781679779e-13,1.665611482e-13,3.059009303e-13,3.813252349e-13,2.135248905e-13,1.579700402e-13,2.136225845e-13,1.492889639e-13,2.265116313e-13,2.099229648e-13,1.604340445e-13,1.589766715e-13,1.577178730e-13,2.653623263e-13,2.071414569e-13,2.701249704e-13,5.285423949e-14,8.017360001e-14,5.254097161e-14,1.611676941e-13,8.488785947e-14,2.525872921e-13,1.897696895e-13,4.955100923e-13,2.802060959e-13,6.099256133e-14,2.515386300e-13,2.483058691e-13
1.5625,3.414488257e-13,2.203390987e-13,3.542602036e-13,2.206389041e-13,1.833092537e-13,1.728447568e-13,2.943390745e-13,3.653712644e-13,2.352721591e-13,1.611031965e-13,2.348420261e-13,1.751523976e-13,2.346722983e-13,2.001026814e-13,1.564152358e-13,1.518363905e-13,1.548981352e-13,2.686642741e-13,1.791369216e-13,2.666483309e-13,5.107010484e-14,6.935669621e-14,5.032167575e-14,1.344835101e-13,8.519379193e-14,2.619090337e-13,1.876378802e-13,5.616373402e-13,2.549478654e-13,6.017011539e-14,2.391928510e-13,2.486446738e-13
1.5703,3.080187554e-13,2.168018462e-13,4.232515680e-13,2.217546958e-13,1.847807102e-13,1.782723510e-13,2.847615945e-13,3.506824077e-13,2.639080189e-13,1.635028263e-13,2.569318996e-13,2.138489098e-13,2.469111094e-13,1.964946644e-13,1.531316733e-13,1.431379832e-13,1.473025319e-13,2.697655449e-13,1.523531564e-13,2.578438086e-13,4.865821252e-14,6.159447849e-14,4.982965260e-14,1.130116310e-13,8.376318198e-14,2.702957615e-13,1.837841872e-13,6.343087970e-13,2.256109524e-13,6.046053118e-14,2.239626935e-13,2.504510451e-13
1.5781,2.811598200e-13,2.143715472e-13,4.946757405e-13,2.189811903e-13,1.832174463e-13,1.835821278e-13,2.803877416e-13,3.384945632e-13,2.994866134e-13,1.647740047e-13,2.781790475e-13,2.651075856e-13,2.642859769e-13,2.003196769e-13,1.512967642e-13,1.345320631e-13,1.358452591e-13,2.696810993e-13,1.288109655e-13,2.459418870e-13,4.615793723e-14,5.717723841e-14,5.108302370e-14,9.680581453e-14,8.117639944e-14,2.779478696e-13,1.795077421e-13,7.069368068e-13,1.952024504e-13,6.210456330e-14,2.076513620e-13,2.537533441e-13
1.5859,2.614378841e-13,2.137194749e-13,5.653613271e-13,2.146135540e-13,1.804792790e-13,1.889041899e-13,2.804867843e-13,3.304973625e-13,3.443433214e-13,1.650521907e-13,2.959144144e-13,3.289881544e-13,2.889672786e-13,2.129217435e-13,1.512536363e-13,1.276581948e-13,1.224626343e-13,2.692563176e-13,1.112665846e-13,2.337268030e-13,4.412425400e-14,5.684004296e-14,5.399619241e-14,8.538793539e-14,7.767155572e-14,2.846782081e-13,1.752745179e-13,7.729339625e-13,1.671218804e-13,6.632613752e-14,1.935955026e-13,2.602744242e-13
1.5938,2.487879081e-13,2.164513615e-13,6.316402635e-13,2.103562577e-13,1.773906175e-13,1.951476723e-13,2.848792110e-13,3.291579876e-13,3.976236968e-13,1.640679901e-13,3.088118186e-13,4.050619759e-13,3.201904226e-13,2.353944662e-13,1.540312665e-13,1.245300647e-13,1.092216167e-13,2.698621304e-13,9.946268165e-14,2.225414909e-13,4.267335411e-14,6.105664247e-14,5.832341832e-14,7.827995180e-14,7.359786962e-14,2.888024325e-13,1.724226743e-13,8.299051006e-13,1.438458098e-13,7.391555241e-14,1.822787114e-13,2.701080165e-13
1.6016,2.416785122e-13,2.218399752e-13,6.891006477e-13,2.064198907e-13,1.742850024e-13,2.016090051e-13,2.917615807e-13,3.338801747e-13,4.563654085e-13,1.625601566e-13,3.139433835e-13,4.908203288e-13,3.568518618e-13,2.655324344e-13,1.577044899e-13,1.244415305e-13,9.663371770e-14,2.703518950e-13,9.308653408e-14,2.137602718e-13,4.234297966e-14,7.011960766e-14,6.425892848e-14,7.515072190e-14,6.945979549e-14,2.899633497e-13,1.717527171e-13,8.734727673e-13,1.258998770e-13,8.476245407e-14,1.737438741e-13,2.835023790e-13
1.6094,2.390972363e-13,2.286275754e-13,7.305356610e-13,2.022667852e-13,1.712396059e-13,2.070150536e-13,3.003261748e-13,3.426626169e-13,5.173611912e-13,1.623010226e-13,3.120842824e-13,5.814550402e-13,3.971514157e-13,2.998955753e-13,1.602202050e-13,1.292205267e-13,8.872304393e-14,2.722499889e-13,9.221486528e-14,2.091889026e-13,4.347401045e-14,8.392055953e-14,7.066467865e-14,7.519690238e-14,6.574379339e-14,2.882336136e-13,1.727553126e-13,8.990960837e-13,1.137305347e-13,9.849401209e-14,1.689066978e-13,3.007554344e-13
1.6172,2.377016034e-13,2.360841032e-13,7.594618894e-13,1.982337378e-13,1.679707331e-13,2.116450734e-13,3.095633696e-13,3.531436674e-13,5.775088034e-13,1.634144769e-13,3.030398472e-13,6.752275948e-13,4.397236999e-13,3.378005338e-13,1.617908167e-13,1.394388165e-13,8.667697752e-14,2.743489071e-13,9.553595552e-14,2.113385913e-13,4.594660681e-14,1.016629618e-13,7.686313350e-14,7.713419650e-14,6.327240216e-14,2.831356722e-13,1.744619019e-13,9.067340603e-13,1.064662877e-13,1.142171755e-13,1.669470470e-13,3.207753454e-13
1.625,2.354160146e-13,2.422408672e-13,7.731539680e-13,1.936662566e-13,1.651699482e-13,2.150802522e-13,3.179363040e-13,3.641826398e-13,6.333059221e-13,1.657322532e-13,2.882208498e-13,7.680903408e-13,4.806866336e-13,3.757768242e-13,1.612283941e-13,1.540448917e-13,9.142549767e-14,2.745745937e-13,1.018181420e-13,2.231193755e-13,5.016962395e-14,1.227105121e-13,8.283346006e-14,8.144378777e-14,6.225883863e-14,2.763034467e-13,1.782191675e-13,8.953410585e-13,1.038947405e-13,1.315621257e-13,1.681057742e-13,3.420745759e-13
1.6328,2.295199175e-13,2.447362300e-13,7.780545059e-13,1.874638322e-13,1.627121168e-13,2.163130834e-13,3.236459266e-13,3.717186985e-13,6.808983344e-13,1.695222718e-13,2.705559918e-13,8.539134141e-13,5.157421244e-13,4.093620633e-13,1.580842984e-13,1.716825722e-13,1.035163755e-13,2.728810318e-13,1.104354181e-13,2.448183432e-13,5.653459436e-14,1.457867372e-13,8.756557382e-14,8.662998782e-14,6.332086581e-14,2.680870740e-13,1.839184683e-13,8.636904818e-13,1.056164201e-13,1.497077812e-13,1.718002890e-13,3.632853356e-13
1.6406,2.197157403e-13,2.415195499e-13,7.791245272e-13,1.785530656e-13,1.607984122e-13,2.128134312e-13,3.255427884e-13,3.755245404e-13,7.157240121e-13,1.736335908e-13,2.516287897e-13,9.250960273e-13,5.412432627e-13,4.360355336e-13,1.519608026e-13,1.907669574e-13,1.213753639e-13,2.685275252e-13,1.206400398e-13,2.742413141e-13,6.473892235e-14,1.685570661e-13,9.002803720e-14,9.283444303e-14,6.618819115e-14,2.589833242e-13,1.890920479e-13,8.151625433e-13,1.095133204e-13,1.664249473e-13,1.769723834e-13,3.818710313e-13
1.6484,2.062717024e-13,2.322289881e-13,7.743428462e-13,1.679141455e-13,1.591164908e-13,2.058558499e-13,3.244996149e-13,3.727989551e-13,7.343032095e-13,1.765181593e-13,2.339787486e-13,9.795939027e-13,5.564142181e-13,4.569256755e-13,1.433183184e-13,2.087308097e-13,1.425550810e-13,2.614664726e-13,1.326120541e-13,3.087665158e-13,7.473518559e-14,1.890159282e-13,9.032963416e-14,9.920559862e-14,7.020106608e-14,2.504514898e-13,1.936803532e-13,7.542574419e-13,1.151955370e-13,1.798070267e-13,1.844029415e-13,3.940550549e-13
1.6562,1.910393258e-13,2.184232626e-13,7.665287702e-13,1.556220427e-13,1.567002526e-13,1.960989441e-13,3.202742382e-13,3.626633062e-13,7.393886340e-13,1.788075587e-13,2.189145939e-13,1.015849997e-12,5.628193810e-13,4.722786758e-13,1.332028832e-13,2.235190728e-13,1.647218663e-13,2.504584076e-13,1.456728170e-13,3.487170581e-13,8.649679641e-14,2.066683786e-13,8.808389621e-14,1.062827834e-13,7.523253689e-14,2.428861674e-13,1.979030310e-13,6.852511565e-13,1.225590654e-13,1.901233704e-13,1.932899182e-13,4.013062522e-13
1.6641,1.748016024e-13,1.996563283e-13,7.529557580e-13,1.406444564e-13,1.535277636e-13,1.849028369e-13,3.167857060e-13,3.476881358e-13,7.322630589e-13,1.804516362e-13,2.066551814e-13,1.033188341e-12,5.603086704e-13,4.865130301e-13,1.219410602e-13,2.332654227e-13,1.853222132e-13,2.359660267e-13,1.587063657e-13,3.904772149e-13,9.898667921e-14,2.200556094e-13,8.424288037e-14,1.151554781e-13,8.062172562e-14,2.369152681e-13,2.002341570e-13,6.118687053e-13,1.299122866e-13,1.960268649e-13,2.022053607e-13,4.046472810e-13
1.6719,1.586219390e-13,1.767339703e-13,7.364379726e-13,1.237443288e-13,1.510049293e-13,1.737812880e-13,3.139646402e-13,3.276399631e-13,7.125690042e-13,1.796575803e-13,1.968262455e-13,1.031480346e-12,5.472712997e-13,5.018545809e-13,1.122999104e-13,2.368028533e-13,2.008477573e-13,2.193766666e-13,1.722002625e-13,4.275903863e-13,1.115134679e-13,2.271142820e-13,7.865302019e-14,1.258779276e-13,8.556166115e-14,2.326249701e-13,2.000710234e-13,5.361791849e-13,1.374710502e-13,1.971694434e-13,2.117762833e-13,4.023135118e-13
1.6797,1.447165210e-13,1.519948456e-13,7.153848362e-13,1.059273884e-13,1.494969389e-13,1.623778155e-13,3.113469183e-13,3.052497077e-13,6.837562037e-13,1.754843799e-13,1.890162852e-13,1.008158714e-12,5.228864691e-13,5.166174966e-13,1.056166942e-13,2.337617168e-13,2.093014039e-13,2.014912361e-13,1.850124796e-13,4.573241957e-13,1.232628868e-13,2.278746596e-13,7.231654007e-14,1.392111330e-13,8.841411524e-14,2.303481465e-13,1.965386984e-13,4.636989023e-13,1.447458740e-13,1.929672551e-13,2.212667333e-13,3.957549684e-13
1.6875,1.321176347e-13,1.269043667e-13,6.850498008e-13,8.875001622e-14,1.489955131e-13,1.536320715e-13,3.094075836e-13,2.856629427e-13,6.486929032e-13,1.691375189e-13,1.835974381e-13,9.641842386e-13,4.905295695e-13,5.340995342e-13,1.047947317e-13,2.277332647e-13,2.106917505e-13,1.847368566e-13,1.960627218e-13,4.782830222e-13,1.331169113e-13,2.228672459e-13,6.614109491e-14,1.544932201e-13,8.866727807e-14,2.295197321e-13,1.893446007e-13,3.982044403e-13,1.508173999e-13,1.842238231e-13,2.300350799e-13,3.871158968e-13
