Time,Fp1,AF3,F7,F3,FC1,FC5,T7,C3,CP1,CP5,P7,P3,Pz,PO3,O1,Oz,O2,PO4,P4,P8,CP6,CP2,C4,T8,FC6,FC2,F4,F8,AF4,Fp2,Fz,Cz,
-0.10156,1.465828306e-14,3.444057836e-13,6.538441292e-13,3.645175577e-13,3.163380594e-13,1.820849953e-13,6.509837467e-14,1.288359491e-13,3.906873907e-14,3.614060366e-14,6.137648028e-13,4.996087700e-14,1.096001387e-13,2.996581862e-13,5.586675443e-13,7.048813686e-13,7.286194945e-13,4.127135420e-13,1.479540528e-13,2.507382228e-13,9.857756320e-14,4.635901828e-15,1.695814538e-14,1.787395994e-13,7.613290304e-14,1.951247384e-13,1.886537438e-13,4.538901849e-13,7.388023686e-14,6.677001737e-14,2.619391217e-13,1.315454644e-13
-0.09375,1.606873543e-14,3.540479556e-13,6.816193550e-13,3.790511015e-13,3.307476994e-13,1.918211161e-13,6.869116445e-14,1.362465269e-13,4.117363895e-14,3.631182874e-14,6.360634345e-13,5.259351357e-14,1.172453154e-13,3.179019622e-13,5.892127866e-13,7.424899961e-13,7.746651683e-13,4.401209916e-13,1.565376043e-13,2.599367944e-13,1.009155366e-13,4.909130055e-15,1.756826950e-14,1.845378451e-13,8.024745819e-14,2.042461672e-13,1.968051890e-13,4.623265300e-13,7.825736058e-14,7.027235527e-14,2.733194652e-13,1.378188189e-13
-0.085938,1.753779376e-14,3.629502954e-13,7.094150615e-13,3.932062808e-13,3.451339367e-13,2.017351996e-13,7.233129722e-14,1.437851559e-13,4.333675489e-14,3.642519547e-14,6.579183996e-13,5.528243817e-14,1.251656225e-13,3.365888759e-13,6.203065219e-13,7.807251510e-13,8.218450524e-13,4.683378589e-13,1.653142884e-13,2.689502618e-13,1.030216255e-13,5.178201733e-15,1.814074056e-14,1.900199513e-13,8.468007732e-14,2.135217082e-13,2.050097878e-13,4.700287365e-13,8.272226306e-14,7.382327496e-14,2.846573890e-13,1.441376824e-13
-0.078125,1.916449702e-14,3.710323241e-13,7.366907344e-13,4.069076668e-13,3.593113652e-13,2.119202141e-13,7.581301059e-14,1.514832179e-13,4.549355571e-14,3.647828092e-14,6.793043476e-13,5.803519018e-14,1.333492660e-13,3.555478062e-13,6.516696767e-13,8.193185493e-13,8.699641210e-13,4.972650020e-13,1.742083065e-13,2.776880293e-13,1.048338159e-13,5.447780317e-15,1.864889128e-14,1.952253553e-13,8.960479852e-14,2.229104892e-13,2.132804744e-13,4.771645010e-13,8.729158932e-14,7.743180809e-14,2.958488375e-13,1.504144420e-13
-0.070312,2.091548686e-14,3.782204486e-13,7.631855709e-13,4.200753874e-13,3.730706342e-13,2.222208585e-13,7.909780627e-14,1.592228282e-13,4.762017309e-14,3.648436430e-14,7.002497397e-13,6.083495148e-14,1.416971113e-13,3.746374649e-13,6.830844600e-13,8.578251054e-13,9.184709294e-13,5.265652765e-13,1.831389401e-13,2.859720474e-13,1.062816675e-13,5.717879482e-15,1.909464490e-14,2.003342921e-13,9.457658815e-14,2.322095116e-13,2.215294683e-13,4.837580093e-13,9.194781948e-14,8.110070903e-14,3.067101925e-13,1.565054995e-13
-0.0625,2.267612868e-14,3.843836099e-13,7.892239120e-13,4.324085189e-13,3.863433047e-13,2.324128566e-13,8.235199350e-14,1.669651483e-13,4.975937450e-14,3.644933384e-14,7.207418437e-13,6.366476108e-14,1.501019685e-13,3.937780470e-13,7.144639153e-13,8.959915950e-13,9.669028555e-13,5.559456973e-13,1.920460916e-13,2.936794621e-13,1.074816318e-13,5.981994602e-15,1.955634339e-14,2.051311657e-13,9.952496514e-14,2.413579292e-13,2.297966957e-13,4.893811446e-13,9.658994974e-14,8.482661279e-14,3.171469777e-13,1.624371608e-13
-0.054688,2.447713185e-14,3.895155473e-13,8.147176352e-13,4.439774060e-13,3.990673815e-13,2.425374527e-13,8.558826407e-14,1.746856684e-13,5.190122197e-14,3.638676211e-14,7.405962160e-13,6.653291814e-14,1.585742911e-13,4.129368286e-13,7.457703587e-13,9.339590767e-13,1.015444915e-12,5.855192760e-13,2.009417906e-13,3.008891178e-13,1.084629533e-13,6.237472677e-15,1.998215704e-14,2.093976134e-13,1.050473265e-13,2.505084534e-13,2.382664253e-13,4.940743111e-13,1.011713160e-13,8.863441450e-14,3.271984987e-13,1.682618052e-13
-0.046875,2.634301421e-14,3.936233295e-13,8.390421160e-13,4.547542960e-13,4.111464125e-13,2.526753734e-13,8.880414677e-14,1.823312230e-13,5.400777749e-14,3.631420590e-14,7.597113559e-13,6.943645410e-14,1.671026638e-13,4.320453393e-13,7.769317735e-13,9.717378726e-13,1.064136227e-12,6.153201418e-13,2.097841912e-13,3.075870500e-13,1.091335982e-13,6.478397127e-15,2.030802313e-14,2.132841851e-13,1.110512631e-13,2.597329774e-13,2.469016392e-13,4.984065174e-13,1.057110802e-13,9.251366165e-14,3.368142750e-13,1.739263829e-13
-0.039062,2.828139163e-14,3.968297696e-13,8.619108283e-13,4.645736047e-13,4.227598983e-13,2.626552193e-13,9.196374463e-14,1.899176120e-13,5.607201269e-14,3.621382164e-14,7.780848957e-13,7.236035643e-14,1.756266798e-13,4.509916786e-13,8.076236732e-13,1.009038538e-12,1.112789828e-12,6.452641375e-13,2.185452484e-13,3.138899411e-13,1.095694259e-13,6.699689570e-15,2.058831270e-14,2.169273259e-13,1.171661422e-13,2.690517834e-13,2.555597880e-13,5.021563756e-13,1.102894172e-13,9.643819706e-14,3.460412480e-13,1.794981479e-13
-0.03125,3.030861217e-14,3.991782996e-13,8.834633061e-13,4.735788464e-13,4.339263229e-13,2.723486247e-13,9.495293735e-14,1.973407321e-13,5.809670640e-14,3.607516731e-14,7.955908894e-13,7.527814506e-14,1.840763959e-13,4.695440618e-13,8.374394448e-13,1.045507217e-12,1.161047830e-12,6.751545572e-13,2.272468693e-13,3.199710271e-13,1.097866466e-13,6.900132253e-15,2.083256655e-14,2.202195650e-13,1.235380580e-13,2.783482988e-13,2.641366193e-13,5.050165101e-13,1.149229384e-13,1.003928061e-13,3.549034691e-13,1.849774010e-13
-0.023438,3.235868654e-14,4.004977101e-13,9.041398957e-13,4.817766424e-13,4.444304573e-13,2.819227184e-13,9.772531490e-14,2.045385303e-13,6.006426259e-14,3.594258464e-14,8.123935595e-13,7.819806718e-14,1.924270189e-13,4.876427801e-13,8.664514384e-13,1.080916595e-12,1.208212703e-12,7.045509293e-13,2.358243947e-13,3.255939847e-13,1.097629900e-13,7.091235427e-15,2.105840862e-14,2.230600043e-13,1.300799532e-13,2.873618481e-13,2.726037768e-13,5.073727773e-13,1.194923094e-13,1.043305208e-13,3.632350209e-13,1.901658692e-13
-0.015625,3.444868547e-14,4.008969865e-13,9.243356047e-13,4.891098088e-13,4.544003519e-13,2.914231684e-13,1.002769279e-13,2.115979319e-13,6.191728958e-14,3.586872114e-14,8.287442990e-13,8.119155358e-14,2.007805713e-13,5.055474080e-13,8.948938254e-13,1.115305863e-12,1.254196591e-12,7.334030236e-13,2.442565580e-13,3.305280726e-13,1.095645737e-13,7.296863346e-15,2.128407917e-14,2.253162344e-13,1.368075953e-13,2.960817835e-13,2.810560663e-13,5.093286399e-13,1.240121023e-13,1.082524963e-13,3.711146876e-13,1.950041939e-13
-0.0078125,3.664340040e-14,4.005531290e-13,9.435589541e-13,4.956037682e-13,4.638658090e-13,3.006531604e-13,1.027010674e-13,2.184324238e-13,6.361784653e-14,3.586469301e-14,8.443864135e-13,8.425442219e-14,2.091219151e-13,5.231710913e-13,9.224619538e-13,1.148476733e-12,1.298966623e-12,7.618261583e-13,2.525721627e-13,3.348335430e-13,1.091430887e-13,7.516839648e-15,2.141983872e-14,2.269901953e-13,1.437823428e-13,3.046147100e-13,2.894155335e-13,5.107876572e-13,1.285738098e-13,1.122005069e-13,3.786774292e-13,1.995441081e-13
0,3.892171870e-14,3.993721087e-13,9.612768595e-13,5.010219390e-13,4.725085665e-13,3.095891009e-13,1.049781664e-13,2.248962157e-13,6.517228934e-14,3.589785479e-14,8.591436891e-13,8.730192438e-14,2.172960131e-13,5.401055495e-13,9.487153866e-13,1.179964373e-12,1.341804960e-12,7.895306684e-13,2.606991862e-13,3.385852922e-13,1.084734823e-13,7.732223409e-15,2.144257014e-14,2.284517776e-13,1.505417756e-13,3.128969097e-13,2.975585997e-13,5.118489838e-13,1.330885275e-13,1.161524348e-13,3.857064849e-13,2.037541740e-13
0.0078125,4.129913800e-14,3.973776572e-13,9.778324153e-13,5.052639456e-13,4.802664571e-13,3.181829067e-13,1.068856817e-13,2.309444734e-13,6.655756911e-14,3.595167868e-14,8.731397720e-13,9.032762178e-14,2.252987302e-13,5.562360153e-13,9.735151943e-13,1.209651573e-12,1.382628758e-12,8.164047771e-13,2.685638432e-13,3.417987518e-13,1.076361946e-13,7.941901707e-15,2.145145588e-14,2.297142498e-13,1.573303479e-13,3.208739278e-13,3.056111303e-13,5.124968889e-13,1.374919306e-13,1.200991934e-13,3.920368774e-13,2.075915052e-13
0.015625,4.371970104e-14,3.947123703e-13,9.934085995e-13,5.085689911e-13,4.873605348e-13,3.262094491e-13,1.084461047e-13,2.365695687e-13,6.775505705e-14,3.606300969e-14,8.863541164e-13,9.336617785e-14,2.331487220e-13,5.716438874e-13,9.968215863e-13,1.237518973e-12,1.421682472e-12,8.425173584e-13,2.761287944e-13,3.444151023e-13,1.067356630e-13,8.156393470e-15,2.154056598e-14,2.303927293e-13,1.645578687e-13,3.285574689e-13,3.135628263e-13,5.127603359e-13,1.418312875e-13,1.240391102e-13,3.977963558e-13,2.110669854e-13
0.023438,4.612758106e-14,3.914970983e-13,1.008044217e-12,5.111059020e-13,4.940215568e-13,3.337224392e-13,1.097551463e-13,2.418273984e-13,6.878622728e-14,3.624871066e-14,8.988419415e-13,9.644106006e-14,2.408607501e-13,5.864771922e-13,1.018759488e-12,1.263718925e-12,1.458944789e-12,8.678959209e-13,2.834322764e-13,3.464974584e-13,1.058531862e-13,8.387108099e-15,2.171973520e-14,2.305491336e-13,1.717304559e-13,3.360447974e-13,3.213711311e-13,5.126404861e-13,1.461373682e-13,1.279387303e-13,4.032238130e-13,2.142707139e-13
0.03125,4.865712999e-14,3.877266130e-13,1.021618411e-12,5.127332093e-13,5.001864168e-13,3.407975536e-13,1.107423474e-13,2.466406123e-13,6.965283769e-14,3.649433928e-14,9.105124915e-13,9.955788533e-14,2.484830895e-13,6.005881145e-13,1.039202691e-12,1.288362064e-12,1.494505895e-12,8.925487274e-13,2.905351918e-13,3.482166529e-13,1.047911782e-13,8.629654975e-15,2.189350231e-14,2.305075191e-13,1.788992995e-13,3.434117225e-13,3.292117061e-13,5.120962052e-13,1.504519667e-13,1.318343537e-13,4.083754445e-13,2.172296010e-13
0.039062,5.128373090e-14,3.830336997e-13,1.033056489e-12,5.129249588e-13,5.054117223e-13,3.471768640e-13,1.114365353e-13,2.508732324e-13,7.037878639e-14,3.680523230e-14,9.209190529e-13,1.025925448e-13,2.557889525e-13,6.133035151e-13,1.057341122e-12,1.310365598e-12,1.527315314e-12,9.158091019e-13,2.972414103e-13,3.494699711e-13,1.033844622e-13,8.849763908e-15,2.203053218e-14,2.304879303e-13,1.862984545e-13,3.504423821e-13,3.369076834e-13,5.112333610e-13,1.547169196e-13,1.356884122e-13,4.129285508e-13,2.198290731e-13
0.046875,5.384618967e-14,3.772164513e-13,1.042211247e-12,5.114582253e-13,5.095539742e-13,3.527787954e-13,1.117621277e-13,2.545967747e-13,7.102890815e-14,3.717916956e-14,9.300295383e-13,1.054223196e-13,2.625584154e-13,6.244238046e-13,1.072766272e-12,1.328892548e-12,1.556280891e-12,9.370444235e-13,3.033522540e-13,3.501481852e-13,1.018732537e-13,9.036312014e-15,2.219628549e-14,2.305366253e-13,1.935782387e-13,3.569916828e-13,3.441485029e-13,5.098676931e-13,1.587962347e-13,1.393743836e-13,4.166610764e-13,2.221078724e-13
0.054688,5.637479141e-14,3.705745561e-13,1.050073335e-12,5.088626794e-13,5.129137073e-13,3.577898940e-13,1.116048680e-13,2.578627701e-13,7.159881277e-14,3.761969472e-14,9.381209337e-13,1.081220970e-13,2.689167113e-13,6.342844565e-13,1.085915338e-12,1.344807557e-12,1.582364546e-12,9.567144319e-13,3.089741089e-13,3.503593982e-13,1.003926703e-13,9.224346069e-15,2.238857987e-14,2.305280909e-13,2.008888728e-13,3.632381351e-13,3.511139824e-13,5.077704187e-13,1.626916659e-13,1.429771221e-13,4.197318886e-13,2.242345395e-13
0.0625,5.894584807e-14,3.632743970e-13,1.056085326e-12,5.054815361e-13,5.156694123e-13,3.622350968e-13,1.111684538e-13,2.606285952e-13,7.201161415e-14,3.812561307e-14,9.451442074e-13,1.107884223e-13,2.749293131e-13,6.428005461e-13,1.096920328e-12,1.358477548e-12,1.606040314e-12,9.751782096e-13,3.141674415e-13,3.500503882e-13,9.885654137e-14,9.437783140e-15,2.260626442e-14,2.305778427e-13,2.082952666e-13,3.691920097e-13,3.579864038e-13,5.051009284e-13,1.664613691e-13,1.465723603e-13,4.222404315e-13,2.261490371e-13
0.070312,6.164876404e-14,3.552228368e-13,1.059560476e-12,5.011143837e-13,5.178526941e-13,3.659420924e-13,1.106214020e-13,2.628458113e-13,7.223749738e-14,3.862931359e-14,9.510223845e-13,1.134266185e-13,2.805412341e-13,6.498542830e-13,1.105476108e-12,1.369202180e-12,1.626190143e-12,9.920936292e-13,3.188596009e-13,3.490859753e-13,9.729286128e-14,9.671744810e-15,2.287898931e-14,2.308224091e-13,2.155439921e-13,3.746700697e-13,3.647431890e-13,5.018764224e-13,1.701391672e-13,1.500114948e-13,4.241750558e-13,2.277134070e-13
0.078125,6.445543107e-14,3.464710689e-13,1.061265846e-12,4.956680258e-13,5.194928817e-13,3.687874418e-13,1.099284951e-13,2.644452728e-13,7.232525873e-14,3.911549258e-14,9.557610413e-13,1.160298560e-13,2.857341584e-13,6.555307044e-13,1.111466142e-12,1.376881529e-12,1.642405939e-12,1.007114159e-12,3.230124355e-13,3.475146303e-13,9.576073159e-14,9.918767669e-15,2.321159723e-14,2.313604180e-13,2.227761005e-13,3.796698444e-13,3.714387886e-13,4.980782374e-13,1.737083168e-13,1.533294237e-13,4.255884902e-13,2.290209172e-13
0.085938,6.708378299e-14,3.372311505e-13,1.061211548e-12,4.892839217e-13,5.206599212e-13,3.708448142e-13,1.090270462e-13,2.654943218e-13,7.231494814e-14,3.967024141e-14,9.592549160e-13,1.185470687e-13,2.904045318e-13,6.596564167e-13,1.114823803e-12,1.381599929e-12,1.654830762e-12,1.019908044e-12,3.265434917e-13,3.454832572e-13,9.433510556e-14,1.018113571e-14,2.367706946e-14,2.325391666e-13,2.297992274e-13,3.842961261e-13,3.780121522e-13,4.938496151e-13,1.770344955e-13,1.566711072e-13,4.265113779e-13,2.302150137e-13
0.09375,6.945844585e-14,3.276598428e-13,1.058902642e-12,4.821092864e-13,5.215126813e-13,3.721365553e-13,1.078294917e-13,2.660582029e-13,7.222184306e-14,4.031868487e-14,9.614693974e-13,1.209325117e-13,2.945035914e-13,6.621241680e-13,1.115465321e-12,1.383249227e-12,1.663480689e-12,1.030375078e-12,3.294067855e-13,3.430884953e-13,9.307034555e-14,1.046952134e-14,2.432585073e-14,2.341020381e-13,2.363768442e-13,3.885924669e-13,3.843957502e-13,4.890844420e-13,1.800821321e-13,1.599073545e-13,4.269755253e-13,2.313121122e-13
0.10156,7.169317462e-14,3.177487178e-13,1.054635611e-12,4.741843080e-13,5.221038190e-13,3.725685743e-13,1.063398778e-13,2.660931965e-13,7.206994541e-14,4.102421896e-14,9.625093613e-13,1.232185465e-13,2.980974000e-13,6.629771734e-13,1.113453414e-12,1.382019378e-12,1.668523888e-12,1.038692424e-12,3.316214872e-13,3.402479741e-13,9.192040577e-14,1.079095507e-14,2.511111011e-14,2.356428741e-13,2.426465315e-13,3.925363866e-13,3.907080379e-13,4.838003141e-13,1.829463875e-13,1.629161440e-13,4.270193914e-13,2.323404570e-13
0.10938,7.376164725e-14,3.075365606e-13,1.048483338e-12,4.655300969e-13,5.223698664e-13,3.722242694e-13,1.046203439e-13,2.656020863e-13,7.181163377e-14,4.176037809e-14,9.624958549e-13,1.254197692e-13,3.012370179e-13,6.622241374e-13,1.108848472e-12,1.377882682e-12,1.669767441e-12,1.044826950e-12,3.331748669e-13,3.369123579e-13,9.093091427e-14,1.114630202e-14,2.603738700e-14,2.377257833e-13,2.484832363e-13,3.961093897e-13,3.970138145e-13,4.781720572e-13,1.856343160e-13,1.657545557e-13,4.266821798e-13,2.332974267e-13
0.11719,7.567816165e-14,2.972293822e-13,1.040452850e-12,4.562757107e-13,5.223258187e-13,3.711255097e-13,1.026993904e-13,2.644683891e-13,7.137380873e-14,4.250093226e-14,9.613691137e-13,1.275227267e-13,3.039374409e-13,6.600653791e-13,1.101688503e-12,1.370662132e-12,1.667092854e-12,1.048757928e-12,3.340944402e-13,3.332159822e-13,9.017519480e-14,1.153890679e-14,2.712978365e-14,2.404725522e-13,2.538829447e-13,3.993046057e-13,4.032911405e-13,4.720047342e-13,1.881558219e-13,1.684286739e-13,4.260225264e-13,2.340691322e-13
0.125,7.739016746e-14,2.869812764e-13,1.031011844e-12,4.465407665e-13,5.220874474e-13,3.692907518e-13,1.006314575e-13,2.626320041e-13,7.080808035e-14,4.325855772e-14,9.589507756e-13,1.295566153e-13,3.061541656e-13,6.566962877e-13,1.092236461e-12,1.360764033e-12,1.661115461e-12,1.050697247e-12,3.344114977e-13,3.291899675e-13,8.960562279e-14,1.197641191e-14,2.841112901e-14,2.433261127e-13,2.589085953e-13,4.020585368e-13,4.094150307e-13,4.653108587e-13,1.905130394e-13,1.709436935e-13,4.250353627e-13,2.346903576e-13
0.13281,7.882060143e-14,2.769038717e-13,1.020429339e-12,4.364644886e-13,5.217538068e-13,3.671361745e-13,9.841589171e-14,2.602916633e-13,7.018047784e-14,4.403841578e-14,9.553007465e-13,1.315614037e-13,3.079891943e-13,6.521143707e-13,1.080821065e-12,1.348780939e-12,1.652436259e-12,1.050888984e-12,3.341213491e-13,3.248798829e-13,8.921373173e-14,1.247394405e-14,2.995347970e-14,2.465332814e-13,2.634976558e-13,4.043607211e-13,4.151567683e-13,4.584850919e-13,1.926103540e-13,1.733599145e-13,4.237456894e-13,2.353098436e-13
0.14062,8.014236234e-14,2.670965414e-13,1.008666498e-12,4.261001901e-13,5.212282445e-13,3.647088075e-13,9.604175292e-14,2.574617200e-13,6.948383339e-14,4.478827884e-14,9.505204112e-13,1.335243435e-13,3.096049136e-13,6.462123683e-13,1.067271697e-12,1.334552987e-12,1.640872416e-12,1.049291698e-12,3.331932814e-13,3.204111690e-13,8.907399559e-14,1.304461838e-14,3.174242901e-14,2.504337919e-13,2.677738029e-13,4.062124614e-13,4.204298127e-13,4.515663203e-13,1.944626168e-13,1.756611596e-13,4.221838395e-13,2.358806361e-13
0.14844,8.138264022e-14,2.574966729e-13,9.955030961e-13,4.151605079e-13,5.204211536e-13,3.614635888e-13,9.355116727e-14,2.540751470e-13,6.872928573e-14,4.549452174e-14,9.445997868e-13,1.353994317e-13,3.108197146e-13,6.388210223e-13,1.051208155e-12,1.317438799e-12,1.625755229e-12,1.045437670e-12,3.315470362e-13,3.155715555e-13,8.923177893e-14,1.368154446e-14,3.375769799e-14,2.548830499e-13,2.714302858e-13,4.074861671e-13,4.252675445e-13,4.444202796e-13,1.961722525e-13,1.777749587e-13,4.202469261e-13,2.363594441e-13
0.15625,8.242473362e-14,2.480513179e-13,9.809736319e-13,4.035623035e-13,5.195059442e-13,3.574294103e-13,9.096062733e-14,2.502463762e-13,6.792387787e-14,4.618150490e-14,9.377586680e-13,1.372151611e-13,3.115139691e-13,6.300643584e-13,1.032902371e-12,1.297670037e-12,1.607272932e-12,1.039413825e-12,3.292746415e-13,3.101558579e-13,8.963134671e-14,1.437384753e-14,3.610115511e-14,2.598641691e-13,2.743009162e-13,4.082015494e-13,4.296863861e-13,4.370815238e-13,1.977612964e-13,1.797015081e-13,4.179749600e-13,2.368545868e-13
0.16406,8.336982125e-14,2.388197192e-13,9.656698994e-13,3.916864339e-13,5.185453928e-13,3.530917553e-13,8.833851554e-14,2.459792085e-13,6.707829197e-14,4.684636058e-14,9.301205441e-13,1.390305136e-13,3.119108871e-13,6.202239888e-13,1.012848652e-12,1.276043380e-12,1.586408955e-12,1.032093615e-12,3.265666413e-13,3.043978013e-13,9.019367550e-14,1.512188321e-14,3.874135920e-14,2.653233452e-13,2.769152413e-13,4.084917784e-13,4.335958197e-13,4.295085248e-13,1.992068970e-13,1.815625360e-13,4.155212102e-13,2.373559034e-13
0.17188,8.423862703e-14,2.297418710e-13,9.498053224e-13,3.796357848e-13,5.173989999e-13,3.485104008e-13,8.574221667e-14,2.412913716e-13,6.622931146e-14,4.746454883e-14,9.214170926e-13,1.407773623e-13,3.120529068e-13,6.092271173e-13,9.909912141e-13,1.252414081e-12,1.563168318e-12,1.023642940e-12,3.233052224e-13,2.984191606e-13,9.096684344e-14,1.592168633e-14,4.156700229e-14,2.713548784e-13,2.791966926e-13,4.082273559e-13,4.367759245e-13,4.216339649e-13,2.004369138e-13,1.834010733e-13,4.127671587e-13,2.377993419e-13
0.17969,8.496830986e-14,2.207612095e-13,9.331281574e-13,3.673089165e-13,5.161662706e-13,3.436123405e-13,8.314954569e-14,2.363091833e-13,6.537161207e-14,4.798351447e-14,9.115414511e-13,1.423908635e-13,3.118920212e-13,5.970829586e-13,9.673119435e-13,1.226453384e-12,1.537172344e-12,1.013630766e-12,3.193097807e-13,2.920929092e-13,9.203800108e-14,1.677445209e-14,4.466935235e-14,2.781189319e-13,2.808683551e-13,4.073058443e-13,4.391923273e-13,4.134607468e-13,2.014341679e-13,1.850337671e-13,4.095985600e-13,2.382556168e-13
0.1875,8.563761482e-14,2.120686172e-13,9.157620960e-13,3.549465662e-13,5.151248533e-13,3.384547076e-13,8.063740646e-14,2.310232675e-13,6.452584832e-14,4.836552415e-14,9.006579741e-13,1.439521260e-13,3.115812989e-13,5.841345575e-13,9.422407606e-13,1.198722096e-12,1.509068754e-12,1.002295936e-12,3.147072977e-13,2.854533870e-13,9.345055535e-14,1.769526590e-14,4.813722058e-14,2.852701571e-13,2.821889569e-13,4.058953198e-13,4.409489330e-13,4.049690309e-13,2.023036416e-13,1.863789999e-13,4.062048758e-13,2.388070655e-13
0.19531,8.628561540e-14,2.038326439e-13,8.978541324e-13,3.426702589e-13,5.143054301e-13,3.330475347e-13,7.830899288e-14,2.254486285e-13,6.374232294e-14,4.863499625e-14,8.888482494e-13,1.455118639e-13,3.111548584e-13,5.704730309e-13,9.160522760e-13,1.169623695e-12,1.479290527e-12,9.900358715e-13,3.096652899e-13,2.785785830e-13,9.523170653e-14,1.868952530e-14,5.195308091e-14,2.927712144e-13,2.831540212e-13,4.040651311e-13,4.419749973e-13,3.961740883e-13,2.030671175e-13,1.876004443e-13,4.027103976e-13,2.394474005e-13
0.20312,8.689421811e-14,1.959770001e-13,8.793926209e-13,3.302843041e-13,5.134479206e-13,3.275292202e-13,7.616247997e-14,2.196843378e-13,6.301122858e-14,4.883150466e-14,8.761193702e-13,1.470271304e-13,3.105051032e-13,5.559832246e-13,8.888131726e-13,1.139115562e-12,1.447593466e-12,9.767544555e-13,3.041655823e-13,2.714834372e-13,9.731956817e-14,1.975891278e-14,5.611696906e-14,3.010517275e-13,2.838256119e-13,4.017043429e-13,4.421921837e-13,3.871731594e-13,2.036572217e-13,1.887601449e-13,3.989338612e-13,2.401092935e-13
0.21094,8.739200293e-14,1.884279815e-13,8.607435270e-13,3.178621598e-13,5.124164843e-13,3.220750243e-13,7.418158596e-14,2.137456237e-13,6.234247951e-14,4.895870758e-14,8.625083975e-13,1.484610074e-13,3.096334788e-13,5.407700897e-13,8.607488894e-13,1.107477128e-12,1.414247138e-12,9.623709288e-13,2.981361537e-13,2.642221673e-13,9.964748153e-14,2.090072877e-14,6.057577563e-14,3.099595312e-13,2.843597539e-13,3.986952922e-13,4.414760157e-13,3.780518337e-13,2.040137645e-13,1.898020031e-13,3.946787096e-13,2.407667185e-13
0.21875,8.772439802e-14,1.812453981e-13,8.421174577e-13,3.056437283e-13,5.113782398e-13,3.165624132e-13,7.234705192e-14,2.076259510e-13,6.176089600e-14,4.898279187e-14,8.480755660e-13,1.497724030e-13,3.086507891e-13,5.249726085e-13,8.319368944e-13,1.074910609e-12,1.379575281e-12,9.469133468e-13,2.915854132e-13,2.567446690e-13,1.022279418e-13,2.209112074e-14,6.533009589e-14,3.191749857e-13,2.844256774e-13,3.949428407e-13,4.396665698e-13,3.687804242e-13,2.040567253e-13,1.907387712e-13,3.900024339e-13,2.414428378e-13
0.22656,8.802642000e-14,1.744319044e-13,8.230819864e-13,2.935386192e-13,5.104547449e-13,3.108293757e-13,7.067362502e-14,2.013622062e-13,6.126878311e-14,4.888723883e-14,8.328125586e-13,1.509435671e-13,3.076701999e-13,5.086381767e-13,8.023105189e-13,1.041358299e-12,1.343453619e-12,9.303018523e-13,2.845713371e-13,2.489089981e-13,1.050687233e-13,2.332003131e-14,7.044461557e-14,3.287869987e-13,2.839439623e-13,3.904902355e-13,4.370222884e-13,3.593807517e-13,2.037879028e-13,1.915058697e-13,3.850075953e-13,2.421154426e-13
0.23438,8.832295771e-14,1.679009843e-13,8.035498315e-13,2.814165437e-13,5.097096059e-13,3.050733401e-13,6.924948146e-14,1.950002555e-13,6.089439518e-14,4.867092013e-14,8.167557366e-13,1.520266026e-13,3.067103921e-13,4.920303410e-13,7.723164843e-13,1.007273520e-12,1.306381053e-12,9.127820136e-13,2.771605459e-13,2.407726550e-13,1.082122689e-13,2.459423844e-14,7.586215407e-14,3.386901902e-13,2.831849652e-13,3.855582148e-13,4.339809672e-13,3.500449709e-13,2.033200816e-13,1.919948815e-13,3.797133330e-13,2.428224506e-13
0.24219,8.850000454e-14,1.617265299e-13,7.843086855e-13,2.695520482e-13,5.092452418e-13,2.996504687e-13,6.808700731e-14,1.885289440e-13,6.062285529e-14,4.830631467e-14,8.001990971e-13,1.531154222e-13,3.058227193e-13,4.755223460e-13,7.425709611e-13,9.733769089e-13,1.269329476e-12,8.950252632e-13,2.694924473e-13,2.326404049e-13,1.116342373e-13,2.591705238e-14,8.154794202e-14,3.486423120e-13,2.822608361e-13,3.803018003e-13,4.306811185e-13,3.407658245e-13,2.027701419e-13,1.923330193e-13,3.743005859e-13,2.436108465e-13
0.25,8.867320058e-14,1.561452604e-13,7.661206140e-13,2.582829840e-13,5.089486477e-13,2.945756444e-13,6.710352203e-14,1.819859499e-13,6.046682708e-14,4.782462769e-14,7.833550471e-13,1.542963060e-13,3.051552234e-13,4.591868979e-13,7.131513952e-13,9.399096733e-13,1.232523232e-12,8.773021282e-13,2.616673899e-13,2.247095225e-13,1.151739877e-13,2.730767951e-14,8.749975949e-14,3.588276544e-13,2.812482442e-13,3.746284108e-13,4.270750071e-13,3.314626529e-13,2.021655562e-13,1.927442393e-13,3.689105704e-13,2.443813083e-13
0.25781,8.897877436e-14,1.511853702e-13,7.490344999e-13,2.475439238e-13,5.087369019e-13,2.895800717e-13,6.629687925e-14,1.755072297e-13,6.049238565e-14,4.728982577e-14,7.662033998e-13,1.555352059e-13,3.047246536e-13,4.430070930e-13,6.841367305e-13,9.070175867e-13,1.195860327e-12,8.593999736e-13,2.536619181e-13,2.168669391e-13,1.187806083e-13,2.875356221e-14,9.367216631e-14,3.693350544e-13,2.801050374e-13,3.684293749e-13,4.231030742e-13,3.224553959e-13,2.013906964e-13,1.932138053e-13,3.634141699e-13,2.451304119e-13
0.26562,8.936105102e-14,1.466908076e-13,7.326344271e-13,2.371354482e-13,5.086645490e-13,2.847024111e-13,6.570532408e-14,1.690347774e-13,6.061806573e-14,4.666703810e-14,7.488967784e-13,1.567163737e-13,3.044797297e-13,4.271065932e-13,6.558266862e-13,8.749898753e-13,1.159627541e-12,8.414100829e-13,2.455373896e-13,2.090526011e-13,1.224269926e-13,3.020386430e-14,1.000799753e-13,3.795659514e-13,2.788867186e-13,3.617957068e-13,4.188402234e-13,3.139500470e-13,2.003848282e-13,1.936019535e-13,3.577448515e-13,2.458986456e-13
0.27344,8.977551925e-14,1.426474698e-13,7.166993251e-13,2.270786446e-13,5.085115939e-13,2.801900871e-13,6.525226927e-14,1.624846265e-13,6.079537780e-14,4.592294997e-14,7.315934136e-13,1.578261691e-13,3.044379144e-13,4.114548619e-13,6.281402776e-13,8.437466456e-13,1.123910428e-12,8.234929195e-13,2.373886020e-13,2.014172254e-13,1.260193979e-13,3.165910242e-14,1.066510649e-13,3.892035600e-13,2.777316642e-13,3.547508711e-13,4.143389159e-13,3.057582631e-13,1.992054721e-13,1.939075318e-13,3.518794583e-13,2.465354885e-13
0.28125,9.027485963e-14,1.390515108e-13,7.014719729e-13,2.174381076e-13,5.081748429e-13,2.759809682e-13,6.487586933e-14,1.560616344e-13,6.113465949e-14,4.508850707e-14,7.142609362e-13,1.588973910e-13,3.045751759e-13,3.960292209e-13,6.010549907e-13,8.132041524e-13,1.088719281e-12,8.055582301e-13,2.291966281e-13,1.939738184e-13,1.296293479e-13,3.313429387e-14,1.133224282e-13,3.986960897e-13,2.764290704e-13,3.472538364e-13,4.094562584e-13,2.978461888e-13,1.978194766e-13,1.941692666e-13,3.457782643e-13,2.470587077e-13
0.28906,9.093601096e-14,1.358480778e-13,6.871832398e-13,2.082658080e-13,5.079192474e-13,2.720294982e-13,6.462907947e-14,1.498834857e-13,6.163423107e-14,4.417687226e-14,6.970536644e-13,1.599227649e-13,3.049528437e-13,3.810883669e-13,5.750215182e-13,7.837593657e-13,1.054552318e-12,7.878722634e-13,2.210270944e-13,1.866800161e-13,1.332907110e-13,3.461448227e-14,1.201906538e-13,4.079958280e-13,2.750004254e-13,3.394744554e-13,4.042867141e-13,2.902315392e-13,1.962495265e-13,1.943660869e-13,3.396200197e-13,2.476237990e-13
0.29688,9.172601565e-14,1.330824134e-13,6.737493878e-13,1.996479020e-13,5.076953038e-13,2.684645057e-13,6.450792154e-14,1.438458593e-13,6.226412546e-14,4.321271604e-14,6.800870024e-13,1.608893545e-13,3.056809187e-13,3.666805285e-13,5.501136307e-13,7.555361619e-13,1.021490053e-12,7.706710389e-13,2.129652781e-13,1.796459057e-13,1.368677397e-13,3.610012303e-14,1.272442161e-13,4.166470040e-13,2.736788135e-13,3.313980058e-13,3.989737075e-13,2.828875402e-13,1.945775674e-13,1.945209413e-13,3.333927445e-13,2.480666362e-13
0.30469,9.261884810e-14,1.307193176e-13,6.610333828e-13,1.914643309e-13,5.071198147e-13,2.651617807e-13,6.446037998e-14,1.378645275e-13,6.304161829e-14,4.220832540e-14,6.631334126e-13,1.617443594e-13,3.066216894e-13,3.525610016e-13,5.260239534e-13,7.282276807e-13,9.890254653e-13,7.535740731e-13,2.049200795e-13,1.728516034e-13,1.402997979e-13,3.757329683e-14,1.344278555e-13,4.247491625e-13,2.722623645e-13,3.227561247e-13,3.932524494e-13,2.760125899e-13,1.926487086e-13,1.946197955e-13,3.267792607e-13,2.481872301e-13
0.3125,9.377457602e-14,1.287187624e-13,6.491721817e-13,1.836129531e-13,5.059942571e-13,2.620307945e-13,6.450804569e-14,1.319430348e-13,6.391002626e-14,4.114580041e-14,6.462227199e-13,1.625133278e-13,3.076919697e-13,3.388346857e-13,5.030721057e-13,7.020489694e-13,9.574307032e-13,7.366293209e-13,1.969080525e-13,1.662389410e-13,1.435159337e-13,3.900717862e-14,1.416422683e-13,4.322296135e-13,2.708721662e-13,3.136953819e-13,3.871963379e-13,2.696492665e-13,1.904089699e-13,1.946000011e-13,3.198477864e-13,2.480351338e-13
0.32031,9.525210850e-14,1.271705303e-13,6.384535846e-13,1.763487536e-13,5.043412548e-13,2.592140786e-13,6.465498427e-14,1.262420239e-13,6.490953100e-14,4.005999144e-14,6.297485913e-13,1.633145105e-13,3.090964727e-13,3.258323076e-13,4.818174178e-13,6.775487893e-13,9.274679645e-13,7.205574457e-13,1.891390278e-13,1.599812774e-13,1.464354276e-13,4.042043038e-14,1.487271944e-13,4.387062348e-13,2.699568981e-13,3.045338645e-13,3.813421209e-13,2.636203831e-13,1.881257387e-13,1.945532033e-13,3.129087075e-13,2.476495090e-13
0.32812,9.693784711e-14,1.259387622e-13,6.285963380e-13,1.697637310e-13,5.021363853e-13,2.566650664e-13,6.482423473e-14,1.208183707e-13,6.609275696e-14,3.896952183e-14,6.137705652e-13,1.640532145e-13,3.108502678e-13,3.134349493e-13,4.619850337e-13,6.545943647e-13,8.990770654e-13,7.054162357e-13,1.816367566e-13,1.541315489e-13,1.490508209e-13,4.181422709e-14,1.557872591e-13,4.443768862e-13,2.692435503e-13,2.952071141e-13,3.756618839e-13,2.578800933e-13,1.858664244e-13,1.945623591e-13,3.059118139e-13,2.470158245e-13
0.33594,9.880068821e-14,1.247774386e-13,6.189869553e-13,1.635762442e-13,4.992090574e-13,2.542461261e-13,6.493415306e-14,1.155179597e-13,6.738260523e-14,3.785369330e-14,5.980311399e-13,1.645296361e-13,3.127023169e-13,3.012624797e-13,4.429680414e-13,6.326498757e-13,8.717641818e-13,6.905854344e-13,1.742333209e-13,1.485665847e-13,1.513326213e-13,4.315150891e-14,1.627929479e-13,4.495527658e-13,2.683192771e-13,2.856065074e-13,3.696642517e-13,2.522980902e-13,1.834222569e-13,1.944986763e-13,2.986398604e-13,2.461543092e-13
0.34375,1.008312619e-13,1.237004061e-13,6.097027803e-13,1.576826320e-13,4.956259220e-13,2.519535007e-13,6.501212069e-14,1.103746640e-13,6.879110371e-14,3.673935410e-14,5.824620286e-13,1.647483392e-13,3.145402666e-13,2.893012871e-13,4.247715193e-13,6.116485060e-13,8.453695588e-13,6.758492027e-13,1.668988644e-13,1.433324019e-13,1.533858068e-13,4.441350362e-14,1.695669568e-13,4.538267241e-13,2.674146928e-13,2.757424004e-13,3.632186426e-13,2.467146809e-13,1.807067390e-13,1.942605493e-13,2.910681908e-13,2.450447752e-13
0.35156,1.030225028e-13,1.227567636e-13,6.009804231e-13,1.521790178e-13,4.915686867e-13,2.498219845e-13,6.515765622e-14,1.054492998e-13,7.031785517e-14,3.562193041e-14,5.671273983e-13,1.647561825e-13,3.163840549e-13,2.777587202e-13,4.076667623e-13,5.918255091e-13,8.199478575e-13,6.613976280e-13,1.597325679e-13,1.384602022e-13,1.552376638e-13,4.560843984e-14,1.762529480e-13,4.566096619e-13,2.668084275e-13,2.656704970e-13,3.566142653e-13,2.411738599e-13,1.778022301e-13,1.938531193e-13,2.833141642e-13,2.435971469e-13
0.35938,1.054047478e-13,1.219159944e-13,5.925742720e-13,1.470955812e-13,4.867569649e-13,2.477873651e-13,6.531640659e-14,1.006485628e-13,7.189469391e-14,3.446590640e-14,5.520360953e-13,1.645430285e-13,3.182120180e-13,2.666323680e-13,3.917017324e-13,5.732513281e-13,7.956483059e-13,6.473025885e-13,1.527695883e-13,1.338821840e-13,1.566208646e-13,4.674831346e-14,1.826569081e-13,4.581658891e-13,2.663069521e-13,2.556234887e-13,3.502005658e-13,2.357137229e-13,1.747809550e-13,1.932490800e-13,2.754357775e-13,2.417849827e-13
0.36719,1.080021692e-13,1.211689994e-13,5.843184025e-13,1.424312079e-13,4.810163149e-13,2.456274270e-13,6.536811345e-14,9.604221229e-14,7.357867749e-14,3.331298162e-14,5.372541655e-13,1.641214046e-13,3.199915879e-13,2.558560550e-13,3.768709100e-13,5.559333901e-13,7.725814377e-13,6.335428936e-13,1.460061919e-13,1.296872005e-13,1.575196289e-13,4.782317476e-14,1.885612147e-13,4.589295613e-13,2.656184154e-13,2.457230972e-13,3.441059424e-13,2.303279875e-13,1.716135565e-13,1.924491200e-13,2.674403746e-13,2.397352474e-13
0.375,1.108276532e-13,1.204418191e-13,5.760730194e-13,1.381385920e-13,4.746327751e-13,2.433386692e-13,6.537240936e-14,9.168987313e-14,7.537462693e-14,3.219319345e-14,5.228609839e-13,1.634423614e-13,3.217243151e-13,2.454372881e-13,3.631564294e-13,5.398803190e-13,7.507006505e-13,6.201192144e-13,1.394621362e-13,1.259718671e-13,1.580976116e-13,4.881441196e-14,1.943795588e-13,4.584867703e-13,2.648868376e-13,2.358440335e-13,3.382828615e-13,2.249488340e-13,1.682819365e-13,1.914872939e-13,2.593945104e-13,2.374945048e-13
0.38281,1.136921182e-13,1.196251123e-13,5.676331413e-13,1.341784575e-13,4.676409205e-13,2.410721615e-13,6.538202575e-14,8.750120606e-14,7.721457023e-14,3.106612011e-14,5.087836372e-13,1.624432356e-13,3.233673311e-13,2.352876373e-13,3.504557562e-13,5.249814701e-13,7.299488829e-13,6.069476631e-13,1.331305039e-13,1.227192900e-13,1.583078399e-13,4.969946415e-14,2.000480046e-13,4.566358512e-13,2.642415340e-13,2.259887692e-13,3.327750780e-13,2.194752329e-13,1.648199480e-13,1.903331418e-13,2.513087852e-13,2.349594806e-13
0.39062,1.164965880e-13,1.186840186e-13,5.590196492e-13,1.305487088e-13,4.599839388e-13,2.386621750e-13,6.535719610e-14,8.349242614e-14,7.909007432e-14,2.991613654e-14,4.949591487e-13,1.611260075e-13,3.247612877e-13,2.253586535e-13,3.387019077e-13,5.110879201e-13,7.102110191e-13,5.939010366e-13,1.269951958e-13,1.199363863e-13,1.581714190e-13,5.045468298e-14,2.052283545e-13,4.534458527e-13,2.634736917e-13,2.162619240e-13,3.276185425e-13,2.139715188e-13,1.611545011e-13,1.889137820e-13,2.431842961e-13,2.321277328e-13
0.39844,1.195568106e-13,1.176768455e-13,5.501302036e-13,1.272189841e-13,4.517726564e-13,2.360585530e-13,6.533735142e-14,7.969674193e-14,8.095134759e-14,2.876687738e-14,4.815025318e-13,1.594976443e-13,3.258446072e-13,2.157865375e-13,3.278924915e-13,4.981601825e-13,6.913319428e-13,5.809838188e-13,1.210850537e-13,1.175879606e-13,1.576401947e-13,5.111940596e-14,2.100735521e-13,4.486683668e-13,2.626222112e-13,2.066628816e-13,3.226458866e-13,2.084312933e-13,1.572760227e-13,1.872019921e-13,2.351492236e-13,2.290033729e-13
0.40625,1.228686689e-13,1.166749069e-13,5.406985727e-13,1.242431949e-13,4.428888893e-13,2.333767186e-13,6.528014128e-14,7.610332649e-14,8.282656513e-14,2.763979862e-14,4.684573332e-13,1.576121910e-13,3.267676535e-13,2.066275876e-13,3.179261674e-13,4.861847337e-13,6.732793962e-13,5.682505671e-13,1.154232443e-13,1.155947529e-13,1.565768696e-13,5.173487338e-14,2.144944143e-13,4.428081870e-13,2.615765917e-13,1.971867333e-13,3.178378262e-13,2.026984849e-13,1.533989291e-13,1.852710780e-13,2.272442377e-13,2.255620436e-13
0.41406,1.261526673e-13,1.156601755e-13,5.307452976e-13,1.216384168e-13,4.333150558e-13,2.303929488e-13,6.508195775e-14,7.274988806e-14,8.478300674e-14,2.654857759e-14,4.556879817e-13,1.555479368e-13,3.275805679e-13,1.978053680e-13,3.085967165e-13,4.749856222e-13,6.559960187e-13,5.556551007e-13,1.099918393e-13,1.139612479e-13,1.551686454e-13,5.224787713e-14,2.185042681e-13,4.360112414e-13,2.600716372e-13,1.879029668e-13,3.135386235e-13,1.967964998e-13,1.495937571e-13,1.831879236e-13,2.194144816e-13,2.219447031e-13
0.42188,1.296529205e-13,1.146131654e-13,5.206602818e-13,1.192588879e-13,4.232296152e-13,2.270122968e-13,6.486119668e-14,6.961545996e-14,8.671802101e-14,2.549976699e-14,4.432029806e-13,1.533014495e-13,3.282081166e-13,1.893112306e-13,2.999165825e-13,4.644051626e-13,6.394459042e-13,5.432325169e-13,1.047923399e-13,1.127195563e-13,1.535104023e-13,5.261707185e-14,2.223056301e-13,4.273692448e-13,2.586664814e-13,1.788891489e-13,3.098614301e-13,1.908694057e-13,1.456937494e-13,1.809123056e-13,2.116911868e-13,2.181462077e-13
0.42969,1.335376916e-13,1.135777079e-13,5.106352606e-13,1.171011151e-13,4.124895996e-13,2.234127225e-13,6.467057476e-14,6.661913971e-14,8.856539823e-14,2.449883815e-14,4.311781673e-13,1.508353862e-13,3.286738073e-13,1.811384700e-13,2.920751242e-13,4.545357996e-13,6.237551990e-13,5.311876420e-13,9.985880563e-14,1.118236744e-13,1.513989747e-13,5.286102658e-14,2.255312880e-13,4.173704493e-13,2.576200736e-13,1.701209000e-13,3.064940592e-13,1.849860915e-13,1.416533026e-13,1.784126411e-13,2.040921980e-13,2.139486911e-13
0.4375,1.375648017e-13,1.125845264e-13,5.000768097e-13,1.152722614e-13,4.009462766e-13,2.196339615e-13,6.432662964e-14,6.374564645e-14,9.035360504e-14,2.354910557e-14,4.196518964e-13,1.481428636e-13,3.289568441e-13,1.732499006e-13,2.849782113e-13,4.453970392e-13,6.088987267e-13,5.195644649e-13,9.519749878e-14,1.111803075e-13,1.488258441e-13,5.298043886e-14,2.280790772e-13,4.070041135e-13,2.562291778e-13,1.615743406e-13,3.033467017e-13,1.791096523e-13,1.375767389e-13,1.757085524e-13,1.966582554e-13,2.094288352e-13
0.44531,1.417506675e-13,1.115377003e-13,4.882665774e-13,1.137231186e-13,3.887524197e-13,2.156777027e-13,6.385830623e-14,6.104765355e-14,9.199272458e-14,2.262179458e-14,4.084396416e-13,1.451836509e-13,3.289497096e-13,1.656896626e-13,2.783274201e-13,4.366850110e-13,5.946617165e-13,5.081079506e-13,9.077097840e-14,1.107614110e-13,1.459687455e-13,5.298427077e-14,2.300797494e-13,3.959347780e-13,2.544117344e-13,1.533790414e-13,3.004441370e-13,1.729152502e-13,1.335126268e-13,1.727234909e-13,1.894989604e-13,2.046512707e-13
0.45312,1.462436680e-13,1.105648132e-13,4.760444944e-13,1.122865858e-13,3.761042511e-13,2.115692779e-13,6.330779595e-14,5.858321845e-14,9.370383407e-14,2.173868144e-14,3.975210115e-13,1.420986796e-13,3.287410155e-13,1.584702348e-13,2.720688226e-13,4.282221869e-13,5.808463195e-13,4.967179163e-13,8.652440600e-14,1.106118682e-13,1.426623562e-13,5.290569020e-14,2.315619013e-13,3.835935395e-13,2.525917269e-13,1.455339137e-13,2.975980055e-13,1.667541647e-13,1.294399430e-13,1.695432579e-13,1.826074800e-13,1.998298152e-13
0.46094,1.510080179e-13,1.096724394e-13,4.638473021e-13,1.109283896e-13,3.630858403e-13,2.070885891e-13,6.273317281e-14,5.630007606e-14,9.543225417e-14,2.089849312e-14,3.868817935e-13,1.388797388e-13,3.283491775e-13,1.514787341e-13,2.661848187e-13,4.199348391e-13,5.672520030e-13,4.853285139e-13,8.241524994e-14,1.107174674e-13,1.390663864e-13,5.272068158e-14,2.327272181e-13,3.706618925e-13,2.503997382e-13,1.380081849e-13,2.947931988e-13,1.608035996e-13,1.253579565e-13,1.661656921e-13,1.759498271e-13,1.950063259e-13
0.46875,1.559971417e-13,1.088600134e-13,4.513889648e-13,1.096922947e-13,3.496085399e-13,2.024379330e-13,6.215473601e-14,5.412712729e-14,9.702493443e-14,2.010043192e-14,3.765641619e-13,1.355028933e-13,3.276679995e-13,1.446740618e-13,2.606969486e-13,4.118910966e-13,5.539547230e-13,4.739527493e-13,7.845279416e-14,1.109751232e-13,1.353411305e-13,5.239773003e-14,2.333834681e-13,3.575292374e-13,2.477598460e-13,1.308704160e-13,2.921072363e-13,1.550201069e-13,1.213047864e-13,1.625705927e-13,1.695890476e-13,1.902276294e-13
0.47656,1.610135584e-13,1.081193739e-13,4.386165286e-13,1.086497857e-13,3.357900652e-13,1.978284748e-13,6.149993540e-14,5.209696163e-14,9.849618824e-14,1.936726229e-14,3.665495249e-13,1.319856996e-13,3.266062187e-13,1.381003850e-13,2.556251137e-13,4.040706444e-13,5.410495745e-13,4.627174939e-13,7.468006044e-14,1.114166695e-13,1.314078027e-13,5.193350950e-14,2.332625756e-13,3.440967273e-13,2.449422379e-13,1.242199944e-13,2.894604544e-13,1.494490490e-13,1.172994415e-13,1.587826509e-13,1.636186194e-13,1.854681537e-13
0.48438,1.659461369e-13,1.076211657e-13,4.255813110e-13,1.077116919e-13,3.217263356e-13,1.931253812e-13,6.076976535e-14,5.017320436e-14,9.981910577e-14,1.870391192e-14,3.567724548e-13,1.283051464e-13,3.251803895e-13,1.317334284e-13,2.508925024e-13,3.963813146e-13,5.284075284e-13,4.517053367e-13,7.112587197e-14,1.121028334e-13,1.271894866e-13,5.137674803e-14,2.325792008e-13,3.299865615e-13,2.419644897e-13,1.180379853e-13,2.868813863e-13,1.439101344e-13,1.133173864e-13,1.548274777e-13,1.580302670e-13,1.806858646e-13
0.49219,1.707601163e-13,1.073240067e-13,4.122247033e-13,1.068175646e-13,3.073967008e-13,1.881875949e-13,6.005058399e-14,4.834137818e-14,1.009635098e-13,1.808690412e-14,3.471914947e-13,1.244321700e-13,3.233967614e-13,1.254940286e-13,2.463463523e-13,3.886728925e-13,5.158582391e-13,4.407184470e-13,6.776274355e-14,1.129777055e-13,1.228477297e-13,5.071821861e-14,2.313291777e-13,3.153575417e-13,2.386279795e-13,1.122997185e-13,2.843511170e-13,1.381693386e-13,1.093327607e-13,1.506805537e-13,1.528000104e-13,1.759237310e-13
0.5,1.753636487e-13,1.070062188e-13,3.987031586e-13,1.059748403e-13,2.928696608e-13,1.829481577e-13,5.926391441e-14,4.660803932e-14,1.019242067e-13,1.750862710e-14,3.377279026e-13,1.204151951e-13,3.211904548e-13,1.193540648e-13,2.418414622e-13,3.807120383e-13,5.032541996e-13,4.295532639e-13,6.451333369e-14,1.140261150e-13,1.184523739e-13,4.992116457e-14,2.294349257e-13,3.010111660e-13,2.346901945e-13,1.069767134e-13,2.815928534e-13,1.324001343e-13,1.053632441e-13,1.463964242e-13,1.479042636e-13,1.711301004e-13
0.50781,1.797735416e-13,1.068734756e-13,3.850913747e-13,1.051165651e-13,2.782834956e-13,1.775968151e-13,5.838277261e-14,4.495281727e-14,1.027156556e-13,1.698262748e-14,3.285488356e-13,1.163846748e-13,3.186306410e-13,1.134638248e-13,2.375132964e-13,3.727245356e-13,4.906858616e-13,4.183901606e-13,6.136253910e-14,1.153327941e-13,1.139169393e-13,4.900329049e-14,2.270313281e-13,2.867847971e-13,2.303782728e-13,1.020929540e-13,2.786926162e-13,1.269005807e-13,1.014942923e-13,1.420542673e-13,1.433736734e-13,1.663663219e-13
0.51562,1.837800739e-13,1.068730621e-13,3.710445121e-13,1.043653868e-13,2.638685536e-13,1.723926157e-13,5.761283612e-14,4.341126237e-14,1.032258587e-13,1.650038227e-14,3.195752110e-13,1.122617269e-13,3.157073313e-13,1.078068050e-13,2.334125441e-13,3.649661922e-13,4.784822298e-13,4.072768058e-13,5.837972743e-14,1.168026442e-13,1.094039667e-13,4.795392644e-14,2.240406081e-13,2.723521550e-13,2.258286608e-13,9.768710192e-14,2.756512723e-13,1.213352047e-13,9.770602798e-14,1.375002778e-13,1.393530302e-13,1.617365568e-13
0.52344,1.873800143e-13,1.069069036e-13,3.565920914e-13,1.037018431e-13,2.497035141e-13,1.672571694e-13,5.684353765e-14,4.197458486e-14,1.034708871e-13,1.605189368e-14,3.107654876e-13,1.080523853e-13,3.123546495e-13,1.023231217e-13,2.293783857e-13,3.572036014e-13,4.664943058e-13,3.960811971e-13,5.556945883e-14,1.182972469e-13,1.049190220e-13,4.682088038e-14,2.204840801e-13,2.577831530e-13,2.210508187e-13,9.372384239e-14,2.725604816e-13,1.156233717e-13,9.402947953e-14,1.327592938e-13,1.358337541e-13,1.571887638e-13
0.53125,1.908416241e-13,1.070497383e-13,3.420234863e-13,1.028850201e-13,2.357337233e-13,1.619037625e-13,5.592579285e-14,4.066558990e-14,1.035235175e-13,1.563347967e-14,3.020269948e-13,1.037844655e-13,3.085214578e-13,9.695094871e-14,2.252717557e-13,3.489873640e-13,4.541489132e-13,3.845520820e-13,5.281003523e-14,1.199635505e-13,1.004265841e-13,4.564962624e-14,2.165973444e-13,2.432432002e-13,2.159353743e-13,9.013650261e-14,2.695025143e-13,1.099896364e-13,9.045640430e-14,1.279666086e-13,1.326564474e-13,1.526430036e-13
0.53906,1.939991091e-13,1.073072103e-13,3.273550907e-13,1.019147774e-13,2.220421688e-13,1.562603785e-13,5.507271815e-14,3.951618570e-14,1.034192351e-13,1.524296366e-14,2.932341452e-13,9.951954674e-14,3.043570851e-13,9.177324471e-14,2.212008027e-13,3.405197110e-13,4.415437400e-13,3.727393699e-13,5.008085828e-14,1.217976612e-13,9.610821447e-14,4.439753071e-14,2.123163574e-13,2.291470601e-13,2.101874088e-13,8.695886983e-14,2.664445302e-13,1.043851763e-13,8.704951879e-14,1.231540181e-13,1.299287902e-13,1.481384040e-13
0.54688,1.966337857e-13,1.077031292e-13,3.124400947e-13,1.010037341e-13,2.086887942e-13,1.505766060e-13,5.439091678e-14,3.848981454e-14,1.031079762e-13,1.490424917e-14,2.842863725e-13,9.530017988e-14,2.998951452e-13,8.683833871e-14,2.171757804e-13,3.320434285e-13,4.291405478e-13,3.609526860e-13,4.747366428e-14,1.236255439e-13,9.193344853e-14,4.306358346e-14,2.076167841e-13,2.153238246e-13,2.043227839e-13,8.415946896e-14,2.633269992e-13,9.856391874e-14,8.381481386e-14,1.182437315e-13,1.277247003e-13,1.437005996e-13
0.55469,1.988603305e-13,1.084335154e-13,2.974197638e-13,1.001403018e-13,1.956044380e-13,1.450093140e-13,5.382091006e-14,3.756922179e-14,1.026015198e-13,1.462995953e-14,2.753344939e-13,9.112702124e-14,2.950334616e-13,8.207712190e-14,2.131351391e-13,3.234338546e-13,4.168291313e-13,3.492133961e-13,4.500815813e-14,1.256027221e-13,8.775812182e-14,4.170861933e-14,2.026335277e-13,2.016745647e-13,1.987694891e-13,8.166477246e-14,2.601534317e-13,9.268782016e-14,8.066843851e-14,1.132630989e-13,1.258359944e-13,1.393884343e-13
0.5625,2.006223266e-13,1.093464677e-13,2.824217009e-13,9.922135395e-14,1.828457807e-13,1.394463827e-13,5.333295093e-14,3.673081836e-14,1.019256596e-13,1.438537948e-14,2.664966286e-13,8.701218698e-14,2.898037072e-13,7.748713553e-14,2.090937116e-13,3.146347008e-13,4.041998583e-13,3.372323227e-13,4.261832954e-14,1.277221602e-13,8.376787702e-14,4.029043378e-14,1.974045257e-13,1.887329611e-13,1.926735790e-13,7.946069621e-14,2.568384096e-13,8.707425473e-14,7.760888394e-14,1.082299277e-13,1.241789067e-13,1.352794900e-13
0.57031,2.020904177e-13,1.103599388e-13,2.674270883e-13,9.818203022e-14,1.706074623e-13,1.339316083e-13,5.290728076e-14,3.593832816e-14,1.010470217e-13,1.415963860e-14,2.577054373e-13,8.303722697e-14,2.843360313e-13,7.321057388e-14,2.051290494e-13,3.057260696e-13,3.912199290e-13,3.250061097e-13,4.028291840e-14,1.296428011e-13,8.007624247e-14,3.880252831e-14,1.919098703e-13,1.764274744e-13,1.861024822e-13,7.761084265e-14,2.534128193e-13,8.172214214e-14,7.475950160e-14,1.031300240e-13,1.229484467e-13,1.313728589e-13
0.57812,2.036179261e-13,1.117526057e-13,2.528942248e-13,9.698112210e-14,1.590147324e-13,1.285942224e-13,5.264754007e-14,3.519838473e-14,9.996232215e-14,1.400077262e-14,2.490719805e-13,7.926634832e-14,2.787329102e-13,6.931714365e-14,2.014161629e-13,2.969154982e-13,3.782359723e-13,3.128874704e-13,3.804822716e-14,1.313458912e-13,7.646750132e-14,3.733591803e-14,1.861981971e-13,1.647119537e-13,1.797509627e-13,7.619607411e-14,2.501158910e-13,7.657814814e-14,7.224560645e-14,9.816375267e-14,1.222990944e-13,1.276392805e-13
0.58594,2.050734618e-13,1.135100552e-13,2.387085093e-13,9.553954042e-14,1.479694681e-13,1.232213142e-13,5.257154031e-14,3.447174858e-14,9.874319918e-14,1.389289457e-14,2.405788529e-13,7.561875239e-14,2.730662366e-13,6.580016537e-14,1.979748321e-13,2.882996551e-13,3.656243923e-13,3.009813240e-13,3.593456976e-14,1.329389146e-13,7.298506833e-14,3.589632440e-14,1.804551722e-13,1.539731659e-13,1.731834800e-13,7.521730596e-14,2.470417330e-13,7.163674294e-14,7.006897831e-14,9.340585546e-14,1.221144144e-13,1.240020965e-13
0.59375,2.061600131e-13,1.154172364e-13,2.247850538e-13,9.400805651e-14,1.373644532e-13,1.178352851e-13,5.253989420e-14,3.376342491e-14,9.737071636e-14,1.381849132e-14,2.319813673e-13,7.207161934e-14,2.672088472e-13,6.252795682e-14,1.945019799e-13,2.796082423e-13,3.531943389e-13,2.891899668e-13,3.389801327e-14,1.344119680e-13,6.969960231e-14,3.442055414e-14,1.747653113e-13,1.437367056e-13,1.665212298e-13,7.451217274e-14,2.438802865e-13,6.701112561e-14,6.802123951e-14,8.866548720e-14,1.221689063e-13,1.205150060e-13
0.60156,2.069173191e-13,1.176245755e-13,2.111502486e-13,9.237094618e-14,1.273258298e-13,1.126641420e-13,5.253073914e-14,3.309692609e-14,9.583395896e-14,1.376308917e-14,2.232982364e-13,6.866852610e-14,2.611120610e-13,5.942280708e-14,1.908947479e-13,2.706137851e-13,3.405011115e-13,2.772581966e-13,3.191315836e-14,1.357721538e-13,6.664622708e-14,3.289972407e-14,1.687490744e-13,1.340331447e-13,1.600943163e-13,7.396084307e-14,2.402393216e-13,6.274320375e-14,6.606933608e-14,8.391053367e-14,1.224155730e-13,1.172404508e-13
0.60938,2.074141649e-13,1.201545244e-13,1.978663209e-13,9.057900858e-14,1.178476298e-13,1.078347983e-13,5.256627430e-14,3.238941872e-14,9.404577995e-14,1.371296667e-14,2.147758326e-13,6.539428171e-14,2.548209157e-13,5.650848708e-14,1.872614815e-13,2.614066416e-13,3.274087448e-13,2.650636299e-13,2.999226374e-14,1.368895928e-13,6.381865183e-14,3.133966240e-14,1.622604727e-13,1.252574157e-13,1.533366193e-13,7.347051393e-14,2.358669707e-13,5.882969382e-14,6.422110610e-14,7.924821406e-14,1.228029651e-13,1.140281009e-13
0.61719,2.077403473e-13,1.229561057e-13,1.850186401e-13,8.861002425e-14,1.088762759e-13,1.031305964e-13,5.274252667e-14,3.165936594e-14,9.200927928e-14,1.368270474e-14,2.063734770e-13,6.227357937e-14,2.483510928e-13,5.386586917e-14,1.835545165e-13,2.520026677e-13,3.140487099e-13,2.526807457e-13,2.813098541e-14,1.377423135e-13,6.125596547e-14,2.978205411e-14,1.556414861e-13,1.173408868e-13,1.461823001e-13,7.309374813e-14,2.307619130e-13,5.532894822e-14,6.243850430e-14,7.474198697e-14,1.233202520e-13,1.108272811e-13
0.625,2.079147214e-13,1.260278699e-13,1.728263779e-13,8.644930888e-14,1.004650742e-13,9.838610238e-14,5.312889307e-14,3.092653199e-14,8.982152120e-14,1.367348400e-14,1.980345450e-13,5.936431618e-14,2.417582034e-13,5.153228920e-14,1.797665418e-13,2.424317071e-13,3.006403146e-13,2.403542992e-13,2.634208396e-14,1.386823442e-13,5.891849921e-14,2.825311586e-14,1.491005143e-13,1.102996159e-13,1.391610637e-13,7.296811673e-14,2.252197188e-13,5.229628114e-14,6.084717175e-14,7.045142835e-14,1.240117908e-13,1.077224440e-13
0.63281,2.078171026e-13,1.293019948e-13,1.614895989e-13,8.412959592e-14,9.261703794e-14,9.400527993e-14,5.358050902e-14,3.008758020e-14,8.740343174e-14,1.366528657e-14,1.899453664e-13,5.664189492e-14,2.351261640e-13,4.952035050e-14,1.762082206e-13,2.330717832e-13,2.876982567e-13,2.284058896e-13,2.465359142e-14,1.399831076e-13,5.674023698e-14,2.672665566e-14,1.425537358e-13,1.040116367e-13,1.325664261e-13,7.309095811e-14,2.193548101e-13,4.974019854e-14,5.948996553e-14,6.631988335e-14,1.248753252e-13,1.046230074e-13
0.64062,2.073599312e-13,1.328281834e-13,1.510472173e-13,8.174844167e-14,8.542277194e-14,9.025872713e-14,5.408925060e-14,2.927090796e-14,8.477937087e-14,1.365996702e-14,1.822104835e-13,5.410583706e-14,2.285038374e-13,4.783824428e-14,1.731533744e-13,2.243122776e-13,2.756800879e-13,2.169235013e-13,2.306722773e-14,1.416021159e-13,5.488843580e-14,2.519051515e-14,1.358903154e-13,9.836116928e-14,1.262416180e-13,7.341210546e-14,2.130875582e-13,4.769501098e-14,5.826823451e-14,6.230200763e-14,1.260270021e-13,1.015382211e-13
0.64844,2.064952295e-13,1.365338754e-13,1.413755742e-13,7.938024653e-14,7.898398957e-14,8.677499209e-14,5.476517271e-14,2.862747162e-14,8.211176985e-14,1.366798244e-14,1.747443788e-13,5.177419896e-14,2.218605001e-13,4.642410764e-14,1.704333604e-13,2.160050570e-13,2.642684558e-13,2.056645152e-13,2.156355948e-14,1.434216627e-13,5.342490549e-14,2.366098406e-14,1.292197911e-13,9.355136998e-14,1.196244420e-13,7.392784384e-14,2.064575632e-13,4.616320875e-14,5.720179822e-14,5.845320847e-14,1.274930573e-13,9.864100037e-14
0.65625,2.052755067e-13,1.402815736e-13,1.323364430e-13,7.698874365e-14,7.312758340e-14,8.347400074e-14,5.553315424e-14,2.802188489e-14,7.937589056e-14,1.371356034e-14,1.674539489e-13,4.960080320e-14,2.150956426e-13,4.523240278e-14,1.678058539e-13,2.077318096e-13,2.530036127e-13,1.944751033e-13,2.012896872e-14,1.454364140e-13,5.211629240e-14,2.218337917e-14,1.226566136e-13,8.957395703e-14,1.128253918e-13,7.458668305e-14,1.993199614e-13,4.506429194e-14,5.625709659e-14,5.474518100e-14,1.290343327e-13,9.589700925e-14
0.66406,2.038027560e-13,1.442539263e-13,1.237035814e-13,7.445968690e-14,6.769714020e-14,8.052299738e-14,5.638106298e-14,2.739303703e-14,7.659644715e-14,1.379287224e-14,1.602022292e-13,4.754432473e-14,2.082914064e-13,4.432133163e-14,1.653266020e-13,1.993880359e-13,2.420722597e-13,1.834098649e-13,1.878829422e-14,1.476522120e-13,5.096519515e-14,2.079186216e-14,1.161296002e-13,8.623716224e-14,1.064507795e-13,7.531017994e-14,1.916164183e-13,4.441852383e-14,5.538199974e-14,5.118820775e-14,1.305436582e-13,9.316530603e-14
0.67188,2.020548386e-13,1.485699886e-13,1.160447468e-13,7.190391863e-14,6.275576056e-14,7.782579327e-14,5.745959293e-14,2.677177721e-14,7.377845718e-14,1.388154913e-14,1.532770031e-13,4.569991284e-14,2.016629241e-13,4.375565832e-14,1.631858770e-13,1.914189510e-13,2.316368099e-13,1.727452131e-13,1.756520898e-14,1.500814092e-13,4.997578358e-14,1.945396351e-14,1.097884781e-13,8.340705628e-14,1.005098906e-13,7.611118897e-14,1.840905033e-13,4.436313030e-14,5.472015928e-14,4.791188278e-14,1.321063190e-13,9.039064615e-14
0.67969,2.001459730e-13,1.530224173e-13,1.095199133e-13,6.922080502e-14,5.839428910e-14,7.544351139e-14,5.862120184e-14,2.618133733e-14,7.088673981e-14,1.398423187e-14,1.467208879e-13,4.403589160e-14,1.951531760e-13,4.352732959e-14,1.614601101e-13,1.840429195e-13,2.218148425e-13,1.624596460e-13,1.641048072e-14,1.526891860e-13,4.919736638e-14,1.815272115e-14,1.037400888e-13,8.122743479e-14,9.467608539e-14,7.700828827e-14,1.767859661e-13,4.494287678e-14,5.425326138e-14,4.481961566e-14,1.338125934e-13,8.767380605e-14
0.6875,1.981429846e-13,1.574249485e-13,1.037659962e-13,6.650672143e-14,5.463964054e-14,7.371896810e-14,5.973388197e-14,2.573090216e-14,6.804559229e-14,1.407972801e-14,1.405020943e-13,4.256184304e-14,1.886072792e-13,4.365542442e-14,1.601354007e-13,1.772160175e-13,2.127113485e-13,1.525294437e-13,1.530444101e-14,1.551028172e-13,4.868603163e-14,1.692225311e-14,9.783054965e-14,7.960364224e-14,8.885891424e-14,7.796067898e-14,1.694452114e-13,4.613412799e-14,5.391026439e-14,4.187535950e-14,1.356614993e-13,8.519150455e-14
0.69531,1.961056760e-13,1.616339170e-13,9.854698702e-14,6.384061689e-14,5.142643133e-14,7.238497338e-14,6.085526570e-14,2.536207847e-14,6.531230982e-14,1.411825070e-14,1.346333258e-13,4.132256722e-14,1.821144969e-13,4.412158931e-14,1.590366995e-13,1.707057491e-13,2.039265364e-13,1.428722298e-13,1.426310538e-14,1.569434476e-13,4.837286646e-14,1.579871672e-14,9.205322463e-14,7.847451554e-14,8.316500057e-14,7.886339513e-14,1.622693245e-13,4.789593110e-14,5.373315423e-14,3.916953190e-14,1.374214018e-13,8.289296360e-14
0.70312,1.940941076e-13,1.657561426e-13,9.407314885e-14,6.115775260e-14,4.859854485e-14,7.110374780e-14,6.206460508e-14,2.495181514e-14,6.258691951e-14,1.415066745e-14,1.290619421e-13,4.024640629e-14,1.757542190e-13,4.480533590e-14,1.579850058e-13,1.643240048e-13,1.951691142e-13,1.334351096e-13,1.328069045e-14,1.583882715e-13,4.815605727e-14,1.477795544e-14,8.650850770e-14,7.795869205e-14,7.774204090e-14,7.962510192e-14,1.552763101e-13,5.004604138e-14,5.365612972e-14,3.670469449e-14,1.388823809e-13,8.059535983e-14
0.71094,1.918531358e-13,1.699630099e-13,9.047082053e-14,5.841178266e-14,4.611387416e-14,6.994916092e-14,6.334385077e-14,2.454407301e-14,5.987087970e-14,1.423359524e-14,1.236583262e-13,3.924167770e-14,1.694194183e-13,4.560285365e-14,1.569073392e-13,1.580451020e-13,1.866184723e-13,1.242301516e-13,1.232970350e-14,1.595610852e-13,4.810083781e-14,1.381855590e-14,8.131779568e-14,7.755264541e-14,7.245369519e-14,8.027229933e-14,1.484470360e-13,5.247421092e-14,5.359276280e-14,3.445369404e-14,1.400212542e-13,7.831036902e-14
0.71875,1.891828713e-13,1.739814680e-13,8.768205523e-14,5.565640692e-14,4.402067265e-14,6.902087902e-14,6.458889646e-14,2.414676496e-14,5.717245774e-14,1.434262961e-14,1.184675001e-13,3.836078926e-14,1.630569679e-13,4.656313642e-14,1.558647358e-13,1.520227562e-13,1.785071334e-13,1.153473807e-13,1.141827069e-14,1.604179558e-13,4.824724996e-14,1.289770150e-14,7.657334529e-14,7.719112897e-14,6.734147265e-14,8.088174053e-14,1.419873583e-13,5.532377035e-14,5.354375845e-14,3.237720867e-14,1.408330127e-13,7.607193000e-14
0.72656,1.863596390e-13,1.775883044e-13,8.559140868e-14,5.307944020e-14,4.227957190e-14,6.843015266e-14,6.587026799e-14,2.376509780e-14,5.450652696e-14,1.447717944e-14,1.136124891e-13,3.768232510e-14,1.567495647e-13,4.783753322e-14,1.550311316e-13,1.464193830e-13,1.709409491e-13,1.069354160e-13,1.057861846e-14,1.612044567e-13,4.855219160e-14,1.204203501e-14,7.207256771e-14,7.753867352e-14,6.258736552e-14,8.136153271e-14,1.355928488e-13,5.853959656e-14,5.347398753e-14,3.043021343e-14,1.413260240e-13,7.383121872e-14
0.73438,1.836229502e-13,1.809976007e-13,8.418579780e-14,5.071045392e-14,4.076228686e-14,6.813450954e-14,6.731208963e-14,2.344144164e-14,5.192792182e-14,1.463703896e-14,1.091001084e-13,3.721031918e-14,1.506209515e-13,4.947771550e-14,1.544707312e-13,1.412561406e-13,1.638277079e-13,9.904796831e-14,9.812109476e-15,1.618734549e-13,4.892348622e-14,1.127767154e-14,6.767048524e-14,7.811484710e-14,5.808369717e-14,8.161743981e-14,1.290157865e-13,6.200689635e-14,5.343989880e-14,2.867970306e-14,1.414756242e-13,7.157634561e-14
0.74219,1.808500692e-13,1.843726101e-13,8.360336533e-14,4.829433099e-14,3.942725310e-14,6.798815138e-14,6.876292150e-14,2.310225845e-14,4.934865802e-14,1.479079069e-14,1.049888704e-13,3.693809967e-14,1.447406467e-13,5.136890924e-14,1.541280739e-13,1.365886836e-13,1.572081136e-13,9.170707230e-14,9.122508317e-15,1.621718649e-13,4.931204161e-14,1.058383786e-14,6.353526092e-14,7.839727225e-14,5.389871439e-14,8.178753547e-14,1.227026766e-13,6.591854397e-14,5.353385197e-14,2.716668171e-14,1.413504655e-13,6.926334061e-14
0.75,1.778485991e-13,1.876075835e-13,8.373966530e-14,4.585797381e-14,3.839344443e-14,6.805453333e-14,7.009922781e-14,2.273434422e-14,4.672047403e-14,1.493567365e-14,1.013422743e-13,3.682984632e-14,1.390649943e-13,5.339303987e-14,1.539661993e-13,1.324802785e-13,1.514296336e-13,8.495443967e-14,8.533557705e-15,1.623818987e-13,4.985694447e-14,9.922861736e-15,5.975909229e-14,7.898473223e-14,5.014845565e-14,8.200353335e-14,1.168356947e-13,7.016048535e-14,5.371756316e-14,2.582255992e-14,1.412250304e-13,6.688713322e-14
0.75781,1.747002509e-13,1.905522504e-13,8.444001784e-14,4.367858080e-14,3.770489958e-14,6.825928731e-14,7.133201319e-14,2.242994477e-14,4.415438856e-14,1.507059131e-14,9.805330823e-14,3.683950305e-14,1.335423597e-13,5.553582334e-14,1.539597431e-13,1.288111358e-13,1.465269656e-13,7.868021093e-14,8.030895148e-15,1.627797941e-13,5.060818408e-14,9.309797362e-15,5.629115376e-14,7.997572864e-14,4.679823896e-14,8.222294623e-14,1.111073933e-13,7.459476563e-14,5.391945338e-14,2.461269340e-14,1.410858219e-13,6.454746954e-14
0.76562,1.717155921e-13,1.932379216e-13,8.587166801e-14,4.165825782e-14,3.727202452e-14,6.852466796e-14,7.238035412e-14,2.217486076e-14,4.169048626e-14,1.520911667e-14,9.505190020e-14,3.699952012e-14,1.281941606e-13,5.783285059e-14,1.541414170e-13,1.254672248e-13,1.422111243e-13,7.277343418e-14,7.581031569e-15,1.631063340e-13,5.146666872e-14,8.785880034e-15,5.310237851e-14,8.104524265e-14,4.389451298e-14,8.233946412e-14,1.053645197e-13,7.961812239e-14,5.404560938e-14,2.355529518e-14,1.406310511e-13,6.225351067e-14
0.77344,1.688704867e-13,1.957947586e-13,8.811104983e-14,3.962287015e-14,3.707253515e-14,6.901378118e-14,7.330970810e-14,2.190626209e-14,3.931010256e-14,1.540294310e-14,9.240448866e-14,3.731050585e-14,1.230346153e-13,6.030893873e-14,1.545128159e-13,1.224925567e-13,1.384587614e-13,6.734785036e-14,7.192930413e-15,1.631475210e-13,5.242237261e-14,8.336584741e-15,5.022625478e-14,8.214577030e-14,4.134581510e-14,8.232276578e-14,9.973175009e-14,8.514778062e-14,5.409910829e-14,2.268410462e-14,1.398491310e-13,5.993965420e-14
0.78125,1.658721421e-13,1.982036645e-13,9.100476601e-14,3.770825090e-14,3.713043108e-14,6.964871180e-14,7.428306607e-14,2.164851756e-14,3.702589275e-14,1.566713457e-14,9.014893855e-14,3.767419191e-14,1.180659342e-13,6.296056743e-14,1.550170896e-13,1.200079312e-13,1.354904094e-13,6.252173225e-14,6.895309904e-15,1.630910327e-13,5.341171410e-14,7.933756347e-15,4.770213602e-14,8.331405875e-14,3.916970121e-14,8.224265739e-14,9.445045737e-14,9.074550129e-14,5.420677058e-14,2.201439930e-14,1.388944382e-13,5.764159290e-14
0.78906,1.628567682e-13,2.004013897e-13,9.445953141e-14,3.595000093e-14,3.744066627e-14,7.036082901e-14,7.527324136e-14,2.146519487e-14,3.484445285e-14,1.598372329e-14,8.822871792e-14,3.805858125e-14,1.133226682e-13,6.577824972e-14,1.557288912e-13,1.180556467e-13,1.333104436e-13,5.822108835e-14,6.675859714e-15,1.628641855e-13,5.440072366e-14,7.591805774e-15,4.545488187e-14,8.454725576e-14,3.742311729e-14,8.203498076e-14,8.949321359e-14,9.657417213e-14,5.428338488e-14,2.151500996e-14,1.377450544e-13,5.544970441e-14
0.79688,1.600461142e-13,2.023433758e-13,9.852819864e-14,3.427285122e-14,3.794595080e-14,7.123304071e-14,7.624144170e-14,2.134001244e-14,3.273614496e-14,1.634577967e-14,8.650746163e-14,3.850689705e-14,1.088005493e-13,6.874663332e-14,1.565988038e-13,1.163951824e-13,1.315214287e-13,5.433751997e-14,6.487313573e-15,1.620383599e-13,5.549096827e-14,7.314055827e-15,4.340771590e-14,8.546425040e-14,3.590317716e-14,8.153695010e-14,8.457765080e-14,1.026954531e-13,5.417451279e-14,2.114861547e-14,1.362798892e-13,5.335409458e-14
0.80469,1.572086090e-13,2.039263639e-13,1.032609125e-13,3.278209955e-14,3.856478378e-14,7.212323482e-14,7.711687698e-14,2.122193499e-14,3.062619538e-14,1.675114565e-14,8.494502537e-14,3.901335634e-14,1.044383879e-13,7.182310193e-14,1.573927894e-13,1.148020378e-13,1.299660402e-13,5.092850989e-14,6.330190953e-15,1.608539592e-13,5.665679575e-14,7.069161012e-15,4.157126321e-14,8.609949254e-14,3.466349664e-14,8.078881138e-14,7.978601888e-14,1.089151751e-13,5.394273531e-14,2.086618429e-14,1.344755608e-13,5.124801970e-14
0.8125,1.542933214e-13,2.052066769e-13,1.085062602e-13,3.158659330e-14,3.936689808e-14,7.312893266e-14,7.776976187e-14,2.115939912e-14,2.853149876e-14,1.720315331e-14,8.368529151e-14,3.954077552e-14,1.002189088e-13,7.499350296e-14,1.582014052e-13,1.135002452e-13,1.291529072e-13,4.818347123e-14,6.262875599e-15,1.597837634e-13,5.793279708e-14,6.842245623e-15,3.997177979e-14,8.691645513e-14,3.377329437e-14,7.994378215e-14,7.547749780e-14,1.152655056e-13,5.364435070e-14,2.065035291e-14,1.324873362e-13,4.914024951e-14
0.82031,1.515289706e-13,2.063400183e-13,1.142511250e-13,3.070569704e-14,4.045403157e-14,7.441259632e-14,7.826115995e-14,2.117167518e-14,2.657520026e-14,1.769126293e-14,8.279057920e-14,4.004889407e-14,9.618624671e-14,7.828933237e-14,1.592160833e-13,1.127575115e-13,1.293693229e-13,4.619348412e-14,6.306627546e-15,1.585179859e-13,5.943764361e-14,6.661996822e-15,3.864111244e-14,8.758863167e-14,3.306985855e-14,7.909263293e-14,7.172921463e-14,1.215820147e-13,5.331781803e-14,2.057000018e-14,1.303831691e-13,4.716489363e-14
0.82812,1.487129842e-13,2.073236976e-13,1.206974809e-13,3.010074637e-14,4.174634813e-14,7.574718998e-14,7.864677670e-14,2.118124879e-14,2.476613436e-14,1.821313852e-14,8.220377139e-14,4.049767299e-14,9.236625362e-14,8.171259757e-14,1.603153383e-13,1.124895809e-13,1.302891362e-13,4.488560268e-14,6.430104386e-15,1.569196708e-13,6.101841055e-14,6.554772138e-15,3.756376610e-14,8.790504938e-14,3.260757128e-14,7.822874067e-14,6.845706904e-14,1.276709421e-13,5.304029494e-14,2.064891067e-14,1.280307235e-13,4.530139711e-14
0.83594,1.456657921e-13,2.081969778e-13,1.277208963e-13,2.963383642e-14,4.317020015e-14,7.721861482e-14,7.890444952e-14,2.118518549e-14,2.303472358e-14,1.881069638e-14,8.192069141e-14,4.089116563e-14,8.872620262e-14,8.524975820e-14,1.614745176e-13,1.125952758e-13,1.317313770e-13,4.416585239e-14,6.620141949e-15,1.553550735e-13,6.259876224e-14,6.498531534e-15,3.670589455e-14,8.815736044e-14,3.241154832e-14,7.727651120e-14,6.568297730e-14,1.336096721e-13,5.273853981e-14,2.083401915e-14,1.254124782e-13,4.342445738e-14
0.84375,1.428131136e-13,2.090305003e-13,1.350505017e-13,2.927459413e-14,4.475407546e-14,7.894254544e-14,7.915141923e-14,2.122167535e-14,2.140280293e-14,1.949103587e-14,8.189178375e-14,4.126517961e-14,8.524583587e-14,8.892635579e-14,1.628601183e-13,1.130935201e-13,1.337316451e-13,4.395557184e-14,6.885648452e-15,1.537016933e-13,6.434830619e-14,6.470562437e-15,3.604528772e-14,8.822724303e-14,3.242096457e-14,7.622324090e-14,6.335330656e-14,1.393731643e-13,5.231349133e-14,2.111434404e-14,1.226343154e-13,4.157267735e-14
0.85156,1.403407616e-13,2.096573939e-13,1.425725187e-13,2.916153330e-14,4.653469851e-14,8.052058347e-14,7.937990641e-14,2.129169059e-14,1.991695688e-14,2.020932812e-14,8.206199106e-14,4.163206343e-14,8.201342734e-14,9.273635578e-14,1.644043886e-13,1.138628343e-13,1.361712855e-13,4.423122457e-14,7.215771833e-15,1.517024558e-13,6.627708174e-14,6.482662835e-15,3.557267808e-14,8.813890582e-14,3.266348834e-14,7.507971862e-14,6.137282256e-14,1.448877728e-13,5.179407519e-14,2.150205176e-14,1.197142607e-13,3.985561136e-14
0.85938,1.378133364e-13,2.099441049e-13,1.503372557e-13,2.936071545e-14,4.854081960e-14,8.188937812e-14,7.939544374e-14,2.142405313e-14,1.857039328e-14,2.096854170e-14,8.255055224e-14,4.196161189e-14,7.910011625e-14,9.657833068e-14,1.658371649e-13,1.147294773e-13,1.390129803e-13,4.507217959e-14,7.599568924e-15,1.495149455e-13,6.832865611e-14,6.537538566e-15,3.539047677e-14,8.804827608e-14,3.316039628e-14,7.388951653e-14,5.983660579e-14,1.501590988e-13,5.124029589e-14,2.199420783e-14,1.166476412e-13,3.828900133e-14
0.86719,1.350601352e-13,2.100148072e-13,1.586112946e-13,2.978545778e-14,5.071215429e-14,8.330895585e-14,7.913966418e-14,2.165544195e-14,1.735405247e-14,2.179407991e-14,8.344802752e-14,4.222461499e-14,7.639801976e-14,1.003637379e-13,1.670199683e-13,1.157391530e-13,1.424066260e-13,4.645352841e-14,8.037487478e-15,1.472247234e-13,7.049402336e-14,6.630630909e-15,3.549591639e-14,8.780313072e-14,3.402719743e-14,7.272068578e-14,5.874596805e-14,1.552123541e-13,5.068716293e-14,2.258336053e-14,1.134752005e-13,3.687089293e-14
0.875,1.324041720e-13,2.099905202e-13,1.673267607e-13,3.028706424e-14,5.298576445e-14,8.471424936e-14,7.867809171e-14,2.198686588e-14,1.629687507e-14,2.266014152e-14,8.465027552e-14,4.243777554e-14,7.383529380e-14,1.040901564e-13,1.680671128e-13,1.169859136e-13,1.463855004e-13,4.823448891e-14,8.515572220e-15,1.447711933e-13,7.273029764e-14,6.764931313e-15,3.568790493e-14,8.735794327e-14,3.518468912e-14,7.147146792e-14,5.791938520e-14,1.599366756e-13,5.011416682e-14,2.324484781e-14,1.102471702e-13,3.563776154e-14
0.88281,1.300176209e-13,2.098912262e-13,1.761723176e-13,3.083295136e-14,5.543498847e-14,8.594469239e-14,7.811340252e-14,2.238721860e-14,1.541894610e-14,2.355637563e-14,8.607922966e-14,4.260979842e-14,7.152692941e-14,1.077113259e-13,1.691339729e-13,1.183909735e-13,1.507722947e-13,5.041168973e-14,9.046940346e-15,1.422983365e-13,7.509062282e-14,6.927384412e-15,3.593258885e-14,8.678077712e-14,3.650119786e-14,7.014477452e-14,5.733324254e-14,1.641108129e-13,4.956073907e-14,2.398012140e-14,1.070718438e-13,3.460529988e-14
0.89062,1.277852437e-13,2.097120309e-13,1.852079278e-13,3.150013989e-14,5.811644413e-14,8.697651909e-14,7.748920509e-14,2.285299684e-14,1.469204898e-14,2.452104531e-14,8.777489373e-14,4.271991353e-14,6.951855074e-14,1.111533672e-13,1.701925509e-13,1.199263941e-13,1.554107443e-13,5.300009819e-14,9.655779723e-15,1.399384949e-13,7.760925366e-14,7.113510413e-15,3.633353272e-14,8.626063707e-14,3.811183676e-14,6.892030170e-14,5.701205229e-14,1.680006168e-13,4.914681302e-14,2.481192464e-14,1.040650620e-13,3.373901907e-14
0.89844,1.256326944e-13,2.094496556e-13,1.943457072e-13,3.233411368e-14,6.105353419e-14,8.802077844e-14,7.672901820e-14,2.342363427e-14,1.409613076e-14,2.554904817e-14,8.973181846e-14,4.279100226e-14,6.772142205e-14,1.144915065e-13,1.711556399e-13,1.216553499e-13,1.603757631e-13,5.594785995e-14,1.030998026e-14,1.375474768e-13,8.025325191e-14,7.340567093e-15,3.693975750e-14,8.591093902e-14,3.999995391e-14,6.768621998e-14,5.696256555e-14,1.719118569e-13,4.876850356e-14,2.570761501e-14,1.011169428e-13,3.301486323e-14
0.90625,1.235704025e-13,2.091533421e-13,2.034509771e-13,3.345932119e-14,6.426909188e-14,8.922065122e-14,7.586472595e-14,2.405619042e-14,1.363619098e-14,2.660171978e-14,9.191958684e-14,4.285664700e-14,6.606291930e-14,1.178045678e-13,1.720038604e-13,1.234947466e-13,1.658476973e-13,5.930871563e-14,1.100405442e-14,1.350642489e-13,8.303178624e-14,7.605299853e-15,3.775790547e-14,8.549155234e-14,4.221257733e-14,6.626392034e-14,5.723765650e-14,1.754622132e-13,4.822354723e-14,2.663048705e-14,9.797808023e-14,3.244248323e-14
0.91406,1.215895681e-13,2.089405870e-13,2.128341702e-13,3.498847185e-14,6.771086542e-14,9.022508719e-14,7.497911511e-14,2.470690043e-14,1.332053439e-14,2.770961028e-14,9.441577737e-14,4.290771934e-14,6.448098079e-14,1.210294912e-13,1.727529107e-13,1.253958548e-13,1.719091321e-13,6.310689285e-14,1.176758378e-14,1.326315857e-13,8.590309786e-14,7.895858001e-15,3.866661570e-14,8.492665203e-14,4.470858503e-14,6.470325646e-14,5.777975409e-14,1.786095466e-13,4.760147848e-14,2.762396832e-14,9.465966665e-14,3.202999808e-14
0.92188,1.197109713e-13,2.089904545e-13,2.226162988e-13,3.681866058e-14,7.142486748e-14,9.091711252e-14,7.398818004e-14,2.543795252e-14,1.318034229e-14,2.892087408e-14,9.726167130e-14,4.296109561e-14,6.299684199e-14,1.241705538e-13,1.734712312e-13,1.274618214e-13,1.785333414e-13,6.728884112e-14,1.258373544e-14,1.303680157e-13,8.892637911e-14,8.222363773e-15,3.960051627e-14,8.443799034e-14,4.710920073e-14,6.308675647e-14,5.868722806e-14,1.817597927e-13,4.707349935e-14,2.873878748e-14,9.136810646e-14,3.181147038e-14
0.92969,1.179675117e-13,2.093242065e-13,2.325797282e-13,3.879472175e-14,7.545794112e-14,9.171662855e-14,7.291645950e-14,2.623241272e-14,1.321710246e-14,3.019401840e-14,1.002991086e-13,4.305093996e-14,6.171197259e-14,1.273003380e-13,1.742184182e-13,1.296524902e-13,1.854894157e-13,7.178686303e-14,1.346240534e-14,1.283725485e-13,9.216405644e-14,8.593214855e-15,4.063988134e-14,8.416579137e-14,4.960753368e-14,6.155924309e-14,6.016222844e-14,1.847167720e-13,4.663562378e-14,2.993813124e-14,8.814668895e-14,3.180578164e-14
0.9375,1.163761050e-13,2.097039501e-13,2.422327551e-13,4.086603177e-14,7.965820129e-14,9.265946006e-14,7.196753837e-14,2.702647840e-14,1.339339832e-14,3.146696764e-14,1.033408309e-13,4.315172023e-14,6.059140958e-14,1.303850346e-13,1.749843469e-13,1.318612964e-13,1.924832702e-13,7.641662852e-14,1.440430719e-14,1.264932102e-13,9.544302853e-14,9.005012911e-15,4.175066183e-14,8.395636501e-14,5.236000152e-14,6.010474749e-14,6.197444677e-14,1.872941030e-13,4.623409004e-14,3.116145593e-14,8.492959963e-14,3.197028911e-14
0.94531,1.150369765e-13,2.101339361e-13,2.511538170e-13,4.319360348e-14,8.406328493e-14,9.346631278e-14,7.110976922e-14,2.783910465e-14,1.372793696e-14,3.275872132e-14,1.063515730e-13,4.321828809e-14,5.954703360e-14,1.333624040e-13,1.757423441e-13,1.341316280e-13,1.995639512e-13,8.118166750e-14,1.535297506e-14,1.245663297e-13,9.880407947e-14,9.456324341e-15,4.289983571e-14,8.366840855e-14,5.497796233e-14,5.849901787e-14,6.379932535e-14,1.896361739e-13,4.580207701e-14,3.242675648e-14,8.175546943e-14,3.233068954e-14
0.95312,1.140021095e-13,2.108808174e-13,2.599402117e-13,4.591608793e-14,8.880433803e-14,9.416926841e-14,7.019643456e-14,2.865077978e-14,1.424613561e-14,3.411301845e-14,1.093796296e-13,4.323606097e-14,5.860254977e-14,1.361730825e-13,1.764415972e-13,1.364370066e-13,2.068289890e-13,8.625908685e-14,1.632121680e-14,1.228426093e-13,1.023632913e-13,9.946883396e-15,4.412886997e-14,8.358746495e-14,5.767050401e-14,5.683586941e-14,6.564218053e-14,1.916125767e-13,4.530504030e-14,3.376367348e-14,7.872424813e-14,3.293434418e-14
0.96094,1.131421580e-13,2.119335732e-13,2.691072200e-13,4.879626287e-14,9.367569070e-14,9.476238843e-14,6.932519237e-14,2.944405051e-14,1.491956320e-14,3.551102688e-14,1.124080047e-13,4.319480860e-14,5.777465601e-14,1.387606903e-13,1.770298122e-13,1.386405929e-13,2.140899422e-13,9.149605305e-14,1.732728191e-14,1.213098416e-13,1.058963200e-13,1.048009439e-14,4.539266997e-14,8.368175776e-14,6.060212509e-14,5.533364806e-14,6.764983331e-14,1.932851243e-13,4.485139514e-14,3.514358255e-14,7.584451475e-14,3.371059139e-14
0.96875,1.124812697e-13,2.131354232e-13,2.779265697e-13,5.169193382e-14,9.854282746e-14,9.509226153e-14,6.853243650e-14,3.023141331e-14,1.573956150e-14,3.688558559e-14,1.153163329e-13,4.307053170e-14,5.706598089e-14,1.411498366e-13,1.775136399e-13,1.407172062e-13,2.212812937e-13,9.675343041e-14,1.836425343e-14,1.197956451e-13,1.093645653e-13,1.105493314e-14,4.668541013e-14,8.366171430e-14,6.355726888e-14,5.398676978e-14,6.990920178e-14,1.947945482e-13,4.452529582e-14,3.656252388e-14,7.305276257e-14,3.461420914e-14
0.97656,1.122165552e-13,2.143815988e-13,2.857716276e-13,5.466905566e-14,1.034499550e-13,9.533890328e-14,6.773535884e-14,3.095244630e-14,1.670368430e-14,3.819581589e-14,1.180553496e-13,4.283997269e-14,5.648796099e-14,1.433158948e-13,1.779201585e-13,1.426829719e-13,2.284162154e-13,1.020939151e-13,1.947046007e-14,1.185312701e-13,1.128325236e-13,1.165659003e-14,4.804747181e-14,8.391607815e-14,6.672950458e-14,5.282171057e-14,7.227910339e-14,1.958070461e-13,4.425453546e-14,3.802368761e-14,7.035434309e-14,3.564732291e-14
0.98438,1.122827740e-13,2.156764116e-13,2.928307084e-13,5.759532342e-14,1.083069588e-13,9.575048264e-14,6.707499713e-14,3.160927819e-14,1.780621615e-14,3.948060093e-14,1.207201192e-13,4.251220778e-14,5.597437955e-14,1.451739968e-13,1.782842346e-13,1.444941890e-13,2.353789800e-13,1.073519205e-13,2.058977322e-14,1.174928688e-13,1.161656931e-13,1.228772064e-14,4.943239021e-14,8.450123424e-14,6.991376778e-14,5.183373387e-14,7.463044393e-14,1.963435934e-13,4.399785918e-14,3.947248058e-14,6.780508227e-14,3.677137024e-14
0.99219,1.125507912e-13,2.172453658e-13,2.994693583e-13,6.052892995e-14,1.131344235e-13,9.618344120e-14,6.658809716e-14,3.226677849e-14,1.909709647e-14,4.078302253e-14,1.233252948e-13,4.212935568e-14,5.550765697e-14,1.467533024e-13,1.786359251e-13,1.461161491e-13,2.422265946e-13,1.124745089e-13,2.166246433e-14,1.166434642e-13,1.194447772e-13,1.296530096e-14,5.077141792e-14,8.493538494e-14,7.281855744e-14,5.091993045e-14,7.700686284e-14,1.967623952e-13,4.379646575e-14,4.091204386e-14,6.540957664e-14,3.802677695e-14
1,1.131118088e-13,2.189437951e-13,3.056569554e-13,6.359610817e-14,1.180157915e-13,9.649932282e-14,6.612076893e-14,3.291435328e-14,2.061565015e-14,4.204565861e-14,1.258010486e-13,4.171890221e-14,5.517030564e-14,1.480994222e-13,1.789438335e-13,1.475472849e-13,2.489908605e-13,1.176096721e-13,2.275992036e-14,1.162812591e-13,1.226980908e-13,1.367230862e-14,5.206403452e-14,8.557479932e-14,7.585909688e-14,5.012065617e-14,7.935616134e-14,1.969161925e-13,4.363092853e-14,4.240235934e-14,6.315356184e-14,3.948513324e-14
1.0078,1.140004980e-13,2.203119357e-13,3.111070240e-13,6.660831789e-14,1.228996468e-13,9.686456391e-14,6.575941598e-14,3.358343535e-14,2.235857292e-14,4.321822654e-14,1.281812064e-13,4.127977862e-14,5.496562159e-14,1.492243869e-13,1.791878278e-13,1.488476568e-13,2.555493748e-13,1.226581847e-13,2.386921827e-14,1.162222449e-13,1.258202760e-13,1.439233500e-14,5.340973340e-14,8.679851020e-14,7.913278841e-14,4.949294733e-14,8.168001287e-14,1.967634304e-13,4.346055217e-14,4.391734602e-14,6.106383519e-14,4.115522177e-14
1.0156,1.153034877e-13,2.213960082e-13,3.160961434e-13,6.951538918e-14,1.277172035e-13,9.735148141e-14,6.554538802e-14,3.430527549e-14,2.432884746e-14,4.433985116e-14,1.304400801e-13,4.079984576e-14,5.483859983e-14,1.501461088e-13,1.794051658e-13,1.500280918e-13,2.618654946e-13,1.275124844e-13,2.492134779e-14,1.161562431e-13,1.288531567e-13,1.512491045e-14,5.482859627e-14,8.821115644e-14,8.243960050e-14,4.891428488e-14,8.393620343e-14,1.966043942e-13,4.324217861e-14,4.539402719e-14,5.912188601e-14,4.303442980e-14
1.0234,1.171547923e-13,2.222961612e-13,3.205840740e-13,7.227423306e-14,1.323018276e-13,9.777901215e-14,6.536327029e-14,3.499591888e-14,2.650230832e-14,4.541149231e-14,1.324383250e-13,4.027271696e-14,5.475514021e-14,1.507399475e-13,1.795612588e-13,1.509099499e-13,2.677468756e-13,1.320753273e-13,2.590263478e-14,1.160950973e-13,1.315569577e-13,1.582402029e-14,5.622430469e-14,8.971971439e-14,8.555094605e-14,4.826491736e-14,8.591553289e-14,1.965004477e-13,4.290845979e-14,4.678367647e-14,5.724541498e-14,4.505366176e-14
1.0312,1.193555744e-13,2.229183576e-13,3.237009901e-13,7.484815674e-14,1.366846739e-13,9.806905643e-14,6.528833748e-14,3.564089613e-14,2.887176214e-14,4.641778079e-14,1.342478706e-13,3.972155266e-14,5.466774372e-14,1.509252137e-13,1.796032733e-13,1.514590440e-13,2.731767529e-13,1.361890380e-13,2.679674910e-14,1.160275869e-13,1.338728822e-13,1.648306220e-14,5.764016714e-14,9.153612404e-14,8.811522118e-14,4.763629937e-14,8.781292202e-14,1.964654008e-13,4.257643092e-14,4.804494306e-14,5.551230795e-14,4.721605994e-14
1.0391,1.218999094e-13,2.234653187e-13,3.257338543e-13,7.756317014e-14,1.411941468e-13,9.840364832e-14,6.536343949e-14,3.630107501e-14,3.150485301e-14,4.739592800e-14,1.361031788e-13,3.917311994e-14,5.457773334e-14,1.509044686e-13,1.796959784e-13,1.519908311e-13,2.786795213e-13,1.400514455e-13,2.769043532e-14,1.161431533e-13,1.362785642e-13,1.718750408e-14,5.906575532e-14,9.350390135e-14,9.056139404e-14,4.715329919e-14,8.985043912e-14,1.964099697e-13,4.245678297e-14,4.924959314e-14,5.408335424e-14,4.969046704e-14
1.0469,1.250593963e-13,2.239137893e-13,3.275792116e-13,8.039948588e-14,1.457940063e-13,9.892770786e-14,6.555133589e-14,3.695702767e-14,3.444804074e-14,4.832034892e-14,1.380383079e-13,3.863863141e-14,5.450946703e-14,1.508111873e-13,1.800438012e-13,1.526768059e-13,2.844099131e-13,1.438556732e-13,2.862467223e-14,1.165262257e-13,1.387787426e-13,1.793389016e-14,6.035389000e-14,9.552302110e-14,9.327140267e-14,4.676543318e-14,9.176840220e-14,1.963554506e-13,4.247207830e-14,5.048338745e-14,5.289446405e-14,5.250042262e-14
1.0547,1.285767504e-13,2.239909169e-13,3.289483574e-13,8.300802088e-14,1.502242652e-13,9.951409005e-14,6.589970755e-14,3.759757089e-14,3.769236084e-14,4.914412683e-14,1.398785768e-13,3.815418990e-14,5.440998873e-14,1.505521994e-13,1.805092445e-13,1.533233388e-13,2.899436731e-13,1.473782537e-13,2.943512876e-14,1.169423906e-13,1.410896417e-13,1.863160927e-14,6.160326785e-14,9.780544814e-14,9.560155719e-14,4.644561204e-14,9.353715563e-14,1.968717175e-13,4.244225066e-14,5.167157462e-14,5.184688041e-14,5.554388435e-14
1.0625,1.322639634e-13,2.237845564e-13,3.293495932e-13,8.549294722e-14,1.544448561e-13,9.996945183e-14,6.634651584e-14,3.826820846e-14,4.120824437e-14,4.987406567e-14,1.414344416e-13,3.772418968e-14,5.428061724e-14,1.500686847e-13,1.808073208e-13,1.537270414e-13,2.949589828e-13,1.504077718e-13,3.009181415e-14,1.173625883e-13,1.431986045e-13,1.928160686e-14,6.295103292e-14,1.003913987e-13,9.735118398e-14,4.621431347e-14,9.532179738e-14,1.978728066e-13,4.236318180e-14,5.273721962e-14,5.095620752e-14,5.879247134e-14
1.0703,1.364611563e-13,2.232994346e-13,3.286571008e-13,8.804552729e-14,1.584128190e-13,1.003043549e-13,6.682950584e-14,3.896838754e-14,4.496997476e-14,5.047016587e-14,1.426388816e-13,3.727824768e-14,5.419688142e-14,1.493276469e-13,1.809263589e-13,1.538246250e-13,2.992940656e-13,1.528959936e-13,3.070272751e-14,1.177204519e-13,1.449709236e-13,1.990731878e-14,6.429515825e-14,1.031696515e-13,9.895946274e-14,4.596365051e-14,9.694009156e-14,1.987376856e-13,4.219829834e-14,5.369207637e-14,5.015899543e-14,6.221547396e-14
1.0781,1.411412740e-13,2.223645210e-13,3.273266293e-13,9.053630279e-14,1.620655044e-13,1.006107316e-13,6.740198550e-14,3.962059688e-14,4.897772235e-14,5.090506894e-14,1.436029667e-13,3.682247907e-14,5.410542270e-14,1.483291365e-13,1.810379160e-13,1.536743572e-13,3.030802027e-13,1.549642754e-13,3.126065397e-14,1.179409807e-13,1.464166815e-13,2.048618800e-14,6.550323593e-14,1.061371202e-13,1.005585944e-13,4.568351157e-14,9.827493853e-14,1.998895699e-13,4.193266080e-14,5.455141260e-14,4.941259112e-14,6.582392923e-14
1.0859,1.461169958e-13,2.210513184e-13,3.262916669e-13,9.274871785e-14,1.652934034e-13,1.008788431e-13,6.803032524e-14,4.014454488e-14,5.319719931e-14,5.121640736e-14,1.444369626e-13,3.644717768e-14,5.392202409e-14,1.471985703e-13,1.812083384e-13,1.534161144e-13,3.066215903e-13,1.568316433e-13,3.178881989e-14,1.181658299e-13,1.476410316e-13,2.104167339e-14,6.647679789e-14,1.091385474e-13,1.021916570e-13,4.549402034e-14,9.947205616e-14,2.016029582e-13,4.169785918e-14,5.536043803e-14,4.871858995e-14,6.959172684e-14
1.0938,1.514554244e-13,2.194746293e-13,3.250516230e-13,9.472790694e-14,1.680567732e-13,1.011649420e-13,6.863775446e-14,4.059262123e-14,5.763052675e-14,5.141971547e-14,1.450989180e-13,3.615138676e-14,5.369648075e-14,1.459777385e-13,1.813981180e-13,1.530874018e-13,3.099020653e-13,1.584131208e-13,3.232009793e-14,1.183089503e-13,1.484914360e-13,2.159792590e-14,6.729753137e-14,1.119711599e-13,1.036750992e-13,4.536326893e-14,1.006115589e-13,2.033738814e-13,4.149615592e-14,5.612461091e-14,4.803531243e-14,7.345218444e-14
1.1016,1.570911718e-13,2.178165221e-13,3.226434279e-13,9.680521809e-14,1.706948309e-13,1.015823764e-13,6.923983969e-14,4.109506562e-14,6.236430560e-14,5.154721886e-14,1.455605437e-13,3.590649585e-14,5.345163079e-14,1.446159106e-13,1.816023645e-13,1.526689758e-13,3.129024358e-13,1.596219330e-13,3.279780493e-14,1.184267691e-13,1.491269075e-13,2.214644066e-14,6.814268557e-14,1.148143012e-13,1.047589568e-13,4.523931335e-14,1.017177034e-13,2.054282635e-13,4.127887033e-14,5.679534385e-14,4.747435888e-14,7.754214029e-14
1.1094,1.631086886e-13,2.162395596e-13,3.197289537e-13,9.898041300e-14,1.733122265e-13,1.020061871e-13,6.990217054e-14,4.164873440e-14,6.732584811e-14,5.160692428e-14,1.459292471e-13,3.576317558e-14,5.314966450e-14,1.431749146e-13,1.818661413e-13,1.522162748e-13,3.156248829e-13,1.606787211e-13,3.327358604e-14,1.187540407e-13,1.497161835e-13,2.272001534e-14,6.891990489e-14,1.178499184e-13,1.058042118e-13,4.518376782e-14,1.028457740e-13,2.080227887e-13,4.113665586e-14,5.741815348e-14,4.714124434e-14,8.182846982e-14
1.1172,1.695827678e-13,2.144511375e-13,3.166242295e-13,1.009392230e-13,1.754858930e-13,1.023290155e-13,7.056403450e-14,4.216133492e-14,7.239619170e-14,5.154407150e-14,1.462364535e-13,3.572226983e-14,5.281008401e-14,1.416483601e-13,1.821660759e-13,1.516797820e-13,3.177409873e-13,1.615152245e-13,3.380466235e-14,1.189552821e-13,1.498979657e-13,2.331601868e-14,6.957893816e-14,1.207837746e-13,1.069690821e-13,4.516617636e-14,1.039548512e-13,2.109246712e-13,4.101732893e-14,5.799233732e-14,4.688212745e-14,8.602059274e-14
1.125,1.762051441e-13,2.121451488e-13,3.125496765e-13,1.025810965e-13,1.769724279e-13,1.026333929e-13,7.110895401e-14,4.261810479e-14,7.768660149e-14,5.138654236e-14,1.462417020e-13,3.569803448e-14,5.243240263e-14,1.398442981e-13,1.823152297e-13,1.508365596e-13,3.191084378e-13,1.617699789e-13,3.425459162e-14,1.187513848e-13,1.495257056e-13,2.384208834e-14,7.021817629e-14,1.233587772e-13,1.077222517e-13,4.504730632e-14,1.049064690e-13,2.142901404e-13,4.075334537e-14,5.838257096e-14,4.655825335e-14,9.021650910e-14
1.1328,1.830610386e-13,2.094400588e-13,3.073190069e-13,1.039017334e-13,1.778160650e-13,1.027639815e-13,7.161300779e-14,4.309674296e-14,8.325790831e-14,5.115832030e-14,1.456861865e-13,3.563487426e-14,5.200790575e-14,1.376728482e-13,1.820960687e-13,1.495283976e-13,3.198945126e-13,1.613887157e-13,3.455297345e-14,1.184107433e-13,1.488126368e-13,2.425522819e-14,7.070782948e-14,1.258859712e-13,1.079750157e-13,4.478574095e-14,1.056643780e-13,2.179088081e-13,4.034625752e-14,5.857311636e-14,4.619040887e-14,9.464088951e-14
1.1406,1.905846264e-13,2.063983951e-13,3.011670868e-13,1.049247100e-13,1.781205623e-13,1.026476886e-13,7.208873380e-14,4.368393982e-14,8.906286684e-14,5.079970537e-14,1.446940293e-13,3.555615801e-14,5.159681366e-14,1.352359603e-13,1.815652286e-13,1.478507146e-13,3.202233720e-13,1.605256484e-13,3.479787530e-14,1.180217013e-13,1.477774572e-13,2.460513915e-14,7.096395804e-14,1.286624779e-13,1.081416822e-13,4.444924362e-14,1.062716385e-13,2.214054979e-13,3.983046350e-14,5.865427662e-14,4.582528543e-14,9.921019550e-14
1.1484,1.988012309e-13,2.029694114e-13,2.944644939e-13,1.056281236e-13,1.779899551e-13,1.026365117e-13,7.241257463e-14,4.431023413e-14,9.514706146e-14,5.035984309e-14,1.435926485e-13,3.554954767e-14,5.120209261e-14,1.326653853e-13,1.809864959e-13,1.460688003e-13,3.203109123e-13,1.592751267e-13,3.501916928e-14,1.174373559e-13,1.463457778e-13,2.493266631e-14,7.109790019e-14,1.314766909e-13,1.081665282e-13,4.407149200e-14,1.067954763e-13,2.252399439e-13,3.923059475e-14,5.864655050e-14,4.549340637e-14,1.038452378e-13
1.1562,2.074199392e-13,1.993066884e-13,2.874879749e-13,1.059520712e-13,1.774223238e-13,1.027751341e-13,7.264932204e-14,4.483782437e-14,1.014366450e-13,4.991133218e-14,1.424113088e-13,3.566298949e-14,5.076550439e-14,1.300453747e-13,1.804261488e-13,1.443195493e-13,3.202234012e-13,1.576831055e-13,3.519653350e-14,1.166890434e-13,1.446052977e-13,2.523050391e-14,7.116574977e-14,1.341439815e-13,1.077996681e-13,4.367653801e-14,1.074380477e-13,2.296526680e-13,3.863912643e-14,5.855881602e-14,4.519314005e-14,1.084545289e-13
1.1641,2.161656353e-13,1.954373624e-13,2.798136137e-13,1.061382060e-13,1.764371143e-13,1.027259691e-13,7.285569229e-14,4.534872822e-14,1.078380912e-13,4.939620989e-14,1.409518480e-13,3.584612829e-14,5.028965595e-14,1.273416593e-13,1.797732899e-13,1.425100806e-13,3.196953222e-13,1.556973013e-13,3.535978823e-14,1.159174233e-13,1.426584823e-13,2.547848076e-14,7.116883427e-14,1.366827322e-13,1.071748449e-13,4.328489348e-14,1.083056066e-13,2.343825029e-13,3.803598758e-14,5.839143727e-14,4.492950081e-14,1.129706561e-13
1.1719,2.251939249e-13,1.911754495e-13,2.713580111e-13,1.063018387e-13,1.749557372e-13,1.023658693e-13,7.296202395e-14,4.594874225e-14,1.144371105e-13,4.879390093e-14,1.391819939e-13,3.607670955e-14,4.979472262e-14,1.244451334e-13,1.789636191e-13,1.404921770e-13,3.185178469e-13,1.532742484e-13,3.551707002e-14,1.150786290e-13,1.403790778e-13,2.567080210e-14,7.095535947e-14,1.392022660e-13,1.064224742e-13,4.281307427e-14,1.092780486e-13,2.393304725e-13,3.734524857e-14,5.809204598e-14,4.470093035e-14,1.174667198e-13
1.1797,2.347680112e-13,1.865514905e-13,2.627131484e-13,1.061899097e-13,1.728059462e-13,1.017413344e-13,7.294658535e-14,4.653134406e-14,1.211978171e-13,4.815224370e-14,1.371938764e-13,3.637832962e-14,4.928441110e-14,1.213550614e-13,1.779042575e-13,1.381804693e-13,3.166114431e-13,1.505067376e-13,3.567461103e-14,1.139354804e-13,1.376935207e-13,2.580050956e-14,7.045090693e-14,1.418408843e-13,1.054580833e-13,4.221927837e-14,1.102688976e-13,2.443678250e-13,3.660616427e-14,5.762039150e-14,4.445142603e-14,1.218731296e-13
1.1875,2.445736100e-13,1.817278002e-13,2.540200761e-13,1.058200273e-13,1.702047690e-13,1.009887661e-13,7.278829603e-14,4.702980377e-14,1.280493686e-13,4.748594009e-14,1.350162954e-13,3.672247148e-14,4.875789824e-14,1.181223798e-13,1.765304596e-13,1.356489966e-13,3.141795649e-13,1.474859063e-13,3.585332811e-14,1.124974748e-13,1.348412503e-13,2.586350793e-14,6.989738530e-14,1.441573947e-13,1.042365882e-13,4.157837858e-14,1.111818927e-13,2.494689723e-13,3.585491761e-14,5.698099163e-14,4.421488010e-14,1.262133474e-13
1.1953,2.544136241e-13,1.767958528e-13,2.451275838e-13,1.054467015e-13,1.674397570e-13,1.002494516e-13,7.250229457e-14,4.749006140e-14,1.350298707e-13,4.681637058e-14,1.326948977e-13,3.710195939e-14,4.816864937e-14,1.147313870e-13,1.748781233e-13,1.330450163e-13,3.115944272e-13,1.442397608e-13,3.602524375e-14,1.109641511e-13,1.318666969e-13,2.589924945e-14,6.935103781e-14,1.458738266e-13,1.028269781e-13,4.090806378e-14,1.120097810e-13,2.545811858e-13,3.510331949e-14,5.621560068e-14,4.410058287e-14,1.306132424e-13
1.2031,2.643940383e-13,1.718085343e-13,2.361483302e-13,1.050816540e-13,1.643852183e-13,9.943713731e-14,7.205530291e-14,4.794454106e-14,1.420062221e-13,4.616463571e-14,1.302938629e-13,3.759370552e-14,4.747428982e-14,1.112631236e-13,1.729503139e-13,1.302873342e-13,3.086512904e-13,1.407771918e-13,3.617197938e-14,1.092804467e-13,1.285363414e-13,2.595103770e-14,6.866489739e-14,1.476939522e-13,1.013406854e-13,4.021794454e-14,1.130918170e-13,2.595859213e-13,3.435535066e-14,5.536794381e-14,4.405386502e-14,1.348085987e-13
1.2109,2.743664930e-13,1.667424748e-13,2.273911011e-13,1.045030411e-13,1.608756062e-13,9.837987879e-14,7.140929780e-14,4.843116513e-14,1.488850299e-13,4.553231036e-14,1.277402154e-13,3.825885011e-14,4.671266715e-14,1.078916290e-13,1.707915694e-13,1.272338178e-13,3.049679626e-13,1.371289245e-13,3.632676739e-14,1.073820422e-13,1.248490677e-13,2.601121695e-14,6.778935756e-14,1.496511790e-13,9.977822851e-14,3.953453882e-14,1.145799146e-13,2.647129073e-13,3.356818608e-14,5.446774522e-14,4.395953747e-14,1.386403588e-13
1.2188,2.844296842e-13,1.617474536e-13,2.189871913e-13,1.036218912e-13,1.568854971e-13,9.698647012e-14,7.072815154e-14,4.893239890e-14,1.557635280e-13,4.493665167e-14,1.249002079e-13,3.906164130e-14,4.594802793e-14,1.045798439e-13,1.684640510e-13,1.240111993e-13,3.007483045e-13,1.334027350e-13,3.652253097e-14,1.053888458e-13,1.209658090e-13,2.605671249e-14,6.664736253e-14,1.510531656e-13,9.810116986e-14,3.881837156e-14,1.161239123e-13,2.698419138e-13,3.279674092e-14,5.354936972e-14,4.387635023e-14,1.423104682e-13
1.2266,2.946364580e-13,1.571060363e-13,2.105344969e-13,1.026788583e-13,1.524813581e-13,9.535816946e-14,6.997179095e-14,4.940424056e-14,1.625606780e-13,4.438665657e-14,1.218185204e-13,3.990292190e-14,4.517515402e-14,1.011117834e-13,1.658679867e-13,1.207149353e-13,2.961302030e-13,1.296105921e-13,3.675381692e-14,1.032930461e-13,1.169739442e-13,2.606644706e-14,6.541005116e-14,1.520245285e-13,9.633451145e-14,3.808693642e-14,1.175415476e-13,2.746957605e-13,3.210345878e-14,5.258022863e-14,4.390111059e-14,1.457735599e-13
1.2344,3.045091402e-13,1.527982637e-13,2.019257254e-13,1.017808420e-13,1.478724984e-13,9.371197142e-14,6.892180818e-14,4.985072862e-14,1.691110755e-13,4.388496851e-14,1.186935918e-13,4.074791759e-14,4.432189653e-14,9.743480506e-14,1.629170747e-13,1.172114432e-13,2.909291832e-13,1.256681936e-13,3.697803059e-14,1.010116283e-13,1.129096293e-13,2.604290939e-14,6.437364953e-14,1.526644323e-13,9.445717169e-14,3.737447305e-14,1.190012825e-13,2.796439312e-13,3.140274470e-14,5.148050904e-14,4.407737276e-14,1.488865198e-13
1.2422,3.139095768e-13,1.487773740e-13,1.936964068e-13,1.007863946e-13,1.431444765e-13,9.199590159e-14,6.769871550e-14,5.020685927e-14,1.753551399e-13,4.343280700e-14,1.155810905e-13,4.164481596e-14,4.336754928e-14,9.369658249e-14,1.596542784e-13,1.134850022e-13,2.852926825e-13,1.217495200e-13,3.722607880e-14,9.863141703e-14,1.087432649e-13,2.604025255e-14,6.329373161e-14,1.528292640e-13,9.269411767e-14,3.663771322e-14,1.205386096e-13,2.844738541e-13,3.072853583e-14,5.026915325e-14,4.447033432e-14,1.516256887e-13
1.25,3.229622215e-13,1.451232704e-13,1.858455334e-13,9.967254472e-14,1.381728123e-13,9.007420602e-14,6.641173973e-14,5.043103177e-14,1.812271420e-13,4.301613108e-14,1.123203657e-13,4.259894264e-14,4.238556485e-14,9.001458482e-14,1.561416114e-13,1.096601756e-13,2.794551884e-13,1.180458116e-13,3.757973133e-14,9.623112800e-14,1.043816364e-13,2.607114766e-14,6.184213071e-14,1.527797374e-13,9.129521703e-14,3.587898006e-14,1.220619624e-13,2.884749600e-13,3.019537489e-14,4.900531566e-14,4.502840181e-14,1.539001782e-13
1.2578,3.316782695e-13,1.417369953e-13,1.780501751e-13,9.847689145e-14,1.329563375e-13,8.803493386e-14,6.501652737e-14,5.062719003e-14,1.867647825e-13,4.266221416e-14,1.088742332e-13,4.361845369e-14,4.142457543e-14,8.641304985e-14,1.524609850e-13,1.057410055e-13,2.732725638e-13,1.143820850e-13,3.799552351e-14,9.369028339e-14,9.981115275e-14,2.610804794e-14,6.019470285e-14,1.522278684e-13,8.983143726e-14,3.509816124e-14,1.235672448e-13,2.920280578e-13,2.973235372e-14,4.770897736e-14,4.566728662e-14,1.557511152e-13
1.2656,3.402210569e-13,1.386171741e-13,1.704783899e-13,9.741877942e-14,1.277246445e-13,8.593150440e-14,6.364369157e-14,5.085079935e-14,1.920873129e-13,4.240139629e-14,1.054518353e-13,4.477570713e-14,4.045602342e-14,8.290456728e-14,1.486487009e-13,1.017100292e-13,2.666293263e-13,1.106632976e-13,3.840906549e-14,9.101823784e-14,9.526024618e-14,2.620128678e-14,5.853633436e-14,1.509945792e-13,8.809235805e-14,3.428567626e-14,1.251202626e-13,2.956572408e-13,2.931708204e-14,4.642599705e-14,4.651334494e-14,1.572890954e-13
1.2734,3.485094634e-13,1.359065332e-13,1.631057059e-13,9.676197817e-14,1.226440484e-13,8.377336219e-14,6.228980897e-14,5.108352270e-14,1.972094329e-13,4.220320625e-14,1.021666858e-13,4.606720585e-14,3.945393125e-14,7.946741545e-14,1.446590583e-13,9.760337865e-14,2.596593941e-13,1.070593405e-13,3.885887026e-14,8.851982018e-14,9.090047707e-14,2.639194500e-14,5.676476982e-14,1.499324895e-13,8.667519856e-14,3.354278554e-14,1.268468017e-13,2.990535942e-13,2.901026910e-14,4.516464044e-14,4.765741218e-14,1.584941593e-13
1.2812,3.564228339e-13,1.336284730e-13,1.557873226e-13,9.634348285e-14,1.176718898e-13,8.156522359e-14,6.076888473e-14,5.134753052e-14,2.020695731e-13,4.208300100e-14,9.893154580e-14,4.742839696e-14,3.842448878e-14,7.602382380e-14,1.404457700e-13,9.335427444e-14,2.523483568e-13,1.035661312e-13,3.937599040e-14,8.622678664e-14,8.659426785e-14,2.663763990e-14,5.484376983e-14,1.492465499e-13,8.561471765e-14,3.290792531e-14,1.287383626e-13,3.020926734e-13,2.874211429e-14,4.385602286e-14,4.905754727e-14,1.593716165e-13
1.2891,3.640505407e-13,1.318696027e-13,1.488269564e-13,9.610647281e-14,1.128616388e-13,7.915931781e-14,5.914910499e-14,5.163887887e-14,2.065513235e-13,4.208209665e-14,9.569566749e-14,4.884346855e-14,3.737420371e-14,7.256731478e-14,1.359770441e-13,8.892367151e-14,2.445160243e-13,1.000736844e-13,3.996978291e-14,8.382762099e-14,8.234390396e-14,2.692659180e-14,5.293698885e-14,1.482347200e-13,8.440434621e-14,3.229280431e-14,1.304872306e-13,3.050170446e-13,2.851479954e-14,4.247683777e-14,5.077335162e-14,1.599134392e-13
1.2969,3.711709326e-13,1.306219865e-13,1.422485086e-13,9.626884506e-14,1.083758987e-13,7.656311813e-14,5.760262010e-14,5.191219808e-14,2.105813484e-13,4.214414320e-14,9.252147475e-14,5.028343058e-14,3.631330963e-14,6.920977978e-14,1.313598914e-13,8.451511972e-14,2.362910692e-13,9.671161827e-14,4.063516659e-14,8.135528964e-14,7.828967506e-14,2.726702271e-14,5.106811135e-14,1.467372796e-13,8.317263117e-14,3.170656147e-14,1.318881400e-13,3.076403075e-13,2.844182103e-14,4.106873839e-14,5.283294871e-14,1.600997107e-13
1.3047,3.778380720e-13,1.296577937e-13,1.358516787e-13,9.668955574e-14,1.041674058e-13,7.400585903e-14,5.605404114e-14,5.212547498e-14,2.141998634e-13,4.220922142e-14,8.953109534e-14,5.173183149e-14,3.526707865e-14,6.603836570e-14,1.268338376e-13,8.036241328e-14,2.280622521e-13,9.372398651e-14,4.134387895e-14,7.909945237e-14,7.433041294e-14,2.763712845e-14,4.909095735e-14,1.451528022e-13,8.222335998e-14,3.124762398e-14,1.331722338e-13,3.094552585e-13,2.851391563e-14,3.968679030e-14,5.515638164e-14,1.599622397e-13
1.3125,3.843489784e-13,1.289664379e-13,1.298974963e-13,9.721359071e-14,1.001595152e-13,7.151031938e-14,5.434885944e-14,5.226796689e-14,2.174450368e-13,4.229072959e-14,8.678502862e-14,5.325232467e-14,3.425806386e-14,6.303557542e-14,1.224535355e-13,7.643349835e-14,2.199044494e-13,9.111030328e-14,4.210327572e-14,7.706819319e-14,7.043845614e-14,2.803484283e-14,4.705810047e-14,1.437613537e-13,8.146434758e-14,3.094626870e-14,1.346005249e-13,3.106594580e-13,2.865441632e-14,3.833911088e-14,5.770834107e-14,1.594804948e-13
1.3203,3.904130853e-13,1.287195643e-13,1.244139858e-13,9.792195889e-14,9.637016474e-14,6.899440875e-14,5.249299460e-14,5.239851052e-14,2.204080973e-13,4.241052955e-14,8.417128901e-14,5.488890030e-14,3.329662849e-14,6.017905111e-14,1.181104141e-13,7.254644156e-14,2.115639412e-13,8.864665139e-14,4.290651562e-14,7.516665011e-14,6.673291628e-14,2.845466313e-14,4.506633294e-14,1.423776424e-13,8.079445227e-14,3.077823688e-14,1.360805932e-13,3.120472605e-13,2.885051619e-14,3.695055327e-14,6.045799226e-14,1.587102707e-13
1.3281,3.960222175e-13,1.289493459e-13,1.191158546e-13,9.871450473e-14,9.269729709e-14,6.650796619e-14,5.058187851e-14,5.254323084e-14,2.231191221e-13,4.256803840e-14,8.160685979e-14,5.660951290e-14,3.238261367e-14,5.750117008e-14,1.138064688e-13,6.866785207e-14,2.029142352e-13,8.628576574e-14,4.373957387e-14,7.343129994e-14,6.315893414e-14,2.889555621e-14,4.307002161e-14,1.407694614e-13,8.030438741e-14,3.075954456e-14,1.374701600e-13,3.134749079e-13,2.914440908e-14,3.553485589e-14,6.336706980e-14,1.576889116e-13
1.3359,4.014801418e-13,1.295950672e-13,1.142562391e-13,9.955416969e-14,8.913619680e-14,6.402677033e-14,4.874089611e-14,5.263371837e-14,2.253386878e-13,4.273480124e-14,7.918372645e-14,5.833627936e-14,3.150078646e-14,5.499269460e-14,1.096074693e-13,6.490114463e-14,1.940015115e-13,8.415849908e-14,4.461778967e-14,7.187993050e-14,5.963744528e-14,2.938660268e-14,4.111319809e-14,1.392365048e-13,8.015356541e-14,3.094345594e-14,1.388638407e-13,3.141666400e-13,2.952473653e-14,3.421770453e-14,6.643845203e-14,1.562239885e-13
1.3438,4.064736502e-13,1.306008633e-13,1.099767433e-13,1.005999227e-13,8.589194265e-14,6.151061542e-14,4.702217422e-14,5.264226287e-14,2.269621576e-13,4.289689043e-14,7.692920639e-14,6.000758089e-14,3.061270189e-14,5.259547366e-14,1.055439971e-13,6.128731121e-14,1.849925716e-13,8.226816320e-14,4.548028045e-14,7.051356800e-14,5.617787540e-14,2.990527908e-14,3.924348971e-14,1.377902363e-13,8.024580047e-14,3.134945458e-14,1.403453504e-13,3.142932349e-13,2.989970194e-14,3.295878955e-14,6.972601955e-14,1.543393683e-13
1.3516,4.107693619e-13,1.319370457e-13,1.058671967e-13,1.018505753e-13,8.303394696e-14,5.907129714e-14,4.532322068e-14,5.261519946e-14,2.281656036e-13,4.304027237e-14,7.472527980e-14,6.163178743e-14,2.966865748e-14,5.032840023e-14,1.016414186e-13,5.780961517e-14,1.762276990e-13,8.056090910e-14,4.627149109e-14,6.940413461e-14,5.281347012e-14,3.041858248e-14,3.745148606e-14,1.358837040e-13,8.038434264e-14,3.198599019e-14,1.418577971e-13,3.142380240e-13,3.027014921e-14,3.162412275e-14,7.326791911e-14,1.523499924e-13
1.3594,4.142461543e-13,1.336143276e-13,1.018943509e-13,1.033160048e-13,8.051683443e-14,5.672693714e-14,4.365720174e-14,5.257964132e-14,2.289098174e-13,4.309546859e-14,7.253019068e-14,6.320569973e-14,2.868662559e-14,4.826317458e-14,9.789867610e-14,5.445524088e-14,1.677716223e-13,7.902919254e-14,4.704634440e-14,6.863492558e-14,4.962102879e-14,3.096191413e-14,3.578128889e-14,1.337176321e-13,8.075283671e-14,3.286411075e-14,1.433441624e-13,3.136562673e-13,3.068177601e-14,3.025552889e-14,7.699789231e-14,1.502448049e-13
1.3672,4.165450412e-13,1.356654769e-13,9.823111100e-14,1.050933728e-13,7.831846963e-14,5.444409681e-14,4.211831046e-14,5.249970782e-14,2.290303473e-13,4.307582123e-14,7.041732858e-14,6.471445205e-14,2.776174183e-14,4.644645323e-14,9.433527032e-14,5.118875846e-14,1.592236830e-13,7.766552482e-14,4.782608593e-14,6.818440435e-14,4.659188357e-14,3.154809666e-14,3.418876789e-14,1.318456823e-13,8.146319074e-14,3.393703578e-14,1.447844924e-13,3.124920943e-13,3.110666810e-14,2.892316284e-14,8.092125620e-14,1.477717118e-13
1.375,4.179887432e-13,1.380101831e-13,9.474322020e-14,1.069745998e-13,7.634654413e-14,5.231776725e-14,4.064077555e-14,5.232934562e-14,2.286176084e-13,4.309377104e-14,6.842154343e-14,6.621440118e-14,2.692822826e-14,4.491382606e-14,9.103505491e-14,4.799260569e-14,1.504501589e-13,7.648102201e-14,4.857852761e-14,6.791646261e-14,4.362828948e-14,3.215701731e-14,3.263068381e-14,1.298077089e-13,8.227787293e-14,3.517139706e-14,1.462449125e-13,3.111309773e-13,3.158088730e-14,2.760938690e-14,8.509657110e-14,1.449496778e-13
1.3828,4.190909613e-13,1.405075409e-13,9.142410097e-14,1.087925977e-13,7.462505552e-14,5.031297686e-14,3.922807916e-14,5.211685567e-14,2.277771000e-13,4.314635000e-14,6.651314089e-14,6.771431334e-14,2.615190516e-14,4.363645323e-14,8.802378827e-14,4.489011461e-14,1.417422693e-13,7.543854265e-14,4.929592834e-14,6.782102210e-14,4.073232251e-14,3.279031210e-14,3.111817928e-14,1.272408494e-13,8.316186864e-14,3.663067931e-14,1.477598478e-13,3.095362903e-13,3.213946388e-14,2.634168555e-14,8.947974284e-14,1.419347603e-13
1.3906,4.195557146e-13,1.432883700e-13,8.828642604e-14,1.108687937e-13,7.337688257e-14,4.837779593e-14,3.794784647e-14,5.191324931e-14,2.264101147e-13,4.313657680e-14,6.470249514e-14,6.914892730e-14,2.540375795e-14,4.252947375e-14,8.522157025e-14,4.191007027e-14,1.332493828e-13,7.448158774e-14,4.995731761e-14,6.808602014e-14,3.801335669e-14,3.343667221e-14,2.955510207e-14,1.247959068e-13,8.425419827e-14,3.834672538e-14,1.491504190e-13,3.076246339e-13,3.271118226e-14,2.511809032e-14,9.415722214e-14,1.387274397e-13
1.3984,4.190113385e-13,1.465546414e-13,8.527909207e-14,1.134020813e-13,7.269846792e-14,4.664923962e-14,3.677448650e-14,5.165797972e-14,2.244028485e-13,4.301347894e-14,6.306002875e-14,7.052022352e-14,2.460925075e-14,4.159517107e-14,8.259213655e-14,3.909437496e-14,1.250901337e-13,7.362668378e-14,5.052557114e-14,6.874988849e-14,3.558300418e-14,3.411269577e-14,2.799715689e-14,1.225267012e-13,8.568151346e-14,4.022477544e-14,1.502494422e-13,3.056110637e-13,3.326044080e-14,2.386737618e-14,9.919194760e-14,1.353013626e-13
1.4062,4.174649493e-13,1.502002420e-13,8.260751072e-14,1.162903213e-13,7.256495488e-14,4.505346283e-14,3.575334300e-14,5.133850164e-14,2.217989935e-13,4.278268447e-14,6.163483022e-14,7.185406731e-14,2.374340243e-14,4.092475180e-14,8.026519247e-14,3.651221009e-14,1.174542848e-13,7.291462214e-14,5.098743973e-14,6.968105813e-14,3.346599767e-14,3.486789751e-14,2.665259137e-14,1.198581404e-13,8.753144793e-14,4.220880741e-14,1.510387227e-13,3.033823359e-13,3.379380486e-14,2.263243739e-14,1.044340832e-13,1.317105830e-13
1.4141,4.151105599e-13,1.540570398e-13,8.029613276e-14,1.195718939e-13,7.298381145e-14,4.343935684e-14,3.488827777e-14,5.100691137e-14,2.188229882e-13,4.250117323e-14,6.042121655e-14,7.316007379e-14,2.292357865e-14,4.055827135e-14,7.837285059e-14,3.420951964e-14,1.101830546e-13,7.241036976e-14,5.136849897e-14,7.088898484e-14,3.157944705e-14,3.569161050e-14,2.551676082e-14,1.171378167e-13,8.957330058e-14,4.439372142e-14,1.515771749e-13,3.007377603e-13,3.432249806e-14,2.148898341e-14,1.099183845e-13,1.279939362e-13
1.4219,4.122483676e-13,1.580714852e-13,7.821327512e-14,1.231340453e-13,7.385094727e-14,4.200482345e-14,3.408223781e-14,5.067015870e-14,2.156629090e-13,4.221209466e-14,5.938561932e-14,7.445905253e-14,2.219915930e-14,4.044173215e-14,7.682157285e-14,3.211528857e-14,1.030248115e-13,7.209158519e-14,5.169549485e-14,7.241541736e-14,2.986567926e-14,3.655946797e-14,2.451167187e-14,1.147220593e-13,9.165481540e-14,4.683186912e-14,1.519548403e-13,2.979262167e-13,3.485864121e-14,2.037811208e-14,1.156817971e-13,1.242052624e-13
1.4297,4.089034369e-13,1.622242693e-13,7.649974386e-14,1.266989775e-13,7.504634763e-14,4.082397415e-14,3.333180772e-14,5.038157986e-14,2.121994476e-13,4.188029438e-14,5.849687007e-14,7.571706099e-14,2.151511159e-14,4.053286092e-14,7.549061858e-14,3.013760064e-14,9.610857119e-14,7.183776470e-14,5.197152947e-14,7.420397418e-14,2.836117490e-14,3.746778423e-14,2.362072348e-14,1.121450445e-13,9.399076003e-14,4.945460074e-14,1.520598702e-13,2.950131232e-13,3.538756505e-14,1.927296172e-14,1.215302512e-13,1.203764606e-13
1.4375,4.049328830e-13,1.664944627e-13,7.508510207e-14,1.302366541e-13,7.660452175e-14,3.970154103e-14,3.266745265e-14,5.013918932e-14,2.082274197e-13,4.144449342e-14,5.776233905e-14,7.688678086e-14,2.087309286e-14,4.084005175e-14,7.443327903e-14,2.834252363e-14,8.957466485e-14,7.170773038e-14,5.223590394e-14,7.629653882e-14,2.704689256e-14,3.837614151e-14,2.280758244e-14,1.094369462e-13,9.653104789e-14,5.224179319e-14,1.517360940e-13,2.918111179e-13,3.595571667e-14,1.824075548e-14,1.274417249e-13,1.163711215e-13
1.4453,4.004450507e-13,1.707659397e-13,7.371435681e-14,1.337174112e-13,7.853313489e-14,3.871984823e-14,3.208734579e-14,4.980168696e-14,2.038167125e-13,4.090182432e-14,5.719411049e-14,7.793304328e-14,2.028553449e-14,4.131326906e-14,7.364644164e-14,2.678287319e-14,8.329909047e-14,7.175812985e-14,5.249941545e-14,7.875641784e-14,2.587075907e-14,3.926113444e-14,2.209333156e-14,1.069682847e-13,9.912958855e-14,5.516670988e-14,1.510521932e-13,2.884635689e-13,3.655969461e-14,1.726687137e-14,1.334513046e-13,1.121351808e-13
1.4531,3.955393875e-13,1.749509598e-13,7.247606048e-14,1.370998370e-13,8.077144591e-14,3.804266565e-14,3.151659854e-14,4.940441461e-14,1.991223630e-13,4.031209402e-14,5.673182418e-14,7.875282858e-14,1.976230063e-14,4.190349031e-14,7.307505251e-14,2.538796646e-14,7.730756657e-14,7.182485512e-14,5.263972892e-14,8.145297990e-14,2.491357833e-14,4.013767614e-14,2.151453275e-14,1.045228570e-13,1.019779102e-13,5.816294952e-14,1.500041878e-13,2.849712881e-13,3.707208346e-14,1.631034700e-14,1.394801326e-13,1.079060045e-13
1.4609,3.900679569e-13,1.790441462e-13,7.149565640e-14,1.404672345e-13,8.330925063e-14,3.754258244e-14,3.085113189e-14,4.912120533e-14,1.941495934e-13,3.968048040e-14,5.632545231e-14,7.929581187e-14,1.931102476e-14,4.269501192e-14,7.281543496e-14,2.418944965e-14,7.192509262e-14,7.191967824e-14,5.255404998e-14,8.429586868e-14,2.417130186e-14,4.101376809e-14,2.105385334e-14,1.020555709e-13,1.050833890e-13,6.132164807e-14,1.485819273e-13,2.810911453e-13,3.750515998e-14,1.541369291e-14,1.455111468e-13,1.038501736e-13
1.4688,3.839402530e-13,1.829919012e-13,7.074840798e-14,1.437573434e-13,8.614150063e-14,3.716612598e-14,3.015806091e-14,4.893387369e-14,1.889224096e-13,3.897245173e-14,5.604211257e-14,7.965118244e-14,1.884433119e-14,4.376820134e-14,7.296408424e-14,2.328327437e-14,6.732304896e-14,7.221017773e-14,5.228838261e-14,8.748273256e-14,2.345340117e-14,4.192106596e-14,2.064635705e-14,9.980698252e-14,1.082958622e-13,6.471663273e-14,1.469040339e-13,2.769809902e-13,3.791463356e-14,1.459319300e-14,1.514532056e-13,9.989247362e-14
1.4766,3.774427303e-13,1.867849510e-13,7.021357735e-14,1.468868306e-13,8.920670866e-14,3.702853585e-14,2.955818397e-14,4.877932469e-14,1.835500532e-13,3.824094896e-14,5.593846971e-14,7.990718999e-14,1.833834077e-14,4.507987998e-14,7.349857690e-14,2.260826017e-14,6.323327680e-14,7.261077189e-14,5.193033818e-14,9.115255744e-14,2.273603082e-14,4.288900025e-14,2.025299733e-14,9.761098112e-14,1.116966932e-13,6.822547466e-14,1.449891779e-13,2.728915689e-13,3.826101726e-14,1.382552450e-14,1.572407410e-13,9.598532817e-14
1.4844,3.709225969e-13,1.903267943e-13,6.982293925e-14,1.498762929e-13,9.242391059e-14,3.708111802e-14,2.907157668e-14,4.869999781e-14,1.781031707e-13,3.752404357e-14,5.596177883e-14,8.007544610e-14,1.791222680e-14,4.653924169e-14,7.431854189e-14,2.202085833e-14,5.928950277e-14,7.292229593e-14,5.152206026e-14,9.512584418e-14,2.214363323e-14,4.390022710e-14,2.000587617e-14,9.543998219e-14,1.152110623e-13,7.179399640e-14,1.429059719e-13,2.687886875e-13,3.864761931e-14,1.311549764e-14,1.629457092e-13,9.216412584e-14
1.4922,3.642693635e-13,1.934135774e-13,6.949588021e-14,1.527325609e-13,9.580930886e-14,3.723550375e-14,2.867056478e-14,4.868053209e-14,1.725867786e-13,3.679735450e-14,5.602144461e-14,8.008744265e-14,1.758772121e-14,4.808397427e-14,7.528055339e-14,2.147261864e-14,5.546632808e-14,7.306094898e-14,5.106124607e-14,9.926495109e-14,2.171264664e-14,4.493098282e-14,1.994401118e-14,9.354953379e-14,1.186992452e-13,7.540009215e-14,1.406295100e-13,2.645780113e-13,3.911720815e-14,1.245497299e-14,1.685212820e-13,8.843356789e-14
1.5,3.572598989e-13,1.960780023e-13,6.920093415e-14,1.554067415e-13,9.938620787e-14,3.757518789e-14,2.830634216e-14,4.868117093e-14,1.669767991e-13,3.608447931e-14,5.601995407e-14,7.987095022e-14,1.729039276e-14,4.970942261e-14,7.632171404e-14,2.099880131e-14,5.199392135e-14,7.302816443e-14,5.050444633e-14,1.035685424e-13,2.140183919e-14,4.596646740e-14,1.989612023e-14,9.173538909e-14,1.224486245e-13,7.893761856e-14,1.380074234e-13,2.602424461e-13,3.945076856e-14,1.183662843e-14,1.738426742e-13,8.479308546e-14
1.5078,3.499024600e-13,1.983120159e-13,6.895454005e-14,1.576335577e-13,1.029857205e-13,3.816930813e-14,2.798253020e-14,4.872650918e-14,1.612529505e-13,3.538185286e-14,5.590931005e-14,7.945073888e-14,1.701883270e-14,5.143480872e-14,7.747847410e-14,2.060944032e-14,4.901748163e-14,7.289894440e-14,4.980624435e-14,1.079796676e-13,2.107134966e-14,4.700571876e-14,1.989104494e-14,8.977389719e-14,1.265686346e-13,8.245765696e-14,1.352811517e-13,2.558683104e-13,3.956513535e-14,1.126778738e-14,1.787736470e-13,8.123801187e-14
1.5156,3.421021251e-13,1.999370973e-13,6.867214316e-14,1.592740243e-13,1.065326844e-13,3.894647341e-14,2.772581485e-14,4.879025446e-14,1.553647242e-13,3.465883109e-14,5.573091922e-14,7.883731908e-14,1.680854331e-14,5.331511971e-14,7.886262308e-14,2.032429393e-14,4.647487747e-14,7.276475980e-14,4.898240846e-14,1.125413085e-13,2.067220522e-14,4.804709980e-14,1.998655141e-14,8.780419269e-14,1.305460266e-13,8.603984316e-14,1.325790223e-13,2.513978094e-13,3.959306705e-14,1.072691692e-14,1.832556823e-13,7.771424912e-14
1.5234,3.338019338e-13,2.011259710e-13,6.816846879e-14,1.606664006e-13,1.102662361e-13,3.978023628e-14,2.751427212e-14,4.884822062e-14,1.492968818e-13,3.396557301e-14,5.555168156e-14,7.800563841e-14,1.666390741e-14,5.543419522e-14,8.057285048e-14,2.020208162e-14,4.417718923e-14,7.263086729e-14,4.808940571e-14,1.173246471e-13,2.037086241e-14,4.907708044e-14,2.005254820e-14,8.581863541e-14,1.341767290e-13,8.960094226e-14,1.296451061e-13,2.467905932e-13,3.961651890e-14,1.021821020e-14,1.874890237e-13,7.420567603e-14
1.5312,3.253165951e-13,2.021402422e-13,6.758988929e-14,1.620062943e-13,1.143339646e-13,4.066292541e-14,2.730243017e-14,4.902872009e-14,1.432377475e-13,3.333610963e-14,5.542632736e-14,7.701735388e-14,1.655263089e-14,5.773249334e-14,8.244974756e-14,2.019746828e-14,4.206002824e-14,7.239089361e-14,4.714339432e-14,1.222801629e-13,2.020773673e-14,5.013002089e-14,2.014171128e-14,8.401523946e-14,1.378931932e-13,9.312453859e-14,1.265963049e-13,2.423567940e-13,3.962552955e-14,9.779842565e-15,1.915779009e-13,7.082165187e-14
1.5391,3.170113823e-13,2.029226868e-13,6.716523069e-14,1.630478894e-13,1.185649753e-13,4.172364833e-14,2.702618970e-14,4.938585268e-14,1.373408772e-13,3.274787691e-14,5.529982377e-14,7.590506039e-14,1.645634213e-14,6.008774153e-14,8.430592411e-14,2.023974679e-14,4.028678348e-14,7.198740818e-14,4.613430083e-14,1.274159950e-13,2.009246975e-14,5.123196618e-14,2.031355331e-14,8.266816807e-14,1.418409064e-13,9.662854448e-14,1.236073133e-13,2.380744219e-13,3.955077011e-14,9.407283627e-15,1.953682394e-13,6.764609895e-14
1.5469,3.088686074e-13,2.034937191e-13,6.670347013e-14,1.636002666e-13,1.227330270e-13,4.294280521e-14,2.672074383e-14,4.974247761e-14,1.314652166e-13,3.220100928e-14,5.506478070e-14,7.463838240e-14,1.640256215e-14,6.252113597e-14,8.623785023e-14,2.038728870e-14,3.891629102e-14,7.153423252e-14,4.510451692e-14,1.326531038e-13,2.004366722e-14,5.234464906e-14,2.047551297e-14,8.128582163e-14,1.457721617e-13,1.000326646e-13,1.205769157e-13,2.337640895e-13,3.937188123e-14,9.080547207e-15,1.987432617e-13,6.460689212e-14
1.5547,3.005444405e-13,2.038740966e-13,6.609729721e-14,1.636848435e-13,1.267918853e-13,4.419434576e-14,2.645220529e-14,5.002047011e-14,1.254962977e-13,3.168160793e-14,5.479129693e-14,7.324401467e-14,1.639278711e-14,6.501404467e-14,8.828507684e-14,2.064596873e-14,3.778955340e-14,7.104748881e-14,4.411672828e-14,1.378014810e-13,2.007633708e-14,5.346437024e-14,2.070060901e-14,7.955688061e-14,1.495931095e-13,1.032684583e-13,1.174298104e-13,2.298519570e-13,3.913143736e-14,8.788823992e-15,2.015742756e-13,6.162831033e-14
1.5625,2.919976709e-13,2.038062365e-13,6.545095210e-14,1.633266040e-13,1.308302276e-13,4.557239736e-14,2.615048657e-14,5.034047495e-14,1.195102370e-13,3.115545128e-14,5.454530834e-14,7.168577130e-14,1.641494433e-14,6.750543027e-14,9.038494933e-14,2.095306340e-14,3.685959212e-14,7.041104075e-14,4.315611618e-14,1.428765188e-13,2.016490608e-14,5.457486149e-14,2.100436877e-14,7.790227035e-14,1.532145377e-13,1.063173243e-13,1.139478863e-13,2.263461945e-13,3.880224550e-14,8.513001756e-15,2.038225537e-13,5.873919696e-14
1.5703,2.835244424e-13,2.032869531e-13,6.469551336e-14,1.626182955e-13,1.348972125e-13,4.720347793e-14,2.581096532e-14,5.074905821e-14,1.135721326e-13,3.065973226e-14,5.426341771e-14,6.987530771e-14,1.646486116e-14,7.009011994e-14,9.259854366e-14,2.134400344e-14,3.619400801e-14,6.970418632e-14,4.216171864e-14,1.479649864e-13,2.028734674e-14,5.562975782e-14,2.128573399e-14,7.639276711e-14,1.565154586e-13,1.092571793e-13,1.102012969e-13,2.226424065e-13,3.841269835e-14,8.253508735e-15,2.056906400e-13,5.599448057e-14
1.5781,2.749747708e-13,2.026154608e-13,6.385808210e-14,1.617598792e-13,1.389629631e-13,4.895801338e-14,2.545297105e-14,5.121015147e-14,1.077821638e-13,3.027604676e-14,5.397829991e-14,6.787860008e-14,1.649379411e-14,7.274418106e-14,9.480366083e-14,2.181347548e-14,3.577093799e-14,6.898353845e-14,4.113431810e-14,1.530435641e-13,2.040249825e-14,5.669483929e-14,2.159879684e-14,7.487799602e-14,1.596434885e-13,1.121540952e-13,1.066103564e-13,2.187177098e-13,3.807740821e-14,8.028993926e-15,2.072230954e-13,5.344366592e-14
1.5859,2.661938063e-13,2.017293503e-13,6.305181500e-14,1.606329381e-13,1.429415837e-13,5.069633913e-14,2.498511683e-14,5.170602154e-14,1.022607155e-13,2.996940744e-14,5.366054227e-14,6.581970344e-14,1.649409330e-14,7.527064934e-14,9.678199814e-14,2.229136019e-14,3.557842362e-14,6.809649120e-14,4.011370224e-14,1.580055948e-13,2.054984514e-14,5.781820513e-14,2.192927691e-14,7.340372926e-14,1.627832272e-13,1.149411092e-13,1.030610774e-13,2.148235110e-13,3.775798123e-14,7.854788198e-15,2.083034647e-13,5.110417750e-14
1.5938,2.577716937e-13,2.003743112e-13,6.226318321e-14,1.589788949e-13,1.467775322e-13,5.253089711e-14,2.446885430e-14,5.222830694e-14,9.697656196e-14,2.965356847e-14,5.319621853e-14,6.374776822e-14,1.651525073e-14,7.769241788e-14,9.867833341e-14,2.283946572e-14,3.564811885e-14,6.710230677e-14,3.911417308e-14,1.627801666e-13,2.079271707e-14,5.894311253e-14,2.223342594e-14,7.193030969e-14,1.658235481e-13,1.176672612e-13,9.942780403e-14,2.110632325e-13,3.737940054e-14,7.728975632e-15,2.090490990e-13,4.892950197e-14
1.6016,2.499955079e-13,1.985657975e-13,6.151262813e-14,1.570351019e-13,1.505330928e-13,5.456183583e-14,2.401089855e-14,5.278498028e-14,9.186585474e-14,2.940598982e-14,5.269453482e-14,6.167615021e-14,1.654245825e-14,8.012714209e-14,1.006722337e-13,2.354392526e-14,3.595727119e-14,6.620284316e-14,3.814992682e-14,1.675236155e-13,2.110008611e-14,6.009103691e-14,2.259409425e-14,7.056104646e-14,1.684794408e-13,1.204058082e-13,9.603502680e-14,2.074410965e-13,3.704755272e-14,7.629164692e-15,2.095919024e-13,4.689962940e-14
1.6094,2.423270815e-13,1.963477281e-13,6.072034386e-14,1.549891257e-13,1.541818845e-13,5.659244080e-14,2.352664964e-14,5.333587072e-14,8.692138489e-14,2.928566287e-14,5.225084564e-14,5.956357173e-14,1.655436850e-14,8.250928191e-14,1.026285107e-13,2.436841355e-14,3.649762194e-14,6.536043425e-14,3.723559802e-14,1.722242832e-13,2.145952488e-14,6.126752608e-14,2.296253640e-14,6.937243746e-14,1.707363471e-13,1.230374633e-13,9.283121706e-14,2.035960257e-13,3.686418281e-14,7.561123874e-15,2.098371677e-13,4.505261337e-14
1.6172,2.344957159e-13,1.936127943e-13,5.986601302e-14,1.526150589e-13,1.576228639e-13,5.851964744e-14,2.298641596e-14,5.381393132e-14,8.206628216e-14,2.917692784e-14,5.178827656e-14,5.735546752e-14,1.657548827e-14,8.473904285e-14,1.043928352e-13,2.526121625e-14,3.727220390e-14,6.448017314e-14,3.636934993e-14,1.765744351e-13,2.186711656e-14,6.236290451e-14,2.328778584e-14,6.825092513e-14,1.729242678e-13,1.255325531e-13,8.959395199e-14,1.994538205e-13,3.677588685e-14,7.542996729e-15,2.097198131e-13,4.336263593e-14
1.625,2.266694069e-13,1.902310616e-13,5.923565190e-14,1.499197954e-13,1.609448271e-13,6.055782885e-14,2.247003988e-14,5.423178243e-14,7.723786187e-14,2.907273677e-14,5.128323312e-14,5.504814094e-14,1.660947825e-14,8.674553365e-14,1.058999372e-13,2.619716338e-14,3.823553873e-14,6.354020069e-14,3.554317711e-14,1.806286418e-13,2.226086606e-14,6.336823628e-14,2.361251290e-14,6.715494559e-14,1.750523229e-13,1.278553531e-13,8.639677174e-14,1.952459807e-13,3.669279380e-14,7.551074745e-15,2.092453222e-13,4.174012459e-14
1.6328,2.188860276e-13,1.862578457e-13,5.876662138e-14,1.469842835e-13,1.641684580e-13,6.272881276e-14,2.196832425e-14,5.461199383e-14,7.253646682e-14,2.905417821e-14,5.070086704e-14,5.266963639e-14,1.665185786e-14,8.850464289e-14,1.071317196e-13,2.717262202e-14,3.940793339e-14,6.253536344e-14,3.474879049e-14,1.845888828e-13,2.266227881e-14,6.437592964e-14,2.387038243e-14,6.587119855e-14,1.768365303e-13,1.298465928e-13,8.321228261e-14,1.907101063e-13,3.661811874e-14,7.572112246e-15,2.083866223e-13,4.017336172e-14
1.6406,2.112078957e-13,1.820072882e-13,5.808012021e-14,1.437161027e-13,1.671169675e-13,6.488722361e-14,2.145301042e-14,5.494961678e-14,6.807130318e-14,2.907894568e-14,5.002378426e-14,5.030439561e-14,1.670761489e-14,9.013398390e-14,1.082579252e-13,2.824966857e-14,4.083568698e-14,6.157271376e-14,3.402350552e-14,1.883170252e-13,2.312335814e-14,6.540209456e-14,2.407669106e-14,6.447747152e-14,1.783387359e-13,1.316291405e-13,8.004344177e-14,1.858060630e-13,3.662787894e-14,7.620203506e-15,2.071878656e-13,3.872680394e-14
1.6484,2.037381230e-13,1.775798606e-13,5.731560686e-14,1.402156667e-13,1.697823245e-13,6.712245322e-14,2.095372064e-14,5.525747161e-14,6.382760849e-14,2.913314146e-14,4.931149230e-14,4.802040805e-14,1.679999261e-14,9.172574060e-14,1.094473585e-13,2.948332863e-14,4.249466734e-14,6.074949397e-14,3.342186922e-14,1.917118314e-13,2.359390258e-14,6.639248044e-14,2.429618498e-14,6.347837345e-14,1.795615261e-13,1.333454642e-13,7.709016670e-14,1.808946097e-13,3.674205418e-14,7.689840513e-15,2.056938416e-13,3.745926542e-14
1.6562,1.963725201e-13,1.728353906e-13,5.675462944e-14,1.366592369e-13,1.722816090e-13,6.948585315e-14,2.045342824e-14,5.554438666e-14,5.980074753e-14,2.923369577e-14,4.852570797e-14,4.578148148e-14,1.694572721e-14,9.322072733e-14,1.105644661e-13,3.087617892e-14,4.445566558e-14,6.002988179e-14,3.293022685e-14,1.948001257e-13,2.409689639e-14,6.731317377e-14,2.445263906e-14,6.263789754e-14,1.803779490e-13,1.348208551e-13,7.430322016e-14,1.758761307e-13,3.695092897e-14,7.781170006e-15,2.039117531e-13,3.642108711e-14
1.6641,1.890623915e-13,1.679624392e-13,5.628874092e-14,1.331566734e-13,1.746387278e-13,7.185250931e-14,1.995840249e-14,5.584303819e-14,5.601302013e-14,2.932349281e-14,4.764360172e-14,4.356073618e-14,1.710652636e-14,9.453263543e-14,1.114001271e-13,3.244368432e-14,4.682865229e-14,5.941129444e-14,3.252618010e-14,1.976216878e-13,2.468837266e-14,6.818866835e-14,2.458884500e-14,6.152142149e-14,1.810959956e-13,1.360572113e-13,7.152188870e-14,1.706456137e-13,3.729900148e-14,7.899340232e-15,2.019285616e-13,3.560272398e-14
1.6719,1.819677876e-13,1.632144407e-13,5.584634907e-14,1.297188361e-13,1.768124990e-13,7.416923112e-14,1.956945308e-14,5.616888438e-14,5.242055998e-14,2.941059737e-14,4.673508533e-14,4.138585090e-14,1.729021506e-14,9.563504312e-14,1.119641702e-13,3.418128439e-14,4.955351436e-14,5.895296934e-14,3.221253580e-14,2.002634575e-13,2.529384703e-14,6.902998377e-14,2.477366170e-14,6.049671925e-14,1.817133223e-13,1.371939615e-13,6.891604525e-14,1.653894135e-13,3.777563023e-14,8.031778297e-15,1.997672163e-13,3.494981532e-14
1.6797,1.751360785e-13,1.585790411e-13,5.545694745e-14,1.262438282e-13,1.787070590e-13,7.644597701e-14,1.929012591e-14,5.642905102e-14,4.901537997e-14,2.951473318e-14,4.580738700e-14,3.927780714e-14,1.752976235e-14,9.657466753e-14,1.123015906e-13,3.603613168e-14,5.253815088e-14,5.865803194e-14,3.197235085e-14,2.026257226e-13,2.593940180e-14,6.982175660e-14,2.488409207e-14,5.966376458e-14,1.818203182e-13,1.381149060e-13,6.662565472e-14,1.601110164e-13,3.832297544e-14,8.183476327e-15,1.973989926e-13,3.448902879e-14
1.6875,1.684352069e-13,1.541092973e-13,5.506179039e-14,1.228717006e-13,1.802923148e-13,7.875823803e-14,1.907556588e-14,5.656799520e-14,4.582102025e-14,2.957916898e-14,4.484807266e-14,3.724924875e-14,1.775055889e-14,9.741728819e-14,1.123792228e-13,3.801484387e-14,5.578348530e-14,5.850371917e-14,3.181795075e-14,2.045238643e-13,2.672641028e-14,7.059841985e-14,2.492166135e-14,5.864480102e-14,1.816780768e-13,1.387994073e-13,6.453596051e-14,1.547812829e-13,3.897633919e-14,8.360321662e-15,1.948996638e-13,3.423239867e-14
