Time,Fp1,AF3,F7,F3,FC1,FC5,T7,C3,CP1,CP5,P7,P3,Pz,PO3,O1,Oz,O2,PO4,P4,P8,CP6,CP2,C4,T8,FC6,FC2,F4,F8,AF4,Fp2,Fz,Cz,
-0.10156,6.456841896e-14,8.473292700e-14,8.917528011e-14,1.196897938e-13,3.926447006e-14,5.923605666e-14,1.685935019e-13,4.891756664e-14,3.095385305e-14,6.828999339e-14,8.128352040e-14,4.360338516e-14,7.415215464e-14,4.449184247e-14,4.576314419e-14,1.344646332e-13,1.999523741e-13,1.451350713e-13,1.020534926e-13,1.228006838e-13,6.975953386e-14,6.166262226e-14,1.115146591e-13,1.152625904e-13,8.156783035e-14,6.854496141e-14,6.855250121e-14,3.334039419e-14,4.914406187e-14,3.925477988e-14,1.848902260e-13,3.219646612e-14
-0.09375,7.617440270e-14,9.847123760e-14,1.063369623e-13,1.347781843e-13,4.279116802e-14,6.616340124e-14,1.903955519e-13,5.719935198e-14,3.417516309e-14,7.804004556e-14,8.950852141e-14,5.132013664e-14,8.809114265e-14,5.010643793e-14,4.921376656e-14,1.482273248e-13,2.235578048e-13,1.702860288e-13,1.240420427e-13,1.344546806e-13,8.226499592e-14,7.236013934e-14,1.250223149e-13,1.323196366e-13,9.358205943e-14,7.040652591e-14,7.287050616e-14,3.877425154e-14,5.513196603e-14,4.671808175e-14,2.064201827e-13,3.514919695e-14
-0.085938,8.818319827e-14,1.128841100e-13,1.248397453e-13,1.497642324e-13,4.579691717e-14,7.274329337e-14,2.080341278e-13,6.490702941e-14,3.642474995e-14,8.665204894e-14,9.679211329e-14,5.878048028e-14,1.025241429e-13,5.537470879e-14,5.204548041e-14,1.606007702e-13,2.459694262e-13,1.962564888e-13,1.470855093e-13,1.451316228e-13,9.396704385e-14,8.291185447e-14,1.358653913e-13,1.463322971e-13,1.047094239e-13,6.974381222e-14,7.538322544e-14,4.427759054e-14,6.055645139e-14,5.475733726e-14,2.266578895e-13,3.740271655e-14
-0.078125,1.001337715e-13,1.276629363e-13,1.442145510e-13,1.649575142e-13,4.860719241e-14,7.884314747e-14,2.204802553e-13,7.120772839e-14,3.761099336e-14,9.378057600e-14,1.036509922e-13,6.563502432e-14,1.166790898e-13,6.018522354e-14,5.463046592e-14,1.715109900e-13,2.668774843e-13,2.223158396e-13,1.702065881e-13,1.552413315e-13,1.043325098e-13,9.260098681e-14,1.429185970e-13,1.565324717e-13,1.142091922e-13,6.700431871e-14,7.645933289e-14,4.974026151e-14,6.564412388e-14,6.307565709e-14,2.452911413e-13,3.893474996e-14
-0.070312,1.120585092e-13,1.426139931e-13,1.644829751e-13,1.804456784e-13,5.143331772e-14,8.443965840e-14,2.285420456e-13,7.534720674e-14,3.752454341e-14,9.895262274e-14,1.104305108e-13,7.165485267e-14,1.301832938e-13,6.478566801e-14,5.737826498e-14,1.814115487e-13,2.865203134e-13,2.477705208e-13,1.922619709e-13,1.648282452e-13,1.122659338e-13,1.011926206e-13,1.462463293e-13,1.607245702e-13,1.222417118e-13,6.316931111e-14,7.688144930e-14,5.484666474e-14,7.074759088e-14,7.154268514e-14,2.605170352e-13,3.988546464e-14
-0.0625,1.237118671e-13,1.570630461e-13,1.859636904e-13,1.951722230e-13,5.393038842e-14,8.931854214e-14,2.315168913e-13,7.703359439e-14,3.634318243e-14,1.020032439e-13,1.165421523e-13,7.698053501e-14,1.423214362e-13,6.937225976e-14,6.028167406e-14,1.901671962e-13,3.047749322e-13,2.716668585e-13,2.122329262e-13,1.734101767e-13,1.175207730e-13,1.081337626e-13,1.457108054e-13,1.582735552e-13,1.282915688e-13,5.833392763e-14,7.661710900e-14,5.955785686e-14,7.557183689e-14,7.979796464e-14,2.733527326e-13,4.011590088e-14
-0.054688,1.351100840e-13,1.703755848e-13,2.079394216e-13,2.082839943e-13,5.595121473e-14,9.354581368e-14,2.287545160e-13,7.636687484e-14,3.444476763e-14,1.017679400e-13,1.203554513e-13,8.108696772e-14,1.527175769e-13,7.389898727e-14,6.320451603e-14,1.974978233e-13,3.211240626e-13,2.935761564e-13,2.292241762e-13,1.807593387e-13,1.202420863e-13,1.129559948e-13,1.408665032e-13,1.504672104e-13,1.314110953e-13,5.237028856e-14,7.539435410e-14,6.411639737e-14,7.976455850e-14,8.760229149e-14,2.845466647e-13,3.932954065e-14
-0.046875,1.462728823e-13,1.823878566e-13,2.301785700e-13,2.199689503e-13,5.782143771e-14,9.704652442e-14,2.215599423e-13,7.372665524e-14,3.195214877e-14,9.809434404e-14,1.209180521e-13,8.349833592e-14,1.614755125e-13,7.793457641e-14,6.588335386e-14,2.033105042e-13,3.353740870e-13,3.135543985e-13,2.435998943e-13,1.877456184e-13,1.204278483e-13,1.158228680e-13,1.324158323e-13,1.383807508e-13,1.316419331e-13,4.578422999e-14,7.360805240e-14,6.845827686e-14,8.359989625e-14,9.501292496e-14,2.935116420e-13,3.759171912e-14
-0.039062,1.567969405e-13,1.928959572e-13,2.521869142e-13,2.300930547e-13,5.961689213e-14,9.975175759e-14,2.114663264e-13,6.927073326e-14,2.920598909e-14,9.155369915e-14,1.186209437e-13,8.456020509e-14,1.681458017e-13,8.143880858e-14,6.851230258e-14,2.077573489e-13,3.482150013e-13,3.308124865e-13,2.547561361e-13,1.941898939e-13,1.182384303e-13,1.166066607e-13,1.217474584e-13,1.232141448e-13,1.300435028e-13,3.920605017e-14,7.203359143e-14,7.265728158e-14,8.764203124e-14,1.017312356e-13,3.001350192e-13,3.513440224e-14
-0.03125,1.663803797e-13,2.012371910e-13,2.732447918e-13,2.378100772e-13,6.122922952e-14,1.012963834e-13,2.005944982e-13,6.350392461e-14,2.647096665e-14,8.340797689e-14,1.145770470e-13,8.479403904e-14,1.720502885e-13,8.440035675e-14,7.098920342e-14,2.104344237e-13,3.589918790e-13,3.442369034e-13,2.622160861e-13,1.987846200e-13,1.146552305e-13,1.154935163e-13,1.106253355e-13,1.070854858e-13,1.265855007e-13,3.327690150e-14,7.073339705e-14,7.649067945e-14,9.172329301e-14,1.075802499e-13,3.040737288e-13,3.243376562e-14
-0.023438,1.747004260e-13,2.067641049e-13,2.932245968e-13,2.422732251e-13,6.231885811e-14,1.014844760e-13,1.893379013e-13,5.713046459e-14,2.398186415e-14,7.477363346e-14,1.090388529e-13,8.443480043e-14,1.726765839e-13,8.669982478e-14,7.309478674e-14,2.109038358e-13,3.674677416e-13,3.531973415e-13,2.657879214e-13,2.016019091e-13,1.103972416e-13,1.127012987e-13,9.968163647e-14,9.164757510e-14,1.212757792e-13,2.801869338e-14,6.934882046e-14,8.003891917e-14,9.540248345e-14,1.123336966e-13,3.043840607e-13,2.964442873e-14
-0.015625,1.811958383e-13,2.091772254e-13,3.115735923e-13,2.433916950e-13,6.291828112e-14,1.005105165e-13,1.779062193e-13,5.073494169e-14,2.183873862e-14,6.613034355e-14,1.018672281e-13,8.348724924e-14,1.703090927e-13,8.811538810e-14,7.462454357e-14,2.096116582e-13,3.750976720e-13,3.581049605e-13,2.658069810e-13,2.028938889e-13,1.056220315e-13,1.086626557e-13,8.942330767e-14,7.783037447e-14,1.142186285e-13,2.340450165e-14,6.756105392e-14,8.329003816e-14,9.836643596e-14,1.159560850e-13,2.995730065e-13,2.688253842e-14
-0.0078125,1.855697009e-13,2.085543048e-13,3.271403131e-13,2.414757767e-13,6.310196824e-14,9.834810675e-14,1.669536347e-13,4.485395296e-14,2.009443505e-14,5.804716413e-14,9.368000912e-14,8.198489360e-14,1.656674738e-13,8.827886477e-14,7.510985140e-14,2.062941328e-13,3.821777785e-13,3.592038075e-13,2.630319279e-13,2.028628971e-13,1.006625846e-13,1.038485214e-13,8.020013824e-14,6.612589197e-14,1.062213352e-13,1.936978292e-14,6.527759628e-14,8.625551884e-14,1.004315126e-13,1.187566678e-13,2.896789909e-13,2.412642440e-14
0,1.879915156e-13,2.054826336e-13,3.398187597e-13,2.374096340e-13,6.326030364e-14,9.533727275e-14,1.571850318e-13,3.985198820e-14,1.883397964e-14,5.144584837e-14,8.579479384e-14,8.052524315e-14,1.597244916e-13,8.757228381e-14,7.476887590e-14,2.016536336e-13,3.906413464e-13,3.577612725e-13,2.587678758e-13,2.028719949e-13,9.603384846e-14,9.893420519e-14,7.241278641e-14,5.631738656e-14,9.865751523e-14,1.616750861e-14,6.298710135e-14,8.926614532e-14,1.019499597e-13,1.210146540e-13,2.760581071e-13,2.156230432e-14
0.0078125,1.892100516e-13,2.009737219e-13,3.499129092e-13,2.319826625e-13,6.350734655e-14,9.179055715e-14,1.486403387e-13,3.599409344e-14,1.810086511e-14,4.649604714e-14,7.916626090e-14,7.971388668e-14,1.530617716e-13,8.652493712e-14,7.409866754e-14,1.964134821e-13,4.018997715e-13,3.547575285e-13,2.536110324e-13,2.034487184e-13,9.241481821e-14,9.453949961e-14,6.611309805e-14,4.878676363e-14,9.188733694e-14,1.366490888e-14,6.085887161e-14,9.280118730e-14,1.031745813e-13,1.234994796e-13,2.602928369e-13,1.924370197e-14
0.015625,1.894403693e-13,1.956172309e-13,3.575176936e-13,2.255678517e-13,6.363185196e-14,8.806892570e-14,1.414284504e-13,3.352049067e-14,1.808491130e-14,4.321102346e-14,7.404435668e-14,7.940413558e-14,1.458088409e-13,8.507171699e-14,7.327828850e-14,1.908414784e-13,4.161917396e-13,3.505023870e-13,2.478307257e-13,2.057233402e-13,9.008903119e-14,9.079751249e-14,6.110513917e-14,4.366140003e-14,8.593948087e-14,1.161605650e-14,5.856399093e-14,9.652517955e-14,1.038834582e-13,1.262189080e-13,2.443525243e-13,1.727275681e-14
0.023438,1.887911598e-13,1.897666851e-13,3.631954253e-13,2.186456051e-13,6.359995177e-14,8.445528174e-14,1.358805503e-13,3.262122479e-14,1.877190191e-14,4.162074673e-14,7.044649667e-14,7.973754218e-14,1.382862018e-13,8.325311384e-14,7.250839378e-14,1.850652910e-13,4.336712804e-13,3.457009321e-13,2.421147708e-13,2.111481477e-13,8.936565084e-14,8.779028700e-14,5.757253869e-14,4.097346527e-14,8.073557718e-14,9.913286201e-15,5.584457854e-14,1.002601757e-13,1.040480312e-13,1.291882094e-13,2.299764976e-13,1.562252542e-14
0.03125,1.869489038e-13,1.832888318e-13,3.670230473e-13,2.112535861e-13,6.343807865e-14,8.095888087e-14,1.326900024e-13,3.338651785e-14,2.010602365e-14,4.192116823e-14,6.874676794e-14,8.084833374e-14,1.305766499e-13,8.103793720e-14,7.160776782e-14,1.783202946e-13,4.523827525e-13,3.393709928e-13,2.362166807e-13,2.194408368e-13,9.045247474e-14,8.543001901e-14,5.549834270e-14,4.116144404e-14,7.643366681e-14,8.879242449e-15,5.309476672e-14,1.038072473e-13,1.035220630e-13,1.319719988e-13,2.154523382e-13,1.433516060e-14
0.039062,1.841361754e-13,1.762404210e-13,3.695739869e-13,2.031870427e-13,6.310518081e-14,7.793214755e-14,1.318298530e-13,3.561767385e-14,2.208039357e-14,4.356405577e-14,6.762908334e-14,8.311279641e-14,1.228169494e-13,7.871284694e-14,7.062667775e-14,1.710419015e-13,4.706552439e-13,3.313659927e-13,2.300415635e-13,2.309292500e-13,9.366297462e-14,8.359655146e-14,5.460797956e-14,4.441563764e-14,7.321011502e-14,8.375411499e-15,5.049011107e-14,1.072948669e-13,1.021430799e-13,1.343133393e-13,2.017797243e-13,1.336252597e-14
0.046875,1.799869354e-13,1.685159641e-13,3.713445243e-13,1.943955651e-13,6.268154620e-14,7.555266612e-14,1.338665491e-13,3.919021359e-14,2.443042442e-14,4.590061057e-14,6.606856447e-14,8.517705408e-14,1.150461983e-13,7.577483434e-14,6.939182799e-14,1.635800133e-13,4.870245995e-13,3.222020740e-13,2.235936483e-13,2.451748510e-13,9.911242141e-14,8.212852357e-14,5.480190204e-14,5.055975075e-14,7.094344630e-14,8.628615460e-15,4.807361794e-14,1.102320651e-13,9.952330851e-14,1.355205428e-13,1.909223110e-13,1.274958214e-14
0.054688,1.737150221e-13,1.595851613e-13,3.724658459e-13,1.843292686e-13,6.186984396e-14,7.351000224e-14,1.383409172e-13,4.346591201e-14,2.725958428e-14,4.910813451e-14,6.395915702e-14,8.720212466e-14,1.072750406e-13,7.223015354e-14,6.748021447e-14,1.551036853e-13,4.966948846e-13,3.103544847e-13,2.156489307e-13,2.608775588e-13,1.060050859e-13,8.055850933e-14,5.577193605e-14,5.849393881e-14,6.926883513e-14,9.830143221e-15,4.600941248e-14,1.120912344e-13,9.535868716e-14,1.342470593e-13,1.849052539e-13,1.264982337e-14
0.0625,1.659165138e-13,1.497958692e-13,3.738488538e-13,1.730542476e-13,6.064046639e-14,7.155779567e-14,1.439690431e-13,4.787470899e-14,3.052957486e-14,5.298999446e-14,6.127212009e-14,8.993580258e-14,9.988408914e-14,6.879076276e-14,6.526573239e-14,1.458140941e-13,4.973241123e-13,2.952848318e-13,2.056225772e-13,2.754496029e-13,1.135629979e-13,7.871283009e-14,5.723573898e-14,6.764584319e-14,6.763456475e-14,1.187655817e-14,4.427731388e-14,1.129628761e-13,9.007171281e-14,1.304726494e-13,1.852295598e-13,1.325855067e-14
0.070312,1.571550222e-13,1.399635000e-13,3.762363273e-13,1.612189727e-13,5.920234577e-14,6.907053839e-14,1.493330899e-13,5.154773850e-14,3.405817019e-14,5.756434826e-14,5.836389054e-14,9.348389158e-14,9.305218777e-14,6.570302337e-14,6.292480461e-14,1.355281434e-13,4.872204738e-13,2.770201644e-13,1.934456426e-13,2.886703219e-13,1.209600122e-13,7.645035481e-14,5.876872021e-14,7.775711332e-14,6.584161565e-14,1.480631134e-14,4.344574115e-14,1.132480175e-13,8.473164054e-14,1.245458202e-13,1.925545144e-13,1.474340593e-14
0.078125,1.477124020e-13,1.303398650e-13,3.779092909e-13,1.491471668e-13,5.774062565e-14,6.622512062e-14,1.534443976e-13,5.400112645e-14,3.754142119e-14,6.227664914e-14,5.510243068e-14,9.723223093e-14,8.666737570e-14,6.283875528e-14,5.985144726e-14,1.248157825e-13,4.673505974e-13,2.558586307e-13,1.787485987e-13,2.989220186e-13,1.265306401e-13,7.369624686e-14,5.951009721e-14,8.758321274e-14,6.410865671e-14,1.854190958e-14,4.364028575e-14,1.133372197e-13,7.965698885e-14,1.163572840e-13,2.089379958e-13,1.672173275e-14
0.085938,1.375672136e-13,1.209852826e-13,3.781770385e-13,1.370660395e-13,5.636384337e-14,6.263719533e-14,1.556444804e-13,5.535695664e-14,4.106487617e-14,6.760096498e-14,5.152965579e-14,1.016422496e-13,8.060136313e-14,6.035284373e-14,5.586710869e-14,1.135350578e-13,4.375274319e-13,2.323632021e-13,1.617553529e-13,3.048244662e-13,1.291844234e-13,7.034644728e-14,5.956817465e-14,9.480039604e-14,6.224234898e-14,2.284273000e-14,4.453327887e-14,1.129557598e-13,7.470778272e-14,1.062740129e-13,2.338505390e-13,1.913800464e-14
0.09375,1.275671324e-13,1.121739514e-13,3.761496371e-13,1.251759027e-13,5.510821258e-14,5.806117265e-14,1.542078815e-13,5.499786802e-14,4.472514483e-14,7.356154136e-14,4.780164838e-14,1.072590659e-13,7.533316305e-14,5.894271410e-14,5.134395579e-14,1.019573506e-13,3.992875267e-13,2.067733322e-13,1.425665842e-13,3.035151746e-13,1.278693944e-13,6.623257824e-14,5.847996323e-14,9.934372367e-14,6.054481360e-14,2.734311147e-14,4.598553664e-14,1.128138361e-13,7.008363669e-14,9.571032344e-14,2.671233589e-13,2.176878296e-14
0.10156,1.191975704e-13,1.051690218e-13,3.713958308e-13,1.151290626e-13,5.406222438e-14,5.295468511e-14,1.493912773e-13,5.311238746e-14,4.825825129e-14,7.976998017e-14,4.473418675e-14,1.137039107e-13,7.161854341e-14,5.905914998e-14,4.704776588e-14,9.124566060e-14,3.564610324e-13,1.811128095e-13,1.232391937e-13,2.965784430e-13,1.221794511e-13,6.214101370e-14,5.650423103e-14,1.000533833e-13,5.983226778e-14,3.146770379e-14,4.769479629e-14,1.136715512e-13,6.622410545e-14,8.655776769e-14,3.063064659e-13,2.459700397e-14
0.10938,1.127623344e-13,1.005860692e-13,3.619016153e-13,1.080697218e-13,5.350933369e-14,4.809989667e-14,1.407391839e-13,4.984270069e-14,5.127373913e-14,8.579120617e-14,4.272832415e-14,1.206057333e-13,6.901991729e-14,6.013782991e-14,4.268789710e-14,8.181437791e-14,3.131085689e-13,1.570185336e-13,1.051445955e-13,2.863997221e-13,1.127969809e-13,5.830967734e-14,5.434428529e-14,9.686163987e-14,6.087300417e-14,3.494477373e-14,4.973989154e-14,1.150859180e-13,6.366097623e-14,7.956630568e-14,3.496021626e-13,2.728753183e-14
0.11719,1.085867960e-13,9.890434845e-14,3.458667513e-13,1.043533117e-13,5.338052842e-14,4.368292130e-14,1.283488429e-13,4.516295226e-14,5.348332466e-14,9.070256360e-14,4.155374947e-14,1.279100313e-13,6.769280832e-14,6.244774250e-14,3.874646280e-14,7.396352468e-14,2.708593941e-13,1.352902094e-13,8.871531682e-14,2.729807695e-13,1.007128645e-13,5.480221003e-14,5.257694012e-14,9.061888504e-14,6.410509526e-14,3.761104000e-14,5.199653098e-14,1.165599857e-13,6.276998024e-14,7.579544891e-14,3.935434893e-13,2.919735546e-14
0.125,1.075063208e-13,1.004033134e-13,3.242327198e-13,1.039641652e-13,5.354926790e-14,3.994002077e-14,1.142886166e-13,3.987788205e-14,5.543292529e-14,9.480866683e-14,4.090569356e-14,1.362258359e-13,6.848703240e-14,6.643739144e-14,3.588800787e-14,6.836627625e-14,2.328073819e-13,1.172911424e-13,7.559386993e-14,2.571578449e-13,8.756239527e-14,5.239065981e-14,5.142451095e-14,8.361185415e-14,7.023103527e-14,3.912665498e-14,5.424485225e-14,1.187315417e-13,6.358088566e-14,7.589715553e-14,4.336403910e-13,3.020451463e-14
0.13281,1.092883309e-13,1.040597506e-13,2.981942862e-13,1.058083447e-13,5.375600937e-14,3.762649574e-14,9.950837150e-14,3.474690828e-14,5.688416131e-14,9.771266577e-14,4.070757820e-14,1.444999051e-13,7.102263447e-14,7.172572386e-14,3.455054926e-14,6.540960056e-14,2.008940577e-13,1.033099694e-13,6.624578295e-14,2.406057930e-13,7.474624476e-14,5.146598119e-14,5.127452335e-14,7.728372614e-14,8.022953601e-14,3.937781042e-14,5.596732187e-14,1.217851095e-13,6.550164343e-14,7.952649550e-14,4.600423954e-13,3.064354636e-14
0.14062,1.118953178e-13,1.082696174e-13,2.674736493e-13,1.085654845e-13,5.408468786e-14,3.678204863e-14,8.401519096e-14,2.998089054e-14,5.726079888e-14,9.902131993e-14,4.096680692e-14,1.510468792e-13,7.338448826e-14,7.645463183e-14,3.420122085e-14,6.433898201e-14,1.757365480e-13,9.248867155e-14,5.966679551e-14,2.249428688e-13,6.386401265e-14,5.135218630e-14,5.226417808e-14,7.287051053e-14,9.274516901e-14,3.895183473e-14,5.737641475e-14,1.241863123e-13,6.825341954e-14,8.498616550e-14,4.721091295e-13,3.076766156e-14
0.14844,1.141752993e-13,1.122785541e-13,2.332131015e-13,1.116377233e-13,5.438586558e-14,3.735904195e-14,6.877613538e-14,2.571250618e-14,5.634426655e-14,9.794070471e-14,4.192832612e-14,1.546897273e-13,7.506238991e-14,7.947773677e-14,3.468521868e-14,6.478315203e-14,1.577839837e-13,8.457975511e-14,5.549851414e-14,2.124642640e-13,5.603212119e-14,5.195920271e-14,5.390910552e-14,7.147523454e-14,1.065368034e-13,3.823782356e-14,5.881977852e-14,1.248294280e-13,7.168591809e-14,9.156468107e-14,4.669775547e-13,3.055719310e-14
0.15625,1.155611812e-13,1.157086336e-13,1.975239694e-13,1.151431599e-13,5.482599318e-14,3.941722940e-14,5.513287058e-14,2.240516661e-14,5.465879574e-14,9.475868001e-14,4.356103552e-14,1.559904394e-13,7.710335853e-14,8.150814725e-14,3.638423114e-14,6.716122569e-14,1.464579114e-13,7.980790014e-14,5.398421288e-14,2.048716090e-13,5.159658382e-14,5.337681461e-14,5.535455565e-14,7.412783553e-14,1.210698951e-13,3.760412627e-14,6.072699974e-14,1.243065153e-13,7.599567761e-14,9.861419186e-14,4.488202477e-13,3.031034455e-14
0.16406,1.153230763e-13,1.176982386e-13,1.619202941e-13,1.174973342e-13,5.476409470e-14,4.227404964e-14,4.358640855e-14,2.030357318e-14,5.270882392e-14,8.999486239e-14,4.523695571e-14,1.554777846e-13,7.942093052e-14,8.341586945e-14,3.915669272e-14,7.106556292e-14,1.408595101e-13,7.727924747e-14,5.402265093e-14,2.021968332e-13,4.983219069e-14,5.509081599e-14,5.597795170e-14,8.067896216e-14,1.362691477e-13,3.705169536e-14,6.279282441e-14,1.234897769e-13,8.039715729e-14,1.043214221e-13,4.179668392e-13,3.040382899e-14
0.17188,1.126312543e-13,1.167349316e-13,1.305496784e-13,1.170315349e-13,5.357320043e-14,4.483634147e-14,3.453443389e-14,1.941101666e-14,5.047022571e-14,8.432615340e-14,4.690308526e-14,1.521058638e-13,7.996292572e-14,8.368938037e-14,4.238909427e-14,7.446624590e-14,1.382818090e-13,7.481008342e-14,5.399981485e-14,2.044627295e-13,5.014946246e-14,5.635405238e-14,5.589803990e-14,9.131386965e-14,1.498547657e-13,3.642488842e-14,6.438590143e-14,1.219461584e-13,8.330369591e-14,1.065957424e-13,3.751568806e-13,3.119757171e-14
0.17969,1.069721685e-13,1.121472623e-13,1.037769686e-13,1.130552416e-13,5.130115082e-14,4.660036035e-14,2.780580081e-14,1.944277355e-14,4.769356698e-14,7.767233143e-14,4.834978348e-14,1.447551268e-13,7.762915505e-14,8.103929877e-14,4.600298098e-14,7.707737948e-14,1.379258273e-13,7.197772767e-14,5.353397828e-14,2.110489325e-13,5.203160438e-14,5.705928784e-14,5.505675520e-14,1.043015813e-13,1.594867583e-13,3.569968046e-14,6.555259471e-14,1.188272139e-13,8.459172174e-14,1.049426956e-13,3.246488283e-13,3.263008754e-14
0.1875,9.977357423e-14,1.056874996e-13,8.222758485e-14,1.073880697e-13,4.830677830e-14,4.796808977e-14,2.290486558e-14,2.028393991e-14,4.510006088e-14,7.036479493e-14,4.935112640e-14,1.341080196e-13,7.405631022e-14,7.663178343e-14,5.058489776e-14,7.964048494e-14,1.400880390e-13,6.983796740e-14,5.321443166e-14,2.228015939e-13,5.426869101e-14,5.756666374e-14,5.316066204e-14,1.170139978e-13,1.646226858e-13,3.508281582e-14,6.722441269e-14,1.148492286e-13,8.566764272e-14,1.010464023e-13,2.729614907e-13,3.449307036e-14
0.19531,9.266309809e-14,9.880467291e-14,6.708243817e-14,1.010740641e-13,4.471899726e-14,4.907107763e-14,1.977854789e-14,2.147291713e-14,4.321817738e-14,6.309192935e-14,5.023135080e-14,1.228992683e-13,7.062278064e-14,7.264102767e-14,5.684567032e-14,8.237531702e-14,1.433490603e-13,6.860292768e-14,5.318222241e-14,2.383136575e-13,5.552256980e-14,5.810297164e-14,5.060997430e-14,1.266643156e-13,1.662600108e-13,3.446230980e-14,6.986818750e-14,1.116588102e-13,8.748475856e-14,9.645453648e-14,2.274313496e-13,3.654222683e-14
0.20312,8.524936826e-14,9.129775286e-14,5.724343883e-14,9.383895267e-14,4.063114827e-14,4.965361341e-14,1.707385387e-14,2.269541844e-14,4.171068296e-14,5.607362199e-14,5.116079707e-14,1.113135445e-13,6.673913784e-14,6.960596829e-14,6.456249102e-14,8.510660536e-14,1.471259046e-13,6.759942715e-14,5.243237796e-14,2.538306986e-13,5.581158060e-14,5.776701708e-14,4.725186150e-14,1.350059750e-13,1.644821903e-13,3.378859277e-14,7.249631999e-14,1.090541398e-13,8.893769738e-14,9.092348567e-14,1.903300455e-13,3.880475284e-14
0.21094,7.766708268e-14,8.306560268e-14,5.086344025e-14,8.558229755e-14,3.645320157e-14,4.934772649e-14,1.487019458e-14,2.409436229e-14,4.040036891e-14,4.965159073e-14,5.154247132e-14,9.926464171e-14,6.154360189e-14,6.673064660e-14,7.174969623e-14,8.632773176e-14,1.496891684e-13,6.580848924e-14,5.032125282e-14,2.673111804e-13,5.524162886e-14,5.603325198e-14,4.340124135e-14,1.410703468e-13,1.587912131e-13,3.305171973e-14,7.409928075e-14,1.056806987e-13,8.862965410e-14,8.467298640e-14,1.615766221e-13,4.153975300e-14
0.21875,7.060954067e-14,7.465676635e-14,4.727419672e-14,7.695315389e-14,3.279705998e-14,4.814393458e-14,1.321269572e-14,2.559212659e-14,3.902706367e-14,4.374743574e-14,5.087280972e-14,8.648163149e-14,5.553760334e-14,6.293378991e-14,7.741173450e-14,8.587754125e-14,1.513781521e-13,6.393443549e-14,4.771723884e-14,2.788229685e-13,5.423188011e-14,5.347734598e-14,3.956166952e-14,1.449592177e-13,1.499164308e-13,3.246530481e-14,7.451388685e-14,1.011502850e-13,8.656892390e-14,7.858910234e-14,1.413428397e-13,4.462243404e-14
0.22656,6.425708292e-14,6.659357281e-14,4.492892851e-14,6.850533560e-14,2.972949749e-14,4.624796409e-14,1.196957401e-14,2.681649602e-14,3.761955450e-14,3.841670050e-14,4.917093947e-14,7.361886040e-14,4.926117939e-14,5.838082054e-14,8.135352814e-14,8.365364676e-14,1.515651668e-13,6.178803044e-14,4.463732883e-14,2.864239144e-13,5.270380432e-14,5.042422575e-14,3.628534292e-14,1.447214677e-13,1.380155471e-13,3.197847163e-14,7.374648402e-14,9.487363344e-14,8.327548928e-14,7.291138055e-14,1.319560424e-13,4.778804226e-14
0.23438,5.880916523e-14,5.878607245e-14,4.362332658e-14,5.992857522e-14,2.726860761e-14,4.370340608e-14,1.068552183e-14,2.786988470e-14,3.620635973e-14,3.354992952e-14,4.710207991e-14,6.151387031e-14,4.295474821e-14,5.339155072e-14,8.266453516e-14,7.971627355e-14,1.497461278e-13,5.947568328e-14,4.141606276e-14,2.887832258e-13,5.131754241e-14,4.718114882e-14,3.317084585e-14,1.424488265e-13,1.233084169e-13,3.155036973e-14,7.082273437e-14,8.742379165e-14,7.831157634e-14,6.759032855e-14,1.334827846e-13,5.097692245e-14
0.24219,5.389397994e-14,5.093095617e-14,4.281810945e-14,5.084539991e-14,2.550507869e-14,4.040535640e-14,9.522232837e-15,2.875049615e-14,3.477873168e-14,2.928593331e-14,4.447817746e-14,5.017082760e-14,3.657851974e-14,4.799368774e-14,8.064051492e-14,7.439579384e-14,1.462821820e-13,5.714377206e-14,3.768986894e-14,2.859406291e-13,4.958682835e-14,4.336533891e-14,3.019090718e-14,1.378224666e-13,1.074083494e-13,3.160771398e-14,6.572445382e-14,7.869130994e-14,7.139958417e-14,6.216519406e-14,1.463856962e-13,5.436971534e-14
0.25,4.916620899e-14,4.337282635e-14,4.220775588e-14,4.212331773e-14,2.478395642e-14,3.689083555e-14,8.810519950e-15,2.983058872e-14,3.330184354e-14,2.620429218e-14,4.115717714e-14,4.029067165e-14,3.035331850e-14,4.257982035e-14,7.581651319e-14,6.864157472e-14,1.427230704e-13,5.539374511e-14,3.412339820e-14,2.785869976e-13,4.841370784e-14,3.918653515e-14,2.773411120e-14,1.325885680e-13,9.172953564e-14,3.266643909e-14,5.943150288e-14,6.919005983e-14,6.339727924e-14,5.663955145e-14,1.686494707e-13,5.797244575e-14
0.25781,4.446861986e-14,3.673454195e-14,4.150308283e-14,3.448775279e-14,2.503027584e-14,3.346613992e-14,8.405739998e-15,3.079171390e-14,3.167722447e-14,2.432446445e-14,3.778353385e-14,3.215158313e-14,2.456390135e-14,3.735654804e-14,6.916661477e-14,6.315432243e-14,1.404736898e-13,5.444114957e-14,3.107141663e-14,2.687517223e-13,4.789940149e-14,3.475460919e-14,2.594999635e-14,1.263206907e-13,7.741665298e-14,3.448784260e-14,5.269125620e-14,5.896897340e-14,5.523886321e-14,5.089287495e-14,2.004928899e-13,6.175489528e-14
0.26562,3.997986271e-14,3.140233367e-14,4.108361249e-14,2.813261319e-14,2.582132852e-14,3.039409643e-14,8.134418002e-15,3.157488260e-14,3.013343367e-14,2.384567145e-14,3.452952802e-14,2.660384728e-14,1.958304348e-14,3.311184639e-14,6.211324216e-14,5.830049712e-14,1.378890690e-13,5.384624131e-14,2.864124518e-14,2.544253572e-13,4.845023421e-14,3.042520315e-14,2.450112253e-14,1.202200282e-13,6.444325358e-14,3.623417800e-14,4.583085297e-14,4.866993431e-14,4.795223408e-14,4.525155625e-14,2.397422119e-13,6.519925841e-14
0.27344,3.602124393e-14,2.768430294e-14,4.179247849e-14,2.343471151e-14,2.711166083e-14,2.823569466e-14,8.194130836e-15,3.211227855e-14,2.877174393e-14,2.499080035e-14,3.199679933e-14,2.379655763e-14,1.540605046e-14,3.052183496e-14,5.659404966e-14,5.536570389e-14,1.367627768e-13,5.342108072e-14,2.657273842e-14,2.373036890e-13,4.926895340e-14,2.651426360e-14,2.324539316e-14,1.145804042e-13,5.288438291e-14,3.803824603e-14,3.938958205e-14,3.900145970e-14,4.222791634e-14,4.015344807e-14,2.836912072e-13,6.858067211e-14
0.28125,3.259426418e-14,2.527270003e-14,4.390102768e-14,2.057357969e-14,2.919931388e-14,2.723043992e-14,8.654066148e-15,3.260696454e-14,2.745497072e-14,2.764198339e-14,3.027066392e-14,2.321578135e-14,1.210096130e-14,2.955782651e-14,5.311335483e-14,5.463084077e-14,1.361492784e-13,5.321093245e-14,2.527603002e-14,2.172184549e-13,4.999096879e-14,2.297481722e-14,2.201780955e-14,1.094855963e-13,4.365478516e-14,3.997134225e-14,3.360211619e-14,3.034551295e-14,3.805382085e-14,3.548953986e-14,3.259193382e-13,7.232171732e-14
0.28906,2.966729844e-14,2.366314707e-14,4.797538378e-14,1.982364758e-14,3.281561693e-14,2.792885761e-14,9.723783614e-15,3.322685512e-14,2.612837819e-14,3.137081579e-14,2.934319504e-14,2.439316668e-14,9.761051651e-15,3.036909232e-14,5.250941474e-14,5.664450470e-14,1.361115079e-13,5.372440323e-14,2.506777756e-14,1.957999222e-13,5.055800591e-14,1.994634638e-14,2.120078975e-14,1.065183918e-13,3.664982631e-14,4.271188350e-14,2.895585726e-14,2.321716588e-14,3.517870605e-14,3.165246488e-14,3.640150834e-13,7.734190565e-14
0.29688,2.721511646e-14,2.284335868e-14,5.421741422e-14,2.117258757e-14,3.774785366e-14,3.046535642e-14,1.102349054e-14,3.382621307e-14,2.472482612e-14,3.529044940e-14,2.932415381e-14,2.662569541e-14,8.221910598e-15,3.281431303e-14,5.510509558e-14,6.109326707e-14,1.358183345e-13,5.453205767e-14,2.555915549e-14,1.738765307e-13,5.078090484e-14,1.742051655e-14,2.031273647e-14,1.055808683e-13,3.105006475e-14,4.539335405e-14,2.527792163e-14,1.751543371e-14,3.320687085e-14,2.884617299e-14,3.941719566e-13,8.358552260e-14
0.30469,2.520602140e-14,2.230671587e-14,6.187546052e-14,2.408516536e-14,4.357753969e-14,3.459656667e-14,1.282975354e-14,3.425797161e-14,2.356924274e-14,3.899871609e-14,2.987643028e-14,2.934303700e-14,7.017397730e-15,3.676852954e-14,6.123473565e-14,6.732142766e-14,1.343864622e-13,5.455655855e-14,2.604028919e-14,1.523493397e-13,5.048617845e-14,1.546984411e-14,1.937721066e-14,1.071472000e-13,2.611000847e-14,4.787180201e-14,2.201970164e-14,1.306494479e-14,3.185484397e-14,2.727311254e-14,4.129984046e-13,9.125354057e-14
0.3125,2.395516168e-14,2.244004907e-14,7.133276239e-14,2.867682577e-14,5.115025902e-14,4.027748827e-14,1.522760330e-14,3.439532330e-14,2.260820715e-14,4.271926579e-14,3.128065249e-14,3.256111512e-14,6.447309174e-15,4.304111176e-14,7.175267949e-14,7.613989085e-14,1.327292941e-13,5.495544189e-14,2.727305881e-14,1.334752243e-13,5.027347542e-14,1.397632548e-14,1.854740842e-14,1.118566851e-13,2.184894178e-14,5.130049541e-14,1.973029936e-14,9.783016037e-15,3.177280103e-14,2.738704829e-14,4.248139030e-13,1.010167970e-13
0.32031,2.339008759e-14,2.318227197e-14,8.170337753e-14,3.460097548e-14,6.027490760e-14,4.755820528e-14,1.834286552e-14,3.424910952e-14,2.179065443e-14,4.604422413e-14,3.397624076e-14,3.516106664e-14,6.624748566e-15,5.151572616e-14,8.657954250e-14,8.766483802e-14,1.327710003e-13,5.676501668e-14,2.943362475e-14,1.186115458e-13,5.038172500e-14,1.288394710e-14,1.780886096e-14,1.195264509e-13,1.864264150e-14,5.629101432e-14,1.886512206e-14,7.445350148e-15,3.294601632e-14,2.892798709e-14,4.297183444e-13,1.128818560e-13
0.32812,2.338780378e-14,2.406281982e-14,9.278928353e-14,4.107406096e-14,7.037490169e-14,5.638637001e-14,2.248241790e-14,3.399963839e-14,2.137612309e-14,4.848908148e-14,3.778828197e-14,3.618268848e-14,7.162621257e-15,6.117662337e-14,1.048849126e-13,1.006234444e-13,1.341176970e-13,5.923192017e-14,3.180080938e-14,1.087912499e-13,5.073167406e-14,1.214705304e-14,1.754241249e-14,1.307849466e-13,1.592237525e-14,6.289369387e-14,1.914649421e-14,5.941710252e-15,3.459242286e-14,3.164292653e-14,4.292993362e-13,1.270447535e-13
0.33594,2.351516449e-14,2.451827493e-14,1.024751861e-13,4.751945198e-14,8.050731828e-14,6.657489508e-14,2.756005173e-14,3.364816817e-14,2.144160210e-14,4.916011075e-14,4.151754208e-14,3.561311368e-14,7.489775621e-15,7.066682876e-14,1.251511568e-13,1.136604527e-13,1.374907531e-13,6.138033681e-14,3.364882673e-14,1.040961220e-13,5.129078922e-14,1.174405033e-14,1.771363054e-14,1.444676834e-13,1.376174756e-14,7.013338027e-14,1.995155502e-14,4.845833421e-15,3.579053252e-14,3.470301146e-14,4.242587008e-13,1.425383683e-13
0.34375,2.399188670e-14,2.461457270e-14,1.106367129e-13,5.402128503e-14,9.074868662e-14,7.808120814e-14,3.330399083e-14,3.343739123e-14,2.196233027e-14,4.864827442e-14,4.521020244e-14,3.432465706e-14,7.629315605e-15,8.055406019e-14,1.475127662e-13,1.269074609e-13,1.433045484e-13,6.339730492e-14,3.511170884e-14,1.044938675e-13,5.220799662e-14,1.160482709e-14,1.843952330e-14,1.597919424e-13,1.161263095e-14,7.804885932e-14,2.139275416e-14,4.109462282e-15,3.708153224e-14,3.847461944e-14,4.179419337e-13,1.588499022e-13
0.35156,2.504568266e-14,2.493615717e-14,1.168004869e-13,6.057428234e-14,1.008335788e-13,9.041141788e-14,3.969996331e-14,3.342870892e-14,2.247144511e-14,4.784686839e-14,4.904269580e-14,3.280931329e-14,8.078576247e-15,9.117839269e-14,1.711610804e-13,1.405173801e-13,1.519875954e-13,6.598124680e-14,3.668400401e-14,1.083093301e-13,5.305974798e-14,1.162856377e-14,1.937906162e-14,1.750948530e-13,9.608426455e-15,8.672127901e-14,2.389049779e-14,3.690556100e-15,3.929912597e-14,4.327977916e-14,4.095142466e-13,1.744367266e-13
0.35938,2.662081189e-14,2.566837720e-14,1.205812003e-13,6.683437407e-14,1.094047089e-13,1.034607982e-13,4.654102257e-14,3.355184902e-14,2.281562256e-14,4.653128100e-14,5.244905640e-14,3.109774907e-14,8.732473895e-15,1.012394617e-13,1.938583487e-13,1.532022683e-13,1.630218832e-13,6.905454977e-14,3.835016369e-14,1.147708805e-13,5.376190680e-14,1.189166807e-14,2.035234317e-14,1.882987580e-13,8.035150870e-15,9.483537038e-14,2.700192036e-14,3.530442802e-15,4.195668200e-14,4.835630071e-14,4.024859760e-13,1.871064096e-13
0.36719,2.809060573e-14,2.616064348e-14,1.220744497e-13,7.129880207e-14,1.149776993e-13,1.161121946e-13,5.371655113e-14,3.380334109e-14,2.315945189e-14,4.472855586e-14,5.393912001e-14,2.909954809e-14,9.281442671e-15,1.078937991e-13,2.110668362e-13,1.622483662e-13,1.742940706e-13,7.157965315e-14,3.963833412e-14,1.221446932e-13,5.432365185e-14,1.237128325e-14,2.126107787e-14,1.983454584e-13,6.780097570e-15,1.010153276e-13,3.010966903e-14,3.543749442e-15,4.410304857e-14,5.230907785e-14,3.984029947e-13,1.958706480e-13
0.375,2.893036869e-14,2.591001723e-14,1.204551303e-13,7.322981473e-14,1.168424348e-13,1.268341827e-13,6.099256507e-14,3.406425370e-14,2.338188469e-14,4.291111323e-14,5.402796561e-14,2.689012937e-14,9.523877734e-15,1.105060790e-13,2.216266457e-13,1.665314437e-13,1.836707082e-13,7.252361881e-14,3.982507747e-14,1.293459639e-13,5.427225850e-14,1.301503156e-14,2.195475939e-14,2.036314201e-13,6.110229520e-15,1.044131538e-13,3.306843078e-14,3.513253959e-15,4.545201210e-14,5.495087528e-14,3.940600446e-13,1.997543265e-13
0.38281,2.924678434e-14,2.469737358e-14,1.167482053e-13,7.278687328e-14,1.154417722e-13,1.349603618e-13,6.843217570e-14,3.437804990e-14,2.323068252e-14,4.182804471e-14,5.352414359e-14,2.532672768e-14,9.498298591e-15,1.092503856e-13,2.244423598e-13,1.653928776e-13,1.887369782e-13,7.115699803e-14,3.906259999e-14,1.334477569e-13,5.364342658e-14,1.383338361e-14,2.237802172e-14,2.039128162e-13,5.704711415e-15,1.046856035e-13,3.555812895e-14,3.443648516e-15,4.590057099e-14,5.632994215e-14,3.843520286e-13,1.983452781e-13
0.39062,2.972384198e-14,2.346882086e-14,1.109752408e-13,7.058790280e-14,1.113873777e-13,1.394137576e-13,7.561423318e-14,3.440544449e-14,2.240444397e-14,4.182672846e-14,5.276987125e-14,2.496242928e-14,9.555963035e-15,1.053680854e-13,2.212216856e-13,1.600734162e-13,1.884406371e-13,6.847566097e-14,3.799987172e-14,1.332969832e-13,5.260729800e-14,1.485848755e-14,2.243689297e-14,1.976671699e-13,5.474831181e-15,1.023258840e-13,3.793007900e-14,3.530187464e-15,4.644047384e-14,5.708947029e-14,3.678261527e-13,1.910617586e-13
0.39844,3.001354414e-14,2.220738524e-14,1.039032054e-13,6.704439259e-14,1.049676431e-13,1.399254875e-13,8.245753573e-14,3.385518171e-14,2.122912027e-14,4.241143748e-14,5.195562837e-14,2.548594517e-14,9.421617876e-15,9.868615885e-14,2.112150310e-13,1.510121612e-13,1.828539759e-13,6.484896990e-14,3.674235583e-14,1.296242831e-13,5.104831741e-14,1.599642953e-14,2.224775130e-14,1.857043600e-13,5.487513878e-15,9.767332413e-14,3.955810193e-14,3.721936573e-15,4.641661377e-14,5.662181328e-14,3.485573163e-13,1.788933823e-13
0.40625,2.971318573e-14,2.043511971e-14,9.682701134e-14,6.214944210e-14,9.668866651e-14,1.365136538e-13,8.908934137e-14,3.300589423e-14,1.995259181e-14,4.373274087e-14,5.125763138e-14,2.656878447e-14,9.098939782e-15,8.923841050e-14,1.949456473e-13,1.385645574e-13,1.721803671e-13,6.060729342e-14,3.557864961e-14,1.228990836e-13,4.928514388e-14,1.719005588e-14,2.182089616e-14,1.690823243e-13,5.611431845e-15,9.106148702e-14,4.004557670e-14,4.074656031e-15,4.532204113e-14,5.468932347e-14,3.304668582e-13,1.634883299e-13
0.41406,2.897814359e-14,1.821210032e-14,8.987726692e-14,5.580136583e-14,8.684461681e-14,1.288684473e-13,9.544768803e-14,3.194039225e-14,1.883190237e-14,4.580742167e-14,5.125284954e-14,2.770506792e-14,8.826451238e-15,7.782353918e-14,1.746688600e-13,1.238348731e-13,1.573034332e-13,5.569050227e-14,3.448175419e-14,1.131987642e-13,4.722890260e-14,1.840243548e-14,2.144777798e-14,1.487600540e-13,6.023339599e-15,8.298382200e-14,3.949218293e-14,4.585066836e-15,4.331593767e-14,5.176436286e-14,3.115966275e-13,1.460611530e-13
0.42188,2.845049828e-14,1.637127923e-14,8.322709744e-14,4.890274305e-14,7.678813650e-14,1.176541776e-13,1.010980382e-13,3.074950389e-14,1.792422708e-14,4.780942992e-14,5.187613452e-14,2.857576916e-14,8.819630206e-15,6.606090909e-14,1.528946121e-13,1.087587993e-13,1.396725039e-13,5.092545003e-14,3.376948791e-14,1.001347748e-13,4.562728397e-14,1.962705188e-14,2.137510293e-14,1.278369243e-13,6.666911109e-15,7.490098982e-14,3.851978501e-14,5.125234019e-15,4.124833985e-14,4.842727777e-14,2.886827402e-13,1.284019541e-13
0.42969,2.804758858e-14,1.506191721e-14,7.735850415e-14,4.172939375e-14,6.649645971e-14,1.044429382e-13,1.054747967e-13,2.928127650e-14,1.720501701e-14,4.945715183e-14,5.277804532e-14,2.940800128e-14,9.188183662e-15,5.472176840e-14,1.311176981e-13,9.405669762e-14,1.215461899e-13,4.623322990e-14,3.314582426e-14,8.670081503e-14,4.416931369e-14,2.059268783e-14,2.149877563e-14,1.067377585e-13,7.671489487e-15,6.699557743e-14,3.731624195e-14,5.689591270e-15,3.948860395e-14,4.501666087e-14,2.642994090e-13,1.102409860e-13
0.4375,2.760777791e-14,1.440644001e-14,7.299750943e-14,3.458273236e-14,5.636427694e-14,9.020231743e-14,1.088253881e-13,2.761129107e-14,1.680940720e-14,5.075394803e-14,5.465992558e-14,3.002755116e-14,1.009173660e-14,4.437888133e-14,1.109624683e-13,8.076772060e-14,1.041418538e-13,4.210627620e-14,3.288044504e-14,7.296202304e-14,4.307542947e-14,2.128900409e-14,2.160270544e-14,8.695113128e-14,9.110533884e-15,5.961949869e-14,3.627723701e-14,6.176327055e-15,3.844251217e-14,4.183566709e-14,2.392315269e-13,9.239330510e-14
0.44531,2.723158733e-14,1.478863711e-14,7.049286230e-14,2.821142842e-14,4.714588707e-14,7.633645654e-14,1.111705143e-13,2.604181615e-14,1.675095590e-14,5.143485616e-14,5.723739682e-14,3.050667701e-14,1.130487130e-14,3.573491762e-14,9.307362368e-14,6.970824599e-14,8.900036540e-14,3.905384671e-14,3.304896297e-14,6.058858065e-14,4.266642472e-14,2.173535142e-14,2.165373955e-14,6.995387704e-14,1.096785512e-14,5.335906324e-14,3.571185383e-14,6.556266324e-15,3.832916007e-14,3.933801185e-14,2.168113570e-13,7.591918441e-14
0.45312,2.675171259e-14,1.610252577e-14,6.975773902e-14,2.302863233e-14,3.898354474e-14,6.449192962e-14,1.125566448e-13,2.454198556e-14,1.685092669e-14,5.084554536e-14,5.958579839e-14,3.093971306e-14,1.237246368e-14,2.860429634e-14,7.761110432e-14,6.069466983e-14,7.693986794e-14,3.681287083e-14,3.353804073e-14,5.005725451e-14,4.286089165e-14,2.182484406e-14,2.159034457e-14,5.649098783e-14,1.301338398e-14,4.810380929e-14,3.496479954e-14,6.939115270e-15,3.847484689e-14,3.747728386e-14,1.955355632e-13,6.134706074e-14
0.46094,2.621380404e-14,1.809452936e-14,7.102971373e-14,1.891904230e-14,3.170801243e-14,5.418102823e-14,1.129566313e-13,2.291003702e-14,1.703144080e-14,4.891045426e-14,6.131609291e-14,3.132526816e-14,1.356202265e-14,2.261897559e-14,6.419968703e-14,5.368918690e-14,6.833425581e-14,3.560793068e-14,3.462386287e-14,4.102890942e-14,4.380717738e-14,2.171072240e-14,2.142605683e-14,4.728357548e-14,1.529461398e-14,4.401991157e-14,3.427382411e-14,7.331478317e-15,3.878689894e-14,3.638896268e-14,1.746832162e-13,4.881159017e-14
0.46875,2.618593055e-14,2.093561720e-14,7.406396607e-14,1.615937538e-14,2.534380789e-14,4.607733125e-14,1.112055085e-13,2.131163880e-14,1.711428098e-14,4.536996526e-14,6.243972891e-14,3.151890666e-14,1.503281787e-14,1.802036041e-14,5.292764627e-14,4.817274058e-14,6.306222600e-14,3.542774121e-14,3.634991939e-14,3.436332391e-14,4.587583014e-14,2.179115652e-14,2.100596006e-14,4.149371101e-14,1.781718084e-14,4.040732217e-14,3.342810562e-14,7.703730069e-15,3.956532170e-14,3.673608519e-14,1.538040082e-13,3.807128397e-14
0.47656,2.676631703e-14,2.469706188e-14,7.802194220e-14,1.522752887e-14,2.001912427e-14,3.997239209e-14,1.072086537e-13,1.971290618e-14,1.710138830e-14,4.081381345e-14,6.279896502e-14,3.222087954e-14,1.641824916e-14,1.516424409e-14,4.368457871e-14,4.390675808e-14,6.095449957e-14,3.608640879e-14,3.837218879e-14,2.992414198e-14,4.927284082e-14,2.214427415e-14,2.033053203e-14,3.842304499e-14,2.045707055e-14,3.730862938e-14,3.254140428e-14,8.060005146e-15,4.137057059e-14,3.907814042e-14,1.327906824e-13,2.898950857e-14
0.48438,2.769379283e-14,2.863040883e-14,8.161037888e-14,1.601552462e-14,1.587282931e-14,3.569813955e-14,1.010688340e-13,1.836016215e-14,1.691727794e-14,3.605944121e-14,6.315365619e-14,3.337811650e-14,1.715306794e-14,1.396297006e-14,3.616274894e-14,4.022371702e-14,6.059597902e-14,3.675620511e-14,4.017617382e-14,2.761221881e-14,5.366119966e-14,2.262105928e-14,1.962690878e-14,3.700026404e-14,2.321237799e-14,3.492842285e-14,3.152205873e-14,8.482142165e-15,4.373328122e-14,4.306200600e-14,1.155371406e-13,2.173791301e-14
0.49219,2.868014919e-14,3.208118465e-14,8.443009375e-14,1.819733068e-14,1.307780003e-14,3.244232556e-14,9.308136795e-14,1.740481733e-14,1.652715696e-14,3.136017189e-14,6.366054430e-14,3.421207702e-14,1.726610682e-14,1.382627614e-14,3.021764009e-14,3.718726963e-14,6.188704500e-14,3.743192840e-14,4.198120618e-14,2.737103054e-14,5.882635442e-14,2.296280392e-14,1.905584051e-14,3.688536603e-14,2.599932468e-14,3.339365295e-14,3.033317235e-14,9.005932185e-15,4.575973938e-14,4.815699912e-14,1.022069289e-13,1.640753034e-14
0.5,2.990886690e-14,3.498615996e-14,8.730326288e-14,2.162076429e-14,1.140817118e-14,2.970421703e-14,8.417131659e-14,1.683918898e-14,1.594880221e-14,2.706264926e-14,6.413956894e-14,3.449804874e-14,1.710993042e-14,1.448019117e-14,2.568630447e-14,3.477068944e-14,6.430693617e-14,3.832720859e-14,4.402849882e-14,2.886483690e-14,6.408220277e-14,2.336471816e-14,1.868189310e-14,3.700103825e-14,2.864358036e-14,3.254346117e-14,2.918735622e-14,9.696455273e-15,4.745251314e-14,5.385565304e-14,9.257006505e-14,1.259003748e-14
0.50781,3.198309557e-14,3.754515727e-14,9.020986723e-14,2.655851417e-14,1.068273802e-14,2.778061085e-14,7.428862855e-14,1.664352710e-14,1.528060688e-14,2.311445593e-14,6.450474266e-14,3.439131496e-14,1.681333950e-14,1.633779234e-14,2.235464543e-14,3.258778813e-14,6.713614328e-14,3.912289778e-14,4.608642287e-14,3.182169670e-14,6.941225978e-14,2.391876548e-14,1.855017601e-14,3.728750445e-14,3.113680475e-14,3.162141743e-14,2.800214234e-14,1.047304575e-14,4.890878091e-14,6.011464821e-14,8.772802237e-14,9.932092888e-15
0.51562,3.437797255e-14,3.910683159e-14,9.348004842e-14,3.251745020e-14,1.064698308e-14,2.678783166e-14,6.400391081e-14,1.659766242e-14,1.469355386e-14,1.956451892e-14,6.507855343e-14,3.425034806e-14,1.604240909e-14,1.946798722e-14,2.052996504e-14,3.088455191e-14,6.965354881e-14,3.928645745e-14,4.741782680e-14,3.526774653e-14,7.407638005e-14,2.420823237e-14,1.901893607e-14,3.732766108e-14,3.339590819e-14,3.030371258e-14,2.636803304e-14,1.110950455e-14,4.967238894e-14,6.583612509e-14,8.576857489e-14,8.400837416e-15
0.52344,3.662749987e-14,3.927243462e-14,9.757503245e-14,3.862681864e-14,1.113922868e-14,2.687633412e-14,5.402116671e-14,1.677414341e-14,1.417545577e-14,1.657176993e-14,6.628615119e-14,3.380719346e-14,1.467301837e-14,2.369906045e-14,1.990590505e-14,2.971632938e-14,7.154123225e-14,3.896311941e-14,4.785245186e-14,3.912778409e-14,7.723250284e-14,2.392256586e-14,1.989436151e-14,3.821301722e-14,3.538980884e-14,2.887333860e-14,2.440406805e-14,1.166896842e-14,4.912555162e-14,6.976267390e-14,8.771065934e-14,7.517461451e-15
0.53125,3.855808622e-14,3.822756587e-14,1.024608034e-13,4.469556308e-14,1.210954456e-14,2.841289771e-14,4.474567254e-14,1.710768768e-14,1.377789509e-14,1.399370704e-14,6.880234994e-14,3.279648949e-14,1.291791873e-14,2.910786442e-14,2.097110273e-14,2.944801634e-14,7.285782974e-14,3.840756991e-14,4.745405010e-14,4.323012885e-14,7.869479963e-14,2.310118493e-14,2.109393657e-14,4.018397090e-14,3.717858984e-14,2.724755619e-14,2.243511151e-14,1.215507741e-14,4.711568472e-14,7.123340451e-14,9.317894632e-14,7.232842458e-15
0.53906,4.028920854e-14,3.677027076e-14,1.085476142e-13,5.049074418e-14,1.342543169e-14,3.095901429e-14,3.733208680e-14,1.752913291e-14,1.363548085e-14,1.198612919e-14,7.243260513e-14,3.173241976e-14,1.126209723e-14,3.550764575e-14,2.322346731e-14,3.026626842e-14,7.367747926e-14,3.817619381e-14,4.666376665e-14,4.731316533e-14,7.870477151e-14,2.207220503e-14,2.278271125e-14,4.345363296e-14,3.887624515e-14,2.560418332e-14,2.112711912e-14,1.256370231e-14,4.477879594e-14,7.050663239e-14,1.016380317e-13,7.422167364e-15
0.54688,4.214713717e-14,3.572290853e-14,1.157301624e-13,5.629419484e-14,1.489642822e-14,3.485639144e-14,3.181628431e-14,1.814592291e-14,1.366608357e-14,1.079201218e-14,7.805757043e-14,3.077491604e-14,9.771098809e-15,4.311653103e-14,2.679412199e-14,3.230052248e-14,7.462624624e-14,3.856095290e-14,4.532795763e-14,5.211565376e-14,7.777189265e-14,2.107654785e-14,2.506145504e-14,4.868582577e-14,4.051201099e-14,2.388528224e-14,2.066961539e-14,1.304729420e-14,4.305572105e-14,6.842037113e-14,1.132666833e-13,7.930413158e-15
0.55469,4.391566999e-14,3.487674435e-14,1.234617411e-13,6.158830673e-14,1.661015204e-14,3.986127689e-14,2.819547045e-14,1.881130848e-14,1.389075692e-14,1.025196873e-14,8.647217832e-14,3.027784842e-14,8.385349603e-15,5.176059138e-14,3.188826902e-14,3.592087985e-14,7.600564742e-14,3.967525618e-14,4.323763873e-14,5.776109422e-14,7.590415049e-14,2.013792583e-14,2.797703994e-14,5.516180653e-14,4.246485067e-14,2.270669867e-14,2.113519301e-14,1.352181409e-14,4.196853359e-14,6.483453188e-14,1.252045174e-13,9.062107174e-15
0.5625,4.514491302e-14,3.396654347e-14,1.305848367e-13,6.537204619e-14,1.848121913e-14,4.515300500e-14,2.622791728e-14,1.958262112e-14,1.422252178e-14,1.032419680e-14,9.714023773e-14,3.017393680e-14,7.230115658e-15,6.035612857e-14,3.793454421e-14,4.091120791e-14,7.799126153e-14,4.174754470e-14,4.030319462e-14,6.533523549e-14,7.336549196e-14,1.923699291e-14,3.163477820e-14,6.262909630e-14,4.506156962e-14,2.241681743e-14,2.241500776e-14,1.400328334e-14,4.124025539e-14,6.011961474e-14,1.367003468e-13,1.066007562e-14
0.57031,4.537158634e-14,3.278962777e-14,1.362761016e-13,6.713169122e-14,2.042412457e-14,5.001785117e-14,2.559908520e-14,2.023516709e-14,1.445870037e-14,1.091660217e-14,1.103126821e-13,2.986803804e-14,6.425147102e-15,6.742711841e-14,4.487983705e-14,4.689940692e-14,8.119210356e-14,4.446293295e-14,3.661859293e-14,7.540827820e-14,6.979848338e-14,1.849650512e-14,3.607251931e-14,7.065833222e-14,4.819153203e-14,2.317886154e-14,2.435923457e-14,1.468430549e-14,4.022713184e-14,5.431458012e-14,1.480552513e-13,1.271533273e-14
0.57812,4.492817133e-14,3.151670780e-14,1.393527304e-13,6.690066017e-14,2.232496182e-14,5.389536701e-14,2.636886959e-14,2.083876712e-14,1.454538132e-14,1.185990225e-14,1.248036408e-13,2.930108743e-14,6.104056233e-15,7.215613439e-14,5.147774009e-14,5.312718742e-14,8.503326993e-14,4.748184445e-14,3.278885703e-14,8.867620655e-14,6.575612114e-14,1.796214795e-14,4.071818960e-14,7.909619329e-14,5.166140248e-14,2.470367608e-14,2.673068899e-14,1.547374344e-14,3.898008200e-14,4.833075617e-14,1.584519856e-13,1.482718739e-14
0.58594,4.364936983e-14,3.009505298e-14,1.390218408e-13,6.473331953e-14,2.406279485e-14,5.606903282e-14,2.867088829e-14,2.149859455e-14,1.434321389e-14,1.354079811e-14,1.403336999e-13,2.861223708e-14,6.220160022e-15,7.426830036e-14,5.718881359e-14,5.889711175e-14,8.922245007e-14,5.036642000e-14,2.888473596e-14,1.057465899e-13,6.132916034e-14,1.767426231e-14,4.548149098e-14,8.809456039e-14,5.527614646e-14,2.690238727e-14,2.944000323e-14,1.635975722e-14,3.751305281e-14,4.229445111e-14,1.671749431e-13,1.690140572e-14
0.59375,4.166690955e-14,2.839278342e-14,1.351830655e-13,6.036821859e-14,2.544934833e-14,5.601211159e-14,3.148549276e-14,2.206902513e-14,1.399395265e-14,1.552164693e-14,1.552535807e-13,2.814598513e-14,6.687638153e-15,7.350192549e-14,6.154088203e-14,6.354187585e-14,9.336524693e-14,5.250312624e-14,2.515151723e-14,1.263010929e-13,5.666753276e-14,1.738218723e-14,4.986568958e-14,9.671374280e-14,5.849525457e-14,2.938157575e-14,3.195467300e-14,1.721128537e-14,3.559202331e-14,3.606562622e-14,1.727745146e-13,1.886333678e-14
0.60156,3.937629546e-14,2.660667647e-14,1.286536844e-13,5.432662716e-14,2.628443940e-14,5.379320643e-14,3.432774114e-14,2.267799560e-14,1.355229071e-14,1.770850267e-14,1.672668341e-13,2.824365165e-14,7.306036611e-15,7.032832304e-14,6.388701988e-14,6.670070355e-14,9.733419995e-14,5.351282992e-14,2.177191420e-14,1.502606738e-13,5.249718120e-14,1.703842490e-14,5.309283145e-14,1.057274580e-13,6.089546954e-14,3.148155696e-14,3.389043960e-14,1.798834687e-14,3.314777451e-14,3.012587316e-14,1.767656034e-13,2.042330457e-14
0.60938,3.679364443e-14,2.492453916e-14,1.207250147e-13,4.757480689e-14,2.655860145e-14,5.021828361e-14,3.703396351e-14,2.332562108e-14,1.313580165e-14,2.015461525e-14,1.762656840e-13,2.909615128e-14,7.950989667e-15,6.548855813e-14,6.452761621e-14,6.871068263e-14,1.017417498e-13,5.355586945e-14,1.877728485e-14,1.774971800e-13,4.876133235e-14,1.643929257e-14,5.463338072e-14,1.150726938e-13,6.184878445e-14,3.297434362e-14,3.521323455e-14,1.849504570e-14,3.053022930e-14,2.480933066e-14,1.758401133e-13,2.136073259e-14
0.61719,3.423601277e-14,2.335377294e-14,1.118632653e-13,4.075330564e-14,2.630766424e-14,4.570296385e-14,3.977310712e-14,2.435772641e-14,1.301936052e-14,2.316616752e-14,1.805207764e-13,3.086142180e-14,8.575858706e-15,5.989653898e-14,6.384293968e-14,6.945805183e-14,1.068718815e-13,5.259702911e-14,1.626874150e-14,2.061808150e-13,4.546543110e-14,1.564109757e-14,5.419119995e-14,1.230838288e-13,6.144526856e-14,3.354828424e-14,3.557812554e-14,1.862413076e-14,2.754628682e-14,2.018219860e-14,1.715450857e-13,2.190012715e-14
0.625,3.179109694e-14,2.201397339e-14,1.028278049e-13,3.429122004e-14,2.564593057e-14,4.080193626e-14,4.218386019e-14,2.587237252e-14,1.325686514e-14,2.674363311e-14,1.802808191e-13,3.376798842e-14,9.251895407e-15,5.444694209e-14,6.242727725e-14,6.937537142e-14,1.126932379e-13,5.084004789e-14,1.411907890e-14,2.348262655e-13,4.264269398e-14,1.463406062e-14,5.207154626e-14,1.296206132e-13,6.000935365e-14,3.344170549e-14,3.529743781e-14,1.846111675e-14,2.437523013e-14,1.643212264e-14,1.669436031e-13,2.226057298e-14
0.63281,2.960656715e-14,2.107430527e-14,9.432233915e-14,2.852940556e-14,2.460184286e-14,3.559369842e-14,4.489905934e-14,2.767696183e-14,1.393209593e-14,3.107194103e-14,1.751967336e-13,3.854894431e-14,1.011385409e-14,5.024395159e-14,6.055977469e-14,6.860553480e-14,1.190266745e-13,4.855307861e-14,1.224999515e-14,2.604450176e-13,3.997147274e-14,1.349782433e-14,4.857216930e-14,1.347612352e-13,5.762400346e-14,3.303294148e-14,3.514340689e-14,1.813040961e-14,2.164569159e-14,1.370348083e-14,1.617648298e-13,2.248486706e-14
0.64062,2.801411461e-14,2.068670997e-14,8.670944193e-14,2.403028130e-14,2.374552743e-14,3.092505370e-14,4.773080447e-14,2.966039237e-14,1.500147819e-14,3.626711951e-14,1.677242279e-13,4.527723814e-14,1.130050598e-14,4.864849276e-14,5.974157462e-14,6.817037276e-14,1.255654348e-13,4.624589562e-14,1.087688022e-14,2.812385349e-13,3.728056300e-14,1.253038568e-14,4.421130516e-14,1.375803078e-13,5.459653807e-14,3.297666568e-14,3.562033990e-14,1.778674721e-14,1.976696156e-14,1.233325911e-14,1.572090738e-13,2.301381791e-14
0.64844,2.695757472e-14,2.093545486e-14,8.069316146e-14,2.099414877e-14,2.324971254e-14,2.711096992e-14,5.111624322e-14,3.168400938e-14,1.645739219e-14,4.215495624e-14,1.584469769e-13,5.429742337e-14,1.305131660e-14,5.026215896e-14,6.023411933e-14,6.850425459e-14,1.326105662e-13,4.455908875e-14,1.009155159e-14,2.963074475e-13,3.435129508e-14,1.199036054e-14,3.957383313e-14,1.374721461e-13,5.134573748e-14,3.351695624e-14,3.707094300e-14,1.773262141e-14,1.908151991e-14,1.249634274e-14,1.545192757e-13,2.393782096e-14
0.65625,2.662921926e-14,2.166138756e-14,7.617810793e-14,1.909397275e-14,2.301800083e-14,2.437143606e-14,5.485617543e-14,3.355681550e-14,1.826222981e-14,4.850991481e-14,1.481524087e-13,6.615631834e-14,1.539488587e-14,5.581609285e-14,6.230429637e-14,6.896097887e-14,1.379758012e-13,4.296355978e-14,9.723451518e-15,3.023631897e-13,3.120517668e-14,1.198300202e-14,3.548266404e-14,1.344797549e-13,4.800655841e-14,3.480648395e-14,3.967734955e-14,1.804556354e-14,1.972494421e-14,1.413518606e-14,1.549287977e-13,2.524476918e-14
0.66406,2.717776083e-14,2.303486572e-14,7.289326004e-14,1.823631757e-14,2.322867059e-14,2.237375773e-14,5.975190357e-14,3.496791748e-14,2.038643443e-14,5.545136725e-14,1.386905739e-13,8.130589260e-14,1.833249221e-14,6.576514170e-14,6.624200289e-14,6.960355873e-14,1.401800782e-13,4.105054607e-14,9.530548574e-15,2.974403260e-13,2.854017261e-14,1.241459569e-14,3.290236035e-14,1.311600783e-13,4.556167885e-14,3.724830806e-14,4.390223508e-14,1.904353300e-14,2.201366243e-14,1.732765067e-14,1.608537591e-13,2.719946341e-14
0.67188,2.825226285e-14,2.465465807e-14,7.046670367e-14,1.785079891e-14,2.386310130e-14,2.136456234e-14,6.576760599e-14,3.582306598e-14,2.263958794e-14,6.308215207e-14,1.314327368e-13,9.947525365e-14,2.174074487e-14,7.986755530e-14,7.221262003e-14,7.044125175e-14,1.390922923e-13,3.888986512e-14,9.315207263e-15,2.822258085e-13,2.611003129e-14,1.334180032e-14,3.228921097e-14,1.281554747e-13,4.448569233e-14,4.067942499e-14,4.966012012e-14,2.089021819e-14,2.602505114e-14,2.136488853e-14,1.728704533e-13,2.980878619e-14
0.67969,2.993228628e-14,2.628553953e-14,6.854350208e-14,1.766865955e-14,2.483221050e-14,2.122961620e-14,7.205615841e-14,3.590600924e-14,2.489460906e-14,7.060607919e-14,1.268906564e-13,1.191705749e-13,2.548897221e-14,9.735093739e-14,8.019577620e-14,7.184676888e-14,1.350625729e-13,3.644652286e-14,9.180876874e-15,2.592000806e-13,2.453449029e-14,1.483266891e-14,3.397725716e-14,1.272212229e-13,4.477982562e-14,4.495572893e-14,5.649415708e-14,2.362881714e-14,3.127582372e-14,2.576917706e-14,1.900993055e-13,3.315243281e-14
0.6875,3.217047474e-14,2.778106926e-14,6.656680598e-14,1.746777234e-14,2.568162219e-14,2.198800338e-14,7.814199798e-14,3.538671348e-14,2.721797374e-14,7.766842942e-14,1.238447680e-13,1.394902513e-13,2.941675133e-14,1.174311284e-13,8.932389039e-14,7.384099667e-14,1.289286952e-13,3.357773701e-14,9.059088230e-15,2.324595872e-13,2.393714768e-14,1.678138053e-14,3.783019124e-14,1.283605916e-13,4.633456137e-14,4.945094300e-14,6.378427634e-14,2.731953547e-14,3.742687404e-14,3.015926784e-14,2.111943401e-13,3.676372481e-14
0.69531,3.504302053e-14,2.933529607e-14,6.416389003e-14,1.737249941e-14,2.651622811e-14,2.368146445e-14,8.381406009e-14,3.419231412e-14,2.953979259e-14,8.400210582e-14,1.216020115e-13,1.595419025e-13,3.342099654e-14,1.390864283e-13,9.960324291e-14,7.666713166e-14,1.216085490e-13,3.021176674e-14,8.917252420e-15,2.046762195e-13,2.443791737e-14,1.919257953e-14,4.351619031e-14,1.327527174e-13,4.864438707e-14,5.421901412e-14,7.113133957e-14,3.165126693e-14,4.425116761e-14,3.462099351e-14,2.360298456e-13,4.082342807e-14
0.70312,3.849331509e-14,3.097033732e-14,6.175401145e-14,1.730366147e-14,2.712139187e-14,2.599547962e-14,8.827733503e-14,3.230932363e-14,3.147279063e-14,8.898521597e-14,1.202301976e-13,1.773770310e-13,3.713033110e-14,1.600779432e-13,1.102625357e-13,8.084739327e-14,1.147896738e-13,2.662946302e-14,8.712909256e-15,1.785864333e-13,2.599807534e-14,2.213548210e-14,5.060818711e-14,1.404112695e-13,5.190020065e-14,5.850990874e-14,7.741466783e-14,3.607181278e-14,5.092489405e-14,3.888395022e-14,2.640740661e-13,4.504945554e-14
0.71094,4.186245512e-14,3.243299629e-14,5.915172555e-14,1.717100849e-14,2.747272428e-14,2.913063058e-14,9.110045507e-14,3.019298829e-14,3.300680084e-14,9.219382271e-14,1.187460590e-13,1.914665542e-13,4.072362186e-14,1.790545160e-13,1.208606922e-13,8.686561617e-14,1.109093875e-13,2.372207222e-14,8.728457893e-15,1.582465883e-13,2.835604759e-14,2.564401606e-14,5.848016990e-14,1.517464072e-13,5.624837526e-14,6.187282297e-14,8.217120542e-14,4.047035446e-14,5.668681141e-14,4.270872280e-14,2.923730223e-13,4.912646585e-14
0.71875,4.480335566e-14,3.343327928e-14,5.702634524e-14,1.699871919e-14,2.731471304e-14,3.242892137e-14,9.267514399e-14,2.824452939e-14,3.418046995e-14,9.433343879e-14,1.165355546e-13,2.005289119e-13,4.415466871e-14,1.935298923e-13,1.301156143e-13,9.390850428e-14,1.101236330e-13,2.167421774e-14,9.156744135e-15,1.445683093e-13,3.069299924e-14,2.970624891e-14,6.599765451e-14,1.657507626e-13,6.115057912e-14,6.382242722e-14,8.502650291e-14,4.463751469e-14,6.110022938e-14,4.600025035e-14,3.186082432e-13,5.275703579e-14
0.72656,4.729854539e-14,3.413494937e-14,5.542638142e-14,1.684137933e-14,2.665816055e-14,3.624622209e-14,9.269441863e-14,2.652360218e-14,3.494084660e-14,9.490058592e-14,1.139404549e-13,2.040411154e-13,4.725897142e-14,2.030592125e-13,1.375651895e-13,1.016946331e-13,1.127108410e-13,2.069053047e-14,9.936862570e-15,1.385232494e-13,3.231449460e-14,3.412759278e-14,7.197091455e-14,1.811967005e-13,6.599441222e-14,6.432129431e-14,8.575304528e-14,4.814593159e-14,6.432386734e-14,4.851450592e-14,3.417726474e-13,5.584643443e-14
0.73438,4.860805280e-14,3.409438207e-14,5.496583351e-14,1.638366114e-14,2.529214491e-14,4.027947096e-14,9.074508725e-14,2.516724678e-14,3.507914568e-14,9.303307311e-14,1.104806289e-13,2.003702347e-13,5.003669959e-14,2.046154955e-13,1.415323772e-13,1.087953460e-13,1.181152075e-13,2.070476154e-14,1.113075056e-14,1.386103357e-13,3.279730852e-14,3.898001585e-14,7.577674694e-14,1.970419753e-13,7.054790001e-14,6.287733032e-14,8.338496539e-14,5.033674202e-14,6.483153179e-14,5.019458119e-14,3.605268369e-13,5.806917159e-14
0.74219,4.819041955e-14,3.326455942e-14,5.603058988e-14,1.563931294e-14,2.341840823e-14,4.458030422e-14,8.706702200e-14,2.430910626e-14,3.477220764e-14,8.903103943e-14,1.066416958e-13,1.904809832e-13,5.227145804e-14,1.990519184e-13,1.420978641e-13,1.146037474e-13,1.253625053e-13,2.173471825e-14,1.258256279e-14,1.444528969e-13,3.201921112e-14,4.385883850e-14,7.712325760e-14,2.114671088e-13,7.481735748e-14,5.961755476e-14,7.818966739e-14,5.132459296e-14,6.259391913e-14,5.074040682e-14,3.745428036e-13,5.955814748e-14
0.75,4.593957397e-14,3.193371466e-14,5.821284085e-14,1.469089259e-14,2.130397363e-14,4.934321067e-14,8.328601679e-14,2.392871727e-14,3.415791283e-14,8.396376919e-14,1.023796614e-13,1.764091777e-13,5.397675021e-14,1.870997276e-13,1.386855146e-13,1.179745380e-13,1.323356631e-13,2.341662660e-14,1.416421530e-14,1.531059649e-13,3.009002386e-14,4.843988829e-14,7.564414896e-14,2.243603522e-13,7.889491698e-14,5.498914229e-14,7.128827778e-14,5.111440099e-14,5.839210282e-14,5.007201936e-14,3.857943986e-13,5.985831769e-14
0.75781,4.236232288e-14,3.066836113e-14,6.222703980e-14,1.406298382e-14,1.920850633e-14,5.490789135e-14,7.964311548e-14,2.393724257e-14,3.340867129e-14,7.880187442e-14,9.921165495e-14,1.598286189e-13,5.501415954e-14,1.705291486e-13,1.332120183e-13,1.194895862e-13,1.386028973e-13,2.581071905e-14,1.588587915e-14,1.632807925e-13,2.734792822e-14,5.234715017e-14,7.177705072e-14,2.331801373e-13,8.245872986e-14,4.989818348e-14,6.393504693e-14,5.019581153e-14,5.350106178e-14,4.844231532e-14,3.955674998e-13,5.941453558e-14
0.76562,3.782785250e-14,2.910391186e-14,6.789480086e-14,1.338298490e-14,1.721697702e-14,6.082712509e-14,7.561854660e-14,2.445846874e-14,3.265865469e-14,7.371730210e-14,9.734670163e-14,1.420749689e-13,5.531502656e-14,1.506210886e-13,1.250927577e-13,1.176477775e-13,1.417015010e-13,2.802545885e-14,1.778281058e-14,1.717224884e-13,2.422219542e-14,5.526198356e-14,6.562917495e-14,2.370709164e-13,8.490354454e-14,4.404298807e-14,5.575685835e-14,4.869752179e-14,4.785028393e-14,4.578687495e-14,4.037901375e-13,5.797899235e-14
0.77344,3.273941783e-14,2.727439657e-14,7.513816705e-14,1.250809880e-14,1.532062029e-14,6.692790790e-14,7.124831038e-14,2.505583805e-14,3.183365004e-14,6.883653004e-14,9.634359999e-14,1.244532314e-13,5.500805184e-14,1.289835653e-13,1.149213254e-13,1.129933715e-13,1.414035267e-13,2.972622386e-14,1.982126135e-14,1.776557666e-13,2.120071750e-14,5.711749078e-14,5.812280186e-14,2.342685975e-13,8.640256007e-14,3.791902319e-14,4.739077199e-14,4.693625612e-14,4.185913793e-14,4.217828461e-14,4.107050635e-13,5.581826814e-14
0.78125,2.774195594e-14,2.538255346e-14,8.294973623e-14,1.158783449e-14,1.363825988e-14,7.278389336e-14,6.706185613e-14,2.559696654e-14,3.096697582e-14,6.500253883e-14,9.657553119e-14,1.084742966e-13,5.414606525e-14,1.080979753e-13,1.032324826e-13,1.056777267e-13,1.375622740e-13,3.050582230e-14,2.214481830e-14,1.800750421e-13,1.877565631e-14,5.777900266e-14,5.015439108e-14,2.264435212e-13,8.670086887e-14,3.187512943e-14,3.941640850e-14,4.520593482e-14,3.613569689e-14,3.809184545e-14,4.162366038e-13,5.293229985e-14
0.78906,2.321640450e-14,2.384125846e-14,9.058559693e-14,1.081909608e-14,1.214552867e-14,7.814526229e-14,6.385241644e-14,2.602446773e-14,3.013522499e-14,6.329093091e-14,9.827243400e-14,9.548864352e-14,5.300271665e-14,8.943169161e-14,9.122119037e-14,9.659201544e-14,1.305074545e-13,3.041599623e-14,2.478290114e-14,1.778583261e-13,1.715924092e-14,5.744398702e-14,4.239863841e-14,2.135996222e-13,8.541214924e-14,2.646992187e-14,3.252069048e-14,4.345629129e-14,3.128039263e-14,3.371832592e-14,4.207096661e-13,4.924938012e-14
0.79688,1.931147520e-14,2.250440134e-14,9.692265701e-14,1.019112718e-14,1.092653275e-14,8.170479411e-14,6.110158649e-14,2.608411037e-14,2.902474761e-14,6.361940895e-14,1.019186576e-13,8.511670800e-14,5.174423510e-14,7.357069147e-14,8.034287546e-14,8.769417468e-14,1.224363940e-13,2.965148176e-14,2.760596959e-14,1.736212606e-13,1.617923459e-14,5.626474409e-14,3.539095396e-14,1.969223632e-13,8.250859508e-14,2.205592798e-14,2.682475011e-14,4.152982548e-14,2.711263575e-14,2.949561876e-14,4.215371407e-13,4.505459656e-14
0.80469,1.640464694e-14,2.135656463e-14,1.019137490e-13,9.699908995e-15,9.884125619e-15,8.354182756e-14,5.855970720e-14,2.587191133e-14,2.776057981e-14,6.578898709e-14,1.064431345e-13,7.754364460e-14,5.073372184e-14,6.138455035e-14,7.014365703e-14,7.862652226e-14,1.129234786e-13,2.840044496e-14,3.065122801e-14,1.673457205e-13,1.610769475e-14,5.436604827e-14,2.925139957e-14,1.776454473e-13,7.825584022e-14,1.833374289e-14,2.204791751e-14,3.947169125e-14,2.372818254e-14,2.561686984e-14,4.184743717e-13,4.039569792e-14
0.8125,1.429735408e-14,2.035802148e-14,1.047770727e-13,9.209222466e-15,8.999235267e-15,8.382697199e-14,5.634949910e-14,2.532686615e-14,2.646149752e-14,6.990568214e-14,1.116741848e-13,7.315795225e-14,5.038232255e-14,5.347550117e-14,6.126420078e-14,7.044099481e-14,1.036244051e-13,2.701219713e-14,3.402464568e-14,1.605517229e-13,1.657217045e-14,5.209689564e-14,2.458152701e-14,1.570656863e-13,7.319423300e-14,1.554949623e-14,1.834067745e-14,3.724722830e-14,2.130120546e-14,2.224419645e-14,4.107856768e-13,3.569933146e-14
0.82031,1.292254158e-14,1.988339893e-14,1.047201159e-13,8.772343856e-15,8.358527139e-15,8.217078090e-14,5.506054273e-14,2.495147689e-14,2.531684825e-14,7.629135852e-14,1.173564386e-13,7.155462466e-14,5.051256152e-14,4.969596638e-14,5.449573871e-14,6.344288605e-14,9.488721674e-14,2.569376341e-14,3.738396514e-14,1.545920169e-13,1.769906970e-14,4.925939382e-14,2.117436846e-14,1.390613565e-13,6.757781193e-14,1.360827380e-14,1.590485218e-14,3.474811680e-14,2.002515590e-14,1.919800933e-14,4.026347376e-13,3.101622487e-14
0.82812,1.198031419e-14,1.987217719e-14,1.008617966e-13,8.331538242e-15,7.842560485e-15,7.864591190e-14,5.464506868e-14,2.469823185e-14,2.437021220e-14,8.447397722e-14,1.229443990e-13,7.201778948e-14,5.114858555e-14,4.909667804e-14,4.961704173e-14,5.781937614e-14,8.718903535e-14,2.437949897e-14,4.059675068e-14,1.493968240e-13,1.918003346e-14,4.624811690e-14,1.909130099e-14,1.240802196e-13,6.228923546e-14,1.244631543e-14,1.466181568e-14,3.210661203e-14,1.963555950e-14,1.655334820e-14,3.948445192e-13,2.640672326e-14
0.83594,1.149370434e-14,2.050032869e-14,9.506934399e-14,8.101659510e-15,7.430040959e-15,7.363535323e-14,5.476354226e-14,2.490354476e-14,2.387807645e-14,9.409142465e-14,1.279549721e-13,7.427782173e-14,5.186355206e-14,5.116299931e-14,4.696155180e-14,5.398899518e-14,8.124599512e-14,2.368112064e-14,4.336048061e-14,1.470432742e-13,2.117300874e-14,4.327682488e-14,1.862411009e-14,1.128267637e-13,5.782550091e-14,1.209450548e-14,1.447332802e-14,2.970345577e-14,2.009015352e-14,1.451099721e-14,3.883270486e-13,2.218312505e-14
0.84375,1.126622327e-14,2.137036127e-14,8.741125136e-14,8.011890491e-15,7.049779125e-15,6.798384380e-14,5.522982294e-14,2.578442178e-14,2.401978702e-14,1.047065435e-13,1.318107789e-13,7.790765702e-14,5.268560857e-14,5.514244106e-14,4.607577819e-14,5.158153599e-14,7.699190720e-14,2.350863469e-14,4.549988357e-14,1.463681195e-13,2.371659727e-14,4.049070578e-14,1.965175544e-14,1.052338764e-13,5.449434493e-14,1.242036151e-14,1.496811218e-14,2.764987939e-14,2.109413935e-14,1.338068442e-14,3.819528858e-13,1.850716549e-14
0.85156,1.098583142e-14,2.230895843e-14,7.888387295e-14,7.834952684e-15,6.704200067e-15,6.199426493e-14,5.588816255e-14,2.748019615e-14,2.476522723e-14,1.155596983e-13,1.339090720e-13,8.212347113e-14,5.301533343e-14,6.003225460e-14,4.712250180e-14,5.039637759e-14,7.354962908e-14,2.370758080e-14,4.664997354e-14,1.464014885e-13,2.667177314e-14,3.770375314e-14,2.227263066e-14,1.007137584e-13,5.283171826e-14,1.357563679e-14,1.581939218e-14,2.590570244e-14,2.203149930e-14,1.301993054e-14,3.748337480e-13,1.538359291e-14
0.85938,1.082930324e-14,2.362933916e-14,7.029440492e-14,7.803294169e-15,6.351508969e-15,5.567242297e-14,5.728295863e-14,2.983022816e-14,2.609585469e-14,1.262067471e-13,1.354634473e-13,8.707375838e-14,5.269375696e-14,6.586231229e-14,4.980258908e-14,5.060590880e-14,7.153473879e-14,2.410236471e-14,4.689773280e-14,1.470660672e-13,3.032336783e-14,3.494214067e-14,2.657884450e-14,1.003438381e-13,5.296473131e-14,1.555944519e-14,1.693298784e-14,2.452887053e-14,2.272740638e-14,1.337715776e-14,3.694478527e-13,1.298076591e-14
0.86719,1.079774979e-14,2.535832585e-14,6.243808041e-14,7.916429072e-15,6.033651156e-15,4.949112590e-14,5.897837252e-14,3.280860710e-14,2.788853779e-14,1.361275177e-13,1.366645736e-13,9.214736087e-14,5.166290292e-14,7.167665962e-14,5.388498090e-14,5.124500806e-14,6.955025393e-14,2.457543728e-14,4.608244964e-14,1.480413671e-13,3.470260587e-14,3.202951703e-14,3.248290519e-14,1.032248266e-13,5.505037858e-14,1.846299385e-14,1.835485884e-14,2.348889255e-14,2.351626305e-14,1.457514320e-14,3.699299189e-13,1.125957737e-14
0.875,1.121111699e-14,2.782587934e-14,5.666464023e-14,8.360394933e-15,5.797176216e-15,4.357496998e-14,6.129007892e-14,3.618764978e-14,2.987429027e-14,1.447707185e-13,1.385011557e-13,9.636027960e-14,4.977795327e-14,7.691385193e-14,5.945063568e-14,5.263011766e-14,6.793872517e-14,2.531608066e-14,4.459202907e-14,1.473524748e-13,3.992275179e-14,2.903627015e-14,4.035234485e-14,1.073639924e-13,5.893738156e-14,2.244964841e-14,1.996079988e-14,2.256095148e-14,2.443777673e-14,1.665924462e-14,3.771570869e-13,1.065829018e-14
0.88281,1.260855764e-14,3.139357827e-14,5.369565720e-14,9.459971629e-15,5.649546872e-15,3.808087002e-14,6.399310516e-14,3.953779310e-14,3.192791404e-14,1.517888317e-13,1.415737312e-13,1.002084689e-13,4.757147713e-14,8.217567291e-14,6.646480525e-14,5.452497424e-14,6.762021955e-14,2.649464832e-14,4.281038660e-14,1.447959060e-13,4.625003873e-14,2.607832157e-14,5.023124615e-14,1.127810039e-13,6.451308756e-14,2.725354317e-14,2.170814259e-14,2.203786675e-14,2.619277026e-14,1.978172349e-14,3.919056614e-13,1.102147811e-14
0.89062,1.495789581e-14,3.588611471e-14,5.433806542e-14,1.120316571e-14,5.484179467e-15,3.328060648e-14,6.691866512e-14,4.258319014e-14,3.401578238e-14,1.554257124e-13,1.450890905e-13,1.030910844e-13,4.587457063e-14,8.632311738e-14,7.398693068e-14,5.673834332e-14,6.887615405e-14,2.793315827e-14,4.107939187e-14,1.417846274e-13,5.342788580e-14,2.362463449e-14,6.168697914e-14,1.186234663e-13,7.149415704e-14,3.244952697e-14,2.317367554e-14,2.177120530e-14,2.849281249e-14,2.375675941e-14,4.162074041e-13,1.251296008e-14
0.89844,1.848768621e-14,4.172380545e-14,5.892527038e-14,1.375713194e-14,5.359266101e-15,2.959287940e-14,6.952556871e-14,4.549551410e-14,3.609561730e-14,1.560464054e-13,1.498660451e-13,1.056625180e-13,4.473227097e-14,9.067475416e-14,8.343395609e-14,5.969133726e-14,7.168579520e-14,2.997785520e-14,3.965470595e-14,1.386798473e-13,6.102885915e-14,2.161959064e-14,7.447131418e-14,1.229891953e-13,7.979304253e-14,3.813230314e-14,2.444390656e-14,2.199042400e-14,3.167517364e-14,2.823423181e-14,4.514226524e-13,1.496164364e-14
0.90625,2.347851825e-14,4.930900847e-14,6.730671414e-14,1.743591255e-14,5.370904446e-15,2.704637745e-14,7.182390190e-14,4.799680608e-14,3.795125255e-14,1.535558163e-13,1.567105761e-13,1.079279003e-13,4.406353981e-14,9.552001594e-14,9.566291840e-14,6.382518391e-14,7.715953538e-14,3.268926030e-14,3.865353360e-14,1.351026034e-13,6.913960027e-14,1.998848512e-14,8.786180565e-14,1.256553907e-13,8.859671823e-14,4.372039982e-14,2.527733309e-14,2.249535220e-14,3.609225578e-14,3.337219256e-14,4.992088394e-13,1.831000517e-14
0.91406,2.939545551e-14,5.819879597e-14,7.860520701e-14,2.242201561e-14,5.626786686e-15,2.536659488e-14,7.332089542e-14,4.981461038e-14,3.957526388e-14,1.484433408e-13,1.646887007e-13,1.098032064e-13,4.371416677e-14,1.013434504e-13,1.117229254e-13,7.012748439e-14,8.583755412e-14,3.580551664e-14,3.771660793e-14,1.324536215e-13,7.682267455e-14,1.841024641e-14,1.006872173e-13,1.250590125e-13,9.714553852e-14,4.898060403e-14,2.583698568e-14,2.332328528e-14,4.135806198e-14,3.844550537e-14,5.550371482e-13,2.234980717e-14
0.92188,3.583396781e-14,6.790988042e-14,9.135116755e-14,2.855903219e-14,6.449672529e-15,2.488124555e-14,7.408758462e-14,5.128306539e-14,4.117311481e-14,1.418546441e-13,1.732343376e-13,1.119238685e-13,4.398396471e-14,1.092520665e-13,1.326402298e-13,7.903694709e-14,9.757170246e-14,3.947484906e-14,3.681662694e-14,1.305241726e-13,8.314456441e-14,1.699726733e-14,1.114492470e-13,1.224186348e-13,1.042569284e-13,5.368262406e-14,2.639539611e-14,2.456591765e-14,4.750065069e-14,4.314363103e-14,6.150451280e-13,2.672136050e-14
0.92969,4.236319259e-14,7.745234730e-14,1.039641100e-13,3.554163834e-14,7.726320568e-15,2.526357279e-14,7.381866408e-14,5.219014825e-14,4.247518381e-14,1.340684384e-13,1.820410407e-13,1.141868066e-13,4.498005460e-14,1.198132801e-13,1.600407637e-13,9.135851219e-14,1.121673758e-13,4.355479274e-14,3.614255503e-14,1.290086441e-13,8.768991983e-14,1.602055733e-14,1.196494636e-13,1.176934403e-13,1.093520215e-13,5.789520189e-14,2.727168719e-14,2.624902051e-14,5.452842799e-14,4.802545996e-14,6.727789023e-13,3.085579911e-14
0.9375,4.905395651e-14,8.695955937e-14,1.152995196e-13,4.391863213e-14,9.381616863e-15,2.641693609e-14,7.221555891e-14,5.282556541e-14,4.361608829e-14,1.263124926e-13,1.904066504e-13,1.164030014e-13,4.563445142e-14,1.326081259e-13,1.943397953e-13,1.073789797e-13,1.294363056e-13,4.830440621e-14,3.587250760e-14,1.277939051e-13,9.053336529e-14,1.521878603e-14,1.235711657e-13,1.119406905e-13,1.108256378e-13,6.049270238e-14,2.820910064e-14,2.820449851e-14,6.269517554e-14,5.300954111e-14,7.238795317e-13,3.395860372e-14
0.94531,5.483074732e-14,9.533423158e-14,1.232439778e-13,5.388631962e-14,1.188184917e-14,2.872498736e-14,6.987449731e-14,5.318264385e-14,4.429701150e-14,1.187907600e-13,1.971614748e-13,1.183746393e-13,4.572094542e-14,1.486055899e-13,2.361437544e-13,1.273121099e-13,1.493845453e-13,5.363708494e-14,3.578312548e-14,1.273322280e-13,9.131097497e-14,1.456125495e-14,1.232836051e-13,1.056083492e-13,1.093575626e-13,6.157676841e-14,2.969592102e-14,3.014880471e-14,7.125428185e-14,5.772041745e-14,7.612224578e-13,3.588863802e-14
0.95312,5.870819222e-14,1.012147215e-13,1.264028840e-13,6.441765174e-14,1.540455846e-14,3.175108103e-14,6.653101740e-14,5.313377542e-14,4.448467953e-14,1.119190832e-13,2.011116615e-13,1.201422547e-13,4.584218910e-14,1.679338609e-13,2.843775939e-13,1.495923855e-13,1.696242250e-13,5.917884352e-14,3.564966404e-14,1.275669069e-13,8.985158402e-14,1.422676444e-14,1.188732279e-13,9.973459637e-14,1.045713198e-13,6.144530465e-14,3.181749106e-14,3.239069820e-14,7.967115639e-14,6.301637742e-14,7.775300409e-13,3.659167303e-14
0.96094,6.093995103e-14,1.036833456e-13,1.245083674e-13,7.429574860e-14,1.945847432e-14,3.540022491e-14,6.327657797e-14,5.238298105e-14,4.427730777e-14,1.059262087e-13,2.020169265e-13,1.221354275e-13,4.593804535e-14,1.891997397e-13,3.356588579e-13,1.715719032e-13,1.874877662e-13,6.442553635e-14,3.539057088e-14,1.275725770e-13,8.636703096e-14,1.432713063e-14,1.112357577e-13,9.560323397e-14,9.726093410e-14,6.031289315e-14,3.434120816e-14,3.509319230e-14,8.710278809e-14,6.995004005e-14,7.702275230e-13,3.600372972e-14
0.96875,6.212875341e-14,1.032848223e-13,1.182902141e-13,8.338535317e-14,2.386784255e-14,3.942363930e-14,6.059556540e-14,5.074594055e-14,4.364090669e-14,1.010512264e-13,2.004195726e-13,1.249681755e-13,4.604199845e-14,2.120234744e-13,3.886848022e-13,1.924326522e-13,2.013929767e-13,6.915568831e-14,3.510379667e-14,1.261796478e-13,8.146421718e-14,1.472776892e-14,1.021549312e-13,9.286921728e-14,8.937020464e-14,5.910138906e-14,3.790124423e-14,3.853562405e-14,9.355920052e-14,7.841585184e-14,7.407111278e-13,3.434134163e-14
0.97656,6.272655698e-14,1.004897283e-13,1.087959948e-13,9.183426485e-14,2.884578336e-14,4.351962247e-14,5.873310175e-14,4.810516184e-14,4.263239143e-14,9.717161818e-14,1.968379916e-13,1.286476067e-13,4.687840218e-14,2.362795688e-13,4.403345426e-13,2.109764181e-13,2.109595692e-13,7.329946252e-14,3.504104165e-14,1.232499276e-13,7.586670826e-14,1.546892893e-14,9.269036111e-14,9.200689213e-14,8.142296162e-14,5.831428779e-14,4.283325228e-14,4.282011876e-14,9.924148604e-14,8.895357132e-14,6.945405557e-13,3.209946316e-14
0.98438,6.332242782e-14,9.634746863e-14,9.712900740e-14,9.964379727e-14,3.436795835e-14,4.792755212e-14,5.868124244e-14,4.448378540e-14,4.165968851e-14,9.455155603e-14,1.919649500e-13,1.340441952e-13,4.865323346e-14,2.615867672e-13,4.875170742e-13,2.245814426e-13,2.137924991e-13,7.656058853e-14,3.554394936e-14,1.188395563e-13,6.987022495e-14,1.654478940e-14,8.380057403e-14,9.237908220e-14,7.498129264e-14,5.827959193e-14,4.954862646e-14,4.840531079e-14,1.046819042e-13,1.024440850e-13,6.382707460e-13,2.972174223e-14
0.99219,6.460402913e-14,9.235000993e-14,8.557359276e-14,1.070373113e-13,4.049925915e-14,5.294285708e-14,6.029941787e-14,4.026902297e-14,4.082778133e-14,9.324704330e-14,1.874342041e-13,1.412231020e-13,5.126421848e-14,2.874410047e-13,5.295186900e-13,2.332437011e-13,2.110611223e-13,7.842661124e-14,3.632704090e-14,1.127028821e-13,6.379034378e-14,1.784111040e-14,7.653520022e-14,9.313201572e-14,7.091162852e-14,5.896591559e-14,5.825603333e-14,5.537644081e-14,1.104203902e-13,1.187255429e-13,5.782283622e-13,2.759130260e-14
1,6.633531819e-14,8.832505169e-14,7.462607828e-14,1.135567279e-13,4.732921119e-14,5.866669946e-14,6.323054329e-14,3.602256750e-14,4.021562678e-14,9.175547180e-14,1.826624799e-13,1.490791141e-13,5.471370873e-14,3.128318412e-13,5.652251276e-13,2.363881630e-13,2.030353140e-13,7.864916186e-14,3.721002562e-14,1.055848872e-13,5.760367985e-14,1.904485519e-14,7.094101034e-14,9.407844666e-14,6.968534137e-14,5.990738765e-14,6.870301168e-14,6.340074214e-14,1.159963648e-13,1.364288812e-13,5.203292326e-13,2.595863762e-14
1.0078,6.882154179e-14,8.484744487e-14,6.568894189e-14,1.191722098e-13,5.456186236e-14,6.513644048e-14,6.673783039e-14,3.185909581e-14,4.011759797e-14,8.984605474e-14,1.782109584e-13,1.574037327e-13,5.956851856e-14,3.374254598e-13,5.943482229e-13,2.346650749e-13,1.907080413e-13,7.684520960e-14,3.801523084e-14,9.772310258e-14,5.142718686e-14,2.017554900e-14,6.712387805e-14,9.476803507e-14,7.184398382e-14,6.075257424e-14,8.040313906e-14,7.263275376e-14,1.216061603e-13,1.556674074e-13,4.676803220e-13,2.489932250e-14
1.0156,7.192154550e-14,8.217073360e-14,5.909894999e-14,1.235561371e-13,6.173369700e-14,7.223156816e-14,7.010913807e-14,2.823708815e-14,4.098061933e-14,8.793208421e-14,1.745040939e-13,1.665851184e-13,6.587680855e-14,3.609657169e-13,6.174747203e-13,2.293509575e-13,1.757216190e-13,7.311499993e-14,3.848048135e-14,9.015011570e-14,4.571293215e-14,2.091659022e-14,6.471487507e-14,9.562630182e-14,7.666395085e-14,6.146195408e-14,9.328175334e-14,8.296763346e-14,1.273910792e-13,1.754249896e-13,4.212349461e-13,2.439275757e-14
1.0234,7.516552671e-14,8.057637202e-14,5.496531937e-14,1.263850020e-13,6.820694015e-14,7.935105128e-14,7.298011011e-14,2.557894663e-14,4.294073936e-14,8.488020397e-14,1.704432579e-13,1.755806258e-13,7.383389721e-14,3.819660358e-13,6.350499215e-13,2.222083862e-13,1.603442965e-13,6.854133635e-14,3.921065686e-14,8.310103135e-14,4.068784449e-14,2.137785192e-14,6.376520116e-14,9.625391119e-14,8.395296728e-14,6.226181001e-14,1.073184667e-13,9.347469814e-14,1.336805099e-13,1.947124952e-13,3.832461110e-13,2.463334197e-14
1.0312,7.771347866e-14,7.942074083e-14,5.368902241e-14,1.272841711e-13,7.326739053e-14,8.588064701e-14,7.441256282e-14,2.415836862e-14,4.583077189e-14,8.104022399e-14,1.658607487e-13,1.827987190e-13,8.327960065e-14,3.978325326e-13,6.461987500e-13,2.152103328e-13,1.476532965e-13,6.438013649e-14,4.048307221e-14,7.737985901e-14,3.583203604e-14,2.192766402e-14,6.372705689e-14,9.643187999e-14,9.285396468e-14,6.270889967e-14,1.207459717e-13,1.035564209e-13,1.396575326e-13,2.122219792e-13,3.522678267e-13,2.543434969e-14
1.0391,7.876769525e-14,7.784542095e-14,5.454975006e-14,1.255868865e-13,7.655089501e-14,9.056973215e-14,7.398071645e-14,2.397535497e-14,4.920435885e-14,7.604546759e-14,1.603747139e-13,1.862176230e-13,9.342301223e-14,4.055575233e-13,6.478876659e-13,2.074443183e-13,1.372671096e-13,6.044728205e-14,4.191778294e-14,7.312669225e-14,3.129096501e-14,2.263045774e-14,6.446507569e-14,9.618420363e-14,1.022239612e-13,6.225744169e-14,1.316758932e-13,1.120544483e-13,1.440269576e-13,2.260686541e-13,3.289914628e-13,2.668287811e-14
1.0469,7.828484107e-14,7.555362594e-14,5.706988907e-14,1.208065785e-13,7.780676642e-14,9.288014299e-14,7.200821454e-14,2.459151474e-14,5.270428718e-14,7.014924639e-14,1.536243324e-13,1.855532127e-13,1.034631836e-13,4.038512671e-13,6.382855688e-13,1.987323832e-13,1.287780186e-13,5.670346935e-14,4.336398840e-14,7.035123083e-14,2.731473542e-14,2.345519045e-14,6.553507834e-14,9.530506809e-14,1.107716860e-13,6.098630581e-14,1.396042146e-13,1.184572710e-13,1.461609437e-13,2.362120269e-13,3.093605593e-13,2.821346257e-14
1.0547,7.588003150e-14,7.200730416e-14,6.093466446e-14,1.126722988e-13,7.672946973e-14,9.201306031e-14,6.949141930e-14,2.588178754e-14,5.584097289e-14,6.435683956e-14,1.453410422e-13,1.808781949e-13,1.123282643e-13,3.919028154e-13,6.154846330e-13,1.889749621e-13,1.227116130e-13,5.341292415e-14,4.509870460e-14,6.865831932e-14,2.396264693e-14,2.405226897e-14,6.703865221e-14,9.446195854e-14,1.179950522e-13,5.911707276e-14,1.441690761e-13,1.221927329e-13,1.452330702e-13,2.419260565e-13,2.894425111e-13,2.964973883e-14
1.0625,7.235230159e-14,6.751437165e-14,6.605841027e-14,1.017835520e-13,7.307435298e-14,8.837563383e-14,6.728790195e-14,2.757423929e-14,5.801030906e-14,5.888578714e-14,1.355629170e-13,1.722275188e-13,1.199378902e-13,3.698971541e-13,5.780235253e-13,1.774386024e-13,1.188256554e-13,5.113188618e-14,4.767785268e-14,6.895374548e-14,2.163893117e-14,2.467311051e-14,6.865390873e-14,9.395414580e-14,1.239957266e-13,5.644842249e-14,1.456679074e-13,1.231464690e-13,1.416775948e-13,2.436058503e-13,2.695993669e-13,3.046318028e-14
1.0703,6.861331093e-14,6.222196377e-14,7.209813101e-14,8.936404166e-14,6.715702357e-14,8.233541200e-14,6.507215615e-14,2.923623474e-14,5.883675954e-14,5.365829336e-14,1.248240112e-13,1.591706667e-13,1.253195439e-13,3.384926623e-13,5.282927727e-13,1.646379387e-13,1.167609419e-13,4.965786705e-14,5.070131562e-14,7.079848910e-14,2.046726446e-14,2.553180786e-14,6.992910379e-14,9.326866424e-14,1.280833630e-13,5.288194857e-14,1.435255394e-13,1.216688024e-13,1.352219578e-13,2.422620213e-13,2.517038342e-13,3.088642469e-14
1.0781,6.522085374e-14,5.683091149e-14,7.916034633e-14,7.658859562e-14,6.034539828e-14,7.482019101e-14,6.412093772e-14,3.073613795e-14,5.811968182e-14,4.861663491e-14,1.151415163e-13,1.432499708e-13,1.273256793e-13,3.016632756e-13,4.711311502e-13,1.506539894e-13,1.151065431e-13,4.843209440e-14,5.386204241e-14,7.345459961e-14,2.065923665e-14,2.634727365e-14,7.181951831e-14,9.266363501e-14,1.306841241e-13,4.922412691e-14,1.385143469e-13,1.180455770e-13,1.264216141e-13,2.378631416e-13,2.348515459e-13,3.143499440e-14
1.0859,6.297748268e-14,5.197598640e-14,8.646764289e-14,6.436130973e-14,5.338159150e-14,6.627412942e-14,6.512800967e-14,3.200253507e-14,5.601806891e-14,4.446078483e-14,1.067828187e-13,1.263927436e-13,1.260661794e-13,2.625648842e-13,4.108348514e-13,1.359049811e-13,1.127945540e-13,4.723879778e-14,5.705953954e-14,7.589674146e-14,2.262640047e-14,2.702314796e-14,7.495487516e-14,9.250522123e-14,1.328011592e-13,4.613080342e-14,1.320026164e-13,1.128040221e-13,1.165012367e-13,2.310014212e-13,2.184657830e-13,3.215689951e-14
1.0938,6.236437046e-14,4.791626065e-14,9.416581589e-14,5.349727688e-14,4.683750773e-14,5.735633928e-14,6.852576492e-14,3.330212869e-14,5.253641735e-14,4.115417709e-14,9.899642697e-14,1.087134910e-13,1.212303021e-13,2.226361011e-13,3.502166503e-13,1.209395911e-13,1.099050067e-13,4.631072325e-14,6.024577980e-14,7.735534764e-14,2.642829375e-14,2.745734305e-14,7.953409620e-14,9.287392812e-14,1.346188430e-13,4.350292435e-14,1.239856647e-13,1.057870868e-13,1.056161604e-13,2.213210293e-13,2.040805554e-13,3.323014374e-14
1.1016,6.334283980e-14,4.501794743e-14,1.023192539e-13,4.464231738e-14,4.147005859e-14,4.890848628e-14,7.420758667e-14,3.458474704e-14,4.793211470e-14,3.834375896e-14,9.261719754e-14,9.166898738e-14,1.138360863e-13,1.850137341e-13,2.933440655e-13,1.059247575e-13,1.058097959e-13,4.498740321e-14,6.266190965e-14,7.794233565e-14,3.243379581e-14,2.782507019e-14,8.641771105e-14,9.373808044e-14,1.379007846e-13,4.180407850e-14,1.151731520e-13,9.727520020e-14,9.432381347e-14,2.094358205e-13,1.976302618e-13,3.500715669e-14
1.1094,6.621179532e-14,4.346296571e-14,1.110621708e-13,3.781616066e-14,3.757313400e-14,4.149826327e-14,8.204335268e-14,3.582216550e-14,4.308759898e-14,3.604799643e-14,8.709700508e-14,7.659251407e-14,1.054873442e-13,1.514641924e-13,2.423618561e-13,9.137841647e-14,9.985701809e-14,4.339530848e-14,6.493353228e-14,7.694422211e-14,4.102422803e-14,2.853426217e-14,9.620194130e-14,9.619415075e-14,1.430944925e-13,4.112811473e-14,1.060136011e-13,8.840010333e-14,8.357773671e-14,1.969348080e-13,1.981224436e-13,3.776053999e-14
1.1172,7.114569676e-14,4.368823974e-14,1.210189565e-13,3.294520152e-14,3.531294607e-14,3.545249499e-14,9.109915118e-14,3.709725603e-14,3.869845868e-14,3.399314302e-14,8.195614535e-14,6.360215425e-14,9.736263306e-14,1.218595389e-13,1.967244606e-13,7.706701266e-14,9.294760099e-14,4.230329328e-14,6.760806375e-14,7.438959780e-14,5.244999244e-14,2.991034189e-14,1.086879877e-13,1.006132381e-13,1.497969132e-13,4.146435037e-14,9.675676314e-14,7.958544583e-14,7.387128416e-14,1.838556927e-13,2.073683497e-13,4.155121893e-14
1.125,7.884456478e-14,4.638154029e-14,1.316491825e-13,3.052021243e-14,3.491510843e-14,3.105551840e-14,1.003852979e-13,3.840953413e-14,3.515666993e-14,3.226219369e-14,7.717784424e-14,5.341019196e-14,8.972216358e-14,9.756839966e-14,1.591027041e-13,6.413578925e-14,8.558240305e-14,4.163968704e-14,7.072685023e-14,7.060266558e-14,6.664272140e-14,3.208976578e-14,1.237671001e-13,1.064869812e-13,1.576001810e-13,4.345720112e-14,8.838501704e-14,7.152011513e-14,6.601107100e-14,1.716156247e-13,2.235308287e-13,4.625094402e-14
1.1328,8.891922550e-14,5.159039702e-14,1.430581275e-13,3.005715578e-14,3.607119683e-14,2.832114118e-14,1.079607374e-13,3.977118071e-14,3.238550810e-14,3.078605581e-14,7.265464080e-14,4.546149267e-14,8.276713775e-14,7.774695858e-14,1.280842109e-13,5.278919646e-14,7.820674648e-14,4.157086095e-14,7.398374116e-14,6.585256966e-14,8.357954146e-14,3.482289913e-14,1.397865020e-13,1.134479620e-13,1.645779182e-13,4.651062539e-14,8.049328423e-14,6.410665926e-14,6.018124160e-14,1.603994060e-13,2.460688575e-13,5.123952262e-14
1.1406,1.004706984e-13,5.854774479e-14,1.552005124e-13,3.108464242e-14,3.853382590e-14,2.715954169e-14,1.132710802e-13,4.103148389e-14,3.035375883e-14,2.903023957e-14,6.796542251e-14,3.950270206e-14,7.727031206e-14,6.222354418e-14,1.037560146e-13,4.310775532e-14,7.185879850e-14,4.215864593e-14,7.746221389e-14,6.082209879e-14,1.026748556e-13,3.829298458e-14,1.563669362e-13,1.210813262e-13,1.703885812e-13,5.040960476e-14,7.326722595e-14,5.771580640e-14,5.629618041e-14,1.514219781e-13,2.741020465e-13,5.638699358e-14
1.1484,1.130699180e-13,6.707967493e-14,1.667433436e-13,3.320802965e-14,4.163655851e-14,2.760061289e-14,1.143068897e-13,4.218461653e-14,2.941102127e-14,2.696331584e-14,6.278193921e-14,3.516837639e-14,7.380830771e-14,5.039162323e-14,8.499748293e-14,3.532513755e-14,6.682749828e-14,4.375661835e-14,8.132686957e-14,5.595970481e-14,1.227860474e-13,4.249544693e-14,1.707977583e-13,1.294530051e-13,1.731552199e-13,5.397394638e-14,6.626698456e-14,5.310789280e-14,5.436469127e-14,1.459308864e-13,3.035898802e-13,6.100122119e-14
1.1562,1.267180839e-13,7.723620272e-14,1.766968559e-13,3.669889369e-14,4.528992613e-14,2.922416795e-14,1.111393578e-13,4.343024044e-14,2.938052563e-14,2.467065311e-14,5.769333049e-14,3.213239426e-14,7.158932705e-14,4.151377173e-14,7.140905667e-14,2.926532962e-14,6.395053168e-14,4.665200886e-14,8.601207261e-14,5.143661635e-14,1.421987094e-13,4.770863406e-14,1.819621193e-13,1.372341233e-13,1.712973629e-13,5.697922826e-14,5.938560732e-14,4.994622370e-14,5.435274836e-14,1.447492026e-13,3.315099652e-13,6.474245053e-14
1.1641,1.396812343e-13,8.746816375e-14,1.839813066e-13,4.128508062e-14,4.941556427e-14,3.153189434e-14,1.044187379e-13,4.424013185e-14,2.968046574e-14,2.264298067e-14,5.314231069e-14,3.025469502e-14,6.975189078e-14,3.542726795e-14,6.272604761e-14,2.497046277e-14,6.277961747e-14,5.037352149e-14,9.071158963e-14,4.736594379e-14,1.594371169e-13,5.287752948e-14,1.887385065e-13,1.434224215e-13,1.653586407e-13,5.945666108e-14,5.313459433e-14,4.815202850e-14,5.556773673e-14,1.469436341e-13,3.520312262e-13,6.699608520e-14
1.1719,1.496787620e-13,9.577668589e-14,1.883820497e-13,4.617319215e-14,5.382668626e-14,3.410988196e-14,9.606075063e-14,4.465572674e-14,2.985304691e-14,2.076807283e-14,4.850400849e-14,2.921914953e-14,6.795738133e-14,3.169156351e-14,5.796920546e-14,2.228204513e-14,6.317370252e-14,5.464190649e-14,9.522751517e-14,4.409724722e-14,1.730989970e-13,5.749689425e-14,1.900733365e-13,1.481389182e-13,1.553449391e-13,6.151458064e-14,4.753098479e-14,4.710521016e-14,5.734227868e-14,1.508756882e-13,3.585848796e-13,6.750228762e-14
1.1797,1.558575200e-13,1.019316567e-13,1.900914197e-13,5.136443994e-14,5.798316806e-14,3.663947118e-14,8.700704788e-14,4.452392182e-14,2.978681621e-14,1.907445065e-14,4.423170159e-14,2.902325356e-14,6.608721095e-14,3.023615928e-14,5.677465125e-14,2.091098561e-14,6.570293551e-14,5.936294421e-14,9.911815353e-14,4.207997780e-14,1.819929021e-13,6.142565909e-14,1.857825873e-13,1.510946412e-13,1.426562385e-13,6.283773113e-14,4.310558807e-14,4.655661067e-14,5.985239576e-14,1.552896379e-13,3.544056537e-13,6.656023215e-14
1.1875,1.578089087e-13,1.055712303e-13,1.877235561e-13,5.683074963e-14,6.156150482e-14,3.851213234e-14,7.820996279e-14,4.392675604e-14,2.938134696e-14,1.801581042e-14,4.071007774e-14,2.977211991e-14,6.373619188e-14,3.065726761e-14,5.901764545e-14,2.082355474e-14,6.959971872e-14,6.418938366e-14,1.021172891e-13,4.127857023e-14,1.852950020e-13,6.510986065e-14,1.766150157e-13,1.520493466e-13,1.280012238e-13,6.307064700e-14,3.949904644e-14,4.591667652e-14,6.270369256e-14,1.585739948e-13,3.437267055e-13,6.428092209e-14
1.1953,1.557684719e-13,1.065004250e-13,1.803041808e-13,6.254775839e-14,6.459356145e-14,3.943854438e-14,7.080499107e-14,4.293726547e-14,2.854220736e-14,1.777120523e-14,3.815973731e-14,3.144246387e-14,6.082548603e-14,3.265696318e-14,6.303038576e-14,2.154922070e-14,7.385004939e-14,6.877108867e-14,1.042318162e-13,4.164934695e-14,1.835117918e-13,6.839338033e-14,1.644889989e-13,1.521313780e-13,1.135380753e-13,6.281229282e-14,3.688832585e-14,4.483584898e-14,6.552767280e-14,1.597381097e-13,3.297631276e-13,6.102485684e-14
1.2031,1.499978838e-13,1.047592439e-13,1.691042776e-13,6.844015997e-14,6.750986705e-14,4.004113747e-14,6.567471313e-14,4.157692429e-14,2.727243750e-14,1.828543380e-14,3.688631034e-14,3.427347583e-14,5.736457628e-14,3.624963896e-14,6.868302232e-14,2.283545489e-14,7.826355958e-14,7.298157037e-14,1.052847334e-13,4.297967752e-14,1.768534230e-13,7.086431190e-14,1.499726918e-13,1.508051066e-13,1.003494010e-13,6.272096547e-14,3.526301748e-14,4.330246729e-14,6.823369331e-14,1.581457770e-13,3.132523072e-13,5.727423080e-14
1.2109,1.404056463e-13,1.003580617e-13,1.563161016e-13,7.398792173e-14,6.980509417e-14,3.997593106e-14,6.391375244e-14,3.987926045e-14,2.553590772e-14,1.983261793e-14,3.653875995e-14,3.859888514e-14,5.354392789e-14,4.106813660e-14,7.412817945e-14,2.446389382e-14,8.200047891e-14,7.601932846e-14,1.049474012e-13,4.510584048e-14,1.665293081e-13,7.227032511e-14,1.353987776e-13,1.482994925e-13,8.959577812e-14,6.342666340e-14,3.501538412e-14,4.075639534e-14,7.068397301e-14,1.525419175e-13,2.972599450e-13,5.341189270e-14
1.2188,1.292631703e-13,9.516802052e-14,1.423266916e-13,7.932349842e-14,7.109567518e-14,4.006024936e-14,6.467418589e-14,3.805259155e-14,2.392726230e-14,2.250177959e-14,3.716797908e-14,4.461357209e-14,4.990360951e-14,4.683783196e-14,7.874285013e-14,2.596177592e-14,8.446222071e-14,7.797046994e-14,1.037254104e-13,4.814334797e-14,1.547092480e-13,7.319357798e-14,1.215876386e-13,1.461275646e-13,8.146223432e-14,6.405952088e-14,3.580946351e-14,3.773353237e-14,7.371593259e-14,1.444375011e-13,2.832112539e-13,4.977426923e-14
1.2266,1.183294460e-13,9.047402617e-14,1.287259479e-13,8.455402394e-14,7.151067543e-14,4.047348057e-14,6.762439153e-14,3.631894595e-14,2.237505495e-14,2.604519054e-14,3.896531984e-14,5.217590277e-14,4.622406809e-14,5.330594935e-14,8.229252733e-14,2.755753364e-14,8.637172753e-14,7.896744474e-14,1.019741805e-13,5.149086023e-14,1.432963389e-13,7.352922879e-14,1.104216752e-13,1.445389353e-13,7.594572442e-14,6.456369514e-14,3.695591586e-14,3.413997921e-14,7.699933339e-14,1.343952986e-13,2.746301740e-13,4.684709650e-14
1.2344,1.082820959e-13,8.624405499e-14,1.162688874e-13,8.935020286e-14,7.116045238e-14,4.095571138e-14,7.219477618e-14,3.459829331e-14,2.105156455e-14,3.051331254e-14,4.188707375e-14,6.099807313e-14,4.312117189e-14,6.025516788e-14,8.494586126e-14,2.937314615e-14,8.728105057e-14,7.871106695e-14,9.961424812e-14,5.517868635e-14,1.331511963e-13,7.314139773e-14,1.018998277e-13,1.440323345e-13,7.372733647e-14,6.534771206e-14,3.834167440e-14,3.048026226e-14,7.986798499e-14,1.237027272e-13,2.704081932e-13,4.467737872e-14
1.2422,9.935307301e-14,8.258661573e-14,1.054198113e-13,9.369592371e-14,7.073002451e-14,4.190725724e-14,7.743129056e-14,3.329690374e-14,2.016060581e-14,3.567225552e-14,4.547112785e-14,7.030459423e-14,4.061310921e-14,6.763824700e-14,8.738415151e-14,3.205479591e-14,8.846300986e-14,7.804805611e-14,9.698559476e-14,5.967121330e-14,1.251549662e-13,7.180911688e-14,9.539136978e-14,1.446496315e-13,7.407391146e-14,6.649678966e-14,4.010058692e-14,2.718222279e-14,8.241215610e-14,1.138568500e-13,2.679516199e-13,4.352569727e-14
1.25,9.204098720e-14,7.987292349e-14,9.704992170e-14,9.755679255e-14,7.037257989e-14,4.325922607e-14,8.258082447e-14,3.223960424e-14,1.949782391e-14,4.124054434e-14,4.941004660e-14,7.936525156e-14,3.854616858e-14,7.590560451e-14,9.001197224e-14,3.547960947e-14,8.985917132e-14,7.699182663e-14,9.433034782e-14,6.447850703e-14,1.195909654e-13,6.912892140e-14,9.074161613e-14,1.460534791e-13,7.654897422e-14,6.773926310e-14,4.214452122e-14,2.446059689e-14,8.450189901e-14,1.054188829e-13,2.658209632e-13,4.350806729e-14
1.2578,8.648235303e-14,7.777387897e-14,9.151253111e-14,1.008471568e-13,6.999238659e-14,4.516535410e-14,8.696762177e-14,3.118154628e-14,1.890703041e-14,4.681457706e-14,5.350648914e-14,8.721454476e-14,3.697316449e-14,8.449035725e-14,9.368581116e-14,3.951733553e-14,9.136751951e-14,7.570987861e-14,9.219786496e-14,6.920345986e-14,1.165360283e-13,6.515317308e-14,8.792980174e-14,1.481885247e-13,8.036649497e-14,6.844425132e-14,4.389748650e-14,2.255207973e-14,8.552029307e-14,9.916857325e-14,2.619088811e-13,4.438191822e-14
1.2656,8.190019128e-14,7.581152647e-14,8.910087314e-14,1.036604330e-13,6.977506553e-14,4.800751707e-14,8.979367136e-14,3.029017953e-14,1.835635247e-14,5.218929705e-14,5.690422838e-14,9.312457574e-14,3.591428592e-14,9.260273714e-14,9.780501635e-14,4.466299139e-14,9.467351361e-14,7.504325057e-14,9.063709988e-14,7.382994639e-14,1.150744490e-13,6.015029436e-14,8.497525252e-14,1.500851819e-13,8.409539602e-14,6.823868467e-14,4.500625413e-14,2.161952465e-14,8.498906051e-14,9.479126182e-14,2.591493137e-13,4.579961826e-14
1.2734,7.884642030e-14,7.406788908e-14,9.031245643e-14,1.061934253e-13,6.946241296e-14,5.164094662e-14,9.156678863e-14,2.911845816e-14,1.756136056e-14,5.707959156e-14,5.954500603e-14,9.636730093e-14,3.579038456e-14,9.983683645e-14,1.024835100e-13,5.068254999e-14,9.930167158e-14,7.472059111e-14,8.968196089e-14,7.859140240e-14,1.157262320e-13,5.525005910e-14,8.244554021e-14,1.515509479e-13,8.757101150e-14,6.706628459e-14,4.570819987e-14,2.171946515e-14,8.287982795e-14,9.305213090e-14,2.604825805e-13,4.766975006e-14
1.2812,7.652073958e-14,7.213123019e-14,9.441850886e-14,1.079498927e-13,6.864676129e-14,5.580190443e-14,9.268858412e-14,2.792114245e-14,1.671014800e-14,6.173598940e-14,6.118688800e-14,9.683382520e-14,3.630264081e-14,1.053578857e-13,1.070898329e-13,5.728354814e-14,1.057165634e-13,7.479051053e-14,8.962439599e-14,8.277153552e-14,1.178172217e-13,5.067868950e-14,7.931654543e-14,1.524103120e-13,8.969515223e-14,6.436729353e-14,4.535810809e-14,2.264514598e-14,7.876058045e-14,9.287748887e-14,2.667716984e-13,4.934178528e-14
1.2891,7.373582809e-14,6.923325806e-14,1.002354314e-13,1.082396990e-13,6.707695848e-14,6.037367548e-14,9.345572785e-14,2.674747493e-14,1.575456320e-14,6.642898932e-14,6.255919783e-14,9.440692675e-14,3.724080805e-14,1.083842633e-13,1.110093234e-13,6.362015424e-14,1.138274515e-13,7.535019935e-14,9.028376336e-14,8.655313313e-14,1.205425902e-13,4.611347969e-14,7.551524390e-14,1.526363718e-13,8.986121189e-14,6.051174129e-14,4.388916859e-14,2.390401746e-14,7.257557018e-14,9.175938855e-14,2.802074089e-13,5.060375652e-14
1.2969,7.064259457e-14,6.579407406e-14,1.072634701e-13,1.078871997e-13,6.496613228e-14,6.542024699e-14,9.407058188e-14,2.555753058e-14,1.480852751e-14,7.104757146e-14,6.382128030e-14,8.980907849e-14,3.868888131e-14,1.085332057e-13,1.130909226e-13,6.916567104e-14,1.229006447e-13,7.615049331e-14,9.127431435e-14,9.005908226e-14,1.238653772e-13,4.171877118e-14,7.085330342e-14,1.523022902e-13,8.782049882e-14,5.554744642e-14,4.187465176e-14,2.550160645e-14,6.533299232e-14,8.956403206e-14,2.976577063e-13,5.101327590e-14
1.3047,6.881437550e-14,6.257543216e-14,1.145597335e-13,1.073165416e-13,6.243210412e-14,7.076096813e-14,9.468918775e-14,2.470507162e-14,1.405395002e-14,7.606589581e-14,6.552982820e-14,8.424394592e-14,4.060556933e-14,1.061925130e-13,1.130978781e-13,7.329604769e-14,1.324686342e-13,7.709755034e-14,9.269162494e-14,9.309775693e-14,1.281962957e-13,3.805635447e-14,6.600606582e-14,1.520672614e-13,8.360010986e-14,4.960241643e-14,3.943326770e-14,2.728648816e-14,5.818546610e-14,8.755288652e-14,3.148212702e-13,5.012766308e-14
1.3125,6.701616603e-14,5.905024084e-14,1.196616932e-13,1.057452736e-13,5.930627911e-14,7.514698444e-14,9.587434345e-14,2.418385115e-14,1.346615466e-14,8.180319283e-14,6.872076093e-14,7.834517362e-14,4.301321190e-14,1.013172444e-13,1.098368944e-13,7.532518526e-14,1.417416486e-13,7.803547064e-14,9.486387024e-14,9.496287570e-14,1.322771959e-13,3.511035548e-14,6.176536152e-14,1.516722562e-13,7.815018680e-14,4.339976925e-14,3.619588679e-14,2.839397846e-14,5.075848413e-14,8.431581621e-14,3.297636664e-13,4.845287166e-14
1.3203,6.507377890e-14,5.494313512e-14,1.228334896e-13,1.032346453e-13,5.546927959e-14,7.786566809e-14,9.734706982e-14,2.394802269e-14,1.317204610e-14,8.816174264e-14,7.375758049e-14,7.277686300e-14,4.587249084e-14,9.420161861e-14,1.029180010e-13,7.403270178e-14,1.484903836e-13,7.872756089e-14,9.718120500e-14,9.588963253e-14,1.348406982e-13,3.281703052e-14,5.744867267e-14,1.510633290e-13,7.144832142e-14,3.709693659e-14,3.186383579e-14,2.880282777e-14,4.315093906e-14,8.013273288e-14,3.402835962e-13,4.595600956e-14
1.3281,6.336760095e-14,5.047238073e-14,1.239556860e-13,9.997344674e-14,5.120324385e-14,7.880627695e-14,9.865176240e-14,2.428751884e-14,1.317404651e-14,9.500556184e-14,8.119802513e-14,6.778688484e-14,4.892988182e-14,8.577043119e-14,9.348779667e-14,6.987027541e-14,1.520084171e-13,7.871115356e-14,9.878577747e-14,9.577892613e-14,1.350648352e-13,3.100861255e-14,5.377576552e-14,1.503404714e-13,6.453084636e-14,3.143364460e-14,2.716424051e-14,2.857347363e-14,3.593684208e-14,7.540856795e-14,3.441740006e-13,4.313369333e-14
1.3359,6.199186642e-14,4.574658179e-14,1.238088693e-13,9.600750469e-14,4.670410678e-14,7.799930328e-14,1.001069584e-13,2.517382546e-14,1.341263685e-14,1.016134138e-13,9.015624715e-14,6.403491281e-14,5.198160954e-14,7.785185717e-14,8.377551704e-14,6.413309294e-14,1.518924073e-13,7.812302088e-14,9.939020574e-14,9.495596898e-14,1.328082703e-13,2.955254380e-14,5.064398760e-14,1.493156630e-13,5.816761663e-14,2.694248077e-14,2.296014670e-14,2.807206937e-14,2.971884071e-14,7.122595082e-14,3.386027487e-13,4.051122105e-14
1.3438,6.103813698e-14,4.137473236e-14,1.226453660e-13,9.149788854e-14,4.210386458e-14,7.551545499e-14,1.009408559e-13,2.661709871e-14,1.405250144e-14,1.069962831e-13,9.971059688e-14,6.122337961e-14,5.500158953e-14,7.086861293e-14,7.457837037e-14,5.752679476e-14,1.492444343e-13,7.717379176e-14,9.951084218e-14,9.413498910e-14,1.288906595e-13,2.854695855e-14,4.786806245e-14,1.493731821e-13,5.215181686e-14,2.339378616e-14,1.927060868e-14,2.709927906e-14,2.465135127e-14,6.832222421e-14,3.231062393e-13,3.783713177e-14
1.3516,5.957856619e-14,3.710057710e-14,1.191648733e-13,8.635420362e-14,3.778890791e-14,7.107333245e-14,1.001886057e-13,2.871393670e-14,1.532222306e-14,1.101701547e-13,1.079591406e-13,5.908985813e-14,5.813772447e-14,6.478354927e-14,6.596365728e-14,5.126472847e-14,1.451761960e-13,7.647685569e-14,9.880256665e-14,9.374861795e-14,1.219913254e-13,2.777023460e-14,4.553947328e-14,1.502960280e-13,4.773606805e-14,2.171609094e-14,1.629157982e-14,2.571244206e-14,2.046793597e-14,6.595679881e-14,3.021156204e-13,3.545507167e-14
1.3594,5.803539196e-14,3.338255299e-14,1.149431437e-13,8.114709718e-14,3.401737202e-14,6.540115942e-14,9.723576800e-14,3.122693489e-14,1.724112132e-14,1.108560975e-13,1.144098012e-13,5.783329545e-14,6.093090199e-14,6.044536201e-14,5.956907064e-14,4.655131654e-14,1.402569157e-13,7.558498958e-14,9.634858790e-14,9.356854363e-14,1.137172820e-13,2.696103788e-14,4.427213189e-14,1.525729269e-13,4.469898721e-14,2.197454243e-14,1.467353072e-14,2.444310880e-14,1.758428415e-14,6.475921973e-14,2.778864528e-13,3.365638195e-14
1.3672,5.733630932e-14,3.054585283e-14,1.095964185e-13,7.589384732e-14,3.073582405e-14,5.901907162e-14,9.258335955e-14,3.438492141e-14,1.984841058e-14,1.095316508e-13,1.187271155e-13,5.705750287e-14,6.249800176e-14,5.753554246e-14,5.589374579e-14,4.429689835e-14,1.357475385e-13,7.411085560e-14,9.210989003e-14,9.283527139e-14,1.037159581e-13,2.584859138e-14,4.396977890e-14,1.548075808e-13,4.299705249e-14,2.366620159e-14,1.476994479e-14,2.349114933e-14,1.598221487e-14,6.520506263e-14,2.517721062e-13,3.255061885e-14
1.375,5.678526489e-14,2.836290451e-14,1.025840813e-13,7.052837635e-14,2.797120385e-14,5.256046137e-14,8.709657769e-14,3.776031103e-14,2.279920251e-14,1.056698579e-13,1.196220228e-13,5.603768196e-14,6.295460774e-14,5.568134540e-14,5.492543561e-14,4.515959199e-14,1.326132249e-13,7.230755924e-14,8.663325824e-14,9.169091388e-14,9.319735840e-14,2.450785926e-14,4.493155209e-14,1.571626659e-13,4.288305909e-14,2.670699543e-14,1.674023995e-14,2.247605368e-14,1.548373374e-14,6.625289046e-14,2.267519966e-13,3.255222492e-14
1.3828,5.630642739e-14,2.720141937e-14,9.458972606e-14,6.524896273e-14,2.583834319e-14,4.634424231e-14,8.129767390e-14,4.148214991e-14,2.652058635e-14,9.992072152e-14,1.167223831e-13,5.484729136e-14,6.271088898e-14,5.473869292e-14,5.659696776e-14,4.962099409e-14,1.321990593e-13,7.071192590e-14,8.043023488e-14,8.981836730e-14,8.355909665e-14,2.329758778e-14,4.739838497e-14,1.598922449e-13,4.401765603e-14,3.105243913e-14,2.060764260e-14,2.178693620e-14,1.600312943e-14,6.803081985e-14,2.070617474e-13,3.419179065e-14
1.3906,5.662728145e-14,2.698995678e-14,8.628277490e-14,5.976310968e-14,2.427505941e-14,4.067206059e-14,7.553915077e-14,4.580260749e-14,3.125705480e-14,9.370204928e-14,1.107344167e-13,5.406134648e-14,6.116432548e-14,5.419960180e-14,5.999240830e-14,5.720849057e-14,1.344469909e-13,6.884347198e-14,7.356360249e-14,8.705026088e-14,7.523656518e-14,2.202322722e-14,5.131180850e-14,1.628347120e-13,4.596079989e-14,3.622527501e-14,2.582201940e-14,2.192181529e-14,1.709160227e-14,7.055695213e-14,1.974342048e-13,3.701073750e-14
1.3984,5.758560714e-14,2.765606827e-14,7.794718425e-14,5.410474530e-14,2.335403058e-14,3.593035360e-14,7.060014049e-14,5.154588151e-14,3.677745057e-14,8.819074829e-14,1.028147431e-13,5.379165712e-14,5.849919132e-14,5.341770293e-14,6.462140344e-14,6.835114796e-14,1.408754522e-13,6.731326587e-14,6.660486324e-14,8.320492010e-14,6.817280986e-14,2.075922158e-14,5.618044397e-14,1.639684880e-13,4.810278171e-14,4.169478698e-14,3.157989746e-14,2.245307674e-14,1.838635796e-14,7.277240188e-14,2.002256702e-13,4.082150300e-14
1.4062,5.963009344e-14,2.939954108e-14,7.045428068e-14,4.883492910e-14,2.311462250e-14,3.215798529e-14,6.665662483e-14,5.817421163e-14,4.271429381e-14,8.397809486e-14,9.438000315e-14,5.442731033e-14,5.551992397e-14,5.257536354e-14,7.039271955e-14,8.276337040e-14,1.516086601e-13,6.630661116e-14,5.982861249e-14,7.811175709e-14,6.265763554e-14,1.947152366e-14,6.206823479e-14,1.630847260e-13,5.113284886e-14,4.716800241e-14,3.780931147e-14,2.357107114e-14,2.001182073e-14,7.470373380e-14,2.154143113e-13,4.500057403e-14
1.4141,6.316047772e-14,3.264018296e-14,6.322687757e-14,4.421785064e-14,2.359509782e-14,2.930620885e-14,6.430178879e-14,6.565795810e-14,4.949795101e-14,8.253394048e-14,8.782478598e-14,5.694058988e-14,5.239625139e-14,5.163483093e-14,7.629175376e-14,9.875174019e-14,1.656898877e-13,6.569029642e-14,5.370193739e-14,7.206039360e-14,5.813960082e-14,1.843247556e-14,6.803014557e-14,1.593793449e-13,5.450815534e-14,5.205374022e-14,4.359560406e-14,2.558720961e-14,2.177270244e-14,7.694235591e-14,2.421306451e-13,4.998330843e-14
1.4219,6.834058776e-14,3.677026039e-14,5.680557649e-14,3.986730210e-14,2.468783278e-14,2.733255637e-14,6.420700385e-14,7.396805808e-14,5.669083012e-14,8.409399542e-14,8.362572466e-14,6.108509315e-14,4.900586909e-14,5.014519598e-14,8.099224346e-14,1.149929299e-13,1.826785181e-13,6.551947345e-14,4.832817246e-14,6.569996113e-14,5.463723699e-14,1.789948831e-14,7.386871588e-14,1.529606756e-13,5.766958135e-14,5.628857002e-14,4.789236094e-14,2.854532432e-14,2.305060530e-14,7.902924365e-14,2.763488489e-13,5.589104332e-14
1.4297,7.512065828e-14,4.137676016e-14,5.199740230e-14,3.590368069e-14,2.657700381e-14,2.633585724e-14,6.545080806e-14,8.280787033e-14,6.338850054e-14,8.692349994e-14,8.024231336e-14,6.560518374e-14,4.525242409e-14,4.786751463e-14,8.396174368e-14,1.312582423e-13,2.030797161e-13,6.588971433e-14,4.372234290e-14,5.979457874e-14,5.204528323e-14,1.779970270e-14,7.951900364e-14,1.441152096e-13,6.055110067e-14,6.004283209e-14,5.055041913e-14,3.226574617e-14,2.386763499e-14,8.086748807e-14,3.118645846e-13,6.217285580e-14
1.4375,8.348234728e-14,4.665234293e-14,4.828520155e-14,3.241655443e-14,2.906744114e-14,2.567205323e-14,6.737098414e-14,9.111230211e-14,6.881165614e-14,9.053245143e-14,7.841035259e-14,7.040078889e-14,4.163287821e-14,4.516814180e-14,8.600056338e-14,1.469451318e-13,2.256868236e-13,6.706299045e-14,4.020942939e-14,5.509986719e-14,5.028109858e-14,1.820481281e-14,8.545540689e-14,1.325451588e-13,6.357540046e-14,6.351976382e-14,5.180268212e-14,3.653203931e-14,2.440382648e-14,8.262591680e-14,3.482695982e-13,6.816543884e-14
1.4453,9.263320443e-14,5.264273970e-14,4.554664923e-14,2.946994016e-14,3.169609526e-14,2.520641207e-14,6.995517906e-14,9.810904210e-14,7.278856757e-14,9.490822039e-14,7.864184268e-14,7.525568769e-14,3.878298817e-14,4.257555213e-14,8.753180146e-14,1.611853925e-13,2.481932057e-13,6.874561718e-14,3.767801716e-14,5.190877864e-14,4.878048336e-14,1.911386585e-14,9.161636499e-14,1.186145857e-13,6.671214848e-14,6.676173537e-14,5.222929621e-14,4.111933250e-14,2.495668408e-14,8.395493516e-14,3.835788905e-13,7.403131911e-14
1.4531,1.026851483e-13,5.882927882e-14,4.333369491e-14,2.718528738e-14,3.357019452e-14,2.504056618e-14,7.240227889e-14,1.028212735e-13,7.501158329e-14,9.938644676e-14,8.056682685e-14,7.953130456e-14,3.656736302e-14,3.986130400e-14,8.819923665e-14,1.725836501e-13,2.677017435e-13,7.021342722e-14,3.596398599e-14,4.969787620e-14,4.874062260e-14,2.040827103e-14,9.855184244e-14,1.053980349e-13,6.972492739e-14,6.909552960e-14,5.108593627e-14,4.580904212e-14,2.499477615e-14,8.576018080e-14,4.129011454e-13,7.920539104e-14
1.4609,1.122729794e-13,6.408839709e-14,4.178230504e-14,2.546926886e-14,3.526603723e-14,2.503698795e-14,7.456816624e-14,1.052122994e-13,7.509888253e-14,1.021639534e-13,8.222028670e-14,8.185058625e-14,3.479172672e-14,3.714940701e-14,8.911122538e-14,1.821523908e-13,2.844030849e-13,7.184685705e-14,3.520335959e-14,4.948413812e-14,5.037201101e-14,2.213305646e-14,1.068750446e-13,9.421570272e-14,7.286480546e-14,7.184100723e-14,4.948416453e-14,5.001367701e-14,2.444448553e-14,8.739328743e-14,4.309280057e-13,8.408962053e-14
1.4688,1.209808708e-13,6.823774207e-14,4.098001786e-14,2.462111917e-14,3.687676088e-14,2.489811641e-14,7.587781285e-14,1.043798617e-13,7.261172775e-14,1.015094570e-13,8.275965718e-14,8.135363424e-14,3.370104800e-14,3.473554262e-14,9.109194123e-14,1.899441892e-13,2.957472187e-13,7.321230437e-14,3.518325720e-14,5.070040791e-14,5.329819150e-14,2.426341245e-14,1.166034491e-13,8.531643605e-14,7.610346492e-14,7.579532631e-14,4.824774534e-14,5.349362989e-14,2.366220606e-14,8.870604363e-14,4.354845540e-13,8.824009569e-14
1.4766,1.274324173e-13,7.117545149e-14,4.077348778e-14,2.491828896e-14,3.812371390e-14,2.466784357e-14,7.609260932e-14,9.999131453e-14,6.752357214e-14,9.786978605e-14,8.288688964e-14,7.782904103e-14,3.323209757e-14,3.278136423e-14,9.518650174e-14,1.962322818e-13,3.008142800e-13,7.386276371e-14,3.575154041e-14,5.265509417e-14,5.842799608e-14,2.648235617e-14,1.271106281e-13,8.000795927e-14,8.023264081e-14,8.002984591e-14,4.775293029e-14,5.585716683e-14,2.278442279e-14,9.001538885e-14,4.281405827e-13,9.096525070e-14
1.4844,1.318758823e-13,7.346058041e-14,4.128871668e-14,2.631533197e-14,3.862874538e-14,2.428399519e-14,7.573943954e-14,9.267094148e-14,6.042937246e-14,9.217028242e-14,8.287500898e-14,7.171841564e-14,3.336161491e-14,3.129490615e-14,1.010200543e-13,2.004813232e-13,2.989765625e-13,7.398569244e-14,3.700606798e-14,5.494034564e-14,6.609206984e-14,2.855368078e-14,1.376916701e-13,7.886691243e-14,8.559674224e-14,8.364264614e-14,4.795551908e-14,5.754884624e-14,2.197389985e-14,9.066821076e-14,4.124767472e-13,9.185973439e-14
1.4922,1.337564974e-13,7.524793708e-14,4.252792901e-14,2.888751215e-14,3.832596432e-14,2.376102833e-14,7.394477244e-14,8.313373366e-14,5.223132642e-14,8.397598665e-14,8.271548150e-14,6.383096554e-14,3.411876481e-14,3.079704817e-14,1.088224877e-13,2.023837535e-13,2.895354325e-13,7.294982543e-14,3.849959177e-14,5.718085763e-14,7.564208325e-14,2.998070530e-14,1.475466325e-13,8.136693799e-14,9.224736758e-14,8.602598801e-14,4.897862864e-14,5.834067699e-14,2.129602315e-14,9.026786568e-14,3.918303942e-13,9.089493684e-14
1.5,1.345255479e-13,7.652916154e-14,4.449141333e-14,3.245042944e-14,3.741402409e-14,2.308595247e-14,7.119007215e-14,7.303552658e-14,4.407252186e-14,7.471333435e-14,8.264535285e-14,5.561138950e-14,3.508619781e-14,3.086778049e-14,1.170979424e-13,2.019209484e-13,2.751450725e-13,7.074343627e-14,4.010270283e-14,6.012792081e-14,8.720713942e-14,3.074009243e-14,1.554593928e-13,8.634097036e-14,9.999409394e-14,8.705965990e-14,5.048570739e-14,5.890750369e-14,2.068106509e-14,8.978577755e-14,3.657861654e-13,8.750605647e-14
1.5078,1.328618449e-13,7.702846340e-14,4.705717563e-14,3.676229671e-14,3.634097627e-14,2.212171179e-14,6.798446215e-14,6.312021831e-14,3.612572115e-14,6.432660741e-14,8.259958866e-14,4.720695723e-14,3.605275733e-14,3.153051748e-14,1.261095307e-13,1.993894737e-13,2.563631185e-13,6.759250028e-14,4.177384834e-14,6.356773317e-14,9.909711144e-14,3.069340878e-14,1.602886986e-13,9.273747257e-14,1.086573494e-13,8.663251337e-14,5.272442253e-14,5.963647232e-14,2.038112820e-14,8.789666751e-14,3.381936921e-13,8.197695139e-14
1.5156,1.290277804e-13,7.705208859e-14,5.055741991e-14,4.170962931e-14,3.535136294e-14,2.106997798e-14,6.465559258e-14,5.447316825e-14,2.882838317e-14,5.391088958e-14,8.273490539e-14,3.923636447e-14,3.702261109e-14,3.243508941e-14,1.332193817e-13,1.934433552e-13,2.337768234e-13,6.359273490e-14,4.347828009e-14,6.796587941e-14,1.109851937e-13,2.996414783e-14,1.612222451e-13,1.000600652e-13,1.172527360e-13,8.419726974e-14,5.465206203e-14,6.073404869e-14,2.023840184e-14,8.516129732e-14,3.130085092e-13,7.505861682e-14
1.5234,1.243459366e-13,7.703709518e-14,5.584180427e-14,4.715987431e-14,3.473596141e-14,2.004268809e-14,6.216763476e-14,4.824874749e-14,2.282499988e-14,4.482750274e-14,8.345838737e-14,3.315708273e-14,3.826555585e-14,3.424436533e-14,1.387222780e-13,1.850316286e-13,2.099987842e-13,5.925080823e-14,4.546872964e-14,7.469328171e-14,1.219212209e-13,2.888631168e-14,1.595418345e-13,1.078255159e-13,1.254804211e-13,8.015550888e-14,5.639159145e-14,6.319155876e-14,2.059429254e-14,8.202658722e-14,2.929240410e-13,6.777328623e-14
1.5312,1.195165556e-13,7.668619488e-14,6.293116075e-14,5.307243676e-14,3.451357318e-14,1.915622605e-14,6.063798853e-14,4.459817917e-14,1.840973000e-14,3.752586996e-14,8.465837665e-14,2.918244065e-14,3.981159667e-14,3.693469725e-14,1.417539154e-13,1.733582600e-13,1.851809826e-13,5.436100022e-14,4.754246029e-14,8.398395553e-14,1.299046339e-13,2.797614922e-14,1.540712164e-13,1.140690473e-13,1.309473445e-13,7.468045193e-14,5.722994231e-14,6.675876770e-14,2.144208283e-14,7.983299845e-14,2.779228540e-13,6.080849110e-14
1.5391,1.140519788e-13,7.524556542e-14,7.196041097e-14,5.898795780e-14,3.505033413e-14,1.845371378e-14,6.046259150e-14,4.339093716e-14,1.533811970e-14,3.215814239e-14,8.603191219e-14,2.731706049e-14,4.169850520e-14,4.037513067e-14,1.422874745e-13,1.596944222e-13,1.618289741e-13,4.984001933e-14,4.957282579e-14,9.588721472e-14,1.346277176e-13,2.764976842e-14,1.459462894e-13,1.190757150e-13,1.331210351e-13,6.905292763e-14,5.771406871e-14,7.113113166e-14,2.282233591e-14,7.936054496e-14,2.655758484e-13,5.491876216e-14
1.5469,1.082563303e-13,7.330732862e-14,8.289999923e-14,6.470157734e-14,3.677882218e-14,1.827056622e-14,6.199839231e-14,4.410978205e-14,1.322615305e-14,2.888129956e-14,8.851296521e-14,2.735782761e-14,4.347329309e-14,4.524114118e-14,1.420914038e-13,1.454988830e-13,1.413349513e-13,4.582655201e-14,5.152354456e-14,1.110843909e-13,1.354031707e-13,2.812469395e-14,1.364837294e-13,1.219698756e-13,1.310702483e-13,6.440059936e-14,5.851877687e-14,7.527243636e-14,2.510753072e-14,8.180297514e-14,2.593577067e-13,5.103087614e-14
1.5547,1.017437038e-13,7.061688839e-14,9.434523441e-14,6.966911883e-14,3.932965609e-14,1.899148212e-14,6.483397261e-14,4.611293102e-14,1.179532295e-14,2.769607757e-14,9.208070501e-14,2.919668818e-14,4.537202103e-14,5.176711300e-14,1.415000926e-13,1.314966076e-13,1.236526356e-13,4.221034673e-14,5.282456526e-14,1.290455177e-13,1.330674151e-13,2.932288674e-14,1.266483940e-13,1.239337512e-13,1.250699464e-13,6.133746452e-14,5.992077858e-14,7.844902931e-14,2.863367925e-14,8.806045604e-14,2.611184259e-13,4.900088302e-14
1.5625,9.551731318e-14,6.742553242e-14,1.054072162e-13,7.397054499e-14,4.257112127e-14,2.054042445e-14,6.884177751e-14,4.883396266e-14,1.096071627e-14,2.863726329e-14,9.705387388e-14,3.252183200e-14,4.734237376e-14,6.005221790e-14,1.423578985e-13,1.185209864e-13,1.084691788e-13,3.882767282e-14,5.330100151e-14,1.481918491e-13,1.278090719e-13,3.176111247e-14,1.169691870e-13,1.249153690e-13,1.156455555e-13,6.020126480e-14,6.221570176e-14,8.099864283e-14,3.341614549e-14,9.967245436e-14,2.701602764e-13,4.889046927e-14
1.5703,9.032071976e-14,6.390597360e-14,1.151427085e-13,7.750264391e-14,4.615266051e-14,2.278469933e-14,7.438605738e-14,5.134085588e-14,1.029895878e-14,3.134765651e-14,1.039176737e-13,3.701039565e-14,4.938500453e-14,6.997032534e-14,1.452643550e-13,1.075739974e-13,9.603921600e-14,3.567236026e-14,5.330912552e-14,1.670971881e-13,1.213576781e-13,3.591932813e-14,1.093857939e-13,1.248149600e-13,1.039339164e-13,6.164502532e-14,6.596154987e-14,8.221263950e-14,3.934761645e-14,1.168764600e-13,2.856938125e-13,5.074354194e-14
1.5781,8.566653194e-14,6.058768549e-14,1.232256291e-13,8.031996807e-14,4.990018096e-14,2.556596756e-14,8.060311514e-14,5.351086583e-14,9.815573491e-15,3.602641079e-14,1.127125493e-13,4.220047984e-14,5.145902270e-14,8.086964658e-14,1.506335257e-13,9.897969201e-14,8.630882866e-14,3.299885396e-14,5.280584853e-14,1.854767093e-13,1.141553712e-13,4.114341306e-14,1.029401714e-13,1.234292624e-13,9.146387352e-14,6.542526442e-14,7.134620270e-14,8.228762406e-14,4.622454650e-14,1.388949815e-13,3.069229731e-13,5.385146062e-14
1.5859,8.272905756e-14,5.877874800e-14,1.283166704e-13,8.321605701e-14,5.390020490e-14,2.874190845e-14,8.640250501e-14,5.465094824e-14,9.266417337e-15,4.192390903e-14,1.236176156e-13,4.744949389e-14,5.312112434e-14,9.247377988e-14,1.578595371e-13,9.296799500e-14,7.882093728e-14,3.062610063e-14,5.162652137e-14,2.019477995e-13,1.075948845e-13,4.676526684e-14,9.735460938e-14,1.190659782e-13,7.895487677e-14,7.129683216e-14,7.796420675e-14,8.048934908e-14,5.363723249e-14,1.645693888e-13,3.354963281e-13,5.769723074e-14
1.5938,8.162785966e-14,5.878659028e-14,1.299833084e-13,8.552479601e-14,5.760342685e-14,3.165614812e-14,9.124491932e-14,5.501840134e-14,8.595292272e-15,4.911240980e-14,1.362772516e-13,5.307380620e-14,5.438591964e-14,1.041538106e-13,1.668175028e-13,8.969803137e-14,7.315971520e-14,2.869036745e-14,5.000805610e-14,2.153482572e-13,1.033587305e-13,5.240698948e-14,9.220089831e-14,1.134268101e-13,6.778434212e-14,7.830282596e-14,8.545723094e-14,7.743873985e-14,6.139082803e-14,1.919355029e-13,3.680924905e-13,6.134848497e-14
1.6016,8.252783504e-14,6.031437272e-14,1.289253949e-13,8.677953312e-14,6.078935623e-14,3.386166491e-14,9.456591518e-14,5.493934425e-14,8.014421992e-15,5.692974612e-14,1.495943995e-13,5.853516510e-14,5.518240995e-14,1.143387020e-13,1.749290372e-13,8.823389877e-14,6.928072917e-14,2.708705769e-14,4.814800804e-14,2.249647062e-13,1.011969008e-13,5.790946724e-14,8.766202937e-14,1.065234772e-13,5.816141030e-14,8.553911013e-14,9.261000485e-14,7.372323508e-14,6.847662711e-14,2.186930746e-13,4.030948389e-13,6.458414720e-14
1.6094,8.548020825e-14,6.398307807e-14,1.258948457e-13,8.739301528e-14,6.331096477e-14,3.482831371e-14,9.718618471e-14,5.425717759e-14,7.569331531e-15,6.601220960e-14,1.642320122e-13,6.415930527e-14,5.548979045e-14,1.223668753e-13,1.819240164e-13,8.849529221e-14,6.682061770e-14,2.611705269e-14,4.648038138e-14,2.289118376e-13,1.019028864e-13,6.289927571e-14,8.301544177e-14,9.969297143e-14,5.074609741e-14,9.194826436e-14,9.915249769e-14,6.986020084e-14,7.485982710e-14,2.425377527e-13,4.329557723e-13,6.673931937e-14
1.6172,9.018419685e-14,6.874375629e-14,1.224765235e-13,8.683539342e-14,6.536877178e-14,3.455582129e-14,9.870275707e-14,5.378270816e-14,7.399890354e-15,7.521481458e-14,1.765131074e-13,6.875794258e-14,5.491148479e-14,1.272455261e-13,1.863359003e-13,8.976477089e-14,6.549353353e-14,2.572226731e-14,4.502698745e-14,2.275820579e-13,1.054247555e-13,6.687432772e-14,7.897934471e-14,9.418626800e-14,4.554031600e-14,9.739704616e-14,1.037408498e-13,6.603141776e-14,7.941855924e-14,2.611887436e-13,4.508227014e-13,6.858159109e-14
1.625,9.489245675e-14,7.376866144e-14,1.190108289e-13,8.508214436e-14,6.672677579e-14,3.301808689e-14,9.808299335e-14,5.332995779e-14,7.343228640e-15,8.380960024e-14,1.862936768e-13,7.243987779e-14,5.312653174e-14,1.285227667e-13,1.878439651e-13,9.169367895e-14,6.463075321e-14,2.593638550e-14,4.344610174e-14,2.200193908e-13,1.099659276e-13,6.868671391e-14,7.486467724e-14,9.116522208e-14,4.156832880e-14,1.007863019e-13,1.055502249e-13,6.195075943e-14,8.177295649e-14,2.715916454e-13,4.583043321e-13,6.946358803e-14
1.6328,1.002408716e-13,7.822031609e-14,1.162760407e-13,8.190957428e-14,6.741784762e-14,3.049375181e-14,9.552013569e-14,5.347966864e-14,7.645021738e-15,9.114462149e-14,1.913055073e-13,7.529876259e-14,5.041605607e-14,1.262005394e-13,1.856700227e-13,9.334328832e-14,6.428088816e-14,2.674818293e-14,4.202189443e-14,2.090004954e-13,1.159161685e-13,6.869082916e-14,7.100252282e-14,9.257792351e-14,3.908486370e-14,1.016883858e-13,1.040454202e-13,5.857319397e-14,8.199167539e-14,2.745142984e-13,4.524393597e-13,6.943424508e-14
1.6406,1.041590361e-13,8.121191495e-14,1.152984440e-13,7.705345825e-14,6.768891538e-14,2.727526765e-14,9.190652885e-14,5.457048742e-14,8.283562022e-15,9.693564062e-14,1.923515193e-13,7.728704881e-14,4.704241326e-14,1.208847918e-13,1.815862787e-13,9.539268164e-14,6.500379170e-14,2.828515678e-14,4.087603956e-14,1.941679260e-13,1.210942648e-13,6.753719191e-14,6.884536135e-14,9.833903255e-14,3.769097243e-14,1.013961552e-13,1.001507934e-13,5.565908714e-14,7.995528522e-14,2.692193770e-13,4.374558060e-13,6.943351841e-14
1.6484,1.062453025e-13,8.277779997e-14,1.156759136e-13,7.115631602e-14,6.750749023e-14,2.349027711e-14,8.746025027e-14,5.597510012e-14,8.988064477e-15,1.007970444e-13,1.896713144e-13,7.871292858e-14,4.321905344e-14,1.133882281e-13,1.764100024e-13,9.702555235e-14,6.575262029e-14,3.028191851e-14,3.959772633e-14,1.763247504e-13,1.253790637e-13,6.488828010e-14,6.799194721e-14,1.081090187e-13,3.689683007e-14,9.968265252e-14,9.409496990e-14,5.247436161e-14,7.613127491e-14,2.572339646e-13,4.119542457e-13,6.916036849e-14
1.6562,1.054218810e-13,8.218363139e-14,1.176066071e-13,6.447816201e-14,6.731912539e-14,1.978912584e-14,8.248814316e-14,5.809573523e-14,1.005235963e-14,1.030033019e-13,1.834375269e-13,8.068004449e-14,3.924363077e-14,1.052437982e-13,1.719661897e-13,9.922424321e-14,6.729806644e-14,3.301655503e-14,3.823656318e-14,1.564076732e-13,1.280786729e-13,6.111269749e-14,6.890864262e-14,1.216301659e-13,3.683738191e-14,9.745775688e-14,8.706213288e-14,4.940341827e-14,7.142419410e-14,2.390082735e-13,3.785194627e-13,6.900936303e-14
1.6641,1.032460640e-13,8.031237702e-14,1.220339003e-13,5.786330273e-14,6.707306073e-14,1.655833774e-14,7.718871325e-14,6.032314165e-14,1.152467730e-14,1.043873717e-13,1.753235864e-13,8.399767816e-14,3.522807684e-14,9.753832432e-14,1.686420400e-13,1.015789927e-13,6.904167377e-14,3.607292633e-14,3.670973300e-14,1.361204567e-13,1.282127494e-13,5.631386079e-14,7.185195693e-14,1.361625482e-13,3.738463243e-14,9.498376782e-14,7.992188084e-14,4.687944087e-14,6.669865815e-14,2.160228955e-13,3.392008405e-13,6.891209159e-14
1.6719,9.948374697e-14,7.702682289e-14,1.288667593e-13,5.190219226e-14,6.669395916e-14,1.410096163e-14,7.176866041e-14,6.190151286e-14,1.296666390e-14,1.043368206e-13,1.662971187e-13,8.846785654e-14,3.154241003e-14,9.113028845e-14,1.674017149e-13,1.043154088e-13,7.140023465e-14,3.928472902e-14,3.519354022e-14,1.171000302e-13,1.255976089e-13,5.166392560e-14,7.644737915e-14,1.497354619e-13,3.857942471e-14,9.276208855e-14,7.333125823e-14,4.492762814e-14,6.232247740e-14,1.913491823e-13,3.023131000e-13,6.847909844e-14
1.6797,9.506738020e-14,7.405984121e-14,1.378449386e-13,4.765763457e-14,6.620011014e-14,1.253999904e-14,6.852093410e-14,6.257362023e-14,1.437722222e-14,1.047561603e-13,1.591959605e-13,9.494339133e-14,2.861461833e-14,8.691506043e-14,1.684817144e-13,1.076436017e-13,7.439427234e-14,4.263442725e-14,3.426051340e-14,1.006412140e-13,1.210639319e-13,4.804327160e-14,8.222308124e-14,1.602274635e-13,4.003601117e-14,9.123106311e-14,6.840271737e-14,4.313500970e-14,5.935079219e-14,1.669479193e-13,2.732577152e-13,6.779145255e-14
1.6875,9.033220866e-14,7.173404046e-14,1.487993407e-13,4.572531198e-14,6.554762464e-14,1.193843015e-14,6.783015055e-14,6.204808399e-14,1.584428939e-14,1.066296504e-13,1.545426262e-13,1.042097914e-13,2.617002558e-14,8.545063963e-14,1.721141641e-13,1.109142163e-13,7.689947567e-14,4.558494341e-14,3.389506440e-14,8.626843621e-14,1.169677670e-13,4.545092382e-14,8.882941811e-14,1.692714097e-13,4.196598694e-14,9.015675888e-14,6.532377979e-14,4.138651768e-14,5.785696053e-14,1.440701094e-13,2.525356379e-13,6.652950707e-14
