Time,Fp1,AF3,F7,F3,FC1,FC5,T7,C3,CP1,CP5,P7,P3,Pz,PO3,O1,Oz,O2,PO4,P4,P8,CP6,CP2,C4,T8,FC6,FC2,F4,F8,AF4,Fp2,Fz,Cz,
-0.10156,5.801853041e-14,1.778270987e-14,9.687827352e-14,2.080103235e-14,8.697960055e-15,8.815309928e-14,1.613398981e-14,9.918899753e-15,3.199765702e-14,5.695303855e-14,3.217993420e-14,4.414325032e-14,4.211463200e-14,3.566836189e-14,6.321493474e-15,2.060465070e-14,1.924306512e-14,4.710560451e-14,1.187523993e-14,8.192646429e-15,2.485589098e-14,4.031646327e-15,8.253717373e-15,2.039145611e-13,1.183160524e-13,2.491806372e-14,3.333024807e-14,4.920360319e-14,1.878146801e-14,2.507429858e-13,3.045596414e-14,1.712344839e-14
-0.09375,6.445217069e-14,2.324217173e-14,1.140703698e-13,2.321491594e-14,1.139447574e-14,9.464816343e-14,2.165909057e-14,1.228156633e-14,3.395657759e-14,6.520071967e-14,3.791599176e-14,4.906296701e-14,4.576381404e-14,4.119903976e-14,7.864897469e-15,2.382694447e-14,2.608591456e-14,5.658495237e-14,1.281737847e-14,1.042843492e-14,2.861925869e-14,4.171576437e-15,1.043010105e-14,2.216763543e-13,1.284529943e-13,2.902738768e-14,4.165537873e-14,5.528919643e-14,2.265376128e-14,2.776148521e-13,3.814595128e-14,1.716211176e-14
-0.085938,7.086354641e-14,2.997706881e-14,1.315283915e-13,2.580426473e-14,1.501773430e-14,9.809857457e-14,2.865733579e-14,1.485236669e-14,3.502450857e-14,7.365786083e-14,4.451959876e-14,5.339708390e-14,4.874752201e-14,4.647456745e-14,9.555611883e-15,2.684944464e-14,3.444683229e-14,6.659237744e-14,1.394401846e-14,1.363035653e-14,3.214865098e-14,4.316785010e-15,1.302657625e-14,2.358969473e-13,1.355996329e-13,3.344311588e-14,5.054317260e-14,6.036628863e-14,2.678696960e-14,2.982881004e-13,4.719007448e-14,1.698523825e-14
-0.078125,7.743794581e-14,3.767782263e-14,1.493392638e-13,2.863349992e-14,1.951513397e-14,9.814088312e-14,3.704637748e-14,1.732069794e-14,3.523978274e-14,8.256370071e-14,5.163254050e-14,5.685221685e-14,5.104387014e-14,5.086074012e-14,1.110159881e-14,2.898904089e-14,4.383945379e-14,7.648100147e-14,1.532442112e-14,1.785265733e-14,3.545065887e-14,4.488715351e-15,1.605787655e-14,2.466180833e-13,1.412945266e-13,3.844594939e-14,5.967657463e-14,6.440881902e-14,3.107360539e-14,3.096916265e-13,5.737757843e-14,1.669603084e-14
-0.070312,8.381042124e-14,4.647083331e-14,1.665089442e-13,3.205313264e-14,2.511316146e-14,9.532638470e-14,4.707959832e-14,1.959769787e-14,3.455254681e-14,9.232904754e-14,5.926883646e-14,5.941427050e-14,5.260695590e-14,5.429780060e-14,1.251204432e-14,3.024736622e-14,5.448324987e-14,8.629875267e-14,1.698529695e-14,2.329298717e-14,3.836924464e-14,4.751557109e-15,1.946839688e-14,2.555519763e-13,1.460405156e-13,4.435255160e-14,6.874992354e-14,6.714526893e-14,3.573734361e-14,3.108524392e-13,6.928986048e-14,1.653273460e-14
-0.0625,8.996383874e-14,5.608476227e-14,1.823873386e-13,3.638449464e-14,3.174841758e-14,9.078869014e-14,5.841412781e-14,2.143503317e-14,3.307681867e-14,1.026992845e-13,6.736870015e-14,6.103468305e-14,5.340782323e-14,5.665480478e-14,1.420111764e-14,3.085614886e-14,6.621681545e-14,9.573559568e-14,1.886593092e-14,2.968294718e-14,4.091605227e-14,5.155258465e-15,2.309196627e-14,2.631158625e-13,1.506678499e-13,5.084363267e-14,7.700250904e-14,6.815272683e-14,4.075834280e-14,3.039378974e-13,8.258192479e-14,1.663591406e-14
-0.054688,9.572820750e-14,6.617207778e-14,1.965084186e-13,4.163543106e-14,3.920053742e-14,8.582865752e-14,7.075960682e-14,2.266000627e-14,3.119341211e-14,1.135380979e-13,7.543866415e-14,6.175947623e-14,5.383851310e-14,5.793778053e-14,1.633858580e-14,3.121469961e-14,7.867438795e-14,1.044562630e-13,2.144050464e-14,3.663140926e-14,4.325116926e-14,5.831588648e-15,2.684446974e-14,2.703247050e-13,1.570804075e-13,5.804813768e-14,8.445914951e-14,6.818354154e-14,4.648028728e-14,2.898056319e-13,9.717096704e-14,1.710083858e-14
-0.046875,1.007800678e-13,7.641799927e-14,2.082774836e-13,4.770160712e-14,4.707036677e-14,8.087972563e-14,8.308348398e-14,2.320757806e-14,2.921973394e-14,1.243975759e-13,8.353749183e-14,6.131777448e-14,5.421762302e-14,5.778305802e-14,1.939529963e-14,3.112524707e-14,9.060841095e-14,1.115258711e-13,2.464446073e-14,4.318233779e-14,4.573699143e-14,6.868825401e-15,3.060560982e-14,2.782957332e-13,1.654636490e-13,6.581428886e-14,9.098372865e-14,6.791007031e-14,5.283327154e-14,2.673279320e-13,1.127014133e-13,1.812363890e-14
-0.039062,1.043255722e-13,8.630582889e-14,2.160213653e-13,5.441641340e-14,5.469497418e-14,7.655656628e-14,9.478001819e-14,2.311724658e-14,2.713358523e-14,1.347749431e-13,9.116355679e-14,5.959719517e-14,5.445521375e-14,5.641421460e-14,2.406810726e-14,3.085517520e-14,1.015327891e-13,1.166526288e-13,2.835254196e-14,4.868428341e-14,4.827601021e-14,8.296154959e-15,3.383703597e-14,2.859609167e-13,1.760466849e-13,7.354195434e-14,9.611134573e-14,6.734086192e-14,5.989686287e-14,2.389790404e-13,1.286435378e-13,1.958500284e-14
-0.03125,1.061456332e-13,9.557203070e-14,2.190050240e-13,6.152125538e-14,6.170427258e-14,7.302286107e-14,1.052500387e-13,2.242405822e-14,2.508587126e-14,1.441938334e-13,9.840573140e-14,5.685252958e-14,5.466135371e-14,5.453518606e-14,3.110359391e-14,3.128754030e-14,1.107082248e-13,1.201199660e-13,3.268356962e-14,5.261245522e-14,5.062555592e-14,1.022084540e-14,3.641114467e-14,2.944987001e-13,1.884706223e-13,8.089433847e-14,9.935059500e-14,6.669545409e-14,6.728268239e-14,2.078750612e-13,1.439822347e-13,2.144349548e-14
-0.023438,1.065977210e-13,1.042185050e-13,2.173458535e-13,6.938621371e-14,6.765081265e-14,7.084184193e-14,1.141482572e-13,2.132346772e-14,2.355840574e-14,1.524064375e-13,1.054002305e-13,5.370010737e-14,5.526143906e-14,5.331063357e-14,4.159290253e-14,3.287112201e-14,1.176122290e-13,1.226890742e-13,3.778395791e-14,5.440391726e-14,5.258007126e-14,1.259893490e-14,3.818475635e-14,3.018420540e-13,2.009142644e-13,8.747043633e-14,1.009570753e-13,6.502385416e-14,7.522327232e-14,1.779974823e-13,1.581013460e-13,2.356564024e-14
-0.015625,1.064068132e-13,1.121246904e-13,2.129476052e-13,7.756265139e-14,7.221004646e-14,7.069159805e-14,1.204944399e-13,2.034746533e-14,2.285957978e-14,1.593807283e-13,1.112213081e-13,5.046310064e-14,5.622400817e-14,5.323564323e-14,5.634110409e-14,3.587434850e-14,1.209877305e-13,1.233060153e-13,4.336818816e-14,5.353079562e-14,5.393702077e-14,1.535248736e-14,3.934418800e-14,3.072281267e-13,2.127318779e-13,9.289635442e-14,1.007271072e-13,6.209657101e-14,8.269470890e-14,1.518449815e-13,1.698751588e-13,2.592146280e-14
-0.0078125,1.047618390e-13,1.190557612e-13,2.044415876e-13,8.568051264e-14,7.571378601e-14,7.216874530e-14,1.244501986e-13,1.986701803e-14,2.279957962e-14,1.650941468e-13,1.156734554e-13,4.689254805e-14,5.686364514e-14,5.435895594e-14,7.563224017e-14,4.058853210e-14,1.208705920e-13,1.220912197e-13,4.916856316e-14,5.022688879e-14,5.441081192e-14,1.826312360e-14,3.969411120e-14,3.117598961e-13,2.224131074e-13,9.732736949e-14,9.891850312e-14,5.838036158e-14,8.924785235e-14,1.293464876e-13,1.790308771e-13,2.881375048e-14
0,1.019983856e-13,1.254259589e-13,1.925410656e-13,9.335380813e-14,7.835519763e-14,7.531188605e-14,1.263795706e-13,2.015330682e-14,2.313038619e-14,1.700840423e-13,1.184814078e-13,4.322050548e-14,5.682058344e-14,5.686977614e-14,9.994936580e-14,4.735113850e-14,1.176333683e-13,1.205530997e-13,5.507394277e-14,4.540566589e-14,5.371187203e-14,2.104775529e-14,3.945941240e-14,3.142713963e-13,2.321073278e-13,1.006127568e-13,9.598056217e-14,5.501749536e-14,9.417443334e-14,1.130118049e-13,1.852118673e-13,3.228737505e-14
0.0078125,9.811716774e-14,1.311069162e-13,1.769660421e-13,1.006217941e-13,7.993923573e-14,7.964621728e-14,1.265548250e-13,2.159719587e-14,2.377096450e-14,1.739396981e-13,1.195063855e-13,3.979608899e-14,5.637353241e-14,6.086330971e-14,1.282887726e-13,5.606167154e-14,1.114482273e-13,1.196587975e-13,6.169399638e-14,4.006072302e-14,5.183689707e-14,2.359139619e-14,3.869185014e-14,3.162906109e-13,2.408286656e-13,1.026410696e-13,9.224650228e-14,5.272014411e-14,9.733328056e-14,1.037536169e-13,1.879415342e-13,3.596438776e-14
0.015625,9.416052430e-14,1.358578804e-13,1.595856762e-13,1.072393741e-13,8.001291129e-14,8.569258236e-14,1.253029058e-13,2.442595459e-14,2.498730708e-14,1.766120264e-13,1.187945840e-13,3.697250904e-14,5.592694658e-14,6.633421032e-14,1.601360403e-13,6.630224860e-14,1.033880507e-13,1.197318136e-13,6.883320154e-14,3.486927194e-14,4.888248344e-14,2.590208084e-14,3.787340642e-14,3.174554825e-13,2.483332797e-13,1.029621297e-13,8.816468848e-14,5.131167287e-14,9.852188407e-14,1.024281152e-13,1.862506859e-13,3.958649076e-14
0.023438,8.974141270e-14,1.388842048e-13,1.418712279e-13,1.124135115e-13,7.918242042e-14,9.304913738e-14,1.243611155e-13,2.855663765e-14,2.646357886e-14,1.775121384e-13,1.169483985e-13,3.445757616e-14,5.492535403e-14,7.212138958e-14,1.924352169e-13,7.760536152e-14,9.559982695e-14,1.215984022e-13,7.653633259e-14,3.106821102e-14,4.504810937e-14,2.762657781e-14,3.710583210e-14,3.181128916e-13,2.536757797e-13,1.025301550e-13,8.433217080e-14,5.142926304e-14,9.722929001e-14,1.077964059e-13,1.808094115e-13,4.359103189e-14
0.03125,8.473435784e-14,1.409155718e-13,1.241181664e-13,1.156248106e-13,7.797659242e-14,1.011886618e-13,1.241977571e-13,3.376773597e-14,2.767759337e-14,1.770546439e-13,1.150539385e-13,3.204024494e-14,5.303016281e-14,7.720181149e-14,2.238735198e-13,8.938958925e-14,8.860875081e-14,1.253831988e-13,8.468619896e-14,2.934539785e-14,4.093414861e-14,2.863227048e-14,3.646733543e-14,3.181445855e-13,2.583860922e-13,1.017292939e-13,8.111263046e-14,5.360449568e-14,9.326290151e-14,1.196708650e-13,1.730950568e-13,4.786951099e-14
0.039062,7.980018290e-14,1.414567311e-13,1.075876234e-13,1.166807223e-13,7.643916412e-14,1.083203754e-13,1.251994191e-13,3.975008392e-14,2.832488287e-14,1.749325116e-13,1.147643802e-13,2.961942987e-14,5.035860910e-14,8.044380211e-14,2.512470049e-13,1.001926728e-13,8.313193397e-14,1.316294405e-13,9.344652866e-14,2.998042697e-14,3.703417798e-14,2.903256850e-14,3.632131030e-14,3.164993835e-13,2.615282227e-13,1.007380999e-13,7.903746229e-14,5.773132187e-14,8.717379947e-14,1.363983779e-13,1.636348480e-13,5.204323720e-14
0.046875,7.510198767e-14,1.397226257e-13,9.338969594e-14,1.151164225e-13,7.397292278e-14,1.146973761e-13,1.285317451e-13,4.582582249e-14,2.855978318e-14,1.698146834e-13,1.169717283e-13,2.724874362e-14,4.726159296e-14,8.181518745e-14,2.725772308e-13,1.087573915e-13,7.976628963e-14,1.410451569e-13,1.033929375e-13,3.315817884e-14,3.349920469e-14,2.897439954e-14,3.690308265e-14,3.130737503e-13,2.625452133e-13,9.926302546e-14,7.817024254e-14,6.408300653e-14,7.970671321e-14,1.583538724e-13,1.522633606e-13,5.555445682e-14
0.054688,6.890821765e-14,1.340444145e-13,7.991430670e-14,1.098567271e-13,7.042978402e-14,1.177784406e-13,1.339797070e-13,5.131331836e-14,2.838709622e-14,1.625060968e-13,1.216876458e-13,2.435546394e-14,4.372716926e-14,8.017444503e-14,2.838764967e-13,1.134042557e-13,7.815660224e-14,1.529209424e-13,1.144370777e-13,3.862482295e-14,3.041765474e-14,2.846711235e-14,3.810321458e-14,3.078989516e-13,2.598142915e-13,9.767223803e-14,7.836204302e-14,7.209202826e-14,7.057989160e-14,1.835049713e-13,1.387784148e-13,5.858808727e-14
0.0625,6.192382397e-14,1.263468630e-13,6.690325404e-14,1.026210924e-13,6.661043283e-14,1.172027093e-13,1.423768486e-13,5.609091735e-14,2.812597680e-14,1.536185208e-13,1.298190565e-13,2.131595599e-14,4.041207594e-14,7.603396360e-14,2.863263545e-13,1.147043947e-13,7.872231057e-14,1.675651710e-13,1.265632108e-13,4.622344122e-14,2.799901819e-14,2.794274531e-14,4.006488148e-14,2.995143099e-13,2.559725270e-13,9.658485150e-14,7.984483576e-14,8.337562684e-14,6.150943880e-14,2.118007639e-13,1.259081033e-13,6.128230194e-14
0.070312,5.464395135e-14,1.168363385e-13,5.496733249e-14,9.375032542e-14,6.263248029e-14,1.125125771e-13,1.538790746e-13,5.973922669e-14,2.797064942e-14,1.438093236e-13,1.407643512e-13,1.816332587e-14,3.757403358e-14,6.955446947e-14,2.797128567e-13,1.130639186e-13,8.119845258e-14,1.846184288e-13,1.397935733e-13,5.557926494e-14,2.657807152e-14,2.767445980e-14,4.316161783e-14,2.890927979e-13,2.506428740e-13,9.641057050e-14,8.226940426e-14,9.743075002e-14,5.339653597e-14,2.418455062e-13,1.140185697e-13,6.365467976e-14
0.078125,4.742001625e-14,1.057616841e-13,4.431169726e-14,8.460038174e-14,5.852849898e-14,1.037693982e-13,1.686401506e-13,6.177229853e-14,2.808052406e-14,1.335622925e-13,1.525202018e-13,1.503173445e-14,3.536650539e-14,6.157586163e-14,2.654112263e-13,1.088840746e-13,8.540097066e-14,2.036656997e-13,1.538501694e-13,6.625483725e-14,2.581916700e-14,2.766373206e-14,4.741475872e-14,2.755235700e-13,2.455286049e-13,9.727284482e-14,8.518295622e-14,1.137827785e-13,4.672141202e-14,2.727252468e-13,1.032668635e-13,6.582802823e-14
0.085938,4.105837878e-14,9.415939907e-14,3.625271811e-14,7.638787939e-14,5.467318867e-14,9.269086424e-14,1.869061139e-13,6.213970018e-14,2.853275759e-14,1.236497749e-13,1.652423035e-13,1.219929312e-14,3.367826758e-14,5.363414489e-14,2.464542334e-13,1.036078968e-13,9.174566001e-14,2.241816551e-13,1.678083678e-13,7.768009367e-14,2.559894291e-14,2.767117920e-14,5.263913965e-14,2.598997566e-13,2.413614043e-13,9.906860880e-14,8.821118319e-14,1.325283894e-13,4.234966276e-14,3.049248330e-13,9.406447706e-14,6.782543693e-14
0.09375,3.618850004e-14,8.307506262e-14,3.166020061e-14,7.057939622e-14,5.129996271e-14,8.135833671e-14,2.080573401e-13,6.093746734e-14,2.941209657e-14,1.144313397e-13,1.779435845e-13,9.618271396e-15,3.228904413e-14,4.662810630e-14,2.271742216e-13,9.837830639e-14,9.989687796e-14,2.450057322e-13,1.803604431e-13,8.947400572e-14,2.580030554e-14,2.766699985e-14,5.874185751e-14,2.435980899e-13,2.375863512e-13,1.017343823e-13,9.115049278e-14,1.526518639e-13,4.095587549e-14,3.368222052e-13,8.667806878e-14,6.955990397e-14
0.10156,3.331768065e-14,7.397606101e-14,3.186954609e-14,6.823795208e-14,4.852249439e-14,7.119295340e-14,2.312736379e-13,5.874168203e-14,3.119587474e-14,1.069803356e-13,1.905946599e-13,7.431589774e-15,3.162399714e-14,4.111221176e-14,2.103731305e-13,9.450204321e-14,1.099103221e-13,2.652339582e-13,1.912841249e-13,1.017471216e-13,2.657329188e-14,2.791189528e-14,6.527399830e-14,2.292088459e-13,2.361458972e-13,1.050126041e-13,9.362765651e-14,1.730564425e-13,4.283183151e-14,3.674474477e-13,8.130893215e-14,7.109306574e-14
0.10938,3.327714683e-14,6.772594613e-14,3.885035680e-14,7.003200410e-14,4.584785779e-14,6.346069858e-14,2.553251206e-13,5.580306950e-14,3.416922776e-14,1.002017829e-13,2.016348025e-13,5.732054700e-15,3.211802002e-14,3.740940967e-14,1.981994524e-13,9.256456324e-14,1.216928910e-13,2.845813379e-13,2.009884067e-13,1.130362749e-13,2.800299623e-14,2.841591905e-14,7.095847683e-14,2.185594346e-13,2.358084121e-13,1.081112148e-13,9.563643659e-14,1.941720003e-13,4.763232300e-14,3.977466862e-13,7.777257876e-14,7.211288586e-14
0.11719,3.629804095e-14,6.472459027e-14,5.356921296e-14,7.540338644e-14,4.309303435e-14,5.907635576e-14,2.778365241e-13,5.285552604e-14,3.813235063e-14,9.517369671e-14,2.109776388e-13,4.726461321e-15,3.362398343e-14,3.548372892e-14,1.917495201e-13,9.197957042e-14,1.335377675e-13,3.013534590e-13,2.091341382e-13,1.220865643e-13,3.009434425e-14,2.912768586e-14,7.524667733e-14,2.107884216e-13,2.386053542e-13,1.103200677e-13,9.660557995e-14,2.146166253e-13,5.491273022e-14,4.266186583e-13,7.551289573e-14,7.209313210e-14
0.125,4.328550159e-14,6.510477133e-14,7.816519214e-14,8.440403009e-14,4.041289565e-14,5.936169630e-14,2.960453251e-13,5.012085117e-14,4.322944525e-14,9.036922536e-14,2.189994316e-13,4.392605703e-15,3.653509009e-14,3.525101948e-14,1.908851581e-13,9.201882476e-14,1.440385020e-13,3.139875048e-13,2.154604672e-13,1.280135738e-13,3.261475651e-14,3.020406723e-14,7.730280766e-14,2.070173865e-13,2.427071645e-13,1.108169045e-13,9.633131590e-14,2.345268742e-13,6.277153536e-14,4.538803070e-13,7.404298468e-14,7.087710797e-14
0.13281,5.412650670e-14,6.797248028e-14,1.138646073e-13,9.605564575e-14,3.801173385e-14,6.457747721e-14,3.086744991e-13,4.789626354e-14,4.903991231e-14,8.640419226e-14,2.256021280e-13,4.705892396e-15,4.073133623e-14,3.651983028e-14,1.955220098e-13,9.273433274e-14,1.520233304e-13,3.217766182e-13,2.192990023e-13,1.310532965e-13,3.514175522e-14,3.165366630e-14,7.712238828e-14,2.065100469e-13,2.468332197e-13,1.094634753e-13,9.464255663e-14,2.536135589e-13,7.047997375e-14,4.788147998e-13,7.283976057e-14,6.896988509e-14
0.14062,6.771962002e-14,7.261858118e-14,1.586334910e-13,1.088415611e-13,3.609592615e-14,7.378059688e-14,3.146078988e-13,4.673532877e-14,5.503621157e-14,8.281481782e-14,2.294824542e-13,5.596597905e-15,4.567835283e-14,3.889855024e-14,2.038390716e-13,9.390355589e-14,1.571375949e-13,3.235474766e-13,2.199335760e-13,1.318826243e-13,3.754225954e-14,3.358020060e-14,7.490829103e-14,2.085125466e-13,2.486392470e-13,1.064957610e-13,9.134613553e-14,2.706841260e-13,7.662233441e-14,5.022677774e-13,7.164189381e-14,6.691055407e-14
0.14844,8.285900251e-14,7.727590747e-14,2.102060948e-13,1.195914604e-13,3.409237445e-14,8.592281977e-14,3.120420133e-13,4.648690499e-14,6.076812635e-14,8.042390687e-14,2.303324010e-13,6.845108938e-15,5.061374622e-14,4.097478675e-14,2.132920407e-13,9.374928472e-14,1.569491783e-13,3.174118533e-13,2.168975416e-13,1.298402434e-13,4.007370715e-14,3.596597237e-14,7.106256460e-14,2.116971843e-13,2.477051814e-13,1.017593415e-13,8.636909703e-14,2.854114513e-13,7.996078402e-14,5.214554914e-13,6.922811087e-14,6.486068587e-14
0.15625,9.761818048e-14,7.997584658e-14,2.652210881e-13,1.272494779e-13,3.239007421e-14,1.001295875e-13,3.022391001e-13,4.733063752e-14,6.620703160e-14,7.886650107e-14,2.274222133e-13,8.165861953e-15,5.535846633e-14,4.213992259e-14,2.209187766e-13,9.157903828e-14,1.515385204e-13,3.047731265e-13,2.109169598e-13,1.260455090e-13,4.213976326e-14,3.871361994e-14,6.659434678e-14,2.149832047e-13,2.435751548e-13,9.639443507e-14,8.021806646e-14,2.983476808e-13,7.904584477e-14,5.362974762e-13,6.556986265e-14,6.330600381e-14
0.16406,1.112478820e-13,8.033728247e-14,3.210617432e-13,1.317752393e-13,3.128718000e-14,1.159366528e-13,2.862982450e-13,4.911760375e-14,7.096670495e-14,7.874082807e-14,2.209250296e-13,9.638894276e-15,5.991291020e-14,4.295707627e-14,2.257360394e-13,8.746112999e-14,1.411296048e-13,2.863399806e-13,2.029612980e-13,1.221057298e-13,4.360208322e-14,4.184995509e-14,6.172895026e-14,2.199041733e-13,2.356982512e-13,9.110866544e-14,7.333406500e-14,3.096320504e-13,7.531184689e-14,5.475130040e-13,6.132890926e-14,6.240750107e-14
0.17188,1.215443022e-13,7.845534382e-14,3.715959775e-13,1.326063953e-13,3.086801175e-14,1.316946686e-13,2.666408457e-13,5.168179401e-14,7.401776333e-14,7.996342740e-14,2.120887304e-13,1.134192648e-14,6.331718671e-14,4.331251498e-14,2.262500335e-13,8.170474106e-14,1.278149326e-13,2.642586602e-13,1.931338269e-13,1.186550512e-13,4.464683729e-14,4.466665005e-14,5.672396863e-14,2.243031421e-13,2.236708464e-13,8.609317646e-14,6.636794382e-14,3.182400402e-13,7.003521921e-14,5.535684234e-13,5.701511880e-14,6.177731445e-14
0.17969,1.270024335e-13,7.565940038e-14,4.092499364e-13,1.314710491e-13,3.127663044e-14,1.466862175e-13,2.457639614e-13,5.513143152e-14,7.467159753e-14,8.202045002e-14,2.027190487e-13,1.334579163e-14,6.479228564e-14,4.370258451e-14,2.244162454e-13,7.562022743e-14,1.132105452e-13,2.402171746e-13,1.823114954e-13,1.161735824e-13,4.542883682e-14,4.641083411e-14,5.181257911e-14,2.253335297e-13,2.097374787e-13,8.102434856e-14,5.970443803e-14,3.240400392e-13,6.511226040e-14,5.532767884e-13,5.376154462e-14,6.071103724e-14
0.1875,1.267869665e-13,7.193523611e-14,4.315315548e-13,1.281677331e-13,3.204026333e-14,1.606139029e-13,2.239037203e-13,5.912450028e-14,7.259770505e-14,8.510720091e-14,1.944300460e-13,1.579012894e-14,6.390710082e-14,4.384581248e-14,2.188383533e-13,6.878862461e-14,9.796634160e-14,2.142462759e-13,1.702526557e-13,1.136029285e-13,4.625042689e-14,4.645160799e-14,4.660279816e-14,2.237629303e-13,1.938181261e-13,7.588431979e-14,5.348979083e-14,3.267808779e-13,6.213539251e-14,5.421577969e-13,5.110099044e-14,5.883650879e-14
0.19531,1.219232663e-13,6.792615031e-14,4.384371831e-13,1.240811987e-13,3.354799868e-14,1.745333336e-13,2.032552120e-13,6.339924922e-14,6.877446322e-14,8.755651106e-14,1.880525584e-13,1.897390739e-14,6.166715586e-14,4.488573404e-14,2.113957782e-13,6.262944131e-14,8.463554023e-14,1.891008615e-13,1.578058857e-13,1.115679165e-13,4.718141977e-14,4.514788456e-14,4.129658312e-14,2.188008433e-13,1.763002775e-13,7.135853022e-14,4.815320791e-14,3.276794565e-13,6.261461083e-14,5.219419123e-13,4.961932345e-14,5.694992412e-14
0.20312,1.147477955e-13,6.434979233e-14,4.332610715e-13,1.194771615e-13,3.510927221e-14,1.891494440e-13,1.835698258e-13,6.753740909e-14,6.470031876e-14,8.891483309e-14,1.843228798e-13,2.370343274e-14,5.953352154e-14,4.772345997e-14,2.027263035e-13,5.733549677e-14,7.310817241e-14,1.658751338e-13,1.448715162e-13,1.087150899e-13,4.807141640e-14,4.328017551e-14,3.613308795e-14,2.125002610e-13,1.587900948e-13,6.696617143e-14,4.376651367e-14,3.248021792e-13,6.771594519e-14,4.950501014e-13,4.875635064e-14,5.507998452e-14
0.21094,1.064388527e-13,6.185806553e-14,4.168915839e-13,1.152133454e-13,3.618097487e-14,2.048939973e-13,1.649485404e-13,7.124092365e-14,6.061987645e-14,8.751725386e-14,1.840472930e-13,3.017818196e-14,5.754734508e-14,5.258354331e-14,1.939528446e-13,5.377348852e-14,6.407671668e-14,1.448035638e-13,1.316763878e-13,1.041548639e-13,4.910981443e-14,4.086029684e-14,3.113657439e-14,2.033499233e-13,1.416664130e-13,6.219720697e-14,4.031196313e-14,3.190702806e-13,7.823525769e-14,4.616325067e-13,4.788343919e-14,5.295190446e-14
0.21875,9.785961096e-14,6.077452879e-14,3.905367013e-13,1.108018717e-13,3.619207085e-14,2.228489178e-13,1.467600859e-13,7.432001391e-14,5.640792176e-14,8.356916029e-14,1.870851347e-13,3.864626481e-14,5.563226762e-14,6.006804327e-14,1.860879415e-13,5.184726506e-14,5.719442791e-14,1.267726103e-13,1.187707569e-13,9.722747512e-14,5.055038963e-14,3.793830591e-14,2.624368821e-14,1.919156458e-13,1.275471339e-13,5.645599046e-14,3.803992565e-14,3.137808491e-13,9.436655005e-14,4.240208235e-13,4.719926784e-14,4.971527360e-14
0.22656,8.956270462e-14,6.080344549e-14,3.555331766e-13,1.067901194e-13,3.532321807e-14,2.427638814e-13,1.294835943e-13,7.673495674e-14,5.193783875e-14,7.679924063e-14,1.926677290e-13,4.889587102e-14,5.378129309e-14,7.102311426e-14,1.807173841e-13,5.214127110e-14,5.269777128e-14,1.121971904e-13,1.073650694e-13,8.824327907e-14,5.215974287e-14,3.461551171e-14,2.156160721e-14,1.783670286e-13,1.162959052e-13,4.989541509e-14,3.680337837e-14,3.123112327e-13,1.148562381e-13,3.876460796e-13,4.751542483e-14,4.502053001e-14
0.23438,8.354528190e-14,6.117426630e-14,3.185083594e-13,1.029989910e-13,3.364314599e-14,2.645516799e-13,1.130407867e-13,7.852626366e-14,4.763277598e-14,6.824483645e-14,1.993192878e-13,6.052762360e-14,5.256262265e-14,8.548207328e-14,1.790887632e-13,5.536653662e-14,5.036328959e-14,1.008986855e-13,9.744325463e-14,7.789500475e-14,5.372597895e-14,3.161644546e-14,1.774030706e-14,1.641243607e-13,1.085134260e-13,4.279255656e-14,3.675152352e-14,3.143152236e-13,1.373746272e-13,3.568212245e-13,4.821740469e-14,3.942507526e-14
0.24219,8.040604255e-14,6.175352116e-14,2.830326423e-13,9.923167373e-14,3.184104860e-14,2.861451777e-13,9.855409598e-14,7.980384386e-14,4.407602006e-14,5.931180875e-14,2.039218046e-13,7.268187056e-14,5.219220050e-14,1.025860922e-13,1.813681452e-13,6.169472629e-14,5.073040331e-14,9.277752072e-14,8.912943450e-14,6.717718728e-14,5.504791784e-14,2.944151547e-14,1.503582766e-14,1.509307665e-13,1.033934995e-13,3.629441543e-14,3.765062012e-14,3.196433830e-13,1.592381796e-13,3.331889400e-13,4.972176728e-14,3.406535052e-14
0.25,8.006120726e-14,6.194306585e-14,2.507312302e-13,9.517118933e-14,2.995145428e-14,3.063964798e-13,8.702050572e-14,8.067610257e-14,4.134549785e-14,5.136507196e-14,2.052861474e-13,8.515322294e-14,5.259164408e-14,1.221469614e-13,1.885266208e-13,7.150054948e-14,5.369137416e-14,8.781406134e-14,8.278724144e-14,5.710236857e-14,5.582660684e-14,2.815639328e-14,1.361734452e-14,1.380769536e-13,1.004047707e-13,3.048770139e-14,3.937894786e-14,3.290468889e-13,1.789246580e-13,3.183218975e-13,5.197754877e-14,2.950965466e-14
0.25781,8.147501678e-14,6.224960513e-14,2.213876749e-13,9.063974773e-14,2.749584236e-14,3.218944084e-13,7.839311408e-14,8.071219806e-14,3.888486966e-14,4.618830956e-14,2.019919202e-13,9.656088913e-14,5.294742530e-14,1.424016597e-13,1.987145133e-13,8.379547630e-14,5.883812672e-14,8.556488402e-14,7.779147060e-14,4.748879039e-14,5.647093212e-14,2.738801029e-14,1.378205585e-14,1.265976834e-13,9.991117905e-14,2.496036224e-14,4.134198889e-14,3.444269723e-13,1.950231424e-13,3.087165338e-13,5.479017889e-14,2.486711599e-14
0.26562,8.361211780e-14,6.290579189e-14,1.960755286e-13,8.596762208e-14,2.506345123e-14,3.307657401e-13,7.356170865e-14,7.995114105e-14,3.587689553e-14,4.410093141e-14,1.941529057e-13,1.053813797e-13,5.234207976e-14,1.623891550e-13,2.127289260e-13,9.833719002e-14,6.642495712e-14,8.569045854e-14,7.410785467e-14,3.946556982e-14,5.718643138e-14,2.685475897e-14,1.544078184e-14,1.184155390e-13,1.016157569e-13,2.033479902e-14,4.339118846e-14,3.634343621e-13,2.061037051e-13,3.004772105e-13,5.833931748e-14,2.044127304e-14
0.27344,8.533602861e-14,6.363425776e-14,1.743514173e-13,8.131099757e-14,2.298076267e-14,3.320985534e-13,7.140587032e-14,7.877461458e-14,3.215052751e-14,4.526635383e-14,1.840392260e-13,1.105781636e-13,5.052284338e-14,1.793710380e-13,2.298762451e-13,1.142795574e-13,7.630063833e-14,8.663042220e-14,7.068242278e-14,3.285761419e-14,5.830471795e-14,2.627178467e-14,1.824054525e-14,1.137748013e-13,1.063826644e-13,1.639176574e-14,4.513455182e-14,3.792964226e-13,2.096153031e-13,2.912677707e-13,6.151656858e-14,1.669814588e-14
0.28125,8.707014312e-14,6.545152772e-14,1.576308150e-13,7.761867954e-14,2.203567741e-14,3.256393082e-13,7.208454522e-14,7.760362155e-14,2.857880791e-14,4.969099580e-14,1.725794774e-13,1.124282657e-13,4.789798870e-14,1.921997257e-13,2.496750550e-13,1.310748386e-13,8.848746297e-14,8.756598552e-14,6.718997941e-14,2.784630371e-14,5.989223702e-14,2.554656913e-14,2.222175303e-14,1.126745905e-13,1.140067706e-13,1.359347287e-14,4.635542527e-14,3.923995977e-13,2.060696404e-13,2.813304078e-13,6.476454396e-14,1.466127752e-14
0.28906,8.839953601e-14,6.821972567e-14,1.457424135e-13,7.474909145e-14,2.219847205e-14,3.123706461e-13,7.458493075e-14,7.638157045e-14,2.550372105e-14,5.554472674e-14,1.621496155e-13,1.114551105e-13,4.452977343e-14,2.001476169e-13,2.707722978e-13,1.470843836e-13,1.013436958e-13,8.762655616e-14,6.324466472e-14,2.449129855e-14,6.133145682e-14,2.466733762e-14,2.731298739e-14,1.141850863e-13,1.245011930e-13,1.167030826e-14,4.634255005e-14,4.021729517e-13,1.967057077e-13,2.695457728e-13,6.712280316e-14,1.428750944e-14
0.29688,8.916106174e-14,7.147021413e-14,1.386052596e-13,7.249175875e-14,2.285097015e-14,2.937331114e-13,7.757152846e-14,7.444831787e-14,2.269647709e-14,6.201420387e-14,1.535485398e-13,1.080333033e-13,4.051142143e-14,2.031211344e-13,2.899578381e-13,1.597797844e-13,1.129389791e-13,8.691207762e-14,5.864880318e-14,2.204957103e-14,6.257431434e-14,2.360937771e-14,3.292168283e-14,1.174289583e-13,1.358645661e-13,1.019649332e-14,4.529473976e-14,4.089777927e-13,1.828904637e-13,2.548956625e-13,6.779562530e-14,1.491330589e-14
0.30469,8.855977579e-14,7.513855089e-14,1.339834119e-13,7.122445451e-14,2.401220587e-14,2.711998779e-13,8.117201530e-14,7.163540468e-14,1.972937883e-14,6.771908735e-14,1.477778356e-13,1.021162031e-13,3.574925416e-14,2.000966315e-13,3.066203259e-13,1.697031155e-13,1.235658687e-13,8.545534593e-14,5.342219703e-14,2.062284754e-14,6.372453138e-14,2.216745101e-14,3.833275887e-14,1.221932993e-13,1.491271947e-13,9.304496828e-15,4.359796598e-14,4.075271498e-13,1.658942976e-13,2.356302180e-13,6.715734783e-14,1.692557179e-14
0.3125,8.731182449e-14,7.855990447e-14,1.327389144e-13,7.058382966e-14,2.582860230e-14,2.462462012e-13,8.460824286e-14,6.770438558e-14,1.732401828e-14,7.139014666e-14,1.454984223e-13,9.399783251e-14,3.086657484e-14,1.901866838e-13,3.178928857e-13,1.758762832e-13,1.319187434e-13,8.240963478e-14,4.742259164e-14,2.016852017e-14,6.446973604e-14,2.052369140e-14,4.321612016e-14,1.264890458e-13,1.624309522e-13,9.051971996e-15,4.148738105e-14,3.960591041e-13,1.459243719e-13,2.124907947e-13,6.525622788e-14,2.118569077e-14
0.32031,8.599608824e-14,8.158509176e-14,1.358405915e-13,7.032637686e-14,2.789130699e-14,2.193921418e-13,8.673543474e-14,6.225201958e-14,1.555916750e-14,7.206461830e-14,1.470011234e-13,8.441644302e-14,2.608718330e-14,1.746899873e-13,3.231237364e-13,1.776511329e-13,1.370473270e-13,7.725092707e-14,4.087310725e-14,2.040751129e-14,6.524866615e-14,1.887693177e-14,4.731010058e-14,1.318439020e-13,1.736417754e-13,9.034135481e-15,3.921107024e-14,3.768100334e-13,1.260638759e-13,1.877681138e-13,6.179483074e-14,2.697704189e-14
0.32812,8.509425624e-14,8.359611640e-14,1.419379551e-13,7.102075645e-14,3.008104174e-14,1.926602960e-13,8.663258677e-14,5.548283770e-14,1.424697917e-14,6.975612508e-14,1.531013789e-13,7.467209753e-14,2.169067787e-14,1.561954961e-13,3.205813788e-13,1.732644483e-13,1.372520676e-13,7.025576989e-14,3.451647203e-14,2.115360365e-14,6.543798800e-14,1.730610702e-14,4.987539344e-14,1.372273388e-13,1.786077928e-13,9.192748987e-15,3.708332775e-14,3.548488646e-13,1.069310813e-13,1.625236620e-13,5.719898438e-14,3.359330995e-14
0.33594,8.515054624e-14,8.434152463e-14,1.512033856e-13,7.285854834e-14,3.243559724e-14,1.687441989e-13,8.413785096e-14,4.810683416e-14,1.304133921e-14,6.519051763e-14,1.646322595e-13,6.542338691e-14,1.799063825e-14,1.370184757e-13,3.135159036e-13,1.641210281e-13,1.323858451e-13,6.231063585e-14,2.881506152e-14,2.275535543e-14,6.494535215e-14,1.606534879e-14,5.085113426e-14,1.427356585e-13,1.803969856e-13,9.762096522e-15,3.599966232e-14,3.281119634e-13,8.924988707e-14,1.366109706e-13,5.257587336e-14,4.066281081e-14
0.34375,8.616527855e-14,8.447696202e-14,1.623363290e-13,7.548463182e-14,3.525818161e-14,1.473368779e-13,7.965494367e-14,4.070313963e-14,1.193884712e-14,6.004495212e-14,1.810957608e-13,5.707354724e-14,1.508327550e-14,1.183876733e-13,3.019747088e-13,1.512104426e-13,1.236060290e-13,5.375676618e-14,2.396625190e-14,2.485023020e-14,6.404266663e-14,1.525948403e-14,5.026477007e-14,1.496963610e-13,1.765438652e-13,1.093350013e-14,3.594551386e-14,2.975374869e-13,7.457967430e-14,1.123361255e-13,4.917061531e-14,4.797980468e-14
0.35156,8.943449923e-14,8.496603382e-14,1.770711607e-13,7.935362370e-14,3.859921480e-14,1.293630942e-13,7.440304753e-14,3.389010300e-14,1.120068534e-14,5.499615052e-14,2.028988799e-13,5.002073000e-14,1.306956778e-14,1.016368888e-13,2.896568572e-13,1.364767609e-13,1.129958197e-13,4.529445127e-14,1.987408026e-14,2.741495052e-14,6.319687932e-14,1.486435240e-14,4.886738179e-14,1.586609993e-13,1.682576838e-13,1.270733617e-14,3.687969775e-14,2.659671889e-13,6.290856742e-14,9.130131070e-14,4.732318368e-14,5.507408221e-14
0.35938,9.473393778e-14,8.578833476e-14,1.943720389e-13,8.370365742e-14,4.226196991e-14,1.142522728e-13,6.802022987e-14,2.821467173e-14,1.092397101e-14,5.111295469e-14,2.278151762e-13,4.444771323e-14,1.190785807e-14,8.805854667e-14,2.778059095e-13,1.202614052e-13,1.010394026e-13,3.676121983e-14,1.679619289e-14,3.029284533e-14,6.226873252e-14,1.486486784e-14,4.641051060e-14,1.692622858e-13,1.555510089e-13,1.499240845e-14,3.878435427e-14,2.358207600e-13,5.430133682e-14,7.357746894e-14,4.732157333e-14,6.144910213e-14
0.36719,1.024316954e-13,8.816402166e-14,2.151175824e-13,8.860369421e-14,4.629499523e-14,1.024189591e-13,6.240086290e-14,2.415858855e-14,1.110893230e-14,4.895613606e-14,2.555217865e-13,4.050772517e-14,1.143365997e-14,7.873692528e-14,2.705890827e-13,1.051515964e-13,9.077108247e-14,2.919465488e-14,1.494457556e-14,3.352893884e-14,6.137780999e-14,1.539926009e-14,4.351106329e-14,1.817977767e-13,1.394966235e-13,1.765260691e-14,4.173301651e-14,2.077012633e-13,4.975684940e-14,6.056044935e-14,4.988480869e-14,6.678358634e-14
0.375,1.114576145e-13,9.160890653e-14,2.379761015e-13,9.296958460e-14,5.022220512e-14,9.342903185e-14,5.865740285e-14,2.162133982e-14,1.167497070e-14,4.874566007e-14,2.835553171e-13,3.803862425e-14,1.149406829e-14,7.326663492e-14,2.660500688e-13,9.155183144e-14,8.400759226e-14,2.379794442e-14,1.425228555e-14,3.772277682e-14,6.081466695e-14,1.631234313e-14,4.082176598e-14,1.958370912e-13,1.233490331e-13,2.066446893e-14,4.596764740e-14,1.840985801e-13,4.893426133e-14,5.401708384e-14,5.475966111e-14,6.969663261e-14
0.38281,1.205113876e-13,9.585398042e-14,2.610045637e-13,9.598534554e-14,5.353692115e-14,8.606755514e-14,5.633657470e-14,2.019771760e-14,1.261293933e-14,5.051361621e-14,3.071936914e-13,3.663756417e-14,1.213171410e-14,7.049550795e-14,2.625627895e-13,7.957606662e-14,8.063865441e-14,2.013586840e-14,1.473334553e-14,4.270347647e-14,6.064694556e-14,1.724165882e-14,3.893504482e-14,2.109640778e-13,1.090655335e-13,2.398129463e-14,5.155847713e-14,1.634107211e-13,5.107786275e-14,5.253112782e-14,6.127614360e-14,7.007156417e-14
0.39062,1.281657597e-13,1.011899322e-13,2.816225281e-13,9.734902535e-14,5.607938093e-14,7.960509133e-14,5.551525808e-14,1.967608265e-14,1.396647028e-14,5.369306376e-14,3.209764426e-13,3.573160812e-14,1.327775517e-14,6.946837895e-14,2.603822229e-13,7.055588667e-14,8.096863802e-14,1.836478120e-14,1.652014794e-14,4.883221658e-14,6.100414199e-14,1.815464924e-14,3.765131620e-14,2.249745964e-13,9.763691377e-14,2.762265002e-14,5.837604554e-14,1.458942749e-13,5.688455270e-14,5.455835586e-14,6.918598512e-14,6.826377489e-14
0.39844,1.335246025e-13,1.060924497e-13,2.982961240e-13,9.662528168e-14,5.796061825e-14,7.433557004e-14,5.532313777e-14,1.993604058e-14,1.568231331e-14,5.838589516e-14,3.255897178e-13,3.509304846e-14,1.477960009e-14,6.940480235e-14,2.581950102e-13,6.432504059e-14,8.412089471e-14,1.835619911e-14,1.960049974e-14,5.623301566e-14,6.178338086e-14,1.919699675e-14,3.637851126e-14,2.384492265e-13,9.062866168e-14,3.132685266e-14,6.580011841e-14,1.338985387e-13,6.572014681e-14,6.135343038e-14,7.702593765e-14,6.563818961e-14
0.40625,1.362098809e-13,1.097569940e-13,3.097389056e-13,9.488756448e-14,5.958402171e-14,6.981089756e-14,5.612758530e-14,2.078062277e-14,1.783726973e-14,6.387042778e-14,3.191517807e-13,3.473558034e-14,1.648426000e-14,6.975450193e-14,2.552320492e-13,6.138495444e-14,8.921043014e-14,1.992701871e-14,2.361833417e-14,6.475812396e-14,6.333756455e-14,2.035746597e-14,3.501861252e-14,2.512717857e-13,8.820619134e-14,3.486318226e-14,7.421068616e-14,1.251471168e-13,7.753952166e-14,7.147334094e-14,8.492333111e-14,6.247831290e-14
0.41406,1.361502014e-13,1.116172694e-13,3.167740640e-13,9.269217748e-14,6.079663822e-14,6.706820904e-14,5.759066927e-14,2.172860165e-14,2.038609792e-14,6.976547853e-14,3.026337093e-13,3.464153509e-14,1.851524652e-14,7.021806895e-14,2.500398714e-13,6.107744131e-14,9.521952848e-14,2.274783514e-14,2.856090435e-14,7.486679999e-14,6.535711527e-14,2.174695898e-14,3.329299634e-14,2.625815535e-13,9.102327998e-14,3.825118731e-14,8.401032195e-14,1.198181541e-13,9.173063874e-14,8.491427062e-14,9.210070072e-14,5.871765503e-14
0.42188,1.336334452e-13,1.114008473e-13,3.202331060e-13,9.052764236e-14,6.080631980e-14,6.546072320e-14,5.965474290e-14,2.222376514e-14,2.350507485e-14,7.562614865e-14,2.765059686e-13,3.493560503e-14,2.135149124e-14,7.029538136e-14,2.408537185e-13,6.268902831e-14,1.014375427e-13,2.686008745e-14,3.479096345e-14,8.607356517e-14,6.765625816e-14,2.364033934e-14,3.121377785e-14,2.727194414e-13,9.856895929e-14,4.163165814e-14,9.580908275e-14,1.178878591e-13,1.093480808e-13,1.005466582e-13,9.842604238e-14,5.490193192e-14
0.42969,1.293489390e-13,1.091301500e-13,3.215555751e-13,8.807810090e-14,5.877451442e-14,6.587382797e-14,6.113613622e-14,2.220471269e-14,2.708201566e-14,8.188065553e-14,2.444848134e-13,3.569573634e-14,2.460557644e-14,6.954242840e-14,2.275459930e-13,6.498193453e-14,1.057174638e-13,3.158922631e-14,4.159825492e-14,9.740781310e-14,6.999257210e-14,2.561888801e-14,2.871444796e-14,2.827250778e-13,1.099754608e-13,4.444108552e-14,1.087288186e-13,1.172266945e-13,1.286636603e-13,1.178900233e-13,1.022906199e-13,5.125271871e-14
0.4375,1.251654621e-13,1.062307693e-13,3.249310999e-13,8.692888663e-14,5.503192675e-14,6.965948060e-14,6.134359488e-14,2.205099054e-14,3.090231293e-14,8.815217796e-14,2.112549191e-13,3.710550013e-14,2.777121008e-14,6.906903647e-14,2.140627572e-13,6.820281342e-14,1.070786941e-13,3.611484843e-14,4.836071414e-14,1.088322062e-13,7.232204647e-14,2.738307478e-14,2.590353877e-14,2.943374432e-13,1.257787213e-13,4.613952874e-14,1.229706680e-13,1.170907220e-13,1.507485049e-13,1.364812480e-13,1.042115486e-13,4.813326982e-14
0.44531,1.216853838e-13,1.038028498e-13,3.302841554e-13,8.804929925e-14,5.062755759e-14,7.619489765e-14,6.134802537e-14,2.192697344e-14,3.422003803e-14,9.435953795e-14,1.810132444e-13,3.865241669e-14,3.053954713e-14,6.887538646e-14,2.019600713e-13,7.253961450e-14,1.070297113e-13,4.056314411e-14,5.521661646e-14,1.201216258e-13,7.460276808e-14,2.904017443e-14,2.281846586e-14,3.093327489e-13,1.444495363e-13,4.741106551e-14,1.399562988e-13,1.161797658e-13,1.769962322e-13,1.556576034e-13,1.058242145e-13,4.577399257e-14
0.45312,1.193678576e-13,1.022090003e-13,3.366391161e-13,9.235964628e-14,4.583551627e-14,8.544002153e-14,6.137536550e-14,2.148713297e-14,3.661009589e-14,9.996634177e-14,1.563030223e-13,4.023437368e-14,3.303184740e-14,6.942060946e-14,1.922273213e-13,7.733248756e-14,1.054658056e-13,4.496019460e-14,6.232491763e-14,1.302328558e-13,7.666639081e-14,3.083625254e-14,1.964708803e-14,3.266545633e-13,1.656304915e-13,4.877183625e-14,1.601203540e-13,1.160247404e-13,2.073348703e-13,1.758216207e-13,1.073883989e-13,4.433790316e-14
0.46094,1.189654874e-13,1.023489685e-13,3.455552780e-13,9.973509452e-14,4.059861051e-14,9.685367782e-14,6.178276623e-14,2.106753912e-14,3.843460786e-14,1.048389346e-13,1.387078552e-13,4.212542140e-14,3.565074856e-14,7.119523604e-14,1.860085837e-13,8.282897193e-14,1.033132568e-13,4.963735691e-14,6.984710243e-14,1.386656677e-13,7.796278643e-14,3.290611821e-14,1.669212835e-14,3.458870374e-13,1.890750090e-13,4.988687182e-14,1.826925171e-13,1.173563182e-13,2.416199779e-13,1.999119073e-13,1.090591004e-13,4.364415233e-14
0.46875,1.203681069e-13,1.050959169e-13,3.566346937e-13,1.103509823e-13,3.492028173e-14,1.099058143e-13,6.233859892e-14,2.093359698e-14,3.982665952e-14,1.080935749e-13,1.282778889e-13,4.401223732e-14,3.799904834e-14,7.363652715e-14,1.842720531e-13,8.884551442e-14,1.004909572e-13,5.384003083e-14,7.692135597e-14,1.443664110e-13,7.842759255e-14,3.485773197e-14,1.442493649e-14,3.644781388e-13,2.124322806e-13,5.038416349e-14,2.066197188e-13,1.195337442e-13,2.784594325e-13,2.303158481e-13,1.104268642e-13,4.327990773e-14
0.47656,1.231840957e-13,1.113228795e-13,3.682651604e-13,1.243408778e-13,2.944191266e-14,1.249881340e-13,6.358593100e-14,2.137691094e-14,4.059484715e-14,1.095464998e-13,1.248636549e-13,4.549088805e-14,3.983005308e-14,7.753237273e-14,1.891916822e-13,9.592972911e-14,9.779612077e-14,5.803113555e-14,8.402636036e-14,1.478553765e-13,7.870435579e-14,3.673793682e-14,1.300953135e-14,3.819913574e-13,2.345461545e-13,5.034269240e-14,2.319718267e-13,1.241158905e-13,3.185813356e-13,2.671762130e-13,1.126262037e-13,4.290991823e-14
0.48438,1.265339864e-13,1.211092222e-13,3.779973151e-13,1.418023112e-13,2.497630153e-14,1.410997427e-13,6.516154105e-14,2.234689698e-14,4.036760100e-14,1.089210351e-13,1.279231255e-13,4.633194223e-14,4.118406378e-14,8.294159332e-14,2.011264531e-13,1.043709570e-13,9.563103898e-14,6.291871141e-14,9.187143874e-14,1.505892740e-13,7.904626002e-14,3.850519809e-14,1.238295153e-14,3.974073114e-13,2.547835279e-13,5.032068221e-14,2.590866783e-13,1.324164827e-13,3.608347233e-13,3.128472541e-13,1.162244621e-13,4.267851942e-14
0.49219,1.302372711e-13,1.347478854e-13,3.853195048e-13,1.617771738e-13,2.188100938e-14,1.569597326e-13,6.652380419e-14,2.432876325e-14,3.952847925e-14,1.064890950e-13,1.359926359e-13,4.663687438e-14,4.235438912e-14,8.967284354e-14,2.194843163e-13,1.139635130e-13,9.362268300e-14,6.826717403e-14,1.000909587e-13,1.529867159e-13,7.982416981e-14,4.033813086e-14,1.231343319e-14,4.080477667e-13,2.712550428e-13,5.006450704e-14,2.860029750e-13,1.438046575e-13,4.037738588e-13,3.662301395e-13,1.211193844e-13,4.254758367e-14
0.5,1.352108265e-13,1.527747442e-13,3.918962113e-13,1.840747056e-13,2.006358747e-14,1.720674949e-13,6.735959752e-14,2.760224075e-14,3.885297697e-14,1.025226343e-13,1.472028454e-13,4.705452722e-14,4.423418117e-14,9.862513352e-14,2.439777877e-13,1.250409129e-13,9.202148814e-14,7.453644896e-14,1.092808758e-13,1.549840598e-13,8.163843735e-14,4.276432752e-14,1.301057132e-14,4.124633197e-13,2.834421085e-13,4.916749883e-14,3.114232577e-13,1.582962054e-13,4.452840028e-13,4.276437063e-13,1.273218171e-13,4.224620829e-14
0.50781,1.402519751e-13,1.747249181e-13,3.964681819e-13,2.070567424e-13,1.918232991e-14,1.856199472e-13,6.837825766e-14,3.245845451e-14,3.836280206e-14,9.684318944e-14,1.603243926e-13,4.722829053e-14,4.692757261e-14,1.090549034e-13,2.738633323e-13,1.373566776e-13,9.116632909e-14,8.163007560e-14,1.193937512e-13,1.564803338e-13,8.463722521e-14,4.566891354e-14,1.447142345e-14,4.092264324e-13,2.898785875e-13,4.811364746e-14,3.333100469e-13,1.745741142e-13,4.818575365e-13,4.915946210e-13,1.347076036e-13,4.102542597e-14
0.51562,1.443474659e-13,1.995673138e-13,3.985605311e-13,2.296950603e-13,1.939002248e-14,1.969080662e-13,6.919971710e-14,3.863426257e-14,3.754625873e-14,9.001526649e-14,1.745271973e-13,4.670771969e-14,5.022136885e-14,1.204788864e-13,3.063330775e-13,1.497314861e-13,9.011109362e-14,8.885999476e-14,1.296097330e-13,1.572296623e-13,8.834401764e-14,4.843484226e-14,1.670006833e-14,3.996275035e-13,2.898155033e-13,4.713578690e-14,3.487660457e-13,1.905472509e-13,5.092477964e-13,5.559421244e-13,1.423123502e-13,3.921077940e-14
0.52344,1.475986186e-13,2.265668403e-13,3.992177728e-13,2.507945274e-13,2.080341925e-14,2.053699248e-13,6.940274203e-14,4.599112928e-14,3.685061798e-14,8.188328848e-14,1.883723295e-13,4.595786547e-14,5.464945594e-14,1.327960781e-13,3.409493412e-13,1.621744270e-13,8.906018658e-14,9.569556625e-14,1.391820359e-13,1.567630511e-13,9.198803964e-14,5.113104342e-14,1.908084160e-14,3.858480893e-13,2.839770775e-13,4.562524417e-14,3.567581058e-13,2.033094146e-13,5.265568761e-13,6.130871009e-13,1.494137856e-13,3.750205295e-14
0.53125,1.504079676e-13,2.545459433e-13,3.980282724e-13,2.689134675e-13,2.286743982e-14,2.109677154e-13,6.905264200e-14,5.457074307e-14,3.679482863e-14,7.357391075e-14,2.014029896e-13,4.546513229e-14,6.046475774e-14,1.451981581e-13,3.749544282e-13,1.733468165e-13,8.797309906e-14,1.014507470e-13,1.477092911e-13,1.537060455e-13,9.484380717e-14,5.407885629e-14,2.146198778e-14,3.666644685e-13,2.735075773e-13,4.326528487e-14,3.562748693e-13,2.094252605e-13,5.325954226e-13,6.561489097e-13,1.556134960e-13,3.585527702e-14
0.53906,1.530188257e-13,2.832929213e-13,3.954998422e-13,2.840382982e-13,2.505642199e-14,2.138572838e-13,6.837676913e-14,6.342257394e-14,3.757907205e-14,6.518831938e-14,2.124368163e-13,4.555088537e-14,6.810363536e-14,1.571174488e-13,4.040748315e-13,1.813532323e-13,8.594764163e-14,1.055593732e-13,1.549378303e-13,1.469990137e-13,9.600496837e-14,5.746694597e-14,2.433076382e-14,3.411395731e-13,2.606065274e-13,4.023917931e-14,3.470432733e-13,2.084402522e-13,5.264998088e-13,6.817134537e-13,1.608231535e-13,3.390509752e-14
0.54688,1.550627786e-13,3.102730811e-13,3.918447396e-13,2.960489725e-13,2.738021023e-14,2.137926161e-13,6.815354634e-14,7.288554018e-14,3.897398369e-14,5.766492763e-14,2.217289793e-13,4.610913733e-14,7.716301364e-14,1.676659452e-13,4.279090588e-13,1.868539122e-13,8.370726546e-14,1.084016022e-13,1.604323949e-13,1.375968509e-13,9.532207502e-14,6.078068475e-14,2.717176003e-14,3.102000924e-13,2.459218973e-13,3.733909851e-14,3.306128137e-13,2.030535747e-13,5.086141602e-13,6.895859602e-13,1.648401725e-13,3.144280873e-14
0.55469,1.553520365e-13,3.310356618e-13,3.843494415e-13,3.044830547e-13,3.011007055e-14,2.102539300e-13,6.798563723e-14,8.315863916e-14,4.087987998e-14,5.129226563e-14,2.287795809e-13,4.694065294e-14,8.630694503e-14,1.752314855e-13,4.423432927e-13,1.886976782e-13,8.086583549e-14,1.095088525e-13,1.631532361e-13,1.270160723e-13,9.310579771e-14,6.297223307e-14,2.927876754e-14,2.762268802e-13,2.301434391e-13,3.507793762e-14,3.080161414e-13,1.965840267e-13,4.793120133e-13,6.812475019e-13,1.667672992e-13,2.933497460e-14
0.5625,1.535262809e-13,3.444788515e-13,3.729952094e-13,3.094729867e-13,3.308579353e-14,2.039383547e-13,6.729938716e-14,9.424838222e-14,4.344538308e-14,4.674904493e-14,2.336092974e-13,4.807404901e-14,9.520372773e-14,1.793363547e-13,4.468970745e-13,1.870952649e-13,7.787428143e-14,1.086406103e-13,1.627588945e-13,1.156941483e-13,8.996018917e-14,6.433954158e-14,3.072539569e-14,2.436566636e-13,2.138689421e-13,3.317478459e-14,2.810829937e-13,1.906514841e-13,4.412494228e-13,6.613194819e-13,1.657224653e-13,2.815768422e-14
0.57031,1.495228643e-13,3.476067763e-13,3.585637041e-13,3.087779192e-13,3.514718811e-14,1.951619529e-13,6.513085156e-14,1.053329259e-13,4.666474683e-14,4.392421417e-14,2.356713012e-13,4.912460845e-14,1.037369271e-13,1.785216413e-13,4.387324035e-13,1.815108206e-13,7.419953132e-14,1.050924321e-13,1.585440594e-13,1.028651414e-13,8.581788873e-14,6.523503668e-14,3.180731512e-14,2.140117584e-13,1.979244043e-13,3.070970458e-14,2.492728668e-13,1.896992337e-13,3.963297930e-13,6.326498130e-13,1.593824140e-13,2.816070572e-14
0.57812,1.437583634e-13,3.413469757e-13,3.419170780e-13,3.016482324e-13,3.586356309e-14,1.841079113e-13,6.155254018e-14,1.159082525e-13,5.063006023e-14,4.271812974e-14,2.345063285e-13,5.035045014e-14,1.123478356e-13,1.734266970e-13,4.173386467e-13,1.727418614e-13,6.947130828e-14,9.960947180e-14,1.517113167e-13,9.002555997e-14,8.181783376e-14,6.626133546e-14,3.266868774e-14,1.882492086e-13,1.835522416e-13,2.757754590e-14,2.155326603e-13,1.959751409e-13,3.504386294e-13,5.974969102e-13,1.494105562e-13,2.941274213e-14
0.58594,1.374772642e-13,3.277334845e-13,3.253843290e-13,2.901752086e-13,3.615824509e-14,1.714037883e-13,5.765180177e-14,1.258933720e-13,5.493288864e-14,4.329915552e-14,2.303801983e-13,5.172193366e-14,1.204668834e-13,1.658822701e-13,3.876531796e-13,1.636296953e-13,6.534027168e-14,9.392073199e-14,1.443174037e-13,7.944874370e-14,7.935075260e-14,6.748902691e-14,3.304402264e-14,1.676064004e-13,1.699386857e-13,2.448263462e-14,1.831194851e-13,2.113101917e-13,3.080792654e-13,5.598365535e-13,1.382647603e-13,3.148160259e-14
0.59375,1.313089210e-13,3.083978273e-13,3.094877414e-13,2.756880223e-13,3.623440534e-14,1.582074857e-13,5.332719761e-14,1.349741064e-13,5.920223862e-14,4.560777257e-14,2.243785979e-13,5.324906912e-14,1.274821060e-13,1.574178835e-13,3.531620388e-13,1.546874097e-13,6.149907900e-14,8.852818760e-14,1.371156944e-13,7.242202104e-14,7.955333264e-14,6.912669741e-14,3.319250536e-14,1.508202937e-13,1.567391804e-13,2.167840394e-14,1.535614822e-13,2.343416851e-13,2.711952686e-13,5.249763062e-13,1.263436245e-13,3.396152425e-14
0.60156,1.253450415e-13,2.851931059e-13,2.948671863e-13,2.592245038e-13,3.605610017e-14,1.448396604e-13,4.946519031e-14,1.430841555e-13,6.324034826e-14,4.961230553e-14,2.168506444e-13,5.481453187e-14,1.336722425e-13,1.489175455e-13,3.165994064e-13,1.473846781e-13,5.895310996e-14,8.429723423e-14,1.311008833e-13,6.944542879e-14,8.259025123e-14,7.141527735e-14,3.327597611e-14,1.386232728e-13,1.441263420e-13,1.930623633e-14,1.280617823e-13,2.632052146e-13,2.405958620e-13,4.952749971e-13,1.138704139e-13,3.648007130e-14
0.60938,1.198687665e-13,2.598646670e-13,2.822608384e-13,2.402647520e-13,3.549635567e-14,1.324553982e-13,4.611347259e-14,1.505342716e-13,6.698338310e-14,5.537166960e-14,2.087977054e-13,5.650338793e-14,1.389916737e-13,1.414250981e-13,2.819261670e-13,1.428477564e-13,5.851712351e-14,8.090510648e-14,1.267055915e-13,6.999514708e-14,8.817418757e-14,7.437846574e-14,3.350206141e-14,1.319755258e-13,1.317082478e-13,1.712631134e-14,1.064076556e-13,2.948657279e-13,2.166114235e-13,4.702562750e-13,1.016431857e-13,3.905222879e-14
0.61719,1.148171320e-13,2.364810342e-13,2.708521701e-13,2.193682289e-13,3.492494497e-14,1.207773879e-13,4.294869269e-14,1.569158389e-13,7.007802719e-14,6.267011088e-14,2.004592550e-13,5.816385611e-14,1.434247077e-13,1.353418902e-13,2.500336926e-13,1.400175028e-13,5.888249328e-14,7.726880883e-14,1.230215269e-13,7.419157043e-14,9.444618984e-14,7.781748243e-14,3.418323453e-14,1.294512105e-13,1.196032682e-13,1.497566564e-14,8.824225020e-14,3.226140151e-13,1.981838503e-13,4.504757556e-13,9.158436426e-14,4.197544245e-14
0.625,1.106124638e-13,2.175919285e-13,2.596560476e-13,1.993376482e-13,3.465251731e-14,1.104217407e-13,4.046385195e-14,1.618708725e-13,7.238656184e-14,7.059868655e-14,1.925570649e-13,6.029214539e-14,1.471696984e-13,1.317954935e-13,2.230609640e-13,1.384846734e-13,5.989615682e-14,7.335218949e-14,1.198674051e-13,8.149330444e-14,1.006673491e-13,8.128512707e-14,3.554906518e-14,1.311334022e-13,1.078339439e-13,1.324899857e-14,7.373572736e-14,3.422749320e-13,1.841400273e-13,4.361355259e-13,8.488005766e-14,4.506646526e-14
0.63281,1.067264527e-13,2.019702358e-13,2.487842419e-13,1.810358556e-13,3.482692402e-14,1.022677190e-13,3.850446415e-14,1.651239136e-13,7.351703140e-14,7.861556935e-14,1.855037399e-13,6.268210402e-14,1.492068307e-13,1.301517557e-13,2.011032875e-13,1.373266133e-13,6.080052848e-14,6.871278500e-14,1.160320760e-13,9.087216098e-14,1.054038812e-13,8.395563419e-14,3.745602133e-14,1.375490181e-13,9.627915581e-14,1.202881230e-14,6.201801342e-14,3.504560440e-13,1.717586082e-13,4.244837187e-13,8.055763590e-14,4.818456619e-14
0.64062,1.029444283e-13,1.891061221e-13,2.374704050e-13,1.656572717e-13,3.576995044e-14,9.607557323e-14,3.801471529e-14,1.664282745e-13,7.316885615e-14,8.597687562e-14,1.797130559e-13,6.501308335e-14,1.489194258e-13,1.300104910e-13,1.845937034e-13,1.365478754e-13,6.206105887e-14,6.405851532e-14,1.112165921e-13,1.006997836e-13,1.076809726e-13,8.522372156e-14,3.945122647e-14,1.464475126e-13,8.597920279e-14,1.172478001e-14,5.318078440e-14,3.480295510e-13,1.613080826e-13,4.124726576e-13,7.937499876e-14,5.088645761e-14
0.64844,9.853184446e-14,1.777074904e-13,2.248954848e-13,1.523913997e-13,3.715554245e-14,9.210495614e-14,3.839678047e-14,1.658132141e-13,7.126026472e-14,9.247893811e-14,1.736202168e-13,6.700092147e-14,1.461563380e-13,1.300344625e-13,1.713120109e-13,1.346308144e-13,6.282853734e-14,5.901908214e-14,1.043342954e-13,1.096592205e-13,1.056499586e-13,8.480630975e-14,4.133293143e-14,1.564926831e-13,7.747836495e-14,1.218781362e-14,4.594262532e-14,3.358771906e-13,1.500810843e-13,3.989513560e-13,7.989456145e-14,5.280848243e-14
0.65625,9.291810080e-14,1.665131588e-13,2.112125075e-13,1.409295926e-13,3.852808807e-14,8.968941535e-14,3.987729490e-14,1.627057742e-13,6.806194610e-14,9.691761342e-14,1.664008375e-13,6.827647482e-14,1.408679008e-13,1.291217935e-13,1.599022038e-13,1.320367047e-13,6.357022413e-14,5.399819441e-14,9.491852216e-14,1.169915446e-13,9.938706734e-14,8.265010861e-14,4.303056723e-14,1.660538234e-13,7.145523664e-14,1.321281434e-14,3.993096377e-14,3.145721500e-13,1.370427778e-13,3.847283773e-13,8.070824688e-14,5.410336692e-14
0.66406,8.689860405e-14,1.551394021e-13,1.986160640e-13,1.309423702e-13,3.976093648e-14,8.903695615e-14,4.278257755e-14,1.576741352e-13,6.448355806e-14,9.889556750e-14,1.598038349e-13,6.936338460e-14,1.337799691e-13,1.274692264e-13,1.513816458e-13,1.287024023e-13,6.535384424e-14,4.954041611e-14,8.407082395e-14,1.219627961e-13,9.027183497e-14,7.918474726e-14,4.441904186e-14,1.747196630e-13,6.880946351e-14,1.496443126e-14,3.570286866e-14,2.858918906e-13,1.240018997e-13,3.682588955e-13,8.131221911e-14,5.536268607e-14
0.67188,8.027378724e-14,1.428146410e-13,1.877719852e-13,1.219350928e-13,4.125523720e-14,9.011218201e-14,4.648827466e-14,1.510693117e-13,6.040784023e-14,9.923474392e-14,1.535021948e-13,6.979833185e-14,1.247859123e-13,1.246964806e-13,1.448191811e-13,1.249419617e-13,6.775978066e-14,4.588681151e-14,7.291022641e-14,1.234956770e-13,7.935957803e-14,7.448446915e-14,4.525628680e-14,1.817777249e-13,6.893503069e-14,1.744850477e-14,3.274482891e-14,2.557299125e-13,1.104308679e-13,3.519235186e-13,8.087662443e-14,5.661756780e-14
0.67969,7.403591034e-14,1.307033849e-13,1.796243040e-13,1.151565314e-13,4.316110598e-14,9.263389199e-14,5.082012498e-14,1.433075995e-13,5.639507599e-14,9.771405584e-14,1.478427050e-13,7.028413343e-14,1.155235828e-13,1.217777776e-13,1.406950575e-13,1.217653843e-13,7.135889247e-14,4.465716559e-14,6.328114682e-14,1.220191084e-13,6.746833526e-14,6.923086517e-14,4.539744812e-14,1.843681931e-13,7.162767854e-14,2.038331106e-14,3.209086461e-14,2.277528443e-13,9.854916367e-14,3.363476407e-13,7.944444922e-14,5.788965498e-14
0.6875,6.892065684e-14,1.196049572e-13,1.743740983e-13,1.110307904e-13,4.531289177e-14,9.658629316e-14,5.604363966e-14,1.351591962e-13,5.255183178e-14,9.486252941e-14,1.448056859e-13,7.087256657e-14,1.070116362e-13,1.194268495e-13,1.400116330e-13,1.207192166e-13,7.786348812e-14,4.718043825e-14,5.638238035e-14,1.197110118e-13,5.530909553e-14,6.412861854e-14,4.505951359e-14,1.827211115e-13,7.731942207e-14,2.351404543e-14,3.435293910e-14,2.064299188e-13,8.876909146e-14,3.247416309e-13,7.676669888e-14,5.941294658e-14
0.69531,6.649272004e-14,1.113625443e-13,1.725026788e-13,1.105856813e-13,4.797067369e-14,1.014098093e-13,6.332682346e-14,1.269844910e-13,4.919944247e-14,9.084981582e-14,1.447223987e-13,7.202279199e-14,1.003873598e-13,1.188713870e-13,1.439261584e-13,1.237911392e-13,8.827018412e-14,5.467162534e-14,5.334015714e-14,1.177975925e-13,4.423278555e-14,5.992004199e-14,4.434726833e-14,1.789563395e-13,8.480697631e-14,2.709812095e-14,3.977649661e-14,1.945576620e-13,8.181821393e-14,3.196478276e-13,7.453772961e-14,6.167971407e-14
0.70312,6.809439277e-14,1.076305416e-13,1.744706299e-13,1.142159733e-13,5.135573698e-14,1.070552948e-13,7.324259831e-14,1.191863780e-13,4.641358368e-14,8.640206302e-14,1.475705713e-13,7.415199165e-14,9.581980943e-14,1.207443562e-13,1.532047071e-13,1.309031224e-13,1.027273466e-13,6.686947729e-14,5.484974958e-14,1.161508271e-13,3.556449591e-14,5.662623679e-14,4.354349288e-14,1.744957600e-13,9.385822513e-14,3.172616373e-14,4.841378960e-14,1.921242015e-13,7.985805904e-14,3.210396843e-13,7.468586523e-14,6.481678022e-14
0.71094,7.458796347e-14,1.092049989e-13,1.795833473e-13,1.219603545e-13,5.588481373e-14,1.134079921e-13,8.597848537e-14,1.121311268e-13,4.370414210e-14,8.208913842e-14,1.529702511e-13,7.680708888e-14,9.298183811e-14,1.256797475e-13,1.692065842e-13,1.437724874e-13,1.223859903e-13,8.433913790e-14,6.152448544e-14,1.166525725e-13,2.949309317e-14,5.397490984e-14,4.273445000e-14,1.688739376e-13,1.033514435e-13,3.735491074e-14,6.018721205e-14,1.993271510e-13,8.196233499e-14,3.284819818e-13,7.764096986e-14,6.823880166e-14
0.71875,8.597689623e-14,1.163614347e-13,1.861835030e-13,1.348139571e-13,6.233216687e-14,1.205503693e-13,1.024203567e-13,1.063926110e-13,4.088642933e-14,7.801980397e-14,1.617007880e-13,7.981174473e-14,9.152141011e-14,1.335706567e-13,1.942506179e-13,1.637934585e-13,1.480329373e-13,1.071045011e-13,7.304507166e-14,1.210521673e-13,2.588444334e-14,5.137179748e-14,4.179104672e-14,1.631734557e-13,1.120987355e-13,4.374311413e-14,7.502539896e-14,2.131579473e-13,8.745865535e-14,3.424434088e-13,8.440944587e-14,7.151901360e-14
0.72656,1.014128636e-13,1.280572495e-13,1.937017821e-13,1.505870613e-13,7.001690387e-14,1.283536496e-13,1.216716350e-13,1.016851788e-13,3.805179683e-14,7.425411983e-14,1.717827119e-13,8.276451783e-14,9.112346820e-14,1.435877503e-13,2.278742981e-13,1.901556701e-13,1.779081127e-13,1.329473618e-13,8.814299978e-14,1.275697824e-13,2.463433829e-14,4.887646493e-14,4.097646490e-14,1.586642006e-13,1.194492592e-13,5.019501215e-14,9.064986333e-14,2.306670204e-13,9.598797720e-14,3.634496293e-13,9.477567092e-14,7.415489520e-14
0.73438,1.200865598e-13,1.428360137e-13,2.026580079e-13,1.674369936e-13,7.840313460e-14,1.376578779e-13,1.437292033e-13,9.816388643e-14,3.554443919e-14,7.104880306e-14,1.815236477e-13,8.555383989e-14,9.165362622e-14,1.543656064e-13,2.697602938e-13,2.218252526e-13,2.105292017e-13,1.596042563e-13,1.052184136e-13,1.365182847e-13,2.514949252e-14,4.641150469e-14,4.031133929e-14,1.556654271e-13,1.246547891e-13,5.673756285e-14,1.050747507e-13,2.480490327e-13,1.062717962e-13,3.892880009e-13,1.081978005e-13,7.643179922e-14
0.74219,1.401529438e-13,1.587474999e-13,2.115841906e-13,1.833066343e-13,8.665508114e-14,1.476270412e-13,1.674482670e-13,9.505664347e-14,3.298346613e-14,6.870792808e-14,1.887224543e-13,8.739250513e-14,9.187493201e-14,1.641852633e-13,3.159844839e-13,2.561155962e-13,2.445849695e-13,1.847405590e-13,1.227268388e-13,1.476818512e-13,2.697023346e-14,4.372140555e-14,3.973614336e-14,1.536165057e-13,1.275388521e-13,6.362485776e-14,1.168336608e-13,2.641293807e-13,1.169646652e-13,4.196095230e-13,1.241521497e-13,7.869613994e-14
0.75,1.588000705e-13,1.751015907e-13,2.179914738e-13,1.981160396e-13,9.528920858e-14,1.571554902e-13,1.917316972e-13,9.264937292e-14,2.984094798e-14,6.785074949e-14,1.933337514e-13,8.762763447e-14,9.100595130e-14,1.721317203e-13,3.657620754e-13,2.920734008e-13,2.785467507e-13,2.068145747e-13,1.395729236e-13,1.595283561e-13,2.988347948e-14,4.063951901e-14,3.949387477e-14,1.526931630e-13,1.269449917e-13,7.095494134e-14,1.258493526e-13,2.748329855e-13,1.272049228e-13,4.566048354e-13,1.422595197e-13,8.118673250e-14
0.75781,1.735392921e-13,1.894426346e-13,2.203791490e-13,2.105057629e-13,1.041287011e-13,1.650599629e-13,2.149416807e-13,9.105775684e-14,2.623418755e-14,6.832998022e-14,1.937757399e-13,8.628527287e-14,8.851831435e-14,1.770473252e-13,4.151639385e-13,3.275356872e-13,3.102824568e-13,2.240124585e-13,1.540886508e-13,1.709972833e-13,3.353423864e-14,3.696506866e-14,3.940184161e-14,1.524630680e-13,1.232786069e-13,7.818070917e-14,1.310473263e-13,2.811957618e-13,1.358642920e-13,4.965362701e-13,1.609101182e-13,8.326962066e-14
0.76562,1.842384236e-13,1.998710911e-13,2.208305352e-13,2.183439491e-13,1.113712885e-13,1.712899859e-13,2.324182497e-13,8.935791959e-14,2.315326698e-14,7.027997633e-14,1.902664880e-13,8.421532237e-14,8.544787745e-14,1.784019933e-13,4.569016623e-13,3.550800210e-13,3.338172927e-13,2.331027936e-13,1.644182916e-13,1.797027603e-13,3.719873633e-14,3.332437390e-14,3.925086208e-14,1.524955987e-13,1.176591984e-13,8.399475211e-14,1.314907088e-13,2.826994786e-13,1.418498285e-13,5.375420838e-13,1.771159618e-13,8.401460463e-14
0.77344,1.907008118e-13,2.063820686e-13,2.209756346e-13,2.210051776e-13,1.151241124e-13,1.756872549e-13,2.421375510e-13,8.619423360e-14,2.097594687e-14,7.381358199e-14,1.817459845e-13,8.182114012e-14,8.268994610e-14,1.760279667e-13,4.839618810e-13,3.712318733e-13,3.470892564e-13,2.341666224e-13,1.706293406e-13,1.848770604e-13,4.075572621e-14,3.043739530e-14,3.923889769e-14,1.511999301e-13,1.111223447e-13,8.763470646e-14,1.273022398e-13,2.830462812e-13,1.447795519e-13,5.759630553e-13,1.884800929e-13,8.325041566e-14
0.78125,1.903826763e-13,2.090105790e-13,2.156990075e-13,2.183030412e-13,1.159529104e-13,1.770313532e-13,2.453599619e-13,8.147218946e-14,1.915632088e-14,7.792929712e-14,1.685547268e-13,7.877302153e-14,7.890511584e-14,1.693442023e-13,4.943933210e-13,3.763048649e-13,3.525077515e-13,2.279188157e-13,1.722192742e-13,1.876915156e-13,4.423581345e-14,2.782449771e-14,3.921335296e-14,1.479758778e-13,1.031288654e-13,8.963623340e-14,1.191131237e-13,2.809141285e-13,1.440455812e-13,6.150501418e-13,1.957192877e-13,8.137297401e-14
0.78906,1.835248401e-13,2.075359479e-13,2.062145882e-13,2.126195999e-13,1.158954144e-13,1.749193070e-13,2.433332567e-13,7.647091161e-14,1.746288794e-14,8.244491016e-14,1.544878554e-13,7.507463241e-14,7.346612203e-14,1.589431130e-13,4.892034287e-13,3.731933839e-13,3.521196685e-13,2.162068145e-13,1.685552971e-13,1.903599119e-13,4.757337151e-14,2.502973540e-14,3.879571759e-14,1.408926805e-13,9.480710704e-14,9.094404567e-14,1.086683584e-13,2.741347029e-13,1.401748182e-13,6.487633086e-13,1.993457603e-13,7.902315571e-14
0.79688,1.721053075e-13,2.030559951e-13,1.962063835e-13,2.046057626e-13,1.158308932e-13,1.706393449e-13,2.374121223e-13,7.184919326e-14,1.589969138e-14,8.571626864e-14,1.418660877e-13,7.081221212e-14,6.683010695e-14,1.460757248e-13,4.702350060e-13,3.631364795e-13,3.478325106e-13,2.012617562e-13,1.611601330e-13,1.924144011e-13,5.073049196e-14,2.218035643e-14,3.787376857e-14,1.303829818e-13,8.724089935e-14,9.194876781e-14,9.752091698e-14,2.649534615e-13,1.336066831e-13,6.748889194e-13,1.998054653e-13,7.689002958e-14
0.80469,1.582879743e-13,1.960327729e-13,1.881906805e-13,1.949389206e-13,1.158790299e-13,1.649221833e-13,2.285724119e-13,6.780403137e-14,1.464127138e-14,8.794975959e-14,1.326053220e-13,6.662234028e-14,5.941142973e-14,1.318034186e-13,4.388417097e-13,3.461142541e-13,3.403463192e-13,1.844106055e-13,1.505798794e-13,1.946669043e-13,5.357310957e-14,1.919034285e-14,3.645665751e-14,1.184204843e-13,8.114591308e-14,9.272933332e-14,8.611519695e-14,2.523058893e-13,1.239603211e-13,6.878637088e-13,1.973025282e-13,7.511879849e-14
0.8125,1.448558065e-13,1.889780046e-13,1.849903743e-13,1.856767072e-13,1.161463485e-13,1.602507224e-13,2.180853844e-13,6.447958382e-14,1.394865167e-14,8.854815792e-14,1.291316325e-13,6.336817636e-14,5.240459658e-14,1.185162862e-13,4.022277575e-13,3.269604647e-13,3.324709314e-13,1.677677282e-13,1.385582772e-13,1.983508106e-13,5.630592880e-14,1.661144484e-14,3.465772591e-14,1.051513261e-13,7.689951162e-14,9.296665493e-14,7.568431061e-14,2.410469651e-13,1.133846938e-13,6.855561023e-13,1.926314623e-13,7.371787160e-14
0.82031,1.334929198e-13,1.832505751e-13,1.869032959e-13,1.782783547e-13,1.164905318e-13,1.587337972e-13,2.071115667e-13,6.148164465e-14,1.360361046e-14,8.725175112e-14,1.328945165e-13,6.123372756e-14,4.581719111e-14,1.072784055e-13,3.660406601e-13,3.083713321e-13,3.253733932e-13,1.529861511e-13,1.269272076e-13,2.029484854e-13,5.900816992e-14,1.441301033e-14,3.248306301e-14,9.253010996e-14,7.419340064e-14,9.237307449e-14,6.761123378e-14,2.290446945e-13,1.024759716e-13,6.699023680e-13,1.873421004e-13,7.209241973e-14
0.82812,1.250327014e-13,1.784461627e-13,1.928170751e-13,1.728325159e-13,1.164439927e-13,1.595994129e-13,1.962382592e-13,5.855574298e-14,1.332442934e-14,8.503888256e-14,1.432164203e-13,6.014123603e-14,3.929439101e-14,9.835530103e-14,3.340916111e-13,2.915822254e-13,3.191671621e-13,1.405832879e-13,1.163578854e-13,2.078339525e-13,6.163912361e-14,1.222217896e-14,2.974973402e-14,8.001425451e-14,7.241603918e-14,9.074730011e-14,6.182222723e-14,2.166600026e-13,9.207355158e-14,6.452128927e-13,1.822853708e-13,6.957473483e-14
0.83594,1.191367263e-13,1.747255784e-13,2.013113440e-13,1.692870403e-13,1.164024341e-13,1.629873869e-13,1.875259108e-13,5.590503924e-14,1.310167959e-14,8.216814036e-14,1.602081775e-13,6.004366490e-14,3.290599199e-14,9.235977558e-14,3.107172955e-13,2.786852772e-13,3.162347445e-13,1.310244762e-13,1.074149231e-13,2.130718663e-13,6.377306980e-14,1.000269283e-14,2.664015984e-14,6.930108993e-14,7.230195457e-14,8.876650957e-14,5.835781360e-14,2.047212012e-13,8.228684728e-14,6.127481067e-13,1.780297035e-13,6.692084346e-14
0.84375,1.157266386e-13,1.716873678e-13,2.107496896e-13,1.675843893e-13,1.164245726e-13,1.690028288e-13,1.810761058e-13,5.323340759e-14,1.306161425e-14,7.947967998e-14,1.812685344e-13,6.095061361e-14,2.688918633e-14,8.892603745e-14,2.954240127e-13,2.686376211e-13,3.153305089e-13,1.236888318e-13,1.003051398e-13,2.185615626e-13,6.517715834e-14,7.883913171e-15,2.329540939e-14,6.084293829e-14,7.304903798e-14,8.671921424e-14,5.695005060e-14,1.947295951e-13,7.374770554e-14,5.713057882e-13,1.749990227e-13,6.433380795e-14
0.85156,1.135432855e-13,1.682229357e-13,2.201149378e-13,1.667751124e-13,1.153068563e-13,1.770721981e-13,1.752148802e-13,5.046603351e-14,1.331398955e-14,7.749651265e-14,2.038591708e-13,6.253701501e-14,2.164831252e-14,8.745778100e-14,2.862255183e-13,2.596513110e-13,3.141505440e-13,1.175685262e-13,9.515388084e-14,2.222876588e-13,6.584127584e-14,6.162484749e-15,1.999555009e-14,5.451957448e-14,7.375620864e-14,8.426294443e-14,5.694328889e-14,1.879769986e-13,6.729848911e-14,5.289121749e-13,1.721052508e-13,6.165279772e-14
0.85938,1.114366857e-13,1.635145861e-13,2.266309881e-13,1.648786131e-13,1.119717196e-13,1.862415733e-13,1.689155162e-13,4.755018596e-14,1.371000940e-14,7.681472282e-14,2.247111756e-13,6.422491530e-14,1.729808971e-14,8.667773500e-14,2.782345326e-13,2.486596095e-13,3.104302696e-13,1.120845977e-13,9.177716928e-14,2.220352742e-13,6.573391991e-14,4.933319290e-15,1.696350771e-14,5.117052351e-14,7.382160356e-14,8.084284457e-14,5.688812267e-14,1.843740482e-13,6.241874825e-14,4.932671292e-13,1.678189382e-13,5.842319922e-14
0.86719,1.095548282e-13,1.575388332e-13,2.299045393e-13,1.621185062e-13,1.067422860e-13,1.966063861e-13,1.628219187e-13,4.527268596e-14,1.421280683e-14,7.680677686e-14,2.446956857e-13,6.610795692e-14,1.380961675e-14,8.675840102e-14,2.715417677e-13,2.364512901e-13,3.051886055e-13,1.079080110e-13,9.013460340e-14,2.198467382e-13,6.505230281e-14,4.077575674e-15,1.451521556e-14,4.966401771e-14,7.363538492e-14,7.660183455e-14,5.736989168e-14,1.829125670e-13,6.002649399e-14,4.699715045e-13,1.623150627e-13,5.459007341e-14
0.875,1.072917572e-13,1.502939551e-13,2.265097271e-13,1.588363218e-13,1.002952238e-13,2.064724181e-13,1.579696037e-13,4.388250061e-14,1.485112995e-14,7.725431771e-14,2.615771453e-13,6.826432662e-14,1.113611134e-14,8.773486313e-14,2.646972087e-13,2.236570611e-13,2.995785858e-13,1.050033584e-13,9.000268657e-14,2.158404289e-13,6.369856306e-14,3.631287735e-15,1.276955849e-14,4.976173638e-14,7.332468850e-14,7.208399212e-14,5.828490827e-14,1.843913616e-13,6.009402157e-14,4.584297585e-13,1.564668489e-13,5.052042895e-14
0.88281,1.026448205e-13,1.410561867e-13,2.155279626e-13,1.534519768e-13,9.225360649e-14,2.144123401e-13,1.542077236e-13,4.283007529e-14,1.535852804e-14,7.877552786e-14,2.711661410e-13,6.963401426e-14,8.976352382e-15,8.789632084e-14,2.538996688e-13,2.099446774e-13,2.940935546e-13,1.025415302e-13,9.061316814e-14,2.098691081e-13,6.200211001e-14,3.536821461e-15,1.167443114e-14,5.072575139e-14,7.195810851e-14,6.730974772e-14,5.881904426e-14,1.859554800e-13,6.233161015e-14,4.636726820e-13,1.502396246e-13,4.619059148e-14
0.89062,9.550397244e-14,1.308666623e-13,1.989858072e-13,1.464805853e-13,8.319649912e-14,2.195418112e-13,1.523634849e-13,4.246363648e-14,1.573043638e-14,8.125025748e-14,2.744175524e-13,6.954896253e-14,7.286328249e-15,8.673725554e-14,2.397375182e-13,1.967789330e-13,2.903789609e-13,1.010347781e-13,9.142004575e-14,2.030537604e-13,6.016272737e-14,3.873736647e-15,1.127175817e-14,5.206275152e-14,6.998898205e-14,6.239638151e-14,5.939913904e-14,1.872363177e-13,6.705143289e-14,4.865119578e-13,1.441506003e-13,4.183163271e-14
0.89844,8.657400749e-14,1.197694852e-13,1.789786231e-13,1.370621322e-13,7.360090495e-14,2.212665485e-13,1.511802252e-13,4.271037801e-14,1.624262933e-14,8.424073999e-14,2.700774781e-13,6.784614106e-14,6.060016627e-15,8.383278798e-14,2.219624111e-13,1.845103617e-13,2.875004786e-13,9.925160823e-14,9.061138697e-14,1.937961709e-13,5.809956385e-14,4.533008348e-15,1.139021234e-14,5.394393502e-14,6.685377993e-14,5.722775641e-14,5.916053853e-14,1.849798131e-13,7.410343775e-14,5.168128464e-13,1.369644278e-13,3.796933595e-14
0.90625,7.779603126e-14,1.092165649e-13,1.589104794e-13,1.272513353e-13,6.479835229e-14,2.213245798e-13,1.510319573e-13,4.381011371e-14,1.697344392e-14,8.671929600e-14,2.611876664e-13,6.588999650e-14,5.443249594e-15,8.131484994e-14,2.035368095e-13,1.753751993e-13,2.864292980e-13,9.870666853e-14,8.911070767e-14,1.837305434e-13,5.607135196e-14,5.371438843e-15,1.203677937e-14,5.660944347e-14,6.401668052e-14,5.235742692e-14,5.940677766e-14,1.796149861e-13,8.195906476e-14,5.506156047e-13,1.292832783e-13,3.493575610e-14
0.91406,6.955970865e-14,1.004765755e-13,1.390433975e-13,1.187621907e-13,5.747999324e-14,2.193151013e-13,1.525305840e-13,4.476179798e-14,1.778641559e-14,8.925519646e-14,2.455791171e-13,6.412709739e-14,5.469217304e-15,7.950170607e-14,1.842120750e-13,1.698677618e-13,2.871108828e-13,9.993377323e-14,8.769723154e-14,1.739986784e-13,5.461561371e-14,6.432006231e-15,1.320667161e-14,6.020908359e-14,6.129687586e-14,4.821796718e-14,6.051934355e-14,1.725927418e-13,9.001951750e-14,5.872606442e-13,1.232954898e-13,3.265291197e-14
0.92188,6.255786751e-14,9.391326750e-14,1.211091644e-13,1.119377178e-13,5.148562771e-14,2.159207099e-13,1.546687692e-13,4.489097187e-14,1.870054833e-14,9.357105095e-14,2.261711934e-13,6.340915317e-14,6.352915327e-15,7.897925341e-14,1.646475660e-13,1.660365209e-13,2.877821753e-13,1.026047122e-13,8.655827208e-14,1.640896860e-13,5.364303027e-14,7.807587761e-15,1.489300853e-14,6.547075677e-14,5.871611052e-14,4.477584874e-14,6.303323673e-14,1.650502481e-13,9.845387506e-14,6.232602612e-13,1.194691081e-13,3.123165713e-14
0.92969,5.691520331e-14,8.865656559e-14,1.058736582e-13,1.061267014e-13,4.676199015e-14,2.122467274e-13,1.570737152e-13,4.419852329e-14,1.969900569e-14,9.779780664e-14,2.052592507e-13,6.379876133e-14,8.096005793e-15,7.968520853e-14,1.455948690e-13,1.638305323e-13,2.882519282e-13,1.060431312e-13,8.511599773e-14,1.530153723e-13,5.184386349e-14,9.403965287e-15,1.716153922e-14,7.312427939e-14,5.661212783e-14,4.169242350e-14,6.633202893e-14,1.579516606e-13,1.064564476e-13,6.506588946e-13,1.167708364e-13,3.042646601e-14
0.9375,5.284117562e-14,8.415258205e-14,9.379786696e-14,1.004027405e-13,4.290263499e-14,2.077594414e-13,1.586491469e-13,4.270827271e-14,2.068933210e-14,1.028987602e-13,1.842474027e-13,6.522997825e-14,1.038513690e-14,8.124401217e-14,1.263539031e-13,1.616998972e-13,2.864910665e-13,1.093528018e-13,8.276806627e-14,1.397329562e-13,4.931567897e-14,1.096373931e-14,1.992464937e-14,8.280463678e-14,5.465516174e-14,3.875477726e-14,6.982490941e-14,1.510390276e-13,1.123045502e-13,6.666405526e-13,1.139661096e-13,3.016671406e-14
0.94531,5.108261667e-14,8.143590430e-14,8.619168408e-14,9.624002752e-14,4.030479833e-14,2.052862112e-13,1.604213595e-13,4.103552367e-14,2.179863135e-14,1.086226062e-13,1.661670779e-13,6.840153587e-14,1.319457722e-14,8.495806547e-14,1.104073708e-13,1.613340135e-13,2.843394024e-13,1.136272064e-13,8.054414210e-14,1.251158244e-13,4.628429248e-14,1.257096256e-14,2.287224017e-14,9.459233148e-14,5.347136762e-14,3.615099971e-14,7.451693041e-14,1.451184058e-13,1.151140571e-13,6.700437493e-13,1.118623167e-13,3.038919972e-14
0.95312,5.181553131e-14,8.116314605e-14,8.228575027e-14,9.455617946e-14,3.879100535e-14,2.040703573e-13,1.626749066e-13,3.902802955e-14,2.331576077e-14,1.156657489e-13,1.518704511e-13,7.337692084e-14,1.664746337e-14,9.035018802e-14,9.816326626e-14,1.617491401e-13,2.822022775e-13,1.189429351e-13,7.959721009e-14,1.111948874e-13,4.363170964e-14,1.438543844e-14,2.598057197e-14,1.090707630e-13,5.306633593e-14,3.414980248e-14,8.070882765e-14,1.407267177e-13,1.159027013e-13,6.690907452e-13,1.116374943e-13,3.095289691e-14
0.96094,5.501067512e-14,8.356727906e-14,8.270822618e-14,9.517113682e-14,3.790640085e-14,2.053612067e-13,1.658741428e-13,3.695725455e-14,2.553333959e-14,1.247033569e-13,1.441353780e-13,7.997361046e-14,2.048506022e-14,9.754386664e-14,9.102244983e-14,1.626414697e-13,2.805886080e-13,1.252245174e-13,7.979927387e-14,9.915670164e-14,4.129819966e-14,1.629101901e-14,2.869192719e-14,1.254631899e-13,5.360103378e-14,3.280379716e-14,8.901993681e-14,1.397921335e-13,1.156284748e-13,6.635917179e-13,1.136783507e-13,3.142230969e-14
0.96875,6.088465003e-14,8.847263645e-14,8.711908261e-14,9.783705887e-14,3.760551132e-14,2.096921266e-13,1.700765865e-13,3.576667926e-14,2.870852840e-14,1.354662271e-13,1.451128134e-13,8.826673091e-14,2.485662118e-14,1.064972929e-13,9.020975564e-14,1.640625711e-13,2.799818842e-13,1.327037613e-13,8.174357867e-14,9.005277020e-14,3.921284195e-14,1.834878777e-14,3.068490110e-14,1.432872700e-13,5.501673882e-14,3.237009544e-14,9.969716243e-14,1.419624439e-13,1.149074830e-13,6.600281505e-13,1.185701772e-13,3.171532144e-14
0.97656,6.828020529e-14,9.490218365e-14,9.422493676e-14,1.019255572e-13,3.763378643e-14,2.155354614e-13,1.745235293e-13,3.587350819e-14,3.265521141e-14,1.482971110e-13,1.541594531e-13,9.707225652e-14,2.924145910e-14,1.160900960e-13,9.509348490e-14,1.654765089e-13,2.792177100e-13,1.405631577e-13,8.488787590e-14,8.414762734e-14,3.768523543e-14,2.033876513e-14,3.167349837e-14,1.615282590e-13,5.746968143e-14,3.255962482e-14,1.124421711e-13,1.471599463e-13,1.140633173e-13,6.629025230e-13,1.254925570e-13,3.161668783e-14
0.98438,7.700540418e-14,1.027436423e-13,1.041171840e-13,1.075156306e-13,3.764539133e-14,2.225298507e-13,1.785020490e-13,3.783552944e-14,3.746490778e-14,1.644374500e-13,1.738183387e-13,1.060023178e-13,3.385488997e-14,1.256233032e-13,1.071857203e-13,1.670133293e-13,2.769387485e-13,1.483993553e-13,8.969694727e-14,8.139559266e-14,3.687619615e-14,2.248882013e-14,3.168218538e-14,1.795764204e-13,6.102965954e-14,3.329738113e-14,1.269571323e-13,1.549926279e-13,1.128829091e-13,6.764348097e-13,1.342551321e-13,3.130782024e-14
0.99219,8.678123631e-14,1.115697980e-13,1.170880835e-13,1.149619720e-13,3.818517436e-14,2.311015130e-13,1.831443241e-13,4.156599130e-14,4.255142450e-14,1.824316583e-13,2.047416274e-13,1.139303755e-13,3.866147148e-14,1.346862613e-13,1.278454008e-13,1.697482611e-13,2.742285419e-13,1.565242238e-13,9.638855838e-14,8.202221446e-14,3.665007854e-14,2.456493027e-14,3.086058983e-14,1.967450966e-13,6.538495886e-14,3.495872472e-14,1.423721909e-13,1.671885972e-13,1.114570743e-13,7.076795557e-13,1.452031137e-13,3.082938542e-14
1,9.651854918e-14,1.205031149e-13,1.317330131e-13,1.235495080e-13,3.917304231e-14,2.397312921e-13,1.872744941e-13,4.735940138e-14,4.782382701e-14,2.032265150e-13,2.458228750e-13,1.201568689e-13,4.359318757e-14,1.423410736e-13,1.560926910e-13,1.724769735e-13,2.685609305e-13,1.641524115e-13,1.041452062e-13,8.593797102e-14,3.664441210e-14,2.628995769e-14,2.931607655e-14,2.091045522e-13,7.083655892e-14,3.745330158e-14,1.584313293e-13,1.825858039e-13,1.094132064e-13,7.555533195e-13,1.576915230e-13,3.013817116e-14
1.0078,1.054555341e-13,1.301333539e-13,1.484555533e-13,1.339598147e-13,4.106832316e-14,2.496590408e-13,1.922597324e-13,5.528758642e-14,5.275046614e-14,2.273527823e-13,2.972293940e-13,1.242743543e-13,4.819159501e-14,1.489067462e-13,1.920732047e-13,1.784627784e-13,2.622147827e-13,1.716653864e-13,1.122641422e-13,9.363395010e-14,3.685771098e-14,2.756761421e-14,2.733905726e-14,2.158054669e-13,7.798987966e-14,4.099512532e-14,1.756069296e-13,2.012937824e-13,1.074458845e-13,8.204597376e-13,1.722502567e-13,2.937946095e-14
1.0156,1.141615142e-13,1.409800512e-13,1.667493012e-13,1.473158567e-13,4.451792860e-14,2.610600689e-13,1.986623195e-13,6.458480887e-14,5.681965800e-14,2.554161317e-13,3.569625035e-13,1.265437219e-13,5.238602547e-14,1.549016091e-13,2.357404194e-13,1.884799371e-13,2.554610454e-13,1.797697869e-13,1.208708739e-13,1.052163879e-13,3.747248138e-14,2.842675081e-14,2.543066149e-14,2.176849507e-13,8.705562893e-14,4.546092997e-14,1.936178723e-13,2.218260399e-13,1.062396487e-13,9.005687076e-13,1.900751988e-13,2.843394332e-14
1.0234,1.211339215e-13,1.517734563e-13,1.850387156e-13,1.624185984e-13,4.920790840e-14,2.728207219e-13,2.058635945e-13,7.439739447e-14,5.968628977e-14,2.888743289e-13,4.217282813e-13,1.267641094e-13,5.581127423e-14,1.591135137e-13,2.832519825e-13,2.019376288e-13,2.482397114e-13,1.873545290e-13,1.286758071e-13,1.192803430e-13,3.801681483e-14,2.888165727e-14,2.454879183e-14,2.151047162e-13,9.884144486e-14,5.058535628e-14,2.108396946e-13,2.414635652e-13,1.056361048e-13,9.879974356e-13,2.089869688e-13,2.787129007e-14
1.0312,1.266808760e-13,1.621688453e-13,2.027236021e-13,1.785765357e-13,5.519130079e-14,2.849804140e-13,2.143175397e-13,8.432468213e-14,6.112419733e-14,3.303222636e-13,4.885765602e-13,1.257033466e-13,5.853794201e-14,1.621687900e-13,3.316579636e-13,2.195457413e-13,2.419221326e-13,1.945569258e-13,1.352293477e-13,1.340460227e-13,3.837216876e-14,2.891058935e-14,2.502442489e-14,2.063999475e-13,1.137439176e-13,5.607994294e-14,2.269256572e-13,2.595244344e-13,1.048996399e-13,1.073567939e-12,2.283041615e-13,2.749660953e-14
1.0391,1.306680542e-13,1.719181259e-13,2.173590875e-13,1.947810148e-13,6.160783433e-14,2.962641469e-13,2.228884215e-13,9.315214760e-14,6.052902420e-14,3.826279635e-13,5.534440366e-13,1.239977969e-13,6.029930202e-14,1.635942986e-13,3.759158975e-13,2.389945753e-13,2.362598608e-13,2.003385827e-13,1.394613038e-13,1.490238544e-13,3.946239928e-14,2.846731183e-14,2.737434732e-14,1.930620613e-13,1.322963226e-13,6.116779160e-14,2.403239017e-13,2.729126756e-13,1.041635989e-13,1.151019665e-12,2.467649318e-13,2.691832208e-14
1.0469,1.333158043e-13,1.809698991e-13,2.288382623e-13,2.100046378e-13,6.758729124e-14,3.055362384e-13,2.313420369e-13,1.005950285e-13,5.796215940e-14,4.487835142e-13,6.138946245e-13,1.218377089e-13,6.097817189e-14,1.628997922e-13,4.141196938e-13,2.606191627e-13,2.322311907e-13,2.040871771e-13,1.406663035e-13,1.630228297e-13,4.199272919e-14,2.777163818e-14,3.214984877e-14,1.771927290e-13,1.549804351e-13,6.550055298e-14,2.494454133e-13,2.797544583e-13,1.031958338e-13,1.212027038e-12,2.626150615e-13,2.641630646e-14
1.0547,1.353700444e-13,1.894689145e-13,2.368627410e-13,2.231123472e-13,7.224577642e-14,3.110968989e-13,2.382631109e-13,1.062722881e-13,5.417401676e-14,5.309542848e-13,6.673116836e-13,1.202574765e-13,6.059741138e-14,1.596520081e-13,4.426868283e-13,2.819698850e-13,2.289651619e-13,2.053683576e-13,1.393422001e-13,1.750015956e-13,4.745378861e-14,2.700104016e-14,3.952409285e-14,1.589742136e-13,1.827050892e-13,6.850651583e-14,2.540697378e-13,2.793093939e-13,1.018284491e-13,1.249522209e-12,2.743354473e-13,2.578554263e-14
1.0625,1.381234785e-13,1.980536858e-13,2.420157481e-13,2.333050764e-13,7.501840732e-14,3.121637139e-13,2.436767462e-13,1.100607711e-13,4.976182615e-14,6.292292133e-13,7.134245132e-13,1.198721922e-13,5.946610206e-14,1.541609622e-13,4.604701888e-13,3.023390481e-13,2.267069808e-13,2.047663736e-13,1.363186815e-13,1.865899043e-13,5.702592815e-14,2.635546846e-14,4.956167136e-14,1.408602683e-13,2.155562165e-13,7.015471581e-14,2.560211673e-13,2.712425487e-13,1.009654562e-13,1.267535845e-12,2.828435026e-13,2.478290443e-14
1.0703,1.427889535e-13,2.071991195e-13,2.458002833e-13,2.402309316e-13,7.585929695e-14,3.079299950e-13,2.460694641e-13,1.123449732e-13,4.552720432e-14,7.415002917e-13,7.553369321e-13,1.211291132e-13,5.790353154e-14,1.464950716e-13,4.693234852e-13,3.206671808e-13,2.241365054e-13,2.013941190e-13,1.316691467e-13,1.985844723e-13,7.139880728e-14,2.613588924e-14,6.207461550e-14,1.261915330e-13,2.538736292e-13,7.037066111e-14,2.559416352e-13,2.581815131e-13,1.024680511e-13,1.268964765e-12,2.885662775e-13,2.349815669e-14
1.0781,1.500135040e-13,2.168714571e-13,2.492610638e-13,2.444412848e-13,7.475679856e-14,2.999063943e-13,2.458293824e-13,1.134655106e-13,4.228958437e-14,8.623662366e-13,7.922066864e-13,1.241538672e-13,5.638438052e-14,1.377182933e-13,4.710981153e-13,3.363862010e-13,2.215147806e-13,1.964569702e-13,1.269183593e-13,2.120381124e-13,9.092848296e-14,2.656898917e-14,7.648899250e-14,1.157092017e-13,2.986628735e-13,6.951921171e-14,2.557097464e-13,2.414322644e-13,1.066580927e-13,1.261348914e-12,2.920802719e-13,2.219697214e-14
1.0859,1.590736351e-13,2.266307020e-13,2.527674449e-13,2.467172579e-13,7.209772688e-14,2.883512488e-13,2.423682204e-13,1.135940882e-13,4.011017524e-14,9.817746477e-13,8.222883575e-13,1.285138145e-13,5.530520581e-14,1.282197794e-13,4.680410861e-13,3.498910352e-13,2.183444328e-13,1.902861321e-13,1.223268443e-13,2.259638285e-13,1.150407947e-13,2.757702897e-14,9.156955452e-14,1.090282652e-13,3.485357511e-13,6.764714991e-14,2.561900801e-13,2.230295340e-13,1.142085328e-13,1.247329716e-12,2.932246423e-13,2.058087986e-14
1.0938,1.691432404e-13,2.359363939e-13,2.564826434e-13,2.478541891e-13,6.891046225e-14,2.747462179e-13,2.371468320e-13,1.131676123e-13,3.902641804e-14,1.087377238e-12,8.462980700e-13,1.334655745e-13,5.467271518e-14,1.194266330e-13,4.630175013e-13,3.621704926e-13,2.157340119e-13,1.844495937e-13,1.185250706e-13,2.407817442e-13,1.411781556e-13,2.911929335e-14,1.063266440e-13,1.072929456e-13,4.039477490e-13,6.541024579e-14,2.599096873e-13,2.047695289e-13,1.257579246e-13,1.235679407e-12,2.933123796e-13,1.869580930e-14
1.1016,1.797866890e-13,2.448981832e-13,2.609011325e-13,2.490302635e-13,6.614206124e-14,2.602088501e-13,2.302503418e-13,1.122700245e-13,3.907159986e-14,1.167649859e-12,8.650092832e-13,1.379481838e-13,5.445579095e-14,1.119995340e-13,4.591394873e-13,3.744159443e-13,2.135843458e-13,1.786002192e-13,1.152782406e-13,2.572580014e-13,1.666677573e-13,3.139259859e-14,1.195548070e-13,1.113529717e-13,4.624090308e-13,6.322066706e-14,2.677381276e-13,1.882072447e-13,1.418683973e-13,1.226868773e-12,2.938407091e-13,1.662753454e-14
1.1094,1.911975177e-13,2.528100638e-13,2.670460780e-13,2.504070320e-13,6.407613726e-14,2.462321622e-13,2.229587654e-13,1.107834843e-13,3.973531665e-14,1.212986566e-12,8.772384492e-13,1.411142928e-13,5.377192768e-14,1.067640308e-13,4.572684069e-13,3.870413228e-13,2.124581003e-13,1.725400153e-13,1.121654755e-13,2.748581796e-13,1.888867885e-13,3.386365637e-14,1.307734678e-13,1.209346948e-13,5.207762919e-13,6.155963339e-14,2.793707492e-13,1.742820657e-13,1.611545881e-13,1.216282743e-12,2.949004205e-13,1.475231858e-14
1.1172,2.024974146e-13,2.581591998e-13,2.732150223e-13,2.518924110e-13,6.292779377e-14,2.322595063e-13,2.144765380e-13,1.085181751e-13,4.049247758e-14,1.217418419e-12,8.786432792e-13,1.426214323e-13,5.247182081e-14,1.034967076e-13,4.564497546e-13,3.989719850e-13,2.114374352e-13,1.654077553e-13,1.082505791e-13,2.900861204e-13,2.058444972e-13,3.612506781e-14,1.380971082e-13,1.353938476e-13,5.742825640e-13,6.007428046e-14,2.924826579e-13,1.619198389e-13,1.811284167e-13,1.201281695e-12,2.955020736e-13,1.307314940e-14
1.125,2.122734518e-13,2.593541964e-13,2.783364028e-13,2.525272222e-13,6.261016210e-14,2.199487055e-13,2.051519105e-13,1.052821082e-13,4.099145734e-14,1.180367923e-12,8.710616538e-13,1.419180249e-13,5.057658513e-14,1.023425800e-13,4.564360546e-13,4.100797755e-13,2.108338328e-13,1.571611765e-13,1.030834827e-13,3.005395214e-13,2.155927359e-13,3.785228351e-14,1.413824720e-13,1.535867545e-13,6.190170985e-13,5.859553047e-14,3.060327731e-13,1.522939484e-13,2.010844551e-13,1.172497801e-12,2.942533952e-13,1.154833188e-14
1.1328,2.206239441e-13,2.571645084e-13,2.835167465e-13,2.529763556e-13,6.348491608e-14,2.095034217e-13,1.957135410e-13,1.010075330e-13,4.138126427e-14,1.103672779e-12,8.540862389e-13,1.401775798e-13,4.864804876e-14,1.037972340e-13,4.562113500e-13,4.208034521e-13,2.110695437e-13,1.491897427e-13,9.771141983e-14,3.049279359e-13,2.177341237e-13,3.939662259e-14,1.399642066e-13,1.736483630e-13,6.483205241e-13,5.695173348e-14,3.179051574e-13,1.449840249e-13,2.197198208e-13,1.128813687e-12,2.923997982e-13,1.025900202e-14
1.1406,2.271512606e-13,2.513377005e-13,2.863233937e-13,2.524155028e-13,6.537745308e-14,1.997412677e-13,1.855602993e-13,9.617183646e-14,4.160578462e-14,9.996018475e-13,8.280482929e-13,1.371372380e-13,4.664742528e-14,1.067005925e-13,4.547685743e-13,4.287691630e-13,2.099806281e-13,1.398462197e-13,9.181337724e-14,3.014770939e-13,2.128045760e-13,4.086220340e-14,1.348121374e-13,1.936550656e-13,6.578108546e-13,5.497161713e-14,3.244507318e-13,1.398416435e-13,2.341928011e-13,1.070313457e-12,2.895447212e-13,9.358944511e-15
1.1484,2.309440512e-13,2.416233562e-13,2.861843784e-13,2.491686790e-13,6.744610574e-14,1.908982791e-13,1.753757403e-13,9.096741862e-14,4.148278148e-14,8.769462944e-13,7.946134167e-13,1.328283065e-13,4.454570701e-14,1.106544533e-13,4.514383951e-13,4.335398238e-13,2.083675472e-13,1.296758710e-13,8.580374664e-14,2.902225521e-13,2.023063318e-13,4.200867653e-14,1.267751109e-13,2.134219064e-13,6.454956758e-13,5.274844206e-14,3.254006318e-13,1.369044548e-13,2.437103248e-13,9.948771352e-13,2.845565828e-13,8.921931005e-15
1.1562,2.315972218e-13,2.285142804e-13,2.829194682e-13,2.425665682e-13,6.946128957e-14,1.820746653e-13,1.653413631e-13,8.569179129e-14,4.097509999e-14,7.489075196e-13,7.542790082e-13,1.286080803e-13,4.248706931e-14,1.150086547e-13,4.455474975e-13,4.330153207e-13,2.050346194e-13,1.192642573e-13,8.054341920e-14,2.725441064e-13,1.871283249e-13,4.255606310e-14,1.161270640e-13,2.305895839e-13,6.140561802e-13,5.021180233e-14,3.206025642e-13,1.361244576e-13,2.492734865e-13,9.039632333e-13,2.777210382e-13,8.867064528e-15
1.1641,2.284642308e-13,2.121453029e-13,2.754173128e-13,2.321161954e-13,7.119735038e-14,1.732284735e-13,1.566904237e-13,8.090699239e-14,4.017952482e-14,6.238432679e-13,7.095139426e-13,1.244549637e-13,4.077323798e-14,1.192947379e-13,4.370358050e-13,4.287543580e-13,2.018257607e-13,1.096139521e-13,7.656044429e-14,2.506541175e-13,1.689336447e-13,4.249567129e-14,1.036534260e-13,2.451385293e-13,5.664271449e-13,4.752755843e-14,3.110334976e-13,1.382964955e-13,2.518618912e-13,7.987703621e-13,2.689805158e-13,9.138988494e-15
1.1719,2.211738157e-13,1.943979531e-13,2.629840115e-13,2.190564522e-13,7.254991034e-14,1.633481729e-13,1.494415695e-13,7.656066103e-14,3.941133539e-14,5.087933192e-13,6.585548651e-13,1.207608867e-13,3.966154755e-14,1.231276524e-13,4.254524402e-13,4.206852709e-13,1.980096941e-13,1.019856994e-13,7.441123678e-14,2.260742143e-13,1.487970668e-13,4.194830373e-14,9.014442240e-14,2.554409225e-13,5.071204716e-13,4.470111055e-14,2.984296169e-13,1.426577482e-13,2.532732675e-13,6.875713403e-13,2.590796174e-13,9.640092291e-15
1.1797,2.091954488e-13,1.755547313e-13,2.436721418e-13,2.031017762e-13,7.294498269e-14,1.511021257e-13,1.430188400e-13,7.237998077e-14,3.872817009e-14,4.102349252e-13,6.017149774e-13,1.167907520e-13,3.869956225e-14,1.251381893e-13,4.096000495e-13,4.073338247e-13,1.927862938e-13,9.516107486e-14,7.343838607e-14,2.004363758e-13,1.283906576e-13,4.088550604e-14,7.661751719e-14,2.617375233e-13,4.413484974e-13,4.155456070e-14,2.828678021e-13,1.489582223e-13,2.535699592e-13,5.792646044e-13,2.478215261e-13,1.035906004e-14
1.1875,1.922727472e-13,1.551848582e-13,2.193048742e-13,1.830813212e-13,7.186246760e-14,1.373623678e-13,1.385682005e-13,6.891928309e-14,3.796768528e-14,3.282679028e-13,5.432625924e-13,1.115458103e-13,3.717032590e-14,1.247273122e-13,3.911664830e-13,3.899679192e-13,1.874220277e-13,8.953753365e-14,7.281582940e-14,1.764100293e-13,1.083252487e-13,3.887210858e-14,6.407484189e-14,2.654562480e-13,3.754930918e-13,3.842308331e-14,2.652777303e-13,1.566405518e-13,2.533240757e-13,4.732721878e-13,2.341228705e-13,1.138727502e-14
1.1953,1.720326438e-13,1.343119561e-13,1.920199404e-13,1.603661996e-13,6.912737886e-14,1.224495829e-13,1.359829177e-13,6.559008020e-14,3.709441669e-14,2.620827178e-13,4.825984861e-13,1.054899569e-13,3.510818604e-14,1.217040392e-13,3.688877417e-13,3.694634817e-13,1.819857884e-13,8.540676722e-14,7.259374304e-14,1.561306551e-13,8.967486844e-14,3.589669288e-14,5.303737437e-14,2.661468924e-13,3.145348212e-13,3.559796378e-14,2.467488592e-13,1.649595419e-13,2.534152126e-13,3.802892642e-13,2.181022665e-13,1.263108226e-14
1.2031,1.500744523e-13,1.138112354e-13,1.645965427e-13,1.369649992e-13,6.569073896e-14,1.074415885e-13,1.351046649e-13,6.262412869e-14,3.582989878e-14,2.099345185e-13,4.244411970e-13,9.891897124e-14,3.237049275e-14,1.172892832e-13,3.465738034e-13,3.469130873e-13,1.764965601e-13,8.222549131e-14,7.226741508e-14,1.402249300e-13,7.348375403e-14,3.184085837e-14,4.376659550e-14,2.646219672e-13,2.616747216e-13,3.345512908e-14,2.289919266e-13,1.731296268e-13,2.536439772e-13,2.996914002e-13,2.006504597e-13,1.400465129e-14
1.2109,1.284952868e-13,9.526397858e-14,1.390891347e-13,1.148113835e-13,6.161219907e-14,9.340101940e-14,1.359163762e-13,5.942200579e-14,3.459997468e-14,1.690638198e-13,3.693790009e-13,9.276237671e-14,2.942320963e-14,1.126305958e-13,3.250145065e-13,3.233018241e-13,1.713470651e-13,8.043092455e-14,7.207627159e-14,1.290455809e-13,6.025842885e-14,2.740923996e-14,3.623420562e-14,2.603978466e-13,2.167901910e-13,3.207278741e-14,2.127991599e-13,1.787958745e-13,2.540761190e-13,2.327843964e-13,1.834498456e-13,1.547510754e-14
1.2188,1.094241060e-13,7.958619020e-14,1.177173331e-13,9.550076875e-14,5.729555254e-14,8.148174680e-14,1.367702110e-13,5.584349877e-14,3.368464435e-14,1.369555652e-13,3.185744181e-13,8.765964638e-14,2.627228952e-14,1.084944898e-13,3.054616465e-13,2.991113324e-13,1.651005130e-13,7.959303634e-14,7.210434627e-14,1.220506300e-13,5.059351000e-14,2.309597384e-14,3.035661509e-14,2.534276239e-13,1.808150860e-13,3.158691427e-14,1.992181075e-13,1.836664841e-13,2.555092362e-13,1.812161501e-13,1.677996598e-13,1.710189458e-14
1.2266,9.380111469e-14,6.707486832e-14,1.021135645e-13,7.975801274e-14,5.274702706e-14,7.258161187e-14,1.384350270e-13,5.186690566e-14,3.300433169e-14,1.116639205e-13,2.726045171e-13,8.361426645e-14,2.308309068e-14,1.058373574e-13,2.898352062e-13,2.757410898e-13,1.589339952e-13,8.035601927e-14,7.241749659e-14,1.185347495e-13,4.414780353e-14,1.921432325e-14,2.614381937e-14,2.419973177e-13,1.524435019e-13,3.191617586e-14,1.882371751e-13,1.876169989e-13,2.585270548e-13,1.418833843e-13,1.540769144e-13,1.878291277e-14
1.2344,8.232821309e-14,5.806159426e-14,9.312020606e-14,6.846178593e-14,4.851456512e-14,6.734111683e-14,1.415199491e-13,4.792546429e-14,3.254816957e-14,9.148632789e-14,2.326362549e-13,8.095663935e-14,2.035471912e-14,1.054621454e-13,2.791070306e-13,2.553972282e-13,1.542182545e-13,8.307476050e-14,7.315100647e-14,1.180800589e-13,4.020966945e-14,1.604137070e-14,2.329157354e-14,2.264525305e-13,1.304483255e-13,3.352673762e-14,1.803504045e-13,1.917451225e-13,2.629498976e-13,1.159826671e-13,1.431776067e-13,2.051547673e-14
1.2422,7.529392931e-14,5.313312728e-14,9.053404480e-14,6.254263377e-14,4.535273897e-14,6.614658809e-14,1.459574926e-13,4.373431751e-14,3.160883244e-14,7.499489004e-14,1.990686347e-13,8.021093752e-14,1.795990862e-14,1.082191509e-13,2.744187992e-13,2.381208282e-13,1.507571911e-13,8.801818031e-14,7.465264189e-14,1.201750355e-13,3.780497312e-14,1.351674020e-14,2.168207538e-14,2.072680595e-13,1.137604840e-13,3.677608745e-14,1.765026937e-13,1.957331007e-13,2.693799511e-13,1.014485909e-13,1.363489371e-13,2.180018543e-14
1.25,7.217154913e-14,5.162525674e-14,9.306470429e-14,6.122385068e-14,4.288565381e-14,6.845100518e-14,1.524344735e-13,3.951148902e-14,3.012575736e-14,6.180699762e-14,1.718942320e-13,8.128015164e-14,1.620244442e-14,1.140496992e-13,2.758904698e-13,2.245274874e-13,1.497416113e-13,9.538452338e-14,7.696174545e-14,1.240404170e-13,3.648311163e-14,1.180522471e-14,2.116147387e-14,1.864525252e-13,1.007393591e-13,4.148050337e-14,1.752193609e-13,2.009719477e-13,2.776187270e-13,9.655695099e-14,1.329842816e-13,2.267151049e-14
1.2578,7.242564193e-14,5.314811770e-14,9.965895623e-14,6.393944458e-14,4.144669608e-14,7.406803053e-14,1.612930460e-13,3.530165002e-14,2.858556615e-14,5.096052044e-14,1.505973717e-13,8.396354153e-14,1.542656762e-14,1.226743738e-13,2.813090607e-13,2.154354287e-13,1.516971949e-13,1.052936236e-13,8.066865443e-14,1.294253483e-13,3.512578630e-14,1.106168096e-14,2.160191545e-14,1.645649778e-13,9.028275708e-14,4.750355667e-14,1.775163954e-13,2.077049143e-13,2.860807221e-13,1.007716060e-13,1.331250361e-13,2.323907407e-14
1.2656,7.494449318e-14,5.715009897e-14,1.085169513e-13,6.953845643e-14,4.098237031e-14,8.194464413e-14,1.721807001e-13,3.156181384e-14,2.740476536e-14,4.263818088e-14,1.337997224e-13,8.766728199e-14,1.598147249e-14,1.328726828e-13,2.883386400e-13,2.106260527e-13,1.572252405e-13,1.174252674e-13,8.552150783e-14,1.344965610e-13,3.324660059e-14,1.125201637e-14,2.290949148e-14,1.430004927e-13,8.208677672e-14,5.423991489e-14,1.819461688e-13,2.163314682e-13,2.934388724e-13,1.128383655e-13,1.356697671e-13,2.362854724e-14
1.2734,7.812748028e-14,6.235275593e-14,1.172988307e-13,7.674331759e-14,4.125207664e-14,9.135358303e-14,1.837696277e-13,2.862581785e-14,2.633724610e-14,3.662005302e-14,1.220747355e-13,9.103603881e-14,1.800650520e-14,1.433749280e-13,2.968159409e-13,2.101410322e-13,1.656309405e-13,1.302162375e-13,9.119137233e-14,1.387109491e-13,3.052800410e-14,1.242840749e-14,2.481270356e-14,1.233486137e-13,7.555460665e-14,6.079817069e-14,1.868943752e-13,2.263666910e-13,2.989262200e-13,1.335084422e-13,1.388917719e-13,2.365042680e-14
1.2812,8.145581247e-14,6.842046930e-14,1.250586847e-13,8.494487283e-14,4.231816792e-14,1.011724105e-13,1.943712207e-13,2.627329997e-14,2.578962379e-14,3.295589012e-14,1.137664145e-13,9.355473029e-14,2.184518942e-14,1.525179915e-13,3.036087070e-13,2.130227157e-13,1.761181165e-13,1.427931213e-13,9.739117762e-14,1.419118570e-13,2.719691619e-14,1.459441659e-14,2.707965385e-14,1.059182839e-13,7.042339975e-14,6.652453724e-14,1.914986515e-13,2.387522984e-13,3.015000746e-13,1.601940105e-13,1.420364530e-13,2.329084916e-14
1.2891,8.416387878e-14,7.378394669e-14,1.314728770e-13,9.208373827e-14,4.389438114e-14,1.107749519e-13,2.026026478e-13,2.447203988e-14,2.615377313e-14,3.153338689e-14,1.087970111e-13,9.452543513e-14,2.752228119e-14,1.588925620e-13,3.056565790e-13,2.169997257e-13,1.871486707e-13,1.533533717e-13,1.028968822e-13,1.429370031e-13,2.429044831e-14,1.755391927e-14,2.993789916e-14,9.210025269e-14,6.618654524e-14,7.131204436e-14,1.938633796e-13,2.514963640e-13,3.002560448e-13,1.939918938e-13,1.435763900e-13,2.297585712e-14
1.2969,8.582471113e-14,7.762328619e-14,1.363873996e-13,9.719837799e-14,4.600340198e-14,1.191621657e-13,2.071354863e-13,2.288810387e-14,2.739293574e-14,3.131927853e-14,1.064776179e-13,9.357221133e-14,3.465245797e-14,1.614260642e-13,3.009958929e-13,2.204532909e-13,1.972539772e-13,1.605404453e-13,1.064717992e-13,1.422522463e-13,2.205213817e-14,2.092245139e-14,3.335671166e-14,8.144368452e-14,6.195948313e-14,7.491937568e-14,1.935007610e-13,2.639869865e-13,2.954178794e-13,2.352061834e-13,1.429544015e-13,2.293789958e-14
1.3047,8.617182299e-14,7.964402162e-14,1.402546500e-13,1.000544006e-13,4.856795749e-14,1.257367600e-13,2.082081400e-13,2.131560852e-14,2.934342586e-14,3.241115779e-14,1.059737243e-13,9.025792126e-14,4.280533122e-14,1.596272363e-13,2.892572351e-13,2.226782991e-13,2.057988713e-13,1.639318687e-13,1.077310234e-13,1.400182787e-13,2.101468279e-14,2.434540625e-14,3.745246182e-14,7.337811999e-14,5.875076344e-14,7.726574541e-14,1.892216767e-13,2.755780917e-13,2.857586904e-13,2.822782080e-13,1.396283959e-13,2.353569508e-14
1.3125,8.490103661e-14,7.986958825e-14,1.421227874e-13,1.006639262e-13,5.180925116e-14,1.291121130e-13,2.064802655e-13,1.978486488e-14,3.208628792e-14,3.399520938e-14,1.065082310e-13,8.458399210e-14,5.148284880e-14,1.535277536e-13,2.714876508e-13,2.233954887e-13,2.125467234e-13,1.637413739e-13,1.061496995e-13,1.372850730e-13,2.132441030e-14,2.759503731e-14,4.171876784e-14,6.892775900e-14,5.575026730e-14,7.854380369e-14,1.810845511e-13,2.866434074e-13,2.749503220e-13,3.318526911e-13,1.347576742e-13,2.498247646e-14
1.3203,8.358977519e-14,7.886790557e-14,1.443929646e-13,9.960240467e-14,5.545213297e-14,1.303585750e-13,2.004140027e-13,1.838875460e-14,3.582214485e-14,3.532455804e-14,1.084482811e-13,7.723704301e-14,6.067425093e-14,1.445377149e-13,2.506617159e-13,2.223757149e-13,2.160725184e-13,1.593876781e-13,1.018386859e-13,1.339999334e-13,2.282204652e-14,3.042537991e-14,4.548521169e-14,6.760897245e-14,5.323054545e-14,7.828403254e-14,1.694472841e-13,2.987435741e-13,2.627500575e-13,3.826339216e-13,1.283893794e-13,2.699624805e-14
1.3281,8.216817753e-14,7.619011271e-14,1.468327149e-13,9.594247842e-14,5.888161958e-14,1.291512563e-13,1.906287074e-13,1.696643780e-14,4.005831929e-14,3.627045260e-14,1.117717256e-13,6.861963151e-14,6.951144438e-14,1.328703299e-13,2.265975447e-13,2.181805709e-13,2.155823754e-13,1.513176377e-13,9.491728400e-14,1.309370997e-13,2.543689798e-14,3.227664520e-14,4.808881072e-14,6.993435881e-14,5.197238342e-14,7.685757521e-14,1.542178542e-13,3.119817215e-13,2.489402039e-13,4.286665548e-13,1.201659235e-13,2.967898674e-14
1.3359,8.152081908e-14,7.287827204e-14,1.500403317e-13,9.130525730e-14,6.180206053e-14,1.259273617e-13,1.771735523e-13,1.551678621e-14,4.472134185e-14,3.620887493e-14,1.172511060e-13,5.967463758e-14,7.797946370e-14,1.202885207e-13,2.010399754e-13,2.111467734e-13,2.102115404e-13,1.401494785e-13,8.677219789e-14,1.288726586e-13,2.886964631e-14,3.324252993e-14,4.886150867e-14,7.534305036e-14,5.197546210e-14,7.474569704e-14,1.372331465e-13,3.267259490e-13,2.349306559e-13,4.680141870e-13,1.115969784e-13,3.288456868e-14
1.3438,8.147132896e-14,6.983495759e-14,1.523686306e-13,8.655584622e-14,6.453869590e-14,1.206835246e-13,1.620203529e-13,1.423514127e-14,4.939498981e-14,3.461243567e-14,1.253986630e-13,5.124730181e-14,8.493814159e-14,1.083970219e-13,1.772459819e-13,2.034396035e-13,2.008380629e-13,1.273779156e-13,7.805276931e-14,1.277391001e-13,3.264810124e-14,3.307052331e-14,4.758124851e-14,8.423207619e-14,5.342585410e-14,7.236427419e-14,1.205549975e-13,3.418685353e-13,2.227346647e-13,4.966626358e-13,1.043361223e-13,3.630528947e-14
1.3516,8.271243438e-14,6.785056940e-14,1.540263807e-13,8.256821116e-14,6.701106111e-14,1.140833902e-13,1.467561846e-13,1.335054529e-14,5.398435155e-14,3.188761332e-14,1.355406085e-13,4.366721523e-14,9.040689418e-14,9.769389264e-14,1.563597883e-13,1.963573497e-13,1.891967945e-13,1.137514589e-13,6.966173274e-14,1.268981447e-13,3.642496703e-14,3.225561438e-14,4.519633016e-14,9.540790282e-14,5.605000009e-14,6.971245658e-14,1.052257247e-13,3.547818261e-13,2.125774840e-13,5.174286045e-13,9.855819764e-14,3.977332808e-14
1.3594,8.476112062e-14,6.619660034e-14,1.551635811e-13,7.899928902e-14,6.912658182e-14,1.065496247e-13,1.310415438e-13,1.300879911e-14,5.826350623e-14,2.827585650e-14,1.470729349e-13,3.712387389e-14,9.411488895e-14,8.812728335e-14,1.382236913e-13,1.889968026e-13,1.747680101e-13,9.934021756e-14,6.169837075e-14,1.257668807e-13,3.955147177e-14,3.087790225e-14,4.151386207e-14,1.077706651e-13,5.947657167e-14,6.683518276e-14,9.222233222e-14,3.630353671e-13,2.036939011e-13,5.265118559e-13,9.365462481e-14,4.296843236e-14
1.3672,8.711126924e-14,6.534442891e-14,1.539115216e-13,7.669868377e-14,7.095978342e-14,9.889911228e-14,1.164270514e-13,1.337287689e-14,6.160685358e-14,2.451824523e-14,1.578536117e-13,3.201815203e-14,9.565425775e-14,8.056964716e-14,1.239334394e-13,1.825484136e-13,1.595462706e-13,8.526278253e-14,5.452714906e-14,1.249458560e-13,4.225318903e-14,2.904046906e-14,3.726469021e-14,1.197475114e-13,6.389627683e-14,6.434913985e-14,8.278032612e-14,3.650714631e-13,1.974578307e-13,5.258419254e-13,9.066578983e-14,4.579038361e-14
1.375,8.880832697e-14,6.497912216e-14,1.483298798e-13,7.523646729e-14,7.245704412e-14,9.098623953e-14,1.036654467e-13,1.445693046e-14,6.368322481e-14,2.098122888e-14,1.679648581e-13,2.816227287e-14,9.459618597e-14,7.479476717e-14,1.133909185e-13,1.777542811e-13,1.450952117e-13,7.228047633e-14,4.833858255e-14,1.238997079e-13,4.423745191e-14,2.690561611e-14,3.323549506e-14,1.314004244e-13,6.918442394e-14,6.259451827e-14,7.757202264e-14,3.578996315e-13,1.925762900e-13,5.161329666e-13,8.908034000e-14,4.817809529e-14
1.3828,8.988668924e-14,6.490598251e-14,1.384783479e-13,7.432370512e-14,7.374310865e-14,8.269245331e-14,9.332156225e-14,1.644855236e-14,6.427929235e-14,1.842718699e-14,1.774276888e-13,2.564924992e-14,9.067998589e-14,7.106823818e-14,1.063854166e-13,1.741341646e-13,1.320769085e-13,6.162519037e-14,4.356396859e-14,1.223798455e-13,4.499516402e-14,2.482273106e-14,2.997843270e-14,1.425366527e-13,7.408563413e-14,6.168076723e-14,7.733364848e-14,3.415144725e-13,1.891645371e-13,4.979441719e-13,8.847767713e-14,4.977417538e-14
1.3906,8.963951312e-14,6.403856922e-14,1.259424818e-13,7.311918648e-14,7.479486817e-14,7.489553383e-14,8.602381785e-14,1.971056789e-14,6.325285515e-14,1.709193776e-14,1.866155691e-13,2.402962973e-14,8.441128600e-14,6.882247283e-14,1.022554372e-13,1.711203313e-13,1.227090157e-13,5.365286011e-14,3.946963622e-14,1.202857806e-13,4.482301608e-14,2.288528507e-14,2.828264211e-14,1.535780770e-13,7.852958723e-14,6.175440806e-14,8.188051298e-14,3.165350708e-13,1.859335042e-13,4.736842383e-13,8.739765016e-14,5.045662133e-14
1.3984,8.735683819e-14,6.194052868e-14,1.118863057e-13,7.127859243e-14,7.574826606e-14,6.790440015e-14,8.180707450e-14,2.401855775e-14,6.117466081e-14,1.677081879e-14,1.948671615e-13,2.318544443e-14,7.699456614e-14,6.807517463e-14,1.006462167e-13,1.684417029e-13,1.172973325e-13,4.911270400e-14,3.661975592e-14,1.182885347e-13,4.406241488e-14,2.145062139e-14,2.826485057e-14,1.638452183e-13,8.229666949e-14,6.284610046e-14,9.081968276e-14,2.853982479e-13,1.822322426e-13,4.434655936e-13,8.547223784e-14,5.052092440e-14
1.4062,8.296772938e-14,5.920816616e-14,9.680669765e-14,6.899251577e-14,7.699937795e-14,6.240453494e-14,8.152952079e-14,2.936050633e-14,5.803773835e-14,1.735186440e-14,2.044944129e-13,2.299356545e-14,6.894680745e-14,6.891311798e-14,1.022689502e-13,1.668711275e-13,1.173234273e-13,4.870579785e-14,3.506762681e-14,1.181150884e-13,4.324031464e-14,2.050190994e-14,2.993799921e-14,1.743245116e-13,8.625666026e-14,6.510036900e-14,1.039375064e-13,2.523498322e-13,1.788311191e-13,4.076254246e-13,8.346512679e-14,5.030277646e-14
1.4141,7.729643782e-14,5.654703332e-14,8.283687071e-14,6.635797718e-14,7.823983759e-14,5.897899912e-14,8.491784882e-14,3.612464400e-14,5.407974072e-14,1.843860413e-14,2.169022629e-13,2.330578959e-14,6.056513233e-14,7.133191981e-14,1.072619282e-13,1.666633562e-13,1.230562070e-13,5.264245654e-14,3.506983406e-14,1.191115274e-13,4.347595531e-14,2.016118915e-14,3.317075388e-14,1.870624793e-13,9.058836828e-14,6.778703559e-14,1.196129992e-13,2.199283954e-13,1.747120472e-13,3.685754801e-13,8.090080347e-14,4.986247597e-14
1.4219,7.150718000e-14,5.493732675e-14,7.258191823e-14,6.407399286e-14,7.987404265e-14,5.871806878e-14,9.244951192e-14,4.440438055e-14,4.997686830e-14,1.984176421e-14,2.337307284e-13,2.398042687e-14,5.258654702e-14,7.531835557e-14,1.163812066e-13,1.682401327e-13,1.351155528e-13,6.117313800e-14,3.720463721e-14,1.230163657e-13,4.501047527e-14,2.069806495e-14,3.771938393e-14,2.006620722e-13,9.682826984e-14,7.114438365e-14,1.367863375e-13,1.901767198e-13,1.702268349e-13,3.294209625e-13,7.823258226e-14,4.975198817e-14
1.4297,6.736282414e-14,5.533061776e-14,6.823277999e-14,6.297907940e-14,8.117610638e-14,6.258430965e-14,1.040092742e-13,5.316501862e-14,4.627177683e-14,2.095335999e-14,2.542691324e-13,2.554309169e-14,4.551299211e-14,8.070788462e-14,1.291750019e-13,1.720579662e-13,1.524381232e-13,7.399675141e-14,4.184246290e-14,1.292346959e-13,4.829169451e-14,2.237117737e-14,4.345167454e-14,2.150162391e-13,1.056941883e-13,7.423873043e-14,1.522141173e-13,1.660328005e-13,1.658728307e-13,2.943259859e-13,7.552804654e-14,5.004823391e-14
1.4375,6.586286332e-14,5.874020645e-14,7.080478406e-14,6.396704380e-14,8.247201415e-14,7.145688006e-14,1.197922717e-13,6.177377254e-14,4.348375570e-14,2.185367529e-14,2.770757602e-13,2.821078550e-14,4.035190212e-14,8.803138904e-14,1.463848086e-13,1.794908559e-13,1.749029344e-13,9.093358942e-14,4.884048264e-14,1.379924783e-13,5.368841780e-14,2.510928307e-14,5.018630431e-14,2.293022728e-13,1.178151083e-13,7.731625141e-14,1.651644719e-13,1.494388455e-13,1.615803177e-13,2.650786098e-13,7.372539218e-14,5.139028281e-14
1.4453,6.772496745e-14,6.541311027e-14,8.018450706e-14,6.722258519e-14,8.337959593e-14,8.547334778e-14,1.382794533e-13,6.991818533e-14,4.176981599e-14,2.249771739e-14,3.007480453e-13,3.187972004e-14,3.707485865e-14,9.630988755e-14,1.678814082e-13,1.903631550e-13,2.003368759e-13,1.100420876e-13,5.755418718e-14,1.489884199e-13,6.112268086e-14,2.921847452e-14,5.786502501e-14,2.434136475e-13,1.333217160e-13,7.913133079e-14,1.730754893e-13,1.397175531e-13,1.573657178e-13,2.425297663e-13,7.284170375e-14,5.373244409e-14
1.4531,7.458201977e-14,7.627513503e-14,9.646699407e-14,7.391924016e-14,8.412256526e-14,1.057729076e-13,1.602859672e-13,7.741072881e-14,4.164687360e-14,2.295115696e-14,3.235307214e-13,3.677566483e-14,3.600982604e-14,1.063196568e-13,1.948097170e-13,2.063539319e-13,2.292669280e-13,1.318880298e-13,6.862144147e-14,1.635198053e-13,7.056081431e-14,3.483810981e-14,6.685641663e-14,2.552939855e-13,1.539761239e-13,7.998442034e-14,1.761745290e-13,1.354141767e-13,1.534844216e-13,2.301372861e-13,7.356283817e-14,5.723379136e-14
1.4609,8.607421514e-14,9.023743806e-14,1.177609378e-13,8.328569478e-14,8.419993972e-14,1.317406309e-13,1.832088950e-13,8.367703226e-14,4.333384027e-14,2.321043094e-14,3.437892184e-13,4.223040237e-14,3.699411808e-14,1.156176956e-13,2.229958645e-13,2.248104425e-13,2.577198906e-13,1.531741275e-13,7.961598759e-14,1.789152104e-13,8.041733894e-14,4.234279029e-14,7.767388078e-14,2.622902444e-13,1.780285754e-13,7.939390049e-14,1.734104952e-13,1.343646564e-13,1.497587869e-13,2.277307576e-13,7.545936649e-14,6.200398372e-14
1.4688,1.022675134e-13,1.065238071e-13,1.419025950e-13,9.375269990e-14,8.278490374e-14,1.610778886e-13,2.041020533e-13,8.774858973e-14,4.751845475e-14,2.313964410e-14,3.572083776e-13,4.847328153e-14,4.064644922e-14,1.229486643e-13,2.496179790e-13,2.423776096e-13,2.815103034e-13,1.715219998e-13,9.005145006e-14,1.933362376e-13,9.021082524e-14,5.203781861e-14,9.031805460e-14,2.663667050e-13,2.041527156e-13,7.675124173e-14,1.645724092e-13,1.373815777e-13,1.470351633e-13,2.334988994e-13,7.833266101e-14,6.738073654e-14
1.4766,1.232808943e-13,1.250051264e-13,1.683454270e-13,1.048711835e-13,7.979978209e-14,1.940646604e-13,2.215540158e-13,8.933988456e-14,5.443118717e-14,2.278449143e-14,3.628880035e-13,5.602589876e-14,4.751679445e-14,1.288590920e-13,2.749639609e-13,2.590807480e-13,3.001869833e-13,1.857124308e-13,9.916622262e-14,2.059293904e-13,9.898683976e-14,6.388511543e-14,1.046378686e-13,2.682093990e-13,2.297640077e-13,7.210602229e-14,1.518420454e-13,1.430841984e-13,1.453398015e-13,2.439645766e-13,8.251729569e-14,7.299037407e-14
1.4844,1.481925419e-13,1.451978220e-13,1.940631856e-13,1.166491426e-13,7.626168247e-14,2.286089160e-13,2.350179385e-13,8.904484804e-14,6.437253577e-14,2.201677047e-14,3.609806687e-13,6.505999761e-14,5.832648638e-14,1.344522483e-13,2.983382426e-13,2.737875093e-13,3.128676952e-13,1.963048755e-13,1.080611779e-13,2.181612781e-13,1.065732772e-13,7.816451204e-14,1.205363565e-13,2.699158579e-13,2.543886159e-13,6.636264506e-14,1.376586722e-13,1.507595596e-13,1.458011263e-13,2.567945899e-13,8.899402797e-14,7.914870570e-14
1.4922,1.750910366e-13,1.662611812e-13,2.176654105e-13,1.285915309e-13,7.249643802e-14,2.631539913e-13,2.434822035e-13,8.757177920e-14,7.691399516e-14,2.137160021e-14,3.523089410e-13,7.506405384e-14,7.331955869e-14,1.407068000e-13,3.183097673e-13,2.845206404e-13,3.188122752e-13,2.035198365e-13,1.159181750e-13,2.286231972e-13,1.117877867e-13,9.441041037e-14,1.370453138e-13,2.723053600e-13,2.757564064e-13,6.005340615e-14,1.244187163e-13,1.597486150e-13,1.501381307e-13,2.660459218e-13,9.843570586e-14,8.515449559e-14
1.5,2.006537493e-13,1.854215333e-13,2.356325032e-13,1.380139421e-13,6.851695602e-14,2.937761132e-13,2.453127028e-13,8.518099918e-14,9.169098018e-14,2.104176296e-14,3.369788828e-13,8.499938811e-14,9.169641777e-14,1.460146546e-13,3.318986018e-13,2.890908536e-13,3.173393966e-13,2.054364907e-13,1.220834644e-13,2.349296839e-13,1.145915912e-13,1.127620943e-13,1.534669536e-13,2.767386466e-13,2.913805979e-13,5.356377105e-14,1.123981342e-13,1.684807545e-13,1.575509377e-13,2.679976429e-13,1.096049548e-13,9.073755786e-14
1.5078,2.239113148e-13,2.026805502e-13,2.484334586e-13,1.448731336e-13,6.385134396e-14,3.183775909e-13,2.394928503e-13,8.234761779e-14,1.084671972e-13,2.121755052e-14,3.159551426e-13,9.513704644e-14,1.141834124e-13,1.514896215e-13,3.391074678e-13,2.865926226e-13,3.073799379e-13,2.033907778e-13,1.286750897e-13,2.354819896e-13,1.151949985e-13,1.326531839e-13,1.673670246e-13,2.838133465e-13,2.982739208e-13,4.711965580e-14,1.032323982e-13,1.795850325e-13,1.688861739e-13,2.627988495e-13,1.227564930e-13,9.493930722e-14
1.5156,2.429925936e-13,2.179204956e-13,2.532214845e-13,1.494722019e-13,5.943927873e-14,3.332178963e-13,2.281265782e-13,7.964778347e-14,1.262848472e-13,2.200046082e-14,2.897448467e-13,1.055603276e-13,1.399412069e-13,1.579764906e-13,3.402113211e-13,2.782837900e-13,2.920401166e-13,1.993010428e-13,1.366139967e-13,2.320825238e-13,1.148059743e-13,1.531343400e-13,1.778650151e-13,2.939151077e-13,2.965575585e-13,4.163368483e-14,9.858236590e-14,1.916376268e-13,1.862506108e-13,2.495423117e-13,1.393886107e-13,9.763913887e-14
1.5234,2.575022686e-13,2.319555555e-13,2.519240958e-13,1.535349150e-13,5.583451390e-14,3.385185748e-13,2.134492550e-13,7.768680033e-14,1.439905636e-13,2.350287884e-14,2.617578196e-13,1.161622841e-13,1.682821415e-13,1.666877454e-13,3.381287464e-13,2.660877610e-13,2.731632759e-13,1.951557885e-13,1.474763506e-13,2.256646130e-13,1.132309651e-13,1.731434252e-13,1.834727980e-13,3.053064952e-13,2.885599070e-13,3.767802904e-14,9.835485547e-14,2.051886205e-13,2.089743261e-13,2.318774432e-13,1.596412612e-13,9.872922205e-14
1.5312,2.636125838e-13,2.416341515e-13,2.429712956e-13,1.556480310e-13,5.316062714e-14,3.323083846e-13,1.969347067e-13,7.744450912e-14,1.591261146e-13,2.545951396e-14,2.329357951e-13,1.253289453e-13,1.962687043e-13,1.767206163e-13,3.311803239e-13,2.500833464e-13,2.524658984e-13,1.922757565e-13,1.604536943e-13,2.165806430e-13,1.101185387e-13,1.910309062e-13,1.838362179e-13,3.172947618e-13,2.751621273e-13,3.553855493e-14,1.014789023e-13,2.190400735e-13,2.347141337e-13,2.090901897e-13,1.805679026e-13,9.803938257e-14
1.5391,2.609298230e-13,2.464599682e-13,2.278814819e-13,1.557470233e-13,5.138972431e-14,3.147822279e-13,1.794568625e-13,7.925184877e-14,1.705156925e-13,2.727428071e-14,2.028285746e-13,1.322412138e-13,2.220059499e-13,1.874461740e-13,3.203760444e-13,2.314048837e-13,2.301206061e-13,1.902753102e-13,1.753867305e-13,2.039659116e-13,1.055724527e-13,2.056285267e-13,1.781855342e-13,3.268754099e-13,2.579888635e-13,3.525059899e-14,1.076463076e-13,2.312199591e-13,2.620187735e-13,1.833199702e-13,2.008051232e-13,9.550271635e-14
1.5469,2.503340954e-13,2.466055879e-13,2.086721717e-13,1.538067010e-13,5.015224077e-14,2.883584840e-13,1.624897523e-13,8.293697059e-14,1.781970995e-13,2.946912702e-14,1.738355837e-13,1.370396572e-13,2.446945835e-13,1.980006591e-13,3.069020432e-13,2.113768280e-13,2.076015607e-13,1.896685789e-13,1.921015381e-13,1.886488517e-13,9.987683743e-14,2.161257030e-13,1.673501759e-13,3.333849298e-13,2.393315713e-13,3.657029092e-14,1.159291571e-13,2.418088659e-13,2.887711867e-13,1.582597023e-13,2.196031470e-13,9.121445125e-14
1.5547,2.345556410e-13,2.434745055e-13,1.877555710e-13,1.511401498e-13,4.970350915e-14,2.554875179e-13,1.473859525e-13,8.796077338e-14,1.819050565e-13,3.191770994e-14,1.455691424e-13,1.403022760e-13,2.629922287e-13,2.080520365e-13,2.918257149e-13,1.915958687e-13,1.862945927e-13,1.905738801e-13,2.096440891e-13,1.734621636e-13,9.426796572e-14,2.219405542e-13,1.521596445e-13,3.373086277e-13,2.213136708e-13,3.936529744e-14,1.254285211e-13,2.486746358e-13,3.133303492e-13,1.356679226e-13,2.368647593e-13,8.537738954e-14
1.5625,2.151150602e-13,2.364847911e-13,1.676873925e-13,1.476240850e-13,4.931869743e-14,2.203974363e-13,1.346941622e-13,9.358017554e-14,1.810266145e-13,3.538535136e-14,1.199284357e-13,1.412552994e-13,2.743845587e-13,2.153561881e-13,2.754510473e-13,1.727150357e-13,1.668508239e-13,1.907060657e-13,2.248748176e-13,1.597015576e-13,8.838513023e-14,2.219745678e-13,1.340350145e-13,3.370406077e-13,2.057213067e-13,4.243139795e-14,1.331598744e-13,2.497656909e-13,3.303460057e-13,1.166044363e-13,2.488998998e-13,7.877288496e-14
1.5703,1.921405720e-13,2.246622650e-13,1.485786225e-13,1.427813392e-13,4.902696969e-14,1.852286067e-13,1.244661977e-13,9.929535589e-14,1.748813862e-13,4.019028707e-14,9.765597575e-14,1.395123356e-13,2.777677752e-13,2.191887814e-13,2.582630310e-13,1.546193965e-13,1.493420854e-13,1.891849464e-13,2.362405054e-13,1.479880239e-13,8.230068155e-14,2.159635815e-13,1.143985897e-13,3.335597784e-13,1.924041108e-13,4.551229317e-14,1.386095341e-13,2.434247572e-13,3.372182126e-13,1.008559060e-13,2.536883402e-13,7.172112553e-14
1.5781,1.689665103e-13,2.091610381e-13,1.325121025e-13,1.372759010e-13,4.904958596e-14,1.525220826e-13,1.168523746e-13,1.034973992e-13,1.646350888e-13,4.656216024e-14,7.875074501e-14,1.360948336e-13,2.737473121e-13,2.191179968e-13,2.405999324e-13,1.383787924e-13,1.342680938e-13,1.850145943e-13,2.420789116e-13,1.396748459e-13,7.653545717e-14,2.048351444e-13,9.503528447e-14,3.272458256e-13,1.809863039e-13,4.782372567e-14,1.404870268e-13,2.313504659e-13,3.338164392e-13,8.937258221e-14,2.514634813e-13,6.527778591e-14
1.5859,1.479479062e-13,1.922127681e-13,1.204842970e-13,1.321344955e-13,4.974789906e-14,1.248745075e-13,1.116565089e-13,1.060308647e-13,1.517161174e-13,5.469997854e-14,6.377715542e-14,1.324272345e-13,2.640724770e-13,2.163620252e-13,2.242633395e-13,1.246745097e-13,1.218890428e-13,1.781501624e-13,2.421513387e-13,1.338293985e-13,7.149715450e-14,1.897390067e-13,7.745085601e-14,3.198987076e-13,1.713218074e-13,4.921124324e-14,1.401957259e-13,2.133200820e-13,3.220796281e-13,8.102485931e-14,2.442284825e-13,6.009415575e-14
1.5938,1.305795626e-13,1.749708561e-13,1.119850357e-13,1.276013486e-13,5.118984569e-14,1.030934691e-13,1.066460064e-13,1.063468050e-13,1.377872039e-13,6.423626341e-14,5.289388346e-14,1.297482518e-13,2.504727414e-13,2.111126080e-13,2.083066808e-13,1.122676329e-13,1.115320138e-13,1.679690035e-13,2.360643213e-13,1.278601411e-13,6.741610153e-14,1.722332433e-13,6.239438579e-14,3.121417420e-13,1.611374995e-13,4.891586047e-14,1.366907235e-13,1.911388881e-13,3.034149578e-13,7.691966477e-14,2.329396493e-13,5.610644195e-14
1.6016,1.170505991e-13,1.582107792e-13,1.072104224e-13,1.237293998e-13,5.361374889e-14,8.738805002e-14,1.022674084e-13,1.045065240e-13,1.232836960e-13,7.498807427e-14,4.516221458e-14,1.283719978e-13,2.340169632e-13,2.040048115e-13,1.946492649e-13,1.017117712e-13,1.031425013e-13,1.559085691e-13,2.245379095e-13,1.222440466e-13,6.430332384e-14,1.527850492e-13,5.025494932e-14,3.061303208e-13,1.492477671e-13,4.753337810e-14,1.304900254e-13,1.665901520e-13,2.791887763e-13,7.667213506e-14,2.182246379e-13,5.311790767e-14
1.6094,1.065227612e-13,1.430611502e-13,1.043381248e-13,1.210962788e-13,5.740552206e-14,7.713361982e-14,9.934404708e-14,1.014746052e-13,1.081693864e-13,8.627290797e-14,4.061456005e-14,1.285549167e-13,2.157057026e-13,1.968185569e-13,1.841721565e-13,9.382890712e-14,9.792307160e-14,1.431037369e-13,2.084839273e-13,1.166127919e-13,6.154860516e-14,1.322048471e-13,4.115265874e-14,2.977537084e-13,1.357684316e-13,4.582580973e-14,1.225892016e-13,1.413349922e-13,2.526534345e-13,7.971832969e-14,2.027206642e-13,5.045779553e-14
1.6172,9.776112530e-14,1.290875352e-13,1.028286504e-13,1.185097662e-13,6.200686608e-14,7.092383207e-14,9.639820538e-14,9.720348260e-14,9.365031880e-14,9.656846888e-14,3.838953950e-14,1.307373860e-13,1.970974278e-13,1.897173435e-13,1.753922436e-13,8.691844548e-14,9.404018685e-14,1.298987532e-13,1.897821674e-13,1.098142423e-13,5.871468888e-14,1.118947434e-13,3.466836093e-14,2.885900768e-13,1.204635882e-13,4.368630242e-14,1.131720314e-13,1.196568823e-13,2.258299614e-13,8.756300925e-14,1.868328456e-13,4.825732200e-14
1.625,9.036821549e-14,1.165529753e-13,1.026618659e-13,1.161297055e-13,6.717869344e-14,6.788954012e-14,9.380009913e-14,9.287547628e-14,8.033759154e-14,1.057052102e-13,3.750207534e-14,1.344205515e-13,1.792361698e-13,1.833046736e-13,1.691316624e-13,8.143034275e-14,9.160814431e-14,1.173864059e-13,1.704584547e-13,1.022880698e-13,5.585760201e-14,9.241829440e-14,3.014555128e-14,2.773685354e-13,1.054875222e-13,4.176930108e-14,1.036959787e-13,1.013826676e-13,2.004870785e-13,9.894410312e-14,1.718082945e-13,4.636544267e-14
1.6328,8.342249384e-14,1.055167968e-13,1.029071986e-13,1.135288761e-13,7.279844469e-14,6.696977618e-14,9.020002518e-14,8.889540644e-14,6.858482177e-14,1.123922329e-13,3.758153059e-14,1.394328153e-13,1.625468702e-13,1.782194806e-13,1.634655155e-13,7.657560782e-14,8.882580848e-14,1.057830036e-13,1.516696230e-13,9.425492973e-14,5.259535229e-14,7.473397216e-14,2.752476357e-14,2.623062891e-13,9.097396234e-14,4.033162535e-14,9.403325862e-14,8.808953898e-14,1.781840891e-13,1.142913055e-13,1.582049868e-13,4.490051924e-14
1.6406,7.639913282e-14,9.547202466e-14,1.042413998e-13,1.095981204e-13,7.752252060e-14,6.790656727e-14,8.569173868e-14,8.615858445e-14,5.895677562e-14,1.165962375e-13,3.821347052e-14,1.452491769e-13,1.475681995e-13,1.748292666e-13,1.576023903e-13,7.199494432e-14,8.527148824e-14,9.564497200e-14,1.350947195e-13,8.681470479e-14,4.952699362e-14,5.917459783e-14,2.667763309e-14,2.459654611e-13,7.816004060e-14,3.907159736e-14,8.494637829e-14,7.973894723e-14,1.589867595e-13,1.317443767e-13,1.452068133e-13,4.347153367e-14
1.6484,6.926989937e-14,8.617808740e-14,1.063066561e-13,1.042069769e-13,8.059871539e-14,6.958635597e-14,8.112859456e-14,8.486188158e-14,5.132818677e-14,1.174770321e-13,3.875322415e-14,1.508617455e-13,1.349315455e-13,1.729354066e-13,1.506131809e-13,6.769572023e-14,8.125495916e-14,8.763488254e-14,1.217167840e-13,8.006414418e-14,4.666306815e-14,4.612547831e-14,2.686468083e-14,2.291478886e-13,6.848825102e-14,3.781080514e-14,7.663431380e-14,7.712135285e-14,1.436217952e-13,1.508242572e-13,1.331388653e-13,4.179682701e-14
1.6562,6.186425341e-14,7.726150982e-14,1.093494721e-13,9.685785964e-14,8.155387685e-14,7.195829015e-14,7.673280363e-14,8.423678501e-14,4.560433332e-14,1.150761738e-13,3.920125436e-14,1.556772732e-13,1.246895098e-13,1.722450097e-13,1.412126483e-13,6.344856260e-14,7.683447997e-14,8.182088627e-14,1.115498932e-13,7.494599055e-14,4.400428298e-14,3.592470875e-14,2.780879706e-14,2.133732199e-13,6.200130551e-14,3.653630899e-14,6.962880791e-14,7.908497658e-14,1.324680767e-13,1.708394534e-13,1.219491987e-13,3.998745863e-14
1.6641,5.481400052e-14,6.952667896e-14,1.140668399e-13,8.907719875e-14,8.128258327e-14,7.512805345e-14,7.383172394e-14,8.448934532e-14,4.136713224e-14,1.095107197e-13,4.076922291e-14,1.593255516e-13,1.161738218e-13,1.728713130e-13,1.314352485e-13,6.031229194e-14,7.347039041e-14,7.852853767e-14,1.048327566e-13,7.184385646e-14,4.226998240e-14,2.800607680e-14,2.936105409e-14,1.991372183e-13,5.895062651e-14,3.563923759e-14,6.454973602e-14,8.526441277e-14,1.254786358e-13,1.896096106e-13,1.126415308e-13,3.839428864e-14
1.6719,4.803928688e-14,6.222627558e-14,1.200791317e-13,8.035565712e-14,8.037326223e-14,7.886740782e-14,7.268563790e-14,8.541905882e-14,3.791679525e-14,1.017958113e-13,4.353711801e-14,1.610759441e-13,1.090405037e-13,1.746168199e-13,1.205556559e-13,5.806005714e-14,7.146456977e-14,7.779701226e-14,1.006394277e-13,6.971273576e-14,4.118935032e-14,2.228183384e-14,3.149654506e-14,1.894866249e-13,5.918573357e-14,3.486843751e-14,6.086359521e-14,9.447825287e-14,1.223911980e-13,2.067107763e-13,1.042191819e-13,3.736959494e-14
1.6797,4.172858469e-14,5.528304381e-14,1.267372290e-13,7.147125840e-14,7.870381652e-14,8.279758575e-14,7.450370296e-14,8.665435669e-14,3.456905898e-14,9.277620441e-14,4.798800027e-14,1.593944679e-13,1.021793795e-13,1.758568598e-13,1.108204766e-13,5.766867950e-14,7.251581366e-14,7.918501003e-14,9.846554658e-14,6.881346493e-14,4.089774569e-14,1.850125894e-14,3.457834337e-14,1.871838175e-13,6.245332690e-14,3.426100947e-14,5.898519336e-14,1.044593813e-13,1.231964394e-13,2.208564725e-13,9.667488166e-14,3.681437727e-14
1.6875,3.644974166e-14,4.922428417e-14,1.352414205e-13,6.364250172e-14,7.689945889e-14,8.770937645e-14,8.096526264e-14,8.814740307e-14,3.132974234e-14,8.378745053e-14,5.556977316e-14,1.545082547e-13,9.570024451e-14,1.773514024e-13,1.036328355e-13,6.038199386e-14,7.843207929e-14,8.405088229e-14,9.876734248e-14,6.843867303e-14,4.091226688e-14,1.618264539e-14,3.799250126e-14,1.928018661e-13,6.904664731e-14,3.446785434e-14,5.946647535e-14,1.159295760e-13,1.294772218e-13,2.318866111e-13,9.103562131e-14,3.674998464e-14
