Time,Fp1,AF3,F7,F3,FC1,FC5,T7,C3,CP1,CP5,P7,P3,Pz,PO3,O1,Oz,O2,PO4,P4,P8,CP6,CP2,C4,T8,FC6,FC2,F4,F8,AF4,Fp2,Fz,Cz,
-0.10156,2.194051778e-14,1.362060810e-14,2.298766073e-13,2.330262428e-14,8.237300507e-15,2.202894500e-14,4.029248931e-14,3.777762802e-14,3.741437261e-14,2.974373560e-14,1.889473108e-14,4.265353145e-14,7.904763989e-15,3.534138861e-14,2.967862883e-14,5.089823838e-14,6.517341420e-14,3.575444408e-14,9.283677594e-15,3.522646397e-14,2.252877404e-14,4.987471892e-15,2.161159511e-14,3.115323985e-14,7.322165799e-14,2.371226820e-14,7.812086589e-14,1.414020449e-13,6.739867904e-14,3.293566266e-14,1.919385986e-14,2.108436506e-14
-0.09375,2.519741435e-14,1.507342718e-14,2.463504965e-13,3.036560095e-14,9.239768502e-15,2.486187924e-14,4.817275514e-14,4.200121145e-14,3.891390525e-14,3.292081250e-14,1.728599221e-14,4.426163300e-14,9.058093084e-15,3.902166010e-14,3.124816146e-14,5.452277150e-14,7.825952333e-14,4.164698393e-14,1.042154225e-14,3.863476944e-14,2.554293636e-14,5.437485471e-15,2.312000116e-14,3.888723692e-14,8.352516194e-14,2.757290938e-14,9.072614364e-14,1.356034528e-13,7.804724014e-14,3.600979961e-14,2.292489923e-14,2.180787905e-14
-0.085938,2.829129183e-14,1.627949693e-14,2.539457164e-13,3.863934452e-14,1.025438998e-14,2.766824849e-14,5.688190657e-14,4.512774136e-14,3.907964221e-14,3.501005230e-14,1.550828934e-14,4.404064254e-14,1.027993894e-14,4.211536452e-14,3.269764907e-14,5.696736425e-14,9.208680235e-14,4.740573095e-14,1.166009819e-14,4.175332325e-14,2.787418272e-14,5.854719565e-15,2.397732178e-14,4.812381445e-14,9.602681832e-14,3.149867175e-14,1.040375902e-13,1.243380006e-13,8.807679618e-14,3.789252931e-14,2.669495686e-14,2.209036566e-14
-0.078125,3.137092836e-14,1.705412586e-14,2.521604095e-13,4.838556103e-14,1.140851797e-14,3.057476432e-14,6.663880842e-14,4.729353560e-14,3.815483237e-14,3.590966429e-14,1.404735372e-14,4.211418249e-14,1.153601139e-14,4.440096892e-14,3.421884095e-14,5.829282364e-14,1.061646507e-13,5.249081720e-14,1.305718180e-14,4.512083714e-14,2.928860529e-14,6.219930835e-15,2.432885655e-14,5.840794232e-14,1.111783493e-13,3.537486864e-14,1.180884340e-13,1.087347420e-13,9.675494979e-14,3.852802064e-14,3.017500591e-14,2.222481345e-14
-0.070312,3.495200137e-14,1.748135725e-14,2.415039856e-13,5.906698493e-14,1.247631861e-14,3.312982914e-14,7.781187182e-14,4.795448062e-14,3.614539951e-14,3.565463837e-14,1.353133937e-14,3.859904413e-14,1.283494365e-14,4.602650985e-14,3.592223637e-14,5.831709327e-14,1.192211541e-13,5.698765643e-14,1.489870494e-14,4.873900598e-14,3.033566097e-14,6.610250257e-15,2.420699244e-14,6.927754205e-14,1.296105961e-13,3.936148256e-14,1.328662854e-13,9.079672311e-14,1.034964312e-13,3.792955691e-14,3.331157695e-14,2.241936398e-14
-0.0625,3.929053843e-14,1.811463784e-14,2.247465058e-13,6.970828928e-14,1.338567845e-14,3.523526735e-14,9.016397902e-14,4.647215472e-14,3.309221627e-14,3.428566084e-14,1.481837067e-14,3.423689166e-14,1.432623801e-14,4.824695415e-14,3.898023422e-14,5.857424552e-14,1.318296737e-13,6.196261583e-14,1.738892011e-14,5.218569666e-14,3.138815603e-14,7.096590559e-15,2.371834382e-14,7.961375449e-14,1.502567788e-13,4.377691838e-14,1.490171147e-13,7.267669584e-14,1.085976675e-13,3.663521354e-14,3.653176586e-14,2.260967468e-14
-0.054688,4.448732588e-14,1.920643676e-14,2.054965679e-13,8.000701186e-14,1.460192480e-14,3.742196404e-14,1.037472655e-13,4.376337765e-14,2.952337012e-14,3.228965124e-14,1.845843474e-14,2.995370604e-14,1.619843301e-14,5.172044796e-14,4.457830343e-14,6.095261988e-14,1.455041221e-13,6.771975782e-14,2.050813436e-14,5.556186892e-14,3.273485734e-14,7.718047572e-15,2.322050544e-14,8.991633672e-14,1.723623303e-13,4.862316605e-14,1.666734996e-13,5.633034413e-14,1.121660000e-13,3.539140584e-14,3.979358335e-14,2.271988451e-14
-0.046875,5.134273834e-14,2.076192998e-14,1.848691981e-13,8.942251092e-14,1.655949685e-14,4.068800007e-14,1.182700643e-13,4.100529619e-14,2.602821366e-14,3.021405445e-14,2.478066144e-14,2.646970162e-14,1.848857345e-14,5.642597599e-14,5.304232954e-14,6.600947123e-14,1.599568925e-13,7.378833438e-14,2.444592234e-14,5.936271229e-14,3.503363533e-14,8.541412847e-15,2.302992411e-14,9.890494737e-14,1.927201391e-13,5.378795955e-14,1.848316830e-13,4.285533243e-14,1.143934796e-13,3.473995794e-14,4.297585069e-14,2.290596094e-14
-0.039062,6.055775939e-14,2.307114052e-14,1.647584953e-13,9.767431443e-14,1.945222334e-14,4.475924013e-14,1.325093860e-13,3.846025705e-14,2.288540608e-14,2.837606203e-14,3.406353986e-14,2.444178646e-14,2.118883279e-14,6.286312206e-14,6.490104711e-14,7.480071934e-14,1.754400353e-13,8.052234420e-14,2.944597486e-14,6.368393383e-14,3.903273399e-14,9.604944185e-15,2.334307757e-14,1.063671856e-13,2.081402024e-13,5.949866033e-14,2.035829405e-13,3.292798147e-14,1.162198258e-13,3.515154035e-14,4.650447169e-14,2.333796323e-14
-0.03125,7.194476772e-14,2.608387488e-14,1.471918634e-13,1.039761269e-13,2.319305166e-14,4.965258841e-14,1.454817998e-13,3.651222807e-14,2.018644019e-14,2.699938091e-14,4.561360020e-14,2.410862055e-14,2.419641746e-14,7.124372450e-14,8.023940923e-14,8.795242713e-14,1.933024855e-13,8.850392724e-14,3.543856264e-14,6.830282224e-14,4.486708946e-14,1.089408466e-14,2.407887278e-14,1.113051588e-13,2.160075988e-13,6.592652609e-14,2.221061194e-13,2.708698362e-14,1.184172178e-13,3.679348259e-14,5.081862603e-14,2.415691644e-14
-0.023438,8.535467362e-14,2.967676256e-14,1.328315732e-13,1.067899807e-13,2.757360314e-14,5.566658009e-14,1.554863850e-13,3.541748042e-14,1.785610679e-14,2.604832360e-14,5.867908090e-14,2.538120163e-14,2.740964569e-14,8.154912600e-14,9.915147203e-14,1.055332813e-13,2.144635932e-13,9.839871097e-14,4.238495771e-14,7.288858641e-14,5.274319823e-14,1.235594351e-14,2.510947360e-14,1.145579698e-13,2.158988843e-13,7.309896145e-14,2.393404696e-13,2.461883979e-14,1.215024868e-13,3.956877238e-14,5.627638551e-14,2.539031159e-14
-0.015625,1.002691781e-13,3.398171826e-14,1.217388649e-13,1.058280704e-13,3.274235203e-14,6.316486365e-14,1.607900995e-13,3.565016837e-14,1.589680318e-14,2.541150028e-14,7.245554453e-14,2.783586852e-14,3.095282679e-14,9.352940036e-14,1.212428182e-13,1.275358099e-13,2.396847199e-13,1.107389747e-13,5.011484772e-14,7.818008341e-14,6.224278493e-14,1.392396804e-14,2.646490440e-14,1.167530840e-13,2.090068654e-13,8.115713091e-14,2.541089886e-13,2.484210359e-14,1.257302179e-13,4.305577530e-14,6.320567323e-14,2.697002811e-14
-0.0078125,1.155896777e-13,3.901960134e-14,1.134281197e-13,1.023685548e-13,3.884109492e-14,7.193638879e-14,1.609364347e-13,3.748463668e-14,1.434322743e-14,2.490510562e-14,8.585390894e-14,3.089546056e-14,3.479315238e-14,1.065760019e-13,1.457996442e-13,1.533222757e-13,2.686334041e-13,1.249718143e-13,5.825836551e-14,8.451876606e-14,7.272828065e-14,1.547532439e-14,2.820600141e-14,1.182984301e-13,1.964808874e-13,8.994314800e-14,2.662409934e-13,2.675734824e-14,1.310221233e-13,4.674875697e-14,7.141271543e-14,2.892785735e-14
0,1.299527114e-13,4.437702701e-14,1.080429492e-13,9.758473791e-14,4.550835312e-14,8.071192985e-14,1.560081757e-13,4.057720114e-14,1.309286187e-14,2.428719079e-14,9.780114396e-14,3.394640595e-14,3.868454011e-14,1.197629116e-13,1.713766864e-13,1.809282618e-13,2.992563094e-13,1.399802878e-13,6.596064794e-14,9.140827587e-14,8.307134048e-14,1.683065773e-14,3.030321493e-14,1.204387677e-13,1.793196522e-13,9.861982401e-14,2.747604522e-13,2.976982432e-14,1.364798195e-13,4.998143816e-14,8.013341716e-14,3.117326217e-14
0.0078125,1.416437997e-13,4.973061592e-14,1.063949294e-13,9.268965035e-14,5.204672755e-14,8.917201882e-14,1.470981941e-13,4.487614316e-14,1.216602377e-14,2.354331885e-14,1.078372146e-13,3.647229874e-14,4.251324813e-14,1.321530738e-13,1.962587376e-13,2.081289889e-13,3.295884321e-13,1.550416064e-13,7.244260839e-14,9.893465748e-14,9.181232271e-14,1.790447135e-14,3.313928227e-14,1.255413314e-13,1.611727248e-13,1.066408563e-13,2.798715582e-13,3.350728905e-14,1.414557257e-13,5.220030434e-14,8.847412842e-14,3.346657667e-14
0.015625,1.501512588e-13,5.523714888e-14,1.082249930e-13,8.939672926e-14,5.839073267e-14,9.749700082e-14,1.357648841e-13,5.037922302e-14,1.154113759e-14,2.264367541e-14,1.156964828e-13,3.803767309e-14,4.625789705e-14,1.430811850e-13,2.194808552e-13,2.338251586e-13,3.585208468e-13,1.698224891e-13,7.761715216e-14,1.075570622e-13,9.820620538e-14,1.858000812e-14,3.688925856e-14,1.344552132e-13,1.457263750e-13,1.136524182e-13,2.820867515e-13,3.715162675e-14,1.453844218e-13,5.306270897e-14,9.595541843e-14,3.572803895e-14
0.023438,1.552559102e-13,6.110025641e-14,1.130996209e-13,8.978375758e-14,6.451138244e-14,1.051333697e-13,1.233470233e-13,5.687151659e-14,1.114341718e-14,2.160273880e-14,1.203603724e-13,3.841960155e-14,4.992596004e-14,1.519410958e-13,2.397501668e-13,2.565128682e-13,3.836731878e-13,1.837041886e-13,8.125755768e-14,1.171816982e-13,1.018401151e-13,1.887344612e-14,4.156475169e-14,1.475643228e-13,1.343518547e-13,1.188839193e-13,2.798504597e-13,4.025324070e-14,1.473985432e-13,5.271983516e-14,1.021308116e-13,3.761600921e-14
0.03125,1.567486061e-13,6.764157194e-14,1.197994603e-13,9.545780132e-14,7.048707095e-14,1.122527976e-13,1.119124893e-13,6.441833200e-14,1.102262516e-14,2.055748263e-14,1.224386949e-13,3.777281298e-14,5.343451369e-14,1.585143755e-13,2.564626550e-13,2.754289029e-13,4.038330072e-13,1.960507692e-13,8.325531608e-14,1.275138113e-13,1.025612764e-13,1.878114844e-14,4.739219978e-14,1.650286369e-13,1.274586946e-13,1.217354489e-13,2.734635731e-13,4.420245949e-14,1.470600481e-13,5.118779117e-14,1.065951886e-13,3.897605047e-14
0.039062,1.551054053e-13,7.499945078e-14,1.275600498e-13,1.067518162e-13,7.673086252e-14,1.184787217e-13,1.024079670e-13,7.311677533e-14,1.122806042e-14,1.950282022e-14,1.232012590e-13,3.617186269e-14,5.666250851e-14,1.624551539e-13,2.696522350e-13,2.908532582e-13,4.197437138e-13,2.065424051e-13,8.405813845e-14,1.385960354e-13,1.005748594e-13,1.831868922e-14,5.403016947e-14,1.865932842e-13,1.251814141e-13,1.220659330e-13,2.640226597e-13,4.743632313e-14,1.442161449e-13,4.870883023e-14,1.094346137e-13,3.987491822e-14
0.046875,1.514064636e-13,8.306958295e-14,1.355452034e-13,1.233317340e-13,8.342090351e-14,1.238551892e-13,9.530821949e-14,8.277272629e-14,1.176247644e-14,1.862564137e-14,1.236506881e-13,3.390137857e-14,5.940864869e-14,1.638359585e-13,2.793003809e-13,3.028057035e-13,4.318570531e-13,2.152805155e-13,8.416919179e-14,1.501236606e-13,9.647975545e-14,1.763420927e-14,6.097390566e-14,2.103074242e-13,1.249756823e-13,1.199117335e-13,2.527813579e-13,5.094011337e-14,1.394330725e-13,4.562971513e-14,1.109113479e-13,4.037883095e-14
0.054688,1.462735355e-13,9.215174962e-14,1.420504546e-13,1.438678232e-13,9.092312112e-14,1.291825314e-13,9.116582620e-14,9.344072385e-14,1.255515122e-14,1.807622471e-14,1.246245007e-13,3.129317542e-14,6.155737375e-14,1.634021007e-13,2.860921346e-13,3.122604031e-13,4.414947034e-13,2.227042620e-13,8.406229586e-14,1.619983843e-13,9.139572751e-14,1.672885136e-14,6.799401794e-14,2.339385647e-13,1.258222538e-13,1.154698153e-13,2.408219810e-13,5.501196138e-14,1.331499047e-13,4.231505926e-14,1.115889488e-13,4.050036113e-14
0.0625,1.408476996e-13,1.021734294e-13,1.457494410e-13,1.664710361e-13,9.939778432e-14,1.337749089e-13,8.872482066e-14,1.047140246e-13,1.351960548e-14,1.777332419e-14,1.266205735e-13,2.845102712e-14,6.314364771e-14,1.616842398e-13,2.905286815e-13,3.193455012e-13,4.490408495e-13,2.289923659e-13,8.419690029e-14,1.735577798e-13,8.677414927e-14,1.566208639e-14,7.382168927e-14,2.530120755e-13,1.268186534e-13,1.087865663e-13,2.271893221e-13,5.864114587e-14,1.253364339e-13,3.880222019e-14,1.117901942e-13,4.028689458e-14
0.070312,1.359535728e-13,1.122465202e-13,1.468053655e-13,1.883353060e-13,1.085750052e-13,1.372633361e-13,8.693868119e-14,1.157914870e-13,1.471717280e-14,1.751953070e-14,1.297974381e-13,2.589707028e-14,6.420978078e-14,1.591874123e-13,2.927675172e-13,3.245562271e-13,4.558974805e-13,2.345922820e-13,8.481842086e-14,1.846179784e-13,8.305342360e-14,1.461133594e-14,7.833718640e-14,2.674182817e-13,1.264772554e-13,1.003332986e-13,2.126971245e-13,6.076423428e-14,1.167593465e-13,3.573751856e-14,1.116935756e-13,3.988215858e-14
0.078125,1.318669083e-13,1.215076280e-13,1.474192082e-13,2.069311321e-13,1.177081357e-13,1.395697435e-13,8.499174187e-14,1.259856577e-13,1.613659053e-14,1.738563035e-14,1.339672622e-13,2.349044318e-14,6.476018644e-14,1.557386915e-13,2.928884430e-13,3.276839932e-13,4.623209078e-13,2.391788951e-13,8.599725189e-14,1.953890508e-13,8.000800160e-14,1.358956666e-14,8.070907320e-14,2.741872247e-13,1.241915434e-13,9.093136397e-14,1.985562427e-13,6.240147782e-14,1.078881343e-13,3.272761155e-14,1.112089706e-13,3.955851016e-14
0.085938,1.286452475e-13,1.295158268e-13,1.464087955e-13,2.203537267e-13,1.261572523e-13,1.398208978e-13,8.276263351e-14,1.343180033e-13,1.772144111e-14,1.738357782e-14,1.384204346e-13,2.123246105e-14,6.467836174e-14,1.513130737e-13,2.906024167e-13,3.280046181e-13,4.676688100e-13,2.422930184e-13,8.748810867e-14,2.054379863e-13,7.806475640e-14,1.253661225e-14,8.090941239e-14,2.726263949e-13,1.193288859e-13,8.130764726e-14,1.855765851e-13,6.384761737e-14,9.913966738e-14,2.986655938e-14,1.101861602e-13,3.956530446e-14
0.09375,1.260472180e-13,1.361743369e-13,1.440650557e-13,2.283376851e-13,1.337416530e-13,1.381419164e-13,7.995329922e-14,1.404359413e-13,1.942264500e-14,1.742815413e-14,1.431573873e-13,1.918614947e-14,6.391986393e-14,1.463657005e-13,2.857690454e-13,3.255874722e-13,4.714443354e-13,2.436477874e-13,8.865090528e-14,2.148287755e-13,7.695981375e-14,1.140987151e-14,7.924054507e-14,2.626138112e-13,1.127465908e-13,7.234139138e-14,1.742490698e-13,6.492026439e-14,9.113356737e-14,2.713220487e-14,1.086239981e-13,3.995187842e-14
0.10156,1.238195509e-13,1.412097239e-13,1.415419758e-13,2.307114277e-13,1.403924861e-13,1.342880616e-13,7.624404803e-14,1.440341614e-13,2.139300060e-14,1.742761156e-14,1.476763178e-13,1.726034620e-14,6.263810586e-14,1.408218697e-13,2.780813681e-13,3.206925229e-13,4.737194919e-13,2.427973565e-13,8.942502216e-14,2.237383262e-13,7.611322901e-14,1.024885619e-14,7.630602022e-14,2.449437202e-13,1.052076926e-13,6.479573066e-14,1.644492065e-13,6.551596561e-14,8.417529358e-14,2.459003346e-14,1.069460342e-13,4.115732065e-14
0.10938,1.221765168e-13,1.438580221e-13,1.390233436e-13,2.274314436e-13,1.450386264e-13,1.285714961e-13,7.161326379e-14,1.446045542e-13,2.352333321e-14,1.733769142e-14,1.509751474e-13,1.544619529e-14,6.080400302e-14,1.342489411e-13,2.670014090e-13,3.124125845e-13,4.730801534e-13,2.392380262e-13,8.928259890e-14,2.316297475e-13,7.523644868e-14,9.147314099e-15,7.272284664e-14,2.202105677e-13,9.718603425e-14,5.918791563e-14,1.577144548e-13,6.561928040e-14,7.878581720e-14,2.215836263e-14,1.048702048e-13,4.301022796e-14
0.11719,1.207663757e-13,1.435298867e-13,1.363350828e-13,2.191460476e-13,1.468061955e-13,1.221382651e-13,6.671229777e-14,1.420685393e-13,2.575561334e-14,1.725756315e-14,1.522759595e-13,1.377572768e-14,5.837366239e-14,1.266657870e-13,2.524297157e-13,3.004649370e-13,4.676991649e-13,2.324365529e-13,8.761424729e-14,2.369097528e-13,7.389040139e-14,7.991939942e-15,6.918787683e-14,1.929632355e-13,8.979891796e-14,5.551133960e-14,1.552502497e-13,6.604191291e-14,7.516964550e-14,1.990187971e-14,1.018651663e-13,4.503016840e-14
0.125,1.197470002e-13,1.406579966e-13,1.320427227e-13,2.056842702e-13,1.453022314e-13,1.160055646e-13,6.241761717e-14,1.369788322e-13,2.801652538e-14,1.716341964e-14,1.510147497e-13,1.218839890e-14,5.534216723e-14,1.178481726e-13,2.345619013e-13,2.846443896e-13,4.563903551e-13,2.223989366e-13,8.433415905e-14,2.382084942e-13,7.173166193e-14,6.870004187e-15,6.675582044e-14,1.661554267e-13,8.324974327e-14,5.326273056e-14,1.556530202e-13,6.596158699e-14,7.266305858e-14,1.787723853e-14,9.758522190e-14,4.680602094e-14
0.13281,1.194470182e-13,1.362029432e-13,1.276343790e-13,1.893432263e-13,1.408154864e-13,1.105025190e-13,5.853677066e-14,1.299168168e-13,3.041743076e-14,1.700002148e-14,1.479820796e-13,1.078612097e-14,5.174892821e-14,1.083359277e-13,2.139006189e-13,2.656204376e-13,4.391359464e-13,2.098467276e-13,7.976227111e-14,2.361581151e-13,6.942613691e-14,5.803304021e-15,6.613678168e-14,1.436066872e-13,7.830691866e-14,5.256132164e-14,1.592266389e-13,6.555056623e-14,7.163386521e-14,1.617345133e-14,9.253595947e-14,4.809159520e-14
0.14062,1.187204127e-13,1.303809257e-13,1.237288630e-13,1.708576451e-13,1.338662445e-13,1.062296671e-13,5.580256765e-14,1.217863594e-13,3.311149933e-14,1.682705142e-14,1.434394360e-13,9.582695871e-15,4.763740244e-14,9.844189523e-14,1.913163830e-13,2.444050311e-13,4.177148159e-13,1.951768532e-13,7.394850109e-14,2.307607313e-13,6.703535849e-14,4.942296897e-15,6.752336304e-14,1.266248418e-13,7.485871955e-14,5.331787058e-14,1.669380221e-13,6.518321900e-14,7.235574559e-14,1.500519052e-14,8.699485672e-14,4.876476832e-14
0.14844,1.168443878e-13,1.229670114e-13,1.196789807e-13,1.519506351e-13,1.253506361e-13,1.041423593e-13,5.368988106e-14,1.136827420e-13,3.599626495e-14,1.655053613e-14,1.374565476e-13,8.475215222e-15,4.300453535e-14,8.831928497e-14,1.681562115e-13,2.217368911e-13,3.927189568e-13,1.786615821e-13,6.726943661e-14,2.220676072e-13,6.503360639e-14,4.231494870e-15,7.127481957e-14,1.161581769e-13,7.265577501e-14,5.477270496e-14,1.776786935e-13,6.499111190e-14,7.381373315e-14,1.410547907e-14,8.087384327e-14,4.900052034e-14
0.15625,1.126837760e-13,1.149510957e-13,1.146792996e-13,1.342285846e-13,1.165030547e-13,1.044891542e-13,5.313172424e-14,1.062245759e-13,3.882573934e-14,1.622181357e-14,1.308183068e-13,7.579277989e-15,3.820625809e-14,7.897808568e-14,1.462447556e-13,1.996283799e-13,3.666891050e-13,1.619849339e-13,6.051606711e-14,2.106180115e-13,6.398743562e-14,3.745259866e-15,7.728926042e-14,1.126747336e-13,7.192305558e-14,5.710900669e-14,1.907754159e-13,6.519834695e-14,7.634799899e-14,1.353280009e-14,7.536178387e-14,4.897393899e-14
0.16406,1.050763010e-13,1.063080239e-13,1.086681907e-13,1.178951811e-13,1.074152203e-13,1.077569556e-13,5.428268462e-14,9.985253013e-14,4.155003268e-14,1.585177568e-14,1.237459723e-13,6.834542936e-15,3.350065775e-14,7.076357377e-14,1.266195173e-13,1.790712309e-13,3.420059735e-13,1.459811236e-13,5.433405360e-14,1.980061222e-13,6.376001881e-14,3.554026773e-15,8.499393879e-14,1.153124950e-13,7.294695097e-14,6.053565816e-14,2.062251807e-13,6.518611291e-14,7.971980778e-14,1.315145847e-14,7.060114357e-14,4.858229206e-14
0.17188,9.563712618e-14,9.762487538e-14,1.021641786e-13,1.038920548e-13,9.827312483e-14,1.128602314e-13,5.667847508e-14,9.472466893e-14,4.411783113e-14,1.551871501e-14,1.160943423e-13,6.257928477e-15,2.900114836e-14,6.360357556e-14,1.093391486e-13,1.602327911e-13,3.193701817e-13,1.309160980e-13,4.897975217e-14,1.863301631e-13,6.444484844e-14,3.672718793e-15,9.386690815e-14,1.253978731e-13,7.646226243e-14,6.475639762e-14,2.230111128e-13,6.591178693e-14,8.323375208e-14,1.309234934e-14,6.627386068e-14,4.771698575e-14
0.17969,8.458644078e-14,8.928129584e-14,9.662529659e-14,9.267578717e-14,8.954361619e-14,1.192600756e-13,5.979149981e-14,9.085990149e-14,4.631165681e-14,1.521486447e-14,1.079330282e-13,5.801338991e-15,2.470428407e-14,5.744333538e-14,9.480171261e-14,1.436199974e-13,3.003340143e-13,1.173917979e-13,4.477909771e-14,1.769134437e-13,6.571950604e-14,4.195380879e-15,1.030503975e-13,1.404505048e-13,8.151716672e-14,6.935465577e-14,2.397904211e-13,6.677319542e-14,8.683148905e-14,1.334999775e-14,6.256376531e-14,4.673700124e-14
0.1875,7.290427287e-14,8.191561041e-14,9.174948094e-14,8.393740631e-14,8.196665375e-14,1.261496964e-13,6.354737048e-14,8.801877583e-14,4.795967367e-14,1.499642553e-14,9.989912342e-14,5.334587516e-15,2.075765698e-14,5.227453386e-14,8.380047855e-14,1.300995929e-13,2.863969729e-13,1.058681219e-13,4.205204162e-14,1.706008578e-13,6.815081683e-14,5.190771779e-15,1.120049768e-13,1.606061764e-13,8.791660053e-14,7.441996938e-14,2.538370170e-13,6.862866182e-14,8.981214813e-14,1.384044786e-14,5.992217767e-14,4.637547912e-14
0.19531,6.107678004e-14,7.606050250e-14,8.722733211e-14,7.763305754e-14,7.546541756e-14,1.318417097e-13,6.742029062e-14,8.485935359e-14,4.854391222e-14,1.474932884e-14,9.196661513e-14,4.831634581e-15,1.733950896e-14,4.785771612e-14,7.560434834e-14,1.189003552e-13,2.758015277e-13,9.601694467e-14,4.062131685e-14,1.668989427e-13,7.144299005e-14,6.634768207e-15,1.194341552e-13,1.820788241e-13,9.534280679e-14,7.938465650e-14,2.622132222e-13,7.035684551e-14,9.169222600e-14,1.478833855e-14,5.832774265e-14,4.608034284e-14
0.20312,5.030555013e-14,7.225035658e-14,8.304912611e-14,7.271578654e-14,6.995523019e-14,1.349901381e-13,7.122400263e-14,8.131984022e-14,4.810865937e-14,1.455155852e-14,8.416120386e-14,4.415311150e-15,1.458485295e-14,4.409364756e-14,6.987055404e-14,1.096745507e-13,2.684704445e-13,8.796318645e-14,4.038311215e-14,1.660795117e-13,7.499496021e-14,8.569765873e-15,1.242325329e-13,2.053450118e-13,1.028577366e-13,8.437679150e-14,2.647526297e-13,7.148264544e-14,9.316431676e-14,1.617012410e-14,5.807796717e-14,4.581303330e-14
0.21094,4.194993735e-14,7.081813563e-14,7.923122404e-14,6.944586728e-14,6.589399399e-14,1.356202846e-13,7.371050537e-14,7.730186598e-14,4.695522551e-14,1.449965491e-14,7.704689564e-14,4.357770279e-15,1.262189885e-14,4.111125989e-14,6.669455238e-14,1.028795552e-13,2.643125202e-13,8.180973316e-14,4.143573205e-14,1.677591829e-13,7.895568594e-14,1.100574436e-14,1.258786133e-13,2.298713244e-13,1.104663657e-13,9.010048727e-14,2.631432823e-13,7.115306559e-14,9.555529755e-14,1.823534957e-14,5.966620480e-14,4.570400902e-14
0.21875,3.656547090e-14,7.099925576e-14,7.644446468e-14,6.672436032e-14,6.317622451e-14,1.320811987e-13,7.421128298e-14,7.155423017e-14,4.500361675e-14,1.456916239e-14,7.017408823e-14,4.597394394e-15,1.127191343e-14,3.858143064e-14,6.498952486e-14,9.720848331e-14,2.597392249e-13,7.640207784e-14,4.320322049e-14,1.680672605e-13,8.314974147e-14,1.395281800e-14,1.252079065e-13,2.530066332e-13,1.166687488e-13,9.623146445e-14,2.586002965e-13,6.922294139e-14,9.885615502e-14,2.070858035e-14,6.278488695e-14,4.569808726e-14
0.22656,3.427564922e-14,7.271929787e-14,7.358829060e-14,6.337846804e-14,6.164378870e-14,1.245549911e-13,7.277637494e-14,6.387823351e-14,4.191299549e-14,1.491416599e-14,6.370428972e-14,5.236543877e-15,1.038973651e-14,3.656244330e-14,6.383695227e-14,9.172162530e-14,2.518843109e-13,7.146880833e-14,4.527594877e-14,1.654280967e-13,8.724810231e-14,1.749793585e-14,1.220682981e-13,2.730742655e-13,1.212127560e-13,1.020852708e-13,2.504428479e-13,6.581249373e-14,1.038300496e-13,2.364396658e-14,6.729527581e-14,4.515486092e-14
0.23438,3.525283999e-14,7.610802573e-14,7.103791381e-14,6.052809391e-14,6.161653210e-14,1.155101348e-13,6.990608544e-14,5.585713114e-14,3.801666793e-14,1.578174847e-14,5.838049537e-14,6.399990377e-15,9.890059530e-15,3.518763437e-14,6.277688156e-14,8.657893866e-14,2.414513826e-13,6.727849702e-14,4.760781207e-14,1.611190661e-13,9.099533608e-14,2.160930589e-14,1.164302444e-13,2.875615695e-13,1.246716960e-13,1.078310113e-13,2.406568574e-13,6.123055460e-14,1.111926651e-13,2.691839036e-14,7.339061470e-14,4.398840412e-14
0.24219,3.971496466e-14,8.124264413e-14,6.859433117e-14,5.875676081e-14,6.364326260e-14,1.050267143e-13,6.630154286e-14,4.789346869e-14,3.381105437e-14,1.726282949e-14,5.425320171e-14,8.057465011e-15,9.819125036e-15,3.427580536e-14,6.148665858e-14,8.189952048e-14,2.288917170e-13,6.407358898e-14,5.026382346e-14,1.568461382e-13,9.449666535e-14,2.633403976e-14,1.091030406e-13,2.986158495e-13,1.274243013e-13,1.138098217e-13,2.304938119e-13,5.640524471e-14,1.207843913e-13,3.036409270e-14,8.130266350e-14,4.260164649e-14
0.25,4.747413720e-14,8.770763631e-14,6.703815205e-14,5.859532146e-14,6.803375091e-14,9.509537282e-14,6.136248253e-14,4.072492275e-14,2.960512837e-14,1.930653115e-14,5.176558775e-14,1.026894368e-14,1.019561953e-14,3.419016559e-14,6.043037299e-14,7.886548776e-14,2.162724019e-13,6.269801906e-14,5.339436510e-14,1.524760496e-13,9.791373089e-14,3.169356805e-14,1.011514074e-13,3.027807035e-13,1.288452004e-13,1.202967571e-13,2.216837136e-13,5.142190962e-14,1.327318205e-13,3.343450275e-14,9.139263851e-14,4.127192665e-14
0.25781,5.816128913e-14,9.501150499e-14,6.657408548e-14,6.038502817e-14,7.511955999e-14,8.703597267e-14,5.645658107e-14,3.498145298e-14,2.542639217e-14,2.194559544e-14,5.160371219e-14,1.310423600e-14,1.098751407e-14,3.530364721e-14,6.021715516e-14,7.790637031e-14,2.039729493e-13,6.324726907e-14,5.703846265e-14,1.484651458e-13,1.017132163e-13,3.763718939e-14,9.434552065e-14,2.996227249e-13,1.280497645e-13,1.277018245e-13,2.156630365e-13,4.691473298e-14,1.471710297e-13,3.607433660e-14,1.035764773e-13,3.998909948e-14
0.26562,7.074262854e-14,1.028336744e-13,6.767346542e-14,6.556561847e-14,8.512671724e-14,8.199316883e-14,5.174843934e-14,3.119438311e-14,2.154920213e-14,2.504494755e-14,5.421236973e-14,1.661336481e-14,1.209343341e-14,3.760992538e-14,6.018558088e-14,7.862209892e-14,1.917254988e-13,6.567093309e-14,6.094335489e-14,1.470133921e-13,1.052822316e-13,4.404113577e-14,8.860725501e-14,2.916849598e-13,1.247803135e-13,1.356995633e-13,2.115610121e-13,4.318626242e-14,1.626721615e-13,3.829193300e-14,1.174759944e-13,3.869303026e-14
0.27344,8.417037974e-14,1.115382298e-13,7.127627444e-14,7.482844338e-14,9.858120249e-14,8.150865166e-14,4.768740832e-14,3.003049243e-14,1.830182759e-14,2.852845896e-14,5.945546563e-14,2.087023575e-14,1.355673182e-14,4.122298198e-14,6.074359689e-14,8.179160939e-14,1.823937822e-13,7.049589341e-14,6.527690739e-14,1.504302265e-13,1.091286537e-13,5.098879568e-14,8.424268834e-14,2.813606326e-13,1.204701750e-13,1.448031181e-13,2.094737552e-13,4.072363925e-14,1.786135340e-13,4.022921768e-14,1.335277522e-13,3.774274001e-14
0.28125,9.802541715e-14,1.218898621e-13,7.715610346e-14,8.827813797e-14,1.159544970e-13,8.408773794e-14,4.446105818e-14,3.114621033e-14,1.548888644e-14,3.203463708e-14,6.765987340e-14,2.572828610e-14,1.548196900e-14,4.617535865e-14,6.319653334e-14,8.852087552e-14,1.787232820e-13,7.835719105e-14,7.043485945e-14,1.593465652e-13,1.131334337e-13,5.837987112e-14,8.215825998e-14,2.714023639e-13,1.157416460e-13,1.559576973e-13,2.099148416e-13,3.983601888e-14,1.946756209e-13,4.176146360e-14,1.527309128e-13,3.757033358e-14
0.28906,1.110250203e-13,1.330038168e-13,8.559550012e-14,1.056964825e-13,1.373094690e-13,8.983079213e-14,4.186154016e-14,3.498137277e-14,1.319468029e-14,3.524410635e-14,7.896028402e-14,3.109119065e-14,1.786499699e-14,5.271407537e-14,6.857956272e-14,9.944397214e-14,1.832292316e-13,8.975567207e-14,7.658611630e-14,1.738542091e-13,1.172303286e-13,6.593495746e-14,8.171105286e-14,2.616499982e-13,1.092992813e-13,1.699536338e-13,2.128524241e-13,3.941883767e-14,2.108998233e-13,4.311364823e-14,1.754532749e-13,3.848349184e-14
0.29688,1.218644587e-13,1.438629268e-13,9.620355486e-14,1.262795680e-13,1.618576395e-13,9.859489325e-14,3.996754905e-14,4.155882292e-14,1.135606941e-14,3.792185448e-14,9.246840571e-14,3.691799571e-14,2.055247310e-14,6.072843484e-14,7.704976881e-14,1.139483063e-13,1.947901092e-13,1.038344658e-13,8.343148247e-14,1.925696398e-13,1.210450836e-13,7.327871297e-14,8.264277624e-14,2.540061535e-13,1.014083719e-13,1.865031133e-13,2.183413457e-13,3.873420611e-14,2.264294341e-13,4.455338054e-14,2.006691907e-13,4.022674345e-14
0.30469,1.296197763e-13,1.541574398e-13,1.081698341e-13,1.490203224e-13,1.884667900e-13,1.099009936e-13,3.827961670e-14,5.056079135e-14,9.838988479e-15,3.987894925e-14,1.072013164e-13,4.285446125e-14,2.328216012e-14,6.934776255e-14,8.779964399e-14,1.305875181e-13,2.102634949e-13,1.191223058e-13,9.070136637e-14,2.132740001e-13,1.249622266e-13,8.024749040e-14,8.464271107e-14,2.482471925e-13,9.236011297e-14,2.045962985e-13,2.248449492e-13,3.791260174e-14,2.403474275e-13,4.632628971e-14,2.272578669e-13,4.251857272e-14
0.3125,1.332403332e-13,1.632374069e-13,1.213799781e-13,1.720455025e-13,2.153171685e-13,1.228041952e-13,3.659058350e-14,6.146566310e-14,8.562680753e-15,4.097770150e-14,1.223114116e-13,4.858586815e-14,2.595090595e-14,7.748638237e-14,9.988249639e-14,1.476735079e-13,2.277094630e-13,1.342796928e-13,9.808223862e-14,2.332540538e-13,1.280194968e-13,8.641384583e-14,8.736316724e-14,2.436471700e-13,8.374100674e-14,2.227873338e-13,2.324531643e-13,3.719046530e-14,2.522512781e-13,4.825440745e-14,2.531565600e-13,4.475792179e-14
0.32031,1.332004609e-13,1.706094445e-13,1.341148442e-13,1.938829737e-13,2.405351680e-13,1.370190807e-13,3.469035984e-14,7.409232752e-14,7.548186814e-15,4.124014930e-14,1.370923865e-13,5.371056339e-14,2.825707493e-14,8.430104305e-14,1.124905195e-13,1.639899319e-13,2.459354337e-13,1.483901001e-13,1.048075299e-13,2.499625048e-13,1.297125667e-13,9.126545232e-14,9.054711778e-14,2.382421368e-13,7.467909851e-14,2.399173355e-13,2.402451944e-13,3.624509428e-14,2.610765478e-13,5.013214589e-14,2.766673739e-13,4.683858902e-14
0.32812,1.295464948e-13,1.764299705e-13,1.461088696e-13,2.132213161e-13,2.632023344e-13,1.520973348e-13,3.229901030e-14,8.776967472e-14,6.772760505e-15,4.052251118e-14,1.507587599e-13,5.817734015e-14,3.026031254e-14,8.973498992e-14,1.256057869e-13,1.789787530e-13,2.645482350e-13,1.619317672e-13,1.109832999e-13,2.626518432e-13,1.296989478e-13,9.474581301e-14,9.329227179e-14,2.308064827e-13,6.637179488e-14,2.561303531e-13,2.471731357e-13,3.448065564e-14,2.668362119e-13,5.206727699e-14,2.971755001e-13,4.876217408e-14
0.33594,1.234125202e-13,1.805637552e-13,1.556512435e-13,2.294375710e-13,2.818155007e-13,1.683911444e-13,2.924461074e-14,1.021302173e-13,6.214247489e-15,3.888901897e-14,1.617026778e-13,6.190638163e-14,3.203665040e-14,9.379323492e-14,1.382253823e-13,1.917907241e-13,2.820710805e-13,1.745129590e-13,1.162221060e-13,2.713566966e-13,1.277594120e-13,9.678010745e-14,9.564557805e-14,2.214456238e-13,5.877999463e-14,2.706400498e-13,2.533732313e-13,3.205834158e-14,2.687536449e-13,5.378297729e-14,3.134416659e-13,5.044125623e-14
0.34375,1.151325612e-13,1.821918192e-13,1.617027326e-13,2.398558560e-13,2.942362875e-13,1.848195029e-13,2.611531733e-14,1.158044768e-13,5.918811547e-15,3.675656736e-14,1.681069645e-13,6.485803225e-14,3.339324233e-14,9.584989094e-14,1.485844418e-13,2.004603237e-13,2.948780201e-13,1.843132735e-13,1.195161202e-13,2.749339141e-13,1.238552826e-13,9.705279469e-14,9.738176324e-14,2.104330463e-13,5.315859737e-14,2.825834642e-13,2.588560911e-13,2.991162418e-14,2.671382956e-13,5.514072379e-14,3.235276997e-13,5.155695343e-14
0.35156,1.048591869e-13,1.806334146e-13,1.642383303e-13,2.432926001e-13,2.994605106e-13,1.997752169e-13,2.309593806e-14,1.279857512e-13,5.855957270e-15,3.426511646e-14,1.709909653e-13,6.709891983e-14,3.416881434e-14,9.561010068e-14,1.551402317e-13,2.035722963e-13,3.011688099e-13,1.898907185e-13,1.203338027e-13,2.726407284e-13,1.177263497e-13,9.516913413e-14,9.764391044e-14,1.974467044e-13,4.896745695e-14,2.909139169e-13,2.634559027e-13,2.786084140e-14,2.625034685e-13,5.573482682e-14,3.259913493e-13,5.194696602e-14
0.35938,9.379836319e-14,1.762978993e-13,1.638134048e-13,2.402613536e-13,2.978757480e-13,2.128452883e-13,2.017029809e-14,1.385107578e-13,6.171126560e-15,3.169147716e-14,1.714392220e-13,6.870304169e-14,3.439743025e-14,9.340783859e-14,1.581119931e-13,2.022786221e-13,3.024454050e-13,1.916550844e-13,1.187388483e-13,2.659596737e-13,1.098344961e-13,9.120700549e-14,9.685781302e-14,1.848688571e-13,4.666969102e-14,2.950962237e-13,2.667703517e-13,2.619508478e-14,2.555736340e-13,5.540739021e-14,3.211700108e-13,5.173728848e-14
0.36719,8.239433929e-14,1.691331261e-13,1.592868749e-13,2.309931061e-13,2.895905446e-13,2.214694994e-13,1.768288407e-14,1.461661829e-13,6.768557887e-15,2.921658658e-14,1.686097458e-13,6.963492574e-14,3.413914107e-14,8.962657057e-14,1.569393872e-13,1.963730932e-13,2.982191007e-13,1.897559451e-13,1.148308538e-13,2.560230429e-13,1.007744352e-13,8.527290770e-14,9.464688778e-14,1.731797743e-13,4.651213542e-14,2.956067958e-13,2.695614115e-13,2.554701220e-14,2.476483979e-13,5.422772797e-14,3.102512107e-13,5.103857870e-14
0.375,7.148092410e-14,1.588826160e-13,1.502161810e-13,2.163176523e-13,2.751433078e-13,2.258709119e-13,1.568395041e-14,1.506570804e-13,7.587239508e-15,2.692835568e-14,1.613464489e-13,6.936948492e-14,3.336708059e-14,8.437257342e-14,1.515989124e-13,1.862860657e-13,2.891433972e-13,1.844442095e-13,1.088319377e-13,2.439771192e-13,9.126575367e-14,7.751215120e-14,9.110921587e-14,1.654945687e-13,5.040883648e-14,2.924386281e-13,2.713920746e-13,2.659102376e-14,2.381910677e-13,5.193275437e-14,2.937889499e-13,5.021516199e-14
0.38281,6.191572292e-14,1.466517054e-13,1.380197404e-13,1.978726394e-13,2.567605410e-13,2.248721213e-13,1.470633713e-14,1.512048624e-13,8.448836736e-15,2.488119334e-14,1.495918528e-13,6.775287974e-14,3.227868898e-14,7.807009934e-14,1.424220220e-13,1.721120667e-13,2.753451817e-13,1.764508333e-13,1.013289837e-13,2.309446119e-13,8.245925994e-14,6.872491171e-14,8.691595814e-14,1.638122001e-13,5.927932347e-14,2.857575536e-13,2.702828868e-13,3.026702004e-14,2.274515147e-13,4.870742119e-14,2.735133900e-13,4.945965987e-14
0.39062,5.408382312e-14,1.338606491e-13,1.255137239e-13,1.787264113e-13,2.368627721e-13,2.182032101e-13,1.467984102e-14,1.476212210e-13,9.395589634e-15,2.300775556e-14,1.356648292e-13,6.519806329e-14,3.134597336e-14,7.163729262e-14,1.311649104e-13,1.563733437e-13,2.591550544e-13,1.672332220e-13,9.375766173e-14,2.182210948e-13,7.527021945e-14,5.976252579e-14,8.205514198e-14,1.692106044e-13,7.479356488e-14,2.755488307e-13,2.652777064e-13,3.636469496e-14,2.161494010e-13,4.495913508e-14,2.518213691e-13,4.890720512e-14
0.39844,4.797541565e-14,1.211006915e-13,1.141166583e-13,1.600491864e-13,2.168709374e-13,2.052270803e-13,1.538448489e-14,1.400661580e-13,1.051939774e-14,2.132090805e-14,1.211243226e-13,6.190422188e-14,3.075694262e-14,6.522414791e-14,1.192207522e-13,1.407519913e-13,2.423945145e-13,1.574145884e-13,8.673459470e-14,2.071191725e-13,6.990333384e-14,5.095419049e-14,7.699389608e-14,1.827234973e-13,9.735083100e-14,2.624178745e-13,2.563500176e-13,4.516317645e-14,2.038865942e-13,4.091398701e-14,2.302745131e-13,4.876541850e-14
0.40625,4.370146048e-14,1.086979531e-13,1.049109399e-13,1.418097628e-13,1.968403605e-13,1.866972812e-13,1.684577605e-14,1.290331360e-13,1.161949827e-14,1.988846237e-14,1.066225581e-13,5.799062789e-14,3.034966213e-14,5.866315732e-14,1.067892829e-13,1.248945212e-13,2.244467014e-13,1.468450435e-13,8.021627482e-14,1.972743377e-13,6.584717448e-14,4.263241620e-14,7.187993909e-14,2.022680851e-13,1.258070785e-13,2.470319611e-13,2.439648566e-13,5.609895872e-14,1.910818240e-13,3.678189415e-14,2.091732060e-13,4.886898608e-14
0.41406,4.122159825e-14,9.737772124e-14,9.764728470e-14,1.248489887e-13,1.776554713e-13,1.639310305e-13,1.928886161e-14,1.157008085e-13,1.244624038e-14,1.874987301e-14,9.272402291e-14,5.358207821e-14,3.007155067e-14,5.216411574e-14,9.492273648e-14,1.095626737e-13,2.072776562e-13,1.362759961e-13,7.468708247e-14,1.892473670e-13,6.293088743e-14,3.514106978e-14,6.700917617e-14,2.274422598e-13,1.600367016e-13,2.302968930e-13,2.305675636e-13,6.926918684e-14,1.776019814e-13,3.263842037e-14,1.892770155e-13,4.942348901e-14
0.42188,4.069923898e-14,8.729929047e-14,9.316500136e-14,1.096199095e-13,1.599569839e-13,1.385880392e-13,2.257222077e-14,1.004740667e-13,1.277842949e-14,1.782080539e-14,7.996484617e-14,4.882962169e-14,3.000220325e-14,4.606744892e-14,8.427561759e-14,9.484997166e-14,1.902337882e-13,1.260532927e-13,7.016796478e-14,1.823761981e-13,6.102491743e-14,2.872468415e-14,6.259424541e-14,2.533969489e-13,1.973078859e-13,2.128284241e-13,2.163738485e-13,8.360609852e-14,1.635930357e-13,2.860910669e-14,1.710869351e-13,5.021915445e-14
0.42969,4.160467379e-14,7.831836440e-14,9.135702151e-14,9.686114076e-14,1.445180128e-13,1.132263594e-13,2.658672511e-14,8.501639613e-14,1.277411327e-14,1.696077948e-14,6.811418109e-14,4.388252265e-14,3.018874663e-14,4.084400249e-14,7.543142461e-14,8.181413357e-14,1.740379759e-13,1.166576941e-13,6.646625092e-14,1.758331360e-13,5.960859303e-14,2.346943346e-14,5.862686121e-14,2.771740122e-13,2.339748665e-13,1.954545202e-13,2.018631326e-13,9.719952355e-14,1.491790008e-13,2.497323836e-14,1.549822315e-13,5.132852083e-14
0.4375,4.340903139e-14,7.044683409e-14,8.983241817e-14,8.665278923e-14,1.315743653e-13,8.879170326e-14,3.096248977e-14,7.042791301e-14,1.253195848e-14,1.598451455e-14,5.715826941e-14,3.885113695e-14,3.064605832e-14,3.651845973e-14,6.807532871e-14,7.074807309e-14,1.596367413e-13,1.083434352e-13,6.344649035e-14,1.700136696e-13,5.811060803e-14,1.926418661e-14,5.543075048e-14,2.956371701e-13,2.643167861e-13,1.795549434e-13,1.886318773e-13,1.083307850e-13,1.348212437e-13,2.170238670e-14,1.411057946e-13,5.280049528e-14
0.44531,4.589655989e-14,6.350374742e-14,8.821451414e-14,7.851934796e-14,1.201600259e-13,6.690496069e-14,3.554675564e-14,5.761792570e-14,1.201018069e-14,1.501354177e-14,4.711520901e-14,3.402732191e-14,3.118504549e-14,3.308412452e-14,6.139082999e-14,6.080756332e-14,1.459320115e-13,1.004458267e-13,6.044179438e-14,1.634532414e-13,5.576020643e-14,1.622645963e-14,5.337200474e-14,3.067602987e-13,2.853405920e-13,1.647621064e-13,1.769035742e-13,1.163421379e-13,1.212075167e-13,1.901340389e-14,1.286642292e-13,5.388338069e-14
0.45312,4.925287163e-14,5.785422029e-14,8.709383891e-14,7.238731853e-14,1.094900562e-13,4.869658859e-14,4.037724455e-14,4.683623261e-14,1.105274366e-14,1.409547366e-14,3.840382134e-14,2.966747489e-14,3.180503238e-14,3.069608345e-14,5.561298828e-14,5.199462832e-14,1.321919847e-13,9.285553336e-14,5.736041340e-14,1.543519888e-13,5.282435713e-14,1.431827526e-14,5.251072247e-14,3.049051261e-13,2.969778980e-13,1.504001159e-13,1.664131160e-13,1.214741676e-13,1.083384319e-13,1.693100214e-14,1.172676002e-13,5.424687984e-14
0.46094,5.314052130e-14,5.371547960e-14,8.554292206e-14,6.823799327e-14,9.948315905e-14,3.419211681e-14,4.489703748e-14,3.815129272e-14,1.000703548e-14,1.318944939e-14,3.081853194e-14,2.585986941e-14,3.246236896e-14,2.943406809e-14,5.085908616e-14,4.511017007e-14,1.199128459e-13,8.585121487e-14,5.398765538e-14,1.439574483e-13,4.954972422e-14,1.347798749e-14,5.344027098e-14,2.927531748e-13,2.986268250e-13,1.373673188e-13,1.578223312e-13,1.223703051e-13,9.680425455e-14,1.529193343e-14,1.070565467e-13,5.429638955e-14
0.46875,5.730661059e-14,5.078457818e-14,8.326651311e-14,6.587286450e-14,9.008115336e-14,2.386721308e-14,4.867182883e-14,3.173242911e-14,9.054108579e-15,1.237378118e-14,2.429474961e-14,2.278666990e-14,3.305687317e-14,2.921283607e-14,4.687367431e-14,4.010357533e-14,1.090155283e-13,7.899163223e-14,5.016909013e-14,1.322611954e-13,4.644851835e-14,1.357442917e-14,5.684547999e-14,2.723132140e-13,2.913750858e-13,1.255009397e-13,1.511096420e-13,1.194410997e-13,8.656999438e-14,1.416861150e-14,9.771227760e-14,5.411869074e-14
0.47656,6.161338084e-14,4.841365106e-14,8.085016853e-14,6.572356563e-14,8.166566578e-14,1.729972495e-14,5.184115883e-14,2.718279009e-14,8.164024657e-15,1.158796819e-14,1.892876813e-14,2.046051886e-14,3.359802660e-14,2.989307579e-14,4.354714054e-14,3.662019348e-14,9.931347223e-14,7.237443411e-14,4.600604914e-14,1.200181528e-13,4.349862996e-14,1.469697899e-14,6.246981110e-14,2.472155783e-13,2.785645160e-13,1.145959325e-13,1.458467884e-13,1.132778741e-13,7.767717640e-14,1.337775030e-14,8.925298068e-14,5.350850053e-14
0.48438,6.573603337e-14,4.638952806e-14,7.863369559e-14,6.678347562e-14,7.350381647e-14,1.385236783e-14,5.428120687e-14,2.405101074e-14,7.491469494e-15,1.088124627e-14,1.471773407e-14,1.910668108e-14,3.400154791e-14,3.146361126e-14,4.078536756e-14,3.432755387e-14,9.075608239e-14,6.559585520e-14,4.150011216e-14,1.074794882e-13,4.072694266e-14,1.701785190e-14,7.093498934e-14,2.222674918e-13,2.648458270e-13,1.041945880e-13,1.427676074e-13,1.053504818e-13,7.003372984e-14,1.293425407e-14,8.127011365e-14,5.211638098e-14
0.49219,7.005727080e-14,4.537875726e-14,7.753499962e-14,6.893813610e-14,6.592050671e-14,1.328753288e-14,5.602233369e-14,2.190394680e-14,7.168621141e-15,1.040793227e-14,1.229104813e-14,1.887500106e-14,3.426712972e-14,3.400355494e-14,3.924893231e-14,3.373196412e-14,8.366098276e-14,5.891757272e-14,3.701260756e-14,9.583477908e-14,3.919328938e-14,2.045411079e-14,8.266932452e-14,2.004055046e-13,2.542474084e-13,9.433162089e-14,1.406712756e-13,9.738398766e-14,6.338212537e-14,1.281351736e-14,7.383139821e-14,5.016551801e-14
0.5,7.524186690e-14,4.566184505e-14,7.806128336e-14,7.237580402e-14,5.928733546e-14,1.481481510e-14,5.728617827e-14,2.047322390e-14,7.251441007e-15,1.004403088e-14,1.167090981e-14,1.952117199e-14,3.431212146e-14,3.701975410e-14,3.882835284e-14,3.424349971e-14,7.802597765e-14,5.281055121e-14,3.303519042e-14,8.604932847e-14,3.850538566e-14,2.515469737e-14,9.780638315e-14,1.855257091e-13,2.487573847e-13,8.543455374e-14,1.382265101e-13,8.997089284e-14,5.776067983e-14,1.281696936e-14,6.734142733e-14,4.793923481e-14
0.50781,8.157348220e-14,4.705959552e-14,7.941977906e-14,7.671577192e-14,5.335991579e-14,1.834916625e-14,5.789014715e-14,1.941048547e-14,7.867554294e-15,9.760849061e-15,1.322906236e-14,2.100095579e-14,3.416832667e-14,4.015290311e-14,3.925513038e-14,3.479002219e-14,7.368430713e-14,4.717018758e-14,2.964141351e-14,7.805798744e-14,3.862889425e-14,3.148802257e-14,1.161879885e-13,1.793275901e-13,2.487783616e-13,7.747698238e-14,1.341579823e-13,8.380448128e-14,5.317595656e-14,1.289534295e-14,6.164399374e-14,4.560638282e-14
0.51562,8.999848704e-14,4.938654224e-14,8.156342240e-14,8.245784194e-14,4.901823558e-14,2.365683075e-14,5.775437824e-14,1.864689374e-14,9.099621222e-15,9.693250371e-15,1.724576302e-14,2.342386366e-14,3.381137849e-14,4.347962006e-14,4.075746492e-14,3.547606787e-14,7.125954097e-14,4.245710311e-14,2.718474651e-14,7.335622736e-14,3.982037875e-14,3.948852082e-14,1.369945757e-13,1.826344769e-13,2.518626630e-13,7.047353592e-14,1.286085079e-13,7.919457828e-14,4.962498245e-14,1.318636848e-14,5.705072531e-14,4.324309157e-14
0.52344,1.001643985e-13,5.213013820e-14,8.377325933e-14,8.978451684e-14,4.647822264e-14,3.061011342e-14,5.723493598e-14,1.830700903e-14,1.082387650e-14,9.869006277e-15,2.348309225e-14,2.655324133e-14,3.335757111e-14,4.685208920e-14,4.299563440e-14,3.577992065e-14,7.003378324e-14,3.845323050e-14,2.569291308e-14,7.135554212e-14,4.161589379e-14,4.888363099e-14,1.590524967e-13,1.938063441e-13,2.554070214e-13,6.399234201e-14,1.211912436e-13,7.649881734e-14,4.683336222e-14,1.368074007e-14,5.337122891e-14,4.067267833e-14
0.53125,1.120341247e-13,5.539023448e-14,8.572139481e-14,9.855789898e-14,4.534377300e-14,3.926743002e-14,5.651509303e-14,1.823283407e-14,1.295290557e-14,1.033235921e-14,3.132417288e-14,3.034242079e-14,3.285556134e-14,5.024856424e-14,4.597357521e-14,3.569340984e-14,6.949056575e-14,3.508303788e-14,2.505937944e-14,7.073576012e-14,4.375873108e-14,5.956278689e-14,1.819987269e-13,2.079816825e-13,2.556035203e-13,5.790745396e-14,1.120982450e-13,7.427854092e-14,4.486463775e-14,1.446814476e-14,5.027815969e-14,3.781217313e-14
0.53906,1.261864010e-13,5.954747382e-14,8.694681939e-14,1.092317647e-13,4.579710801e-14,4.933722707e-14,5.594001149e-14,1.841809011e-14,1.545121507e-14,1.117538807e-14,4.043756788e-14,3.482484764e-14,3.251764608e-14,5.394275938e-14,4.961233509e-14,3.497190600e-14,6.929180236e-14,3.265534641e-14,2.557082030e-14,7.169358837e-14,4.620272028e-14,7.154418621e-14,2.044537415e-13,2.227702796e-13,2.523446474e-13,5.269853724e-14,1.016505600e-13,7.236077023e-14,4.413754747e-14,1.565917995e-14,4.825811893e-14,3.498270089e-14
0.54688,1.420911808e-13,6.381214448e-14,8.798696183e-14,1.210317763e-13,4.709699784e-14,6.064062854e-14,5.533235386e-14,1.878194886e-14,1.850554309e-14,1.228307049e-14,5.043983120e-14,3.972472328e-14,3.230333142e-14,5.750231619e-14,5.345973044e-14,3.339657213e-14,6.882349059e-14,3.063250194e-14,2.695110351e-14,7.299881660e-14,4.817427062e-14,8.435926936e-14,2.249244048e-13,2.344555873e-13,2.435551281e-13,4.819373662e-14,8.921934855e-14,7.022446042e-14,4.409055972e-14,1.723427048e-14,4.671607296e-14,3.259186720e-14
0.55469,1.589591342e-13,6.757595396e-14,8.993451345e-14,1.330726642e-13,4.877632240e-14,7.263220798e-14,5.483871963e-14,1.931183218e-14,2.186895614e-14,1.353506977e-14,6.050843376e-14,4.475434665e-14,3.204432968e-14,6.073654873e-14,5.712480191e-14,3.133528433e-14,6.869515774e-14,2.906243655e-14,2.878009573e-14,7.432568315e-14,4.946583457e-14,9.694276164e-14,2.425806849e-13,2.414640484e-13,2.312135794e-13,4.452298059e-14,7.684923006e-14,6.752480079e-14,4.453443273e-14,1.889835311e-14,4.501443944e-14,3.066552075e-14
0.5625,1.770149938e-13,7.144852434e-14,9.383331370e-14,1.457113003e-13,5.166506231e-14,8.418503522e-14,5.433596793e-14,2.049373698e-14,2.523792148e-14,1.485866533e-14,6.956242830e-14,4.956249452e-14,3.185853600e-14,6.364499738e-14,6.039705784e-14,2.966866853e-14,6.973627897e-14,2.861302876e-14,3.124317155e-14,7.537106562e-14,5.072745380e-14,1.088145233e-13,2.574162059e-13,2.407995600e-13,2.162577934e-13,4.186155355e-14,6.500977142e-14,6.342044068e-14,4.591965451e-14,2.041153862e-14,4.387247402e-14,2.906713189e-14
0.57031,1.956376747e-13,7.512630671e-14,1.002760133e-13,1.579989792e-13,5.533712272e-14,9.430760114e-14,5.366570625e-14,2.189935338e-14,2.844027009e-14,1.611365901e-14,7.708167323e-14,5.385756698e-14,3.172463383e-14,6.611923882e-14,6.280661219e-14,2.841293466e-14,7.140521649e-14,2.915214381e-14,3.400746625e-14,7.601982461e-14,5.173212390e-14,1.188988886e-13,2.693102267e-13,2.330161449e-13,2.005348804e-13,3.989299839e-14,5.479865140e-14,5.812302504e-14,4.807037890e-14,2.155693377e-14,4.341445198e-14,2.762894321e-14
0.57812,2.140760669e-13,7.828620916e-14,1.092600138e-13,1.689148037e-13,5.906764927e-14,1.025327171e-13,5.288589458e-14,2.335922258e-14,3.123661094e-14,1.718676107e-14,8.260434279e-14,5.723721529e-14,3.159465148e-14,6.789934681e-14,6.384868582e-14,2.753489432e-14,7.370549429e-14,3.047168434e-14,3.676897973e-14,7.571997063e-14,5.261291867e-14,1.262470386e-13,2.782471673e-13,2.184805963e-13,1.854511320e-13,3.852281191e-14,4.653836444e-14,5.200992923e-14,5.075553382e-14,2.218637310e-14,4.332255112e-14,2.642984151e-14
0.58594,2.321340903e-13,8.104071285e-14,1.207055173e-13,1.778494036e-13,6.256964981e-14,1.080607351e-13,5.200743583e-14,2.488228254e-14,3.348530126e-14,1.798432208e-14,8.644466557e-14,5.960551931e-14,3.123187844e-14,6.890070343e-14,6.351504747e-14,2.753890140e-14,7.712434807e-14,3.304686244e-14,3.953019344e-14,7.622501887e-14,5.375689545e-14,1.306496623e-13,2.847463621e-13,1.998901191e-13,1.728613793e-13,3.808304308e-14,4.007395721e-14,4.603832673e-14,5.366455382e-14,2.236510847e-14,4.356231048e-14,2.553878930e-14
0.59375,2.486820081e-13,8.355391727e-14,1.341076091e-13,1.844809973e-13,6.579747136e-14,1.103883810e-13,5.076731996e-14,2.610170673e-14,3.499750071e-14,1.845442087e-14,8.890011405e-14,6.100020676e-14,3.062676559e-14,6.923864015e-14,6.156081466e-14,2.839125384e-14,8.092579669e-14,3.672459546e-14,4.238068807e-14,7.777930467e-14,5.573609607e-14,1.320802109e-13,2.883849592e-13,1.784923219e-13,1.623778246e-13,3.818989092e-14,3.514915267e-14,4.058782607e-14,5.647703042e-14,2.227905073e-14,4.423688965e-14,2.486191873e-14
0.60156,2.616473866e-13,8.497934336e-14,1.488595311e-13,1.869472445e-13,6.783041028e-14,1.092874426e-13,4.939144570e-14,2.650599745e-14,3.579179327e-14,1.850300931e-14,8.952752628e-14,6.098844507e-14,2.950149184e-14,6.866358383e-14,5.783616850e-14,2.995789861e-14,8.483889618e-14,4.079422423e-14,4.480669603e-14,8.033787242e-14,5.889195838e-14,1.304646819e-13,2.898143664e-13,1.566863983e-13,1.558261400e-13,3.910398573e-14,3.077690552e-14,3.570329064e-14,5.828547112e-14,2.189886469e-14,4.483748513e-14,2.472584682e-14
0.60938,2.695142586e-13,8.534067726e-14,1.630525896e-13,1.849740987e-13,6.842976139e-14,1.053581442e-13,4.809307307e-14,2.627567709e-14,3.584600317e-14,1.814429549e-14,8.884630200e-14,5.965715452e-14,2.797741259e-14,6.762620617e-14,5.289120853e-14,3.280501796e-14,9.011712184e-14,4.537945664e-14,4.655858172e-14,8.432327302e-14,6.325962943e-14,1.260157116e-13,2.893395190e-13,1.363595667e-13,1.522801432e-13,4.134837378e-14,2.677361017e-14,3.195480164e-14,5.884596363e-14,2.157209768e-14,4.512672134e-14,2.527580250e-14
0.61719,2.718187566e-13,8.428748352e-14,1.748568397e-13,1.783559960e-13,6.744352828e-14,9.886036918e-14,4.705547953e-14,2.529662379e-14,3.543951973e-14,1.747558524e-14,8.724574720e-14,5.736305094e-14,2.628389842e-14,6.622756050e-14,4.699471557e-14,3.740252731e-14,9.684952665e-14,5.054495544e-14,4.767796131e-14,9.025014081e-14,6.863716482e-14,1.197099957e-13,2.861097951e-13,1.193517724e-13,1.508639562e-13,4.457907162e-14,2.308100735e-14,2.917440980e-14,5.823102228e-14,2.175744912e-14,4.490423867e-14,2.656124100e-14
0.625,2.684759721e-13,8.180999409e-14,1.824576977e-13,1.680937626e-13,6.499050099e-14,9.132368819e-14,4.645041969e-14,2.370592249e-14,3.467725804e-14,1.664279068e-14,8.534126987e-14,5.437510829e-14,2.441978955e-14,6.501769247e-14,4.121116959e-14,4.412849117e-14,1.051030269e-13,5.593077970e-14,4.804143060e-14,9.730313094e-14,7.531071717e-14,1.121274243e-13,2.802124153e-13,1.064483488e-13,1.509699284e-13,4.836235092e-14,1.998023025e-14,2.803306706e-14,5.600380040e-14,2.255791329e-14,4.410874614e-14,2.857459695e-14
0.63281,2.589416720e-13,7.837489240e-14,1.852817395e-13,1.554618303e-13,6.167319812e-14,8.330843946e-14,4.650074637e-14,2.179752629e-14,3.358810866e-14,1.569024489e-14,8.302461221e-14,5.101519793e-14,2.259394093e-14,6.438595466e-14,3.617286493e-14,5.281948584e-14,1.146727110e-13,6.128424423e-14,4.761848808e-14,1.043945602e-13,8.270806897e-14,1.036419462e-13,2.709985599e-13,9.579898414e-14,1.516699145e-13,5.259920010e-14,1.761726409e-14,2.824043859e-14,5.204024605e-14,2.396134207e-14,4.301136760e-14,3.132526450e-14
0.64062,2.442643442e-13,7.412982653e-14,1.833279224e-13,1.407625897e-13,5.770425589e-14,7.546334282e-14,4.741029576e-14,1.981541104e-14,3.237820638e-14,1.465524605e-14,8.011844921e-14,4.743715254e-14,2.082991067e-14,6.419261577e-14,3.182524444e-14,6.276236215e-14,1.255627546e-13,6.615589272e-14,4.623059008e-14,1.116588164e-13,9.032161905e-14,9.470955691e-14,2.588586909e-13,8.727529434e-14,1.526377599e-13,5.757168380e-14,1.569802920e-14,2.964852752e-14,4.672867821e-14,2.565948387e-14,4.173598123e-14,3.481123847e-14
0.64844,2.249919138e-13,6.953134365e-14,1.773025471e-13,1.254698342e-13,5.329975122e-14,6.863085147e-14,4.941984358e-14,1.798260800e-14,3.136821243e-14,1.369581140e-14,7.727060011e-14,4.402993517e-14,1.928421470e-14,6.430072295e-14,2.872095993e-14,7.430447750e-14,1.377927092e-13,7.064789904e-14,4.397957694e-14,1.187443287e-13,9.724162996e-14,8.581492493e-14,2.446060827e-13,7.944717640e-14,1.531407081e-13,6.297280636e-14,1.442567809e-14,3.208406260e-14,4.053342381e-14,2.748471974e-14,4.037639089e-14,3.884666323e-14
0.65625,2.036206574e-13,6.490393673e-14,1.680142184e-13,1.107742292e-13,4.893104115e-14,6.287261376e-14,5.266529231e-14,1.653284814e-14,3.070241192e-14,1.293692485e-14,7.437344540e-14,4.104404868e-14,1.794833744e-14,6.469811571e-14,2.687584798e-14,8.645780001e-14,1.502178300e-13,7.505985300e-14,4.104789763e-14,1.242848689e-13,1.027646931e-13,7.724171080e-14,2.289308646e-13,7.195291294e-14,1.510046522e-13,6.846825352e-14,1.391485473e-14,3.509747901e-14,3.390823235e-14,2.906973015e-14,3.925777819e-14,4.314002684e-14
0.66406,1.817449922e-13,6.059104408e-14,1.568117583e-13,9.687934951e-14,4.500594967e-14,5.819753161e-14,5.711438333e-14,1.558695265e-14,3.018349664e-14,1.234338394e-14,7.117596797e-14,3.836452152e-14,1.662736000e-14,6.511279076e-14,2.593762839e-14,9.799177471e-14,1.617713971e-13,7.971586942e-14,3.766352801e-14,1.281017381e-13,1.070452989e-13,6.881157877e-14,2.127393385e-13,6.529132055e-14,1.467745167e-13,7.419491376e-14,1.418777659e-14,3.812270997e-14,2.737879546e-14,3.028101202e-14,3.851656219e-14,4.725373439e-14
0.67188,1.616736432e-13,5.691867731e-14,1.446385791e-13,8.429650344e-14,4.201860468e-14,5.446967429e-14,6.294537379e-14,1.519833874e-14,2.967156545e-14,1.193993517e-14,6.810460656e-14,3.611250627e-14,1.554397092e-14,6.534773871e-14,2.581319760e-14,1.082702403e-13,1.718324851e-13,8.521651376e-14,3.436932868e-14,1.301831095e-13,1.099576300e-13,6.068304858e-14,1.964963857e-13,5.941019635e-14,1.414299071e-13,7.978022291e-14,1.524183094e-14,4.063862227e-14,2.144846721e-14,3.102107289e-14,3.824422572e-14,5.075174696e-14
0.67969,1.447176652e-13,5.408127862e-14,1.325325511e-13,7.364294644e-14,4.025495429e-14,5.188117489e-14,7.031979967e-14,1.515534945e-14,2.923162608e-14,1.176986904e-14,6.504644428e-14,3.442499375e-14,1.477770841e-14,6.563168838e-14,2.640217632e-14,1.168251426e-13,1.793887601e-13,9.138771366e-14,3.130336318e-14,1.297097163e-13,1.113700810e-13,5.323221335e-14,1.814736335e-13,5.418056429e-14,1.345279932e-13,8.469745781e-14,1.701622175e-14,4.209823133e-14,1.655856066e-14,3.123931436e-14,3.860048506e-14,5.316238069e-14
0.6875,1.304552182e-13,5.225878332e-14,1.202635065e-13,6.460011397e-14,3.976862746e-14,5.018399804e-14,7.877045840e-14,1.546149790e-14,2.887313799e-14,1.185913495e-14,6.186889757e-14,3.347514717e-14,1.423449350e-14,6.564936811e-14,2.745946396e-14,1.241883624e-13,1.853394988e-13,9.834741538e-14,2.855619245e-14,1.267163883e-13,1.117010049e-13,4.645808542e-14,1.670423004e-13,5.067483484e-14,1.262476766e-13,8.891659819e-14,1.964408126e-14,4.276610931e-14,1.308259518e-14,3.101997948e-14,3.992619664e-14,5.457071331e-14
0.69531,1.182685771e-13,5.080093120e-14,1.086279456e-13,5.728247121e-14,4.043792382e-14,4.924539698e-14,8.824642641e-14,1.613024769e-14,2.839038533e-14,1.214403298e-14,5.858692381e-14,3.295528018e-14,1.360727091e-14,6.541505045e-14,2.866206717e-14,1.292308815e-13,1.885913003e-13,1.051565434e-13,2.613773292e-14,1.210658669e-13,1.108884195e-13,4.036591107e-14,1.527131454e-13,4.829444543e-14,1.158936801e-13,9.181551662e-14,2.258512169e-14,4.285645974e-14,1.098239965e-14,3.030822252e-14,4.183754019e-14,5.476634044e-14
0.70312,1.071128364e-13,4.936112631e-14,9.786991893e-14,5.119568355e-14,4.238566913e-14,4.971879222e-14,9.805148063e-14,1.712524749e-14,2.760776950e-14,1.269437087e-14,5.527241494e-14,3.275311879e-14,1.293247042e-14,6.502649277e-14,2.972379732e-14,1.320550239e-13,1.893872256e-13,1.114214202e-13,2.415364644e-14,1.134691000e-13,1.091862344e-13,3.501555377e-14,1.381744473e-13,4.717315119e-14,1.053408885e-13,9.330016758e-14,2.509580817e-14,4.247174012e-14,1.023619880e-14,2.928348282e-14,4.435729047e-14,5.381627322e-14
0.71094,9.827887299e-14,4.829482969e-14,8.831664302e-14,4.624460060e-14,4.564939885e-14,5.182032965e-14,1.075405750e-13,1.850215263e-14,2.664115701e-14,1.356143679e-14,5.214913689e-14,3.294208701e-14,1.257004508e-14,6.452986029e-14,3.077226106e-14,1.332364645e-13,1.880836150e-13,1.174366005e-13,2.292740191e-14,1.045294571e-13,1.070959718e-13,3.038354404e-14,1.233816881e-13,4.647957308e-14,9.583197391e-14,9.314808595e-14,2.737440156e-14,4.174963885e-14,1.084598558e-14,2.813290335e-14,4.766590448e-14,5.183322578e-14
0.71875,9.121347451e-14,4.761397997e-14,7.999784909e-14,4.258182670e-14,5.032084723e-14,5.494103072e-14,1.156342853e-13,2.017309086e-14,2.560272817e-14,1.467538653e-14,4.877931481e-14,3.338028046e-14,1.258127640e-14,6.422750023e-14,3.197562852e-14,1.340745081e-13,1.858033139e-13,1.229979545e-13,2.230611034e-14,9.499598521e-14,1.044203764e-13,2.643950447e-14,1.091426066e-13,4.571036218e-14,8.625570851e-14,9.188149983e-14,2.973251974e-14,4.110134254e-14,1.267305771e-14,2.673901459e-14,5.178593183e-14,4.938280961e-14
0.72656,8.447798889e-14,4.714018538e-14,7.326932451e-14,4.007361953e-14,5.592625729e-14,5.926690625e-14,1.210058130e-13,2.204112754e-14,2.447169596e-14,1.584920266e-14,4.528501843e-14,3.371789610e-14,1.290109316e-14,6.392911086e-14,3.290220321e-14,1.348833230e-13,1.829559283e-13,1.271051218e-13,2.195100797e-14,8.630067897e-14,1.010800673e-13,2.304651782e-14,9.541867452e-14,4.517466076e-14,7.711796764e-14,8.970657756e-14,3.192236208e-14,4.010992263e-14,1.522397219e-14,2.506225321e-14,5.643888827e-14,4.675363767e-14
0.73438,7.791776598e-14,4.669045910e-14,6.889523696e-14,3.911447711e-14,6.215408364e-14,6.406098463e-14,1.230182210e-13,2.410174777e-14,2.330870510e-14,1.689637924e-14,4.170827383e-14,3.382527725e-14,1.363382884e-14,6.379003092e-14,3.372848611e-14,1.361182305e-13,1.802243744e-13,1.297434176e-13,2.187112245e-14,7.900730210e-14,9.674895100e-14,2.025125979e-14,8.357808481e-14,4.378157646e-14,6.842874731e-14,8.737602003e-14,3.442508488e-14,3.877350001e-14,1.817629710e-14,2.327327624e-14,6.130867934e-14,4.424930988e-14
0.74219,7.137940660e-14,4.628351337e-14,6.711246526e-14,3.992319903e-14,6.849396381e-14,6.881124362e-14,1.219007549e-13,2.624500780e-14,2.221725624e-14,1.766084884e-14,3.824038458e-14,3.354769511e-14,1.482284028e-14,6.379820650e-14,3.432364343e-14,1.376418453e-13,1.783721440e-13,1.311177049e-13,2.187018589e-14,7.422686440e-14,9.194332396e-14,1.795443188e-14,7.403185994e-14,4.126673754e-14,6.128030851e-14,8.521142994e-14,3.671370218e-14,3.745874646e-14,2.137673696e-14,2.136881797e-14,6.616626386e-14,4.210273528e-14
0.75,6.510128060e-14,4.621763182e-14,6.828924041e-14,4.261509485e-14,7.416230451e-14,7.232295199e-14,1.176743508e-13,2.803057764e-14,2.116147179e-14,1.816822418e-14,3.529289672e-14,3.315722932e-14,1.666185837e-14,6.401666029e-14,3.469223853e-14,1.390084723e-13,1.771705251e-13,1.314507394e-13,2.200157936e-14,7.123546062e-14,8.693699750e-14,1.616641848e-14,6.717188234e-14,3.813116950e-14,5.531383695e-14,8.334194513e-14,3.912776748e-14,3.587569294e-14,2.482298127e-14,1.957289675e-14,7.082941323e-14,4.024685518e-14
0.75781,5.949583286e-14,4.695639071e-14,7.225951136e-14,4.742939588e-14,7.914382603e-14,7.346808419e-14,1.111729834e-13,2.927394617e-14,2.027329583e-14,1.841716350e-14,3.285488762e-14,3.286956171e-14,1.928926943e-14,6.472093586e-14,3.524170368e-14,1.406327279e-13,1.779529931e-13,1.320649575e-13,2.246293955e-14,6.955175700e-14,8.225355096e-14,1.475695507e-14,6.352112439e-14,3.475931585e-14,5.034801546e-14,8.230326589e-14,4.268640481e-14,3.402260637e-14,2.864862193e-14,1.820419100e-14,7.555171129e-14,3.865359509e-14
0.76562,5.369390573e-14,4.866613050e-14,7.910703279e-14,5.400558879e-14,8.286700361e-14,7.268291152e-14,1.023852695e-13,2.964835353e-14,1.954494347e-14,1.847249444e-14,3.109918827e-14,3.259381784e-14,2.252701332e-14,6.569119357e-14,3.586802208e-14,1.418527476e-13,1.801269733e-13,1.329002825e-13,2.312808795e-14,6.908405150e-14,7.816006039e-14,1.358491608e-14,6.254378492e-14,3.214277259e-14,4.630871456e-14,8.175038609e-14,4.743426831e-14,3.185389785e-14,3.250753271e-14,1.760716878e-14,8.001187144e-14,3.709998908e-14
0.77344,4.847582008e-14,5.097977296e-14,8.612462684e-14,6.181487403e-14,8.503757419e-14,7.014978068e-14,9.205501259e-14,2.912068478e-14,1.910727257e-14,1.840407533e-14,3.009886574e-14,3.220679914e-14,2.610219039e-14,6.623703644e-14,3.641694138e-14,1.419230311e-13,1.828645848e-13,1.333919634e-13,2.395632546e-14,6.867025126e-14,7.482295175e-14,1.261683382e-14,6.298047815e-14,3.044854529e-14,4.285635595e-14,8.138279905e-14,5.274129867e-14,2.929216428e-14,3.636552279e-14,1.794093179e-14,8.380849814e-14,3.566751900e-14
0.78125,4.400426878e-14,5.298476585e-14,9.337628457e-14,6.983016134e-14,8.538832311e-14,6.668052537e-14,8.083703546e-14,2.768187077e-14,1.903658347e-14,1.831723104e-14,2.967909884e-14,3.174655084e-14,2.971944097e-14,6.578061419e-14,3.645069861e-14,1.391278490e-13,1.838993440e-13,1.327399627e-13,2.480057069e-14,6.820867990e-14,7.206414560e-14,1.189045959e-14,6.473062967e-14,3.067854960e-14,4.061481044e-14,8.074374531e-14,5.840621323e-14,2.663085664e-14,4.013260143e-14,1.916975889e-14,8.647406141e-14,3.425134209e-14
0.78906,4.059450179e-14,5.391210489e-14,9.996482783e-14,7.692678143e-14,8.337490509e-14,6.226534882e-14,6.991214328e-14,2.546875352e-14,1.947085235e-14,1.833934971e-14,3.003942307e-14,3.163983508e-14,3.330426518e-14,6.416389251e-14,3.591366833e-14,1.328232584e-13,1.823095780e-13,1.305935205e-13,2.562163715e-14,6.733394789e-14,7.029569973e-14,1.150755790e-14,6.684246946e-14,3.296013380e-14,3.940243049e-14,7.942591783e-14,6.474620897e-14,2.403931909e-14,4.373018037e-14,2.128815880e-14,8.786492860e-14,3.268363180e-14
0.79688,3.922850590e-14,5.419782362e-14,1.063135271e-13,8.298537858e-14,7.955525376e-14,5.814588050e-14,6.002784282e-14,2.290428239e-14,2.050761792e-14,1.859200348e-14,3.135709144e-14,3.200292696e-14,3.673096474e-14,6.148675592e-14,3.482494056e-14,1.229243515e-13,1.779645871e-13,1.274702522e-13,2.672826206e-14,6.584797535e-14,6.966211919e-14,1.138217853e-14,6.926823832e-14,3.876063968e-14,3.946471340e-14,7.722285748e-14,7.125894641e-14,2.191753451e-14,4.723880286e-14,2.445956968e-14,8.851481273e-14,3.091761559e-14
0.80469,3.953543186e-14,5.371640786e-14,1.112352962e-13,8.706882719e-14,7.415470446e-14,5.511199571e-14,5.099365677e-14,2.012664685e-14,2.201056505e-14,1.906058736e-14,3.336947386e-14,3.263618007e-14,3.978546185e-14,5.759099306e-14,3.308322878e-14,1.103792968e-13,1.709317641e-13,1.230371113e-13,2.796162658e-14,6.421416902e-14,6.966798870e-14,1.137596123e-14,7.153761274e-14,4.742994554e-14,4.069711906e-14,7.396966337e-14,7.707501322e-14,2.078861791e-14,5.038133193e-14,2.851375752e-14,8.812445292e-14,2.898649422e-14
0.8125,4.171630947e-14,5.247860171e-14,1.137711743e-13,8.906335414e-14,6.827693136e-14,5.386765005e-14,4.300187053e-14,1.761991025e-14,2.386147704e-14,1.967462762e-14,3.585828314e-14,3.344510650e-14,4.235260008e-14,5.312117807e-14,3.107275128e-14,9.613749542e-14,1.619730810e-13,1.172137644e-13,2.933737035e-14,6.256912237e-14,7.038122750e-14,1.145091094e-14,7.318418675e-14,5.928930675e-14,4.367991749e-14,6.986142712e-14,8.196957422e-14,2.032196159e-14,5.314473187e-14,3.317836008e-14,8.714220002e-14,2.711506660e-14
0.82031,4.547355670e-14,5.039020503e-14,1.128670166e-13,8.880243605e-14,6.239402356e-14,5.513502261e-14,3.565580596e-14,1.571946637e-14,2.611629737e-14,2.027701731e-14,3.837618768e-14,3.432766469e-14,4.423847377e-14,4.822781099e-14,2.883742599e-14,8.138802482e-14,1.516783964e-13,1.099069415e-13,3.083194361e-14,6.161300198e-14,7.132011813e-14,1.153730732e-14,7.395947358e-14,7.286381002e-14,4.759188653e-14,6.510264402e-14,8.610899658e-14,2.059999949e-14,5.560476415e-14,3.788531666e-14,8.553673332e-14,2.524412258e-14
0.82812,5.063322677e-14,4.725503194e-14,1.099996183e-13,8.682116703e-14,5.624085465e-14,5.959719840e-14,2.915001530e-14,1.449493086e-14,2.862980013e-14,2.078448540e-14,4.064881580e-14,3.505225826e-14,4.525280577e-14,4.300209080e-14,2.658310505e-14,6.647451409e-14,1.404084613e-13,1.010902385e-13,3.216639210e-14,6.142752766e-14,7.218704294e-14,1.162603076e-14,7.446487573e-14,8.874060898e-14,5.268542185e-14,5.966390960e-14,8.975388359e-14,2.137935563e-14,5.711855607e-14,4.228092981e-14,8.296133738e-14,2.327365234e-14
0.83594,5.683906110e-14,4.348931710e-14,1.064478181e-13,8.334884641e-14,5.033088680e-14,6.718905616e-14,2.344670166e-14,1.413448654e-14,3.107344507e-14,2.103028324e-14,4.225961458e-14,3.518962586e-14,4.521194441e-14,3.780859880e-14,2.464018286e-14,5.232526985e-14,1.293391457e-13,9.170978244e-14,3.310507302e-14,6.178705559e-14,7.275491001e-14,1.161207480e-14,7.477586239e-14,1.052318174e-13,5.808467503e-14,5.412321643e-14,9.300522719e-14,2.252441684e-14,5.742957417e-14,4.582122156e-14,7.948857068e-14,2.155035162e-14
0.84375,6.372666757e-14,3.947824976e-14,1.025590072e-13,7.871028279e-14,4.500609827e-14,7.786997873e-14,1.857366853e-14,1.444132837e-14,3.316781687e-14,2.076808671e-14,4.274300848e-14,3.448077844e-14,4.431778370e-14,3.280660734e-14,2.318992881e-14,3.987408373e-14,1.196415193e-13,8.232171119e-14,3.362477041e-14,6.291413417e-14,7.289170444e-14,1.146461606e-14,7.443311390e-14,1.214555171e-13,6.388974134e-14,4.856917668e-14,9.622008886e-14,2.353327845e-14,5.670538930e-14,4.780698324e-14,7.505163290e-14,2.015632435e-14
0.85156,6.928493198e-14,3.563341417e-14,9.920849447e-14,7.384226820e-14,4.044628784e-14,9.102074732e-14,1.439355088e-14,1.514482270e-14,3.454000340e-14,1.990963482e-14,4.192319456e-14,3.310428611e-14,4.272446066e-14,2.858431811e-14,2.287357381e-14,2.962184461e-14,1.118067781e-13,7.378045144e-14,3.388333904e-14,6.466431946e-14,7.271590246e-14,1.127138562e-14,7.312316530e-14,1.352827217e-13,6.917941889e-14,4.325936696e-14,9.987069019e-14,2.394700814e-14,5.494465566e-14,4.812171640e-14,6.993870585e-14,1.907164665e-14
0.85938,7.321899250e-14,3.215418694e-14,9.639790229e-14,6.951461410e-14,3.677649065e-14,1.063924352e-13,1.087214572e-14,1.608149807e-14,3.497863761e-14,1.846460276e-14,3.980490548e-14,3.080547842e-14,4.034825308e-14,2.509022874e-14,2.400144968e-14,2.179188920e-14,1.064767072e-13,6.701265506e-14,3.390512771e-14,6.676010443e-14,7.194354434e-14,1.095009945e-14,7.114665825e-14,1.460759284e-13,7.363210670e-14,3.852808846e-14,1.047023657e-13,2.351763845e-14,5.242320765e-14,4.657887965e-14,6.440036925e-14,1.832591287e-14
0.86719,7.440830176e-14,2.851962578e-14,9.510440157e-14,6.533048667e-14,3.382325963e-14,1.230100195e-13,8.113025725e-15,1.700413403e-14,3.430378076e-14,1.654318175e-14,3.678910717e-14,2.755819653e-14,3.695657256e-14,2.210512741e-14,2.633311022e-14,1.600615204e-14,1.036053164e-13,6.179900683e-14,3.356922268e-14,6.905648297e-14,7.051994796e-14,1.039224690e-14,6.919874187e-14,1.526951014e-13,7.691147131e-14,3.450341260e-14,1.114105703e-13,2.254931517e-14,4.920535455e-14,4.320777808e-14,5.820583560e-14,1.797289021e-14
0.875,7.390411032e-14,2.527816652e-14,9.697020202e-14,6.151188946e-14,3.173620934e-14,1.394756411e-13,6.052457537e-15,1.785050774e-14,3.291767668e-14,1.438896361e-14,3.350182059e-14,2.410208701e-14,3.326813699e-14,2.004691990e-14,2.980706582e-14,1.250897690e-14,1.033224601e-13,5.884407775e-14,3.318293024e-14,7.125086292e-14,6.866348955e-14,9.764572794e-15,6.682064178e-14,1.556077623e-13,7.991880434e-14,3.129023590e-14,1.202529754e-13,2.172204804e-14,4.570008409e-14,3.891961403e-14,5.186951141e-14,1.790611151e-14
0.88281,7.138730220e-14,2.278490211e-14,1.016390280e-13,5.860426578e-14,3.060948830e-14,1.541432714e-13,4.736855242e-15,1.868398276e-14,3.091260483e-14,1.214404958e-14,3.028341304e-14,2.062519873e-14,2.969577457e-14,1.874100525e-14,3.397732193e-14,1.090010040e-14,1.050873980e-13,5.828909575e-14,3.290590828e-14,7.308153752e-14,6.605994129e-14,9.114323132e-15,6.392654713e-14,1.547506964e-13,8.343996689e-14,2.873212719e-14,1.301573285e-13,2.103440476e-14,4.225616754e-14,3.402610981e-14,4.560770551e-14,1.813133142e-14
0.89062,6.672013233e-14,2.094121644e-14,1.082253465e-13,5.653063891e-14,3.038289023e-14,1.651052575e-13,4.046051784e-15,1.946952368e-14,2.840394760e-14,1.000949824e-14,2.729489935e-14,1.753292580e-14,2.626522938e-14,1.785527773e-14,3.810704774e-14,1.055863250e-14,1.080040656e-13,5.923272592e-14,3.276545085e-14,7.395656524e-14,6.319926622e-14,8.484072162e-15,6.124615739e-14,1.495911422e-13,8.726950202e-14,2.668796379e-14,1.408122308e-13,2.053163387e-14,3.900455207e-14,2.886312511e-14,3.958478593e-14,1.855230769e-14
0.89844,6.032963335e-14,1.963621313e-14,1.156775886e-13,5.554531577e-14,3.080304256e-14,1.718315884e-13,3.780183733e-15,2.031233267e-14,2.572011928e-14,8.114013826e-15,2.474526614e-14,1.508946917e-14,2.318573993e-14,1.742593898e-14,4.209873425e-14,1.136493958e-14,1.117271862e-13,6.149881474e-14,3.272693410e-14,7.370930759e-14,6.007426838e-14,7.945858647e-15,5.850479870e-14,1.420229102e-13,9.201525576e-14,2.500242776e-14,1.516026624e-13,2.074598555e-14,3.612985151e-14,2.400347589e-14,3.400007338e-14,1.909722191e-14
0.90625,5.315373178e-14,1.886791532e-14,1.231932708e-13,5.586738589e-14,3.205136831e-14,1.726588972e-13,4.074881612e-15,2.146836547e-14,2.314453927e-14,6.503433065e-15,2.287186954e-14,1.350430693e-14,2.071219055e-14,1.743606203e-14,4.555664119e-14,1.316024729e-14,1.158464183e-13,6.417134928e-14,3.278059643e-14,7.214995538e-14,5.691422049e-14,7.469831814e-15,5.557622463e-14,1.335575650e-13,9.733844515e-14,2.375771220e-14,1.617302661e-13,2.231771650e-14,3.387342101e-14,1.980618138e-14,2.907817582e-14,1.988973114e-14
0.91406,4.675844936e-14,1.893007138e-14,1.303013143e-13,5.731490297e-14,3.426452831e-14,1.674978688e-13,4.849350634e-15,2.297111525e-14,2.091480485e-14,5.256682497e-15,2.150120433e-14,1.312359802e-14,1.892625729e-14,1.788348661e-14,4.819114842e-14,1.600543346e-14,1.199266548e-13,6.682425384e-14,3.286109013e-14,6.973551791e-14,5.435121230e-14,7.139720817e-15,5.225347817e-14,1.241836826e-13,1.051339670e-13,2.285750157e-14,1.691507420e-13,2.568960893e-14,3.224221606e-14,1.652651075e-14,2.531967504e-14,2.096775950e-14
0.92188,4.160156801e-14,1.959292967e-14,1.362630607e-13,5.946122172e-14,3.691281202e-14,1.563261285e-13,6.169358973e-15,2.479591502e-14,1.911991771e-14,4.330530150e-15,2.063298456e-14,1.392626870e-14,1.777595175e-14,1.852465304e-14,4.982883582e-14,1.949003990e-14,1.236742347e-13,6.967948770e-14,3.277165486e-14,6.624632390e-14,5.210893124e-14,6.933377946e-15,4.810465757e-14,1.150253699e-13,1.153907924e-13,2.181986631e-14,1.715481678e-13,3.078777226e-14,3.105117313e-14,1.417640489e-14,2.264742863e-14,2.211950056e-14
0.92969,3.811011696e-14,2.093307014e-14,1.410158634e-13,6.222074400e-14,3.970031100e-14,1.399270090e-13,7.952004898e-15,2.689400377e-14,1.789434772e-14,3.744388029e-15,2.012556281e-14,1.583352377e-14,1.729819654e-14,1.944887058e-14,5.078471373e-14,2.380782971e-14,1.278359200e-13,7.291922934e-14,3.241243149e-14,6.194770692e-14,5.035694044e-14,6.895583792e-15,4.366866430e-14,1.063692522e-13,1.280056958e-13,2.081312320e-14,1.687126220e-13,3.726984223e-14,3.007743809e-14,1.269645614e-14,2.104536313e-14,2.346789953e-14
0.9375,3.611134553e-14,2.322047226e-14,1.440979075e-13,6.542182540e-14,4.224568520e-14,1.209314628e-13,1.017828567e-14,2.912089935e-14,1.720327555e-14,3.534281003e-15,2.009502026e-14,1.882716510e-14,1.751033054e-14,2.085667173e-14,5.159956107e-14,2.882724481e-14,1.320569116e-13,7.640629309e-14,3.169763158e-14,5.728529549e-14,4.920428461e-14,7.089993726e-15,3.876775752e-14,9.866100370e-14,1.427416813e-13,1.972011214e-14,1.616658833e-13,4.459094306e-14,2.932558822e-14,1.209727223e-14,2.058063407e-14,2.482321893e-14
0.94531,3.533552496e-14,2.636917185e-14,1.467445255e-13,6.925672908e-14,4.437077292e-14,1.006235604e-13,1.269558249e-14,3.130992318e-14,1.695151002e-14,3.659819707e-15,2.042444084e-14,2.273003194e-14,1.825098598e-14,2.309021203e-14,5.290666075e-14,3.486906886e-14,1.370392053e-13,8.063002929e-14,3.051424934e-14,5.236779724e-14,4.811618595e-14,7.422631577e-15,3.417084257e-14,9.249170272e-14,1.588639017e-13,1.899629380e-14,1.520278259e-13,5.253005061e-14,2.865605456e-14,1.219979492e-14,2.108903242e-14,2.607134644e-14
0.95312,3.601101214e-14,3.013714498e-14,1.496151353e-13,7.265020919e-14,4.565544567e-14,8.099911821e-14,1.500386887e-14,3.314826833e-14,1.706013829e-14,4.140828127e-15,2.102434761e-14,2.725954920e-14,1.922475366e-14,2.565641422e-14,5.403623961e-14,4.093989118e-14,1.416320156e-13,8.487486810e-14,2.882166425e-14,4.810484624e-14,4.701315802e-14,7.866668432e-15,3.042094536e-14,8.659234486e-14,1.743710088e-13,1.868695260e-14,1.406356214e-13,6.134322468e-14,2.822227773e-14,1.286571317e-14,2.216111533e-14,2.704925660e-14
0.96094,3.852746859e-14,3.423172625e-14,1.520554816e-13,7.516389985e-14,4.569578098e-14,6.341623095e-14,1.713552787e-14,3.435075814e-14,1.742041227e-14,4.914188791e-15,2.183668464e-14,3.218969043e-14,2.032818400e-14,2.845393696e-14,5.541743460e-14,4.695461697e-14,1.456717819e-13,8.940627542e-14,2.671569676e-14,4.470625181e-14,4.558976899e-14,8.388962544e-15,2.782836875e-14,8.110920078e-14,1.877111148e-13,1.878141518e-14,1.284046319e-13,7.039116398e-14,2.791632430e-14,1.392576074e-14,2.369127410e-14,2.762429058e-14
0.96875,4.212743668e-14,3.846805137e-14,1.545378109e-13,7.675122359e-14,4.448308173e-14,4.875189338e-14,1.851500896e-14,3.475332510e-14,1.792657149e-14,5.919827253e-15,2.312104799e-14,3.714519228e-14,2.161069710e-14,3.168934302e-14,5.736887023e-14,5.294573421e-14,1.488894258e-13,9.374090000e-14,2.426051677e-14,4.203486125e-14,4.355576912e-14,8.957751357e-15,2.689359134e-14,7.545093355e-14,1.958657585e-13,1.912432622e-14,1.168350199e-13,7.898627791e-14,2.770779262e-14,1.522751901e-14,2.540698258e-14,2.758806677e-14
0.97656,4.653115586e-14,4.243167163e-14,1.565257559e-13,7.699967403e-14,4.228183124e-14,3.762063888e-14,1.905856389e-14,3.436233333e-14,1.851961538e-14,7.085997790e-15,2.500561135e-14,4.186284778e-14,2.291218461e-14,3.490389903e-14,5.932420336e-14,5.836491071e-14,1.502435679e-13,9.686304759e-14,2.161461175e-14,3.960947362e-14,4.096650382e-14,9.560153409e-15,2.758840565e-14,7.031946757e-14,1.980000588e-13,1.946836127e-14,1.061884840e-13,8.698993189e-14,2.757373455e-14,1.660057475e-14,2.702079266e-14,2.711350411e-14
0.98438,5.182576642e-14,4.572317150e-14,1.578722595e-13,7.559501390e-14,3.952826151e-14,2.993074939e-14,1.877399635e-14,3.303603906e-14,1.908047766e-14,8.508412534e-15,2.754863054e-14,4.614756580e-14,2.407136257e-14,3.782247495e-14,6.128764565e-14,6.285132959e-14,1.487572481e-13,9.837749237e-14,1.896269296e-14,3.721765468e-14,3.780296537e-14,1.013326600e-14,2.997118759e-14,6.620119340e-14,1.928890060e-13,1.978739396e-14,9.702450097e-14,9.517011372e-14,2.745489041e-14,1.789837851e-14,2.852805054e-14,2.628259983e-14
0.99219,5.864344766e-14,4.795547969e-14,1.588949382e-13,7.187114377e-14,3.646408646e-14,2.553483060e-14,1.771369025e-14,3.099126684e-14,1.958621200e-14,9.966790955e-15,3.087939139e-14,4.975576518e-14,2.492928249e-14,4.029710587e-14,6.358305486e-14,6.656791495e-14,1.449722688e-13,9.840523970e-14,1.653116669e-14,3.495845596e-14,3.410994292e-14,1.061733349e-14,3.384111845e-14,6.277419215e-14,1.815712394e-13,2.022351324e-14,8.922480390e-14,1.035071464e-13,2.744819407e-14,1.904401828e-14,2.997102851e-14,2.524666788e-14
1,6.612748363e-14,4.908527063e-14,1.593925424e-13,6.652203103e-14,3.349328707e-14,2.384426623e-14,1.606496239e-14,2.878815164e-14,2.010587603e-14,1.128957195e-14,3.484482896e-14,5.260463873e-14,2.544198645e-14,4.221574595e-14,6.626060689e-14,6.942106089e-14,1.392225283e-13,9.675956479e-14,1.439525984e-14,3.294929078e-14,3.059416665e-14,1.096699869e-14,3.818884526e-14,6.038713821e-14,1.643692616e-13,2.039082622e-14,8.162288445e-14,1.113197779e-13,2.715254491e-14,1.986196956e-14,3.133971135e-14,2.432608445e-14
1.0078,7.385979041e-14,4.938710795e-14,1.607282455e-13,6.030839008e-14,3.123883194e-14,2.402980544e-14,1.449880542e-14,2.680395444e-14,2.061710060e-14,1.229095919e-14,3.904610307e-14,5.477636511e-14,2.549109302e-14,4.409476195e-14,6.995728348e-14,7.208705452e-14,1.322208356e-13,9.364651186e-14,1.257981884e-14,3.116311238e-14,2.788866426e-14,1.117055527e-14,4.231904621e-14,5.874961182e-14,1.429502802e-13,2.027671441e-14,7.375497983e-14,1.175808076e-13,2.632360547e-14,2.031572158e-14,3.285757372e-14,2.384881461e-14
1.0156,8.140780895e-14,4.909895185e-14,1.641048187e-13,5.355879535e-14,3.018530016e-14,2.576548660e-14,1.338751834e-14,2.530141647e-14,2.099846825e-14,1.318602900e-14,4.323824779e-14,5.635393524e-14,2.534611521e-14,4.619798119e-14,7.526771610e-14,7.501363075e-14,1.249961181e-13,8.990468520e-14,1.138953097e-14,2.982064692e-14,2.626461374e-14,1.129060680e-14,4.558068694e-14,5.765489066e-14,1.198912564e-13,2.014464153e-14,6.643061406e-14,1.230838660e-13,2.511108265e-14,2.046141343e-14,3.493865733e-14,2.387080350e-14
1.0234,8.892677806e-14,4.829458496e-14,1.689120327e-13,4.674939320e-14,3.026467028e-14,2.821801486e-14,1.274733160e-14,2.421220038e-14,2.123974044e-14,1.384817496e-14,4.750421109e-14,5.724029238e-14,2.482553787e-14,4.854156309e-14,8.220753012e-14,7.830221931e-14,1.178844298e-13,8.600241764e-14,1.067656882e-14,2.899111892e-14,2.595416245e-14,1.133564058e-14,4.754418943e-14,5.693205509e-14,9.677700405e-14,1.995910668e-14,5.935204976e-14,1.281296008e-13,2.342909036e-14,2.027639731e-14,3.741607040e-14,2.429216750e-14
1.0312,9.552878133e-14,4.741224955e-14,1.756089676e-13,4.056300575e-14,3.151126297e-14,3.089554200e-14,1.298231678e-14,2.376050871e-14,2.141916705e-14,1.414341059e-14,5.158222955e-14,5.736041073e-14,2.401514393e-14,5.144567481e-14,9.094097654e-14,8.207843950e-14,1.118032663e-13,8.309759340e-14,1.042106757e-14,2.885789100e-14,2.697798288e-14,1.135227732e-14,4.812139404e-14,5.636000362e-14,7.628258726e-14,1.996803363e-14,5.231609017e-14,1.321550996e-13,2.137447521e-14,1.979591435e-14,4.036436683e-14,2.522198808e-14
1.0391,1.002465755e-13,4.670290547e-14,1.827086846e-13,3.565664848e-14,3.363115878e-14,3.297618767e-14,1.428193297e-14,2.357320246e-14,2.150279208e-14,1.401187174e-14,5.502987249e-14,5.682500589e-14,2.318486990e-14,5.486607043e-14,1.005796241e-13,8.492117257e-14,1.060449789e-13,8.084383133e-14,1.053476644e-14,2.952794240e-14,2.908184860e-14,1.149951386e-14,4.738854328e-14,5.630240074e-14,6.018217859e-14,1.998624207e-14,4.587340942e-14,1.354062518e-13,1.921419961e-14,1.897980151e-14,4.337066199e-14,2.637471509e-14
1.0469,1.036229647e-13,4.638942326e-14,1.907942595e-13,3.224028164e-14,3.622887433e-14,3.377706178e-14,1.681158220e-14,2.345183789e-14,2.142788608e-14,1.362878127e-14,5.753029204e-14,5.604539119e-14,2.249092618e-14,5.897915506e-14,1.108839436e-13,8.697990593e-14,1.006292120e-13,7.919553158e-14,1.092049691e-14,3.068152035e-14,3.186544055e-14,1.186556447e-14,4.567800996e-14,5.663277564e-14,4.858571397e-14,2.013404059e-14,4.020285580e-14,1.378617495e-13,1.708699161e-14,1.790574320e-14,4.626782030e-14,2.747448819e-14
1.0547,1.054287178e-13,4.589985064e-14,1.989605932e-13,2.985301811e-14,3.872469292e-14,3.364174024e-14,2.017426933e-14,2.314262718e-14,2.108376462e-14,1.305132000e-14,5.903939066e-14,5.480013770e-14,2.203732319e-14,6.322508920e-14,1.205561277e-13,8.765869779e-14,9.530463828e-14,7.761095563e-14,1.135996731e-14,3.232845276e-14,3.464344362e-14,1.235952963e-14,4.350741466e-14,5.806410091e-14,4.242392123e-14,2.033439163e-14,3.544087582e-14,1.402628411e-13,1.503064197e-14,1.660001287e-14,4.843017013e-14,2.834275747e-14
1.0625,1.065620849e-13,4.537785724e-14,2.050732257e-13,2.846729024e-14,4.078272471e-14,3.267017543e-14,2.421142451e-14,2.250080904e-14,2.048273605e-14,1.236096424e-14,5.947588573e-14,5.313978269e-14,2.186821469e-14,6.726369459e-14,1.285350798e-13,8.670293045e-14,8.925857085e-14,7.513034800e-14,1.185139559e-14,3.435728344e-14,3.708076766e-14,1.307059825e-14,4.155221936e-14,6.024214034e-14,4.116764573e-14,2.046317528e-14,3.214655384e-14,1.431928709e-13,1.307320845e-14,1.491848367e-14,4.943744880e-14,2.876714692e-14
1.0703,1.064654170e-13,4.473407836e-14,2.083556465e-13,2.783937317e-14,4.248285753e-14,3.145826377e-14,2.868532086e-14,2.133999099e-14,1.961557953e-14,1.155702047e-14,5.917041682e-14,5.104568350e-14,2.196753562e-14,7.085222884e-14,1.345576616e-13,8.429798800e-14,8.293060178e-14,7.192668186e-14,1.228935123e-14,3.634795934e-14,3.875654137e-14,1.397100850e-14,3.988084531e-14,6.262947406e-14,4.344369962e-14,2.038382527e-14,3.036325377e-14,1.459221544e-13,1.158897862e-14,1.306150940e-14,4.941563278e-14,2.873669556e-14
1.0781,1.054587678e-13,4.321763946e-14,2.066942448e-13,2.733987762e-14,4.338939120e-14,3.046929003e-14,3.380199891e-14,1.965120464e-14,1.864877761e-14,1.065481403e-14,5.798389250e-14,4.869427925e-14,2.253093536e-14,7.308701803e-14,1.373075568e-13,8.003777179e-14,7.591920524e-14,6.734393624e-14,1.241869431e-14,3.803498723e-14,3.942112953e-14,1.496201062e-14,3.909215640e-14,6.493311955e-14,4.789896992e-14,2.002414575e-14,2.958908851e-14,1.486400386e-13,1.050504557e-14,1.106355963e-14,4.797857794e-14,2.832577178e-14
1.0859,1.039480404e-13,4.035649679e-14,2.014965218e-13,2.679597526e-14,4.307035407e-14,3.020216046e-14,3.890279715e-14,1.768797149e-14,1.761745262e-14,9.802014944e-15,5.590158300e-14,4.623682726e-14,2.359972428e-14,7.405655361e-14,1.371295723e-13,7.441500127e-14,6.905150766e-14,6.184066206e-14,1.241764041e-14,3.998834411e-14,3.891074441e-14,1.597089456e-14,3.891820708e-14,6.576809443e-14,5.349970623e-14,1.956559068e-14,2.979270981e-14,1.512877200e-13,9.844812491e-15,8.970051222e-15,4.503174535e-14,2.767734912e-14
1.0938,1.026551016e-13,3.651667408e-14,1.934456139e-13,2.587741677e-14,4.164026217e-14,3.150915162e-14,4.314972866e-14,1.560400705e-14,1.654198776e-14,9.205313451e-15,5.331492114e-14,4.382147699e-14,2.506024114e-14,7.356821463e-14,1.335978049e-13,6.819786945e-14,6.280334703e-14,5.599039625e-14,1.233092014e-14,4.170203723e-14,3.751512483e-14,1.673470620e-14,3.943278102e-14,6.531557259e-14,5.917369714e-14,1.907634047e-14,3.090337694e-14,1.538648940e-13,9.670896782e-15,7.025610607e-15,4.110046193e-14,2.682663194e-14
1.1016,1.018621777e-13,3.224992079e-14,1.819565170e-13,2.483304864e-14,3.954002095e-14,3.472135524e-14,4.634760399e-14,1.390436162e-14,1.550100265e-14,8.956888485e-15,5.065413646e-14,4.141506901e-14,2.688801142e-14,7.192672423e-14,1.279733273e-13,6.298569693e-14,5.824452359e-14,5.078562361e-14,1.246870615e-14,4.333937918e-14,3.561951952e-14,1.709355922e-14,4.041115932e-14,6.376850135e-14,6.393552345e-14,1.887035797e-14,3.367511782e-14,1.554872158e-13,1.002473454e-14,5.387223554e-15,3.687709146e-14,2.612097216e-14
1.1094,1.012953469e-13,2.776928246e-14,1.682061162e-13,2.388514780e-14,3.723460539e-14,3.966333900e-14,4.898279447e-14,1.245755588e-14,1.456145293e-14,9.079643178e-15,4.797460239e-14,3.902397780e-14,2.866428706e-14,6.910555797e-14,1.203710143e-13,5.871627479e-14,5.561926601e-14,4.648196454e-14,1.269154491e-14,4.494642697e-14,3.385617572e-14,1.720265631e-14,4.175903332e-14,6.158097303e-14,6.819272770e-14,1.911298252e-14,3.818572204e-14,1.550935764e-13,1.090054735e-14,4.141839771e-15,3.262556040e-14,2.558892767e-14
1.1172,1.017535813e-13,2.344134108e-14,1.531280235e-13,2.325594927e-14,3.480632154e-14,4.652293097e-14,5.127577017e-14,1.155211989e-14,1.381219633e-14,9.592306554e-15,4.553562753e-14,3.689965979e-14,3.011757595e-14,6.568015199e-14,1.123815080e-13,5.658364681e-14,5.574817549e-14,4.410370213e-14,1.312638969e-14,4.652515587e-14,3.231155529e-14,1.726914152e-14,4.310297820e-14,5.987736866e-14,7.269322515e-14,1.998736081e-14,4.448421142e-14,1.532789123e-13,1.240350973e-14,3.406303170e-15,2.890562586e-14,2.544441241e-14
1.125,1.030854889e-13,1.967844707e-14,1.382544360e-13,2.316075129e-14,3.243556570e-14,5.498349458e-14,5.299625641e-14,1.128241502e-14,1.326928950e-14,1.034729453e-14,4.319863926e-14,3.501472847e-14,3.120722286e-14,6.181675823e-14,1.042639379e-13,5.662582870e-14,5.853428900e-14,4.373469676e-14,1.387278540e-14,4.781452164e-14,3.097871846e-14,1.723306233e-14,4.431695916e-14,5.980887767e-14,7.778349566e-14,2.157795840e-14,5.238365066e-14,1.493690517e-13,1.472209522e-14,3.223184838e-15,2.584271236e-14,2.554673338e-14
1.1328,1.059062728e-13,1.719395178e-14,1.257138038e-13,2.403712980e-14,3.029270163e-14,6.490009283e-14,5.422362139e-14,1.154162288e-14,1.283518805e-14,1.133243989e-14,4.079273402e-14,3.346670370e-14,3.206126305e-14,5.873221434e-14,9.793204365e-14,6.014609130e-14,6.496952550e-14,4.619947615e-14,1.527547181e-14,4.867520649e-14,2.972118315e-14,1.732333703e-14,4.537624586e-14,6.235584392e-14,8.515595368e-14,2.399937776e-14,6.152686262e-14,1.436135057e-13,1.767490390e-14,3.673359403e-15,2.370207137e-14,2.590067383e-14
1.1406,1.111261510e-13,1.642046560e-14,1.167802533e-13,2.629712119e-14,2.901838406e-14,7.525305033e-14,5.470753696e-14,1.223243526e-14,1.274357729e-14,1.233890043e-14,3.882875142e-14,3.234942137e-14,3.263902202e-14,5.708760832e-14,9.463534659e-14,6.790700394e-14,7.566937723e-14,5.205795200e-14,1.735041495e-14,4.869983674e-14,2.862325562e-14,1.772653639e-14,4.636664241e-14,6.847873999e-14,9.441797885e-14,2.728265741e-14,7.190950785e-14,1.371151476e-13,2.177464688e-14,4.834796171e-15,2.309972311e-14,2.650198691e-14
1.1484,1.181155431e-13,1.724101203e-14,1.121029620e-13,2.950950570e-14,2.868372642e-14,8.568145148e-14,5.495266156e-14,1.324924076e-14,1.295898070e-14,1.332463118e-14,3.724836821e-14,3.157462454e-14,3.255407603e-14,5.652922909e-14,9.418109549e-14,7.946001403e-14,9.024342178e-14,6.081170385e-14,1.982009951e-14,4.832731719e-14,2.759862883e-14,1.854006871e-14,4.773915889e-14,7.767468588e-14,1.060279536e-13,3.141667628e-14,8.320195108e-14,1.303632326e-13,2.675525374e-14,6.688259926e-15,2.399034909e-14,2.728482907e-14
1.1562,1.281192667e-13,1.971500640e-14,1.115295294e-13,3.363347472e-14,2.915507776e-14,9.638856993e-14,5.491514194e-14,1.431702451e-14,1.337368263e-14,1.397807620e-14,3.605635760e-14,3.121750225e-14,3.227935991e-14,5.759587608e-14,9.714572437e-14,9.468377690e-14,1.089401814e-13,7.276010691e-14,2.286053367e-14,4.735069377e-14,2.666341702e-14,2.014330971e-14,4.962980508e-14,8.888620655e-14,1.196443169e-13,3.637446987e-14,9.461205538e-14,1.232941630e-13,3.276341367e-14,9.283678102e-15,2.642448926e-14,2.808950263e-14
1.1641,1.407667015e-13,2.403231043e-14,1.143172895e-13,3.897671102e-14,3.097603577e-14,1.078627654e-13,5.473702078e-14,1.537276256e-14,1.402299503e-14,1.417119956e-14,3.556047256e-14,3.135303643e-14,3.220379906e-14,6.087395454e-14,1.049052113e-13,1.143855372e-13,1.330002796e-13,8.860208563e-14,2.668705506e-14,4.603186486e-14,2.635702822e-14,2.265336028e-14,5.240660293e-14,1.024888927e-13,1.343841413e-13,4.222283249e-14,1.061210348e-13,1.157994105e-13,3.981061377e-14,1.275267299e-14,3.085454597e-14,2.920158321e-14
1.1719,1.545887902e-13,3.011933540e-14,1.209650591e-13,4.527601642e-14,3.366769599e-14,1.188961458e-13,5.425522055e-14,1.610451012e-14,1.492664684e-14,1.387978808e-14,3.568109589e-14,3.197218881e-14,3.269833441e-14,6.654142605e-14,1.171944557e-13,1.375747244e-13,1.625736048e-13,1.083400982e-13,3.122249382e-14,4.504136342e-14,2.635142697e-14,2.610775943e-14,5.592500918e-14,1.161110219e-13,1.502325261e-13,4.901291916e-14,1.168179306e-13,1.080104206e-13,4.795629020e-14,1.709968017e-14,3.695381875e-14,3.053989200e-14
1.1797,1.694156770e-13,3.773924255e-14,1.313862179e-13,5.194137780e-14,3.714855588e-14,1.287175411e-13,5.355503325e-14,1.672230264e-14,1.610953859e-14,1.325135653e-14,3.656042699e-14,3.308324273e-14,3.397333924e-14,7.447917608e-14,1.336747977e-13,1.635888277e-13,1.972989679e-13,1.314661519e-13,3.646720687e-14,4.375342862e-14,2.682799822e-14,3.055602110e-14,6.025656502e-14,1.281541296e-13,1.657014702e-13,5.622377156e-14,1.263341496e-13,1.004078785e-13,5.708082825e-14,2.221095191e-14,4.473548159e-14,3.207937613e-14
1.1875,1.832202774e-13,4.634305811e-14,1.451627985e-13,5.846862840e-14,4.144745351e-14,1.377889691e-13,5.291686491e-14,1.728314917e-14,1.758465212e-14,1.248404488e-14,3.841149641e-14,3.448230742e-14,3.581813224e-14,8.386712083e-14,1.530952679e-13,1.905308782e-13,2.363199645e-13,1.571229913e-13,4.214662698e-14,4.225832175e-14,2.778543733e-14,3.578058062e-14,6.447967900e-14,1.361312518e-13,1.816265090e-13,6.394923093e-14,1.356253943e-13,9.338510310e-14,6.717348495e-14,2.794837283e-14,5.396083400e-14,3.427763272e-14
1.1953,1.969066337e-13,5.566866887e-14,1.621997901e-13,6.507230905e-14,4.653671256e-14,1.458169301e-13,5.292125907e-14,1.786116659e-14,1.926940969e-14,1.162996667e-14,4.112289006e-14,3.610880598e-14,3.856604015e-14,9.466465910e-14,1.754024581e-13,2.182857394e-13,2.805236714e-13,1.855151830e-13,4.818431943e-14,4.084851756e-14,2.903479581e-14,4.163467802e-14,6.842146223e-14,1.399647231e-13,1.971718760e-13,7.207019837e-14,1.442216892e-13,8.740261794e-14,7.790535375e-14,3.400854025e-14,6.443570081e-14,3.721930294e-14
1.2031,2.084492358e-13,6.520076528e-14,1.816558094e-13,7.151327889e-14,5.202172407e-14,1.527872139e-13,5.408878630e-14,1.846540355e-14,2.111655981e-14,1.072446270e-14,4.461588664e-14,3.762734064e-14,4.217073132e-14,1.063473799e-13,1.992894990e-13,2.447980168e-13,3.282247240e-13,2.152633860e-13,5.414047719e-14,3.958960490e-14,3.039667115e-14,4.780410174e-14,7.161363197e-14,1.394169447e-13,2.107174728e-13,8.024372251e-14,1.510843659e-13,8.214004984e-14,8.899730064e-14,3.989522904e-14,7.572881222e-14,4.054789267e-14
1.2109,2.157151340e-13,7.415369747e-14,2.035133495e-13,7.735115979e-14,5.767794347e-14,1.566512058e-13,5.622137378e-14,1.912449479e-14,2.323842994e-14,9.732754034e-15,4.868215528e-14,3.885049550e-14,4.649669917e-14,1.179490924e-13,2.221346935e-13,2.678247940e-13,3.764384316e-13,2.440639506e-13,5.959040636e-14,3.886370869e-14,3.176503810e-14,5.383346670e-14,7.384182739e-14,1.343493543e-13,2.217570739e-13,8.759821701e-14,1.560783504e-13,7.778084493e-14,9.991586236e-14,4.501512494e-14,8.696414829e-14,4.402234256e-14
1.2188,2.184347032e-13,8.279656388e-14,2.275696368e-13,8.264013420e-14,6.372775633e-14,1.571593468e-13,5.895707560e-14,1.999973403e-14,2.545860042e-14,8.767386592e-15,5.303657784e-14,3.957808181e-14,5.147723927e-14,1.291102332e-13,2.426022103e-13,2.880696727e-13,4.238760519e-13,2.716319586e-13,6.446300836e-14,3.918684487e-14,3.318942986e-14,5.938337918e-14,7.448637764e-14,1.248223324e-13,2.292130119e-13,9.441535256e-14,1.606196565e-13,7.492080238e-14,1.106563650e-13,4.929494112e-14,9.842082663e-14,4.770511223e-14
1.2266,2.192163933e-13,9.059895894e-14,2.515612228e-13,8.689252709e-14,6.998141934e-14,1.531352394e-13,6.228378148e-14,2.089692810e-14,2.762505140e-14,7.912125594e-15,5.747951700e-14,3.962208910e-14,5.693775260e-14,1.386686626e-13,2.582644747e-13,3.046030959e-13,4.687172569e-13,2.961771565e-13,6.844627566e-14,4.101764599e-14,3.443851612e-14,6.400277861e-14,7.364134160e-14,1.127513067e-13,2.324822535e-13,1.007945421e-13,1.652523406e-13,7.275011871e-14,1.207533428e-13,5.243467122e-14,1.098916047e-13,5.144501399e-14
1.2344,2.202197241e-13,9.759519560e-14,2.746486702e-13,9.037068801e-14,7.635546579e-14,1.457347840e-13,6.618897319e-14,2.169776179e-14,2.996692416e-14,7.087957769e-15,6.216757585e-14,3.912658519e-14,6.277905163e-14,1.465820544e-13,2.689703360e-13,3.175039576e-13,5.091888082e-13,3.174581301e-13,7.161308212e-14,4.528555847e-14,3.569021462e-14,6.772507899e-14,7.156199887e-14,9.989362147e-14,2.315654637e-13,1.067956853e-13,1.699817690e-13,7.079197843e-14,1.295213744e-13,5.440627817e-14,1.212010247e-13,5.537427380e-14
1.2422,2.217379500e-13,1.039210015e-13,2.949732424e-13,9.336135369e-14,8.273456167e-14,1.349279761e-13,7.013721454e-14,2.257205537e-14,3.255703202e-14,6.385256931e-15,6.694152877e-14,3.835308936e-14,6.896591004e-14,1.528734134e-13,2.739808258e-13,3.273586467e-13,5.432598213e-13,3.351846724e-13,7.398717924e-14,5.314999905e-14,3.677829966e-14,7.049307754e-14,6.844685670e-14,8.874142347e-14,2.252099573e-13,1.119275312e-13,1.741603419e-13,6.937454660e-14,1.366123297e-13,5.527742305e-14,1.321083610e-13,5.907194255e-14
1.25,2.258360837e-13,1.100074245e-13,3.114510155e-13,9.589158298e-14,8.910675848e-14,1.215275290e-13,7.354337505e-14,2.352587339e-14,3.517784732e-14,5.916314873e-15,7.164955998e-14,3.753887046e-14,7.516985279e-14,1.573395750e-13,2.735194050e-13,3.350097534e-13,5.706839981e-13,3.495113344e-13,7.602892824e-14,6.497675327e-14,3.809234393e-14,7.241155589e-14,6.458239460e-14,7.920807678e-14,2.160104101e-13,1.161844421e-13,1.778571613e-13,6.835837312e-14,1.418222322e-13,5.533766492e-14,1.429996112e-13,6.215149150e-14
1.2578,2.326444361e-13,1.160453472e-13,3.218026892e-13,9.841210364e-14,9.588753607e-14,1.068068766e-13,7.561522827e-14,2.495558307e-14,3.755438970e-14,5.659653644e-15,7.628357582e-14,3.651266099e-14,8.095065278e-14,1.595226366e-13,2.683007039e-13,3.415059664e-13,5.917912431e-13,3.602698921e-13,7.792390363e-14,8.160581653e-14,3.998032355e-14,7.351461861e-14,6.004424736e-14,7.198371354e-14,2.042884009e-13,1.197844516e-13,1.810733506e-13,6.783651216e-14,1.448925053e-13,5.486607580e-14,1.542409492e-13,6.478310992e-14
1.2656,2.415026795e-13,1.217214072e-13,3.242709914e-13,1.008784873e-13,1.029378632e-13,9.254093005e-14,7.631331069e-14,2.684734968e-14,3.952728611e-14,5.609035874e-15,8.050581149e-14,3.533774031e-14,8.564131063e-14,1.582992442e-13,2.580723940e-13,3.468553651e-13,6.063856457e-13,3.671489306e-13,7.957739776e-14,1.025489493e-13,4.250862687e-14,7.362429005e-14,5.507741819e-14,6.615926528e-14,1.913008117e-13,1.227825238e-13,1.826038524e-13,6.755839146e-14,1.458742616e-13,5.403921749e-14,1.657231567e-13,6.716978639e-14
1.2734,2.516012878e-13,1.276281064e-13,3.205303153e-13,1.041333441e-13,1.103162774e-13,7.985407865e-14,7.557612183e-14,2.915331354e-14,4.121995393e-14,5.712306160e-15,8.434794065e-14,3.414985628e-14,8.905092180e-14,1.542601872e-13,2.449714102e-13,3.511550452e-13,6.142716819e-13,3.707710585e-13,8.144994750e-14,1.275518433e-13,4.616262512e-14,7.307384831e-14,5.033271623e-14,6.092079380e-14,1.789546746e-13,1.255497490e-13,1.823869671e-13,6.742543634e-14,1.453612342e-13,5.286827805e-14,1.776930711e-13,6.988121820e-14
1.2812,2.616440802e-13,1.329583748e-13,3.121318577e-13,1.079487209e-13,1.173685803e-13,6.988740959e-14,7.314700711e-14,3.161057212e-14,4.266460425e-14,6.003024088e-15,8.749385952e-14,3.282822275e-14,9.086630475e-14,1.472358525e-13,2.297435086e-13,3.532081606e-13,6.146195172e-13,3.710830318e-13,8.305137423e-14,1.548797097e-13,5.021001626e-14,7.153987516e-14,4.591324127e-14,5.640154612e-14,1.661850363e-13,1.276740928e-13,1.791271983e-13,6.800948376e-14,1.435233695e-13,5.125930266e-14,1.889053574e-13,7.276819314e-14
1.2891,2.722809555e-13,1.374730375e-13,3.013299091e-13,1.117987381e-13,1.231646353e-13,6.221819805e-14,6.909737781e-14,3.386897294e-14,4.375881885e-14,6.581785640e-15,8.985130522e-14,3.139215391e-14,9.078275558e-14,1.376400027e-13,2.133981242e-13,3.516233458e-13,6.077038522e-13,3.686300322e-13,8.414858173e-14,1.826822899e-13,5.482978813e-14,6.905452569e-14,4.236783733e-14,5.177217440e-14,1.547001090e-13,1.287707233e-13,1.724149912e-13,7.027561983e-14,1.404628289e-13,4.919868243e-14,1.983265729e-13,7.537769166e-14
1.2969,2.817334733e-13,1.408345337e-13,2.890749309e-13,1.158819097e-13,1.275998114e-13,5.727502330e-14,6.309724304e-14,3.583572482e-14,4.446322080e-14,7.471864186e-15,9.132471576e-14,2.997101146e-14,8.876975159e-14,1.259036327e-13,1.963868112e-13,3.459766851e-13,5.940563103e-13,3.636244475e-13,8.477569880e-14,2.093328030e-13,5.956977066e-14,6.568402888e-14,4.005712490e-14,4.734274792e-14,1.430431406e-13,1.286550538e-13,1.628592024e-13,7.447253564e-14,1.369203136e-13,4.671523942e-14,2.052730959e-13,7.767575521e-14
1.3047,2.878863476e-13,1.428307402e-13,2.773381432e-13,1.195310540e-13,1.300870286e-13,5.491099128e-14,5.607012137e-14,3.699852022e-14,4.483224809e-14,8.660601170e-15,9.148514105e-14,2.856175428e-14,8.484126163e-14,1.124015971e-13,1.791429198e-13,3.360033604e-13,5.737358856e-13,3.549195432e-13,8.483992202e-14,2.323752237e-13,6.403853680e-14,6.127356491e-14,3.881657761e-14,4.337565234e-14,1.319458537e-13,1.274663908e-13,1.517459978e-13,8.125415221e-14,1.328567238e-13,4.403805218e-14,2.089108395e-13,7.943603712e-14
1.3125,2.887632663e-13,1.424109579e-13,2.680368277e-13,1.215387026e-13,1.301932619e-13,5.393838887e-14,4.856939044e-14,3.716239137e-14,4.501898500e-14,1.005984236e-14,8.986003083e-14,2.715785328e-14,7.932258434e-14,9.820829684e-14,1.625345086e-13,3.227798150e-13,5.469761078e-13,3.414389598e-13,8.413716927e-14,2.496265937e-13,6.744614489e-14,5.585229393e-14,3.874154332e-14,4.037877794e-14,1.202347870e-13,1.253307695e-13,1.404024692e-13,9.090059082e-14,1.279554880e-13,4.112868126e-14,2.084031018e-13,8.075490244e-14
1.3203,2.839909390e-13,1.394508838e-13,2.623582318e-13,1.220128023e-13,1.279655656e-13,5.346231214e-14,4.086673315e-14,3.626941857e-14,4.523507348e-14,1.180515096e-14,8.637919550e-14,2.574261803e-14,7.249942417e-14,8.411593304e-14,1.463498521e-13,3.061953929e-13,5.143101009e-13,3.235289104e-13,8.247912923e-14,2.598278832e-13,6.955461817e-14,4.972575529e-14,3.998424335e-14,3.920131547e-14,1.079974384e-13,1.222021552e-13,1.296179036e-13,1.041848909e-13,1.214811019e-13,3.803012956e-14,2.035271494e-13,8.146556132e-14
1.3281,2.750294410e-13,1.339574695e-13,2.607819510e-13,1.205325610e-13,1.232502237e-13,5.288091296e-14,3.349893498e-14,3.474680112e-14,4.555624881e-14,1.381958683e-14,8.097314713e-14,2.454645710e-14,6.516123063e-14,7.132137067e-14,1.309316599e-13,2.867526626e-13,4.756328441e-13,3.016639855e-13,7.955977955e-14,2.616652889e-13,7.009408807e-14,4.316612599e-14,4.211629876e-14,4.061679295e-14,9.614097580e-14,1.176606991e-13,1.191890079e-13,1.211111516e-13,1.131782447e-13,3.486302052e-14,1.941557313e-13,8.118007512e-14
1.3359,2.628812439e-13,1.264894456e-13,2.630953168e-13,1.175096800e-13,1.169808292e-13,5.240990658e-14,2.648761541e-14,3.288567583e-14,4.609064159e-14,1.604512944e-14,7.388133303e-14,2.386893153e-14,5.788756477e-14,6.064451183e-14,1.168010621e-13,2.656329908e-13,4.332719093e-13,2.776336532e-13,7.579354058e-14,2.554208425e-13,6.931893960e-14,3.668148194e-14,4.514854838e-14,4.516926339e-14,8.486519653e-14,1.116832134e-13,1.087178375e-13,1.420681715e-13,1.031808799e-13,3.159442980e-14,1.812611116e-13,8.008548920e-14
1.3438,2.483911713e-13,1.176708623e-13,2.674778916e-13,1.130494894e-13,1.097436292e-13,5.152019751e-14,2.030297915e-14,3.090740816e-14,4.656218147e-14,1.819372351e-14,6.592552165e-14,2.375238325e-14,5.100319673e-14,5.213063680e-14,1.041915263e-13,2.437319044e-13,3.885411266e-13,2.520797141e-13,7.141131287e-14,2.425042297e-13,6.769641801e-14,3.064264605e-14,4.875287371e-14,5.336174743e-14,7.550755017e-14,1.046650234e-13,9.854338221e-14,1.664841847e-13,9.173957350e-14,2.845751103e-14,1.660856027e-13,7.806461838e-14
1.3516,2.315519149e-13,1.081716373e-13,2.732082700e-13,1.077812542e-13,1.021467645e-13,5.062575642e-14,1.518632139e-14,2.905427436e-14,4.673452814e-14,2.017416657e-14,5.743555081e-14,2.409303099e-14,4.497368966e-14,4.611464478e-14,9.404249740e-14,2.230967868e-13,3.427428891e-13,2.254278842e-13,6.684375821e-14,2.238105349e-13,6.590024225e-14,2.518605664e-14,5.284731428e-14,6.545221303e-14,6.864805063e-14,9.647780309e-14,8.902900924e-14,1.933915946e-13,7.965379647e-14,2.539250382e-14,1.500236755e-13,7.512420789e-14
1.3594,2.110729842e-13,9.845988397e-14,2.781838750e-13,1.019471668e-13,9.437389658e-14,4.974065018e-14,1.118689040e-14,2.738119390e-14,4.634776284e-14,2.208720373e-14,4.876713073e-14,2.456697195e-14,3.986325365e-14,4.203110264e-14,8.598731829e-14,2.037531958e-13,2.965009176e-13,1.977889419e-13,6.182294069e-14,2.010052502e-13,6.430374944e-14,2.043127483e-14,5.733526796e-14,8.100686759e-14,6.515222453e-14,8.743137200e-14,8.084396631e-14,2.205547971e-13,6.742258686e-14,2.248628362e-14,1.340341688e-13,7.134447446e-14
1.3672,1.886278755e-13,8.882474083e-14,2.799943642e-13,9.624844005e-14,8.700487811e-14,4.928481660e-14,8.407127388e-15,2.604894283e-14,4.543078721e-14,2.383520596e-14,4.060755002e-14,2.527426624e-14,3.571450740e-14,3.972670544e-14,8.016556300e-14,1.861593981e-13,2.502217195e-13,1.705004327e-13,5.656780801e-14,1.764849628e-13,6.342532319e-14,1.664079497e-14,6.229930982e-14,1.016843117e-13,6.525843079e-14,7.766895162e-14,7.412110184e-14,2.455945483e-13,5.602821265e-14,1.962233037e-14,1.192413496e-13,6.703056290e-14
1.375,1.651287415e-13,7.996178147e-14,2.773245427e-13,9.137936519e-14,8.021140009e-14,4.975010081e-14,6.725445882e-15,2.505319387e-14,4.373430909e-14,2.539476505e-14,3.354878273e-14,2.599653644e-14,3.253840513e-14,3.867015361e-14,7.690557664e-14,1.716437599e-13,2.069416565e-13,1.454555389e-13,5.159681900e-14,1.523463130e-13,6.348751443e-14,1.378705564e-14,6.720644737e-14,1.268130567e-13,6.970704961e-14,6.775679189e-14,6.927984297e-14,2.667859643e-13,4.619032512e-14,1.705415975e-14,1.062690957e-13,6.231398708e-14
1.3828,1.413039017e-13,7.169563511e-14,2.694639202e-13,8.742145704e-14,7.398036595e-14,5.121978666e-14,5.856960232e-15,2.433296143e-14,4.136051559e-14,2.672814507e-14,2.803451139e-14,2.673572766e-14,3.011773239e-14,3.833720864e-14,7.537406090e-14,1.588856414e-13,1.669288014e-13,1.224044967e-13,4.703633083e-14,1.303495135e-13,6.427041187e-14,1.189415550e-14,7.182000872e-14,1.564588648e-13,7.878710998e-14,5.781248701e-14,6.615116957e-14,2.811465879e-13,3.787243859e-14,1.486649089e-14,9.496302051e-14,5.732976836e-14
1.3906,1.186142826e-13,6.501750362e-14,2.548135589e-13,8.595819167e-14,6.899662798e-14,5.382721959e-14,5.654604303e-15,2.386901562e-14,3.839865871e-14,2.774355661e-14,2.418668648e-14,2.711147465e-14,2.840872521e-14,3.812198104e-14,7.552065649e-14,1.486872688e-13,1.321822662e-13,1.025198285e-13,4.354389708e-14,1.119592611e-13,6.582422693e-14,1.094957763e-14,7.577369463e-14,1.889537267e-13,9.185511950e-14,4.818536939e-14,6.501616158e-14,2.873767248e-13,3.149183021e-14,1.298750780e-14,8.582414008e-14,5.230487083e-14
1.3984,9.737456347e-14,6.027836993e-14,2.337677357e-13,8.793803232e-14,6.592700233e-14,5.743914849e-14,5.967466704e-15,2.352283281e-14,3.539082331e-14,2.843852737e-14,2.175191491e-14,2.704320886e-14,2.735843497e-14,3.737483913e-14,7.569787083e-14,1.393769360e-13,1.035052106e-13,8.580353730e-14,4.104966379e-14,9.823348101e-14,6.812368839e-14,1.073877877e-14,7.838778958e-14,2.226602994e-13,1.088605543e-13,3.969509710e-14,6.600540320e-14,2.846446580e-13,2.689368909e-14,1.152315817e-14,7.901626861e-14,4.782592042e-14
1.4062,7.912476072e-14,5.772160933e-14,2.094626814e-13,9.381776715e-14,6.487216280e-14,6.131753658e-14,6.529612901e-15,2.318123163e-14,3.270109463e-14,2.875803633e-14,2.080868515e-14,2.670131069e-14,2.682627099e-14,3.648998881e-14,7.584262776e-14,1.296560487e-13,7.955070187e-14,7.166667217e-14,3.962126638e-14,8.866112925e-14,7.080418458e-14,1.135665259e-14,7.973511037e-14,2.551391572e-13,1.268261176e-13,3.209981308e-14,6.914915282e-14,2.729438234e-13,2.378294628e-14,1.034337654e-14,7.399372983e-14,4.405344800e-14
1.4141,6.510482378e-14,5.736232204e-14,1.835614805e-13,1.035216572e-13,6.573564061e-14,6.572068176e-14,7.107467679e-15,2.286300901e-14,3.053796309e-14,2.852235976e-14,2.129883893e-14,2.620791657e-14,2.677554074e-14,3.561723279e-14,7.601943787e-14,1.205229807e-13,6.141780789e-14,6.071844508e-14,3.924536221e-14,8.280015149e-14,7.288730632e-14,1.257170880e-14,7.925709881e-14,2.846421474e-13,1.448254486e-13,2.582637009e-14,7.398862591e-14,2.554107399e-13,2.193267243e-14,9.567425800e-15,7.040031747e-14,4.120708339e-14
1.4219,5.515285880e-14,5.876034116e-14,1.583280903e-13,1.168726790e-13,6.773223330e-14,7.038827086e-14,7.937535527e-15,2.231260165e-14,2.902530456e-14,2.785167640e-14,2.279331202e-14,2.564285717e-14,2.705633732e-14,3.491754064e-14,7.573803392e-14,1.110344003e-13,4.800204385e-14,5.211418082e-14,3.957466764e-14,7.916195230e-14,7.322475095e-14,1.415717709e-14,7.674894262e-14,3.076502268e-13,1.596928638e-13,2.093295453e-14,7.894293645e-14,2.334197455e-13,2.085205485e-14,9.015905918e-15,6.755833743e-14,3.922627927e-14
1.4297,4.879539701e-14,6.135837320e-14,1.342937097e-13,1.322715321e-13,7.032516283e-14,7.497630975e-14,8.907040782e-15,2.152355130e-14,2.828390865e-14,2.666579967e-14,2.496016476e-14,2.523427909e-14,2.761319931e-14,3.463434212e-14,7.463400852e-14,1.009129210e-13,3.780616693e-14,4.504851230e-14,4.038052448e-14,7.713626491e-14,7.170601250e-14,1.606831739e-14,7.250522033e-14,3.242639665e-13,1.710805952e-13,1.727343070e-14,8.249679523e-14,2.089759070e-13,2.035231711e-14,8.787730329e-15,6.511479499e-14,3.781219362e-14
1.4375,4.508325879e-14,6.443896640e-14,1.137476712e-13,1.490680745e-13,7.347720874e-14,8.024957430e-14,1.010088510e-14,2.064388348e-14,2.806836284e-14,2.502619479e-14,2.765516980e-14,2.479101359e-14,2.823171610e-14,3.425184989e-14,7.239481041e-14,9.016166998e-14,3.066851920e-14,3.932603981e-14,4.110746164e-14,7.530664438e-14,6.874568653e-14,1.801967998e-14,6.668090007e-14,3.330010394e-13,1.762025876e-13,1.493154332e-14,8.406117778e-14,1.831716209e-13,2.051486031e-14,8.819322990e-15,6.302633154e-14,3.688651971e-14
1.4453,4.297883873e-14,6.781371644e-14,9.687694068e-14,1.659916287e-13,7.682147254e-14,8.550773734e-14,1.170233437e-14,1.974525118e-14,2.824437623e-14,2.309860966e-14,3.105560263e-14,2.452945676e-14,2.881510664e-14,3.438466048e-14,6.994842494e-14,7.960654969e-14,2.572356493e-14,3.473009114e-14,4.149339816e-14,7.320102225e-14,6.481398784e-14,2.007135891e-14,5.987493591e-14,3.342518925e-13,1.766714244e-13,1.367054356e-14,8.418704670e-14,1.572582074e-13,2.114202492e-14,9.071984229e-15,6.100174029e-14,3.606220533e-14
1.4531,4.123666024e-14,7.162444523e-14,8.410090778e-14,1.812927179e-13,7.951931853e-14,9.078622026e-14,1.371846960e-14,1.884476535e-14,2.857404556e-14,2.121164952e-14,3.492073250e-14,2.471340077e-14,2.939898649e-14,3.531666990e-14,6.771858977e-14,7.010734776e-14,2.225589874e-14,3.117146630e-14,4.105607505e-14,6.909314002e-14,5.957215337e-14,2.210952275e-14,5.274793474e-14,3.268151500e-13,1.702566313e-13,1.321009432e-14,8.180216912e-14,1.332678580e-13,2.210221192e-14,9.648654781e-15,5.849984668e-14,3.483140290e-14
1.4609,4.013058487e-14,7.471049416e-14,7.482213527e-14,1.922739565e-13,8.071285209e-14,9.485462371e-14,1.648665042e-14,1.784580019e-14,2.894465266e-14,1.954602679e-14,3.862462462e-14,2.531191802e-14,2.977808204e-14,3.656319274e-14,6.522922265e-14,6.159621664e-14,1.982790786e-14,2.813367256e-14,3.963196318e-14,6.353111044e-14,5.347187236e-14,2.379627599e-14,4.538070803e-14,3.120867024e-13,1.600763066e-13,1.355923494e-14,7.673335378e-14,1.128158025e-13,2.347285718e-14,1.046394284e-14,5.549072400e-14,3.327615243e-14
1.4688,3.921766678e-14,7.649573403e-14,6.921994789e-14,1.968957144e-13,7.956975536e-14,9.696971842e-14,1.986595655e-14,1.668125354e-14,2.905741921e-14,1.832274272e-14,4.224987438e-14,2.629252692e-14,2.978104249e-14,3.781485966e-14,6.274764009e-14,5.466401465e-14,1.849471761e-14,2.561197735e-14,3.714421089e-14,5.673911996e-14,4.685498263e-14,2.494930952e-14,3.862270415e-14,2.910441272e-13,1.465514588e-13,1.447336565e-14,6.941534601e-14,9.548198591e-14,2.536526927e-14,1.143095420e-14,5.198664866e-14,3.101422575e-14
1.4766,3.937125843e-14,7.617492720e-14,6.620776069e-14,1.941550747e-13,7.618756216e-14,9.631256917e-14,2.347952761e-14,1.541262546e-14,2.860639379e-14,1.772213665e-14,4.549274810e-14,2.773701292e-14,2.906346289e-14,3.877157256e-14,6.014581849e-14,4.875348465e-14,1.799682458e-14,2.353841828e-14,3.392062704e-14,4.897459185e-14,4.048071129e-14,2.538762142e-14,3.261951434e-14,2.662286301e-13,1.319565417e-13,1.593412428e-14,6.160278495e-14,8.124536872e-14,2.805687805e-14,1.245374952e-14,4.845819211e-14,2.806240831e-14
1.4844,4.036994255e-14,7.390956050e-14,6.553952483e-14,1.856729021e-13,7.149340773e-14,9.370191919e-14,2.711420787e-14,1.416187150e-14,2.757448645e-14,1.780568923e-14,4.848819633e-14,2.957709823e-14,2.767107478e-14,3.944054736e-14,5.769959919e-14,4.396275140e-14,1.838595688e-14,2.216670496e-14,3.042624200e-14,4.151999942e-14,3.482749084e-14,2.522980663e-14,2.747736631e-14,2.406029759e-13,1.180063190e-13,1.780110018e-14,5.459678769e-14,7.040007948e-14,3.115712435e-14,1.345317722e-14,4.525580802e-14,2.475024307e-14
1.4922,4.216002786e-14,6.990179802e-14,6.720294534e-14,1.716982103e-13,6.514371659e-14,8.900354506e-14,3.071449147e-14,1.282915780e-14,2.581600785e-14,1.869303845e-14,5.126546780e-14,3.179240620e-14,2.561177052e-14,3.965188959e-14,5.522724720e-14,4.010397248e-14,1.987234665e-14,2.151460626e-14,2.656908475e-14,3.394213833e-14,2.962630554e-14,2.443258138e-14,2.334387577e-14,2.140265167e-13,1.054348142e-13,1.967312888e-14,4.855724118e-14,6.277062756e-14,3.479990361e-14,1.434336363e-14,4.211757795e-14,2.090790063e-14
1.5,4.468738520e-14,6.454038836e-14,7.070275893e-14,1.529038130e-13,5.787978710e-14,8.214677759e-14,3.379305713e-14,1.152680803e-14,2.367256502e-14,2.022567833e-14,5.314527858e-14,3.424310418e-14,2.304990852e-14,3.944868101e-14,5.225711851e-14,3.642981514e-14,2.222424118e-14,2.139508410e-14,2.280112771e-14,2.744562184e-14,2.529524234e-14,2.313337115e-14,2.065482019e-14,1.901579087e-13,9.537137763e-14,2.144061642e-14,4.421328567e-14,5.844240655e-14,3.872939969e-14,1.520550224e-14,3.956146423e-14,1.699133322e-14
1.5078,4.810699055e-14,5.815832762e-14,7.550788976e-14,1.314261588e-13,5.021232334e-14,7.505272736e-14,3.584974885e-14,1.041541845e-14,2.142170100e-14,2.229357507e-14,5.359369782e-14,3.664694963e-14,2.032152721e-14,3.880012164e-14,4.908632222e-14,3.309096121e-14,2.564907859e-14,2.200505098e-14,1.936844350e-14,2.236947042e-14,2.164686352e-14,2.151383591e-14,1.953607084e-14,1.692836599e-13,8.875363678e-14,2.275784764e-14,4.143838846e-14,5.724029525e-14,4.253628686e-14,1.592881447e-14,3.729415647e-14,1.336245453e-14
1.5156,5.204167709e-14,5.135093961e-14,8.237549641e-14,1.085989285e-13,4.237851488e-14,6.839275463e-14,3.665380826e-14,9.693993497e-15,1.915103998e-14,2.472502335e-14,5.259507486e-14,3.864831280e-14,1.754017799e-14,3.773298243e-14,4.579649977e-14,2.992761334e-14,2.982806427e-14,2.336081852e-14,1.635310503e-14,1.833395848e-14,1.837463833e-14,1.989942639e-14,2.018727831e-14,1.518040978e-13,8.514089090e-14,2.327120780e-14,3.960778596e-14,5.887580803e-14,4.551613877e-14,1.663178776e-14,3.513710857e-14,1.015582047e-14
1.5234,5.561087040e-14,4.475759888e-14,9.202547330e-14,8.715825332e-14,3.517341722e-14,6.305987399e-14,3.635260262e-14,9.584156492e-15,1.711000751e-14,2.731854577e-14,5.045346452e-14,3.981610893e-14,1.494194427e-14,3.630088279e-14,4.205859147e-14,2.675046081e-14,3.491542405e-14,2.564681774e-14,1.411992427e-14,1.523965192e-14,1.550482627e-14,1.862640088e-14,2.297343636e-14,1.379216185e-13,8.418604512e-14,2.287378850e-14,3.819311671e-14,6.419110417e-14,4.731272594e-14,1.727758888e-14,3.317428856e-14,7.625524388e-15
1.5312,5.816254969e-14,3.868468863e-14,1.056144955e-13,6.832940133e-14,2.904743837e-14,6.015220772e-14,3.538683511e-14,1.028488235e-14,1.538642901e-14,2.988400923e-14,4.746422452e-14,4.023920271e-14,1.273339824e-14,3.466480378e-14,3.816002673e-14,2.356743938e-14,4.040490561e-14,2.878590531e-14,1.279745676e-14,1.251202841e-14,1.298490601e-14,1.786580072e-14,2.747341835e-14,1.253051902e-13,8.473675273e-14,2.173109884e-14,3.716043371e-14,7.173470084e-14,4.791351661e-14,1.807988088e-14,3.123004155e-14,5.573730086e-15
1.5391,5.992163369e-14,3.371257386e-14,1.235940879e-13,5.317389197e-14,2.455169901e-14,5.919531198e-14,3.411037649e-14,1.184237773e-14,1.420692423e-14,3.224339306e-14,4.374902097e-14,4.006002893e-14,1.108950667e-14,3.276497532e-14,3.425598849e-14,2.061975729e-14,4.580760137e-14,3.251807730e-14,1.235498216e-14,1.004743732e-14,1.076816530e-14,1.776623052e-14,3.350389573e-14,1.141729575e-13,8.568638916e-14,1.989276856e-14,3.630589102e-14,8.164980314e-14,4.723627311e-14,1.901151613e-14,2.936425986e-14,4.096672804e-15
1.5469,6.094162800e-14,3.050303917e-14,1.475783548e-13,4.295040054e-14,2.186998225e-14,6.072770516e-14,3.277245253e-14,1.456307153e-14,1.356519691e-14,3.443168869e-14,3.966594311e-14,3.952306634e-14,1.005242417e-14,3.066772513e-14,3.026064439e-14,1.790594026e-14,5.058971284e-14,3.682734754e-14,1.279582856e-14,7.874255774e-15,8.919638510e-15,1.840408910e-14,4.043852302e-14,1.033185053e-13,8.651972518e-14,1.780487883e-14,3.557891872e-14,9.381039738e-14,4.543585842e-14,1.998666862e-14,2.772274156e-14,3.144970335e-15
1.5547,6.140249088e-14,2.923997856e-14,1.777970850e-13,3.763205447e-14,2.081860905e-14,6.334958523e-14,3.172519359e-14,1.848551814e-14,1.330377436e-14,3.627940698e-14,3.569490384e-14,3.843384429e-14,9.562133566e-15,2.830086087e-14,2.624899700e-14,1.549710416e-14,5.474296882e-14,4.166421874e-14,1.389010230e-14,5.900003684e-15,7.381363261e-15,1.961399339e-14,4.727576416e-14,9.271939517e-14,8.599710939e-14,1.558947469e-14,3.476253550e-14,1.066642397e-13,4.256621000e-14,2.106486540e-14,2.629591335e-14,2.602270500e-15
1.5625,6.154755848e-14,2.973384958e-14,2.167930140e-13,3.799383458e-14,2.175299223e-14,6.708190796e-14,3.113630751e-14,2.378221289e-14,1.347411181e-14,3.770224056e-14,3.258613176e-14,3.689017402e-14,9.568058512e-15,2.565442474e-14,2.215627447e-14,1.348649457e-14,5.807580146e-14,4.668682916e-14,1.569346633e-14,4.310463051e-15,6.169798986e-15,2.121543726e-14,5.347878302e-14,8.307095354e-14,8.426751407e-14,1.343265715e-14,3.390910774e-14,1.204136386e-13,3.894594047e-14,2.212416028e-14,2.540237864e-14,2.451534249e-15
1.5703,6.180123207e-14,3.127055422e-14,2.629783070e-13,4.402527015e-14,2.464894141e-14,7.078368093e-14,3.106613160e-14,3.015523605e-14,1.396488698e-14,3.874920461e-14,3.059817154e-14,3.544979268e-14,9.965025864e-15,2.288279633e-14,1.837956353e-14,1.217784775e-14,6.073519147e-14,5.159802419e-14,1.800292890e-14,3.303192587e-15,5.415049390e-15,2.273406878e-14,5.786329833e-14,7.439918999e-14,8.145879813e-14,1.158245520e-14,3.296087928e-14,1.332382838e-13,3.523612617e-14,2.305726309e-14,2.517410492e-14,2.724570832e-15
1.5781,6.220777404e-14,3.325654771e-14,3.147154111e-13,5.501326996e-14,2.949008544e-14,7.448255403e-14,3.103796601e-14,3.761278246e-14,1.464712968e-14,3.937075533e-14,2.990709301e-14,3.430852733e-14,1.067256173e-14,2.011952587e-14,1.478910493e-14,1.165689166e-14,6.272558173e-14,5.655946670e-14,2.065361370e-14,2.979155341e-15,5.031032586e-15,2.386046344e-14,6.082058206e-14,6.797391812e-14,7.996719207e-14,1.002821351e-14,3.193163733e-14,1.448699981e-13,3.128367504e-14,2.391572921e-14,2.556887705e-14,3.333729003e-15
1.5859,6.231373235e-14,3.568813616e-14,3.675482538e-13,7.115155762e-14,3.629918673e-14,7.811398850e-14,3.105318566e-14,4.598473939e-14,1.541325924e-14,3.939701775e-14,3.038736311e-14,3.354722435e-14,1.157977386e-14,1.768384598e-14,1.174958335e-14,1.213039446e-14,6.445853190e-14,6.177841220e-14,2.341076312e-14,3.296081571e-15,5.113575941e-15,2.432830181e-14,6.174543457e-14,6.374559860e-14,8.071867506e-14,8.741851395e-15,3.084254194e-14,1.545935231e-13,2.709908125e-14,2.457785878e-14,2.667198189e-14,4.363272765e-15
1.5938,6.224195985e-14,3.837116287e-14,4.161581525e-13,9.167869121e-14,4.457371660e-14,8.166021287e-14,3.078274569e-14,5.489075126e-14,1.601163670e-14,3.871514745e-14,3.190913690e-14,3.259360360e-14,1.243014882e-14,1.549295461e-14,9.318677660e-15,1.380429742e-14,6.623368515e-14,6.728316344e-14,2.599489856e-14,4.419870675e-15,5.676518887e-15,2.407034188e-14,6.112956902e-14,6.418782734e-14,8.462129570e-14,7.794342560e-15,2.939997543e-14,1.617512649e-13,2.312914105e-14,2.500772322e-14,2.830136829e-14,5.712251830e-15
1.6016,6.081810020e-14,4.096648053e-14,4.555963023e-13,1.162335645e-13,5.435506953e-14,8.570449093e-14,3.016720112e-14,6.383314135e-14,1.643090746e-14,3.716290489e-14,3.419923539e-14,3.159812593e-14,1.310929620e-14,1.382594638e-14,7.369981905e-15,1.652043351e-14,6.803982723e-14,7.281242161e-14,2.820180442e-14,6.453296617e-15,6.750402048e-15,2.311930845e-14,5.946067249e-14,6.972235310e-14,9.269884697e-14,7.115660448e-15,2.754534041e-14,1.670620510e-13,1.937842315e-14,2.517372718e-14,3.039744717e-14,7.361095791e-15
1.6094,5.844087720e-14,4.258570542e-14,4.805742659e-13,1.441723607e-13,6.543300628e-14,9.103659501e-14,2.957329924e-14,7.225317020e-14,1.658784679e-14,3.484894679e-14,3.691776164e-14,3.065433395e-14,1.357171250e-14,1.279496927e-14,6.136738385e-15,2.049632615e-14,7.023233804e-14,7.867428372e-14,3.015384997e-14,9.673054432e-15,8.420623289e-15,2.137911778e-14,5.733103795e-14,8.243832356e-14,1.042634456e-13,6.739373622e-15,2.533146679e-14,1.710188240e-13,1.598209262e-14,2.498723660e-14,3.297045267e-14,9.266101193e-15
1.6172,5.477329118e-14,4.357677327e-14,4.870831313e-13,1.741573895e-13,7.715613902e-14,9.808015590e-14,2.971297516e-14,7.989791884e-14,1.647645014e-14,3.201637956e-14,3.977515937e-14,2.989669614e-14,1.383435104e-14,1.243278106e-14,5.573857057e-15,2.542729710e-14,7.186066983e-14,8.415746611e-14,3.193169415e-14,1.398791516e-14,1.058393657e-14,1.917955745e-14,5.517488344e-14,1.036446257e-13,1.179661868e-13,6.647801086e-15,2.310699428e-14,1.749824322e-13,1.309000471e-14,2.437481536e-14,3.583304922e-14,1.126245868e-14
1.625,4.985465879e-14,4.438181894e-14,4.738683720e-13,2.065047351e-13,8.919405773e-14,1.075488290e-13,3.098309286e-14,8.669958025e-14,1.607078918e-14,2.889306591e-14,4.249154296e-14,2.896171871e-14,1.392907239e-14,1.258313831e-14,5.670428068e-15,3.071854555e-14,7.237948532e-14,8.881061963e-14,3.346898876e-14,1.984724564e-14,1.320357333e-14,1.688936487e-14,5.380301611e-14,1.343399054e-13,1.320960135e-13,6.828624027e-15,2.109928637e-14,1.786469190e-13,1.085047476e-14,2.327630261e-14,3.913135548e-14,1.335114581e-14
1.6328,4.360086047e-14,4.511368873e-14,4.439312334e-13,2.411354004e-13,1.012024104e-13,1.197577679e-13,3.370884059e-14,9.228379062e-14,1.547777543e-14,2.544770536e-14,4.511999657e-14,2.779194490e-14,1.375198963e-14,1.314946340e-14,6.457075719e-15,3.607800781e-14,7.156506244e-14,9.251561110e-14,3.482527341e-14,2.739838918e-14,1.599108961e-14,1.468284601e-14,5.320025152e-14,1.745005206e-13,1.437818450e-13,7.203335906e-15,1.914254841e-14,1.821535609e-13,9.332775522e-15,2.182631117e-14,4.277124085e-14,1.534732494e-14
1.6406,3.746102018e-14,4.593507080e-14,4.035772477e-13,2.781777172e-13,1.127404748e-13,1.345324660e-13,3.792609251e-14,9.693889478e-14,1.486900385e-14,2.201541008e-14,4.772244497e-14,2.670029905e-14,1.356677409e-14,1.412557918e-14,7.948865156e-15,4.130605774e-14,6.951784122e-14,9.485554239e-14,3.605310339e-14,3.673078023e-14,1.894899374e-14,1.269001839e-14,5.328545391e-14,2.225190509e-13,1.523526121e-13,7.772876412e-15,1.746539375e-14,1.859947769e-13,8.478570110e-15,2.021155236e-14,4.667462551e-14,1.715703591e-14
1.6484,3.225008308e-14,4.674936047e-14,3.604200341e-13,3.170750565e-13,1.230949160e-13,1.512826357e-13,4.390558633e-14,1.007750568e-13,1.426450871e-14,1.899058215e-14,5.017086979e-14,2.599020990e-14,1.342318817e-14,1.533283785e-14,1.021265673e-14,4.605394540e-14,6.634017555e-14,9.529425032e-14,3.691644572e-14,4.744542972e-14,2.181019287e-14,1.110504758e-14,5.417615617e-14,2.753470113e-13,1.558787031e-13,8.450824463e-15,1.641649796e-14,1.898021586e-13,8.324993712e-15,1.850765546e-14,5.068417301e-14,1.884846892e-14
1.6562,2.793280377e-14,4.785022732e-14,3.201683646e-13,3.554649591e-13,1.315190681e-13,1.679758884e-13,5.092654012e-14,1.036655458e-13,1.394203173e-14,1.660042729e-14,5.234974099e-14,2.576634379e-14,1.325747901e-14,1.667029071e-14,1.323980703e-14,5.019816385e-14,6.218379824e-14,9.364881869e-14,3.704929073e-14,5.928637824e-14,2.436339341e-14,9.938269319e-15,5.577778738e-14,3.321007197e-13,1.542956815e-13,9.296246118e-15,1.533184423e-14,1.932958191e-13,8.598938060e-15,1.699279355e-14,5.446588383e-14,2.047973043e-14
1.6641,2.447840961e-14,4.923585403e-14,2.877957355e-13,3.910690774e-13,1.374779075e-13,1.832790542e-13,5.836102769e-14,1.053650777e-13,1.390354087e-14,1.488257875e-14,5.448714127e-14,2.606098403e-14,1.311483397e-14,1.793060753e-14,1.695416793e-14,5.328335258e-14,5.726132073e-14,9.002814135e-14,3.639733408e-14,7.118658914e-14,2.642697095e-14,9.178941498e-15,5.805385029e-14,3.844822453e-13,1.473187172e-13,1.013353779e-14,1.453200756e-14,1.950564109e-13,9.258537044e-15,1.584440275e-14,5.775137126e-14,2.194772257e-14
1.6719,2.197084217e-14,5.067192913e-14,2.658293395e-13,4.206065537e-13,1.402866271e-13,1.957713118e-13,6.550930050e-14,1.058033800e-13,1.396698026e-14,1.387970818e-14,5.640218070e-14,2.653967139e-14,1.303046853e-14,1.916788504e-14,2.123302904e-14,5.557018743e-14,5.215597366e-14,8.471057913e-14,3.524362174e-14,8.278410073e-14,2.828033170e-14,8.754134529e-15,6.077288723e-14,4.281269611e-13,1.368546439e-13,1.095353945e-14,1.398325496e-14,1.936734641e-13,9.962539008e-15,1.497484826e-14,6.063876317e-14,2.298999287e-14
1.6797,2.046060979e-14,5.203946035e-14,2.542521937e-13,4.422956990e-13,1.407630780e-13,2.051992011e-13,7.171476032e-14,1.055925685e-13,1.422900311e-14,1.368637244e-14,5.783102918e-14,2.729212776e-14,1.307096345e-14,2.045628891e-14,2.599938418e-14,5.727855244e-14,4.737355634e-14,7.814428033e-14,3.361169037e-14,9.322771120e-14,3.000950669e-14,8.635926699e-15,6.399696303e-14,4.569364470e-13,1.240098444e-13,1.159967018e-14,1.402472099e-14,1.883567637e-13,1.063453145e-14,1.440508750e-14,6.306880098e-14,2.366740220e-14
1.6875,1.993216857e-14,5.323914167e-14,2.515756685e-13,4.550611561e-13,1.400915052e-13,2.101541744e-13,7.607578621e-14,1.049348973e-13,1.468917909e-14,1.435268710e-14,5.841252070e-14,2.832113207e-14,1.314205206e-14,2.183432033e-14,3.103725398e-14,5.881248962e-14,4.341119371e-14,7.131552626e-14,3.181808927e-14,1.026065305e-13,3.184179618e-14,8.763305744e-15,6.695148774e-14,4.722672169e-13,1.099840546e-13,1.227852460e-14,1.430293132e-14,1.787969057e-13,1.109207942e-14,1.400830807e-14,6.601163835e-14,2.402327749e-14
