Time,Fp1,AF3,F7,F3,FC1,FC5,T7,C3,CP1,CP5,P7,P3,Pz,PO3,O1,Oz,O2,PO4,P4,P8,CP6,CP2,C4,T8,FC6,FC2,F4,F8,AF4,Fp2,Fz,Cz,
-0.10156,6.219198978e-13,6.954824259e-13,1.177805855e-12,1.553893447e-12,1.032344226e-12,6.503910964e-13,3.153781668e-13,3.021385219e-13,1.307218795e-13,2.948683077e-13,2.844290557e-13,6.870215161e-13,1.044226632e-12,2.573255643e-12,3.047257993e-12,4.761590695e-12,4.057208868e-12,2.568283992e-12,1.235842276e-12,5.748840054e-12,2.965884838e-13,9.709296420e-14,2.905718919e-13,2.562135548e-13,2.483308341e-13,1.095373255e-12,1.175654588e-12,6.145609469e-13,8.152589860e-13,1.375649806e-13,1.118793713e-12,3.347410999e-13
-0.09375,6.687493098e-13,7.455035200e-13,1.253061517e-12,1.638619491e-12,1.095023861e-12,6.861007978e-13,3.394651292e-13,3.224305763e-13,1.327491816e-13,3.154883203e-13,3.022562743e-13,7.325615120e-13,1.097053219e-12,2.765074029e-12,3.263098435e-12,5.089696381e-12,4.335533127e-12,2.751220300e-12,1.334707517e-12,6.065349376e-12,3.127652493e-13,1.008142150e-13,3.069155400e-13,2.762789699e-13,2.677987975e-13,1.173353669e-12,1.244727483e-12,6.469987760e-13,8.667963104e-13,1.481360341e-13,1.203804492e-12,3.568187692e-13
-0.085938,7.171741246e-13,7.967950772e-13,1.327890286e-12,1.723834761e-12,1.158419169e-12,7.222006873e-13,3.642461238e-13,3.435858832e-13,1.345552630e-13,3.372566207e-13,3.201067344e-13,7.794004331e-13,1.149782168e-12,2.962680454e-12,3.485149293e-12,5.428082175e-12,4.623256077e-12,2.939327483e-12,1.437447071e-12,6.381611917e-12,3.287459803e-13,1.044839005e-13,3.237455090e-13,2.967846530e-13,2.880698537e-13,1.253692313e-12,1.314913755e-12,6.792497608e-13,9.196065251e-13,1.588455064e-13,1.292174687e-12,3.794842998e-13
-0.078125,7.672561195e-13,8.495520317e-13,1.403645921e-12,1.809178355e-12,1.222289353e-12,7.579529978e-13,3.901642831e-13,3.649964043e-13,1.362885251e-13,3.599895262e-13,3.382741378e-13,8.280882444e-13,1.202768723e-12,3.166531907e-12,3.712252885e-12,5.774310141e-12,4.918057304e-12,3.131422197e-12,1.543901810e-12,6.696467877e-12,3.446198430e-13,1.079621436e-13,3.405595763e-13,3.184344292e-13,3.088303377e-13,1.335977914e-12,1.386155332e-12,7.119983678e-13,9.738302023e-13,1.699726081e-13,1.383657867e-12,4.026881791e-13
-0.070312,8.195018633e-13,9.041550421e-13,1.481715954e-12,1.894315183e-12,1.286090385e-12,7.934767632e-13,4.176104949e-13,3.862436438e-13,1.377555113e-13,3.833991915e-13,3.569255213e-13,8.785824201e-13,1.255792685e-12,3.377224568e-12,3.944228987e-12,6.127511257e-12,5.219299644e-12,3.327318435e-12,1.654069428e-12,7.009322987e-12,3.604398786e-13,1.111021535e-13,3.572207250e-13,3.412920801e-13,3.302957946e-13,1.419761667e-12,1.458145167e-12,7.455465827e-13,1.029314360e-12,1.816104216e-13,1.477852528e-12,4.262981111e-13
-0.0625,8.727790474e-13,9.598841988e-13,1.560868385e-12,1.979394376e-12,1.349811069e-12,8.292455097e-13,4.463052872e-13,4.077812437e-13,1.389237970e-13,4.075429735e-13,3.756705164e-13,9.304358944e-13,1.308550859e-12,3.593973958e-12,4.180459637e-12,6.487475213e-12,5.526950439e-12,3.526743425e-12,1.767625791e-12,7.317513134e-12,3.760465893e-13,1.139417604e-13,3.742626314e-13,3.648203900e-13,3.528734436e-13,1.505009357e-12,1.530560679e-12,7.792514142e-13,1.085365988e-12,1.935804218e-13,1.574526993e-12,4.501333099e-13
-0.054688,9.264987266e-13,1.016395606e-12,1.641184391e-12,2.064519680e-12,1.413310742e-12,8.649549370e-13,4.764997068e-13,4.298129091e-13,1.399058826e-13,4.323021425e-13,3.944569883e-13,9.838615144e-13,1.361228090e-12,3.816522421e-12,4.420697927e-12,6.853052536e-12,5.839980239e-12,3.729594355e-12,1.884207788e-12,7.619219236e-12,3.912846957e-13,1.165140851e-13,3.920329881e-13,3.897400882e-13,3.763392648e-13,1.591364061e-12,1.602896868e-12,8.130991001e-13,1.141649069e-12,2.060963594e-13,1.673080357e-12,4.739785121e-13
-0.046875,9.813766243e-13,1.073881090e-12,1.721715088e-12,2.148943841e-12,1.475798892e-12,9.000095598e-13,5.082499705e-13,4.519852417e-13,1.405219674e-13,4.577951873e-13,4.132273152e-13,1.038351655e-12,1.412424979e-12,4.042814114e-12,4.663859626e-12,7.222726769e-12,6.157570515e-12,3.934885735e-12,2.003173916e-12,7.913077858e-12,4.060631214e-13,1.188091513e-13,4.100543810e-13,4.162629755e-13,4.001984923e-13,1.678113570e-12,1.674016699e-12,8.465124178e-13,1.197888808e-12,2.191127896e-13,1.772828293e-12,4.978778225e-13
-0.039062,1.036841628e-12,1.131394296e-12,1.800733488e-12,2.230821725e-12,1.536369625e-12,9.339699160e-13,5.412071576e-13,4.740018352e-13,1.409620870e-13,4.842765577e-13,4.319885314e-13,1.093634484e-12,1.461303546e-12,4.270466979e-12,4.907045913e-12,7.593237529e-12,6.476925489e-12,4.139824230e-12,2.124069278e-12,8.196211706e-12,4.203043810e-13,1.208227496e-13,4.277536759e-13,4.439901894e-13,4.243772258e-13,1.764835109e-12,1.743382859e-12,8.794851302e-13,1.253578319e-12,2.324583736e-13,1.873431308e-12,5.219637747e-13
-0.03125,1.092335126e-12,1.188415305e-12,1.878707478e-12,2.309207752e-12,1.594525727e-12,9.669066019e-13,5.754544675e-13,4.956988652e-13,1.414261456e-13,5.111867766e-13,4.509306493e-13,1.150261122e-12,1.509186364e-12,4.500428283e-12,5.149364890e-12,7.961972676e-12,6.794868254e-12,4.343382238e-12,2.247019165e-12,8.466973252e-12,4.340370099e-13,1.225848851e-13,4.451900238e-13,4.730777009e-13,4.489990661e-13,1.851295883e-12,1.811600297e-12,9.130789696e-13,1.309067706e-12,2.463039444e-13,1.974549386e-12,5.459766761e-13
-0.023438,1.147283091e-12,1.245115092e-12,1.954616807e-12,2.384325898e-12,1.650386071e-12,9.984763753e-13,6.106730490e-13,5.172573643e-13,1.416663225e-13,5.381217496e-13,4.691809339e-13,1.207349690e-12,1.555749815e-12,4.731779763e-12,5.390232456e-12,8.328161855e-12,7.110959095e-12,4.545118415e-12,2.371185678e-12,8.723724928e-12,4.471742824e-13,1.242478199e-13,4.625353807e-13,5.029511999e-13,4.739423958e-13,1.937362748e-12,1.877990654e-12,9.458388404e-13,1.363838925e-12,2.605416571e-13,2.075892843e-12,5.698940444e-13
-0.015625,1.200820663e-12,1.300842920e-12,2.027972022e-12,2.455506483e-12,1.703728068e-12,1.027790243e-12,6.467267211e-13,5.388686219e-13,1.418497043e-13,5.651133690e-13,4.864140383e-13,1.264210033e-12,1.599900338e-12,4.961355315e-12,5.627026850e-12,8.689038574e-12,7.423976515e-12,4.742723895e-12,2.495198698e-12,8.963193853e-12,4.594071751e-13,1.257838374e-13,4.796290808e-13,5.335625397e-13,4.990382836e-13,2.022347927e-12,1.940871302e-12,9.767216187e-13,1.416196690e-12,2.751242686e-13,2.176765771e-12,5.937715501e-13
-0.0078125,1.254290720e-12,1.355685953e-12,2.100370867e-12,2.522860016e-12,1.753862183e-12,1.055547214e-12,6.841660660e-13,5.601248489e-13,1.422598179e-13,5.918435330e-13,5.038194670e-13,1.321649299e-12,1.642214548e-12,5.188843475e-12,5.859077538e-12,9.042593904e-12,7.732254147e-12,4.935729860e-12,2.618626860e-12,9.184332380e-12,4.706612913e-13,1.269547517e-13,4.961171439e-13,5.657513166e-13,5.241383522e-13,2.104819971e-12,2.000307811e-12,1.007651520e-12,1.466563308e-12,2.901495156e-13,2.276011419e-12,6.169463387e-13
0,1.307722407e-12,1.410106490e-12,2.170392500e-12,2.587701660e-12,1.800639004e-12,1.082642949e-12,7.226944175e-13,5.803248562e-13,1.427452637e-13,6.182388892e-13,5.211402318e-13,1.379392688e-12,1.682558268e-12,5.413518907e-12,6.085926671e-12,9.388433402e-12,8.035069728e-12,5.123770391e-12,2.740582242e-12,9.387214272e-12,4.810461319e-13,1.277397775e-13,5.117248230e-13,5.987099496e-13,5.490716906e-13,2.184394099e-12,2.057313602e-12,1.038515089e-12,1.516021961e-12,3.053400271e-13,2.373270645e-12,6.390075653e-13
0.0078125,1.358446096e-12,1.462938619e-12,2.236713334e-12,2.648708112e-12,1.843586728e-12,1.107762735e-12,7.621525229e-13,5.989988314e-13,1.432244722e-13,6.441705539e-13,5.371767994e-13,1.436508213e-12,1.720243769e-12,5.633150862e-12,6.304696245e-12,9.722566206e-12,8.329118209e-12,5.304051131e-12,2.859625088e-12,9.569237560e-12,4.903980883e-13,1.281821659e-13,5.268087504e-13,6.317183445e-13,5.739493430e-13,2.261502774e-12,2.111867720e-12,1.067787927e-12,1.563836903e-12,3.206067138e-13,2.468319328e-12,6.601821003e-13
0.015625,1.406647229e-12,1.513114332e-12,2.299896893e-12,2.703246240e-12,1.881783631e-12,1.129786824e-12,8.032123829e-13,6.164224047e-13,1.437279574e-13,6.693624772e-13,5.519565462e-13,1.492870118e-12,1.755396696e-12,5.847538267e-12,6.513778845e-12,1.004150057e-11,8.611673915e-12,5.475821013e-12,2.975250225e-12,9.727193749e-12,4.984681747e-13,1.282535279e-13,5.418939706e-13,6.654593647e-13,5.987884499e-13,2.335384475e-12,2.162874214e-12,1.095674594e-12,1.609403873e-12,3.358911710e-13,2.560152194e-12,6.803848143e-13
0.023438,1.453608696e-12,1.560578196e-12,2.358532352e-12,2.751070994e-12,1.915019883e-12,1.149055559e-12,8.454604240e-13,6.332312851e-13,1.444119790e-13,6.942251185e-13,5.655174118e-13,1.548543813e-12,1.787925205e-12,6.056150612e-12,6.712394731e-12,1.034498556e-11,8.882986895e-12,5.639167702e-12,3.087140733e-12,9.859756083e-12,5.051267665e-13,1.281527586e-13,5.566775705e-13,6.999740080e-13,6.231721282e-13,2.405006975e-12,2.209170510e-12,1.122189828e-12,1.652439263e-12,3.509471357e-13,2.648182251e-12,6.993206368e-13
0.03125,1.498585654e-12,1.605189236e-12,2.412019060e-12,2.792701182e-12,1.943011634e-12,1.165552945e-12,8.880981330e-13,6.492904533e-13,1.454936416e-13,7.187260901e-13,5.777353314e-13,1.603488562e-12,1.817696137e-12,6.256682621e-12,6.898876703e-12,1.063103086e-11,9.141510125e-12,5.792441315e-12,3.194726317e-12,9.966478213e-12,5.102580593e-13,1.280692511e-13,5.707202413e-13,7.352229500e-13,6.469018769e-13,2.470126690e-12,2.250568450e-12,1.146984343e-12,1.692469648e-12,3.659104061e-13,2.732025665e-12,7.168295218e-13
0.039062,1.541320933e-12,1.646801156e-12,2.460351327e-12,2.827772110e-12,1.965282248e-12,1.178934921e-12,9.313447112e-13,6.641964347e-13,1.468690248e-13,7.424049494e-13,5.886950698e-13,1.657063348e-12,1.844541513e-12,6.447433053e-12,7.071945616e-12,1.089762306e-11,9.385055131e-12,5.934787528e-12,3.297269475e-12,1.004586446e-11,5.138645506e-13,1.278939376e-13,5.840493437e-13,7.712321699e-13,6.699358168e-13,2.530286869e-12,2.287024965e-12,1.169734405e-12,1.729597632e-12,3.807293239e-13,2.810830586e-12,7.328148199e-13
0.046875,1.581266374e-12,1.684947837e-12,2.502030372e-12,2.855612168e-12,1.981755564e-12,1.189093452e-12,9.756198771e-13,6.779837754e-13,1.485544248e-13,7.655668978e-13,5.980965492e-13,1.708781784e-12,1.868331456e-12,6.627850741e-12,7.230148816e-12,1.114356159e-11,9.612538953e-12,6.065120094e-12,3.393518927e-12,1.009589600e-11,5.159296926e-13,1.275422469e-13,5.967086476e-13,8.071540603e-13,6.920320628e-13,2.584972338e-12,2.318054772e-12,1.190251360e-12,1.763462536e-12,3.951198877e-13,2.884015040e-12,7.472632947e-13
0.054688,1.617522351e-12,1.719072343e-12,2.538210142e-12,2.875583057e-12,1.992159637e-12,1.195817525e-12,1.020968730e-12,6.905823765e-13,1.508131810e-13,7.881684846e-13,6.060519311e-13,1.759113550e-12,1.889553957e-12,6.797822428e-12,7.372566811e-12,1.136614548e-11,9.822084682e-12,6.182419000e-12,3.483021822e-12,1.011592882e-11,5.163400626e-13,1.270665716e-13,6.088962302e-13,8.425517336e-13,7.132820776e-13,2.634162428e-12,2.343786183e-12,1.209471864e-12,1.793559959e-12,4.091919347e-13,2.951099356e-12,7.601280975e-13
0.0625,1.650730232e-12,1.749419958e-12,2.570534450e-12,2.887963711e-12,1.996595217e-12,1.199132150e-12,1.066785486e-12,7.019348364e-13,1.536260142e-13,8.096935673e-13,6.129596378e-13,1.807840838e-12,1.907875184e-12,6.955712052e-12,7.498919247e-12,1.156409061e-11,1.001273540e-11,6.287142198e-12,3.566028286e-12,1.010697032e-11,5.154049336e-13,1.264557845e-13,6.205769955e-13,8.777074797e-13,7.338529778e-13,2.677638748e-12,2.364249993e-12,1.227376256e-12,1.820147394e-12,4.229718709e-13,3.011679599e-12,7.713274095e-13
0.070312,1.681082323e-12,1.776194110e-12,2.597064548e-12,2.893830571e-12,1.995499695e-12,1.199613921e-12,1.112555296e-12,7.121669863e-13,1.569330165e-13,8.300261639e-13,6.186372258e-13,1.854400232e-12,1.922479472e-12,7.098435359e-12,7.607596261e-12,1.173638390e-11,1.018356475e-11,6.377938362e-12,3.641485698e-12,1.007144719e-11,5.135399179e-13,1.257068284e-13,6.312402743e-13,9.130797582e-13,7.534423467e-13,2.714541546e-12,2.378903495e-12,1.242879519e-12,1.842919738e-12,4.363920000e-13,3.065405049e-12,7.805887377e-13
0.078125,1.707856591e-12,1.799041073e-12,2.616769993e-12,2.893735587e-12,1.988648213e-12,1.197638648e-12,1.158788017e-12,7.210933703e-13,1.607883004e-13,8.490055722e-13,6.227906063e-13,1.898881538e-12,1.933725816e-12,7.224942731e-12,7.697239561e-12,1.188057987e-11,1.033240524e-11,6.452948248e-12,3.707985263e-12,1.000965485e-11,5.104333850e-13,1.248438025e-13,6.410215458e-13,9.489960424e-13,7.719336503e-13,2.744015091e-12,2.387788416e-12,1.256075794e-12,1.861372270e-12,4.494573146e-13,3.111250623e-12,7.874973607e-13
0.085938,1.730564544e-12,1.817529929e-12,2.631111965e-12,2.887303165e-12,1.976042557e-12,1.192748587e-12,1.205509442e-12,7.283498262e-13,1.651089791e-13,8.666190420e-13,6.251878199e-13,1.940649165e-12,1.941611205e-12,7.335491210e-12,7.767426865e-12,1.199597027e-11,1.045854897e-11,6.512154648e-12,3.765116196e-12,9.918368769e-12,5.057599132e-13,1.238012436e-13,6.502379350e-13,9.848376462e-13,7.894722469e-13,2.766124872e-12,2.390939081e-12,1.267007699e-12,1.875566122e-12,4.620256673e-13,3.148733383e-12,7.921526975e-13
0.09375,1.748591681e-12,1.831120495e-12,2.640102274e-12,2.873407346e-12,1.957777382e-12,1.184419661e-12,1.251789717e-12,7.338924276e-13,1.699559327e-13,8.828949143e-13,6.258370120e-13,1.979031882e-12,1.945271116e-12,7.428687874e-12,7.817250994e-12,1.208154388e-11,1.056114250e-11,6.554785415e-12,3.812387793e-12,9.798572032e-12,4.998705259e-13,1.226801112e-13,6.584102755e-13,1.019860594e-12,8.057541691e-13,2.781347278e-12,2.388088477e-12,1.275520684e-12,1.885296466e-12,4.740507612e-13,3.178149103e-12,7.949647571e-13
0.10156,1.761761934e-12,1.839303800e-12,2.642461901e-12,2.851156665e-12,1.933318416e-12,1.172690137e-12,1.297288683e-12,7.381617942e-13,1.756463263e-13,8.975310585e-13,6.249456755e-13,2.014435756e-12,1.944710749e-12,7.503323882e-12,7.846293491e-12,1.213543854e-11,1.063848807e-11,6.580335574e-12,3.849174824e-12,9.655176501e-12,4.930495009e-13,1.218177099e-13,6.653443136e-13,1.053903058e-12,8.203868861e-13,2.789561396e-12,2.379470897e-12,1.281783916e-12,1.890410149e-12,4.853666588e-13,3.198746039e-12,7.959903661e-13
0.10938,1.770312169e-12,1.841914622e-12,2.638426172e-12,2.821034273e-12,1.902838131e-12,1.157871897e-12,1.342081025e-12,7.417287817e-13,1.823843090e-13,9.104953958e-13,6.224164034e-13,2.047069179e-12,1.940644381e-12,7.559810481e-12,7.854669424e-12,1.215829341e-11,1.069057968e-11,6.589297993e-12,3.875450937e-12,9.488928102e-12,4.853450129e-13,1.212971962e-13,6.712597171e-13,1.086688183e-12,8.334231865e-13,2.790520507e-12,2.365261216e-12,1.285405669e-12,1.891023036e-12,4.957457282e-13,3.209916122e-12,7.950971257e-13
0.11719,1.774661389e-12,1.839399931e-12,2.628890911e-12,2.784263725e-12,1.867144193e-12,1.140482561e-12,1.385930941e-12,7.447915638e-13,1.901045864e-13,9.216284556e-13,6.183673902e-13,2.076640868e-12,1.933389733e-12,7.597845491e-12,7.842538910e-12,1.215071178e-11,1.071729603e-11,6.581350187e-12,3.891406248e-12,9.299443949e-12,4.768035955e-13,1.208803554e-13,6.760051074e-13,1.118041115e-12,8.449445240e-13,2.784208386e-12,2.345531622e-12,1.286695903e-12,1.887190882e-12,5.053175729e-13,3.212365787e-12,7.921727064e-13
0.125,1.775278881e-12,1.832514538e-12,2.613866582e-12,2.741816921e-12,1.826775274e-12,1.120725874e-12,1.428440385e-12,7.471803498e-13,1.985812649e-13,9.304943601e-13,6.129746446e-13,2.102754026e-12,1.922658764e-12,7.616226042e-12,7.810336022e-12,1.211256351e-11,1.071845557e-11,6.557248816e-12,3.897309636e-12,9.088454238e-12,4.674100306e-13,1.204037805e-13,6.795851533e-13,1.147938658e-12,8.549182248e-13,2.770778884e-12,2.320719599e-12,1.286063387e-12,1.879210714e-12,5.141830000e-13,3.206529618e-12,7.871847301e-13
0.13281,1.771546803e-12,1.821332330e-12,2.593788715e-12,2.694325509e-12,1.782378893e-12,1.098315486e-12,1.469248958e-12,7.486251959e-13,2.077348395e-13,9.370575909e-13,6.059643631e-13,2.125021407e-12,1.908211007e-12,7.614787035e-12,7.758146072e-12,1.204512781e-11,1.069547362e-11,6.518042052e-12,3.893214290e-12,8.857535784e-12,4.575061096e-13,1.199427491e-13,6.820987657e-13,1.176370763e-12,8.634598427e-13,2.750734258e-12,2.291231583e-12,1.282593631e-12,1.867307433e-12,5.224355996e-13,3.192457953e-12,7.802764238e-13
0.14062,1.763069483e-12,1.805355943e-12,2.568628242e-12,2.641895809e-12,1.734193714e-12,1.073416698e-12,1.508354068e-12,7.492882281e-13,2.177477189e-13,9.414237419e-13,5.973110974e-13,2.143312165e-12,1.890307220e-12,7.593968064e-12,7.686247774e-12,1.194889543e-11,1.064895757e-11,6.462570446e-12,3.878222906e-12,8.609185308e-12,4.473578891e-13,1.197303434e-13,6.833538813e-13,1.203218421e-12,8.705314348e-13,2.724019230e-12,2.256951599e-12,1.275997578e-12,1.851132562e-12,5.298468269e-13,3.169941477e-12,7.716880027e-13
0.14844,1.750709135e-12,1.784394398e-12,2.537136826e-12,2.584506371e-12,1.682263181e-12,1.046506639e-12,1.545984001e-12,7.498354535e-13,2.286534744e-13,9.439106908e-13,5.871514508e-13,2.157736521e-12,1.869593811e-12,7.554950578e-12,7.595161480e-12,1.182384243e-11,1.057880334e-11,6.390798257e-12,3.851810633e-12,8.345117021e-12,4.365874446e-13,1.198372756e-13,6.833996145e-13,1.227955254e-12,8.758745219e-13,2.690089460e-12,2.217321476e-12,1.266684709e-12,1.830105381e-12,5.356411204e-13,3.138413865e-12,7.616314197e-13
0.15625,1.734886425e-12,1.759047303e-12,2.500591510e-12,2.523013549e-12,1.627472843e-12,1.017922939e-12,1.582368354e-12,7.503566219e-13,2.403154251e-13,9.446662925e-13,5.756739764e-13,2.169115129e-12,1.847415847e-12,7.500747745e-12,7.485600404e-12,1.167162814e-11,1.048562767e-11,6.305220775e-12,3.815351538e-12,8.065675558e-12,4.251166149e-13,1.200775655e-13,6.824007932e-13,1.250966248e-12,8.796507807e-13,2.649442445e-12,2.173020598e-12,1.254869604e-12,1.804579987e-12,5.400412009e-13,3.098450676e-12,7.500387481e-13
0.16406,1.715838319e-12,1.730323997e-12,2.462024827e-12,2.458322146e-12,1.570341742e-12,9.879606281e-13,1.617595841e-12,7.503011509e-13,2.528669354e-13,9.430077068e-13,5.634826318e-13,2.178149799e-12,1.824829673e-12,7.432983670e-12,7.359538142e-12,1.149381129e-11,1.036972956e-11,6.207146723e-12,3.770315288e-12,7.772806965e-12,4.132895934e-13,1.203663837e-13,6.803022453e-13,1.273255348e-12,8.824231994e-13,2.602919826e-12,2.125836131e-12,1.240876179e-12,1.775882242e-12,5.439613988e-13,3.051005800e-12,7.368069640e-13
0.17188,1.693978599e-12,1.698365251e-12,2.421825580e-12,2.390179764e-12,1.510724890e-12,9.565480215e-13,1.651180018e-12,7.497420945e-13,2.665390992e-13,9.386762458e-13,5.508872453e-13,2.184159100e-12,1.801358895e-12,7.350317774e-12,7.218006204e-12,1.129060415e-11,1.023145182e-11,6.096355967e-12,3.716930041e-12,7.468503995e-12,4.013214303e-13,1.207454451e-13,6.770529885e-13,1.294568387e-12,8.844182228e-13,2.550710255e-12,2.075877329e-12,1.224437900e-12,1.744440543e-12,5.473411017e-13,2.996066177e-12,7.223579780e-13
0.17969,1.668850339e-12,1.662784730e-12,2.379276637e-12,2.318660238e-12,1.449318102e-12,9.239093970e-13,1.682743550e-12,7.493938974e-13,2.813880463e-13,9.321895441e-13,5.377697372e-13,2.186900632e-12,1.776721030e-12,7.253162002e-12,7.060635362e-12,1.106256059e-11,1.007147413e-11,5.974002785e-12,3.655360286e-12,7.155262584e-12,3.894518980e-13,1.212525285e-13,6.726561016e-13,1.314478935e-12,8.854142254e-13,2.493281516e-12,2.022605236e-12,1.205839964e-12,1.709868432e-12,5.499371106e-13,2.934143679e-12,7.071443944e-13
0.1875,1.640061634e-12,1.623849977e-12,2.335055097e-12,2.244845704e-12,1.386773619e-12,8.909251530e-13,1.712562371e-12,7.497047664e-13,2.974306455e-13,9.239294183e-13,5.240706010e-13,2.187411270e-12,1.751688280e-12,7.144256335e-12,6.889074448e-12,1.081191205e-11,9.890641738e-12,5.841998314e-12,3.585881756e-12,6.836769493e-12,3.775636417e-13,1.220689825e-13,6.673460221e-13,1.332816974e-12,8.852935227e-13,2.431273349e-12,1.966644918e-12,1.186281994e-12,1.672036783e-12,5.518608538e-13,2.865956019e-12,6.910730831e-13
0.19531,1.608427237e-12,1.582054433e-12,2.290320092e-12,2.169146502e-12,1.322843334e-12,8.580481992e-13,1.740512960e-12,7.504879106e-13,3.145239362e-13,9.141365982e-13,5.099479679e-13,2.186443869e-12,1.726757210e-12,7.024813265e-12,6.705678938e-12,1.054125287e-11,9.690751824e-12,5.700846776e-12,3.509286316e-12,6.514792210e-12,3.654746775e-13,1.233334249e-13,6.613083343e-13,1.349252387e-12,8.842766418e-13,2.364882789e-12,1.908445761e-12,1.165606163e-12,1.630930241e-12,5.532144806e-13,2.791607067e-12,6.738762686e-13
0.20312,1.575144294e-12,1.538203722e-12,2.246032879e-12,2.092079120e-12,1.258065748e-12,8.255794964e-13,1.766222435e-12,7.511784883e-13,3.324590630e-13,9.025414722e-13,4.959062162e-13,2.184393320e-12,1.702393525e-12,6.895675045e-12,6.511662035e-12,1.025241489e-11,9.473900156e-12,5.551257641e-12,3.427324091e-12,6.190769032e-12,3.536035605e-13,1.248654678e-13,6.541355179e-13,1.364540025e-12,8.825974566e-13,2.294396929e-12,1.848712638e-12,1.143217406e-12,1.587565342e-12,5.543342276e-13,2.712131363e-12,6.555405294e-13
0.21094,1.540267014e-12,1.493074783e-12,2.202797307e-12,2.015506084e-12,1.193814567e-12,7.940139599e-13,1.789991909e-12,7.515752607e-13,3.512450361e-13,8.886807253e-13,4.819276003e-13,2.180899656e-12,1.679047042e-12,6.759165718e-12,6.308867341e-12,9.947661913e-12,9.241733642e-12,5.395089725e-12,3.340664845e-12,5.866645501e-12,3.421720852e-13,1.264293888e-13,6.456574892e-13,1.378966899e-12,8.803299618e-13,2.220467892e-12,1.788046444e-12,1.119273276e-12,1.542826043e-12,5.551854706e-13,2.628691167e-12,6.365911438e-13
0.21875,1.502983291e-12,1.446241752e-12,2.160587048e-12,1.940340112e-12,1.130558232e-12,7.632723605e-13,1.811996545e-12,7.519624728e-13,3.707699840e-13,8.728828419e-13,4.675798654e-13,2.174692315e-12,1.656435200e-12,6.616831160e-12,6.099320727e-12,9.629433613e-12,8.995652798e-12,5.233564536e-12,3.248935956e-12,5.543782002e-12,3.310912786e-13,1.280495475e-13,6.364976776e-13,1.391490111e-12,8.774896466e-13,2.144027413e-12,1.725911084e-12,1.093590054e-12,1.495901748e-12,5.553900532e-13,2.541421567e-12,6.177218203e-13
0.22656,1.463481488e-12,1.397649678e-12,2.118904297e-12,1.865846362e-12,1.068113032e-12,7.332814661e-13,1.831584959e-12,7.525034796e-13,3.907655078e-13,8.557487824e-13,4.534052596e-13,2.165708638e-12,1.634440583e-12,6.468546241e-12,5.884441168e-12,9.299927107e-12,8.736972235e-12,5.067750099e-12,3.152685929e-12,5.224824825e-12,3.204375662e-13,1.298505733e-13,6.271189632e-13,1.402073352e-12,8.739417997e-13,2.065831913e-12,1.663232214e-12,1.066353274e-12,1.447173640e-12,5.549808502e-13,2.450857434e-12,5.988909060e-13
0.23438,1.422526625e-12,1.348339111e-12,2.078001882e-12,1.792148985e-12,1.006966501e-12,7.046384446e-13,1.847864614e-12,7.533199249e-13,4.111552480e-13,8.376064503e-13,4.399315285e-13,2.155104881e-12,1.613356296e-12,6.314717906e-12,5.665455156e-12,8.961861096e-12,8.467463057e-12,4.898778355e-12,3.052701737e-12,4.911473583e-12,3.103262230e-13,1.317579805e-13,6.173565128e-13,1.410454279e-12,8.695355518e-13,1.986060841e-12,1.601540968e-12,1.038411391e-12,1.397788815e-12,5.538558511e-13,2.357768080e-12,5.798245005e-13
0.24219,1.380500917e-12,1.298650414e-12,2.039342230e-12,1.720387725e-12,9.480112467e-13,6.779567780e-13,1.860400091e-12,7.546593984e-13,4.319623814e-13,8.181984665e-13,4.267296463e-13,2.143339300e-12,1.593207758e-12,6.157523244e-12,5.443297897e-12,8.617158013e-12,8.188871347e-12,4.727044205e-12,2.949781050e-12,4.603805279e-12,3.010529374e-13,1.336822476e-13,6.066889910e-13,1.415584742e-12,8.643968272e-13,1.905099993e-12,1.540428036e-12,1.010111564e-12,1.347161850e-12,5.518869483e-13,2.262779399e-12,5.610056573e-13
0.25,1.338095631e-12,1.248876600e-12,2.003635572e-12,1.650907198e-12,8.914389180e-13,6.533451316e-13,1.869563018e-12,7.563788600e-13,4.533678261e-13,7.969436734e-13,4.136886999e-13,2.130358410e-12,1.574171271e-12,5.999322121e-12,5.219360123e-12,8.267084258e-12,7.902318490e-12,4.553767996e-12,2.845076801e-12,4.303753237e-12,2.925140056e-13,1.357852809e-13,5.946798993e-13,1.418395943e-12,8.586650121e-13,1.823621857e-12,1.480061818e-12,9.814687922e-13,1.295640253e-12,5.494129484e-13,2.167076423e-12,5.429930787e-13
0.25781,1.295871689e-12,1.199887980e-12,1.970713047e-12,1.583289778e-12,8.369105739e-13,6.305549044e-13,1.876084575e-12,7.578841560e-13,4.755068528e-13,7.743273417e-13,4.011040897e-13,2.116555360e-12,1.556753048e-12,5.841281783e-12,4.995187334e-12,7.913914438e-12,7.609275082e-12,4.380662009e-12,2.739084234e-12,4.013332585e-12,2.842801011e-13,1.381536863e-13,5.815642498e-13,1.420286540e-12,8.523373181e-13,1.741803644e-12,1.421314988e-12,9.527848864e-13,1.244454989e-12,5.465783690e-13,2.071389315e-12,5.255916174e-13
0.26562,1.254229601e-12,1.151814241e-12,1.941110277e-12,1.517624446e-12,7.844590448e-13,6.098102765e-13,1.880158972e-12,7.587012864e-13,4.979066642e-13,7.510376454e-13,3.891028858e-13,2.102646756e-12,1.541426944e-12,5.684518912e-12,4.771854587e-12,7.560070865e-12,7.312069731e-12,4.208522567e-12,2.632076489e-12,3.733231311e-12,2.766446536e-13,1.406356757e-13,5.678632764e-13,1.420926317e-12,8.454619749e-13,1.659675694e-12,1.364110816e-12,9.245182217e-13,1.193420865e-12,5.433133821e-13,1.975723157e-12,5.082529951e-13
0.27344,1.213800604e-12,1.104613740e-12,1.915150654e-12,1.454875043e-12,7.344542836e-13,5.919112677e-13,1.881464707e-12,7.588889091e-13,5.200738244e-13,7.267697463e-13,3.778638988e-13,2.089003763e-12,1.528529339e-12,5.530951173e-12,4.550757850e-12,7.207839948e-12,7.013077188e-12,4.038264865e-12,2.524592312e-12,3.463375289e-12,2.697195416e-13,1.431855764e-13,5.535196401e-13,1.419787019e-12,8.380097093e-13,1.577370900e-12,1.308788650e-12,8.965602961e-13,1.142546115e-12,5.396062456e-13,1.880455992e-12,4.908306937e-13
0.28125,1.174402696e-12,1.058823391e-12,1.892558181e-12,1.395868884e-12,6.873271737e-13,5.770492582e-13,1.879858936e-12,7.589487282e-13,5.421840441e-13,7.016238892e-13,3.674409111e-13,2.075592081e-12,1.517991167e-12,5.382392971e-12,4.333154229e-12,6.859137245e-12,6.713405944e-12,3.870697651e-12,2.417388929e-12,3.203171555e-12,2.632630774e-13,1.457876385e-13,5.381574921e-13,1.416621366e-12,8.298971550e-13,1.495380865e-12,1.255683476e-12,8.686827550e-13,1.092219795e-12,5.353832860e-13,1.786553617e-12,4.739390415e-13
0.28906,1.135872889e-12,1.014811540e-12,1.873671072e-12,1.340544619e-12,6.434575563e-13,5.648428164e-13,1.875462894e-12,7.591679581e-13,5.644193961e-13,6.759802571e-13,3.578054163e-13,2.062389467e-12,1.509519015e-12,5.239531604e-12,4.120130576e-12,6.515141270e-12,6.413610402e-12,3.706591525e-12,2.311855221e-12,2.954549419e-12,2.576377198e-13,1.482253703e-13,5.219273865e-13,1.411223887e-12,8.211675086e-13,1.415035555e-12,1.205072740e-12,8.417767005e-13,1.042895768e-12,5.307688115e-13,1.695390151e-12,4.582107343e-13
0.29688,1.098775326e-12,9.726456512e-13,1.859207436e-12,1.288618734e-12,6.028178023e-13,5.552803688e-13,1.868340254e-12,7.591527628e-13,5.864238358e-13,6.498353698e-13,3.490289190e-13,2.048985164e-12,1.503044974e-12,5.102142649e-12,3.913026951e-12,6.177910033e-12,6.115823952e-12,3.547418586e-12,2.208445734e-12,2.719554163e-12,2.528029427e-13,1.503904515e-13,5.055462706e-13,1.404035122e-12,8.118539281e-13,1.336842062e-12,1.157669529e-12,8.164237757e-13,9.953744563e-13,5.258542750e-13,1.607392862e-12,4.433717687e-13
0.30469,1.062925649e-12,9.323100627e-13,1.849483408e-12,1.240019378e-12,5.651855962e-13,5.486842250e-13,1.858671913e-12,7.582139574e-13,6.077523015e-13,6.237553766e-13,3.410333935e-13,2.035115482e-12,1.498616991e-12,4.971303286e-12,3.712401470e-12,5.849014448e-12,5.821995091e-12,3.393668815e-12,2.106782029e-12,2.496432892e-12,2.484201069e-13,1.524927347e-13,4.892475265e-13,1.396164552e-12,8.020503077e-13,1.259772727e-12,1.112604312e-12,7.917498530e-13,9.490441934e-13,5.205463238e-13,1.521857636e-12,4.289427448e-13
0.3125,1.028472208e-12,8.940531654e-13,1.844137884e-12,1.194758233e-12,5.304809138e-13,5.455068043e-13,1.847165263e-12,7.561555928e-13,6.285772158e-13,5.980791055e-13,3.339573772e-13,2.022249919e-12,1.496734634e-12,4.849949406e-12,3.519008465e-12,5.528624907e-12,5.532313445e-12,3.245542745e-12,2.008043624e-12,2.284367595e-12,2.447170592e-13,1.547840892e-13,4.723847276e-13,1.388589795e-12,7.919221751e-13,1.183883319e-12,1.069322168e-12,7.676839614e-13,9.036153986e-13,5.150753130e-13,1.439526034e-12,4.151361942e-13
0.32031,9.966680016e-13,8.584685223e-13,1.842879694e-12,1.152934395e-12,4.986445755e-13,5.457989701e-13,1.834605147e-12,7.533439293e-13,6.496113994e-13,5.723894254e-13,3.281624188e-13,2.012238994e-12,1.498363751e-12,4.739559754e-12,3.334373839e-12,5.218634821e-12,5.247841915e-12,3.104202343e-12,1.913271882e-12,2.084961552e-12,2.416464720e-13,1.572776877e-13,4.546687194e-13,1.380331633e-12,7.813984513e-13,1.110663434e-12,1.029560926e-12,7.456010991e-13,8.606908960e-13,5.096798971e-13,1.362036190e-12,4.023612704e-13
0.32812,9.674362305e-13,8.256714748e-13,1.846302665e-12,1.114191301e-12,4.696635160e-13,5.488398914e-13,1.820720676e-12,7.497524260e-13,6.709974359e-13,5.467186255e-13,3.234367084e-13,2.005129532e-12,1.503502575e-12,4.639538329e-12,3.158830889e-12,4.920862354e-12,4.970120139e-12,2.969393399e-12,1.821968590e-12,1.898530390e-12,2.390719649e-13,1.598017615e-13,4.365826485e-13,1.369059160e-12,7.704089313e-13,1.040801200e-12,9.938160248e-13,7.260944394e-13,8.205013102e-13,5.043449551e-13,1.289589410e-12,3.905901584e-13
0.33594,9.395948181e-13,7.954476869e-13,1.854518168e-12,1.078284237e-12,4.433949222e-13,5.544568447e-13,1.804567399e-12,7.449598124e-13,6.920123891e-13,5.211689977e-13,3.194482614e-13,2.000207592e-12,1.511054471e-12,4.550051367e-12,2.992339788e-12,4.634771908e-12,4.699641135e-12,2.840531926e-12,1.734250220e-12,1.724286000e-12,2.368495840e-13,1.622156208e-13,4.184570970e-13,1.354813515e-12,7.591731866e-13,9.740680387e-13,9.611634458e-13,7.084282609e-13,7.823511727e-13,4.992746476e-13,1.222003714e-12,3.794020194e-13
0.34375,9.130408350e-13,7.678127939e-13,1.866298465e-12,1.045874113e-12,4.196065771e-13,5.630554729e-13,1.786260361e-12,7.391629204e-13,7.121803352e-13,4.957998853e-13,3.163210051e-13,1.996931862e-12,1.520265655e-12,4.471172812e-12,2.835318450e-12,4.360832453e-12,4.437720507e-12,2.718819907e-12,1.650558322e-12,1.561399842e-12,2.344944755e-13,1.644560897e-13,4.003561817e-13,1.339525951e-12,7.477511065e-13,9.101499269e-13,9.312897724e-13,6.920177166e-13,7.464534815e-13,4.945125374e-13,1.159311417e-12,3.687199172e-13
0.35156,8.881486014e-13,7.423138291e-13,1.880582244e-12,1.016298332e-12,3.981229362e-13,5.739413209e-13,1.766561177e-12,7.326450384e-13,7.316688445e-13,4.712724462e-13,3.139322298e-13,1.994482808e-12,1.530656690e-12,4.401310620e-12,2.687102621e-12,4.099769540e-12,4.185210126e-12,2.604284297e-12,1.570790225e-12,1.409979974e-12,2.324350212e-13,1.665460123e-13,3.822354897e-13,1.323566457e-12,7.358406697e-13,8.490213956e-13,9.038919663e-13,6.770795380e-13,7.124629104e-13,4.896691993e-13,1.101121706e-12,3.592575691e-13
0.35938,8.647269442e-13,7.183323489e-13,1.897624412e-12,9.876615105e-13,3.784820608e-13,5.863422545e-13,1.745474101e-12,7.250660588e-13,7.507165027e-13,4.477875526e-13,3.121231160e-13,1.992915256e-12,1.541957906e-12,4.340086709e-12,2.547323603e-12,3.850649435e-12,3.940890117e-12,2.495754380e-12,1.495215436e-12,1.270931406e-12,2.313466248e-13,1.686273773e-13,3.639003100e-13,1.306602051e-12,7.233119590e-13,7.911809178e-13,8.795472197e-13,6.640530692e-13,6.804057494e-13,4.848121863e-13,1.047474920e-12,3.513845656e-13
0.36719,8.426801688e-13,6.961626700e-13,1.917957120e-12,9.604441771e-13,3.605382032e-13,6.005970429e-13,1.723124482e-12,7.161743742e-13,7.692519313e-13,4.249502928e-13,3.110813412e-13,1.993277022e-12,1.554712864e-12,4.288860071e-12,2.416773196e-12,3.613951528e-12,3.704894498e-12,2.393641743e-12,1.423820321e-12,1.143843048e-12,2.307970568e-13,1.706552105e-13,3.454994600e-13,1.288798139e-12,7.104100438e-13,7.367917031e-13,8.588788938e-13,6.531965432e-13,6.509846967e-13,4.803607794e-13,9.988535411e-13,3.445204158e-13
0.375,8.223490946e-13,6.761720926e-13,1.939919872e-12,9.361610971e-13,3.447352028e-13,6.166110729e-13,1.699944684e-12,7.059235698e-13,7.866706480e-13,4.027909808e-13,3.104303373e-13,1.995024180e-12,1.568749686e-12,4.246809446e-12,2.294915276e-12,3.390845080e-12,3.479097461e-12,2.298242572e-12,1.355944227e-12,1.027846164e-12,2.304898247e-13,1.722899691e-13,3.275144679e-13,1.269321753e-12,6.972043056e-13,6.853928794e-13,8.406272281e-13,6.441477237e-13,6.236413773e-13,4.760150095e-13,9.553162056e-13,3.382281292e-13
0.38281,8.037729643e-13,6.580545392e-13,1.961092858e-12,9.142222912e-13,3.310000102e-13,6.336281744e-13,1.675628564e-12,6.942946718e-13,8.023525582e-13,3.815043276e-13,3.097302824e-13,1.996356837e-12,1.582711327e-12,4.211739577e-12,2.180591814e-12,3.180551801e-12,3.263729349e-12,2.208765293e-12,1.291509380e-12,9.224387603e-13,2.305663931e-13,1.734623165e-13,3.102290720e-13,1.247816656e-12,6.834231550e-13,6.368900185e-13,8.242307469e-13,6.358598884e-13,5.979901325e-13,4.713584109e-13,9.167612598e-13,3.324986261e-13
0.39062,7.866297792e-13,6.416451226e-13,1.982353122e-12,8.934328355e-13,3.189146995e-13,6.513878378e-13,1.650404274e-12,6.815719259e-13,8.167640814e-13,3.613857005e-13,3.092929526e-13,1.997626415e-12,1.596593839e-12,4.184302624e-12,2.074335113e-12,2.982558886e-12,3.057800433e-12,2.125170025e-12,1.231006552e-12,8.265857029e-13,2.310960700e-13,1.744703849e-13,2.935702090e-13,1.226115221e-12,6.689944178e-13,5.913973626e-13,8.104941059e-13,6.282199678e-13,5.747163541e-13,4.668478619e-13,8.832944308e-13,3.273895082e-13
0.39844,7.712173544e-13,6.271214649e-13,2.005146129e-12,8.735383509e-13,3.082460828e-13,6.702105801e-13,1.625136868e-12,6.680525672e-13,8.309945637e-13,3.426938487e-13,3.091398128e-13,2.000996497e-12,1.611597371e-12,4.165980700e-12,1.976694226e-12,2.797363320e-12,2.861280394e-12,2.047654251e-12,1.174650751e-12,7.398100284e-13,2.322850425e-13,1.754788705e-13,2.770943569e-13,1.205061085e-12,6.541228837e-13,5.487331177e-13,7.993264531e-13,6.225311904e-13,5.540109111e-13,4.628304327e-13,8.551270144e-13,3.231706660e-13
0.40625,7.581611205e-13,6.146092458e-13,2.028197093e-12,8.548322248e-13,2.986078444e-13,6.901467833e-13,1.598935712e-12,6.538268857e-13,8.450536137e-13,3.248984919e-13,3.091470779e-13,2.006707770e-12,1.627532954e-12,4.154859484e-12,1.886581565e-12,2.624544781e-12,2.674764942e-12,1.975868982e-12,1.122298808e-12,6.620608420e-13,2.338140906e-13,1.765200381e-13,2.604976729e-13,1.183575825e-12,6.389377375e-13,5.089050619e-13,7.904315134e-13,6.191345716e-13,5.358317830e-13,4.590360286e-13,8.323364085e-13,3.198761117e-13
0.41406,7.470742432e-13,6.039298307e-13,2.050802140e-12,8.373817853e-13,2.898890811e-13,7.099294779e-13,1.570555300e-12,6.388121808e-13,8.577400871e-13,3.075322483e-13,3.096803296e-13,2.012338809e-12,1.642917574e-12,4.147598871e-12,1.802888412e-12,2.463253539e-12,2.498274786e-12,1.909669797e-12,1.073777729e-12,5.927629248e-13,2.351335547e-13,1.775300231e-13,2.441014879e-13,1.161816433e-12,6.233692263e-13,4.721290700e-13,7.836168097e-13,6.166697039e-13,5.201575800e-13,4.555446820e-13,8.147221455e-13,3.170693165e-13
0.42188,7.370452771e-13,5.944395682e-13,2.072706915e-12,8.206456037e-13,2.823182262e-13,7.284417277e-13,1.541147125e-12,6.228777959e-13,8.682519677e-13,2.910644583e-13,3.105474254e-13,2.015936361e-12,1.656750591e-12,4.143146143e-12,1.725628564e-12,2.313375129e-12,2.331625452e-12,1.848925859e-12,1.028748482e-12,5.315478104e-13,2.364304285e-13,1.781916566e-13,2.283154811e-13,1.140135165e-12,6.071975742e-13,4.384134790e-13,7.782863318e-13,6.144113002e-13,5.065597308e-13,4.524057293e-13,8.018507702e-13,3.145308942e-13
0.42969,7.279961980e-13,5.857647919e-13,2.092284708e-12,8.044158461e-13,2.758397176e-13,7.461719253e-13,1.512137962e-12,6.061641880e-13,8.769917021e-13,2.759582550e-13,3.110414567e-13,2.017871233e-12,1.669228134e-12,4.142245058e-12,1.654718401e-12,2.174804387e-12,2.175088256e-12,1.792920001e-12,9.864904423e-13,4.777964626e-13,2.380194110e-13,1.783738761e-13,2.132253576e-13,1.117148146e-12,5.904518511e-13,4.074578969e-13,7.742056658e-13,6.128749690e-13,4.947488096e-13,4.490097457e-13,7.931112062e-13,3.124031185e-13
0.4375,7.203468745e-13,5.781164774e-13,2.109288132e-12,7.885037439e-13,2.700750979e-13,7.630925109e-13,1.483217225e-12,5.887320566e-13,8.845209804e-13,2.622089940e-13,3.109561680e-13,2.019014517e-12,1.680835349e-12,4.145081270e-12,1.589191482e-12,2.046240710e-12,2.028088148e-12,1.740437766e-12,9.466562989e-13,4.306703070e-13,2.399717262e-13,1.783173128e-13,1.987132915e-13,1.092721038e-12,5.734581292e-13,3.787677786e-13,7.710871822e-13,6.120335642e-13,4.845664350e-13,4.451408758e-13,7.880141218e-13,3.108122794e-13
0.44531,7.140233370e-13,5.713745172e-13,2.123935962e-12,7.722964516e-13,2.645343673e-13,7.787637251e-13,1.454106011e-12,5.706754207e-13,8.907360819e-13,2.497786810e-13,3.104876201e-13,2.019190401e-12,1.691728152e-12,4.150817186e-12,1.528449562e-12,1.926136073e-12,1.889075326e-12,1.690834258e-12,9.094822116e-13,3.899614385e-13,2.423086137e-13,1.780989064e-13,1.845381901e-13,1.068607101e-12,5.564236726e-13,3.521580645e-13,7.687993369e-13,6.114236708e-13,4.758081275e-13,4.412418059e-13,7.863129498e-13,3.095409387e-13
0.45312,7.087277804e-13,5.653153333e-13,2.136180291e-12,7.564265704e-13,2.593514839e-13,7.933554859e-13,1.424780546e-12,5.522155920e-13,8.953294500e-13,2.383276721e-13,3.098539186e-13,2.018013712e-12,1.700763896e-12,4.158120943e-12,1.472223525e-12,1.814268717e-12,1.758082399e-12,1.644538227e-12,8.749300950e-13,3.553633941e-13,2.445740150e-13,1.774844093e-13,1.710392804e-13,1.044467915e-12,5.391627820e-13,3.278824853e-13,7.679393256e-13,6.113213447e-13,4.684925479e-13,4.374214573e-13,7.877973037e-13,3.083806593e-13
0.46094,7.043304450e-13,5.601582088e-13,2.145216255e-12,7.415896967e-13,2.551271197e-13,8.062383584e-13,1.394719034e-12,5.333791659e-13,8.983124351e-13,2.280554118e-13,3.086995762e-13,2.014769319e-12,1.707816280e-12,4.165697052e-12,1.419940738e-12,1.710719973e-12,1.635829566e-12,1.601736960e-12,8.423973017e-13,3.263937494e-13,2.469784636e-13,1.765260665e-13,1.586875583e-13,1.019362989e-12,5.217612034e-13,3.059605181e-13,7.681075951e-13,6.116269820e-13,4.625115020e-13,4.334184467e-13,7.926231075e-13,3.073423981e-13
0.46875,7.009161205e-13,5.557949389e-13,2.150158942e-12,7.271765906e-13,2.516925371e-13,8.169128323e-13,1.363977566e-12,5.144236618e-13,8.996087190e-13,2.193183468e-13,3.067323880e-13,2.008496622e-12,1.712018144e-12,4.171408872e-12,1.370610476e-12,1.614690425e-12,1.522214827e-12,1.561319757e-12,8.116430784e-13,3.028984772e-13,2.497513673e-13,1.752492610e-13,1.473543663e-13,9.931147574e-13,5.041309879e-13,2.860861216e-13,7.682136822e-13,6.113718633e-13,4.576266831e-13,4.290982644e-13,8.007011433e-13,3.067454629e-13
0.47656,6.983594710e-13,5.518977627e-13,2.150410247e-12,7.128106131e-13,2.485468374e-13,8.254874517e-13,1.333397398e-12,4.957699450e-13,8.994509588e-13,2.120716426e-13,3.041726909e-13,1.999543231e-12,1.713474810e-12,4.174126048e-12,1.323887247e-12,1.525832883e-12,1.417192298e-12,1.522913474e-12,7.827448468e-13,2.847193812e-13,2.528599962e-13,1.737190589e-13,1.368188070e-13,9.665947672e-13,4.861408301e-13,2.681430183e-13,7.683589779e-13,6.104959569e-13,4.537937733e-13,4.246138365e-13,8.114856857e-13,3.066038717e-13
0.48438,6.966509247e-13,5.485525731e-13,2.146002077e-12,6.984726845e-13,2.457151236e-13,8.314650231e-13,1.302935545e-12,4.772561229e-13,8.981261531e-13,2.061818947e-13,3.009568500e-13,1.988451834e-12,1.713562031e-12,4.174508998e-12,1.279591455e-12,1.443825425e-12,1.320515267e-12,1.486722873e-12,7.556688968e-13,2.717037939e-13,2.563762208e-13,1.721445711e-13,1.271387111e-13,9.405112615e-13,4.680685653e-13,2.520896496e-13,7.689022301e-13,6.094180615e-13,4.510772423e-13,4.201370760e-13,8.247374462e-13,3.066993707e-13
0.49219,6.961463108e-13,5.458865282e-13,2.138279169e-12,6.843271930e-13,2.432331926e-13,8.348724780e-13,1.272057522e-12,4.586256223e-13,8.954390058e-13,2.013909238e-13,2.972768384e-13,1.974897084e-12,1.712170598e-12,4.172976769e-12,1.237311343e-12,1.367487035e-12,1.231081703e-12,1.452019967e-12,7.301649895e-13,2.636425784e-13,2.600478430e-13,1.706262109e-13,1.183094034e-13,9.150828864e-13,4.501885090e-13,2.376248381e-13,7.696115868e-13,6.079923260e-13,4.492606974e-13,4.156873033e-13,8.400676223e-13,3.069980113e-13
0.5,6.965499757e-13,5.437809489e-13,2.127521156e-12,6.709011925e-13,2.411052749e-13,8.363534010e-13,1.241091687e-12,4.400511573e-13,8.911261153e-13,1.975066386e-13,2.935376427e-13,1.958940023e-12,1.708380708e-12,4.169273522e-12,1.197015289e-12,1.296349583e-12,1.148461135e-12,1.418304783e-12,7.059290688e-13,2.595454323e-13,2.635308271e-13,1.689954831e-13,1.103236073e-13,8.902720435e-13,4.324552283e-13,2.244247371e-13,7.702140847e-13,6.061568667e-13,4.479378315e-13,4.112840448e-13,8.568050427e-13,3.075125302e-13
0.50781,6.970154534e-13,5.422224773e-13,2.112159931e-12,6.581553949e-13,2.395290748e-13,8.355513207e-13,1.209801396e-12,4.219127879e-13,8.850113114e-13,1.946026348e-13,2.894943866e-13,1.940602769e-12,1.701354254e-12,4.161858344e-12,1.158023248e-12,1.230531560e-12,1.073063100e-12,1.385659486e-12,6.827794237e-13,2.583172500e-13,2.668813448e-13,1.670688561e-13,1.030317655e-13,8.649251727e-13,4.144989661e-13,2.124842218e-13,7.705815821e-13,6.040611896e-13,4.471063234e-13,4.067534263e-13,8.749740378e-13,3.080984483e-13
0.51562,6.976571302e-13,5.413200390e-13,2.090317948e-12,6.459526276e-13,2.386661099e-13,8.319220090e-13,1.177650565e-12,4.045205896e-13,8.771587616e-13,1.930357072e-13,2.848037514e-13,1.918704296e-12,1.691479906e-12,4.148216878e-12,1.120092663e-12,1.169169104e-12,1.004338370e-12,1.353807033e-12,6.608381349e-13,2.602646788e-13,2.704698219e-13,1.652877864e-13,9.658085496e-14,8.396986334e-13,3.964327194e-13,2.019896478e-13,7.708262569e-13,6.013436923e-13,4.469227922e-13,4.018025529e-13,8.948071957e-13,3.084635001e-13
0.52344,6.991405520e-13,5.410322252e-13,2.063803114e-12,6.344871115e-13,2.384486108e-13,8.255161170e-13,1.145145252e-12,3.877536921e-13,8.679526258e-13,1.924807692e-13,2.796819576e-13,1.893027726e-12,1.678909806e-12,4.127074890e-12,1.082668329e-12,1.111272058e-12,9.411281689e-13,1.322181927e-12,6.399121160e-13,2.660383903e-13,2.741053366e-13,1.638244962e-13,9.099199112e-14,8.151720894e-13,3.786772843e-13,1.927571201e-13,7.710578995e-13,5.977425266e-13,4.472365235e-13,3.966079338e-13,9.160234177e-13,3.086765263e-13
0.53125,7.015897986e-13,5.414985966e-13,2.034633803e-12,6.237647036e-13,2.387271124e-13,8.166058267e-13,1.112548640e-12,3.712044398e-13,8.581627672e-13,1.927060627e-13,2.743321885e-13,1.865453911e-12,1.665135595e-12,4.100866264e-12,1.045631496e-12,1.056887507e-12,8.828483801e-13,1.291133206e-12,6.198220592e-13,2.751267111e-13,2.776538408e-13,1.626218827e-13,8.616826307e-14,7.908894594e-13,3.613140546e-13,1.844612989e-13,7.710819663e-13,5.939659944e-13,4.481147886e-13,3.915799302e-13,9.383420442e-13,3.088599854e-13
0.53906,7.050382000e-13,5.430743790e-13,2.001545860e-12,6.141967290e-13,2.396636816e-13,8.056165118e-13,1.079279249e-12,3.549252705e-13,8.476188738e-13,1.938223757e-13,2.688195509e-13,1.836675438e-12,1.650345766e-12,4.070889810e-12,1.009151951e-12,1.005942363e-12,8.296347582e-13,1.260790141e-12,6.006946318e-13,2.872525226e-13,2.809485182e-13,1.617109710e-13,8.210646303e-14,7.667255527e-13,3.440605539e-13,1.771296762e-13,7.706590092e-13,5.900450713e-13,4.495169833e-13,3.866077379e-13,9.614296217e-13,3.088941717e-13
0.54688,7.093978009e-13,5.460075521e-13,1.963902479e-12,6.062996859e-13,2.414271303e-13,7.924621198e-13,1.045865333e-12,3.395088040e-13,8.354836683e-13,1.959746691e-13,2.634807972e-13,1.805389896e-12,1.633319046e-12,4.035374176e-12,9.735933053e-13,9.583332682e-13,7.818335962e-13,1.231103459e-12,5.828274594e-13,3.027126150e-13,2.839490395e-13,1.612314859e-13,7.903168951e-14,7.440969046e-13,3.270778677e-13,1.707659282e-13,7.694335586e-13,5.850395902e-13,4.511284198e-13,3.816654267e-13,9.849919960e-13,3.088090514e-13
0.55469,7.144214282e-13,5.500661895e-13,1.922197736e-12,5.998399953e-13,2.440402702e-13,7.769692941e-13,1.012831799e-12,3.254847726e-13,8.215135634e-13,1.992794752e-13,2.582127739e-13,1.770577517e-12,1.613628989e-12,3.992935399e-12,9.388516533e-13,9.139744431e-13,7.391308277e-13,1.202044571e-12,5.661819474e-13,3.205882278e-13,2.867844782e-13,1.611898521e-13,7.691105072e-14,7.220240830e-13,3.105976614e-13,1.651552243e-13,7.670548302e-13,5.789020725e-13,4.528040758e-13,3.766953529e-13,1.009108520e-12,3.086147539e-13
0.5625,7.200058170e-13,5.550049985e-13,1.877423610e-12,5.948141189e-13,2.479723984e-13,7.593601787e-13,9.794036936e-13,3.124621796e-13,8.062936668e-13,2.034218044e-13,2.526660841e-13,1.732930753e-12,1.591985554e-12,3.944229686e-12,9.043135390e-13,8.721776913e-13,7.006502766e-13,1.173109700e-12,5.503677408e-13,3.401663219e-13,2.895575748e-13,1.614889991e-13,7.544078605e-14,6.989512033e-13,2.945579246e-13,1.602832745e-13,7.639157534e-13,5.726363517e-13,4.545501550e-13,3.714504944e-13,1.034008144e-12,3.080341229e-13
0.57031,7.260264137e-13,5.613434930e-13,1.831568704e-12,5.917415931e-13,2.534435792e-13,7.398868091e-13,9.454173842e-13,2.995994379e-13,7.906519172e-13,2.081819398e-13,2.470425846e-13,1.694350452e-12,1.569827476e-12,3.891283261e-12,8.699544209e-13,8.324840257e-13,6.659459493e-13,1.144448298e-12,5.353437788e-13,3.619749661e-13,2.924170663e-13,1.622350423e-13,7.462178839e-14,6.768721516e-13,2.790661777e-13,1.562377214e-13,7.608280455e-13,5.668247433e-13,4.565626879e-13,3.663037921e-13,1.059781780e-12,3.071242185e-13
0.57812,7.328208236e-13,5.696374802e-13,1.784116527e-12,5.909549103e-13,2.600659058e-13,7.193653034e-13,9.115276166e-13,2.871417128e-13,7.749984449e-13,2.139533421e-13,2.416779284e-13,1.655823175e-12,1.548180501e-12,3.835471959e-12,8.363076904e-13,7.948893932e-13,6.348938796e-13,1.116734341e-12,5.214343413e-13,3.854361014e-13,2.953250538e-13,1.639090345e-13,7.460393144e-14,6.563841166e-13,2.641494928e-13,1.528793574e-13,7.578839388e-13,5.613059331e-13,4.590672984e-13,3.615748181e-13,1.086155530e-12,3.060896689e-13
0.58594,7.406646164e-13,5.795554299e-13,1.733837637e-12,5.926840357e-13,2.678958976e-13,6.987080665e-13,8.777823685e-13,2.758336569e-13,7.591901758e-13,2.209925556e-13,2.367742122e-13,1.616590345e-12,1.525972140e-12,3.775564291e-12,8.033353464e-13,7.593169923e-13,6.068328209e-13,1.089566870e-12,5.085553932e-13,4.099369917e-13,2.978594665e-13,1.663481326e-13,7.535211143e-14,6.354065966e-13,2.496224769e-13,1.500095786e-13,7.545779528e-13,5.558236426e-13,4.617654918e-13,3.568907853e-13,1.112457539e-12,3.049169703e-13
0.59375,7.480041034e-13,5.905950942e-13,1.681779248e-12,5.970176731e-13,2.772187486e-13,6.777051223e-13,8.438975118e-13,2.656183343e-13,7.431226523e-13,2.288675974e-13,2.323722178e-13,1.575606254e-12,1.502933723e-12,3.710888924e-12,7.707342000e-13,7.258464945e-13,5.816659279e-13,1.062569829e-12,4.962247439e-13,4.356835402e-13,3.000077727e-13,1.694038206e-13,7.680816203e-14,6.152017724e-13,2.352606132e-13,1.475442331e-13,7.506163542e-13,5.500520278e-13,4.642946026e-13,3.523099800e-13,1.138456245e-12,3.033912155e-13
0.60156,7.544844879e-13,6.027523332e-13,1.628291832e-12,6.038678375e-13,2.881926443e-13,6.560773663e-13,8.100472045e-13,2.563920392e-13,7.262288024e-13,2.370870271e-13,2.282392342e-13,1.532304233e-12,1.479047653e-12,3.642182803e-12,7.386489212e-13,6.947196214e-13,5.597303223e-13,1.036574761e-12,4.846527278e-13,4.617711708e-13,3.017797544e-13,1.731926865e-13,7.898706634e-14,5.963105064e-13,2.212536000e-13,1.456200541e-13,7.459833475e-13,5.433682924e-13,4.664725627e-13,3.481504949e-13,1.164174731e-12,3.014027136e-13
0.60938,7.612704164e-13,6.163713116e-13,1.574376235e-12,6.132478122e-13,3.012922418e-13,6.337231011e-13,7.764491571e-13,2.480678010e-13,7.084423830e-13,2.456518389e-13,2.245468633e-13,1.487166772e-12,1.453808892e-12,3.569028343e-12,7.072620899e-13,6.659063113e-13,5.410350188e-13,1.011790022e-12,4.742392784e-13,4.883016210e-13,3.033427205e-13,1.778843478e-13,8.185489405e-14,5.767405307e-13,2.082395911e-13,1.443930734e-13,7.408952053e-13,5.363620846e-13,4.683750161e-13,3.443182315e-13,1.189839656e-12,2.989582860e-13
0.61719,7.684847338e-13,6.314123821e-13,1.521154107e-12,6.246177416e-13,3.161652314e-13,6.104056279e-13,7.429509607e-13,2.401953449e-13,6.908249931e-13,2.551383205e-13,2.212379594e-13,1.441129348e-12,1.427856402e-12,3.490655432e-12,6.762727941e-13,6.389997699e-13,5.250762751e-13,9.871119565e-13,4.646207671e-13,5.167165489e-13,3.049623369e-13,1.835265562e-13,8.543690525e-14,5.571709596e-13,1.963375485e-13,1.436647776e-13,7.355533727e-13,5.299343845e-13,4.702895395e-13,3.406151113e-13,1.215229723e-12,2.963890333e-13
0.625,7.759295038e-13,6.475587575e-13,1.467334279e-12,6.375387700e-13,3.315337925e-13,5.866137606e-13,7.100241732e-13,2.328570474e-13,6.739455711e-13,2.655752363e-13,2.179212459e-13,1.394698366e-12,1.401821332e-12,3.408120636e-12,6.451854931e-13,6.132515033e-13,5.110441617e-13,9.617464324e-13,4.552446226e-13,5.462747413e-13,3.063499079e-13,1.902517241e-13,8.968868783e-14,5.384085580e-13,1.849244496e-13,1.429677972e-13,7.296127918e-13,5.239382618e-13,4.719816957e-13,3.370014258e-13,1.239061221e-12,2.940002833e-13
0.63281,7.832471527e-13,6.647778129e-13,1.412922671e-12,6.524868941e-13,3.473872782e-13,5.629832535e-13,6.783822004e-13,2.265344432e-13,6.574814467e-13,2.762819525e-13,2.148388468e-13,1.348352989e-12,1.375160244e-12,3.322918150e-12,6.141806523e-13,5.882972098e-13,4.982465944e-13,9.359233853e-13,4.461280371e-13,5.754337003e-13,3.072943587e-13,1.980445079e-13,9.443974755e-14,5.191343476e-13,1.738472784e-13,1.421161943e-13,7.227773387e-13,5.180748831e-13,4.729606873e-13,3.335825969e-13,1.260579526e-12,2.916551530e-13
0.64062,7.894774999e-13,6.827664872e-13,1.360076831e-12,6.696501793e-13,3.650338210e-13,5.395300747e-13,6.474574781e-13,2.211707360e-13,6.415316874e-13,2.872101040e-13,2.124335164e-13,1.302616858e-12,1.348659833e-12,3.236435556e-12,5.839377442e-13,5.644268516e-13,4.865015551e-13,9.103511827e-13,4.375962768e-13,6.039472802e-13,3.080864271e-13,2.068539942e-13,9.973216154e-14,5.003785644e-13,1.634862244e-13,1.414794131e-13,7.154433282e-13,5.122309948e-13,4.735995708e-13,3.305597781e-13,1.280736801e-12,2.890608468e-13
0.64844,7.948382986e-13,7.014986354e-13,1.309138413e-12,6.893948895e-13,3.852098451e-13,5.164948719e-13,6.170702481e-13,2.164394949e-13,6.264250578e-13,2.986736247e-13,2.105837134e-13,1.257703433e-12,1.323965064e-12,3.150571478e-12,5.547002863e-13,5.420180294e-13,4.761262269e-13,8.858950757e-13,4.299624717e-13,6.317986946e-13,3.087877570e-13,2.168888994e-13,1.057112258e-13,4.838710670e-13,1.539268448e-13,1.414368194e-13,7.078698507e-13,5.063305448e-13,4.745079347e-13,3.280904249e-13,1.300765151e-12,2.861547067e-13
0.65625,7.998527312e-13,7.215944672e-13,1.259199495e-12,7.123451562e-13,4.074574291e-13,4.942591163e-13,5.880980808e-13,2.122455270e-13,6.119076400e-13,3.105974242e-13,2.089609117e-13,1.213537739e-12,1.300610863e-12,3.065485970e-12,5.264902179e-13,5.212966691e-13,4.672292726e-13,8.629119874e-13,4.232433102e-13,6.589447717e-13,3.092048303e-13,2.281694722e-13,1.122700423e-13,4.683272379e-13,1.450138793e-13,1.417986881e-13,6.997255022e-13,5.007144890e-13,4.754026868e-13,3.261653890e-13,1.320491644e-12,2.831298801e-13
0.66406,8.044659808e-13,7.428072451e-13,1.209530496e-12,7.375978111e-13,4.310006867e-13,4.728837053e-13,5.604083306e-13,2.084959912e-13,5.975962388e-13,3.228569109e-13,2.075838711e-13,1.169797585e-12,1.277275002e-12,2.979306115e-12,4.995763966e-13,5.022829021e-13,4.591168831e-13,8.410482906e-13,4.173456115e-13,6.850134865e-13,3.092503764e-13,2.403254790e-13,1.192582867e-13,4.525119096e-13,1.367468056e-13,1.423410036e-13,6.911131252e-13,4.956390047e-13,4.758700601e-13,3.244730382e-13,1.338752133e-12,2.800534647e-13
0.67188,8.084436569e-13,7.648355061e-13,1.159847892e-12,7.647491272e-13,4.559411052e-13,4.523496469e-13,5.335731535e-13,2.049120126e-13,5.835610415e-13,3.347348762e-13,2.068266003e-13,1.126644164e-12,1.253953601e-12,2.891026782e-12,4.734974603e-13,4.848801649e-13,4.516514480e-13,8.200174218e-13,4.121356206e-13,7.096997728e-13,3.092277953e-13,2.533218948e-13,1.263250380e-13,4.370774219e-13,1.290345821e-13,1.432205872e-13,6.825332094e-13,4.908985693e-13,4.761540637e-13,3.228606540e-13,1.355609212e-12,2.766063052e-13
0.67969,8.114858409e-13,7.881081400e-13,1.111625002e-12,7.947643845e-13,4.828257979e-13,4.326335739e-13,5.080625091e-13,2.014290907e-13,5.701085663e-13,3.459407533e-13,2.069704372e-13,1.084705260e-12,1.231245833e-12,2.801031267e-12,4.483923177e-13,4.691964780e-13,4.452973441e-13,8.000212731e-13,4.079685925e-13,7.334474468e-13,3.091601001e-13,2.673660695e-13,1.336130866e-13,4.229175741e-13,1.219886118e-13,1.444927659e-13,6.734774795e-13,4.862883216e-13,4.763374769e-13,3.216580313e-13,1.371595341e-12,2.727956116e-13
0.6875,8.135068296e-13,8.120722500e-13,1.066531052e-12,8.272202258e-13,5.119506691e-13,4.138341842e-13,4.835211214e-13,1.983346857e-13,5.572023996e-13,3.566888666e-13,2.080343086e-13,1.044056624e-12,1.209653112e-12,2.710430108e-12,4.246810357e-13,4.550215226e-13,4.399765856e-13,7.810503103e-13,4.047970270e-13,7.558583700e-13,3.085818370e-13,2.825151806e-13,1.413911109e-13,4.097355668e-13,1.155823849e-13,1.460425473e-13,6.632788180e-13,4.819636706e-13,4.761398833e-13,3.207512070e-13,1.386287355e-12,2.686745347e-13
0.69531,8.151809885e-13,8.362636203e-13,1.022784336e-12,8.617767769e-13,5.436891505e-13,3.965757968e-13,4.599479548e-13,1.954998875e-13,5.445867992e-13,3.669961847e-13,2.097553419e-13,1.004614254e-12,1.190035972e-12,2.622356592e-12,4.025359518e-13,4.422691288e-13,4.352158166e-13,7.638914514e-13,4.028063332e-13,7.761653852e-13,3.075055944e-13,2.983828306e-13,1.494662549e-13,3.972101244e-13,1.096205243e-13,1.481001404e-13,6.526703214e-13,4.777809020e-13,4.757904653e-13,3.198829204e-13,1.400026881e-12,2.639547497e-13
0.70312,8.162662416e-13,8.616178535e-13,9.800167457e-13,8.993288574e-13,5.777417169e-13,3.813185383e-13,4.380403813e-13,1.926400190e-13,5.324117018e-13,3.769971829e-13,2.119994133e-13,9.669627244e-13,1.172835489e-12,2.539003016e-12,3.823173718e-13,4.312899655e-13,4.310413204e-13,7.496705536e-13,4.024448481e-13,7.944569142e-13,3.064328024e-13,3.148847681e-13,1.574701113e-13,3.853108707e-13,1.041312663e-13,1.507903539e-13,6.423661968e-13,4.737182407e-13,4.759952896e-13,3.196438923e-13,1.414143398e-12,2.588527179e-13
0.71094,8.171182984e-13,8.884116595e-13,9.408569591e-13,9.390618138e-13,6.128279753e-13,3.675325428e-13,4.172021468e-13,1.899435508e-13,5.206327193e-13,3.863483110e-13,2.149097018e-13,9.311049797e-13,1.156956880e-12,2.458024555e-12,3.643686817e-13,4.220456693e-13,4.274694189e-13,7.377907854e-13,4.034697737e-13,8.107614790e-13,3.052326863e-13,3.322106637e-13,1.651808509e-13,3.737985445e-13,9.932077161e-14,1.536718370e-13,6.318434264e-13,4.701268828e-13,4.769861808e-13,3.201397037e-13,1.428032546e-12,2.537870322e-13
0.71875,8.177166799e-13,9.150702513e-13,9.045320957e-13,9.791437973e-13,6.483594391e-13,3.544868360e-13,3.971850524e-13,1.873370007e-13,5.084604835e-13,3.942580845e-13,2.182615544e-13,8.958585101e-13,1.140549182e-12,2.375871059e-12,3.482613627e-13,4.139802521e-13,4.239567180e-13,7.261920057e-13,4.047898041e-13,8.256777625e-13,3.036018623e-13,3.500676310e-13,1.726336720e-13,3.626315408e-13,9.516054734e-14,1.564682694e-13,6.202651458e-13,4.665497143e-13,4.776951899e-13,3.204542129e-13,1.439616368e-12,2.483594598e-13
0.72656,8.157043455e-13,9.398946610e-13,8.683939598e-13,1.019106283e-12,6.847678148e-13,3.420401088e-13,3.789675268e-13,1.844255505e-13,4.957400103e-13,4.011140408e-13,2.216292107e-13,8.607576727e-13,1.123303009e-12,2.292192006e-12,3.331836712e-13,4.065946186e-13,4.200875742e-13,7.136656696e-13,4.055996309e-13,8.394057075e-13,3.018376552e-13,3.682861207e-13,1.802984625e-13,3.522785542e-13,9.132237902e-14,1.594440616e-13,6.073124115e-13,4.620488202e-13,4.770305345e-13,3.203856195e-13,1.448305990e-12,2.422569977e-13
0.73438,8.109564427e-13,9.632846467e-13,8.327211124e-13,1.059314787e-12,7.224405384e-13,3.304058359e-13,3.626184765e-13,1.813956763e-13,4.831691493e-13,4.077330732e-13,2.250717139e-13,8.267118883e-13,1.106485221e-12,2.209758596e-12,3.188793632e-13,3.996678047e-13,4.159484210e-13,7.010796992e-13,4.064126634e-13,8.502542403e-13,3.002947108e-13,3.870584526e-13,1.885072030e-13,3.430422831e-13,8.759345090e-14,1.627776393e-13,5.935148398e-13,4.568257900e-13,4.756391369e-13,3.204298655e-13,1.454858624e-12,2.358003216e-13
0.74219,8.054380841e-13,9.865543565e-13,7.988696765e-13,1.100112147e-12,7.613429635e-13,3.199501358e-13,3.476853242e-13,1.786948992e-13,4.708341360e-13,4.139253952e-13,2.286317865e-13,7.944405906e-13,1.090535073e-12,2.131548314e-12,3.061726160e-13,3.936568606e-13,4.116178686e-13,6.902722249e-13,4.082780774e-13,8.577804116e-13,2.989643771e-13,4.061392013e-13,1.970272362e-13,3.345515161e-13,8.420407332e-14,1.664743056e-13,5.795355412e-13,4.516015693e-13,4.745012369e-13,3.206454959e-13,1.459832213e-12,2.289923209e-13
0.75,7.990925080e-13,1.009310585e-12,7.670667459e-13,1.141389463e-12,8.011950547e-13,3.107658483e-13,3.340911221e-13,1.761448329e-13,4.584895528e-13,4.191561376e-13,2.321927573e-13,7.636252985e-13,1.075164682e-12,2.057373260e-12,2.958650569e-13,3.893861506e-13,4.073649538e-13,6.819114346e-13,4.116593164e-13,8.632000633e-13,2.977891509e-13,4.252566490e-13,2.055121828e-13,3.264215591e-13,8.142642362e-14,1.708030053e-13,5.651785150e-13,4.461028451e-13,4.736411107e-13,3.208629735e-13,1.463851801e-12,2.217762907e-13
0.75781,7.917349715e-13,1.030769349e-12,7.363498557e-13,1.182468324e-12,8.415291370e-13,3.021990657e-13,3.216926534e-13,1.731879376e-13,4.462496972e-13,4.231430350e-13,2.358291765e-13,7.336178966e-13,1.060459726e-12,1.984678922e-12,2.870399906e-13,3.865783752e-13,4.034627466e-13,6.746905324e-13,4.161366678e-13,8.663099643e-13,2.969509152e-13,4.445150135e-13,2.137882820e-13,3.189769418e-13,7.911518725e-14,1.757451734e-13,5.500052914e-13,4.395268663e-13,4.729782239e-13,3.210357350e-13,1.467272473e-12,2.145895145e-13
0.76562,7.829118905e-13,1.050538506e-12,7.056094577e-13,1.222317022e-12,8.814878323e-13,2.937543982e-13,3.106392917e-13,1.697980741e-13,4.338864644e-13,4.258516274e-13,2.393916505e-13,7.042803924e-13,1.045439381e-12,1.912264993e-12,2.784300522e-13,3.839447290e-13,3.991611071e-13,6.667688713e-13,4.202844919e-13,8.663930419e-13,2.963892211e-13,4.638093608e-13,2.220292829e-13,3.124686813e-13,7.701091203e-14,1.805849439e-13,5.338957588e-13,4.315807617e-13,4.718836674e-13,3.210297384e-13,1.468627534e-12,2.074785985e-13
0.77344,7.712807785e-13,1.067831815e-12,6.750811503e-13,1.260549662e-12,9.210000395e-13,2.859354266e-13,3.011947929e-13,1.664770636e-13,4.210812527e-13,4.274187070e-13,2.428270715e-13,6.760537910e-13,1.028999768e-12,1.841029994e-12,2.705360098e-13,3.814771806e-13,3.941843042e-13,6.583578168e-13,4.234696371e-13,8.636805355e-13,2.956875896e-13,4.828005870e-13,2.304948135e-13,3.065627423e-13,7.500394982e-14,1.852070379e-13,5.172001769e-13,4.226410082e-13,4.696880347e-13,3.206295043e-13,1.466808646e-12,2.000649552e-13
0.78125,7.581115221e-13,1.083619801e-12,6.458066539e-13,1.298509698e-12,9.613622183e-13,2.791975955e-13,2.930130178e-13,1.634743015e-13,4.082788492e-13,4.279568283e-13,2.463243510e-13,6.493933905e-13,1.012403025e-12,1.772752734e-12,2.643555865e-13,3.808025252e-13,3.898856618e-13,6.518422007e-13,4.271525977e-13,8.585118354e-13,2.950177825e-13,5.012103946e-13,2.388187090e-13,3.011366605e-13,7.307266210e-14,1.903670421e-13,5.007402789e-13,4.134635918e-13,4.675826121e-13,3.199482551e-13,1.463844059e-12,1.925705002e-13
0.78906,7.455183345e-13,1.099592228e-12,6.179055361e-13,1.337273282e-12,1.002794864e-12,2.733055727e-13,2.856199856e-13,1.606253021e-13,3.957235480e-13,4.273859706e-13,2.495102903e-13,6.238899326e-13,9.964648349e-13,1.707930410e-12,2.598662632e-13,3.826329119e-13,3.867941758e-13,6.483998060e-13,4.323339304e-13,8.509703410e-13,2.948620481e-13,5.188672868e-13,2.464449510e-13,2.962458972e-13,7.137498795e-14,1.961119457e-13,4.842979516e-13,4.043334318e-13,4.665879492e-13,3.192119915e-13,1.461162423e-12,1.853380188e-13
0.79688,7.329539149e-13,1.114890921e-12,5.901786992e-13,1.375624067e-12,1.044065496e-12,2.679487383e-13,2.791487329e-13,1.577031652e-13,3.828139288e-13,4.255012153e-13,2.522269728e-13,5.985611651e-13,9.798642783e-13,1.645020278e-12,2.565383766e-13,3.860767522e-13,3.843194913e-13,6.469724421e-13,4.384050392e-13,8.410634937e-13,2.950366887e-13,5.356865503e-13,2.532593383e-13,2.919619434e-13,7.002906100e-14,2.019683210e-13,4.669590036e-13,3.944351437e-13,4.655814813e-13,3.183320177e-13,1.457196025e-12,1.780942119e-13
0.80469,7.189316270e-13,1.128341571e-12,5.624658108e-13,1.411886657e-12,1.084329916e-12,2.629473407e-13,2.738229840e-13,1.546381496e-13,3.694998161e-13,4.224204519e-13,2.549227388e-13,5.736211762e-13,9.629324181e-13,1.584435664e-12,2.541762721e-13,3.904386277e-13,3.823922976e-13,6.469263307e-13,4.447017027e-13,8.291701792e-13,2.950661897e-13,5.515770832e-13,2.592975714e-13,2.887069156e-13,6.892780618e-14,2.079073682e-13,4.493325817e-13,3.831421505e-13,4.639526034e-13,3.173760950e-13,1.451438010e-12,1.707600418e-13
0.8125,7.036546413e-13,1.140210678e-12,5.364754174e-13,1.445597176e-12,1.122912030e-12,2.584958384e-13,2.692346153e-13,1.515863042e-13,3.564462846e-13,4.182515895e-13,2.574361906e-13,5.503134982e-13,9.471150041e-13,1.528624665e-12,2.531702013e-13,3.955883745e-13,3.806407217e-13,6.484007777e-13,4.508361418e-13,8.160189138e-13,2.946537619e-13,5.665411162e-13,2.648230044e-13,2.862118895e-13,6.806937023e-14,2.137528503e-13,4.324077934e-13,3.714861631e-13,4.625984920e-13,3.163517538e-13,1.445158428e-12,1.637119930e-13
0.82031,6.890870820e-13,1.150728361e-12,5.122883848e-13,1.477050198e-12,1.159529536e-12,2.549859208e-13,2.650879990e-13,1.488071847e-13,3.436531574e-13,4.128387492e-13,2.594684400e-13,5.288211184e-13,9.314187083e-13,1.476885985e-12,2.534517078e-13,4.013037009e-13,3.785997981e-13,6.509082055e-13,4.569565797e-13,8.017664914e-13,2.938430854e-13,5.805055934e-13,2.701124722e-13,2.834821025e-13,6.745991264e-14,2.193571184e-13,4.158909194e-13,3.605420526e-13,4.616636282e-13,3.148940530e-13,1.438614334e-12,1.569568718e-13
0.82812,6.753129817e-13,1.159860655e-12,4.882656776e-13,1.506646985e-12,1.194732674e-12,2.521484834e-13,2.615150324e-13,1.463224152e-13,3.306169718e-13,4.063931988e-13,2.611727746e-13,5.081472045e-13,9.144223916e-13,1.426752890e-12,2.542503051e-13,4.076039318e-13,3.766908025e-13,6.540912214e-13,4.634508620e-13,7.855661700e-13,2.930233055e-13,5.930615024e-13,2.748317447e-13,2.806131293e-13,6.689753179e-14,2.251740443e-13,3.993736793e-13,3.495605978e-13,4.606168809e-13,3.130702820e-13,1.431440460e-12,1.502275950e-13
0.83594,6.601892264e-13,1.167427311e-12,4.642369019e-13,1.534595183e-12,1.228887094e-12,2.495413631e-13,2.582237666e-13,1.437967086e-13,3.171838851e-13,3.989220172e-13,2.625297201e-13,4.873475004e-13,8.965059175e-13,1.377895766e-12,2.555995113e-13,4.147527281e-13,3.750745542e-13,6.583383083e-13,4.700087496e-13,7.662462609e-13,2.923548176e-13,6.043354367e-13,2.786770811e-13,2.783736346e-13,6.630839677e-14,2.314277276e-13,3.829301528e-13,3.377261351e-13,4.598228001e-13,3.110242214e-13,1.423733761e-12,1.436688698e-13
0.84375,6.443222146e-13,1.173615048e-12,4.406163749e-13,1.560935782e-12,1.261956036e-12,2.470988042e-13,2.551707181e-13,1.410508795e-13,3.035939733e-13,3.901531205e-13,2.636450202e-13,4.662024045e-13,8.781883921e-13,1.330423303e-12,2.577700464e-13,4.225447087e-13,3.735672166e-13,6.637171601e-13,4.763967027e-13,7.438164021e-13,2.917566571e-13,6.151412112e-13,2.818379248e-13,2.767354368e-13,6.578284991e-14,2.378260023e-13,3.667456070e-13,3.255416247e-13,4.597014067e-13,3.085320247e-13,1.415819477e-12,1.377025355e-13
0.85156,6.291115258e-13,1.178502995e-12,4.171033583e-13,1.585148126e-12,1.293347198e-12,2.445457296e-13,2.529439674e-13,1.383681665e-13,2.901865432e-13,3.807147807e-13,2.645328371e-13,4.452519544e-13,8.592588809e-13,1.283443566e-12,2.600636037e-13,4.302894805e-13,3.722542976e-13,6.692994765e-13,4.824023229e-13,7.194457355e-13,2.911572543e-13,6.252148814e-13,2.844167444e-13,2.753912412e-13,6.537263666e-14,2.440997277e-13,3.508488507e-13,3.131391277e-13,4.595403775e-13,3.056972788e-13,1.407502576e-12,1.323743101e-13
0.85938,6.132247288e-13,1.181021517e-12,3.935670331e-13,1.606549920e-12,1.322393666e-12,2.417867938e-13,2.514011860e-13,1.359554417e-13,2.768851151e-13,3.712460461e-13,2.646882169e-13,4.248325033e-13,8.393238168e-13,1.236506275e-12,2.621406863e-13,4.375770042e-13,3.711158940e-13,6.740130223e-13,4.874523502e-13,6.935686133e-13,2.904865248e-13,6.334885633e-13,2.865483732e-13,2.741297231e-13,6.507004991e-14,2.501861469e-13,3.350107596e-13,3.000125780e-13,4.589565118e-13,3.025322008e-13,1.398029359e-12,1.273628083e-13
0.86719,5.967881542e-13,1.181446903e-12,3.703560900e-13,1.625821534e-12,1.349493353e-12,2.393207432e-13,2.501540109e-13,1.337125387e-13,2.635558754e-13,3.614691806e-13,2.641857381e-13,4.048552749e-13,8.184443054e-13,1.190656219e-12,2.643855472e-13,4.446270439e-13,3.704007479e-13,6.780353991e-13,4.916885937e-13,6.660264235e-13,2.899851805e-13,6.402751749e-13,2.885896080e-13,2.727546752e-13,6.476556942e-14,2.562288829e-13,3.196580469e-13,2.864917260e-13,4.589100079e-13,2.987216838e-13,1.387786729e-12,1.226748360e-13
0.875,5.811439836e-13,1.181369298e-12,3.483821885e-13,1.643929690e-12,1.374811255e-12,2.373833539e-13,2.495350913e-13,1.316278399e-13,2.506690468e-13,3.512228371e-13,2.635679907e-13,3.855317941e-13,7.970654296e-13,1.146930508e-12,2.668168575e-13,4.516122949e-13,3.705232610e-13,6.823121963e-13,4.952732496e-13,6.375161623e-13,2.897461223e-13,6.462792432e-13,2.906187513e-13,2.717443986e-13,6.445833960e-14,2.622277847e-13,3.057213933e-13,2.732701021e-13,4.597882201e-13,2.943190262e-13,1.377585854e-12,1.186710813e-13
0.88281,5.652679806e-13,1.179902477e-12,3.282751972e-13,1.659825788e-12,1.397486253e-12,2.356269762e-13,2.494371631e-13,1.299229061e-13,2.384626515e-13,3.406979135e-13,2.626813642e-13,3.667832176e-13,7.748138156e-13,1.104061636e-12,2.692203702e-13,4.581550139e-13,3.712253065e-13,6.868816289e-13,4.979806334e-13,6.090104705e-13,2.893261907e-13,6.508166892e-13,2.923480667e-13,2.715770139e-13,6.428143604e-14,2.679989063e-13,2.929957377e-13,2.602700389e-13,4.606409893e-13,2.895565110e-13,1.366393179e-12,1.154812507e-13
0.89062,5.487508328e-13,1.175598386e-12,3.092678250e-13,1.672385807e-12,1.417319023e-12,2.338889800e-13,2.492776689e-13,1.288052811e-13,2.265358423e-13,3.298656102e-13,2.611833893e-13,3.481737409e-13,7.511122850e-13,1.060785871e-12,2.715730086e-13,4.640686125e-13,3.719921559e-13,6.915074655e-13,5.004844950e-13,5.809547112e-13,2.886858181e-13,6.533575069e-13,2.935105512e-13,2.717085941e-13,6.418387611e-14,2.735518314e-13,2.806296664e-13,2.471014620e-13,4.611147290e-13,2.845531508e-13,1.353469468e-12,1.129423030e-13
0.89844,5.326827822e-13,1.169694744e-12,2.903854119e-13,1.683370172e-12,1.435260340e-12,2.326301347e-13,2.491698072e-13,1.281456429e-13,2.149350964e-13,3.187261470e-13,2.593007456e-13,3.301619689e-13,7.269011212e-13,1.018390547e-12,2.742773443e-13,4.699705276e-13,3.729601735e-13,6.968320493e-13,5.033486876e-13,5.536618556e-13,2.881642940e-13,6.545539076e-13,2.942873170e-13,2.717658362e-13,6.410060701e-14,2.788960340e-13,2.688555009e-13,2.339275019e-13,4.620544395e-13,2.793753376e-13,1.340256133e-12,1.109544503e-13
0.90625,5.168904867e-13,1.163848827e-12,2.718800229e-13,1.694796914e-12,1.451844630e-12,2.320883612e-13,2.494871433e-13,1.276651973e-13,2.043038919e-13,3.079295581e-13,2.573695128e-13,3.134455908e-13,7.033998080e-13,9.777597512e-13,2.776694687e-13,4.764184533e-13,3.749778893e-13,7.029628760e-13,5.059119989e-13,5.271965931e-13,2.876514419e-13,6.548794370e-13,2.950971349e-13,2.719907261e-13,6.410411605e-14,2.839691316e-13,2.585640273e-13,2.212503413e-13,4.639806776e-13,2.741055049e-13,1.327680606e-12,1.096909576e-13
0.91406,5.010007806e-13,1.157902967e-12,2.544422356e-13,1.705376826e-12,1.465896461e-12,2.317743377e-13,2.502064630e-13,1.274851207e-13,1.949219916e-13,2.981157013e-13,2.551172412e-13,2.977525435e-13,6.803251381e-13,9.382124085e-13,2.811248185e-13,4.830188839e-13,3.783426374e-13,7.087842053e-13,5.073061442e-13,5.010165284e-13,2.868886110e-13,6.539508089e-13,2.957814950e-13,2.721978089e-13,6.419601326e-14,2.886377557e-13,2.499487253e-13,2.090567156e-13,4.662944813e-13,2.688448397e-13,1.314764750e-12,1.093553371e-13
0.92188,4.852566397e-13,1.150638156e-12,2.381370554e-13,1.713300001e-12,1.476344972e-12,2.316228997e-13,2.511003133e-13,1.279248238e-13,1.866254608e-13,2.888387235e-13,2.520587139e-13,2.828444600e-13,6.570111231e-13,8.998377076e-13,2.841307183e-13,4.890624096e-13,3.821303236e-13,7.137884547e-13,5.073322479e-13,4.748203847e-13,2.858360995e-13,6.512119478e-13,2.959920380e-13,2.724075172e-13,6.433162020e-14,2.925511054e-13,2.425759846e-13,1.969414923e-13,4.682541638e-13,2.635282731e-13,1.300666445e-12,1.099308599e-13
0.92969,4.696881781e-13,1.141935436e-12,2.227648665e-13,1.719753479e-12,1.484141470e-12,2.322858493e-13,2.519456957e-13,1.289851073e-13,1.793816926e-13,2.798183882e-13,2.486305849e-13,2.691455845e-13,6.337993181e-13,8.631705954e-13,2.871641253e-13,4.945310336e-13,3.858757875e-13,7.186443922e-13,5.066402336e-13,4.491110619e-13,2.845471550e-13,6.468784522e-13,2.960377138e-13,2.731258699e-13,6.448935210e-14,2.956737588e-13,2.363440913e-13,1.849996967e-13,4.702360136e-13,2.582918603e-13,1.286267263e-12,1.113282687e-13
0.9375,4.546814520e-13,1.133217556e-12,2.084591198e-13,1.726448703e-12,1.489810594e-12,2.338248425e-13,2.526477726e-13,1.305459981e-13,1.732312607e-13,2.718841443e-13,2.456697787e-13,2.566628606e-13,6.113975247e-13,8.279993238e-13,2.903275231e-13,4.997677807e-13,3.899675064e-13,7.235705664e-13,5.055917540e-13,4.240912826e-13,2.830396914e-13,6.417671770e-13,2.962226184e-13,2.740598918e-13,6.474645741e-14,2.981903200e-13,2.316050417e-13,1.736501276e-13,4.731651303e-13,2.534913307e-13,1.272713086e-12,1.133751823e-13
0.94531,4.404626491e-13,1.124711426e-12,1.958506297e-13,1.732720346e-12,1.492369556e-12,2.355817298e-13,2.532385389e-13,1.326262389e-13,1.682361666e-13,2.654044071e-13,2.431338975e-13,2.449938440e-13,5.899571196e-13,7.939940510e-13,2.930132501e-13,5.044675871e-13,3.940309208e-13,7.278021056e-13,5.035889311e-13,3.994960074e-13,2.812022392e-13,6.361794929e-13,2.963437793e-13,2.745161287e-13,6.525487902e-14,2.999822419e-13,2.282851931e-13,1.631228137e-13,4.769037716e-13,2.491533470e-13,1.259226625e-12,1.159914378e-13
0.95312,4.265542793e-13,1.115473628e-12,1.854086795e-13,1.737531752e-12,1.491736429e-12,2.374092273e-13,2.537953232e-13,1.351588665e-13,1.645712387e-13,2.599514230e-13,2.406704981e-13,2.342253725e-13,5.692284155e-13,7.612361643e-13,2.950828467e-13,5.079738662e-13,3.974240191e-13,7.310690934e-13,5.004600568e-13,3.757356483e-13,2.789988083e-13,6.299755899e-13,2.962637873e-13,2.745815477e-13,6.593411059e-14,3.011651366e-13,2.258497659e-13,1.536711064e-13,4.807158738e-13,2.451555992e-13,1.244835833e-12,1.194361001e-13
0.96094,4.129620588e-13,1.105940367e-12,1.764644654e-13,1.741710150e-12,1.488487011e-12,2.398684181e-13,2.542367907e-13,1.380276317e-13,1.622059111e-13,2.554710348e-13,2.383488942e-13,2.245758691e-13,5.492146354e-13,7.296031089e-13,2.969628329e-13,5.102389280e-13,4.001157037e-13,7.339120305e-13,4.964859483e-13,3.533284921e-13,2.764970128e-13,6.232218124e-13,2.960951309e-13,2.749045928e-13,6.664456850e-14,3.018054262e-13,2.244099427e-13,1.452040248e-13,4.847611358e-13,2.413503500e-13,1.230410693e-12,1.237721644e-13
0.96875,4.001811693e-13,1.096849662e-12,1.685486507e-13,1.746184855e-12,1.482572352e-12,2.432262350e-13,2.544258993e-13,1.412874326e-13,1.612445946e-13,2.523136263e-13,2.361415124e-13,2.160582198e-13,5.304736721e-13,6.986355310e-13,2.987464541e-13,5.112883121e-13,4.018884533e-13,7.360135443e-13,4.916491329e-13,3.319772398e-13,2.736587046e-13,6.161339350e-13,2.961040020e-13,2.755793356e-13,6.746842939e-14,3.013818717e-13,2.244767569e-13,1.372193312e-13,4.893413856e-13,2.377946647e-13,1.216470987e-12,1.287886745e-13
0.97656,3.883232964e-13,1.088003088e-12,1.622937254e-13,1.750385583e-12,1.473930625e-12,2.472083272e-13,2.546913626e-13,1.448322384e-13,1.619963480e-13,2.506175342e-13,2.338165611e-13,2.088483728e-13,5.132099976e-13,6.686197629e-13,2.999518537e-13,5.107250565e-13,4.026799268e-13,7.364315095e-13,4.861225266e-13,3.113062781e-13,2.704879127e-13,6.089708655e-13,2.964932748e-13,2.757211305e-13,6.837475552e-14,2.999079975e-13,2.256701072e-13,1.299202273e-13,4.938463311e-13,2.349293876e-13,1.202333369e-12,1.344756876e-13
0.98438,3.771332278e-13,1.079282811e-12,1.577219263e-13,1.753864715e-12,1.462877318e-12,2.515842987e-13,2.552275216e-13,1.484908169e-13,1.641846184e-13,2.501449954e-13,2.315176420e-13,2.031201966e-13,4.967053861e-13,6.400004402e-13,3.003948608e-13,5.088457335e-13,4.030432165e-13,7.354967059e-13,4.799363026e-13,2.911740189e-13,2.671177136e-13,6.017007728e-13,2.970601695e-13,2.753325231e-13,6.925745917e-14,2.979887684e-13,2.273204072e-13,1.239065585e-13,4.979602664e-13,2.327831390e-13,1.187859502e-12,1.408621570e-13
0.99219,3.665860477e-13,1.070716093e-12,1.545149762e-13,1.757322757e-12,1.450259043e-12,2.563748407e-13,2.555028813e-13,1.525410307e-13,1.674929352e-13,2.507383353e-13,2.297761747e-13,1.987326607e-13,4.807294415e-13,6.122605635e-13,3.005225089e-13,5.066355738e-13,4.032384213e-13,7.343314790e-13,4.730385462e-13,2.714789390e-13,2.637908506e-13,5.939667570e-13,2.976724374e-13,2.754635263e-13,7.020099641e-14,2.956751184e-13,2.294870407e-13,1.189591557e-13,5.023152519e-13,2.311396701e-13,1.173281200e-12,1.479901653e-13
1,3.572375077e-13,1.062811996e-12,1.526666285e-13,1.761682887e-12,1.436817546e-12,2.617681935e-13,2.553805489e-13,1.572176813e-13,1.721043752e-13,2.524848125e-13,2.287164332e-13,1.952738199e-13,4.658937670e-13,5.850836920e-13,3.005912481e-13,5.043833629e-13,4.033614835e-13,7.333689382e-13,4.659625903e-13,2.526016879e-13,2.607270804e-13,5.857747232e-13,2.986221615e-13,2.754432315e-13,7.119538428e-14,2.928108610e-13,2.322781861e-13,1.146638752e-13,5.072476938e-13,2.301670838e-13,1.158982924e-12,1.559238585e-13
1.0078,3.489210298e-13,1.056205923e-12,1.517856488e-13,1.767152721e-12,1.421817517e-12,2.678097147e-13,2.552019284e-13,1.624046605e-13,1.781893321e-13,2.553741671e-13,2.277422092e-13,1.926241612e-13,4.525435340e-13,5.585316694e-13,3.003648489e-13,5.016881398e-13,4.035735275e-13,7.322599734e-13,4.586675774e-13,2.351646820e-13,2.575937938e-13,5.773442032e-13,2.998992288e-13,2.744800483e-13,7.219423900e-14,2.894411955e-13,2.357362316e-13,1.111385387e-13,5.124520740e-13,2.299748040e-13,1.145378995e-12,1.645610469e-13
1.0156,3.403513456e-13,1.049714936e-12,1.520686249e-13,1.772689466e-12,1.403979169e-12,2.742800365e-13,2.548113320e-13,1.680831452e-13,1.860478041e-13,2.593674870e-13,2.263765439e-13,1.913461029e-13,4.410058610e-13,5.325728409e-13,2.994919625e-13,4.982489937e-13,4.034102417e-13,7.302660476e-13,4.504072945e-13,2.192736101e-13,2.537536060e-13,5.685777072e-13,3.010626914e-13,2.737917820e-13,7.338740189e-14,2.853847426e-13,2.402383728e-13,1.084730434e-13,5.177115512e-13,2.305211776e-13,1.131551523e-12,1.739074762e-13
1.0234,3.314221977e-13,1.041983939e-12,1.541211186e-13,1.777318434e-12,1.383374524e-12,2.812141043e-13,2.540200506e-13,1.742490505e-13,1.957037703e-13,2.643541355e-13,2.248538941e-13,1.917099666e-13,4.314272312e-13,5.078271534e-13,2.978946414e-13,4.941486383e-13,4.025830326e-13,7.271142649e-13,4.412807942e-13,2.046149404e-13,2.492214605e-13,5.594981590e-13,3.019582473e-13,2.732492644e-13,7.482430734e-14,2.803815886e-13,2.456592632e-13,1.067218848e-13,5.229210096e-13,2.317705325e-13,1.116451895e-12,1.839319289e-13
1.0312,3.232377248e-13,1.033993573e-12,1.580319758e-13,1.781693400e-12,1.360694223e-12,2.889315848e-13,2.528102179e-13,1.807830134e-13,2.066525033e-13,2.700371009e-13,2.237169485e-13,1.933901760e-13,4.232513920e-13,4.846188951e-13,2.959852952e-13,4.898500845e-13,4.016428028e-13,7.232798095e-13,4.317823072e-13,1.908227128e-13,2.444678333e-13,5.504239673e-13,3.027705543e-13,2.717244871e-13,7.632211843e-14,2.743629720e-13,2.513268050e-13,1.061957785e-13,5.279191636e-13,2.338915242e-13,1.100515396e-12,1.943220988e-13
1.0391,3.160190128e-13,1.026692999e-12,1.639287508e-13,1.786637006e-12,1.336023103e-12,2.976520155e-13,2.510659161e-13,1.875268387e-13,2.188160176e-13,2.763582023e-13,2.231684203e-13,1.964086673e-13,4.162175015e-13,4.626177815e-13,2.942354937e-13,4.858728351e-13,4.009171977e-13,7.190485419e-13,4.219696126e-13,1.776194510e-13,2.396513939e-13,5.412621961e-13,3.036412018e-13,2.700319914e-13,7.794811181e-14,2.675145134e-13,2.571838687e-13,1.069152868e-13,5.327488761e-13,2.372411077e-13,1.084137132e-12,2.049905479e-13
1.0469,3.095479872e-13,1.019673057e-12,1.715636952e-13,1.792342696e-12,1.309910958e-12,3.074974686e-13,2.491115153e-13,1.945036582e-13,2.323342035e-13,2.834821123e-13,2.229456045e-13,2.010288649e-13,4.104444728e-13,4.420572261e-13,2.927535064e-13,4.825691273e-13,4.005575194e-13,7.146718003e-13,4.121816390e-13,1.650469319e-13,2.347488492e-13,5.314175017e-13,3.045057897e-13,2.684838151e-13,7.989946708e-14,2.603377391e-13,2.637368553e-13,1.085948572e-13,5.377694403e-13,2.417298418e-13,1.067523024e-12,2.161097997e-13
1.0547,3.039649082e-13,1.013190729e-12,1.810217048e-13,1.799328055e-12,1.283444627e-12,3.183119483e-13,2.474004758e-13,2.022287599e-13,2.473486522e-13,2.913704297e-13,2.229723687e-13,2.074367866e-13,4.059590367e-13,4.229038854e-13,2.913626740e-13,4.798156499e-13,4.006315632e-13,7.106218910e-13,4.028263948e-13,1.533418900e-13,2.298194857e-13,5.208029594e-13,3.051266795e-13,2.666288357e-13,8.209651971e-14,2.530788215e-13,2.711145356e-13,1.113535041e-13,5.432885755e-13,2.473111940e-13,1.051510974e-12,2.276992584e-13
1.0625,2.991189740e-13,1.007546739e-12,1.927370905e-13,1.807084420e-12,1.256154725e-12,3.295349846e-13,2.458886389e-13,2.108166406e-13,2.640540452e-13,2.998559323e-13,2.234011561e-13,2.155476349e-13,4.028884898e-13,4.047292003e-13,2.897516707e-13,4.768964188e-13,4.002689862e-13,7.065178519e-13,3.935296562e-13,1.425393396e-13,2.247828665e-13,5.101388968e-13,3.053759439e-13,2.650866666e-13,8.442337594e-14,2.453396747e-13,2.788809703e-13,1.152302022e-13,5.490470272e-13,2.541770625e-13,1.035979621e-12,2.395087645e-13
1.0703,2.947580183e-13,1.001923060e-12,2.054768737e-13,1.813849096e-12,1.226758320e-12,3.407850078e-13,2.443508375e-13,2.195173675e-13,2.817345162e-13,3.087475172e-13,2.239760672e-13,2.247034304e-13,4.010517449e-13,3.877253801e-13,2.879533112e-13,4.736738145e-13,3.990416692e-13,7.016565044e-13,3.838570430e-13,1.326270250e-13,2.194618438e-13,4.997859494e-13,3.053698224e-13,2.632748684e-13,8.701004846e-14,2.368304498e-13,2.866887236e-13,1.196429185e-13,5.545363459e-13,2.619005031e-13,1.019736312e-12,2.512475359e-13
1.0781,2.909467917e-13,9.959792614e-13,2.187135713e-13,1.819521103e-12,1.195805683e-12,3.524089852e-13,2.426261269e-13,2.281208823e-13,2.996630111e-13,3.176343151e-13,2.245989216e-13,2.346813875e-13,4.003352520e-13,3.720752420e-13,2.863845995e-13,4.709857199e-13,3.979919879e-13,6.964011294e-13,3.741847552e-13,1.236571611e-13,2.139558821e-13,4.892275425e-13,3.052666331e-13,2.603910193e-13,8.990711123e-14,2.278561258e-13,2.945403220e-13,1.244833464e-13,5.596552995e-13,2.702311562e-13,1.002426531e-12,2.630823206e-13
1.0859,2.876562451e-13,9.900473091e-13,2.334718864e-13,1.825252657e-12,1.164869413e-12,3.648142484e-13,2.408582023e-13,2.372092874e-13,3.182597590e-13,3.262179123e-13,2.256259487e-13,2.459003258e-13,4.007808054e-13,3.579632465e-13,2.850976508e-13,4.691464674e-13,3.974480002e-13,6.912166003e-13,3.649952363e-13,1.153483354e-13,2.084961417e-13,4.780420193e-13,3.050581869e-13,2.577127023e-13,9.285290265e-14,2.187877740e-13,3.022494709e-13,1.302172563e-13,5.643171298e-13,2.794638343e-13,9.845619832e-13,2.753187466e-13
1.0938,2.847946617e-13,9.840906340e-13,2.492955861e-13,1.830796045e-12,1.134424729e-12,3.775240163e-13,2.393478901e-13,2.469410406e-13,3.378352721e-13,3.347377032e-13,2.269467891e-13,2.584182675e-13,4.017042686e-13,3.455951928e-13,2.839465918e-13,4.677034063e-13,3.966104973e-13,6.857935449e-13,3.562404989e-13,1.073635096e-13,2.030782509e-13,4.665310707e-13,3.045269089e-13,2.554546359e-13,9.568747727e-14,2.097755619e-13,3.096262968e-13,1.368588436e-13,5.684076518e-13,2.895485546e-13,9.666641309e-13,2.877947668e-13
1.1016,2.826865369e-13,9.781933750e-13,2.661137782e-13,1.835404207e-12,1.103902312e-12,3.900550576e-13,2.378973204e-13,2.569002285e-13,3.583543297e-13,3.431619534e-13,2.282158621e-13,2.722816323e-13,4.029526079e-13,3.345243661e-13,2.830219553e-13,4.665364364e-13,3.953606073e-13,6.800707809e-13,3.478695136e-13,9.990568379e-14,1.977231517e-13,4.551419933e-13,3.035832551e-13,2.524733677e-13,9.856857198e-14,2.009288609e-13,3.168794222e-13,1.444699210e-13,5.723475577e-13,3.003953175e-13,9.490036551e-13,3.002545706e-13
1.1094,2.815570314e-13,9.723780053e-13,2.844348757e-13,1.838924298e-12,1.072774894e-12,4.026120208e-13,2.363225728e-13,2.668494339e-13,3.798402242e-13,3.509355265e-13,2.294085431e-13,2.874884467e-13,4.053083729e-13,3.245675223e-13,2.821089829e-13,4.657403795e-13,3.938961649e-13,6.744244126e-13,3.400588730e-13,9.327225721e-14,1.926087828e-13,4.438033329e-13,3.023629936e-13,2.491106930e-13,1.015387716e-13,1.922616262e-13,3.238451202e-13,1.532660189e-13,5.761818350e-13,3.119360216e-13,9.314186450e-13,3.125459411e-13
1.1172,2.808742727e-13,9.660701070e-13,3.030967565e-13,1.840845827e-12,1.041372658e-12,4.149298164e-13,2.349792202e-13,2.770441120e-13,4.020312672e-13,3.580869312e-13,2.303657728e-13,3.036523801e-13,4.089484258e-13,3.162274945e-13,2.809031537e-13,4.651876121e-13,3.920033551e-13,6.688972224e-13,3.327800042e-13,8.742441475e-14,1.876296799e-13,4.322447921e-13,3.007762984e-13,2.459723325e-13,1.045558028e-13,1.836554198e-13,3.301059179e-13,1.628002317e-13,5.792928555e-13,3.240118435e-13,9.135520214e-13,3.246383596e-13
1.125,2.802926395e-13,9.591025776e-13,3.222321280e-13,1.840865887e-12,1.010242579e-12,4.265497580e-13,2.339216540e-13,2.876903525e-13,4.249425190e-13,3.649598766e-13,2.310282293e-13,3.206962541e-13,4.139099167e-13,3.096450507e-13,2.796405722e-13,4.648467120e-13,3.897090302e-13,6.632422731e-13,3.257719464e-13,8.233700010e-14,1.825086159e-13,4.205855456e-13,2.987431868e-13,2.428542883e-13,1.078168572e-13,1.750122945e-13,3.359582640e-13,1.725666183e-13,5.817115898e-13,3.367728381e-13,8.951737933e-13,3.368434316e-13
1.1328,2.800831495e-13,9.517645631e-13,3.427062836e-13,1.839300812e-12,9.790332711e-13,4.378049390e-13,2.328697725e-13,2.987987959e-13,4.487197032e-13,3.714976464e-13,2.315833005e-13,3.385703817e-13,4.199562241e-13,3.042525903e-13,2.785163655e-13,4.647763083e-13,3.871071909e-13,6.571246874e-13,3.189202315e-13,7.794146289e-14,1.772518626e-13,4.090531643e-13,2.965419246e-13,2.395613219e-13,1.112673960e-13,1.662723918e-13,3.416235768e-13,1.827823206e-13,5.836015694e-13,3.501363715e-13,8.762194214e-13,3.491778183e-13
1.1406,2.803581806e-13,9.439718229e-13,3.635906960e-13,1.835983113e-12,9.475152493e-13,4.487700389e-13,2.318860392e-13,3.107489801e-13,4.730287525e-13,3.778091463e-13,2.319169392e-13,3.571649133e-13,4.260686954e-13,2.995557326e-13,2.775268963e-13,4.650230610e-13,3.841597523e-13,6.504744559e-13,3.124778294e-13,7.397502898e-14,1.720348761e-13,3.977008964e-13,2.942547024e-13,2.358961183e-13,1.145550828e-13,1.574751830e-13,3.466960237e-13,1.940212635e-13,5.846468822e-13,3.637916096e-13,8.569608516e-13,3.611571244e-13
1.1484,2.814542758e-13,9.358556699e-13,3.851397896e-13,1.831067408e-12,9.165152841e-13,4.591789697e-13,2.311306906e-13,3.236439994e-13,4.977207967e-13,3.840525538e-13,2.320253333e-13,3.767502239e-13,4.324114265e-13,2.959837094e-13,2.769076257e-13,4.659700649e-13,3.812661895e-13,6.439909028e-13,3.068154476e-13,7.038819755e-14,1.670030569e-13,3.866458819e-13,2.917554823e-13,2.321539062e-13,1.178273526e-13,1.488320194e-13,3.512195656e-13,2.063672035e-13,5.852039717e-13,3.778419874e-13,8.378962241e-13,3.725609163e-13
1.1562,2.837263946e-13,9.278441024e-13,4.080378528e-13,1.825584590e-12,8.865707312e-13,4.694960433e-13,2.307990524e-13,3.366482988e-13,5.227840548e-13,3.899240123e-13,2.321499079e-13,3.972017370e-13,4.400348218e-13,2.942363624e-13,2.767984139e-13,4.681875270e-13,3.788508442e-13,6.383474093e-13,3.019885134e-13,6.727971763e-14,1.621730388e-13,3.758643067e-13,2.890113466e-13,2.288612879e-13,1.213681322e-13,1.404728914e-13,3.555625809e-13,2.191570926e-13,5.857064389e-13,3.924251449e-13,8.191840601e-13,3.832903511e-13
1.1641,2.865273965e-13,9.197188300e-13,4.315061207e-13,1.819301889e-12,8.572365622e-13,4.799082120e-13,2.310325134e-13,3.493687750e-13,5.479164427e-13,3.950504125e-13,2.321068694e-13,4.181835539e-13,4.488274489e-13,2.945060739e-13,2.771965452e-13,4.717944678e-13,3.768221306e-13,6.333732360e-13,2.978286589e-13,6.454733791e-14,1.573739181e-13,3.651178679e-13,2.857943619e-13,2.257821099e-13,1.249725826e-13,1.323251491e-13,3.595344603e-13,2.322268568e-13,5.856883046e-13,4.074163754e-13,8.005400473e-13,3.931485966e-13
1.1719,2.893089091e-13,9.108833147e-13,4.557034623e-13,1.810613080e-12,8.279714895e-13,4.896533553e-13,2.313963911e-13,3.624654901e-13,5.729111645e-13,3.993523378e-13,2.316096996e-13,4.396663430e-13,4.580703580e-13,2.965264190e-13,2.778890503e-13,4.761212835e-13,3.748339501e-13,6.285028701e-13,2.941679783e-13,6.210752505e-14,1.525477759e-13,3.544412886e-13,2.820435422e-13,2.226527748e-13,1.285426330e-13,1.243917858e-13,3.627727432e-13,2.460460393e-13,5.848041972e-13,4.224720444e-13,7.817118846e-13,4.023342719e-13
1.1797,2.922523756e-13,9.010939745e-13,4.806631114e-13,1.798905743e-12,7.986192978e-13,4.984314574e-13,2.318735999e-13,3.760225020e-13,5.977761358e-13,4.030621984e-13,2.306505915e-13,4.614614915e-13,4.672613979e-13,2.992660645e-13,2.781928676e-13,4.802002456e-13,3.724491342e-13,6.232453305e-13,2.908069956e-13,5.996078832e-14,1.477964341e-13,3.439792158e-13,2.780264563e-13,2.194866566e-13,1.321803059e-13,1.167466710e-13,3.653682476e-13,2.603859343e-13,5.830506064e-13,4.373204746e-13,7.625509612e-13,4.112627941e-13
1.1875,2.953067900e-13,8.906299008e-13,5.057958602e-13,1.785066917e-12,7.694339741e-13,5.067842338e-13,2.331116797e-13,3.893575819e-13,6.229132817e-13,4.064257351e-13,2.292331715e-13,4.838101274e-13,4.765601963e-13,3.024362518e-13,2.781427701e-13,4.841625864e-13,3.698558382e-13,6.178447431e-13,2.877585783e-13,5.802215254e-14,1.430687307e-13,3.336409268e-13,2.735907762e-13,2.162227614e-13,1.357855416e-13,1.093147537e-13,3.677210102e-13,2.751028348e-13,5.804391558e-13,4.522829820e-13,7.429198396e-13,4.201011615e-13
1.1953,2.983928561e-13,8.799109024e-13,5.317655566e-13,1.770325563e-12,7.408292155e-13,5.151742597e-13,2.345648477e-13,4.026107451e-13,6.486436193e-13,4.092819492e-13,2.273852946e-13,5.068557376e-13,4.865302240e-13,3.071585681e-13,2.785906184e-13,4.890740416e-13,3.679976990e-13,6.131406595e-13,2.851707109e-13,5.627669700e-14,1.382869321e-13,3.234087986e-13,2.684805500e-13,2.130621342e-13,1.393894010e-13,1.021052652e-13,3.698472769e-13,2.907005877e-13,5.771650037e-13,4.675272714e-13,7.231031514e-13,4.286829548e-13
1.2031,3.014578040e-13,8.685663117e-13,5.581401462e-13,1.755089354e-12,7.129266854e-13,5.237222736e-13,2.354854103e-13,4.162077594e-13,6.741438469e-13,4.112204607e-13,2.251135617e-13,5.294811824e-13,4.964849643e-13,3.130105108e-13,2.794760510e-13,4.950309742e-13,3.669964237e-13,6.090162076e-13,2.828535629e-13,5.483869545e-14,1.335170954e-13,3.133507741e-13,2.629017877e-13,2.098077416e-13,1.430668701e-13,9.533265416e-14,3.713753167e-13,3.069924118e-13,5.732344420e-13,4.822739184e-13,7.035523401e-13,4.366243214e-13
1.2109,3.045286257e-13,8.562357740e-13,5.837460869e-13,1.738837100e-12,6.858790848e-13,5.321672025e-13,2.365515256e-13,4.297001442e-13,6.986233904e-13,4.120828191e-13,2.225045671e-13,5.512667362e-13,5.055633883e-13,3.188134792e-13,2.803868132e-13,5.016382833e-13,3.663907710e-13,6.049444846e-13,2.807297078e-13,5.382856246e-14,1.288707657e-13,3.034183357e-13,2.570615814e-13,2.059853836e-13,1.465479050e-13,8.904583382e-14,3.725360770e-13,3.237353111e-13,5.688595194e-13,4.958691385e-13,6.842189382e-13,4.438377521e-13
1.2188,3.082392112e-13,8.438428786e-13,6.092466172e-13,1.721355228e-12,6.600516091e-13,5.399337997e-13,2.379026640e-13,4.430190137e-13,7.225973461e-13,4.120823897e-13,2.197728169e-13,5.731070414e-13,5.143905799e-13,3.253121339e-13,2.815256756e-13,5.092497564e-13,3.664853590e-13,6.012917085e-13,2.791118969e-13,5.322397558e-14,1.244956871e-13,2.936920926e-13,2.510561634e-13,2.019341775e-13,1.497007383e-13,8.313790081e-14,3.737948016e-13,3.412706362e-13,5.645924884e-13,5.086083564e-13,6.650432476e-13,4.505173753e-13
1.2266,3.124249436e-13,8.315906376e-13,6.347511221e-13,1.702477337e-12,6.352643942e-13,5.466687476e-13,2.392263221e-13,4.566703867e-13,7.464107267e-13,4.113609215e-13,2.165271593e-13,5.949914279e-13,5.230707449e-13,3.328529659e-13,2.825848300e-13,5.176805520e-13,3.671656004e-13,5.980349286e-13,2.778428763e-13,5.277716735e-14,1.203689507e-13,2.843119492e-13,2.447713444e-13,1.978788265e-13,1.527375682e-13,7.763460909e-14,3.748609955e-13,3.591405449e-13,5.601077444e-13,5.207156275e-13,6.460846801e-13,4.565808836e-13
1.2344,3.161033931e-13,8.181537504e-13,6.596198407e-13,1.681294323e-12,6.111646738e-13,5.523552333e-13,2.413620400e-13,4.702644505e-13,7.695227256e-13,4.097913876e-13,2.121736320e-13,6.163372868e-13,5.309054978e-13,3.406521658e-13,2.830239383e-13,5.262052896e-13,3.677471466e-13,5.946752864e-13,2.764822518e-13,5.241454351e-14,1.162825433e-13,2.751045270e-13,2.377170595e-13,1.938697939e-13,1.557019968e-13,7.256916824e-14,3.754521104e-13,3.767827845e-13,5.547864322e-13,5.317593828e-13,6.270496395e-13,4.618242911e-13
1.2422,3.195012437e-13,8.034446189e-13,6.842204065e-13,1.657858650e-12,5.881238699e-13,5.571788815e-13,2.445094749e-13,4.831507748e-13,7.915533585e-13,4.073702852e-13,2.071292135e-13,6.371534174e-13,5.383436877e-13,3.487979817e-13,2.831039746e-13,5.349600721e-13,3.685501461e-13,5.915250395e-13,2.752235864e-13,5.237039391e-14,1.122947099e-13,2.658563078e-13,2.299797208e-13,1.903799051e-13,1.584744069e-13,6.785073137e-14,3.757523582e-13,3.946602584e-13,5.488689790e-13,5.415880453e-13,6.080408559e-13,4.659655396e-13
1.25,3.229472974e-13,7.884039790e-13,7.086657505e-13,1.633274255e-12,5.662919919e-13,5.613440935e-13,2.479353060e-13,4.953004186e-13,8.124379769e-13,4.043307932e-13,2.020884296e-13,6.573892110e-13,5.459044920e-13,3.575488623e-13,2.831308397e-13,5.441195465e-13,3.698803026e-13,5.887568223e-13,2.744049373e-13,5.257147901e-14,1.085786847e-13,2.567257820e-13,2.224400635e-13,1.869535446e-13,1.610615060e-13,6.338176214e-14,3.758808210e-13,4.129810955e-13,5.427073636e-13,5.503981222e-13,5.895588462e-13,4.687164165e-13
1.2578,3.260998780e-13,7.730255175e-13,7.330658119e-13,1.607672290e-12,5.451409681e-13,5.646369351e-13,2.516424072e-13,5.067829885e-13,8.323286436e-13,4.009004660e-13,1.972009624e-13,6.769238724e-13,5.531455048e-13,3.668690481e-13,2.831196001e-13,5.534093771e-13,3.713306243e-13,5.860164694e-13,2.739865705e-13,5.271915508e-14,1.050650711e-13,2.479481835e-13,2.154395960e-13,1.832893321e-13,1.634185153e-13,5.920103447e-14,3.760570056e-13,4.315444359e-13,5.366404065e-13,5.580644374e-13,5.715913615e-13,4.706183009e-13
1.2656,3.293456086e-13,7.573221148e-13,7.569954310e-13,1.580995665e-12,5.246464334e-13,5.669095536e-13,2.558258644e-13,5.178357514e-13,8.516277506e-13,3.971173230e-13,1.923273522e-13,6.957587204e-13,5.599013001e-13,3.765815961e-13,2.831133354e-13,5.626876112e-13,3.729314099e-13,5.832057198e-13,2.738690867e-13,5.288761113e-14,1.017508003e-13,2.394782125e-13,2.085188486e-13,1.802467740e-13,1.653543992e-13,5.549368956e-14,3.764103365e-13,4.501121464e-13,5.309778085e-13,5.645917253e-13,5.542918479e-13,4.724257993e-13
1.2734,3.326080506e-13,7.413871384e-13,7.788919518e-13,1.553327410e-12,5.051843916e-13,5.683858430e-13,2.606254548e-13,5.286794509e-13,8.703236034e-13,3.930177448e-13,1.868690694e-13,7.137133463e-13,5.662688539e-13,3.860299803e-13,2.828496772e-13,5.713472221e-13,3.744400768e-13,5.798813612e-13,2.738735639e-13,5.319463825e-14,9.871868416e-14,2.312322132e-13,2.013905241e-13,1.772980204e-13,1.668880506e-13,5.228435063e-14,3.766161805e-13,4.678775400e-13,5.250166781e-13,5.701045466e-13,5.379378806e-13,4.738224779e-13
1.2812,3.353450524e-13,7.247936510e-13,7.997028843e-13,1.523880905e-12,4.867485270e-13,5.688423399e-13,2.661351275e-13,5.391661151e-13,8.880875279e-13,3.889548977e-13,1.807631482e-13,7.309355360e-13,5.721644194e-13,3.952224910e-13,2.819802674e-13,5.787367789e-13,3.751422683e-13,5.756240076e-13,2.739433569e-13,5.353778344e-14,9.593941099e-14,2.233170810e-13,1.942630111e-13,1.736794410e-13,1.683275220e-13,4.934478944e-14,3.764113688e-13,4.849549609e-13,5.179818069e-13,5.744714534e-13,5.220197364e-13,4.743345012e-13
1.2891,3.384606610e-13,7.081457234e-13,8.215057313e-13,1.493416865e-12,4.693353136e-13,5.684220886e-13,2.719594939e-13,5.492531315e-13,9.050811807e-13,3.850861012e-13,1.750869151e-13,7.480193481e-13,5.780121147e-13,4.049603983e-13,2.807122365e-13,5.855440686e-13,3.753965844e-13,5.711869653e-13,2.744652443e-13,5.402009728e-14,9.352447375e-14,2.158056459e-13,1.874455813e-13,1.705882848e-13,1.697882945e-13,4.661543687e-14,3.759180583e-13,5.026382098e-13,5.104767687e-13,5.780030574e-13,5.064751427e-13,4.742098669e-13
1.2969,3.421057884e-13,6.923471256e-13,8.434481123e-13,1.464176580e-12,4.530319976e-13,5.681923702e-13,2.781641458e-13,5.588080397e-13,9.215351238e-13,3.812081740e-13,1.699838982e-13,7.650861173e-13,5.843111695e-13,4.157095395e-13,2.794499969e-13,5.927740160e-13,3.759072640e-13,5.672673352e-13,2.756804108e-13,5.479988098e-14,9.157218620e-14,2.086484458e-13,1.809895404e-13,1.683227104e-13,1.711386933e-13,4.426695742e-14,3.756360529e-13,5.207569483e-13,5.033337408e-13,5.811299081e-13,4.920030924e-13,4.736361489e-13
1.3047,3.447764234e-13,6.766721501e-13,8.646883168e-13,1.435486152e-12,4.376420543e-13,5.679676667e-13,2.848886694e-13,5.674552908e-13,9.368650255e-13,3.774488606e-13,1.645975328e-13,7.814772797e-13,5.906299820e-13,4.274886430e-13,2.780690263e-13,5.999764853e-13,3.763693662e-13,5.634113621e-13,2.773381630e-13,5.569671820e-14,8.984783098e-14,2.019850895e-13,1.747314246e-13,1.657908126e-13,1.723948640e-13,4.234406462e-14,3.759007999e-13,5.382906765e-13,4.963946064e-13,5.834556262e-13,4.785310743e-13,4.723912819e-13
1.3125,3.465366532e-13,6.604664041e-13,8.851587863e-13,1.405238985e-12,4.229136961e-13,5.665003472e-13,2.914347075e-13,5.751231030e-13,9.501559856e-13,3.739574488e-13,1.590239444e-13,7.964220524e-13,5.961818523e-13,4.394127335e-13,2.761801728e-13,6.061110806e-13,3.763112086e-13,5.590845544e-13,2.790897389e-13,5.651880810e-14,8.814583706e-14,1.961645513e-13,1.685785989e-13,1.627532739e-13,1.734704679e-13,4.072457551e-14,3.762663747e-13,5.552318909e-13,4.892096118e-13,5.844601451e-13,4.657289427e-13,4.702928844e-13
1.3203,3.483308667e-13,6.441185817e-13,9.037422451e-13,1.373774661e-12,4.086607014e-13,5.638263970e-13,2.975791337e-13,5.818575284e-13,9.613061890e-13,3.706485807e-13,1.537280205e-13,8.096955761e-13,6.006810751e-13,4.501947601e-13,2.737442494e-13,6.112139854e-13,3.757207263e-13,5.541374697e-13,2.806771185e-13,5.728996993e-14,8.651976581e-14,1.912135251e-13,1.626377253e-13,1.591806006e-13,1.740671237e-13,3.929517515e-14,3.764297613e-13,5.716111940e-13,4.817084627e-13,5.841444817e-13,4.537079777e-13,4.675382310e-13
1.3281,3.496105596e-13,6.274798669e-13,9.209951011e-13,1.341786509e-12,3.946128163e-13,5.605633252e-13,3.035400244e-13,5.875126369e-13,9.706833057e-13,3.676040463e-13,1.487623894e-13,8.215327418e-13,6.042612123e-13,4.599910931e-13,2.708897659e-13,6.157992545e-13,3.745819207e-13,5.483480202e-13,2.820535812e-13,5.808773866e-14,8.505832963e-14,1.866973936e-13,1.571193117e-13,1.551389543e-13,1.743076501e-13,3.807307638e-14,3.765811584e-13,5.875231146e-13,4.739050409e-13,5.826334092e-13,4.423413139e-13,4.642444290e-13
1.3359,3.498962414e-13,6.103187621e-13,9.379861100e-13,1.308953186e-12,3.807927023e-13,5.568281150e-13,3.091201898e-13,5.917275685e-13,9.779489653e-13,3.646270919e-13,1.442161311e-13,8.320543121e-13,6.070297376e-13,4.698673468e-13,2.676681446e-13,6.198039208e-13,3.729067160e-13,5.416661044e-13,2.834101056e-13,5.911435348e-14,8.382005221e-14,1.823246582e-13,1.520386235e-13,1.512210401e-13,1.744222589e-13,3.717793854e-14,3.764476687e-13,6.032683452e-13,4.657028612e-13,5.799198777e-13,4.316720788e-13,4.599205536e-13
1.3438,3.497799608e-13,5.931790997e-13,9.538186971e-13,1.275737495e-12,3.678397410e-13,5.526762908e-13,3.142594477e-13,5.941044743e-13,9.827077824e-13,3.615445689e-13,1.400984789e-13,8.411173443e-13,6.085956157e-13,4.798798787e-13,2.641693194e-13,6.231174911e-13,3.709711526e-13,5.342924582e-13,2.849294408e-13,6.056570679e-14,8.287021561e-14,1.782641546e-13,1.471571268e-13,1.472599863e-13,1.741276255e-13,3.663712579e-14,3.758404901e-13,6.183226079e-13,4.571361370e-13,5.760168971e-13,4.221403852e-13,4.544990273e-13
1.3516,3.496612420e-13,5.763141956e-13,9.692224316e-13,1.242884206e-12,3.562223801e-13,5.479530483e-13,3.188175824e-13,5.948596207e-13,9.854326050e-13,3.588879655e-13,1.364153609e-13,8.486027488e-13,6.084428763e-13,4.891747671e-13,2.605041739e-13,6.259462935e-13,3.690583084e-13,5.264476353e-13,2.867857235e-13,6.239608347e-14,8.224874020e-14,1.747734912e-13,1.424210784e-13,1.426519167e-13,1.733842521e-13,3.638669696e-14,3.751928596e-13,6.325291822e-13,4.484887291e-13,5.712510527e-13,4.138039301e-13,4.486525431e-13
1.3594,3.493631776e-13,5.594979494e-13,9.853948800e-13,1.210353262e-12,3.455057791e-13,5.426708900e-13,3.226724535e-13,5.944649596e-13,9.863169118e-13,3.567775259e-13,1.331570409e-13,8.544869845e-13,6.069157643e-13,4.975905954e-13,2.567601603e-13,6.283762480e-13,3.672222924e-13,5.185533427e-13,2.890795548e-13,6.448920734e-14,8.191839173e-14,1.717616223e-13,1.379817793e-13,1.377005332e-13,1.725447793e-13,3.642103285e-14,3.747628659e-13,6.464202140e-13,4.401186524e-13,5.657900968e-13,4.064225251e-13,4.422949130e-13
1.3672,3.484863571e-13,5.425121552e-13,9.999272797e-13,1.177277318e-12,3.348610536e-13,5.369858312e-13,3.262713120e-13,5.930192455e-13,9.849419323e-13,3.546555458e-13,1.301188867e-13,8.587862899e-13,6.048743112e-13,5.059319457e-13,2.526546565e-13,6.298466955e-13,3.650286611e-13,5.105852097e-13,2.913924850e-13,6.667796539e-14,8.178037779e-14,1.688822699e-13,1.338337251e-13,1.329952048e-13,1.715277789e-13,3.674257940e-14,3.743933576e-13,6.597126864e-13,4.318869896e-13,5.590594711e-13,3.998186806e-13,4.349843518e-13
1.375,3.467572186e-13,5.250274310e-13,1.011193973e-12,1.142425945e-12,3.237191575e-13,5.302439136e-13,3.298404345e-13,5.907551973e-13,9.816013789e-13,3.524472743e-13,1.272375420e-13,8.617178878e-13,6.029094213e-13,5.145711003e-13,2.475688164e-13,6.293001055e-13,3.615415246e-13,5.016903625e-13,2.930029671e-13,6.872549267e-14,8.173237439e-14,1.661283632e-13,1.299787375e-13,1.285138264e-13,1.702357932e-13,3.733326795e-14,3.736501011e-13,6.720931770e-13,4.232043221e-13,5.508035581e-13,3.939579956e-13,4.272291561e-13
1.3828,3.443904193e-13,5.071101281e-13,1.021297284e-12,1.106174333e-12,3.122336829e-13,5.220829390e-13,3.332565995e-13,5.877073247e-13,9.769722409e-13,3.503930450e-13,1.245067937e-13,8.635463876e-13,6.014737114e-13,5.233415213e-13,2.415526444e-13,6.266484650e-13,3.564777893e-13,4.917373301e-13,2.939786407e-13,7.053056484e-14,8.165555993e-14,1.638858399e-13,1.265539198e-13,1.241648857e-13,1.688777625e-13,3.821564477e-14,3.722807491e-13,6.835819881e-13,4.142227350e-13,5.418047309e-13,3.891176995e-13,4.194783854e-13
1.3906,3.418782161e-13,4.893256267e-13,1.031169017e-12,1.070252014e-12,3.012609502e-13,5.132816470e-13,3.363116863e-13,5.832695651e-13,9.709589330e-13,3.485310457e-13,1.220411597e-13,8.641414098e-13,6.006619746e-13,5.323300832e-13,2.351834960e-13,6.227551512e-13,3.505979760e-13,4.815835098e-13,2.951983681e-13,7.221301147e-14,8.159020105e-14,1.623006272e-13,1.236092899e-13,1.201418701e-13,1.673142948e-13,3.941543488e-14,3.705839268e-13,6.938246576e-13,4.056309043e-13,5.325698835e-13,3.856959050e-13,4.114164418e-13
1.3984,3.393315431e-13,4.717826077e-13,1.039266611e-12,1.034823534e-12,2.910850986e-13,5.042051865e-13,3.385955387e-13,5.773016364e-13,9.630411310e-13,3.468146350e-13,1.201070717e-13,8.632959669e-13,5.999822186e-13,5.413914842e-13,2.286167874e-13,6.177961534e-13,3.443397669e-13,4.715122571e-13,2.969298634e-13,7.418735883e-14,8.177549742e-14,1.611687904e-13,1.211214565e-13,1.163112684e-13,1.654040394e-13,4.097020475e-14,3.686773414e-13,7.029182865e-13,3.973627510e-13,5.228049691e-13,3.838058611e-13,4.027832580e-13
1.4062,3.363588868e-13,4.542382277e-13,1.044857039e-12,9.989517147e-13,2.811584464e-13,4.944510136e-13,3.402470661e-13,5.702569904e-13,9.529290053e-13,3.451203729e-13,1.185957452e-13,8.610678474e-13,5.990002544e-13,5.501478302e-13,2.218769437e-13,6.116568622e-13,3.375351278e-13,4.612670994e-13,2.987236441e-13,7.667616834e-14,8.223395769e-14,1.602867149e-13,1.190486940e-13,1.125056672e-13,1.633492793e-13,4.291955717e-14,3.663782425e-13,7.109672178e-13,3.891578082e-13,5.124752196e-13,3.832249665e-13,3.935299366e-13
1.4141,3.328021229e-13,4.368835687e-13,1.048295479e-12,9.630346677e-13,2.715275457e-13,4.838798883e-13,3.414803315e-13,5.621200690e-13,9.408080400e-13,3.434313400e-13,1.173907758e-13,8.574086626e-13,5.977950767e-13,5.587128387e-13,2.149587255e-13,6.043757249e-13,3.300456489e-13,4.508473220e-13,3.005466456e-13,7.926444195e-14,8.283035092e-14,1.596397623e-13,1.173185978e-13,1.090475568e-13,1.611064478e-13,4.527301167e-14,3.636725181e-13,7.175027167e-13,3.811194220e-13,5.018533344e-13,3.839992716e-13,3.837321396e-13
1.4219,3.290180635e-13,4.200214909e-13,1.050183541e-12,9.280740340e-13,2.626725505e-13,4.727786350e-13,3.417583587e-13,5.526541080e-13,9.274212622e-13,3.418044754e-13,1.164602711e-13,8.525300438e-13,5.970244942e-13,5.674913813e-13,2.076629469e-13,5.956309194e-13,3.218320984e-13,4.405200054e-13,3.024877297e-13,8.177557749e-14,8.357271265e-14,1.594036931e-13,1.158219971e-13,1.060459002e-13,1.586695194e-13,4.807725051e-14,3.606327631e-13,7.228303477e-13,3.732221869e-13,4.908932254e-13,3.863747464e-13,3.737932452e-13
1.4297,3.251812530e-13,4.034515326e-13,1.051164960e-12,8.937648201e-13,2.543704592e-13,4.614456555e-13,3.412083769e-13,5.420815870e-13,9.133002634e-13,3.401498565e-13,1.155483642e-13,8.470389779e-13,5.974998427e-13,5.769813720e-13,2.000899922e-13,5.855290324e-13,3.130458853e-13,4.304766022e-13,3.042856872e-13,8.441533046e-14,8.437093342e-14,1.595798516e-13,1.143933087e-13,1.034018599e-13,1.563344659e-13,5.126179129e-14,3.573809267e-13,7.273584287e-13,3.655235452e-13,4.795023972e-13,3.898183957e-13,3.640523120e-13
1.4375,3.210231878e-13,3.868194129e-13,1.050232149e-12,8.591030529e-13,2.462045123e-13,4.498657521e-13,3.406835162e-13,5.306530126e-13,8.979208333e-13,3.384294675e-13,1.147321188e-13,8.406618010e-13,5.992024504e-13,5.875612957e-13,1.923587685e-13,5.743353637e-13,3.036056046e-13,4.202299869e-13,3.058331418e-13,8.702006626e-14,8.516103618e-14,1.599922679e-13,1.131034353e-13,1.010515555e-13,1.539846384e-13,5.466137129e-14,3.536518808e-13,7.304669370e-13,3.579230567e-13,4.676171913e-13,3.939773657e-13,3.543611560e-13
1.4453,3.164089493e-13,3.702309535e-13,1.045960239e-12,8.241641209e-13,2.380626556e-13,4.379178353e-13,3.401507670e-13,5.184441456e-13,8.806287001e-13,3.366319398e-13,1.139946271e-13,8.326187731e-13,6.015758480e-13,5.988984184e-13,1.843229040e-13,5.618732513e-13,2.933089129e-13,4.092205323e-13,3.070452625e-13,8.953558526e-14,8.601494240e-14,1.607456493e-13,1.122371823e-13,9.851545006e-14,1.513200504e-13,5.834956617e-14,3.491536034e-13,7.320863419e-13,3.500120325e-13,4.551244404e-13,3.993943317e-13,3.444479159e-13
1.4531,3.115720649e-13,3.539829775e-13,1.040336454e-12,7.898336968e-13,2.298332903e-13,4.256832057e-13,3.390617418e-13,5.058707190e-13,8.620284638e-13,3.347883276e-13,1.131333682e-13,8.232957387e-13,6.047588181e-13,6.104451762e-13,1.761027684e-13,5.486298427e-13,2.826565045e-13,3.977969216e-13,3.079593762e-13,9.203606708e-14,8.669516415e-14,1.619146647e-13,1.117558080e-13,9.566499530e-14,1.484789649e-13,6.237420893e-14,3.445579496e-13,7.331612465e-13,3.420086163e-13,4.423858565e-13,4.058385317e-13,3.344295324e-13
1.4609,3.065725723e-13,3.380549563e-13,1.035780267e-12,7.562772499e-13,2.216880544e-13,4.131804817e-13,3.372550448e-13,4.932465197e-13,8.429347752e-13,3.330851039e-13,1.125719144e-13,8.133289616e-13,6.089882073e-13,6.221515224e-13,1.678636253e-13,5.350755783e-13,2.719201404e-13,3.861987641e-13,3.089807669e-13,9.447739712e-14,8.709462835e-14,1.632581371e-13,1.114269392e-13,9.292989118e-14,1.456029227e-13,6.667847080e-14,3.403278263e-13,7.338415344e-13,3.344150871e-13,4.298238128e-13,4.130973210e-13,3.244916731e-13
1.4688,3.012282077e-13,3.223933271e-13,1.030233635e-12,7.231353665e-13,2.140661311e-13,4.003354900e-13,3.346829533e-13,4.802841724e-13,8.228834331e-13,3.314045495e-13,1.123299534e-13,8.023157214e-13,6.133918883e-13,6.339105555e-13,1.596043281e-13,5.208391902e-13,2.608530940e-13,3.741880591e-13,3.100782861e-13,9.730959761e-14,8.760507016e-14,1.646586733e-13,1.111960597e-13,9.028724061e-14,1.426538372e-13,7.155621197e-14,3.360219123e-13,7.328548520e-13,3.273681714e-13,4.172602585e-13,4.222353524e-13,3.144264912e-13
1.4766,2.957487015e-13,3.071374668e-13,1.021197096e-12,6.906540183e-13,2.071099455e-13,3.874065536e-13,3.312501131e-13,4.668207029e-13,8.013871491e-13,3.295786606e-13,1.118876190e-13,7.900394618e-13,6.172161738e-13,6.455636576e-13,1.514356555e-13,5.059840200e-13,2.497667627e-13,3.622364634e-13,3.111088369e-13,1.006694033e-13,8.831021257e-14,1.661478257e-13,1.110712091e-13,8.770145902e-14,1.396405835e-13,7.720469220e-14,3.314884807e-13,7.292916783e-13,3.210239572e-13,4.046499605e-13,4.335896219e-13,3.042341893e-13
1.4844,2.903920912e-13,2.923569706e-13,1.010297557e-12,6.595161474e-13,2.008148477e-13,3.749473586e-13,3.271103940e-13,4.529237646e-13,7.789709005e-13,3.279142811e-13,1.113061668e-13,7.771291283e-13,6.213078586e-13,6.579278635e-13,1.433138443e-13,4.907257365e-13,2.387403489e-13,3.509859324e-13,3.123804704e-13,1.040507062e-13,8.898350615e-14,1.677797317e-13,1.111120997e-13,8.525994878e-14,1.365079990e-13,8.342366822e-14,3.268700899e-13,7.241238001e-13,3.153296464e-13,3.922619095e-13,4.466082445e-13,2.943378920e-13
1.4922,2.850858838e-13,2.781678447e-13,9.997128681e-13,6.298672723e-13,1.950756072e-13,3.631068936e-13,3.227273655e-13,4.386288032e-13,7.559805582e-13,3.263994082e-13,1.105710838e-13,7.639075511e-13,6.266027682e-13,6.720062219e-13,1.352505447e-13,4.750489278e-13,2.276419855e-13,3.402593279e-13,3.136131768e-13,1.076898323e-13,8.956974933e-14,1.694998995e-13,1.112132098e-13,8.263933479e-14,1.332979319e-13,9.016028946e-14,3.223818680e-13,7.186503251e-13,3.100470647e-13,3.800223919e-13,4.607878194e-13,2.846202229e-13
1.5,2.801789487e-13,2.648051763e-13,9.888685535e-13,6.012100249e-13,1.894646596e-13,3.513991302e-13,3.182104700e-13,4.243751740e-13,7.324172374e-13,3.247110944e-13,1.096693866e-13,7.500700630e-13,6.325735763e-13,6.870796876e-13,1.274908614e-13,4.593130026e-13,2.169923966e-13,3.296994697e-13,3.143474926e-13,1.119434852e-13,8.995960852e-14,1.709266616e-13,1.110017881e-13,7.997794043e-14,1.301441825e-13,9.730986768e-14,3.181343435e-13,7.127134852e-13,3.051508573e-13,3.678302943e-13,4.752523716e-13,2.747289314e-13
1.5078,2.760612979e-13,2.522511134e-13,9.764762953e-13,5.734284662e-13,1.838145965e-13,3.396496361e-13,3.130941333e-13,4.106646301e-13,7.088034368e-13,3.230751351e-13,1.089528862e-13,7.355927261e-13,6.386301929e-13,7.016307051e-13,1.198487596e-13,4.433139935e-13,2.066252130e-13,3.191521421e-13,3.148402842e-13,1.163988772e-13,9.018993180e-14,1.719988817e-13,1.105169581e-13,7.791791976e-14,1.269416325e-13,1.046490655e-13,3.135997714e-13,7.056282660e-13,3.005672220e-13,3.558455201e-13,4.899876310e-13,2.651734709e-13
1.5156,2.724186641e-13,2.402968785e-13,9.624329554e-13,5.470357460e-13,1.783977232e-13,3.283952942e-13,3.073000620e-13,3.975002943e-13,6.856091442e-13,3.216066759e-13,1.081333628e-13,7.210047888e-13,6.450330739e-13,7.155208760e-13,1.121119804e-13,4.266957968e-13,1.960776253e-13,3.086138051e-13,3.151503543e-13,1.207871514e-13,9.049256784e-14,1.730865393e-13,1.101767192e-13,7.662942063e-14,1.236931372e-13,1.122986878e-13,3.086709117e-13,6.971506144e-13,2.963142569e-13,3.441536289e-13,5.055492806e-13,2.564864703e-13
1.5234,2.690404132e-13,2.287959012e-13,9.467553565e-13,5.219486134e-13,1.733243870e-13,3.178625799e-13,3.012351072e-13,3.846659393e-13,6.624165674e-13,3.198801193e-13,1.068494249e-13,7.063429956e-13,6.515361699e-13,7.292165280e-13,1.045515873e-13,4.101042650e-13,1.859217170e-13,2.984504033e-13,3.152324929e-13,1.250057075e-13,9.079416144e-14,1.741015146e-13,1.100190905e-13,7.601451498e-14,1.205950305e-13,1.203605425e-13,3.039677706e-13,6.872869399e-13,2.925437464e-13,3.327689065e-13,5.214315361e-13,2.482919728e-13
1.5312,2.659499341e-13,2.175502998e-13,9.288261674e-13,4.973031672e-13,1.684623719e-13,3.075584735e-13,2.949206942e-13,3.719646276e-13,6.384977478e-13,3.177074744e-13,1.052914649e-13,6.909048863e-13,6.571930607e-13,7.422968097e-13,9.718654060e-14,3.937646104e-13,1.762727794e-13,2.889695186e-13,3.152375891e-13,1.291734939e-13,9.094831060e-14,1.748184860e-13,1.097598003e-13,7.579651190e-14,1.175360987e-13,1.287694885e-13,2.997210804e-13,6.763370418e-13,2.892497081e-13,3.216587799e-13,5.374086056e-13,2.402044762e-13
1.5391,2.630102915e-13,2.065511742e-13,9.088633691e-13,4.730203364e-13,1.636241802e-13,2.972958641e-13,2.881907541e-13,3.592396776e-13,6.139788433e-13,3.152955459e-13,1.034661530e-13,6.749604982e-13,6.618906057e-13,7.544475027e-13,8.995616452e-14,3.773424612e-13,1.666914734e-13,2.800796013e-13,3.148668392e-13,1.338918208e-13,9.093142702e-14,1.752336908e-13,1.091499712e-13,7.553204185e-14,1.144032027e-13,1.375530071e-13,2.960244724e-13,6.648039590e-13,2.865733845e-13,3.107967947e-13,5.536913599e-13,2.322877710e-13
1.5469,2.603352357e-13,1.962538609e-13,8.878681770e-13,4.500710135e-13,1.589533530e-13,2.876527616e-13,2.813479660e-13,3.463751535e-13,5.898004475e-13,3.129024864e-13,1.015410378e-13,6.598787756e-13,6.668356714e-13,7.665311626e-13,8.317849361e-14,3.610643343e-13,1.573242544e-13,2.718321991e-13,3.141883712e-13,1.391661029e-13,9.070408436e-14,1.751454948e-13,1.081817058e-13,7.537160974e-14,1.113671166e-13,1.466553162e-13,2.929542296e-13,6.526873585e-13,2.848193612e-13,3.004002934e-13,5.702573092e-13,2.245346702e-13
1.5547,2.580652038e-13,1.869122378e-13,8.657010695e-13,4.285752785e-13,1.548943168e-13,2.788086000e-13,2.748316930e-13,3.337160188e-13,5.663915318e-13,3.104062610e-13,9.972936319e-14,6.457648420e-13,6.729278343e-13,7.794439873e-13,7.676716356e-14,3.448079233e-13,1.480522832e-13,2.642202391e-13,3.135633706e-13,1.443906126e-13,9.039606327e-14,1.746972968e-13,1.072147760e-13,7.572297956e-14,1.084891696e-13,1.560623433e-13,2.903591966e-13,6.394292612e-13,2.839846442e-13,2.905465486e-13,5.876261424e-13,2.170260460e-13
1.5625,2.562385753e-13,1.782160415e-13,8.422271996e-13,4.076254287e-13,1.512789634e-13,2.701957250e-13,2.685475594e-13,3.222013794e-13,5.433691767e-13,3.074607677e-13,9.762226068e-14,6.315251693e-13,6.792510399e-13,7.927105630e-13,7.035894012e-14,3.282590872e-13,1.386712485e-13,2.567471262e-13,3.124441655e-13,1.492081257e-13,9.003959637e-14,1.744120986e-13,1.065333826e-13,7.650859969e-14,1.057324780e-13,1.657810562e-13,2.883733045e-13,6.253526436e-13,2.836286820e-13,2.810062929e-13,6.054777611e-13,2.100873434e-13
1.5703,2.550060633e-13,1.699665135e-13,8.189209982e-13,3.873392798e-13,1.475875477e-13,2.618893339e-13,2.622275999e-13,3.120719619e-13,5.207494716e-13,3.043190385e-13,9.504767188e-14,6.171699665e-13,6.847205487e-13,8.052510646e-13,6.418337046e-14,3.119247924e-13,1.296676019e-13,2.493688982e-13,3.105464412e-13,1.537319581e-13,8.947487879e-14,1.741809598e-13,1.059445112e-13,7.766946078e-14,1.030919125e-13,1.756450665e-13,2.871742098e-13,6.115467823e-13,2.835628741e-13,2.719561879e-13,6.225930587e-13,2.038708211e-13
1.5781,2.543630828e-13,1.623043504e-13,7.963143463e-13,3.686060896e-13,1.438684943e-13,2.546029883e-13,2.561128126e-13,3.025322609e-13,4.992388312e-13,3.011318889e-13,9.241709284e-14,6.034846203e-13,6.899526029e-13,8.169121952e-13,5.853017643e-14,2.960795186e-13,1.213440112e-13,2.426041488e-13,3.084362834e-13,1.587791981e-13,8.880863180e-14,1.734024294e-13,1.049798264e-13,7.916522729e-14,1.005628822e-13,1.855145683e-13,2.866502809e-13,5.975635022e-13,2.842939747e-13,2.636576391e-13,6.387658573e-13,1.984043950e-13
1.5859,2.545349866e-13,1.553737411e-13,7.729940722e-13,3.513353269e-13,1.403541344e-13,2.484865361e-13,2.504329911e-13,2.931550471e-13,4.791351802e-13,2.973249943e-13,8.993063449e-14,5.905637058e-13,6.956055210e-13,8.283483295e-13,5.319239655e-14,2.804213265e-13,1.134688758e-13,2.363876245e-13,3.064007577e-13,1.646472870e-13,8.807503138e-14,1.717553962e-13,1.033619659e-13,8.046838652e-14,9.816994763e-14,1.951122487e-13,2.864074668e-13,5.823915300e-13,2.857279415e-13,2.557009086e-13,6.539645851e-13,1.936943144e-13
1.5938,2.556216598e-13,1.492247022e-13,7.486052058e-13,3.350140437e-13,1.371843291e-13,2.432589355e-13,2.452182501e-13,2.842284663e-13,4.599532663e-13,2.929143203e-13,8.756368346e-14,5.783392160e-13,7.015947681e-13,8.402527985e-13,4.806946096e-14,2.650466634e-13,1.057294362e-13,2.304806778e-13,3.045823839e-13,1.704152685e-13,8.706249825e-14,1.695858177e-13,1.013921371e-13,8.136738938e-14,9.581243889e-14,2.043686943e-13,2.861518305e-13,5.666025135e-13,2.873064676e-13,2.479433120e-13,6.684870163e-13,1.894130127e-13
1.6016,2.570242124e-13,1.437688653e-13,7.241229399e-13,3.195117007e-13,1.344390901e-13,2.386641370e-13,2.407286723e-13,2.760261914e-13,4.412585693e-13,2.882913269e-13,8.537664914e-14,5.668853807e-13,7.081718419e-13,8.526857158e-13,4.339835571e-14,2.502626313e-13,9.815100114e-14,2.251237168e-13,3.029460551e-13,1.759516539e-13,8.584352010e-14,1.675287177e-13,9.952961616e-14,8.258661450e-14,9.345671674e-14,2.138635095e-13,2.864269261e-13,5.504751356e-13,2.896644690e-13,2.408053887e-13,6.832619240e-13,1.852952157e-13
1.6094,2.590055960e-13,1.389048414e-13,6.997766528e-13,3.045872818e-13,1.318818588e-13,2.345406896e-13,2.367429434e-13,2.684234708e-13,4.231176410e-13,2.831913948e-13,8.339978678e-14,5.557529467e-13,7.147866881e-13,8.645921465e-13,3.921508815e-14,2.361669625e-13,9.115243556e-14,2.203826136e-13,3.011723353e-13,1.818861829e-13,8.457423686e-14,1.654388088e-13,9.771408504e-14,8.474205827e-14,9.124387989e-14,2.237717923e-13,2.874489943e-13,5.337214521e-13,2.931305434e-13,2.341720581e-13,6.977547873e-13,1.816696446e-13
1.6172,2.624625111e-13,1.346758978e-13,6.756719094e-13,2.902303375e-13,1.293132161e-13,2.309165056e-13,2.329262150e-13,2.611201998e-13,4.058007048e-13,2.776122734e-13,8.153794320e-14,5.445395076e-13,7.203958944e-13,8.752643879e-13,3.531446726e-14,2.227685958e-13,8.478694663e-14,2.161327799e-13,2.992380896e-13,1.881071462e-13,8.321666273e-14,1.627649314e-13,9.565612743e-14,8.747667358e-14,8.908155025e-14,2.336301110e-13,2.884827078e-13,5.173680706e-13,2.968362828e-13,2.278078241e-13,7.109920443e-13,1.787854242e-13
1.625,2.670517148e-13,1.312183300e-13,6.523252021e-13,2.770396664e-13,1.268122625e-13,2.279236705e-13,2.298873810e-13,2.542182599e-13,3.896265844e-13,2.719301377e-13,7.968861049e-14,5.337382118e-13,7.256503987e-13,8.852572075e-13,3.171192109e-14,2.099560730e-13,7.880497110e-14,2.121601493e-13,2.968345752e-13,1.945469650e-13,8.174941152e-14,1.596328115e-13,9.327954121e-14,9.013152975e-14,8.695326802e-14,2.432279741e-13,2.896308038e-13,5.019436264e-13,3.007274091e-13,2.218881150e-13,7.231445915e-13,1.764252824e-13
1.6328,2.721403926e-13,1.286703567e-13,6.294934297e-13,2.653097623e-13,1.245818711e-13,2.258817202e-13,2.276729446e-13,2.480416759e-13,3.747793982e-13,2.661662531e-13,7.790303301e-14,5.240759494e-13,7.311777784e-13,8.946557660e-13,2.856729349e-14,1.977034101e-13,7.323141186e-14,2.081500799e-13,2.937856556e-13,2.012594637e-13,8.011749614e-14,1.562339546e-13,9.066783877e-14,9.262726045e-14,8.508936155e-14,2.525241938e-13,2.914852025e-13,4.865613121e-13,3.051277497e-13,2.163919968e-13,7.344921601e-13,1.744408934e-13
1.6406,2.778965352e-13,1.268865095e-13,6.069096308e-13,2.547345816e-13,1.229202295e-13,2.250185824e-13,2.256360736e-13,2.424993594e-13,3.611320406e-13,2.603232959e-13,7.634219261e-14,5.157653385e-13,7.363284851e-13,9.033048989e-13,2.586295022e-14,1.862288244e-13,6.803914177e-14,2.046537324e-13,2.910093079e-13,2.080439216e-13,7.832437500e-14,1.524269709e-13,8.801905209e-14,9.532276809e-14,8.340360095e-14,2.616487295e-13,2.939861535e-13,4.711605501e-13,3.100682175e-13,2.113822686e-13,7.455349651e-13,1.727844139e-13
1.6484,2.848283288e-13,1.256111769e-13,5.847407798e-13,2.450291099e-13,1.217500490e-13,2.250795956e-13,2.242961876e-13,2.372842455e-13,3.485281517e-13,2.541047529e-13,7.499184866e-14,5.084402429e-13,7.410936959e-13,9.116393225e-13,2.348705364e-14,1.755051053e-13,6.323708202e-14,2.022771472e-13,2.885513986e-13,2.152853213e-13,7.650112147e-14,1.483661586e-13,8.547073583e-14,9.868237450e-14,8.179224327e-14,2.706273637e-13,2.970175981e-13,4.562868389e-13,3.158337750e-13,2.068460332e-13,7.560224412e-13,1.715151458e-13
1.6562,2.932502802e-13,1.248668084e-13,5.619600925e-13,2.358815116e-13,1.205710400e-13,2.257098904e-13,2.240812012e-13,2.323661269e-13,3.368177725e-13,2.468828799e-13,7.365225680e-14,5.012271941e-13,7.454531078e-13,9.188155029e-13,2.131453164e-14,1.651842913e-13,5.895310683e-14,2.001200958e-13,2.851869415e-13,2.232784629e-13,7.459394746e-14,1.442871356e-13,8.296298952e-14,1.030057126e-13,8.034200359e-14,2.787941998e-13,3.001455950e-13,4.416821587e-13,3.217079676e-13,2.020648662e-13,7.643559544e-13,1.707969102e-13
1.6641,3.025953219e-13,1.245251478e-13,5.377775225e-13,2.270714590e-13,1.192174097e-13,2.264797291e-13,2.243641740e-13,2.278370671e-13,3.256571440e-13,2.389060721e-13,7.249478344e-14,4.936200755e-13,7.486688407e-13,9.236653682e-13,1.928619637e-14,1.552253007e-13,5.497146501e-14,1.976214721e-13,2.810398715e-13,2.316931589e-13,7.252070452e-14,1.401530245e-13,8.040528943e-14,1.076583558e-13,7.889032467e-14,2.860399449e-13,3.031874699e-13,4.269696727e-13,3.271017875e-13,1.968461112e-13,7.706811745e-13,1.702553588e-13
1.6719,3.123990543e-13,1.245415455e-13,5.138566317e-13,2.189802760e-13,1.179604857e-13,2.271657209e-13,2.249997876e-13,2.236829071e-13,3.148065482e-13,2.309369748e-13,7.187801415e-14,4.860522152e-13,7.507067449e-13,9.268986885e-13,1.748921397e-14,1.457841721e-13,5.112770554e-14,1.956642171e-13,2.770822840e-13,2.404422400e-13,7.041672357e-14,1.359000252e-13,7.778146416e-14,1.115924126e-13,7.735926270e-14,2.931899225e-13,3.068495509e-13,4.125272819e-13,3.331450594e-13,1.918826570e-13,7.765655541e-13,1.693892448e-13
1.6797,3.229753517e-13,1.253019067e-13,4.913490987e-13,2.119719193e-13,1.171164717e-13,2.283183998e-13,2.261897525e-13,2.199971436e-13,3.042257765e-13,2.230495549e-13,7.155836353e-14,4.786967669e-13,7.514076600e-13,9.289402230e-13,1.592028427e-14,1.367403262e-13,4.751186953e-14,1.944913928e-13,2.732079283e-13,2.495305245e-13,6.841706826e-14,1.315011948e-13,7.524963072e-14,1.150815431e-13,7.585606805e-14,3.002773532e-13,3.109144070e-13,3.988161755e-13,3.399157076e-13,1.871997931e-13,7.819518690e-13,1.684726449e-13
1.6875,3.341663608e-13,1.266286088e-13,4.689239313e-13,2.058166136e-13,1.166963189e-13,2.300946907e-13,2.279877352e-13,2.167817373e-13,2.939115046e-13,2.150700996e-13,7.124197750e-14,4.710396567e-13,7.501063915e-13,9.290251464e-13,1.453530650e-14,1.281813854e-13,4.411015594e-14,1.937525383e-13,2.690846194e-13,2.591085710e-13,6.658423480e-14,1.269764356e-13,7.314940545e-14,1.190094249e-13,7.431456254e-14,3.067156386e-13,3.146019853e-13,3.856200856e-13,3.463830879e-13,1.823111575e-13,7.862783024e-13,1.679548069e-13
