Time,Fp1,AF3,F7,F3,FC1,FC5,T7,C3,CP1,CP5,P7,P3,Pz,PO3,O1,Oz,O2,PO4,P4,P8,CP6,CP2,C4,T8,FC6,FC2,F4,F8,AF4,Fp2,Fz,Cz,
-0.10156,1.161839476e-12,5.377768452e-13,7.372257623e-13,5.263214728e-13,4.967595938e-13,7.006487117e-13,1.445189162e-12,7.428221124e-13,1.010368482e-12,1.449001962e-12,1.941577621e-12,1.435517965e-12,9.104312292e-13,1.149812850e-12,9.066826064e-13,5.789166750e-13,1.447236195e-12,7.804526712e-13,7.105813520e-13,1.052839446e-12,7.525361466e-13,2.652622645e-13,2.797408061e-13,2.184738171e-12,2.441265908e-12,7.074012521e-13,1.587311819e-12,9.346193820e-12,1.353881982e-12,3.614787176e-12,9.768539480e-13,6.949984739e-13
-0.09375,1.175403868e-12,5.483193315e-13,7.616219858e-13,5.380870408e-13,5.098526697e-13,7.108959403e-13,1.486121813e-12,7.536087178e-13,1.026506306e-12,1.475354508e-12,1.981205254e-12,1.453949042e-12,9.320345477e-13,1.166672344e-12,9.399116354e-13,5.994472929e-13,1.468914469e-12,7.913743601e-13,7.195505967e-13,1.074672719e-12,7.695262782e-13,2.722312858e-13,2.918279748e-13,2.230483347e-12,2.491257137e-12,7.281322705e-13,1.634165586e-12,9.508786648e-12,1.378205026e-12,3.676201630e-12,1.001557128e-12,7.110209376e-13
-0.085938,1.188464448e-12,5.589795184e-13,7.868724636e-13,5.500697864e-13,5.232578979e-13,7.211627643e-13,1.527708698e-12,7.643051545e-13,1.042157484e-12,1.501609574e-12,2.021285828e-12,1.471613044e-12,9.532876411e-13,1.182910107e-12,9.741310921e-13,6.207139964e-13,1.490194538e-12,8.020579011e-13,7.279353920e-13,1.096473907e-12,7.867505588e-13,2.792524970e-13,3.044977233e-13,2.276098885e-12,2.540934350e-12,7.494343334e-13,1.681935473e-12,9.669838727e-12,1.402207620e-12,3.736466305e-12,1.026797329e-12,7.271371658e-13
-0.078125,1.201316786e-12,5.699747981e-13,8.129238589e-13,5.620799081e-13,5.368235818e-13,7.313059472e-13,1.570147046e-12,7.747000755e-13,1.057218449e-12,1.527800497e-12,2.061802662e-12,1.488688255e-12,9.745173937e-13,1.198949156e-12,1.009809833e-12,6.431791939e-13,1.511816895e-12,8.129055909e-13,7.360783272e-13,1.118316848e-12,8.041413758e-13,2.864108855e-13,3.176697507e-13,2.321126769e-12,2.590626858e-12,7.714667397e-13,1.730944151e-12,9.829780938e-12,1.426078278e-12,3.795930224e-12,1.052661097e-12,7.434185938e-13
-0.070312,1.214407983e-12,5.816748615e-13,8.399294810e-13,5.739423260e-13,5.506263397e-13,7.412952601e-13,1.613513677e-12,7.847228410e-13,1.071781060e-12,1.553973562e-12,2.102570907e-12,1.505422260e-12,9.960656198e-13,1.215068367e-12,1.047120017e-12,6.669856344e-13,1.533944721e-12,8.240038554e-13,7.442183384e-13,1.140492539e-12,8.216849970e-13,2.937954775e-13,3.313477505e-13,2.365917795e-12,2.640326707e-12,7.942517408e-13,1.780904693e-12,9.987086921e-12,1.449815093e-12,3.854726083e-12,1.079134338e-12,7.598668842e-13
-0.0625,1.227583200e-12,5.939799093e-13,8.678694430e-13,5.858268769e-13,5.650466172e-13,7.512452016e-13,1.657376430e-12,7.946438940e-13,1.086163403e-12,1.580032354e-12,2.143186978e-12,1.521892775e-12,1.018072128e-12,1.231212928e-12,1.085753764e-12,6.917616203e-13,1.555786650e-12,8.351225383e-13,7.523678826e-13,1.163147687e-12,8.394535787e-13,3.014226140e-13,3.455052979e-13,2.411197516e-12,2.690232099e-12,8.176461369e-13,1.831721461e-12,1.014298170e-11,1.473517214e-12,3.913161133e-12,1.106005400e-12,7.765220706e-13
-0.054688,1.240416431e-12,6.063531046e-13,8.970950818e-13,5.981149783e-13,5.802303819e-13,7.612710882e-13,1.701288860e-12,8.046039907e-13,1.100477370e-12,1.605947656e-12,2.183717077e-12,1.538005091e-12,1.040361783e-12,1.247151052e-12,1.125500020e-12,7.172446814e-13,1.576876110e-12,8.460901563e-13,7.603533105e-13,1.186190245e-12,8.576356318e-13,3.092448304e-13,3.600971253e-13,2.456994934e-12,2.740550758e-12,8.414502787e-13,1.883560688e-12,1.029997825e-11,1.497302605e-12,3.971378451e-12,1.133103129e-12,7.933633599e-13
-0.046875,1.252944475e-12,6.187536723e-13,9.279412997e-13,6.107709282e-13,5.959357105e-13,7.712651491e-13,1.745718544e-12,8.144275221e-13,1.114444199e-12,1.631967673e-12,2.224827229e-12,1.553676069e-12,1.062635255e-12,1.262615692e-12,1.166281507e-12,7.433762199e-13,1.597375479e-12,8.567929384e-13,7.679142978e-13,1.209340289e-12,8.762119374e-13,3.172227595e-13,3.752459492e-13,2.502928106e-12,2.790918046e-12,8.656195349e-13,1.936402552e-12,1.045629856e-11,1.520957102e-12,4.028850112e-12,1.160480548e-12,8.102387242e-13
-0.039062,1.265368416e-12,6.316964117e-13,9.599328644e-13,6.235479004e-13,6.119769869e-13,7.810880556e-13,1.791298114e-12,8.240174609e-13,1.127748766e-12,1.658241750e-12,2.266912983e-12,1.568862770e-12,1.084718094e-12,1.277518363e-12,1.208059829e-12,7.701408900e-13,1.617500389e-12,8.672810668e-13,7.750708374e-13,1.232428659e-12,8.949922012e-13,3.253328014e-13,3.910867882e-13,2.548537695e-12,2.841018083e-12,8.902813997e-13,1.990321483e-12,1.060892607e-11,1.544345422e-12,4.085151146e-12,1.188221896e-12,8.271304719e-13
-0.03125,1.277649155e-12,6.454622325e-13,9.923348619e-13,6.365425872e-13,6.282411160e-13,7.908386518e-13,1.837777381e-12,8.334372502e-13,1.140345508e-12,1.684604452e-12,2.309880900e-12,1.583551524e-12,1.106551315e-12,1.292122005e-12,1.251325423e-12,7.979957842e-13,1.637542826e-12,8.778327548e-13,7.819773742e-13,1.255598986e-12,9.140130810e-13,3.335290681e-13,4.075572317e-13,2.593756212e-12,2.890868658e-12,9.155216221e-13,2.045259845e-12,1.075872092e-11,1.567519555e-12,4.140394173e-12,1.216316116e-12,8.441767513e-13
-0.023438,1.289685880e-12,6.598373294e-13,1.025135318e-12,6.497602306e-13,6.445985562e-13,8.005035244e-13,1.885030638e-12,8.426107197e-13,1.152293459e-12,1.710954193e-12,2.353669421e-12,1.597772984e-12,1.128181924e-12,1.306686405e-12,1.296654469e-12,8.273915740e-13,1.657644386e-12,8.885093198e-13,7.885403262e-13,1.278818646e-12,9.332468256e-13,3.418263899e-13,4.246282313e-13,2.639135262e-12,2.940577761e-12,9.413834859e-13,2.100941167e-12,1.090765077e-11,1.590403871e-12,4.194754413e-12,1.244756789e-12,8.613723905e-13
-0.015625,1.301321585e-12,6.743192471e-13,1.059349593e-12,6.627752418e-13,6.612855210e-13,8.098295075e-13,1.933543746e-12,8.513786579e-13,1.163574881e-12,1.737280559e-12,2.398052387e-12,1.611471633e-12,1.149748204e-12,1.320997911e-12,1.343460094e-12,8.576944981e-13,1.677361293e-12,8.989986359e-13,7.946527280e-13,1.301757223e-12,9.524841834e-13,3.503173831e-13,4.424552456e-13,2.684719537e-12,2.990465770e-12,9.679346531e-13,2.157589167e-12,1.105544469e-11,1.612887081e-12,4.248028636e-12,1.273518608e-12,8.786060456e-13
-0.0078125,1.312426154e-12,6.886519505e-13,1.095518655e-12,6.754928332e-13,6.787183846e-13,8.188584106e-13,1.983069592e-12,8.598174047e-13,1.174226836e-12,1.763415013e-12,2.442509103e-12,1.624500749e-12,1.171319981e-12,1.334668494e-12,1.390650887e-12,8.880921423e-13,1.696361452e-12,9.091118817e-13,8.003563244e-13,1.324569216e-12,9.718523923e-13,3.589658984e-13,4.610077142e-13,2.730067961e-12,3.040597889e-12,9.950304447e-13,2.215485388e-12,1.120121331e-11,1.634905687e-12,4.299750763e-12,1.302517676e-12,8.958073067e-13
0,1.323119576e-12,7.033235086e-13,1.132211445e-12,6.885245540e-13,6.967042901e-13,8.278748670e-13,2.032955087e-12,8.681150216e-13,1.184281805e-12,1.789374649e-12,2.487091311e-12,1.636856144e-12,1.192781241e-12,1.347694357e-12,1.438454723e-12,9.190325151e-13,1.715110973e-12,9.190264484e-13,8.056310096e-13,1.347852628e-12,9.916149498e-13,3.675678986e-13,4.800267951e-13,2.775470124e-12,3.090552070e-12,1.022311334e-12,2.274175820e-12,1.134459852e-11,1.656540469e-12,4.349947162e-12,1.331715524e-12,9.128442735e-13
0.0078125,1.333565115e-12,7.189206115e-13,1.168639113e-12,7.023496335e-13,7.146884960e-13,8.368549428e-13,2.083541584e-12,8.762066323e-13,1.193594494e-12,1.815445720e-12,2.532336830e-12,1.648647616e-12,1.213909504e-12,1.360237580e-12,1.487730288e-12,9.512551016e-13,1.734025844e-12,9.289110055e-13,8.104228448e-13,1.371593663e-12,1.011714562e-12,3.760423598e-13,4.995265210e-13,2.821029283e-12,3.140019785e-12,1.049704036e-12,2.333158577e-12,1.148491459e-11,1.677967152e-12,4.398990871e-12,1.361081059e-12,9.296578429e-13
0.015625,1.343995100e-12,7.354041069e-13,1.206635423e-12,7.165001287e-13,7.327319939e-13,8.455287628e-13,2.135075326e-12,8.838568856e-13,1.202107528e-12,1.841507851e-12,2.578023695e-12,1.659915376e-12,1.234724833e-12,1.372313879e-12,1.538083177e-12,9.844725830e-13,1.752774341e-12,9.387330536e-13,8.147788993e-13,1.395096868e-12,1.031913003e-12,3.845585594e-13,5.196524813e-13,2.865780003e-12,3.188530308e-12,1.077464420e-12,2.392400279e-12,1.162177576e-11,1.699071853e-12,4.446785316e-12,1.390440391e-12,9.464155007e-13
0.023438,1.354744649e-12,7.527045417e-13,1.246701398e-12,7.299286917e-13,7.511973393e-13,8.536425113e-13,2.186692470e-12,8.908953104e-13,1.209938756e-12,1.867132160e-12,2.623556711e-12,1.670707742e-12,1.255591813e-12,1.384093367e-12,1.588835018e-12,1.018239062e-12,1.771159665e-12,9.486341096e-13,8.188645262e-13,1.418042386e-12,1.051906493e-12,3.932479289e-13,5.402337201e-13,2.909224949e-12,3.235421883e-12,1.105526190e-12,2.451913579e-12,1.175599764e-11,1.719797027e-12,4.493306152e-12,1.419606442e-12,9.631191014e-13
0.03125,1.365586548e-12,7.709712451e-13,1.286993508e-12,7.426445702e-13,7.698182946e-13,8.611650413e-13,2.238154433e-12,8.972527373e-13,1.217009618e-12,1.892302680e-12,2.669168974e-12,1.680970956e-12,1.276626013e-12,1.395720996e-12,1.640631525e-12,1.052945499e-12,1.789613996e-12,9.588770777e-13,8.227709488e-13,1.440885505e-12,1.071635442e-12,4.020187513e-13,5.611819506e-13,2.951783249e-12,3.280857938e-12,1.133535220e-12,2.511693532e-12,1.188803743e-11,1.740407132e-12,4.538742768e-12,1.448731709e-12,9.795345912e-13
0.039062,1.376023123e-12,7.899531359e-13,1.328070758e-12,7.563379983e-13,7.882471162e-13,8.685703406e-13,2.290483531e-12,9.031157561e-13,1.223197693e-12,1.917146316e-12,2.715177490e-12,1.690394339e-12,1.297562435e-12,1.406811970e-12,1.694094831e-12,1.089005332e-12,1.808269223e-12,9.692179952e-13,8.262787382e-13,1.464079913e-12,1.091471460e-12,4.108559639e-13,5.827222351e-13,2.993632581e-12,3.325462996e-12,1.161679058e-12,2.571999740e-12,1.201658688e-11,1.760811207e-12,4.582751466e-12,1.478258708e-12,9.958055875e-13
0.046875,1.386381544e-12,8.094147101e-13,1.371859937e-12,7.718134313e-13,8.069793783e-13,8.762506014e-13,2.344165340e-12,9.088393151e-13,1.228722867e-12,1.941680999e-12,2.761400466e-12,1.699006004e-12,1.318465760e-12,1.417169820e-12,1.748830416e-12,1.126057338e-12,1.826778483e-12,9.792629478e-13,8.292992276e-13,1.487532111e-12,1.111583392e-12,4.199684312e-13,6.049217781e-13,3.034848948e-12,3.369715203e-12,1.190487724e-12,2.633356467e-12,1.214025209e-11,1.780956976e-12,4.625377093e-12,1.508330994e-12,1.012339442e-12
0.054688,1.397040510e-12,8.297180421e-13,1.417168758e-12,7.872949094e-13,8.265492580e-13,8.838216900e-13,2.398902287e-12,9.144891010e-13,1.233824838e-12,1.966400998e-12,2.808285292e-12,1.707432114e-12,1.339577543e-12,1.427368812e-12,1.804950001e-12,1.163762621e-12,1.845058934e-12,9.892012059e-13,8.321249124e-13,1.511076761e-12,1.131929432e-12,4.293749976e-13,6.277611525e-13,3.075887397e-12,3.414357759e-12,1.219889109e-12,2.696067139e-12,1.225982349e-11,1.801452020e-12,4.667286989e-12,1.538674803e-12,1.029048821e-12
0.0625,1.407452693e-12,8.511051668e-13,1.462438671e-12,8.015785666e-13,8.466347909e-13,8.909578271e-13,2.454860853e-12,9.199400632e-13,1.238476266e-12,1.991806419e-12,2.856441965e-12,1.715893632e-12,1.360645939e-12,1.437634877e-12,1.863090912e-12,1.202492340e-12,1.862998512e-12,9.991293429e-13,8.346137949e-13,1.534740993e-12,1.152744116e-12,4.388571855e-13,6.513427151e-13,3.117052082e-12,3.459262780e-12,1.249540271e-12,2.759825301e-12,1.237718166e-11,1.822401156e-12,4.708245555e-12,1.569223345e-12,1.045612636e-12
0.070312,1.417452532e-12,8.733980750e-13,1.508774080e-12,8.159758561e-13,8.668771447e-13,8.979791890e-13,2.512262774e-12,9.251800775e-13,1.242626896e-12,2.017381149e-12,2.905129593e-12,1.723898275e-12,1.381485446e-12,1.447434111e-12,1.922823189e-12,1.242542507e-12,1.880296851e-12,1.008771575e-12,8.363565734e-13,1.558429261e-12,1.173956070e-12,4.484609889e-13,6.755672554e-13,3.158081005e-12,3.503019611e-12,1.279542920e-12,2.824328663e-12,1.249207758e-11,1.843228005e-12,4.747862504e-12,1.600150896e-12,1.062176843e-12
0.078125,1.427764546e-12,8.965635346e-13,1.556932450e-12,8.311737494e-13,8.874948846e-13,9.049913471e-13,2.570560179e-12,9.300615899e-13,1.246229168e-12,2.042381078e-12,2.953475234e-12,1.731229456e-12,1.402437781e-12,1.456640595e-12,1.983327478e-12,1.283632810e-12,1.897393569e-12,1.018518581e-12,8.377873433e-13,1.582159012e-12,1.195113293e-12,4.583481646e-13,7.002964428e-13,3.198428244e-12,3.545574893e-12,1.309987029e-12,2.889756800e-12,1.260312123e-11,1.863912173e-12,4.786696543e-12,1.631306287e-12,1.078997878e-12
0.085938,1.438349587e-12,9.205936683e-13,1.606321118e-12,8.463549944e-13,9.085761684e-13,9.117811325e-13,2.629198469e-12,9.343897640e-13,1.249122249e-12,2.066878887e-12,3.001825285e-12,1.738033863e-12,1.423576657e-12,1.465541112e-12,2.044692534e-12,1.325563046e-12,1.914946855e-12,1.028885878e-12,8.394029506e-13,1.606117813e-12,1.216241266e-12,4.683156298e-13,7.256814937e-13,3.238067467e-12,3.588087351e-12,1.340665840e-12,2.955875560e-12,1.271214150e-11,1.884487580e-12,4.824816609e-12,1.662362208e-12,1.095930039e-12
0.09375,1.448414707e-12,9.453622603e-13,1.656762913e-12,8.616451179e-13,9.298930794e-13,9.183823879e-13,2.688130939e-12,9.382543276e-13,1.251187036e-12,2.091121468e-12,3.050378619e-12,1.744214864e-12,1.444554513e-12,1.473987504e-12,2.107076828e-12,1.368366793e-12,1.932568136e-12,1.039327927e-12,8.407629897e-13,1.630097416e-12,1.237639008e-12,4.781673410e-13,7.518936011e-13,3.277603534e-12,3.629940792e-12,1.371459750e-12,3.021676883e-12,1.282141973e-11,1.904542847e-12,4.861608826e-12,1.693251762e-12,1.112707268e-12
0.10156,1.458213209e-12,9.709899841e-13,1.708679903e-12,8.774476869e-13,9.514185971e-13,9.247763567e-13,2.747278423e-12,9.416692774e-13,1.252400660e-12,2.115017276e-12,3.098846424e-12,1.749766712e-12,1.465266316e-12,1.481839522e-12,2.170217940e-12,1.411984270e-12,1.949846639e-12,1.049436676e-12,8.416689740e-13,1.654052355e-12,1.259664772e-12,4.880846344e-13,7.791343753e-13,3.316946145e-12,3.670168100e-12,1.402262131e-12,3.086873902e-12,1.292748649e-11,1.924311394e-12,4.896854527e-12,1.724087598e-12,1.129165461e-12
0.10938,1.468630827e-12,9.975689609e-13,1.762581249e-12,8.932608710e-13,9.732321149e-13,9.308355649e-13,2.806665731e-12,9.444847575e-13,1.252742824e-12,2.138609080e-12,3.147829370e-12,1.754987879e-12,1.485689851e-12,1.489392012e-12,2.234379375e-12,1.456516092e-12,1.967260653e-12,1.059721165e-12,8.424737083e-13,1.678540279e-12,1.282851887e-12,4.981750705e-13,8.075687470e-13,3.355336918e-12,3.709953212e-12,1.432918871e-12,3.152568685e-12,1.302654128e-11,1.944286267e-12,4.930375989e-12,1.754989068e-12,1.145169319e-12
0.11719,1.479292140e-12,1.024981433e-12,1.817252271e-12,9.091224335e-13,9.952707526e-13,9.365926125e-13,2.866797177e-12,9.468317057e-13,1.252220962e-12,2.162157970e-12,3.198141150e-12,1.759946673e-12,1.505669540e-12,1.496814031e-12,2.300217371e-12,1.502175659e-12,1.984873819e-12,1.070223224e-12,8.427774650e-13,1.703241624e-12,1.306575203e-12,5.082397256e-13,8.366434428e-13,3.393439689e-12,3.750086335e-12,1.463419837e-12,3.219359834e-12,1.312184602e-11,1.964051695e-12,4.962188154e-12,1.785881776e-12,1.160730456e-12
0.125,1.489165908e-12,1.053548548e-12,1.870486292e-12,9.253048063e-13,1.017364412e-12,9.419345370e-13,2.927929541e-12,9.488575086e-13,1.250883626e-12,2.185774836e-12,3.249419922e-12,1.764499661e-12,1.525403895e-12,1.504049653e-12,2.367707027e-12,1.548962134e-12,2.002230365e-12,1.080630143e-12,8.419627520e-13,1.727011088e-12,1.329041252e-12,5.180928612e-13,8.655480775e-13,3.432731016e-12,3.789486988e-12,1.493735658e-12,3.286367648e-12,1.321651099e-11,1.983203011e-12,4.992675111e-12,1.816548110e-12,1.175998883e-12
0.13281,1.498433485e-12,1.083872479e-12,1.923922781e-12,9.413742504e-13,1.039185888e-12,9.467846609e-13,2.989676171e-12,9.504067819e-13,1.248831227e-12,2.209240022e-12,3.300858224e-12,1.768652122e-12,1.545348558e-12,1.511108603e-12,2.436236335e-12,1.597003026e-12,2.019592517e-12,1.091416492e-12,8.404301152e-13,1.750103145e-12,1.350135743e-12,5.277239032e-13,8.944848169e-13,3.472330963e-12,3.828036258e-12,1.523850586e-12,3.353255587e-12,1.330731524e-11,2.002253646e-12,5.021586739e-12,1.847121672e-12,1.191032566e-12
0.14062,1.507929030e-12,1.115953019e-12,1.980057308e-12,9.573767777e-13,1.060697525e-12,9.513226194e-13,3.051812689e-12,9.514702502e-13,1.246285869e-12,2.232263208e-12,3.352083673e-12,1.772528435e-12,1.565635300e-12,1.518056899e-12,2.505452907e-12,1.646385616e-12,2.037288446e-12,1.102894472e-12,8.387486732e-13,1.773685200e-12,1.371660102e-12,5.372410735e-13,9.241769368e-13,3.510079901e-12,3.866731419e-12,1.553812493e-12,3.420917621e-12,1.339237124e-11,2.021744640e-12,5.048871845e-12,1.877793747e-12,1.205761497e-12
0.14844,1.517789784e-12,1.149300747e-12,2.036371530e-12,9.736151770e-13,1.082553478e-12,9.553984614e-13,3.114433703e-12,9.522862636e-13,1.243428595e-12,2.255019690e-12,3.402909159e-12,1.776319843e-12,1.586118538e-12,1.525086247e-12,2.575407195e-12,1.696545209e-12,2.054929104e-12,1.114536309e-12,8.368157042e-13,1.797747201e-12,1.394331695e-12,5.467471482e-13,9.546941118e-13,3.546679936e-12,3.905306521e-12,1.583396151e-12,3.489500171e-12,1.347472865e-11,2.041536271e-12,5.075595843e-12,1.908232385e-12,1.220068236e-12
0.15625,1.527910655e-12,1.183546579e-12,2.091954035e-12,9.898727427e-13,1.105127626e-12,9.588526109e-13,3.177253173e-12,9.529166826e-13,1.240119600e-12,2.277885127e-12,3.453288165e-12,1.780079582e-12,1.606578228e-12,1.532303855e-12,2.646121455e-12,1.747042893e-12,2.072425087e-12,1.126132836e-12,8.344887969e-13,1.821834447e-12,1.417547744e-12,5.562555314e-13,9.858732263e-13,3.584339306e-12,3.943106504e-12,1.612390989e-12,3.558318346e-12,1.355599516e-11,2.061176386e-12,5.101904711e-12,1.938262797e-12,1.233856722e-12
0.16406,1.538346958e-12,1.218673506e-12,2.150530280e-12,1.006417767e-12,1.127932004e-12,9.620449327e-13,3.239817144e-12,9.532220873e-13,1.236070337e-12,2.300721962e-12,3.503390853e-12,1.783554090e-12,1.626763094e-12,1.539363903e-12,2.717318299e-12,1.798145080e-12,2.090136915e-12,1.137903593e-12,8.318670521e-13,1.846120133e-12,1.441324596e-12,5.657852227e-13,1.017865518e-12,3.622495464e-12,3.980388734e-12,1.640879907e-12,3.627145985e-12,1.363483700e-11,2.080500513e-12,5.126713771e-12,1.968135617e-12,1.247131688e-12
0.17188,1.549004074e-12,1.255092195e-12,2.211478891e-12,1.023407399e-12,1.150697838e-12,9.650046855e-13,3.302111577e-12,9.531157476e-13,1.231242787e-12,2.323303744e-12,3.553351027e-12,1.786595894e-12,1.646650464e-12,1.545907471e-12,2.788593519e-12,1.849770177e-12,2.107951211e-12,1.149746798e-12,8.289815459e-13,1.870501563e-12,1.465795190e-12,5.753402791e-13,1.050540668e-12,3.659466059e-12,4.016962858e-12,1.668689582e-12,3.695862715e-12,1.371044455e-11,2.099783819e-12,5.150066932e-12,1.997719606e-12,1.259961398e-12
0.17969,1.559970777e-12,1.293196379e-12,2.271916133e-12,1.040203447e-12,1.173611360e-12,9.674574931e-13,3.364297782e-12,9.526247920e-13,1.225744551e-12,2.345807559e-12,3.603252775e-12,1.789268458e-12,1.666415294e-12,1.551976797e-12,2.859973299e-12,1.901506677e-12,2.125650964e-12,1.161620936e-12,8.258121410e-13,1.894557612e-12,1.490264603e-12,5.848309033e-13,1.083432653e-12,3.695698245e-12,4.052211721e-12,1.695608109e-12,3.764539562e-12,1.378264509e-11,2.119204055e-12,5.172633508e-12,2.026872513e-12,1.272431560e-12
0.1875,1.571357541e-12,1.332880611e-12,2.333644101e-12,1.057032752e-12,1.196500714e-12,9.696471965e-13,3.426543900e-12,9.517756285e-13,1.219577038e-12,2.368255552e-12,3.653261942e-12,1.791510333e-12,1.686119884e-12,1.557652253e-12,2.931990548e-12,1.953695205e-12,2.143519253e-12,1.173773808e-12,8.223377651e-13,1.918410727e-12,1.514447778e-12,5.942418878e-13,1.116493104e-12,3.731792742e-12,4.086284536e-12,1.721937469e-12,3.833886273e-12,1.385111873e-11,2.138611006e-12,5.194044349e-12,2.055997513e-12,1.284639015e-12
0.19531,1.582816510e-12,1.374087809e-12,2.397197160e-12,1.074478452e-12,1.219257145e-12,9.716211438e-13,3.489266718e-12,9.505562919e-13,1.212860492e-12,2.390532612e-12,3.703551853e-12,1.793411474e-12,1.705865018e-12,1.562992098e-12,3.004767464e-12,2.006697906e-12,2.161792202e-12,1.186240426e-12,8.185013139e-13,1.942414177e-12,1.538806729e-12,6.036339591e-13,1.150007510e-12,3.767142260e-12,4.119327807e-12,1.747883427e-12,3.904264862e-12,1.391615733e-11,2.158191315e-12,5.214177902e-12,2.085200995e-12,1.296604374e-12
0.20312,1.594327190e-12,1.417125690e-12,2.460895540e-12,1.092003743e-12,1.242244465e-12,9.730233997e-13,3.552746171e-12,9.490509132e-13,1.205870633e-12,2.412853137e-12,3.754188317e-12,1.795309167e-12,1.725859855e-12,1.568209553e-12,3.077689875e-12,2.060024091e-12,2.180301030e-12,1.198897637e-12,8.142765173e-13,1.966678855e-12,1.563371965e-12,6.129822909e-13,1.184048037e-12,3.802003976e-12,4.151262666e-12,1.773273600e-12,3.975644336e-12,1.397861650e-11,2.178502417e-12,5.233883600e-12,2.114168131e-12,1.308303305e-12
0.21094,1.606242395e-12,1.461927977e-12,2.526516674e-12,1.109605421e-12,1.265586989e-12,9.741072066e-13,3.616848820e-12,9.474083070e-13,1.198629592e-12,2.435309876e-12,3.805133341e-12,1.797244118e-12,1.746081902e-12,1.573412738e-12,3.150473732e-12,2.113366426e-12,2.198773344e-12,1.211677672e-12,8.096771713e-13,1.991159820e-12,1.588125288e-12,6.223104330e-13,1.218629348e-12,3.837244732e-12,4.182599476e-12,1.797954407e-12,4.048143727e-12,1.403951662e-11,2.199633667e-12,5.253502232e-12,2.142836698e-12,1.319729504e-12
0.21875,1.618291380e-12,1.508068692e-12,2.594536729e-12,1.128009665e-12,1.289213798e-12,9.752401361e-13,3.681548032e-12,9.456770997e-13,1.190990842e-12,2.457778070e-12,3.856467032e-12,1.799161162e-12,1.766357367e-12,1.578615104e-12,3.223579320e-12,2.167026011e-12,2.217067265e-12,1.224469620e-12,8.047662900e-13,2.015640105e-12,1.613558500e-12,6.316986201e-13,1.253882811e-12,3.872890158e-12,4.213734589e-12,1.821764789e-12,4.121472990e-12,1.410023197e-11,2.221363668e-12,5.272949266e-12,2.171196418e-12,1.330789849e-12
0.22656,1.630178019e-12,1.555581102e-12,2.662506784e-12,1.146920454e-12,1.313193776e-12,9.762244345e-13,3.746894633e-12,9.438579238e-13,1.182978425e-12,2.480454777e-12,3.908431938e-12,1.801276017e-12,1.786556309e-12,1.583924703e-12,3.297445042e-12,2.221153989e-12,2.235278535e-12,1.237248901e-12,7.996011300e-13,2.039998557e-12,1.639621703e-12,6.410569206e-13,1.289811677e-12,3.908767252e-12,4.244645725e-12,1.844797094e-12,4.195586183e-12,1.416142638e-11,2.243856103e-12,5.292571838e-12,2.199368497e-12,1.341417363e-12
0.23438,1.642158193e-12,1.604689820e-12,2.731021733e-12,1.166190293e-12,1.337305508e-12,9.770281226e-13,3.812528819e-12,9.419198377e-13,1.174576763e-12,2.503490804e-12,3.960868698e-12,1.803512361e-12,1.806497321e-12,1.589269198e-12,3.372145024e-12,2.275868133e-12,2.253585170e-12,1.250063274e-12,7.940873545e-13,2.064450214e-12,1.665862080e-12,6.502186564e-13,1.326245592e-12,3.944578388e-12,4.275291486e-12,1.867342956e-12,4.271059158e-12,1.422169993e-11,2.267223052e-12,5.312238920e-12,2.227821831e-12,1.351694982e-12
0.24219,1.654229908e-12,1.655133087e-12,2.801343173e-12,1.186318453e-12,1.361491511e-12,9.776927610e-13,3.878125794e-12,9.397397003e-13,1.165654918e-12,2.526644126e-12,4.013044271e-12,1.805498933e-12,1.826292674e-12,1.594378058e-12,3.447164937e-12,2.331256658e-12,2.272006909e-12,1.262854168e-12,7.882155414e-13,2.089100803e-12,1.692457575e-12,6.591215076e-13,1.362961714e-12,3.979837226e-12,4.304968076e-12,1.889001565e-12,4.347470329e-12,1.427973215e-11,2.291200069e-12,5.331343274e-12,2.256393383e-12,1.361520736e-12
0.25,1.666330600e-12,1.706678964e-12,2.872857769e-12,1.206575393e-12,1.386455149e-12,9.778035926e-13,3.943837888e-12,9.372492880e-13,1.156288603e-12,2.549843476e-12,4.064547675e-12,1.807353081e-12,1.846462863e-12,1.599166061e-12,3.521240188e-12,2.386672174e-12,2.290621717e-12,1.275685030e-12,7.822903391e-13,2.113780369e-12,1.719448902e-12,6.677822699e-13,1.399849966e-12,4.014788144e-12,4.333170573e-12,1.909118198e-12,4.424049123e-12,1.433666063e-11,2.315876480e-12,5.350288542e-12,2.284188682e-12,1.370575706e-12
0.25781,1.678835731e-12,1.759824784e-12,2.945564822e-12,1.226193163e-12,1.412341654e-12,9.771844491e-13,4.009765896e-12,9.344968972e-13,1.146686910e-12,2.573275505e-12,4.115753633e-12,1.809530558e-12,1.867135402e-12,1.603859035e-12,3.593737455e-12,2.441488600e-12,2.309692045e-12,1.288789316e-12,7.764438882e-13,2.138371428e-12,1.746307594e-12,6.762399786e-13,1.437018329e-12,4.049572644e-12,4.360729408e-12,1.927805944e-12,4.501260630e-12,1.439369777e-11,2.341795745e-12,5.370148397e-12,2.311028078e-12,1.378815876e-12
0.26562,1.691969523e-12,1.815308573e-12,3.018377409e-12,1.246033698e-12,1.437865311e-12,9.761706103e-13,4.075954206e-12,9.315557040e-13,1.136985835e-12,2.597056102e-12,4.167134588e-12,1.812216650e-12,1.887992066e-12,1.608991213e-12,3.665788536e-12,2.496379802e-12,2.329389486e-12,1.302338503e-12,7.704456191e-13,2.162806299e-12,1.772926783e-12,6.844667893e-13,1.474431848e-12,4.083583709e-12,4.387995840e-12,1.945370681e-12,4.579350553e-12,1.445107332e-11,2.369332052e-12,5.391606915e-12,2.337542701e-12,1.386484688e-12
0.27344,1.705628827e-12,1.873180266e-12,3.090346001e-12,1.266545112e-12,1.462193888e-12,9.749501083e-13,4.142881220e-12,9.285163003e-13,1.127296281e-12,2.621245952e-12,4.218764349e-12,1.815353435e-12,1.909039462e-12,1.614969572e-12,3.738611394e-12,2.552287904e-12,2.349762987e-12,1.316513169e-12,7.643414705e-13,2.187115457e-12,1.799536893e-12,6.924371506e-13,1.511837573e-12,4.117110914e-12,4.414629276e-12,1.961858282e-12,4.657921457e-12,1.451054945e-11,2.398597260e-12,5.415034539e-12,2.363989371e-12,1.393735719e-12
0.28125,1.719523104e-12,1.932805368e-12,3.163540429e-12,1.287111191e-12,1.486630589e-12,9.734978126e-13,4.210630746e-12,9.254547742e-13,1.117609825e-12,2.645674422e-12,4.270398146e-12,1.818739894e-12,1.930376305e-12,1.621367742e-12,3.811783803e-12,2.608878933e-12,2.370758375e-12,1.331337666e-12,7.584075143e-13,2.211563864e-12,1.826293671e-12,7.002497587e-13,1.549341436e-12,4.151267762e-12,4.441292732e-12,1.977390542e-12,4.737257825e-12,1.457294047e-11,2.429452371e-12,5.440081404e-12,2.390195247e-12,1.400579651e-12
0.28906,1.733575318e-12,1.993900934e-12,3.238425925e-12,1.307861742e-12,1.512675352e-12,9.718871737e-13,4.278252701e-12,9.224603103e-13,1.107835182e-12,2.670031294e-12,4.321591595e-12,1.822170483e-12,1.951780766e-12,1.627626334e-12,3.884541306e-12,2.665526106e-12,2.392263223e-12,1.346564362e-12,7.524857870e-13,2.236240938e-12,1.853496817e-12,7.079221185e-13,1.587241373e-12,4.186314087e-12,4.468087547e-12,1.991946516e-12,4.817471921e-12,1.463554601e-11,2.461593268e-12,5.466072621e-12,2.416241945e-12,1.407011650e-12
0.29688,1.748597545e-12,2.057099513e-12,3.313332816e-12,1.329276155e-12,1.539255390e-12,9.701799708e-13,4.345353201e-12,9.195936114e-13,1.098049785e-12,2.694480152e-12,4.372111269e-12,1.825768887e-12,1.973177906e-12,1.634211014e-12,3.957272255e-12,2.722683740e-12,2.414459263e-12,1.362239953e-12,7.463156606e-13,2.260950877e-12,1.881086613e-12,7.153791610e-13,1.625407882e-12,4.221739780e-12,4.493905580e-12,2.005352823e-12,4.898033886e-12,1.469785022e-11,2.495048507e-12,5.493567666e-12,2.442381411e-12,1.413052700e-12
0.30469,1.764915549e-12,2.122863928e-12,3.388670045e-12,1.351227648e-12,1.564558451e-12,9.681841603e-13,4.412847836e-12,9.166877049e-13,1.088299885e-12,2.719413104e-12,4.422251727e-12,1.829766542e-12,1.994679601e-12,1.641616536e-12,4.030121251e-12,2.780574143e-12,2.437249467e-12,1.378433184e-12,7.400208065e-13,2.285736812e-12,1.908688758e-12,7.226541580e-13,1.663621731e-12,4.256959856e-12,4.518826095e-12,2.017489585e-12,4.978846342e-12,1.476293126e-11,2.529978014e-12,5.523050300e-12,2.468512370e-12,1.418616731e-12
0.3125,1.781196330e-12,2.190423537e-12,3.464799504e-12,1.373572102e-12,1.589567199e-12,9.657094646e-13,4.480975512e-12,9.136804656e-13,1.078405675e-12,2.744760787e-12,4.472381976e-12,1.834088348e-12,2.016298864e-12,1.649180208e-12,4.101820922e-12,2.837971625e-12,2.459508546e-12,1.394436764e-12,7.335911389e-13,2.310750034e-12,1.936499691e-12,7.296663497e-13,1.701949636e-12,4.291915253e-12,4.543365176e-12,2.028176444e-12,5.059947861e-12,1.483062192e-11,2.566164879e-12,5.553358899e-12,2.494269315e-12,1.423498866e-12
0.32031,1.796707081e-12,2.258812438e-12,3.541260143e-12,1.395983869e-12,1.615977088e-12,9.630545793e-13,4.548741662e-12,9.108746229e-13,1.068333428e-12,2.770206510e-12,4.522409799e-12,1.838563726e-12,2.038173877e-12,1.656289141e-12,4.171674832e-12,2.894074375e-12,2.480729407e-12,1.409767763e-12,7.268071635e-13,2.335885907e-12,1.964752526e-12,7.362909095e-13,1.740450443e-12,4.327402372e-12,4.566990540e-12,2.037613545e-12,5.141413911e-12,1.489835070e-11,2.603529323e-12,5.584163062e-12,2.519575810e-12,1.427811255e-12
0.32812,1.812153617e-12,2.328288911e-12,3.618715009e-12,1.418122244e-12,1.642839799e-12,9.606121591e-13,4.615918757e-12,9.082105287e-13,1.058282469e-12,2.795550880e-12,4.571808227e-12,1.843124132e-12,2.060379999e-12,1.663288246e-12,4.240536923e-12,2.949570696e-12,2.502267531e-12,1.425065165e-12,7.198658326e-13,2.361218482e-12,1.993181887e-12,7.427265356e-13,1.779036351e-12,4.363699731e-12,4.589707803e-12,2.046207140e-12,5.223764533e-12,1.496692335e-11,2.642327269e-12,5.616549077e-12,2.544683799e-12,1.431939453e-12
0.33594,1.827546952e-12,2.399645566e-12,3.696914836e-12,1.440670991e-12,1.669001560e-12,9.582022053e-13,4.683369276e-12,9.052349105e-13,1.048307861e-12,2.820798276e-12,4.620228577e-12,1.847695014e-12,2.082659863e-12,1.670414173e-12,4.308597391e-12,3.004694136e-12,2.525007032e-12,1.440777689e-12,7.130531446e-13,2.387008009e-12,2.021698121e-12,7.490306071e-13,1.817481114e-12,4.400048930e-12,4.611878771e-12,2.053572483e-12,5.307018146e-12,1.503796569e-11,2.682476111e-12,5.650035819e-12,2.569785678e-12,1.435822187e-12
0.34375,1.842541129e-12,2.473001381e-12,3.775474423e-12,1.464220196e-12,1.695166609e-12,9.555264207e-13,4.751569904e-12,9.020630576e-13,1.038327982e-12,2.846245473e-12,4.668086211e-12,1.852321563e-12,2.104966960e-12,1.677476612e-12,4.375180816e-12,3.059042065e-12,2.548282633e-12,1.456699802e-12,7.061936724e-13,2.413151801e-12,2.050236803e-12,7.549356148e-13,1.855663371e-12,4.436175620e-12,4.633177482e-12,2.059358961e-12,5.390971132e-12,1.511042611e-11,2.723800183e-12,5.683467909e-12,2.594950160e-12,1.439130838e-12
0.35156,1.857701186e-12,2.548080041e-12,3.855757819e-12,1.488165041e-12,1.721618599e-12,9.526688351e-13,4.820200185e-12,8.990571011e-13,1.028397579e-12,2.871929353e-12,4.715646678e-12,1.857180804e-12,2.127497588e-12,1.684613003e-12,4.440654823e-12,3.113250431e-12,2.572163362e-12,1.473056078e-12,6.992135475e-13,2.439529330e-12,2.078655958e-12,7.606135793e-13,1.893976838e-12,4.472247712e-12,4.653822077e-12,2.064226707e-12,5.476350856e-12,1.518329339e-11,2.766593941e-12,5.717591688e-12,2.620170401e-12,1.441988880e-12
0.35938,1.873213519e-12,2.624830593e-12,3.937883084e-12,1.512102928e-12,1.748149846e-12,9.497156912e-13,4.888572348e-12,8.960992633e-13,1.018680213e-12,2.897374711e-12,4.762099256e-12,1.862339133e-12,2.150155282e-12,1.692095108e-12,4.505476104e-12,3.167924454e-12,2.597373317e-12,1.490142135e-12,6.924232854e-13,2.466244932e-12,2.107310273e-12,7.664501216e-13,1.932752403e-12,4.508222129e-12,4.674223443e-12,2.068503594e-12,5.563698507e-12,1.525743879e-11,2.811132493e-12,5.753403750e-12,2.645309805e-12,1.444651405e-12
0.36719,1.888620639e-12,2.703448109e-12,4.020990634e-12,1.536188996e-12,1.775265836e-12,9.465703633e-13,4.956447900e-12,8.931559782e-13,1.009229644e-12,2.922654669e-12,4.807273021e-12,1.867860014e-12,2.172838897e-12,1.699937616e-12,4.569160428e-12,3.222354550e-12,2.623368398e-12,1.507649973e-12,6.858854171e-13,2.493131591e-12,2.136153875e-12,7.722505258e-13,1.971618203e-12,4.544630823e-12,4.694096348e-12,2.071701607e-12,5.652895103e-12,1.533441280e-11,2.857503956e-12,5.790953787e-12,2.670364747e-12,1.447031049e-12
0.375,1.904298621e-12,2.784020864e-12,4.105631945e-12,1.560449416e-12,1.802708137e-12,9.431855017e-13,5.024600049e-12,8.904099671e-13,9.999028003e-13,2.948484265e-12,4.852571155e-12,1.873884586e-12,2.195577201e-12,1.708176031e-12,4.631780970e-12,3.275988238e-12,2.649582119e-12,1.525449758e-12,6.794244328e-13,2.520294013e-12,2.164528816e-12,7.777090445e-13,2.010269063e-12,4.581902611e-12,4.713650777e-12,2.073621102e-12,5.744207177e-12,1.541489943e-11,2.905995531e-12,5.830639326e-12,2.695715027e-12,1.448907739e-12
0.38281,1.921125570e-12,2.866035238e-12,4.191931305e-12,1.585443371e-12,1.829993384e-12,9.397414225e-13,5.093566459e-12,8.877962772e-13,9.905746781e-13,2.974923556e-12,4.898512103e-12,1.880315920e-12,2.218095775e-12,1.716762904e-12,4.693516256e-12,3.328891791e-12,2.676596178e-12,1.543682333e-12,6.731333934e-13,2.548529347e-12,2.193018968e-12,7.828682436e-13,2.048853205e-12,4.619349086e-12,4.732953408e-12,2.074120540e-12,5.837345311e-12,1.549798598e-11,2.956659946e-12,5.872694885e-12,2.721722788e-12,1.450082719e-12
0.39062,1.938985245e-12,2.949068251e-12,4.279241998e-12,1.611535927e-12,1.857967960e-12,9.364980255e-13,5.162868417e-12,8.853690964e-13,9.813735054e-13,3.001560493e-12,4.944072510e-12,1.886912695e-12,2.240340985e-12,1.725439012e-12,4.753563072e-12,3.380955893e-12,2.704416228e-12,1.562101782e-12,6.670882787e-13,2.577761852e-12,2.222505859e-12,7.876900483e-13,2.087208597e-12,4.656804537e-12,4.751188023e-12,2.072850516e-12,5.931410892e-12,1.558314723e-11,3.009145580e-12,5.916597426e-12,2.748270263e-12,1.450583282e-12
0.39844,1.956834316e-12,3.033969222e-12,4.368040007e-12,1.637769286e-12,1.886625966e-12,9.332822933e-13,5.232539280e-12,8.832785760e-13,9.724809429e-13,3.028526666e-12,4.988929735e-12,1.893720391e-12,2.262951647e-12,1.734193612e-12,4.811806476e-12,3.432344068e-12,2.732319411e-12,1.580484569e-12,6.610190188e-13,2.606616480e-12,2.251568027e-12,7.920381781e-13,2.124940439e-12,4.694989416e-12,4.768941247e-12,2.070051359e-12,6.027356076e-12,1.567170713e-11,3.063548326e-12,5.962255098e-12,2.775061985e-12,1.450754793e-12
0.40625,1.974215904e-12,3.121490761e-12,4.458906738e-12,1.663575771e-12,1.915029175e-12,9.297798796e-13,5.303287700e-12,8.813446843e-13,9.638752445e-13,3.056050801e-12,5.033394539e-12,1.900920833e-12,2.286302415e-12,1.743163832e-12,4.868749878e-12,3.483157958e-12,2.760366240e-12,1.598947045e-12,6.548000537e-13,2.634537287e-12,2.278585254e-12,7.959481564e-13,2.162064385e-12,4.733407845e-12,4.787515533e-12,2.066144685e-12,6.126850735e-12,1.576455833e-11,3.120358814e-12,6.010048288e-12,2.802061669e-12,1.450689455e-12
0.41406,1.991699920e-12,3.210716771e-12,4.550933394e-12,1.689406399e-12,1.944050761e-12,9.262972816e-13,5.374799934e-12,8.796314239e-13,9.555163814e-13,3.083970639e-12,5.077164512e-12,1.908516619e-12,2.310013102e-12,1.752211120e-12,4.923840588e-12,3.532844474e-12,2.788949238e-12,1.617518303e-12,6.487008922e-13,2.662443851e-12,2.304748533e-12,7.995152991e-13,2.198768942e-12,4.771054880e-12,4.805766666e-12,2.060988123e-12,6.229142296e-12,1.586148001e-11,3.179587023e-12,6.060266850e-12,2.829299269e-12,1.450140218e-12
0.42188,2.009612444e-12,3.300996611e-12,4.643440774e-12,1.715447888e-12,1.974303514e-12,9.231182069e-13,5.446136303e-12,8.784524311e-13,9.474979848e-13,3.112241792e-12,5.120266705e-12,1.916550844e-12,2.333678792e-12,1.761401202e-12,4.976917598e-12,3.581535282e-12,2.818147983e-12,1.636236782e-12,6.428932076e-13,2.691167470e-12,2.331774728e-12,8.028149355e-13,2.235085976e-12,4.808779039e-12,4.822136738e-12,2.054510015e-12,6.333047162e-12,1.596277978e-11,3.241005620e-12,6.113216931e-12,2.856755064e-12,1.449109271e-12
0.42969,2.027800198e-12,3.393094617e-12,4.738211963e-12,1.742155170e-12,2.004259803e-12,9.199249805e-13,5.517315093e-12,8.775742202e-13,9.398577059e-13,3.141086732e-12,5.163566092e-12,1.925281092e-12,2.357139168e-12,1.771256662e-12,5.028981543e-12,3.630049117e-12,2.848227063e-12,1.655297469e-12,6.372583264e-13,2.720776480e-12,2.359374903e-12,8.058643203e-13,2.271075070e-12,4.847809065e-12,4.837711674e-12,2.046923682e-12,6.439465748e-12,1.606854452e-11,3.304774260e-12,6.168838499e-12,2.884597782e-12,1.447683781e-12
0.4375,2.046590800e-12,3.487079706e-12,4.836886284e-12,1.769951608e-12,2.033862071e-12,9.166595645e-13,5.589082363e-12,8.767898627e-13,9.325350826e-13,3.170710886e-12,5.207566612e-12,1.934854700e-12,2.380284896e-12,1.781986328e-12,5.080251379e-12,3.678301935e-12,2.879310518e-12,1.674703595e-12,6.317226318e-13,2.750964625e-12,2.386783841e-12,8.086110551e-13,2.306868167e-12,4.887305983e-12,4.853882658e-12,2.038221764e-12,6.549176835e-12,1.617840509e-11,3.371176267e-12,6.227047977e-12,2.912960843e-12,1.445764632e-12
0.44531,2.066539656e-12,3.582110863e-12,4.938761831e-12,1.797900908e-12,2.064787651e-12,9.135917731e-13,5.661890011e-12,8.764849278e-13,9.255642977e-13,3.201166056e-12,5.251881905e-12,1.945083445e-12,2.403181758e-12,1.793293875e-12,5.130352924e-12,3.725916731e-12,2.911146877e-12,1.694319772e-12,6.263493157e-13,2.781441649e-12,2.413862746e-12,8.111085334e-13,2.342490388e-12,4.926303616e-12,4.870298838e-12,2.028459226e-12,6.662069577e-12,1.629316968e-11,3.440325659e-12,6.288485399e-12,2.941742401e-12,1.443527935e-12
0.45312,2.087440672e-12,3.678003357e-12,5.043454069e-12,1.825328641e-12,2.096881789e-12,9.107133667e-13,5.735621870e-12,8.767880951e-13,9.190809366e-13,3.232326683e-12,5.295940228e-12,1.955764442e-12,2.426030167e-12,1.804997606e-12,5.179294573e-12,3.772979286e-12,2.943740096e-12,1.714103855e-12,6.211503909e-13,2.812369591e-12,2.440324836e-12,8.134022060e-13,2.377735360e-12,4.966027711e-12,4.886437528e-12,2.017879639e-12,6.778776763e-12,1.641385297e-11,3.512213489e-12,6.353423762e-12,2.971044568e-12,1.441333865e-12
0.46094,2.108116389e-12,3.774705676e-12,5.149670242e-12,1.852795087e-12,2.129140572e-12,9.081284775e-13,5.810013912e-12,8.774766737e-13,9.131554092e-13,3.264076037e-12,5.339811788e-12,1.966992732e-12,2.448933766e-12,1.817105256e-12,5.226778550e-12,3.819273598e-12,2.977146065e-12,1.734010315e-12,6.160913663e-13,2.844092516e-12,2.466093488e-12,8.153260678e-13,2.412275827e-12,5.007293053e-12,4.902378073e-12,2.006417018e-12,6.899450429e-12,1.654074732e-11,3.586696625e-12,6.421318933e-12,3.001173479e-12,1.439187851e-12
0.46875,2.127881431e-12,3.871997977e-12,5.255418352e-12,1.880429023e-12,2.161750698e-12,9.060840329e-13,5.885063091e-12,8.785844904e-13,9.077568887e-13,3.296235881e-12,5.383726456e-12,1.978828429e-12,2.471867849e-12,1.829517162e-12,5.272631256e-12,3.864734566e-12,3.011115123e-12,1.754003780e-12,6.112555661e-13,2.876365237e-12,2.491696339e-12,8.168309177e-13,2.446083764e-12,5.048229866e-12,4.918547030e-12,1.994005165e-12,7.023215670e-12,1.667446720e-11,3.663584215e-12,6.492069003e-12,3.032109710e-12,1.437015549e-12
0.47656,2.147985304e-12,3.970031398e-12,5.364716139e-12,1.908134609e-12,2.195060820e-12,9.044453560e-13,5.960751073e-12,8.801485909e-13,9.028139265e-13,3.328426917e-12,5.427050842e-12,1.990946652e-12,2.494693403e-12,1.841980671e-12,5.316991780e-12,3.909601925e-12,3.045396383e-12,1.774010502e-12,6.068306682e-13,2.908587917e-12,2.517171234e-12,8.181775376e-13,2.479526521e-12,5.087630461e-12,4.935440710e-12,1.980985838e-12,7.150296553e-12,1.681452248e-11,3.742650825e-12,6.565625425e-12,3.063574374e-12,1.434916309e-12
0.48438,2.169050403e-12,4.068380592e-12,5.481087881e-12,1.936219852e-12,2.229449684e-12,9.029567779e-13,6.036971498e-12,8.821151312e-13,8.982138659e-13,3.360716948e-12,5.469490664e-12,2.003125440e-12,2.517311064e-12,1.854257610e-12,5.359218666e-12,3.953357906e-12,3.079723391e-12,1.793841915e-12,6.028358462e-13,2.940600780e-12,2.541764251e-12,8.194953643e-13,2.512759555e-12,5.127224729e-12,4.952287571e-12,1.967491903e-12,7.281411721e-12,1.695906920e-11,3.823696729e-12,6.641247423e-12,3.095454602e-12,1.432742526e-12
0.49219,2.189226998e-12,4.166651633e-12,5.598888233e-12,1.964401040e-12,2.265160959e-12,9.015563746e-13,6.113916636e-12,8.845605064e-13,8.938704869e-13,3.393659074e-12,5.512318346e-12,2.015716607e-12,2.539836178e-12,1.866636601e-12,5.399277005e-12,3.996057162e-12,3.114297714e-12,1.813692049e-12,5.990440209e-13,2.972784141e-12,2.564996039e-12,8.205755484e-13,2.545467952e-12,5.167903530e-12,4.968004508e-12,1.953347592e-12,7.416401058e-12,1.710843325e-11,3.906989456e-12,6.718910248e-12,3.127903000e-12,1.430199603e-12
0.5,2.208530256e-12,4.266395696e-12,5.716066077e-12,1.992132158e-12,2.301084355e-12,9.003173598e-13,6.191521204e-12,8.874071510e-13,8.898573643e-13,3.427132670e-12,5.556292862e-12,2.029086777e-12,2.562323415e-12,1.879908521e-12,5.438799633e-12,4.039381907e-12,3.150208835e-12,1.834252142e-12,5.954094689e-13,3.005629387e-12,2.587078136e-12,8.212854127e-13,2.577503155e-12,5.207667008e-12,4.983746891e-12,1.938701670e-12,7.555411467e-12,1.726369379e-11,3.993105951e-12,6.799732054e-12,3.161076800e-12,1.427394139e-12
0.50781,2.229495638e-12,4.368919286e-12,5.837803475e-12,2.019544935e-12,2.336294662e-12,8.993450702e-13,6.269014447e-12,8.904885124e-13,8.862831893e-13,3.460533320e-12,5.600386852e-12,2.043034538e-12,2.584561111e-12,1.894197784e-12,5.478307736e-12,4.083840200e-12,3.187852345e-12,1.855733630e-12,5.921975628e-13,3.039252356e-12,2.608337820e-12,8.217817733e-13,2.609100531e-12,5.245288300e-12,5.000519183e-12,1.923679535e-12,7.698677598e-12,1.742294567e-11,4.082021895e-12,6.884073656e-12,3.194849411e-12,1.424567606e-12
0.51562,2.251667774e-12,4.472678371e-12,5.963210192e-12,2.047221485e-12,2.371563580e-12,8.985257111e-13,6.346018762e-12,8.938434633e-13,8.830862699e-13,3.493940405e-12,5.643857836e-12,2.057181019e-12,2.606397804e-12,1.908751559e-12,5.516407461e-12,4.127958412e-12,3.226329597e-12,1.877556917e-12,5.894056769e-13,3.073274155e-12,2.628731237e-12,8.221737012e-13,2.640309311e-12,5.281869362e-12,5.016831228e-12,1.907975740e-12,7.845643884e-12,1.758530688e-11,4.172984001e-12,6.970815715e-12,3.229036207e-12,1.421602782e-12
0.52344,2.273095060e-12,4.576006910e-12,6.090384584e-12,2.075570126e-12,2.407743073e-12,8.977806024e-13,6.423004832e-12,8.975382548e-13,8.801957183e-13,3.527629059e-12,5.687109811e-12,2.071460046e-12,2.627903385e-12,1.923302437e-12,5.552404121e-12,4.171269452e-12,3.265393076e-12,1.899373011e-12,5.867272455e-13,3.107287870e-12,2.648050415e-12,8.223721586e-13,2.671015799e-12,5.318129777e-12,5.032482378e-12,1.891513830e-12,7.996143310e-12,1.775340346e-11,4.265379835e-12,7.059108131e-12,3.263612125e-12,1.418368719e-12
0.53125,2.294727620e-12,4.679488380e-12,6.222779006e-12,2.103974488e-12,2.444960215e-12,8.973853124e-13,6.500405656e-12,9.017029043e-13,8.776930359e-13,3.561455404e-12,5.730629706e-12,2.085992397e-12,2.649183727e-12,1.938223830e-12,5.586659870e-12,4.214304897e-12,3.305374480e-12,1.921354590e-12,5.842084495e-13,3.141244042e-12,2.666465191e-12,8.223568170e-13,2.701364015e-12,5.353953024e-12,5.049229519e-12,1.874565719e-12,8.150702321e-12,1.792733085e-11,4.359478796e-12,7.149546961e-12,3.298514158e-12,1.415045412e-12
0.53906,2.316969724e-12,4.783742654e-12,6.359886784e-12,2.131672694e-12,2.483154710e-12,8.975008660e-13,6.578766502e-12,9.065149444e-13,8.756193190e-13,3.595601013e-12,5.774984608e-12,2.100890842e-12,2.670355068e-12,1.953452647e-12,5.619471957e-12,4.256478999e-12,3.345637182e-12,1.943337376e-12,5.820859640e-13,3.175323462e-12,2.684354667e-12,8.222240359e-13,2.731491311e-12,5.389804042e-12,5.066802048e-12,1.857264819e-12,8.309942255e-12,1.810424334e-11,4.456073783e-12,7.242624562e-12,3.333946301e-12,1.411789822e-12
0.54688,2.338150739e-12,4.888090521e-12,6.500317446e-12,2.159382410e-12,2.522151964e-12,8.981239768e-13,6.659079038e-12,9.118670360e-13,8.739279486e-13,3.630396311e-12,5.820572457e-12,2.116213046e-12,2.691556192e-12,1.968648910e-12,5.651021142e-12,4.297209687e-12,3.385723770e-12,1.964816446e-12,5.802280375e-13,3.209525729e-12,2.701549130e-12,8.220447981e-13,2.761343026e-12,5.425786993e-12,5.084079446e-12,1.839760342e-12,8.474202539e-12,1.828438637e-11,4.555189081e-12,7.337483470e-12,3.370378113e-12,1.408605371e-12
0.55469,2.358480146e-12,4.992245743e-12,6.646982318e-12,2.187526479e-12,2.562210476e-12,8.993259459e-13,6.741277256e-12,9.176413613e-13,8.726617830e-13,3.665394162e-12,5.866579113e-12,2.131827172e-12,2.712840042e-12,1.983812752e-12,5.680854751e-12,4.337089611e-12,3.426162253e-12,1.985863714e-12,5.784963183e-13,3.243514248e-12,2.717459611e-12,8.219029556e-13,2.790978501e-12,5.461027714e-12,5.101430644e-12,1.822184095e-12,8.642851446e-12,1.846888367e-11,4.655971759e-12,7.433408537e-12,3.407519702e-12,1.405541344e-12
0.5625,2.379335021e-12,5.096757199e-12,6.800111221e-12,2.215259252e-12,2.603576668e-12,9.009847877e-13,6.823728289e-12,9.239271407e-13,8.718889686e-13,3.700011293e-12,5.911884954e-12,2.147491207e-12,2.734109450e-12,1.998994199e-12,5.708334360e-12,4.376526582e-12,3.467068255e-12,2.007102119e-12,5.770429360e-13,3.277218602e-12,2.732019174e-12,8.219067311e-13,2.820564274e-12,5.495194569e-12,5.119050840e-12,1.804432041e-12,8.815548641e-12,1.865606031e-11,4.757956244e-12,7.530641397e-12,3.444571605e-12,1.402709175e-12
0.57031,2.400839299e-12,5.201425428e-12,6.958714841e-12,2.242608040e-12,2.645590306e-12,9.030465511e-13,6.905622392e-12,9.306713626e-13,8.715914125e-13,3.734408490e-12,5.956665630e-12,2.163203468e-12,2.755082743e-12,2.014205322e-12,5.734206595e-12,4.415523107e-12,3.508412420e-12,2.028826819e-12,5.759065933e-13,3.311026390e-12,2.745556424e-12,8.221392923e-13,2.850147731e-12,5.528778651e-12,5.136989482e-12,1.786544605e-12,8.992793987e-12,1.884680540e-11,4.861063865e-12,7.629493552e-12,3.481384454e-12,1.400202923e-12
0.57812,2.422792067e-12,5.305398026e-12,7.122140832e-12,2.269804815e-12,2.688074750e-12,9.055596474e-13,6.987941330e-12,9.378368508e-13,8.717464704e-13,3.768864541e-12,6.001523572e-12,2.179172233e-12,2.775478146e-12,2.029570155e-12,5.759239911e-12,4.454347342e-12,3.550778653e-12,2.050898995e-12,5.750333074e-13,3.344865902e-12,2.757986301e-12,8.225403704e-13,2.879452997e-12,5.561894961e-12,5.155363621e-12,1.768564927e-12,9.173587386e-12,1.904494557e-11,4.965113709e-12,7.730503236e-12,3.518066813e-12,1.397910659e-12
0.58594,2.444713013e-12,5.409076868e-12,7.287142096e-12,2.296227309e-12,2.731582901e-12,9.081579418e-13,7.071120403e-12,9.454867568e-13,8.723228502e-13,3.803164037e-12,6.046205309e-12,2.195447814e-12,2.795340850e-12,2.045074563e-12,5.782709734e-12,4.493187190e-12,3.594346589e-12,2.073358321e-12,5.744758024e-13,3.378438597e-12,2.769565970e-12,8.227468115e-13,2.908040788e-12,5.593762038e-12,5.173476652e-12,1.750262673e-12,9.357431952e-12,1.924923242e-11,5.070586434e-12,7.834106820e-12,3.554709428e-12,1.395549296e-12
0.59375,2.466235472e-12,5.513617426e-12,7.455795702e-12,2.322438197e-12,2.775732719e-12,9.108725624e-13,7.154258487e-12,9.534183660e-13,8.732245378e-13,3.837074873e-12,6.090656089e-12,2.211962369e-12,2.814800927e-12,2.060737374e-12,5.804968557e-12,4.532601214e-12,3.639088205e-12,2.096419925e-12,5.741330305e-13,3.412207801e-12,2.781211444e-12,8.225416407e-13,2.936159975e-12,5.623623292e-12,5.192234815e-12,1.731890527e-12,9.547174197e-12,1.945539047e-11,5.178201210e-12,7.939593316e-12,3.591914626e-12,1.393198555e-12
0.60156,2.488353286e-12,5.618798506e-12,7.633139329e-12,2.349157678e-12,2.820203190e-12,9.142752450e-13,7.237253448e-12,9.615762953e-13,8.743649163e-13,3.870908816e-12,6.135952501e-12,2.228790577e-12,2.833683688e-12,2.076887341e-12,5.828105279e-12,4.573497384e-12,3.685426152e-12,2.119961116e-12,5.739444752e-13,3.446166682e-12,2.791901460e-12,8.223559828e-13,2.964478807e-12,5.652835759e-12,5.213575400e-12,1.714068921e-12,9.744086016e-12,1.966405102e-11,5.287569315e-12,8.046456982e-12,3.629979953e-12,1.391181236e-12
0.60938,2.511569501e-12,5.723925153e-12,7.815401954e-12,2.375210679e-12,2.865614754e-12,9.179787391e-13,7.321208913e-12,9.702983500e-13,8.757571907e-13,3.905225256e-12,6.183001969e-12,2.246033928e-12,2.851966294e-12,2.093728325e-12,5.852332200e-12,4.615407871e-12,3.733026536e-12,2.143674205e-12,5.742245315e-13,3.479109539e-12,2.798730329e-12,8.225929292e-13,2.992688157e-12,5.683884383e-12,5.236311664e-12,1.696692225e-12,9.945803155e-12,1.987738348e-11,5.398081204e-12,8.155288602e-12,3.668357494e-12,1.389453255e-12
0.61719,2.534956718e-12,5.829118662e-12,7.998892147e-12,2.399994490e-12,2.911921151e-12,9.214579526e-13,7.406282581e-12,9.796004892e-13,8.775795475e-13,3.939958187e-12,6.231532146e-12,2.263711844e-12,2.870094240e-12,2.111220201e-12,5.875967213e-12,4.657220681e-12,3.781060156e-12,2.167602998e-12,5.750904552e-13,3.510947966e-12,2.801887397e-12,8.230494089e-13,3.020248472e-12,5.715824296e-12,5.258929248e-12,1.679383325e-12,1.015147915e-11,2.009446786e-11,5.509857778e-12,8.266091484e-12,3.706650238e-12,1.388048821e-12
0.625,2.558224145e-12,5.933740701e-12,8.187086879e-12,2.424280368e-12,2.958797554e-12,9.254609651e-13,7.491035202e-12,9.892558718e-13,8.800518333e-13,3.974425589e-12,6.280906009e-12,2.281892688e-12,2.888253109e-12,2.129372578e-12,5.898747279e-12,4.699304389e-12,3.829734459e-12,2.191917548e-12,5.761713230e-13,3.543012952e-12,2.804724206e-12,8.235333084e-13,3.047755235e-12,5.745463029e-12,5.282775349e-12,1.662315981e-12,1.036168037e-11,2.031513531e-11,5.622719200e-12,8.378215317e-12,3.744760465e-12,1.387314927e-12
0.63281,2.581449405e-12,6.037123206e-12,8.380582892e-12,2.448173273e-12,3.006506638e-12,9.303541127e-13,7.574363779e-12,9.993425844e-13,8.830739950e-13,4.008374219e-12,6.330875704e-12,2.300531072e-12,2.906104424e-12,2.148007607e-12,5.921337843e-12,4.742231442e-12,3.879284961e-12,2.216433852e-12,5.772608207e-13,3.575492140e-12,2.807957622e-12,8.241051539e-13,3.075547775e-12,5.773352937e-12,5.308122497e-12,1.645653236e-12,1.057565409e-11,2.054006931e-11,5.736034097e-12,8.491318847e-12,3.782561368e-12,1.387040719e-12
0.64062,2.604054150e-12,6.140857472e-12,8.576957773e-12,2.471849751e-12,3.054710930e-12,9.354914565e-13,7.656749731e-12,1.009878356e-12,8.862696215e-13,4.042066366e-12,6.381442081e-12,2.319339199e-12,2.923427029e-12,2.166827314e-12,5.943586389e-12,4.785702534e-12,3.929207111e-12,2.240915542e-12,5.784602850e-13,3.607712249e-12,2.809866063e-12,8.247418919e-13,3.103051753e-12,5.801840461e-12,5.333923189e-12,1.629338230e-12,1.079309757e-11,2.076792093e-11,5.849556775e-12,8.604893635e-12,3.820168310e-12,1.386741237e-12
0.64844,2.626326957e-12,6.245742360e-12,8.776380928e-12,2.495777652e-12,3.103074578e-12,9.408067936e-13,7.738883420e-12,1.020724532e-12,8.894743269e-13,4.075529563e-12,6.432700044e-12,2.338203773e-12,2.940022644e-12,2.185946934e-12,5.965574562e-12,4.830095831e-12,3.979717895e-12,2.265479594e-12,5.797888695e-13,3.639903446e-12,2.810793557e-12,8.255622764e-13,3.130608545e-12,5.829886193e-12,5.360938648e-12,1.613535814e-12,1.101421362e-11,2.099810535e-11,5.963194485e-12,8.718711298e-12,3.857573357e-12,1.386584431e-12
0.65625,2.649426806e-12,6.349554461e-12,8.980378546e-12,2.519319118e-12,3.152163937e-12,9.465923790e-13,7.820383187e-12,1.031984937e-12,8.927322165e-13,4.108706854e-12,6.484726937e-12,2.357186601e-12,2.955349413e-12,2.205507487e-12,5.987734642e-12,4.875897858e-12,4.031524714e-12,2.290325668e-12,5.812683289e-13,3.672281449e-12,2.811747450e-12,8.268083059e-13,3.159060671e-12,5.856221967e-12,5.389631554e-12,1.598381418e-12,1.123875695e-11,2.123087071e-11,6.076628794e-12,8.833018726e-12,3.894519636e-12,1.386788478e-12
0.66406,2.673283201e-12,6.451833488e-12,9.190245651e-12,2.541929036e-12,3.201871291e-12,9.527233076e-13,7.900826823e-12,1.043667461e-12,8.959835228e-13,4.141567102e-12,6.537272297e-12,2.375983107e-12,2.969283485e-12,2.225182553e-12,6.009719666e-12,4.922470743e-12,4.084454740e-12,2.315443663e-12,5.830109341e-13,3.704307201e-12,2.811703795e-12,8.283449705e-13,3.187753395e-12,5.882010109e-12,5.419075150e-12,1.583685743e-12,1.146699726e-11,2.146429678e-11,6.189460522e-12,8.947115050e-12,3.931065290e-12,1.387223078e-12
0.67188,2.696905199e-12,6.554884768e-12,9.403727275e-12,2.563899957e-12,3.251571670e-12,9.591383552e-13,7.980488328e-12,1.055457859e-12,8.992799070e-13,4.173756081e-12,6.589943031e-12,2.394312400e-12,2.982492326e-12,2.244836218e-12,6.031318971e-12,4.969646413e-12,4.138161064e-12,2.340825000e-12,5.850778434e-13,3.735766885e-12,2.809717019e-12,8.298877764e-13,3.215532536e-12,5.906974809e-12,5.449045701e-12,1.569253363e-12,1.169849304e-11,2.169738643e-11,6.301610319e-12,9.060369561e-12,3.967228229e-12,1.388069922e-12
0.67969,2.720360836e-12,6.658346622e-12,9.618074237e-12,2.585133903e-12,3.301567292e-12,9.658689488e-13,8.059470556e-12,1.067318471e-12,9.029056349e-13,4.205154238e-12,6.642898858e-12,2.412564274e-12,2.995418048e-12,2.264844010e-12,6.052994613e-12,5.017932382e-12,4.192923947e-12,2.366720278e-12,5.875858904e-13,3.766946635e-12,2.806094330e-12,8.314499622e-13,3.242517125e-12,5.929601616e-12,5.479449660e-12,1.555239401e-12,1.193225378e-11,2.193114229e-11,6.413685254e-12,9.173825291e-12,4.002783343e-12,1.389547312e-12
0.6875,2.744488070e-12,6.760011548e-12,9.837279658e-12,2.605781001e-12,3.352195483e-12,9.729644696e-13,8.137517847e-12,1.079552807e-12,9.069310627e-13,4.235973186e-12,6.696442406e-12,2.431068850e-12,3.007911579e-12,2.285406723e-12,6.074507181e-12,5.066932585e-12,4.248987046e-12,2.393404479e-12,5.906675267e-13,3.797884649e-12,2.801002728e-12,8.331422329e-13,3.269380411e-12,5.950663442e-12,5.509991661e-12,1.542053244e-12,1.216885627e-11,2.216469258e-11,6.525960160e-12,9.288015679e-12,4.037766244e-12,1.391418398e-12
0.69531,2.769230843e-12,6.860520068e-12,1.006377938e-11,2.626552815e-12,3.403285223e-12,9.805257210e-13,8.214389346e-12,1.092147712e-12,9.111771867e-13,4.265887983e-12,6.750003378e-12,2.449534480e-12,3.019947128e-12,2.306388565e-12,6.095132006e-12,5.116275496e-12,4.306134372e-12,2.420709514e-12,5.941956124e-13,3.828066162e-12,2.794607618e-12,8.349797693e-13,3.296298229e-12,5.971416923e-12,5.541168460e-12,1.529762957e-12,1.240833997e-11,2.239769325e-11,6.637495771e-12,9.401884219e-12,4.072104461e-12,1.393548979e-12
0.70312,2.793870799e-12,6.961120473e-12,1.029268252e-11,2.647221541e-12,3.454689836e-12,9.883633305e-13,8.289740898e-12,1.104843715e-12,9.156078710e-13,4.294616123e-12,6.803191884e-12,2.467845492e-12,3.031656931e-12,2.327713807e-12,6.115148402e-12,5.166581014e-12,4.363894207e-12,2.448200739e-12,5.979059849e-13,3.856868661e-12,2.787321748e-12,8.369483275e-13,3.323177900e-12,5.991522418e-12,5.573449890e-12,1.517942581e-12,1.264943927e-11,2.263289780e-11,6.747664183e-12,9.515131696e-12,4.105488094e-12,1.396098266e-12
0.71094,2.818294680e-12,7.061011775e-12,1.052238239e-11,2.667186995e-12,3.505831506e-12,9.964527745e-13,8.363302674e-12,1.117722247e-12,9.202070338e-13,4.322564288e-12,6.856981017e-12,2.486209199e-12,3.042905542e-12,2.349321817e-12,6.135351355e-12,5.218201510e-12,4.421919551e-12,2.475731852e-12,6.016681313e-13,3.884512040e-12,2.779007611e-12,8.390645047e-13,3.350047538e-12,6.010792634e-12,5.607012870e-12,1.506370762e-12,1.289198698e-11,2.287070020e-11,6.856708169e-12,9.628107360e-12,4.137866411e-12,1.399088668e-12
0.71875,2.842928599e-12,7.159989270e-12,1.075544464e-11,2.686650531e-12,3.556178109e-12,1.005002118e-12,8.434865063e-12,1.130884099e-12,9.247867783e-13,4.349774146e-12,6.911774723e-12,2.504433055e-12,3.053441903e-12,2.371035979e-12,6.155649638e-12,5.270846495e-12,4.480245959e-12,2.503256873e-12,6.054615912e-13,3.911632041e-12,2.769382164e-12,8.414979372e-13,3.377079335e-12,6.029396185e-12,5.641845665e-12,1.495215587e-12,1.313526809e-11,2.310742758e-11,6.964055847e-12,9.739778581e-12,4.168934482e-12,1.402377306e-12
0.72656,2.868119682e-12,7.258725706e-12,1.099215922e-11,2.705728926e-12,3.606290665e-12,1.013532648e-12,8.504075714e-12,1.143960673e-12,9.292768127e-13,4.375898804e-12,6.966236577e-12,2.522172442e-12,3.063150205e-12,2.392689210e-12,6.175213781e-12,5.324058300e-12,4.538864415e-12,2.530534493e-12,6.093450450e-13,3.937978992e-12,2.758651356e-12,8.444741742e-13,3.404385842e-12,6.046807479e-12,5.676904756e-12,1.484579240e-12,1.337775819e-11,2.334032958e-11,7.068702059e-12,9.848721440e-12,4.198125151e-12,1.405817728e-12
0.73438,2.893991146e-12,7.357004953e-12,1.123265339e-11,2.724261750e-12,3.656854354e-12,1.021642124e-12,8.571047002e-12,1.156742183e-12,9.337734150e-13,4.400970904e-12,7.019586481e-12,2.539495218e-12,3.072079219e-12,2.414256206e-12,6.193679350e-12,5.377249507e-12,4.597493948e-12,2.557624792e-12,6.134845649e-13,3.963140707e-12,2.747046916e-12,8.479818382e-13,3.431873686e-12,6.062598606e-12,5.711432012e-12,1.474587291e-12,1.362030094e-11,2.356892944e-11,7.170798453e-12,9.954891600e-12,4.225649249e-12,1.409403111e-12
0.74219,2.920467055e-12,7.455116319e-12,1.147659069e-11,2.742430400e-12,3.707765534e-12,1.029921932e-12,8.636458434e-12,1.169523442e-12,9.382716977e-13,4.424938582e-12,7.072768419e-12,2.556655838e-12,3.080391604e-12,2.436083849e-12,6.211750862e-12,5.430621364e-12,4.656360925e-12,2.585023290e-12,6.180633129e-13,3.987425397e-12,2.734678548e-12,8.519063809e-13,3.459509599e-12,6.076941573e-12,5.746373094e-12,1.465562249e-12,1.386410964e-11,2.379367612e-11,7.271089542e-12,1.005921640e-11,4.252174543e-12,1.413364413e-12
0.75,2.947525110e-12,7.553913132e-12,1.172197441e-11,2.760217262e-12,3.758694667e-12,1.038660319e-12,8.700895220e-12,1.182359871e-12,9.427106191e-13,4.447871205e-12,7.127132920e-12,2.573828886e-12,3.088128442e-12,2.458804730e-12,6.230559070e-12,5.485550031e-12,4.716476813e-12,2.613087312e-12,6.231560669e-13,4.010915386e-12,2.721687985e-12,8.563101982e-13,3.487492500e-12,6.090090825e-12,5.782692195e-12,1.457668504e-12,1.410851126e-11,2.401601441e-11,7.370165254e-12,1.016278834e-11,4.278002499e-12,1.417918967e-12
0.75781,2.975300160e-12,7.652816955e-12,1.196852024e-11,2.777381944e-12,3.809218422e-12,1.047475456e-12,8.764358794e-12,1.194958355e-12,9.471023427e-13,4.470128153e-12,7.183280938e-12,2.590948399e-12,3.095169018e-12,2.482558726e-12,6.250600149e-12,5.542846823e-12,4.778563346e-12,2.641927841e-12,6.286651309e-13,4.033527802e-12,2.708011605e-12,8.612378262e-13,3.515871156e-12,6.102205001e-12,5.820077935e-12,1.450744654e-12,1.435295496e-11,2.423666067e-11,7.468151631e-12,1.026592707e-11,4.303159839e-12,1.423082973e-12
0.76562,3.003715604e-12,7.750823986e-12,1.221676481e-11,2.794106902e-12,3.858757682e-12,1.056428029e-12,8.825430282e-12,1.207257943e-12,9.514804218e-13,4.490979356e-12,7.240334899e-12,2.607580380e-12,3.101500455e-12,2.506728368e-12,6.271614534e-12,5.601998686e-12,4.842299440e-12,2.671528551e-12,6.344175020e-13,4.055615498e-12,2.693459704e-12,8.665540961e-13,3.544376833e-12,6.113292923e-12,5.857607209e-12,1.444549634e-12,1.459649722e-11,2.445343091e-11,7.563913001e-12,1.036724252e-11,4.327252819e-12,1.428861978e-12
0.77344,3.032228145e-12,7.847815410e-12,1.246583953e-11,2.810572074e-12,3.907184731e-12,1.065790665e-12,8.882188990e-12,1.219366610e-12,9.558766677e-13,4.509322499e-12,7.296860909e-12,2.623407340e-12,3.107198674e-12,2.530811947e-12,6.293230783e-12,5.662658583e-12,4.906999822e-12,2.701641527e-12,6.403614433e-13,4.077081993e-12,2.677990989e-12,8.721883934e-13,3.572833200e-12,6.123329119e-12,5.894855194e-12,1.438990346e-12,1.483760558e-11,2.466391084e-11,7.656095088e-12,1.046516751e-11,4.349605113e-12,1.435320024e-12
0.78125,3.060431908e-12,7.943872522e-12,1.271405090e-11,2.826621684e-12,3.954891188e-12,1.075440737e-12,8.934970223e-12,1.231344572e-12,9.602412541e-13,4.525706060e-12,7.353053269e-12,2.638645111e-12,3.112173960e-12,2.554953779e-12,6.315043619e-12,5.724909329e-12,4.972259742e-12,2.732013858e-12,6.465346378e-13,4.097664996e-12,2.661673399e-12,8.781843454e-13,3.601286016e-12,6.132428593e-12,5.932493086e-12,1.434080507e-12,1.507635414e-11,2.486917838e-11,7.744786007e-12,1.055999400e-11,4.369934466e-12,1.442355245e-12
0.78906,3.089243051e-12,8.039436168e-12,1.296083770e-11,2.842013662e-12,4.002074123e-12,1.085072002e-12,8.985415531e-12,1.243258488e-12,9.643834469e-13,4.541082377e-12,7.409960567e-12,2.653619267e-12,3.116191181e-12,2.579477364e-12,6.336426954e-12,5.787887522e-12,5.037577688e-12,2.762603989e-12,6.529238325e-13,4.117888856e-12,2.644625098e-12,8.845491094e-13,3.629758320e-12,6.140650026e-12,5.970978191e-12,1.429746716e-12,1.531301432e-11,2.507090320e-11,7.830536314e-12,1.065268759e-11,4.388155995e-12,1.449622790e-12
0.79688,3.119941641e-12,8.134942812e-12,1.320889892e-11,2.856229271e-12,4.048531823e-12,1.094433806e-12,9.033452661e-12,1.255014408e-12,9.681798614e-13,4.555183162e-12,7.467257040e-12,2.668302354e-12,3.119255093e-12,2.604467926e-12,6.357221517e-12,5.850570203e-12,5.102570451e-12,2.793467625e-12,6.595898330e-13,4.137686615e-12,2.626809228e-12,8.913449423e-13,3.658269431e-12,6.147865710e-12,6.009672363e-12,1.425915910e-12,1.554711646e-11,2.526748788e-11,7.913348959e-12,1.074326838e-11,4.404206752e-12,1.456888579e-12
0.80469,3.151674399e-12,8.229712917e-12,1.345909074e-11,2.868950146e-12,4.094066132e-12,1.103667346e-12,9.078181403e-12,1.266350493e-12,9.716964494e-13,4.567458020e-12,7.523947570e-12,2.682404101e-12,3.121820771e-12,2.629791102e-12,6.378089275e-12,5.913859048e-12,5.167762345e-12,2.824779520e-12,6.667308834e-13,4.155811058e-12,2.607957518e-12,8.986497863e-13,3.686821692e-12,6.153780475e-12,6.048235323e-12,1.422648196e-12,1.577869995e-11,2.545764143e-11,7.993130407e-12,1.083130682e-11,4.418349146e-12,1.464278985e-12
0.8125,3.182999365e-12,8.323135015e-12,1.370740830e-11,2.880857900e-12,4.138488181e-12,1.113120851e-12,9.119300031e-12,1.277182017e-12,9.750035885e-13,4.577740233e-12,7.579806977e-12,2.695733377e-12,3.124129605e-12,2.655272717e-12,6.399456225e-12,5.979349188e-12,5.233837399e-12,2.856704587e-12,6.743692929e-13,4.171727201e-12,2.588133788e-12,9.063806840e-13,3.715273279e-12,6.158342047e-12,6.086482979e-12,1.419933586e-12,1.600651331e-11,2.564213618e-11,8.069395737e-12,1.091618789e-11,4.430671902e-12,1.471908748e-12
0.82031,3.214852288e-12,8.415703434e-12,1.395336645e-11,2.892697502e-12,4.181429592e-12,1.122635171e-12,9.156286474e-12,1.287612413e-12,9.781113595e-13,4.586090991e-12,7.635073557e-12,2.708395558e-12,3.125763148e-12,2.680968986e-12,6.421163032e-12,6.047039268e-12,5.300858655e-12,2.889223089e-12,6.823006130e-13,4.186203342e-12,2.567830935e-12,9.144987224e-13,3.743588116e-12,6.162035911e-12,6.123630401e-12,1.417743442e-12,1.622871607e-11,2.581933746e-11,8.141457996e-12,1.099724846e-11,4.440916564e-12,1.479696755e-12
0.82812,3.248268283e-12,8.507922647e-12,1.419941363e-11,2.904344930e-12,4.222678677e-12,1.131922741e-12,9.188705336e-12,1.297584533e-12,9.811304494e-13,4.592673010e-12,7.689857323e-12,2.720590368e-12,3.126628659e-12,2.707140321e-12,6.443352055e-12,6.116425409e-12,5.369033540e-12,2.922360473e-12,6.905065977e-13,4.200268180e-12,2.547383591e-12,9.230697043e-13,3.771862695e-12,6.164590740e-12,6.159800775e-12,1.416277719e-12,1.644612272e-11,2.598696844e-11,8.209490060e-12,1.107458737e-11,4.449185551e-12,1.487829653e-12
0.83594,3.282338870e-12,8.599771431e-12,1.444342049e-11,2.915520089e-12,4.262428713e-12,1.141113746e-12,9.216816007e-12,1.306880058e-12,9.842018660e-13,4.597497615e-12,7.744286447e-12,2.732501974e-12,3.127312058e-12,2.733931561e-12,6.466291364e-12,6.187509830e-12,5.438354862e-12,2.956038622e-12,6.991008163e-13,4.214345163e-12,2.526979411e-12,9.320111014e-13,3.799977381e-12,6.164728133e-12,6.195518393e-12,1.415730046e-12,1.665959260e-11,2.614587482e-11,8.273961528e-12,1.114858291e-11,4.455827756e-12,1.496755865e-12
0.84375,3.316664276e-12,8.691000444e-12,1.468368192e-11,2.926079782e-12,4.300889780e-12,1.150179012e-12,9.241107861e-12,1.315477471e-12,9.871767474e-13,4.600857825e-12,7.799122579e-12,2.744397394e-12,3.127937455e-12,2.761447882e-12,6.489923192e-12,6.259803119e-12,5.507884501e-12,2.989892634e-12,7.079689196e-13,4.227774859e-12,2.506526737e-12,9.412925958e-13,3.827810574e-12,6.162735169e-12,6.230148424e-12,1.416071888e-12,1.686795658e-11,2.629582676e-11,8.334844906e-12,1.121919350e-11,4.461031242e-12,1.506501504e-12
0.85156,3.351725512e-12,8.781683459e-12,1.492124879e-11,2.935919862e-12,4.337806255e-12,1.158882193e-12,9.261954094e-12,1.323447716e-12,9.897131273e-13,4.603111040e-12,7.855004256e-12,2.756282389e-12,3.128207345e-12,2.789880728e-12,6.514440022e-12,6.333073960e-12,5.577201620e-12,3.023799383e-12,7.170876421e-13,4.239830691e-12,2.485313303e-12,9.510326675e-13,3.855406329e-12,6.160439273e-12,6.263696946e-12,1.417119754e-12,1.707013168e-11,2.643579205e-11,8.391970288e-12,1.128633834e-11,4.464893792e-12,1.516549227e-12
0.85938,3.387704233e-12,8.873088348e-12,1.515640794e-11,2.945438792e-12,4.372797938e-12,1.167453585e-12,9.278634521e-12,1.330599241e-12,9.918404724e-13,4.603489708e-12,7.910431384e-12,2.767536692e-12,3.128469226e-12,2.818914805e-12,6.539759146e-12,6.407768730e-12,5.646439242e-12,3.057561755e-12,7.266389922e-13,4.250718589e-12,2.463232116e-12,9.612597861e-13,3.882517682e-12,6.158472068e-12,6.296040454e-12,1.418498354e-12,1.726433158e-11,2.656739386e-11,8.444984343e-12,1.134935281e-11,4.467267491e-12,1.526737611e-12
0.86719,3.424164456e-12,8.964414628e-12,1.538791178e-11,2.955088587e-12,4.405364689e-12,1.176148560e-12,9.290115608e-12,1.336886941e-12,9.936638597e-13,4.601222338e-12,7.963174023e-12,2.777506506e-12,3.128093267e-12,2.847612813e-12,6.564232872e-12,6.482977832e-12,5.714376321e-12,3.090451809e-12,7.362937163e-13,4.260089900e-12,2.441090286e-12,9.715435796e-13,3.908550281e-12,6.157095588e-12,6.324278538e-12,1.419658771e-12,1.744748158e-11,2.668873984e-11,8.492327065e-12,1.140628134e-11,4.466967068e-12,1.536830469e-12
0.875,3.461235128e-12,9.054685012e-12,1.561553674e-11,2.964251438e-12,4.435756267e-12,1.184692066e-12,9.296011692e-12,1.342468782e-12,9.950621787e-13,4.596585252e-12,8.012869791e-12,2.786191078e-12,3.126577397e-12,2.875747116e-12,6.587500199e-12,6.558241957e-12,5.781549494e-12,3.122873608e-12,7.458697446e-13,4.267454521e-12,2.419045644e-12,9.818495556e-13,3.933582196e-12,6.156700695e-12,6.347783431e-12,1.420954326e-12,1.762237366e-11,2.679529672e-11,8.534816155e-12,1.145801021e-11,4.464467924e-12,1.546742113e-12
0.88281,3.498879679e-12,9.144498505e-12,1.583687497e-11,2.972329824e-12,4.463648239e-12,1.192813895e-12,9.297111730e-12,1.347215956e-12,9.959853494e-13,4.590117991e-12,8.061379638e-12,2.794400676e-12,3.124540450e-12,2.904490982e-12,6.611950470e-12,6.635781631e-12,5.850171822e-12,3.156837592e-12,7.562610710e-13,4.273525255e-12,2.396612493e-12,9.921890684e-13,3.958461384e-12,6.154892666e-12,6.372586162e-12,1.422944920e-12,1.779270593e-11,2.689165768e-11,8.574475284e-12,1.150780095e-11,4.460533539e-12,1.556262501e-12
0.89062,3.537537925e-12,9.234905818e-12,1.605291332e-11,2.979704627e-12,4.489228674e-12,1.200581937e-12,9.294007731e-12,1.351056201e-12,9.966858973e-13,4.582235579e-12,8.110499438e-12,2.802865143e-12,3.122768239e-12,2.934654057e-12,6.638772917e-12,6.716535136e-12,5.920607748e-12,3.193105239e-12,7.681577081e-13,4.279155423e-12,2.374386441e-12,1.002822344e-12,3.984077237e-12,6.148227010e-12,6.402068059e-12,1.425766604e-12,1.795747418e-11,2.698535565e-11,8.612117644e-12,1.155702730e-11,4.455185472e-12,1.565590058e-12
0.89844,3.577366519e-12,9.325541783e-12,1.626484995e-11,2.986712014e-12,4.513645147e-12,1.208031477e-12,9.287489526e-12,1.354232193e-12,9.972323306e-13,4.573138282e-12,8.160228117e-12,2.811231204e-12,3.121010713e-12,2.965453458e-12,6.666284029e-12,6.798526136e-12,5.991764504e-12,3.230475931e-12,7.809103079e-13,4.284256206e-12,2.352997326e-12,1.014175948e-12,4.010180332e-12,6.137305781e-12,6.431099517e-12,1.429364028e-12,1.811421865e-11,2.707217456e-11,8.647043080e-12,1.160421985e-11,4.448150367e-12,1.575184752e-12
0.90625,3.617960581e-12,9.415939142e-12,1.647013702e-11,2.993195011e-12,4.536587236e-12,1.214987589e-12,9.277299877e-12,1.356558727e-12,9.974472381e-13,4.561983607e-12,8.209118183e-12,2.818772239e-12,3.118954159e-12,2.996070309e-12,6.693558915e-12,6.880815768e-12,6.063579151e-12,3.268290579e-12,7.938590044e-13,4.288964971e-12,2.331752721e-12,1.026029328e-12,4.035364108e-12,6.125047374e-12,6.455120070e-12,1.433480482e-12,1.826184701e-11,2.714420623e-11,8.678432815e-12,1.164805546e-11,4.439380079e-12,1.584967844e-12
0.91406,3.659631531e-12,9.505448677e-12,1.666900602e-11,2.999234290e-12,4.556817237e-12,1.221482318e-12,9.261804377e-12,1.357790173e-12,9.972913591e-13,4.548362770e-12,8.256537562e-12,2.825647517e-12,3.116565186e-12,3.026890205e-12,6.721308102e-12,6.963758091e-12,6.135999998e-12,3.306706731e-12,8.071120613e-13,4.293568390e-12,2.310202508e-12,1.037889461e-12,4.058978149e-12,6.112074692e-12,6.475588069e-12,1.437771249e-12,1.840015788e-11,2.720373490e-11,8.706268846e-12,1.168890421e-11,4.429172683e-12,1.594736067e-12
0.92188,3.702478887e-12,9.592475367e-12,1.686307286e-11,3.004923851e-12,4.574724489e-12,1.227677633e-12,9.241160227e-12,1.358328539e-12,9.968120957e-13,4.533274076e-12,8.302638218e-12,2.832212659e-12,3.113612754e-12,3.058290860e-12,6.748956311e-12,7.046540569e-12,6.208296805e-12,3.345355346e-12,8.207280675e-13,4.297573127e-12,2.288713000e-12,1.049734329e-12,4.081399565e-12,6.097772699e-12,6.494556551e-12,1.442172602e-12,1.853006245e-11,2.725601880e-11,8.731169532e-12,1.172769685e-11,4.417948377e-12,1.604665369e-12
0.92969,3.745570870e-12,9.676908336e-12,1.704992766e-11,3.009758546e-12,4.590524861e-12,1.233443836e-12,9.216456998e-12,1.358263524e-12,9.960286136e-13,4.516773884e-12,8.346018441e-12,2.838170144e-12,3.110175094e-12,3.089875685e-12,6.774901246e-12,7.128299072e-12,6.280128203e-12,3.383848412e-12,8.346746666e-13,4.300424475e-12,2.267414433e-12,1.061553986e-12,4.102439005e-12,6.082592474e-12,6.511704674e-12,1.446625467e-12,1.865158185e-11,2.729989959e-11,8.753344567e-12,1.176454794e-11,4.405626807e-12,1.614702445e-12
0.9375,3.788546954e-12,9.759959881e-12,1.722701273e-11,3.013248838e-12,4.603121497e-12,1.238770060e-12,9.186652975e-12,1.357161786e-12,9.949385459e-13,4.498082681e-12,8.385503807e-12,2.843379728e-12,3.106577455e-12,3.121512491e-12,6.799258150e-12,7.209464469e-12,6.350960538e-12,3.422334147e-12,8.490987641e-13,4.301748183e-12,2.246418115e-12,1.073182168e-12,4.121775916e-12,6.066713981e-12,6.526185374e-12,1.450914713e-12,1.876273572e-11,2.733351668e-11,8.772241550e-12,1.179884510e-11,4.391702173e-12,1.624641130e-12
0.94531,3.832010677e-12,9.841604024e-12,1.739420004e-11,3.015746846e-12,4.612517508e-12,1.243758960e-12,9.150692567e-12,1.355048795e-12,9.933987273e-13,4.477566464e-12,8.422404303e-12,2.848124923e-12,3.102782280e-12,3.153578070e-12,6.823322306e-12,7.290795645e-12,6.420131882e-12,3.460929216e-12,8.639582865e-13,4.301060702e-12,2.225677856e-12,1.084587612e-12,4.139805057e-12,6.049056679e-12,6.537985849e-12,1.454909675e-12,1.886278708e-11,2.735821895e-11,8.787653798e-12,1.183038462e-11,4.375856453e-12,1.634448241e-12
0.95312,3.876314569e-12,9.922303087e-12,1.755272514e-11,3.017649152e-12,4.619272012e-12,1.247891218e-12,9.109133355e-12,1.352031009e-12,9.912340947e-13,4.455458503e-12,8.457604612e-12,2.852419565e-12,3.098641952e-12,3.186048790e-12,6.847376118e-12,7.372495680e-12,6.488046751e-12,3.499510899e-12,8.790177997e-13,4.298460150e-12,2.204459739e-12,1.095654322e-12,4.156642004e-12,6.028887608e-12,6.548121021e-12,1.458555048e-12,1.895296877e-11,2.737388689e-11,8.800203828e-12,1.185964962e-11,4.358001112e-12,1.643721107e-12
0.96094,3.921122166e-12,1.000314342e-11,1.770432159e-11,3.017901338e-12,4.623241928e-12,1.250693241e-12,9.062733645e-12,1.347822478e-12,9.884857305e-13,4.431388935e-12,8.491039092e-12,2.856164734e-12,3.094085892e-12,3.218616964e-12,6.871105377e-12,7.453847772e-12,6.554830665e-12,3.537800069e-12,8.940871833e-13,4.293991198e-12,2.182514731e-12,1.106352848e-12,4.172158632e-12,6.006604446e-12,6.556944876e-12,1.462152069e-12,1.903359296e-11,2.737905812e-11,8.810162353e-12,1.188673072e-11,4.338177412e-12,1.652102733e-12
0.96875,3.966196598e-12,1.008240665e-11,1.784950380e-11,3.015227700e-12,4.624855548e-12,1.252624857e-12,9.012663244e-12,1.342354735e-12,9.853746879e-13,4.405916893e-12,8.524219681e-12,2.859512404e-12,3.089222119e-12,3.251430858e-12,6.894629286e-12,7.534066347e-12,6.619757662e-12,3.575724999e-12,9.091661148e-13,4.287070362e-12,2.160528093e-12,1.116948523e-12,4.186648964e-12,5.982237488e-12,6.563170696e-12,1.466374949e-12,1.910379096e-11,2.737425910e-11,8.817122612e-12,1.191119911e-11,4.316823243e-12,1.660030075e-12
0.97656,4.012092249e-12,1.015877439e-11,1.798821711e-11,3.011169287e-12,4.624208240e-12,1.254304919e-12,8.959538720e-12,1.335829105e-12,9.820435074e-13,4.379491461e-12,8.557941507e-12,2.862562309e-12,3.084399217e-12,3.284821582e-12,6.918202421e-12,7.613985415e-12,6.683710831e-12,3.613892508e-12,9.245616851e-13,4.278811135e-12,2.138969391e-12,1.127490643e-12,4.199979688e-12,5.955145650e-12,6.565924506e-12,1.471418656e-12,1.916346091e-11,2.735937759e-11,8.821308540e-12,1.193330808e-11,4.294879096e-12,1.667887361e-12
0.98438,4.059263148e-12,1.023524977e-11,1.811948270e-11,3.008594610e-12,4.620425687e-12,1.255957993e-12,8.901892999e-12,1.328458963e-12,9.783987085e-13,4.351556436e-12,8.590560611e-12,2.865178707e-12,3.079508429e-12,3.318687220e-12,6.942215795e-12,7.695032002e-12,6.748527005e-12,3.652828321e-12,9.404742325e-13,4.271742377e-12,2.118018697e-12,1.137907065e-12,4.211626906e-12,5.926077213e-12,6.565357894e-12,1.476901564e-12,1.921319502e-11,2.733234511e-11,8.823405778e-12,1.195360427e-11,4.273045774e-12,1.675574183e-12
0.99219,4.107495884e-12,1.031299956e-11,1.824096214e-11,3.007132707e-12,4.613712777e-12,1.257547565e-12,8.838454655e-12,1.320473283e-12,9.744488067e-13,4.321821643e-12,8.620979058e-12,2.867193051e-12,3.074209917e-12,3.352645007e-12,6.966734950e-12,7.776815995e-12,6.813833344e-12,3.692162288e-12,9.568267727e-13,4.265628131e-12,2.097703889e-12,1.148380357e-12,4.221619188e-12,5.896932375e-12,6.561518750e-12,1.482390975e-12,1.925264578e-11,2.729323253e-11,8.823242758e-12,1.197193954e-11,4.250788023e-12,1.683195221e-12
1,4.156731911e-12,1.038828280e-11,1.835313723e-11,3.004348889e-12,4.604643467e-12,1.258598435e-12,8.769285500e-12,1.311850034e-12,9.705035353e-13,4.290305209e-12,8.648885404e-12,2.868609570e-12,3.068843314e-12,3.386391026e-12,6.990631119e-12,7.857769380e-12,6.877961737e-12,3.731343787e-12,9.737313768e-13,4.258050139e-12,2.077468846e-12,1.158864114e-12,4.229992055e-12,5.867493421e-12,6.554549006e-12,1.487372826e-12,1.928088394e-11,2.724369431e-11,8.820480653e-12,1.198839081e-11,4.226953095e-12,1.690790757e-12
1.0078,4.206915475e-12,1.045975346e-11,1.845791644e-11,2.999892095e-12,4.592905519e-12,1.258662792e-12,8.694479821e-12,1.302345404e-12,9.665241469e-13,4.257004705e-12,8.673292451e-12,2.869445039e-12,3.063673869e-12,3.419642323e-12,7.012904913e-12,7.936993801e-12,6.940245132e-12,3.770211562e-12,9.912785381e-13,4.248514621e-12,2.057047684e-12,1.169037987e-12,4.236506142e-12,5.835343966e-12,6.544278392e-12,1.491636256e-12,1.929786169e-11,2.718339982e-11,8.815314996e-12,1.200314806e-11,4.201257836e-12,1.697888131e-12
1.0156,4.257658135e-12,1.052947712e-11,1.855420246e-11,2.994264050e-12,4.578619881e-12,1.257825354e-12,8.614670987e-12,1.291775158e-12,9.620653111e-13,4.222139085e-12,8.693752754e-12,2.869542371e-12,3.058521590e-12,3.452239185e-12,7.033765238e-12,8.014275989e-12,7.000587113e-12,3.808785863e-12,1.009282349e-12,4.237595897e-12,2.036925476e-12,1.178805660e-12,4.241151207e-12,5.799682679e-12,6.530192241e-12,1.495539560e-12,1.930386266e-11,2.711252260e-11,8.807698768e-12,1.201571125e-11,4.174091883e-12,1.704084219e-12
1.0234,4.308682524e-12,1.059676949e-11,1.864058404e-11,2.986964416e-12,4.561826141e-12,1.256147433e-12,8.530561942e-12,1.280090567e-12,9.571945597e-13,4.185779325e-12,8.710703867e-12,2.869143938e-12,3.053789327e-12,3.484608986e-12,7.053182010e-12,8.089625015e-12,7.059180837e-12,3.847421865e-12,1.027795605e-12,4.224846552e-12,2.016913710e-12,1.188086860e-12,4.243712589e-12,5.762280463e-12,6.512989930e-12,1.499225929e-12,1.929953108e-11,2.703340080e-11,8.798150011e-12,1.202710948e-11,4.145766479e-12,1.709363583e-12
1.0312,4.359880485e-12,1.065998370e-11,1.871620074e-11,2.978184859e-12,4.542044225e-12,1.253521053e-12,8.442131563e-12,1.267627770e-12,9.523547038e-13,4.148479794e-12,8.724936276e-12,2.869127766e-12,3.049922999e-12,3.517512561e-12,7.070796200e-12,8.163207283e-12,7.116719203e-12,3.886678953e-12,1.046979789e-12,4.210357824e-12,1.996321193e-12,1.196775717e-12,4.243971529e-12,5.724440384e-12,6.493699933e-12,1.502643940e-12,1.928635472e-11,2.694751628e-11,8.788312675e-12,1.204014984e-11,4.116748566e-12,1.713846442e-12
1.0391,4.411624857e-12,1.072035877e-11,1.878074989e-11,2.968272254e-12,4.519696139e-12,1.250045790e-12,8.350376647e-12,1.254884179e-12,9.475635410e-13,4.111473844e-12,8.737542209e-12,2.869956653e-12,3.046468815e-12,3.551178395e-12,7.087302511e-12,8.235553157e-12,7.173707856e-12,3.926788293e-12,1.066700398e-12,4.194965522e-12,1.975571302e-12,1.205029097e-12,4.242369798e-12,5.685809321e-12,6.472246776e-12,1.506099513e-12,1.926424640e-11,2.685653808e-11,8.778912121e-12,1.205570768e-11,4.087460359e-12,1.717650819e-12
1.0469,4.464218297e-12,1.077929963e-11,1.883696618e-11,2.957009151e-12,4.495224718e-12,1.245803731e-12,8.256137836e-12,1.241771947e-12,9.425575643e-13,4.074708375e-12,8.748790999e-12,2.871172415e-12,3.042894143e-12,3.585391868e-12,7.103702890e-12,8.307541400e-12,7.230399724e-12,3.967703098e-12,1.086934103e-12,4.178765276e-12,1.955091605e-12,1.212887955e-12,4.239127851e-12,5.646152192e-12,6.448812808e-12,1.509714062e-12,1.923237378e-11,2.676241831e-11,8.769431475e-12,1.207268613e-11,4.057962806e-12,1.720761821e-12
1.0547,4.516668858e-12,1.083496927e-11,1.888517383e-11,2.944265786e-12,4.467883677e-12,1.240825857e-12,8.157993261e-12,1.227944141e-12,9.371459832e-13,4.037097118e-12,8.758246545e-12,2.872124247e-12,3.038686087e-12,3.619941730e-12,7.121073448e-12,8.380298118e-12,7.286968989e-12,4.008992746e-12,1.107422851e-12,4.161911047e-12,1.934976733e-12,1.220041647e-12,4.234191710e-12,5.605010003e-12,6.424090442e-12,1.513212670e-12,1.919279825e-11,2.666133095e-11,8.759832449e-12,1.209031802e-11,4.028575348e-12,1.723205129e-12
1.0625,4.569702926e-12,1.088770285e-11,1.892382891e-11,2.930966021e-12,4.438125073e-12,1.235058741e-12,8.055307015e-12,1.213279015e-12,9.311027121e-13,3.998597809e-12,8.766355870e-12,2.872616945e-12,3.033563633e-12,3.654848175e-12,7.139331485e-12,8.452758800e-12,7.342198209e-12,4.049805766e-12,1.127897654e-12,4.144072839e-12,1.915294843e-12,1.226735085e-12,4.228345740e-12,5.561223023e-12,6.397940669e-12,1.516716008e-12,1.914644110e-11,2.654818430e-11,8.748962441e-12,1.210669429e-11,3.999202436e-12,1.725080805e-12
1.0703,4.625489847e-12,1.093835090e-11,1.895425669e-11,2.916853837e-12,4.406242373e-12,1.228231404e-12,7.949578427e-12,1.197806931e-12,9.245680415e-13,3.959922039e-12,8.773599707e-12,2.873268772e-12,3.028102870e-12,3.690581457e-12,7.158033858e-12,8.523705174e-12,7.394966659e-12,4.089568566e-12,1.148606819e-12,4.124781765e-12,1.896301359e-12,1.233198277e-12,4.221326560e-12,5.514415283e-12,6.369173890e-12,1.520037060e-12,1.908919534e-11,2.642740513e-11,8.736014456e-12,1.212155932e-11,3.969333724e-12,1.726373239e-12
1.0781,4.682893445e-12,1.098631231e-11,1.897637342e-11,2.901386362e-12,4.371766606e-12,1.220177545e-12,7.841038147e-12,1.181717129e-12,9.179790483e-13,3.921419433e-12,8.779800704e-12,2.874781846e-12,3.023064689e-12,3.727157874e-12,7.175993087e-12,8.590736582e-12,7.442719201e-12,4.127757407e-12,1.169691838e-12,4.104356305e-12,1.877312828e-12,1.238855456e-12,4.210902541e-12,5.465806394e-12,6.335508591e-12,1.522418901e-12,1.901820981e-11,2.630417954e-11,8.721866950e-12,1.213690155e-11,3.938366592e-12,1.726783784e-12
1.0859,4.738877935e-12,1.103054951e-11,1.898823052e-11,2.884690345e-12,4.335364336e-12,1.211046785e-12,7.728806932e-12,1.165180160e-12,9.113790787e-13,3.882885394e-12,8.784224863e-12,2.876511155e-12,3.018269123e-12,3.763118627e-12,7.191518026e-12,8.651053533e-12,7.483328088e-12,4.163529718e-12,1.190567368e-12,4.082884598e-12,1.857410692e-12,1.243214970e-12,4.196271333e-12,5.416641361e-12,6.296030964e-12,1.523688502e-12,1.893549450e-11,2.617335252e-11,8.706640048e-12,1.215168543e-11,3.905921966e-12,1.726162843e-12
1.0938,4.793083856e-12,1.106986955e-11,1.899139848e-11,2.866940753e-12,4.297523600e-12,1.201120927e-12,7.613246780e-12,1.148040838e-12,9.044575166e-13,3.843469786e-12,8.785346760e-12,2.877230015e-12,3.013370619e-12,3.797350352e-12,7.204345799e-12,8.706785448e-12,7.519706869e-12,4.197375178e-12,1.211136860e-12,4.059497221e-12,1.836826929e-12,1.246588644e-12,4.178993668e-12,5.366518040e-12,6.253655716e-12,1.524215201e-12,1.884295468e-11,2.603085320e-11,8.689430240e-12,1.216362573e-11,3.872183365e-12,1.724640334e-12
1.1016,4.846153198e-12,1.110369495e-11,1.898569589e-11,2.848331820e-12,4.257332845e-12,1.190545909e-12,7.495122542e-12,1.130038662e-12,8.971995855e-13,3.802722152e-12,8.782247951e-12,2.876971703e-12,3.008559442e-12,3.830499410e-12,7.215414817e-12,8.761911022e-12,7.555869088e-12,4.230975239e-12,1.231996084e-12,4.034150438e-12,1.816411577e-12,1.249338281e-12,4.160113247e-12,5.314669789e-12,6.210806647e-12,1.524104988e-12,1.874125108e-11,2.588206222e-11,8.670942555e-12,1.217471955e-11,3.838016592e-12,1.722272190e-12
1.1094,4.898063473e-12,1.113276366e-11,1.896938722e-11,2.828616762e-12,4.214613104e-12,1.179131142e-12,7.375084022e-12,1.111157056e-12,8.900243590e-13,3.761413292e-12,8.775682223e-12,2.876413150e-12,3.003971829e-12,3.862917015e-12,7.224091430e-12,8.814681732e-12,7.590538255e-12,4.264346144e-12,1.253069925e-12,4.007506192e-12,1.796501983e-12,1.251571619e-12,4.139772137e-12,5.261675127e-12,6.166212629e-12,1.523402510e-12,1.863133400e-11,2.573094941e-11,8.651873675e-12,1.218665065e-11,3.803819533e-12,1.719143555e-12
1.1172,4.949149146e-12,1.115750378e-11,1.894526220e-11,2.807319833e-12,4.169811702e-12,1.166735362e-12,7.253730061e-12,1.091645312e-12,8.832332907e-13,3.720085514e-12,8.766154129e-12,2.875652503e-12,2.999444355e-12,3.894080043e-12,7.229380035e-12,8.863010198e-12,7.621843726e-12,4.296518790e-12,1.274000240e-12,3.979300938e-12,1.777014432e-12,1.253566584e-12,4.118311092e-12,5.208056419e-12,6.118978567e-12,1.522353397e-12,1.851321969e-11,2.557516111e-11,8.631474072e-12,1.219762085e-11,3.769078852e-12,1.715573672e-12
1.125,4.999285765e-12,1.117772985e-11,1.891354410e-11,2.784980519e-12,4.122784748e-12,1.153732536e-12,7.130334496e-12,1.071780567e-12,8.766328897e-13,3.678324791e-12,8.753170071e-12,2.874689742e-12,2.994628101e-12,3.924381681e-12,7.233008418e-12,8.910313240e-12,7.652049298e-12,4.328286264e-12,1.295085549e-12,3.949282548e-12,1.757858395e-12,1.255376103e-12,4.095524020e-12,5.153155833e-12,6.069794533e-12,1.521285970e-12,1.838715814e-11,2.541359773e-11,8.610395191e-12,1.220810304e-11,3.733878914e-12,1.711739832e-12
1.1328,5.048253100e-12,1.119295991e-11,1.887205110e-11,2.761789597e-12,4.073631445e-12,1.140443173e-12,7.003713101e-12,1.051572594e-12,8.699793409e-13,3.635950715e-12,8.736875904e-12,2.873623262e-12,2.989033574e-12,3.954189613e-12,7.236329475e-12,8.957318691e-12,7.681797831e-12,4.360465159e-12,1.316342966e-12,3.917829158e-12,1.738591175e-12,1.256525337e-12,4.070719713e-12,5.096833440e-12,6.018258821e-12,1.520346544e-12,1.825453111e-11,2.524799058e-11,8.589779937e-12,1.221991027e-11,3.698905850e-12,1.707495548e-12
1.1406,5.096632117e-12,1.120197462e-11,1.882439938e-11,2.737093056e-12,4.022770418e-12,1.126698860e-12,6.874574491e-12,1.030993243e-12,8.633186680e-13,3.593501808e-12,8.718461814e-12,2.872321064e-12,2.982379200e-12,3.982662745e-12,7.237633550e-12,8.999360909e-12,7.707916961e-12,4.391656930e-12,1.337197194e-12,3.885064406e-12,1.718598517e-12,1.256886083e-12,4.043944715e-12,5.039616981e-12,5.963686299e-12,1.519150095e-12,1.811531910e-11,2.507834647e-11,8.568239134e-12,1.223119470e-11,3.663961374e-12,1.702601978e-12
1.1484,5.144696752e-12,1.120526396e-11,1.877242997e-11,2.711859668e-12,3.970896457e-12,1.112384038e-12,6.744928386e-12,1.010302816e-12,8.566159491e-13,3.551723188e-12,8.699070087e-12,2.870798053e-12,2.974760869e-12,4.009598825e-12,7.236299344e-12,9.035095530e-12,7.729102011e-12,4.420464418e-12,1.357692203e-12,3.851464163e-12,1.698473450e-12,1.256928242e-12,4.015648541e-12,4.981034830e-12,5.906152207e-12,1.517250865e-12,1.796873709e-11,2.490338955e-11,8.544680253e-12,1.224044923e-11,3.628604712e-12,1.696731822e-12
1.1562,5.192688855e-12,1.120479313e-11,1.871336349e-11,2.687016210e-12,3.918771949e-12,1.097522413e-12,6.615713900e-12,9.896573785e-13,8.497419567e-13,3.510837729e-12,8.678526351e-12,2.869197315e-12,2.966499283e-12,4.035685453e-12,7.233665962e-12,9.066509329e-12,7.746414657e-12,4.447124813e-12,1.378274194e-12,3.817518635e-12,1.679272340e-12,1.256731769e-12,3.985784298e-12,4.920913120e-12,5.846058883e-12,1.514697564e-12,1.781530911e-11,2.472383197e-11,8.520338160e-12,1.224923136e-11,3.593026086e-12,1.689662673e-12
1.1641,5.240511437e-12,1.119908876e-11,1.864755672e-11,2.660859788e-12,3.865522604e-12,1.081964322e-12,6.486254329e-12,9.689426879e-13,8.427978945e-13,3.470389684e-12,8.655577211e-12,2.867482050e-12,2.958080655e-12,4.061010596e-12,7.229291835e-12,9.093327764e-12,7.759894815e-12,4.472097707e-12,1.398628493e-12,3.782103711e-12,1.659843100e-12,1.255779940e-12,3.953947933e-12,4.860778704e-12,5.784662238e-12,1.511526125e-12,1.765583705e-11,2.454197442e-11,8.495745746e-12,1.225817112e-11,3.557109713e-12,1.681581369e-12
1.1719,5.286731891e-12,1.118566156e-11,1.857488219e-11,2.632511043e-12,3.809979812e-12,1.065673259e-12,6.355901998e-12,9.481865034e-13,8.359170802e-13,3.430268579e-12,8.629866568e-12,2.865787070e-12,2.949991690e-12,4.085724127e-12,7.222313074e-12,9.115261661e-12,7.769513674e-12,4.495666154e-12,1.418239160e-12,3.744133402e-12,1.638308107e-12,1.253775678e-12,3.919945772e-12,4.801014611e-12,5.722971988e-12,1.507706579e-12,1.749149006e-11,2.435929541e-11,8.470580830e-12,1.226726411e-11,3.520656647e-12,1.672687577e-12
1.1797,5.331229679e-12,1.116668004e-11,1.849410218e-11,2.603218083e-12,3.753159958e-12,1.048866353e-12,6.225033436e-12,9.274076234e-13,8.291131737e-13,3.390807996e-12,8.601936241e-12,2.864321476e-12,2.942460596e-12,4.110394899e-12,7.213798367e-12,9.134240951e-12,7.776632774e-12,4.518564392e-12,1.437395366e-12,3.704561783e-12,1.615611562e-12,1.250962656e-12,3.884194757e-12,4.739584219e-12,5.660402515e-12,1.503650732e-12,1.732397565e-11,2.417552464e-11,8.445640116e-12,1.227755232e-11,3.484346293e-12,1.663049333e-12
1.1875,5.375488193e-12,1.114484375e-11,1.840799384e-11,2.572914664e-12,3.695913757e-12,1.031722627e-12,6.094112326e-12,9.064068535e-13,8.224100395e-13,3.351917967e-12,8.572057400e-12,2.863026050e-12,2.935201836e-12,4.134937763e-12,7.204682358e-12,9.151751038e-12,7.782537271e-12,4.541166261e-12,1.456562771e-12,3.664605397e-12,1.593636496e-12,1.247724597e-12,3.847292453e-12,4.675604541e-12,5.595947841e-12,1.499691024e-12,1.715337456e-11,2.398941519e-11,8.421634595e-12,1.228885537e-11,3.448896417e-12,1.653056902e-12
1.1953,5.418838828e-12,1.111881224e-11,1.831779495e-11,2.541068290e-12,3.637599836e-12,1.014342470e-12,5.963472121e-12,8.852722089e-13,8.157339076e-13,3.313665284e-12,8.541019292e-12,2.861913159e-12,2.927281648e-12,4.158889540e-12,7.194882258e-12,9.167420740e-12,7.786838461e-12,4.562639335e-12,1.475550862e-12,3.624391350e-12,1.572171211e-12,1.244054370e-12,3.809168659e-12,4.610682059e-12,5.529223920e-12,1.495612689e-12,1.697899576e-11,2.380096199e-11,8.398334148e-12,1.230023174e-11,3.414349884e-12,1.642912760e-12
1.2031,5.459401762e-12,1.108666184e-11,1.822207419e-11,2.508888151e-12,3.578505096e-12,9.967550990e-13,5.833807531e-12,8.644007990e-13,8.089217695e-13,3.276427111e-12,8.509395736e-12,2.860959969e-12,2.917885991e-12,4.181899342e-12,7.184035806e-12,9.179640847e-12,7.787988242e-12,4.581926535e-12,1.494023377e-12,3.583804292e-12,1.550550414e-12,1.239554596e-12,3.769458946e-12,4.546279370e-12,5.461282894e-12,1.491047894e-12,1.680173445e-11,2.361211145e-11,8.375200690e-12,1.231144102e-11,3.380351848e-12,1.631959385e-12
1.2109,5.497160825e-12,1.104851882e-11,1.812109935e-11,2.477202560e-12,3.519297193e-12,9.787645180e-13,5.705308569e-12,8.438547172e-13,8.019190398e-13,3.239869967e-12,8.475905530e-12,2.859807813e-12,2.907297137e-12,4.203520966e-12,7.171425531e-12,9.187498757e-12,7.785415140e-12,4.598957044e-12,1.512151662e-12,3.542535883e-12,1.528920586e-12,1.234135344e-12,3.728276230e-12,4.482764957e-12,5.394103516e-12,1.485581120e-12,1.662220261e-11,2.342387909e-11,8.351250675e-12,1.232166230e-11,3.346011412e-12,1.619513062e-12
1.2188,5.533040849e-12,1.100554537e-11,1.801397262e-11,2.445534371e-12,3.459504958e-12,9.600470386e-13,5.577268464e-12,8.233982139e-13,7.947806840e-13,3.203608635e-12,8.439371443e-12,2.858179493e-12,2.896253516e-12,4.223455995e-12,7.156664154e-12,9.191646250e-12,7.779181414e-12,4.613912964e-12,1.530181369e-12,3.499928186e-12,1.507126101e-12,1.228134640e-12,3.685744578e-12,4.419696072e-12,5.327103941e-12,1.478872763e-12,1.643882493e-11,2.323544298e-11,8.325753129e-12,1.233021371e-11,3.310420952e-12,1.605628937e-12
1.2266,5.567389633e-12,1.095871644e-11,1.789998231e-11,2.413616225e-12,3.398747800e-12,9.405631841e-13,5.448543244e-12,8.029724878e-13,7.876780170e-13,3.167666766e-12,8.399612454e-12,2.855835060e-12,2.884847662e-12,4.241294937e-12,7.139668751e-12,9.191770062e-12,7.767839809e-12,4.626182665e-12,1.547927577e-12,3.455764195e-12,1.484900399e-12,1.221616404e-12,3.641503335e-12,4.355242804e-12,5.257484094e-12,1.470966074e-12,1.624938701e-11,2.304553828e-11,8.298551599e-12,1.233674623e-11,3.273557325e-12,1.590638547e-12
1.2344,5.599745022e-12,1.090789056e-11,1.778025653e-11,2.381313083e-12,3.336970810e-12,9.206917637e-13,5.317995977e-12,7.826429711e-13,7.808076431e-13,3.131516878e-12,8.355568024e-12,2.852454536e-12,2.872879890e-12,4.256374146e-12,7.119809950e-12,9.186250403e-12,7.749928504e-12,4.635098427e-12,1.565118436e-12,3.410404744e-12,1.462261548e-12,1.214398003e-12,3.595181269e-12,4.287940999e-12,5.184580620e-12,1.461923272e-12,1.605247545e-11,2.285083148e-11,8.268825544e-12,1.233927673e-11,3.235665705e-12,1.574766726e-12
1.2422,5.629215075e-12,1.085212006e-11,1.765399813e-11,2.348222810e-12,3.274241564e-12,9.006800657e-13,5.186538025e-12,7.624703815e-13,7.741462833e-13,3.095101125e-12,8.306710774e-12,2.848268582e-12,2.860290521e-12,4.268629141e-12,7.096116368e-12,9.173945264e-12,7.725272948e-12,4.640379499e-12,1.581582553e-12,3.363816241e-12,1.439210347e-12,1.206549080e-12,3.546870834e-12,4.219293930e-12,5.109298782e-12,1.451672214e-12,1.584815342e-11,2.264851630e-11,8.235815529e-12,1.233643444e-11,3.196708757e-12,1.558166877e-12
1.25,5.655198563e-12,1.079012024e-11,1.752171534e-11,2.314076551e-12,3.211377533e-12,8.802962011e-13,5.056967084e-12,7.426133358e-13,7.675699731e-13,3.059632281e-12,8.254731418e-12,2.843773708e-12,2.846851791e-12,4.278438243e-12,7.067419972e-12,9.153641604e-12,7.693590079e-12,4.641915430e-12,1.597117042e-12,3.315394270e-12,1.416058925e-12,1.198162203e-12,3.497143337e-12,4.151667940e-12,5.032021929e-12,1.440489194e-12,1.563878975e-11,2.244278795e-11,8.200274818e-12,1.232973499e-11,3.156988217e-12,1.540903838e-12
1.2578,5.677536997e-12,1.072142898e-11,1.738490050e-11,2.279076941e-12,3.148653606e-12,8.594255796e-13,4.929436964e-12,7.231762132e-13,7.610500571e-13,3.025466046e-12,8.200972956e-12,2.838965933e-12,2.832454114e-12,4.286081651e-12,7.034006868e-12,9.126489399e-12,7.657048567e-12,4.641092232e-12,1.611941887e-12,3.265611445e-12,1.393098352e-12,1.189147949e-12,3.446639145e-12,4.084964891e-12,4.954117691e-12,1.428795579e-12,1.542772151e-11,2.223820852e-11,8.163455593e-12,1.232087775e-11,3.117070417e-12,1.522976181e-12
1.2656,5.697185220e-12,1.064862457e-11,1.724176053e-11,2.244180660e-12,3.085417876e-12,8.384351037e-13,4.801510524e-12,7.040833270e-13,7.544763605e-13,2.991652516e-12,8.144900632e-12,2.833614219e-12,2.817322812e-12,4.291987329e-12,6.999001102e-12,9.098232054e-12,7.621368296e-12,4.640488976e-12,1.626578447e-12,3.216342910e-12,1.370154487e-12,1.179502716e-12,3.395503705e-12,4.018289405e-12,4.876925948e-12,1.416626507e-12,1.521595601e-11,2.203069941e-11,8.125848607e-12,1.231033669e-11,3.077173957e-12,1.504305304e-12
1.2734,5.715647770e-12,1.057430733e-11,1.709458609e-11,2.210173936e-12,3.022190866e-12,8.175703669e-13,4.673121280e-12,6.852698042e-13,7.476258734e-13,2.957802963e-12,8.085673640e-12,2.827418838e-12,2.801443337e-12,4.296303975e-12,6.964035140e-12,9.072019543e-12,7.588412869e-12,4.640402092e-12,1.640825241e-12,3.168051704e-12,1.347292213e-12,1.169351600e-12,3.343602229e-12,3.952373598e-12,4.799527593e-12,1.403886466e-12,1.500165117e-11,2.181729608e-11,8.086851610e-12,1.229762706e-11,3.037223849e-12,1.484806451e-12
1.2812,5.732601993e-12,1.049703802e-11,1.694826599e-11,2.176645907e-12,2.959994604e-12,7.966103683e-13,4.546055444e-12,6.666978149e-13,7.404449017e-13,2.924299636e-12,8.023394787e-12,2.820267696e-12,2.784742797e-12,4.298949114e-12,6.926803225e-12,9.043765648e-12,7.553431014e-12,4.638518865e-12,1.654192371e-12,3.119104809e-12,1.324658907e-12,1.158888422e-12,3.291138836e-12,3.887635570e-12,4.721069760e-12,1.390695641e-12,1.478337386e-11,2.160278653e-11,8.045246709e-12,1.228110746e-11,2.997006543e-12,1.464595547e-12
1.2891,5.747303734e-12,1.041568877e-11,1.679970455e-11,2.143183450e-12,2.898323240e-12,7.753722178e-13,4.420661176e-12,6.483468422e-13,7.331201002e-13,2.891687359e-12,7.959033645e-12,2.812861756e-12,2.767475325e-12,4.300299271e-12,6.886140171e-12,9.009021160e-12,7.512215218e-12,4.633204944e-12,1.666924873e-12,3.068803172e-12,1.302009787e-12,1.148292360e-12,3.238425931e-12,3.822676068e-12,4.642292108e-12,1.377209246e-12,1.456164017e-11,2.138777326e-11,8.000754053e-12,1.225992068e-11,2.956388838e-12,1.443890289e-12
1.2969,5.760429177e-12,1.033171415e-11,1.664578820e-11,2.110053321e-12,2.836637388e-12,7.540631934e-13,4.296919254e-12,6.303941777e-13,7.258372532e-13,2.860324339e-12,7.893188718e-12,2.805655082e-12,2.749493928e-12,4.300152763e-12,6.843328412e-12,8.967190814e-12,7.464116992e-12,4.624164800e-12,1.679155168e-12,3.017760251e-12,1.279470472e-12,1.137489833e-12,3.185450066e-12,3.756877709e-12,4.563562300e-12,1.363399136e-12,1.433703306e-11,2.116682591e-11,7.953826785e-12,1.223429386e-11,2.915584550e-12,1.422778827e-12
1.3047,5.771059959e-12,1.024403766e-11,1.648845888e-11,2.077126391e-12,2.775538868e-12,7.328645597e-13,4.175486593e-12,6.130357489e-13,7.186474356e-13,2.829901253e-12,7.825575662e-12,2.797959372e-12,2.730272738e-12,4.297497748e-12,6.798091415e-12,8.918556529e-12,7.409110463e-12,4.611190109e-12,1.690307635e-12,2.965706130e-12,1.257302062e-12,1.126263368e-12,3.132066154e-12,3.691801472e-12,4.484776430e-12,1.349080290e-12,1.410948124e-11,2.094048691e-11,7.904131954e-12,1.220356692e-11,2.874587126e-12,1.401216704e-12
1.3125,5.777170459e-12,1.015049803e-11,1.632544383e-11,2.044186453e-12,2.714912781e-12,7.115598555e-13,4.056440142e-12,5.962303022e-13,7.116163461e-13,2.800158810e-12,7.756066705e-12,2.789480449e-12,2.709852323e-12,4.292329212e-12,6.749205579e-12,8.863416112e-12,7.347603342e-12,4.594337888e-12,1.700066612e-12,2.912003121e-12,1.234966889e-12,1.114460524e-12,3.078054103e-12,3.628708670e-12,4.406385926e-12,1.334116374e-12,1.387902229e-11,2.071372552e-11,7.851317196e-12,1.216761032e-11,2.832773766e-12,1.379128097e-12
1.3203,5.779740346e-12,1.005269005e-11,1.615550157e-11,2.011559215e-12,2.653824191e-12,6.899422123e-13,3.939032008e-12,5.798970465e-13,7.048246546e-13,2.771417691e-12,7.684389339e-12,2.780737363e-12,2.688454206e-12,4.285369970e-12,6.696932538e-12,8.803042840e-12,7.281536393e-12,4.574282514e-12,1.708585491e-12,2.856979953e-12,1.212044773e-12,1.101955025e-12,3.023200927e-12,3.567115560e-12,4.328511189e-12,1.318614846e-12,1.364586008e-11,2.048722323e-11,7.795820045e-12,1.212768970e-11,2.789814206e-12,1.356587117e-12
1.3281,5.780461002e-12,9.952638251e-12,1.598385817e-11,1.979272918e-12,2.592600391e-12,6.681594596e-13,3.822410897e-12,5.640516344e-13,6.981431635e-13,2.743625643e-12,7.609712642e-12,2.771674440e-12,2.665875089e-12,4.276614719e-12,6.642097432e-12,8.739084257e-12,7.213196737e-12,4.552088134e-12,1.716124934e-12,2.801270179e-12,1.189128257e-12,1.088904781e-12,2.967888326e-12,3.506300926e-12,4.250786781e-12,1.302821067e-12,1.341116533e-11,2.026010500e-11,7.737994730e-12,1.208427989e-11,2.746112427e-12,1.333758725e-12
1.3359,5.778693624e-12,9.850584298e-12,1.581123102e-11,1.947321203e-12,2.532218981e-12,6.464179634e-13,3.706696528e-12,5.487781394e-13,6.914479855e-13,2.716598023e-12,7.532512522e-12,2.762305532e-12,2.642522995e-12,4.266153398e-12,6.584489397e-12,8.672094626e-12,7.143437969e-12,4.528871236e-12,1.723376109e-12,2.745339150e-12,1.166678004e-12,1.075747185e-12,2.912708644e-12,3.446210649e-12,4.173606039e-12,1.286800445e-12,1.317670621e-11,2.003410131e-11,7.677486845e-12,1.203659824e-11,2.701920472e-12,1.310566356e-12
1.3438,5.773501783e-12,9.745706686e-12,1.563460207e-11,1.916183529e-12,2.472518732e-12,6.249333703e-13,3.593034348e-12,5.340313762e-13,6.845792693e-13,2.690491929e-12,7.454209797e-12,2.752531952e-12,2.618209063e-12,4.254286831e-12,6.525905480e-12,8.603362175e-12,7.072616073e-12,4.505034806e-12,1.730318476e-12,2.689951551e-12,1.144077830e-12,1.062459236e-12,2.857552268e-12,3.387078702e-12,4.097713694e-12,1.270565895e-12,1.294359589e-11,1.980989475e-11,7.615871627e-12,1.198605146e-11,2.658029700e-12,1.286802541e-12
1.3516,5.765795768e-12,9.638795578e-12,1.545548408e-11,1.886095538e-12,2.413004352e-12,6.039271037e-13,3.482458938e-12,5.196396558e-13,6.775316538e-13,2.665650178e-12,7.375789449e-12,2.742449807e-12,2.592928551e-12,4.241284283e-12,6.466725278e-12,8.531985672e-12,6.998945582e-12,4.479838488e-12,1.736543401e-12,2.635252731e-12,1.120934537e-12,1.048809017e-12,2.802053856e-12,3.328253463e-12,4.023162706e-12,1.253958253e-12,1.271026233e-11,1.958546713e-11,7.552509891e-12,1.193152223e-11,2.614709800e-12,1.262626520e-12
1.3594,5.756035375e-12,9.530424558e-12,1.527635701e-11,1.857008395e-12,2.354452151e-12,5.832699999e-13,3.375152982e-12,5.055772960e-13,6.704667519e-13,2.641900202e-12,7.296828337e-12,2.731931353e-12,2.566681898e-12,4.226812227e-12,6.406515023e-12,8.456895635e-12,6.921729954e-12,4.451586688e-12,1.741825690e-12,2.580827360e-12,1.097985894e-12,1.035086193e-12,2.746699214e-12,3.269450057e-12,3.948867647e-12,1.236987929e-12,1.247645912e-11,1.935924721e-11,7.486518441e-12,1.187170686e-11,2.571783232e-12,1.238319841e-12
1.3672,5.743565488e-12,9.420188535e-12,1.509723043e-11,1.828942037e-12,2.297325826e-12,5.627955905e-13,3.271184452e-12,4.919776417e-13,6.635468761e-13,2.618810000e-12,7.216022808e-12,2.720523312e-12,2.539433487e-12,4.209849849e-12,6.343973853e-12,8.376686927e-12,6.840091769e-12,4.419317819e-12,1.746270101e-12,2.526165966e-12,1.075789714e-12,1.021619089e-12,2.691782336e-12,3.211404620e-12,3.873788242e-12,1.219601727e-12,1.224227326e-11,1.913081444e-11,7.417195720e-12,1.180571302e-11,2.528533205e-12,1.213884748e-12
1.375,5.728113630e-12,9.307460627e-12,1.491827209e-11,1.801685928e-12,2.240996438e-12,5.427143876e-13,3.169760684e-12,4.786935266e-13,6.566145716e-13,2.595756189e-12,7.131908544e-12,2.707624099e-12,2.511185304e-12,4.189570470e-12,6.277666328e-12,8.290944217e-12,6.753635070e-12,4.384206613e-12,1.750208138e-12,2.471154258e-12,1.053858115e-12,1.008183510e-12,2.636849501e-12,3.154431539e-12,3.798114162e-12,1.201604735e-12,1.200690495e-11,1.889857053e-11,7.343881496e-12,1.173235867e-11,2.484576274e-12,1.189106531e-12
1.3828,5.710253740e-12,9.192880265e-12,1.473887567e-11,1.775383820e-12,2.185438352e-12,5.230047340e-13,3.069904685e-12,4.655848055e-13,6.494993960e-13,2.572671227e-12,7.043820308e-12,2.693333144e-12,2.482363578e-12,4.166189366e-12,6.207617897e-12,8.201689127e-12,6.664138609e-12,4.347670756e-12,1.754013139e-12,2.416155717e-12,1.031884107e-12,9.945873747e-13,2.581925322e-12,3.098581354e-12,3.723389385e-12,1.182907346e-12,1.177115383e-11,1.866307116e-11,7.266942557e-12,1.165242778e-11,2.439987871e-12,1.163816976e-12
1.3906,5.690086182e-12,9.077367073e-12,1.455769485e-11,1.750339538e-12,2.131217301e-12,5.032974112e-13,2.972498840e-12,4.529528053e-13,6.423368594e-13,2.550160369e-12,6.951926987e-12,2.677961899e-12,2.453231329e-12,4.139818722e-12,6.134210826e-12,8.109805837e-12,6.572706977e-12,4.309509041e-12,1.757455029e-12,2.361319160e-12,1.010180494e-12,9.809544358e-13,2.527343725e-12,3.044093686e-12,3.650409880e-12,1.163544284e-12,1.153652119e-11,1.842756705e-11,7.187434214e-12,1.156804430e-11,2.394739602e-12,1.138182350e-12
1.3984,5.667839456e-12,8.960987285e-12,1.437574456e-11,1.725954127e-12,2.078270512e-12,4.837418603e-13,2.878699912e-12,4.408888297e-13,6.351893784e-13,2.528395308e-12,6.857468685e-12,2.661652551e-12,2.423627993e-12,4.111006625e-12,6.058183018e-12,8.014825804e-12,6.479450494e-12,4.269992110e-12,1.760227324e-12,2.306766841e-12,9.888387933e-13,9.672657883e-13,2.472852519e-12,2.990366230e-12,3.578014676e-12,1.143744090e-12,1.130304489e-11,1.819257440e-11,7.106183624e-12,1.147997489e-11,2.349239677e-12,1.112541653e-12
1.4062,5.645146067e-12,8.844554571e-12,1.419552985e-11,1.702105185e-12,2.026405821e-12,4.648167696e-13,2.787961738e-12,4.290866527e-13,6.279248125e-13,2.507351311e-12,6.763019595e-12,2.645303170e-12,2.393713027e-12,4.081851196e-12,5.982088849e-12,7.919001179e-12,6.386158439e-12,4.230503705e-12,1.762722573e-12,2.253200295e-12,9.678024092e-13,9.534091038e-13,2.418427538e-12,2.936501369e-12,3.506060779e-12,1.124003876e-12,1.107162561e-11,1.795696797e-11,7.024229144e-12,1.138910612e-11,2.304446542e-12,1.086929061e-12
1.4141,5.622064146e-12,8.728222266e-12,1.401688430e-11,1.679840457e-12,1.975821468e-12,4.464978587e-13,2.699865484e-12,4.174612557e-13,6.204446073e-13,2.487293749e-12,6.670098992e-12,2.629378795e-12,2.363440140e-12,4.053069555e-12,5.907082471e-12,7.824079382e-12,6.293554918e-12,4.190856670e-12,1.764900487e-12,2.200678640e-12,9.469748462e-13,9.394597401e-13,2.364629281e-12,2.882783930e-12,3.436283503e-12,1.104619829e-12,1.084417410e-11,1.772127129e-11,6.941615087e-12,1.129555902e-11,2.260559685e-12,1.061297795e-12
1.4219,5.596280430e-12,8.609967337e-12,1.383694465e-11,1.659262165e-12,1.926718270e-12,4.285583844e-13,2.615118980e-12,4.060310974e-13,6.126098521e-13,2.468241825e-12,6.578473265e-12,2.612919741e-12,2.332030893e-12,4.023321544e-12,5.831794050e-12,7.727936472e-12,6.199441733e-12,4.149818392e-12,1.766036676e-12,2.148312317e-12,9.262579258e-13,9.254678714e-13,2.311597152e-12,2.829961154e-12,3.368941842e-12,1.085406176e-12,1.062093895e-11,1.748491665e-11,6.857033648e-12,1.119717778e-11,2.217105048e-12,1.035836747e-12
1.4297,5.567991916e-12,8.490207907e-12,1.365591446e-11,1.639876895e-12,1.879169477e-12,4.110613194e-13,2.533899169e-12,3.948361917e-13,6.044126893e-13,2.450436324e-12,6.488937755e-12,2.595917811e-12,2.299325160e-12,3.992919952e-12,5.757111581e-12,7.629773247e-12,6.102622451e-12,4.107063390e-12,1.766084698e-12,2.096149953e-12,9.062691957e-13,9.113524703e-13,2.259123281e-12,2.778384593e-12,3.303282843e-12,1.066088327e-12,1.040168818e-11,1.724718407e-11,6.770848447e-12,1.109415526e-11,2.174134404e-12,1.010559174e-12
1.4375,5.539189657e-12,8.371785203e-12,1.347797603e-11,1.622042358e-12,1.833183419e-12,3.940901728e-13,2.455586689e-12,3.841860712e-13,5.961897318e-13,2.434213195e-12,6.401677080e-12,2.579134884e-12,2.265895960e-12,3.962460887e-12,5.684483571e-12,7.530674926e-12,6.003119521e-12,4.061813824e-12,1.765263024e-12,2.044966586e-12,8.875169398e-13,8.972011784e-13,2.207254852e-12,2.728369034e-12,3.239309920e-12,1.046476280e-12,1.018609193e-11,1.700936434e-11,6.684190401e-12,1.098820132e-11,2.131734645e-12,9.853453814e-13
1.4453,5.508431136e-12,8.253734032e-12,1.330388903e-11,1.605521853e-12,1.789073183e-12,3.776138141e-13,2.380004379e-12,3.741081123e-13,5.881046099e-13,2.418524744e-12,6.312926711e-12,2.561285630e-12,2.231544014e-12,3.929438077e-12,5.610535058e-12,7.428423001e-12,5.899801177e-12,4.012948224e-12,1.763237542e-12,1.994728662e-12,8.692552804e-13,8.832722058e-13,2.155886596e-12,2.679802445e-12,3.175801041e-12,1.026369651e-12,9.971742141e-12,1.676988703e-11,6.595129015e-12,1.087630324e-11,2.089326487e-12,9.604148195e-13
1.4531,5.473082545e-12,8.133402228e-12,1.312968660e-11,1.589559219e-12,1.746951244e-12,3.616701077e-13,2.307273653e-12,3.642131400e-13,5.799321752e-13,2.401965566e-12,6.219315827e-12,2.540793061e-12,2.195782425e-12,3.891865961e-12,5.531730166e-12,7.320518606e-12,5.792930634e-12,3.961286467e-12,1.759840976e-12,1.945199041e-12,8.509077206e-13,8.695586345e-13,2.104647584e-12,2.632064918e-12,3.111760673e-12,1.005753081e-12,9.757048137e-12,1.652536785e-11,6.501237953e-12,1.075516241e-11,2.046447732e-12,9.359474622e-13
1.4609,5.433713340e-12,8.011517350e-12,1.295277837e-11,1.574448232e-12,1.705279062e-12,3.463828684e-13,2.236640927e-12,3.544609838e-13,5.716747441e-13,2.384724955e-12,6.122462992e-12,2.518509488e-12,2.159143090e-12,3.851479056e-12,5.450047814e-12,7.209002014e-12,5.685309494e-12,3.908687372e-12,1.755235005e-12,1.896469147e-12,8.327772548e-13,8.557720473e-13,2.053501006e-12,2.584966045e-12,3.049084257e-12,9.848369133e-13,9.543886541e-12,1.627783242e-11,6.403690357e-12,1.062759291e-11,2.003278314e-12,9.117597430e-13
1.4688,5.392318634e-12,7.889296566e-12,1.277255601e-11,1.560370511e-12,1.662601121e-12,3.318594528e-13,2.167087733e-12,3.450846076e-13,5.636732614e-13,2.367803177e-12,6.025512731e-12,2.495949953e-12,2.122576482e-12,3.810514211e-12,5.368608750e-12,7.097068583e-12,5.578771088e-12,3.856356516e-12,1.749881506e-12,1.848647341e-12,8.149251964e-13,8.419069228e-13,2.002856618e-12,2.538525420e-12,2.988894751e-12,9.637960623e-13,9.334011409e-12,1.603221363e-11,6.305204877e-12,1.049793945e-11,1.960379811e-12,8.877688243e-13
1.4766,5.350098305e-12,7.767075815e-12,1.258922819e-11,1.547060502e-12,1.620318533e-12,3.180499191e-13,2.099186684e-12,3.361370132e-13,5.560822039e-13,2.352168297e-12,5.929804845e-12,2.473887564e-12,2.086590215e-12,3.769763569e-12,5.287818792e-12,6.986251092e-12,5.473452069e-12,3.805163622e-12,1.744779424e-12,1.802308231e-12,7.975245299e-13,8.283270607e-13,1.953154618e-12,2.492600092e-12,2.930321661e-12,9.427761396e-13,9.127583122e-12,1.579134776e-11,6.207594079e-12,1.036841626e-11,1.918353096e-12,8.640408820e-13
1.4844,5.307774621e-12,7.646588519e-12,1.240560993e-11,1.535100212e-12,1.580055430e-12,3.048145458e-13,2.034316890e-12,3.276623129e-13,5.487622136e-13,2.338712256e-12,5.836163828e-12,2.452937255e-12,2.051237447e-12,3.729770750e-12,5.207842216e-12,6.877451230e-12,5.369329486e-12,3.755081229e-12,1.740248776e-12,1.757925384e-12,7.810379101e-13,8.151793638e-13,1.904462212e-12,2.447579714e-12,2.873851786e-12,9.219991901e-13,8.925255366e-12,1.555631000e-11,6.112055842e-12,1.024063222e-11,1.877396424e-12,8.405310615e-13
1.4922,5.265258858e-12,7.528919892e-12,1.222330867e-11,1.524905691e-12,1.540926219e-12,2.922294077e-13,1.972543252e-12,3.196476801e-13,5.415077676e-13,2.327170808e-12,5.745204165e-12,2.432922290e-12,2.016029730e-12,3.690617364e-12,5.129673403e-12,6.770330702e-12,5.265859545e-12,3.704967989e-12,1.735455377e-12,1.714904694e-12,7.651335027e-13,8.022197939e-13,1.856517446e-12,2.403920883e-12,2.819774699e-12,9.015962873e-13,8.727273484e-12,1.532466187e-11,6.018448799e-12,1.011407587e-11,1.837434292e-12,8.172706328e-13
1.5,5.221492697e-12,7.413405287e-12,1.203893488e-11,1.516145168e-12,1.502372142e-12,2.804888214e-13,1.913384731e-12,3.119252825e-13,5.341706473e-13,2.316335801e-12,5.656308308e-12,2.412895256e-12,1.980272976e-12,3.651578187e-12,5.053687301e-12,6.663886300e-12,5.162486214e-12,3.654348683e-12,1.729993131e-12,1.672751705e-12,7.493207314e-13,7.892440938e-13,1.809252639e-12,2.361285328e-12,2.766835312e-12,8.815122651e-13,8.532838499e-12,1.509266103e-11,5.925348438e-12,9.986250727e-12,1.798525777e-12,7.943244485e-13
1.5078,5.175612825e-12,7.299926680e-12,1.185089306e-11,1.508833987e-12,1.465321958e-12,2.695659361e-13,1.856846274e-12,3.044935940e-13,5.267665884e-13,2.305786104e-12,5.568107168e-12,2.392545656e-12,1.943853163e-12,3.611912102e-12,4.979163606e-12,6.558178010e-12,5.059476946e-12,3.603561135e-12,1.724119293e-12,1.631790813e-12,7.338381983e-13,7.763070522e-13,1.762837498e-12,2.319558348e-12,2.715173447e-12,8.616485649e-13,8.341649853e-12,1.486158340e-11,5.832044560e-12,9.856500303e-12,1.760397579e-12,7.715926844e-13
1.5156,5.127704977e-12,7.188205987e-12,1.166311148e-11,1.502986071e-12,1.429653253e-12,2.593169561e-13,1.802368161e-12,2.974965161e-13,5.194728618e-13,2.295843222e-12,5.479531915e-12,2.372164948e-12,1.907205721e-12,3.571201270e-12,4.904536476e-12,6.452465819e-12,4.956237320e-12,3.552343405e-12,1.717853829e-12,1.592012699e-12,7.188121772e-13,7.635315318e-13,1.717213027e-12,2.279338613e-12,2.665612082e-12,8.419375704e-13,8.153509212e-12,1.463407205e-11,5.738539185e-12,9.725355158e-12,1.722364729e-12,7.490732734e-13
1.5234,5.078483810e-12,7.077403616e-12,1.147727311e-11,1.498545647e-12,1.394702038e-12,2.496474998e-13,1.749396297e-12,2.909953355e-13,5.124666046e-13,2.286687111e-12,5.390265816e-12,2.351918982e-12,1.870777061e-12,3.529618869e-12,4.828623614e-12,6.344813629e-12,4.851429897e-12,3.500330756e-12,1.711195223e-12,1.552982380e-12,7.040939077e-13,7.509696557e-13,1.672264731e-12,2.240813425e-12,2.618102815e-12,8.223705875e-13,7.968247355e-12,1.440991841e-11,5.644689102e-12,9.592610078e-12,1.684309725e-12,7.269055193e-13
1.5312,5.028779531e-12,6.968144639e-12,1.129136869e-11,1.495709622e-12,1.360794830e-12,2.404966474e-13,1.698679879e-12,2.850094459e-13,5.058275944e-13,2.278411971e-12,5.300337089e-12,2.331808523e-12,1.834829226e-12,3.487684757e-12,4.751706471e-12,6.235503983e-12,4.745877922e-12,3.448113293e-12,1.704169284e-12,1.514703790e-12,6.898051454e-13,7.387268808e-13,1.628218711e-12,2.203625241e-12,2.573133173e-12,8.031305742e-13,7.786498778e-12,1.419019131e-11,5.551099662e-12,9.459219559e-12,1.646737444e-12,7.051772646e-13
1.5391,4.979023313e-12,6.861410194e-12,1.110614706e-11,1.493858039e-12,1.327836413e-12,2.320104964e-13,1.650672174e-12,2.794255535e-13,4.994836787e-13,2.270882800e-12,5.209771829e-12,2.311575980e-12,1.799313072e-12,3.445238323e-12,4.674658407e-12,6.126778775e-12,4.642053418e-12,3.396642945e-12,1.696667494e-12,1.477552976e-12,6.760948143e-13,7.269807660e-13,1.585299529e-12,2.167418517e-12,2.530419647e-12,7.845584020e-13,7.607984409e-12,1.397499474e-11,5.458598234e-12,9.326454750e-12,1.610009963e-12,6.841001314e-13
1.5469,4.928783059e-12,6.756949337e-12,1.092231946e-11,1.492370466e-12,1.295111141e-12,2.244820504e-13,1.604573504e-12,2.739853024e-13,4.932101119e-13,2.263745657e-12,5.119540921e-12,2.291030807e-12,1.763867152e-12,3.402097797e-12,4.598803527e-12,6.019988037e-12,4.540953920e-12,3.346192514e-12,1.688776339e-12,1.441637230e-12,6.629767769e-13,7.157216957e-13,1.543484388e-12,2.131914144e-12,2.488484583e-12,7.668664081e-13,7.431595726e-12,1.376000889e-11,5.366501630e-12,9.192948603e-12,1.574349868e-12,6.638766698e-13
1.5547,4.877428153e-12,6.654562240e-12,1.073725940e-11,1.492024456e-12,1.262813653e-12,2.179343467e-13,1.560179178e-12,2.686213260e-13,4.868536311e-13,2.257071935e-12,5.031434990e-12,2.270503134e-12,1.728173562e-12,3.359151757e-12,4.526099003e-12,5.915642038e-12,4.441844897e-12,3.296116736e-12,1.680334233e-12,1.406419639e-12,6.503961429e-13,7.047687265e-13,1.502863014e-12,2.097257112e-12,2.447804946e-12,7.500267719e-13,7.257957460e-12,1.354367923e-11,5.273824305e-12,9.056892885e-12,1.539936926e-12,6.443301786e-13
1.5625,4.825233582e-12,6.554468842e-12,1.055167402e-11,1.493221079e-12,1.231472931e-12,2.122156221e-13,1.518137642e-12,2.634690425e-13,4.804849612e-13,2.251223368e-12,4.945988866e-12,2.250295703e-12,1.692236460e-12,3.317056191e-12,4.456870009e-12,5.813569533e-12,4.344075226e-12,3.245806695e-12,1.670821077e-12,1.371567346e-12,6.382460053e-13,6.940617099e-13,1.463582155e-12,2.063711166e-12,2.409522260e-12,7.339667687e-13,7.088154171e-12,1.332872854e-11,5.181229043e-12,8.919052449e-12,1.506770991e-12,6.252863833e-13
1.5703,4.772936893e-12,6.457215000e-12,1.036885646e-11,1.495441551e-12,1.201004989e-12,2.073944280e-13,1.478423708e-12,2.585453579e-13,4.741940468e-13,2.246375322e-12,4.862786233e-12,2.230467764e-12,1.656387862e-12,3.275643315e-12,4.390045813e-12,5.712943832e-12,4.248157320e-12,3.195842362e-12,1.660414460e-12,1.338058694e-12,6.265947271e-13,6.835667569e-13,1.425460607e-12,2.030886346e-12,2.372965507e-12,7.187206233e-13,6.922164966e-12,1.311556183e-11,5.090277280e-12,8.781487883e-12,1.475070357e-12,6.069049185e-13
1.5781,4.720885766e-12,6.363778981e-12,1.018742736e-11,1.498789555e-12,1.171378160e-12,2.036012863e-13,1.440730564e-12,2.537796753e-13,4.679187662e-13,2.242701562e-12,4.782415816e-12,2.211296942e-12,1.620995740e-12,3.235250867e-12,4.326317354e-12,5.614247194e-12,4.155247304e-12,3.147168079e-12,1.649723194e-12,1.306993566e-12,6.155521680e-13,6.731245377e-13,1.388288251e-12,1.998605218e-12,2.338305916e-12,7.043664441e-13,6.760804512e-12,1.290379681e-11,5.001959192e-12,8.645706337e-12,1.445330004e-12,5.892548982e-13
1.5859,4.669036447e-12,6.273917543e-12,1.000523870e-11,1.503376939e-12,1.142705202e-12,2.008096115e-13,1.405459365e-12,2.491853477e-13,4.615534975e-13,2.240168569e-12,4.705031063e-12,2.192770548e-12,1.586019585e-12,3.196076669e-12,4.266253824e-12,5.518654793e-12,4.065431856e-12,3.099660075e-12,1.638749753e-12,1.278106289e-12,6.050459821e-13,6.627180057e-13,1.352138790e-12,1.967411475e-12,2.306689201e-12,6.908990671e-13,6.604903866e-12,1.269456076e-11,4.915983545e-12,8.511527229e-12,1.417648772e-12,5.722394239e-13
1.5938,4.617033410e-12,6.186599895e-12,9.823160856e-12,1.509099044e-12,1.114744575e-12,1.990557013e-13,1.372767049e-12,2.447361938e-13,4.550878101e-13,2.238155635e-12,4.628789417e-12,2.174181020e-12,1.551249734e-12,3.157103933e-12,4.207697134e-12,5.425269995e-12,3.977659775e-12,3.052836775e-12,1.627348874e-12,1.250796807e-12,5.950962351e-13,6.525686592e-13,1.316966401e-12,1.937067875e-12,2.277058625e-12,6.781908181e-13,6.453010346e-12,1.248696425e-11,4.831068647e-12,8.377096220e-12,1.391679141e-12,5.559364053e-13
1.6016,4.565120826e-12,6.102451283e-12,9.641574098e-12,1.516490528e-12,1.087389992e-12,1.984574460e-13,1.341857468e-12,2.403541282e-13,4.486569965e-13,2.236162030e-12,4.552408302e-12,2.155114074e-12,1.516959867e-12,3.117752103e-12,4.149531769e-12,5.332670406e-12,3.891683687e-12,3.006854708e-12,1.615736686e-12,1.225066626e-12,5.859188951e-13,6.429104553e-13,1.282616445e-12,1.906608008e-12,2.247933191e-12,6.661061785e-13,6.303739672e-12,1.227977829e-11,4.746737869e-12,8.241945244e-12,1.367162809e-12,5.404617998e-13
1.6094,4.514610847e-12,6.022173535e-12,9.461943795e-12,1.525526335e-12,1.060983854e-12,1.989433943e-13,1.312197060e-12,2.361293284e-13,4.424153703e-13,2.234364775e-12,4.476570880e-12,2.135864010e-12,1.483564833e-12,3.078629331e-12,4.093298980e-12,5.241992669e-12,3.808451970e-12,2.962145029e-12,1.604180607e-12,1.200990358e-12,5.777519349e-13,6.338521897e-13,1.249312882e-12,1.876174003e-12,2.220267923e-12,6.546754506e-13,6.157915757e-12,1.207455331e-11,4.663923395e-12,8.108122423e-12,1.344005633e-12,5.257363425e-13
1.6172,4.465865724e-12,5.944638872e-12,9.285936709e-12,1.535607485e-12,1.035594504e-12,2.003598107e-13,1.284110135e-12,2.321899969e-13,4.363132600e-13,2.232938076e-12,4.401834291e-12,2.116617296e-12,1.450986380e-12,3.040016084e-12,4.039694966e-12,5.155513877e-12,3.728833944e-12,2.919419429e-12,1.592964760e-12,1.178687504e-12,5.706565308e-13,6.252847287e-13,1.217245296e-12,1.846787363e-12,2.195445933e-12,6.440108781e-13,6.016516675e-12,1.187322539e-11,4.583192926e-12,7.976939931e-12,1.322034298e-12,5.116169824e-13
1.625,4.418169216e-12,5.869240668e-12,9.110740101e-12,1.547191015e-12,1.010744777e-12,2.027388742e-13,1.257605327e-12,2.284510186e-13,4.302968354e-13,2.231756895e-12,4.328220699e-12,2.097337472e-12,1.419200454e-12,3.001926944e-12,3.988774239e-12,5.073920703e-12,3.652986681e-12,2.879530562e-12,1.582319736e-12,1.158300892e-12,5.643626600e-13,6.170262906e-13,1.186038504e-12,1.818824758e-12,2.173383306e-12,6.340116327e-13,5.879278925e-12,1.167733051e-11,4.504405371e-12,7.848401997e-12,1.300995082e-12,4.980604979e-13
1.6328,4.372371145e-12,5.796960899e-12,8.935387084e-12,1.560719640e-12,9.861438827e-13,2.061354971e-13,1.232043229e-12,2.248769794e-13,4.246606071e-13,2.231122505e-12,4.256428985e-12,2.078500161e-12,1.388644252e-12,2.965236899e-12,3.941831640e-12,4.996621057e-12,3.580312376e-12,2.842321460e-12,1.572239565e-12,1.139527073e-12,5.586572951e-13,6.091309803e-13,1.155382678e-12,1.791932608e-12,2.153590202e-12,6.244600014e-13,5.745767522e-12,1.148808592e-11,4.428065823e-12,7.723450266e-12,1.280942320e-12,4.851091879e-13
1.6406,4.329440002e-12,5.728538209e-12,8.763210727e-12,1.575540342e-12,9.621227560e-13,2.104402792e-13,1.207250299e-12,2.216712810e-13,4.196658182e-13,2.231814912e-12,4.187244943e-12,2.061014112e-12,1.359290522e-12,2.930880364e-12,3.899306569e-12,4.922729175e-12,3.509866577e-12,2.806581158e-12,1.562453328e-12,1.121928044e-12,5.536502502e-13,6.016151453e-13,1.125464824e-12,1.765764213e-12,2.135736800e-12,6.154293833e-13,5.616125358e-12,1.130432115e-11,4.354685391e-12,7.602463869e-12,1.262393755e-12,4.727200103e-13
1.6484,4.287356808e-12,5.663648619e-12,8.592850837e-12,1.591091669e-12,9.390839443e-13,2.155545947e-13,1.183695769e-12,2.189246240e-13,4.150447744e-13,2.234131977e-12,4.120781540e-12,2.045147869e-12,1.330266901e-12,2.898428175e-12,3.859478889e-12,4.850599920e-12,3.441010103e-12,2.771059151e-12,1.552158771e-12,1.105328882e-12,5.492853643e-13,5.941356616e-13,1.096410149e-12,1.740402368e-12,2.119376536e-12,6.072323386e-13,5.490497566e-12,1.112429522e-11,4.283347666e-12,7.483229977e-12,1.245571120e-12,4.608092249e-13
1.6562,4.243946545e-12,5.601096422e-12,8.421864451e-12,1.607189186e-12,9.168425421e-13,2.214569956e-13,1.161654922e-12,2.165110944e-13,4.104389484e-13,2.237586619e-12,4.056822150e-12,2.030162226e-12,1.300995104e-12,2.866507792e-12,3.820656641e-12,4.778581930e-12,3.373548887e-12,2.734980567e-12,1.540435998e-12,1.089677760e-12,5.453052182e-13,5.864888352e-13,1.068157200e-12,1.716122010e-12,2.104485115e-12,6.000817366e-13,5.368641705e-12,1.094820838e-11,4.212926812e-12,7.363849440e-12,1.229972172e-12,4.495692194e-13
1.6641,4.200094589e-12,5.539735505e-12,8.253576430e-12,1.623889384e-12,8.949664210e-13,2.281196802e-13,1.141077396e-12,2.143776583e-13,4.059020709e-13,2.241663396e-12,3.994863791e-12,2.015328059e-12,1.271832483e-12,2.834443397e-12,3.782962577e-12,4.707236860e-12,3.307992211e-12,2.698646579e-12,1.527357199e-12,1.075002015e-12,5.417363519e-13,5.789101282e-13,1.040849267e-12,1.692772288e-12,2.091460642e-12,5.940352355e-13,5.250637333e-12,1.077562387e-11,4.143811728e-12,7.245303073e-12,1.215296118e-12,4.392477115e-13
1.6719,4.157234495e-12,5.479709101e-12,8.088582586e-12,1.641636574e-12,8.735758815e-13,2.356077226e-13,1.121912685e-12,2.125382627e-13,4.015953724e-13,2.246261368e-12,3.934453245e-12,2.000653629e-12,1.243318200e-12,2.802740015e-12,3.747733176e-12,4.638643172e-12,3.245539649e-12,2.663337535e-12,1.513735513e-12,1.061345804e-12,5.387987446e-13,5.716215513e-13,1.014619373e-12,1.670040684e-12,2.079993520e-12,5.890238161e-13,5.136774404e-12,1.060475557e-11,4.076906186e-12,7.129141515e-12,1.201967413e-12,4.296722719e-13
1.6797,4.115557247e-12,5.421882839e-12,7.923745153e-12,1.660432489e-12,8.529892869e-13,2.440386422e-13,1.104021382e-12,2.109401128e-13,3.975343574e-13,2.251468759e-12,3.876017459e-12,1.986518358e-12,1.215661086e-12,2.772153924e-12,3.715882973e-12,4.573730718e-12,3.186991390e-12,2.629858792e-12,1.500039805e-12,1.048872898e-12,5.366108769e-13,5.647052473e-13,9.893469134e-13,1.648211997e-12,2.069458179e-12,5.849540252e-13,5.026683467e-12,1.043597090e-11,4.012484941e-12,7.015856179e-12,1.190414661e-12,4.206007030e-13
1.6875,4.075543883e-12,5.366777024e-12,7.760610551e-12,1.679949011e-12,8.329128663e-13,2.533784432e-13,1.087078375e-12,2.095802793e-13,3.937599506e-13,2.257473010e-12,3.820404510e-12,1.973279736e-12,1.189028079e-12,2.743226845e-12,3.687541207e-12,4.512520492e-12,3.132310194e-12,2.598175795e-12,1.486406494e-12,1.037945554e-12,5.351919558e-13,5.582716090e-13,9.650572866e-13,1.627907516e-12,2.060461883e-12,5.818640145e-13,4.920119138e-12,1.027211730e-11,3.950896163e-12,6.906311600e-12,1.180589454e-12,4.121237923e-13
