Time,Fp1,AF3,F7,F3,FC1,FC5,T7,C3,CP1,CP5,P7,P3,Pz,PO3,O1,Oz,O2,PO4,P4,P8,CP6,CP2,C4,T8,FC6,FC2,F4,F8,AF4,Fp2,Fz,Cz,
-0.10156,5.432117230e-14,8.767357331e-14,7.000316699e-14,7.618656674e-14,4.091073118e-14,2.421387984e-14,6.988515507e-14,5.927075879e-14,2.210982319e-14,8.297204346e-14,4.587853971e-13,6.272859975e-14,1.414009332e-13,5.366344783e-14,8.812070755e-14,4.409250249e-14,8.506605706e-14,4.426981786e-14,8.855965723e-14,2.604614961e-14,3.788987325e-14,7.736890683e-14,2.207349620e-14,4.857220124e-14,5.127564705e-14,4.568908778e-14,6.372271121e-14,1.527392743e-13,9.742795638e-14,1.161308693e-13,4.144196083e-14,3.393433579e-14
-0.09375,5.685650081e-14,9.811697136e-14,7.834553849e-14,8.007026763e-14,4.522404112e-14,2.773744958e-14,8.217523287e-14,6.387772679e-14,2.329518345e-14,9.280140436e-14,5.105314297e-13,6.545212358e-14,1.568236966e-13,5.710030796e-14,9.731211287e-14,5.283649599e-14,1.079673604e-13,5.361447868e-14,9.955657408e-14,3.535345747e-14,4.401845961e-14,8.664525117e-14,2.621954835e-14,5.440300220e-14,6.109387294e-14,5.920195054e-14,7.711297149e-14,1.657702504e-13,1.105196588e-13,1.279450448e-13,5.083175793e-14,3.800639222e-14
-0.085938,5.824270181e-14,1.072354031e-13,8.496107838e-14,8.174387349e-14,4.899454339e-14,3.139554716e-14,9.412747740e-14,6.757983799e-14,2.379257228e-14,1.010864024e-13,5.558192504e-13,6.689233734e-14,1.700206855e-13,5.928607962e-14,1.063296549e-13,6.266604062e-14,1.320742967e-13,6.408270959e-14,1.095016440e-13,4.643741474e-14,5.109965358e-14,9.439892424e-14,3.013670927e-14,5.997373907e-14,7.071015987e-14,7.520026265e-14,9.171355508e-14,1.761731482e-13,1.236230848e-13,1.386855825e-13,6.128843336e-14,4.200533928e-14
-0.078125,5.872489336e-14,1.142684958e-13,8.939448633e-14,8.122515289e-14,5.191541675e-14,3.524208847e-14,1.054685284e-13,7.030443726e-14,2.385377933e-14,1.074011824e-13,5.928879446e-13,6.723634336e-14,1.806125601e-13,6.053002063e-14,1.158687429e-13,7.365774470e-14,1.556654669e-13,7.563815052e-14,1.178879869e-13,5.888830289e-14,5.952413097e-14,1.003225568e-13,3.374223077e-14,6.547949470e-14,8.029393690e-14,9.373299714e-14,1.075247942e-13,1.842620561e-13,1.368071296e-13,1.487110634e-13,7.263353536e-14,4.606323188e-14
-0.070312,5.883777511e-14,1.190481130e-13,9.105698887e-14,7.882587924e-14,5.383178419e-14,3.932642077e-14,1.155358896e-13,7.215746186e-14,2.375997522e-14,1.112454920e-13,6.183066729e-13,6.687183756e-14,1.882834533e-13,6.122420862e-14,1.260725969e-13,8.543959841e-14,1.782670284e-13,8.801308783e-14,1.243586611e-13,7.263238948e-14,6.952823025e-14,1.040251364e-13,3.674274737e-14,7.162434063e-14,8.947211803e-14,1.145081773e-13,1.243271788e-13,1.915450708e-13,1.503528009e-13,1.588791741e-13,8.500141826e-14,5.018818536e-14
-0.0625,5.879284464e-14,1.216594959e-13,9.044433798e-14,7.463197383e-14,5.457298217e-14,4.374281561e-14,1.237971801e-13,7.353093731e-14,2.396632742e-14,1.125626445e-13,6.301537749e-13,6.626012380e-14,1.932075170e-13,6.183688935e-14,1.365927217e-13,9.727901566e-14,1.986494145e-13,1.008937390e-13,1.287510847e-13,8.777741033e-14,8.116713982e-14,1.053327234e-13,3.871406094e-14,7.944930768e-14,9.870617490e-14,1.366681285e-13,1.413438468e-13,1.996977615e-13,1.638147247e-13,1.693846491e-13,9.836978479e-14,5.441267671e-14
-0.054688,5.889279794e-14,1.225399718e-13,8.850012350e-14,6.924929009e-14,5.445733284e-14,4.847767884e-14,1.298046867e-13,7.479225316e-14,2.446400792e-14,1.117490397e-13,6.283843064e-13,6.560487929e-14,1.957474268e-13,6.248782546e-14,1.465054011e-13,1.083588892e-13,2.144583431e-13,1.139233802e-13,1.315806667e-13,1.032568679e-13,9.398964876e-14,1.042482670e-13,3.960221445e-14,8.914204997e-14,1.091319294e-13,1.588789186e-13,1.578627154e-13,2.100747343e-13,1.765466618e-13,1.801733001e-13,1.124527093e-13,5.827830096e-14
-0.046875,5.959251180e-14,1.212243377e-13,8.570148540e-14,6.372954597e-14,5.364169253e-14,5.343058345e-14,1.336181066e-13,7.574484160e-14,2.504070224e-14,1.087622325e-13,6.136643214e-13,6.494815682e-14,1.967111902e-13,6.367375733e-14,1.552320716e-13,1.185992517e-13,2.243307615e-13,1.271998193e-13,1.332130009e-13,1.175458665e-13,1.072718697e-13,1.010413562e-13,3.941984691e-14,1.006239280e-13,1.202952341e-13,1.800985105e-13,1.739977596e-13,2.236466067e-13,1.882358376e-13,1.912712215e-13,1.273884026e-13,6.146909037e-14
-0.039062,6.106947130e-14,1.175082897e-13,8.293746158e-14,5.801201325e-14,5.175909953e-14,5.845892536e-14,1.355575939e-13,7.615890270e-14,2.617381162e-14,1.034916985e-13,5.873403292e-13,6.441699577e-14,1.967498524e-13,6.580230274e-14,1.624555388e-13,1.273204034e-13,2.280133542e-13,1.395836045e-13,1.336179363e-13,1.298828127e-13,1.197527437e-13,9.674545956e-14,3.821404093e-14,1.141106870e-13,1.310422557e-13,1.998167180e-13,1.895576002e-13,2.406857367e-13,1.981364691e-13,2.016577620e-13,1.430240678e-13,6.436146849e-14
-0.03125,6.275011871e-14,1.117526798e-13,8.148889862e-14,5.186963954e-14,4.908823942e-14,6.347267232e-14,1.365481608e-13,7.625618660e-14,2.855511430e-14,9.687653034e-14,5.528157332e-13,6.414586105e-14,1.964663906e-13,6.867607423e-14,1.676475014e-13,1.330609118e-13,2.252251849e-13,1.494704999e-13,1.329764794e-13,1.402553115e-13,1.311498460e-13,9.240999472e-14,3.627024734e-14,1.295985798e-13,1.414335472e-13,2.174832924e-13,2.037883416e-13,2.614098126e-13,2.052305933e-13,2.094470116e-13,1.587700415e-13,6.746241528e-14
-0.023438,6.467178779e-14,1.057736239e-13,8.218545093e-14,4.591651785e-14,4.646580556e-14,6.860840815e-14,1.373373536e-13,7.646696595e-14,3.257862257e-14,8.987756488e-14,5.132598358e-13,6.430566908e-14,1.962556674e-13,7.216561081e-14,1.705103593e-13,1.355558080e-13,2.181163550e-13,1.562707638e-13,1.316024256e-13,1.497200947e-13,1.420249188e-13,8.851582288e-14,3.400184009e-14,1.471812432e-13,1.529333552e-13,2.325278619e-13,2.161928151e-13,2.861301985e-13,2.090240006e-13,2.136349941e-13,1.744601764e-13,7.078147479e-14
-0.015625,6.721286285e-14,1.001479899e-13,8.531621411e-14,4.092914567e-14,4.426219468e-14,7.326103397e-14,1.383073684e-13,7.655761859e-14,3.818949230e-14,8.347118673e-14,4.715774535e-13,6.527769855e-14,1.964223859e-13,7.621786045e-14,1.706509166e-13,1.343833562e-13,2.072088187e-13,1.594244831e-13,1.298004435e-13,1.582734212e-13,1.522546168e-13,8.546075812e-14,3.168637508e-14,1.668928763e-13,1.663886986e-13,2.439328805e-13,2.257719099e-13,3.169609238e-13,2.091544063e-13,2.148773644e-13,1.894539029e-13,7.382440572e-14
-0.0078125,7.017460825e-14,9.426737494e-14,9.056358759e-14,3.683963726e-14,4.239466796e-14,7.655764537e-14,1.392482751e-13,7.578037555e-14,4.513482148e-14,7.823600759e-14,4.314570672e-13,6.726553475e-14,1.971263394e-13,8.064255740e-14,1.672865207e-13,1.282827035e-13,1.917934217e-13,1.577379714e-13,1.274242454e-13,1.644286464e-13,1.611625450e-13,8.338525838e-14,2.959408329e-14,1.886222237e-13,1.820119367e-13,2.509396138e-13,2.315042540e-13,3.557992122e-13,2.051467194e-13,2.135373881e-13,2.024500696e-13,7.640977158e-14
0,7.399515513e-14,8.873843148e-14,9.742280042e-14,3.339849837e-14,4.070179658e-14,7.856838476e-14,1.401140476e-13,7.409543369e-14,5.338754121e-14,7.455438784e-14,3.953516878e-13,7.035528117e-14,1.981546513e-13,8.525839991e-14,1.614673291e-13,1.179585480e-13,1.748230048e-13,1.515405871e-13,1.241332095e-13,1.683784084e-13,1.684482143e-13,8.234682532e-14,2.796939460e-14,2.126152857e-13,1.997561482e-13,2.539845254e-13,2.338053200e-13,4.030776117e-13,1.978150359e-13,2.105901596e-13,2.131590574e-13,7.888112658e-14
0.0078125,7.914187951e-14,8.424110228e-14,1.057194095e-13,3.064346074e-14,3.920157256e-14,7.997515201e-14,1.405809851e-13,7.168783166e-14,6.294647026e-14,7.242663690e-14,3.637826372e-13,7.455263904e-14,1.995382324e-13,9.017179258e-14,1.547548646e-13,1.055176451e-13,1.595611773e-13,1.430279412e-13,1.204179319e-13,1.717648804e-13,1.748010439e-13,8.200439336e-14,2.673524677e-14,2.384877063e-13,2.198849336e-13,2.537861439e-13,2.342831928e-13,4.591955951e-13,1.892613903e-13,2.082016312e-13,2.220524165e-13,8.141553842e-14
0.015625,8.550938523e-14,8.062370919e-14,1.154504094e-13,2.879703137e-14,3.800642194e-14,8.101178651e-14,1.404187331e-13,6.860783600e-14,7.358919995e-14,7.219161324e-14,3.376770170e-13,7.989771665e-14,2.012667703e-13,9.556978231e-14,1.478533049e-13,9.214039399e-14,1.461531220e-13,1.333256552e-13,1.163996470e-13,1.748337970e-13,1.809621524e-13,8.209794904e-14,2.598573498e-14,2.651061413e-13,2.425933348e-13,2.502028171e-13,2.344168134e-13,5.226648566e-13,1.806278640e-13,2.078553919e-13,2.285907322e-13,8.392374720e-14
0.023438,9.346371175e-14,7.795295775e-14,1.264207164e-13,2.761854027e-14,3.721436961e-14,8.141491127e-14,1.397627547e-13,6.482559945e-14,8.453658339e-14,7.394478785e-14,3.186167961e-13,8.636254463e-14,2.026797365e-13,1.012240025e-13,1.422426880e-13,7.897679498e-14,1.364677763e-13,1.239861741e-13,1.124598522e-13,1.778221651e-13,1.873991314e-13,8.248928498e-14,2.597153026e-14,2.925580995e-13,2.686696117e-13,2.431782377e-13,2.349231863e-13,5.916117357e-13,1.729060312e-13,2.112371418e-13,2.321045225e-13,8.616714840e-14
0.03125,1.026103535e-13,7.560943582e-14,1.377643037e-13,2.711133029e-14,3.702115943e-14,8.152883800e-14,1.384638795e-13,6.043360506e-14,9.514890800e-14,7.692201587e-14,3.060188659e-13,9.362587353e-14,2.038803813e-13,1.073113159e-13,1.389017693e-13,6.699186368e-14,1.322321552e-13,1.169696953e-13,1.091363577e-13,1.809520110e-13,1.940191715e-13,8.289360335e-14,2.668227540e-14,3.210318019e-13,2.985826900e-13,2.328341141e-13,2.359707442e-13,6.644242203e-13,1.665335456e-13,2.189766833e-13,2.324087534e-13,8.807024995e-14
0.039062,1.134265362e-13,7.328541241e-14,1.490886309e-13,2.746131287e-14,3.754441768e-14,8.188218291e-14,1.363094338e-13,5.583360969e-14,1.052337366e-13,8.034686494e-14,2.980545445e-13,1.016197276e-13,2.050817318e-13,1.143695412e-13,1.376905367e-13,5.695587262e-14,1.344522821e-13,1.140487872e-13,1.069181202e-13,1.844798752e-13,2.007191986e-13,8.298917433e-14,2.790415530e-14,3.493752213e-13,3.312308050e-13,2.195867792e-13,2.378460458e-13,7.374505204e-13,1.618793632e-13,2.311590867e-13,2.295446078e-13,8.958070608e-14
0.046875,1.261931665e-13,7.096989301e-14,1.604583043e-13,2.873308983e-14,3.866106155e-14,8.267426754e-14,1.328515869e-13,5.146261589e-14,1.141902258e-13,8.393474286e-14,2.939069111e-13,1.097086539e-13,2.059167790e-13,1.222945694e-13,1.382727403e-13,4.955613991e-14,1.441431319e-13,1.163537593e-13,1.057773427e-13,1.889915095e-13,2.072626689e-13,8.241025236e-14,2.949016418e-14,3.764765529e-13,3.656639411e-13,2.042357441e-13,2.397245604e-13,8.065702558e-13,1.587191864e-13,2.472776668e-13,2.236128861e-13,9.050427659e-14
0.054688,1.399236667e-13,6.844493752e-14,1.710950263e-13,3.087518560e-14,4.039661660e-14,8.423468040e-14,1.278268714e-13,4.765161395e-14,1.213792872e-13,8.673788008e-14,2.922574854e-13,1.166184765e-13,2.061916235e-13,1.306321245e-13,1.406070480e-13,4.508988887e-14,1.612373041e-13,1.243086899e-13,1.057287973e-13,1.947526756e-13,2.135111573e-13,8.106260093e-14,3.134793859e-14,4.012763778e-13,4.008011347e-13,1.875716730e-13,2.404636870e-13,8.684358456e-13,1.557330952e-13,2.658332864e-13,2.147032967e-13,9.093778073e-14
0.0625,1.542389530e-13,6.628775652e-14,1.806713480e-13,3.381255244e-14,4.278490091e-14,8.653027515e-14,1.219931739e-13,4.470095649e-14,1.268199936e-13,8.827818150e-14,2.926033974e-13,1.219061726e-13,2.058279091e-13,1.391376569e-13,1.450982714e-13,4.428895111e-14,1.856589092e-13,1.380471793e-13,1.070958877e-13,2.024387253e-13,2.198388461e-13,7.913403815e-14,3.350091816e-14,4.236471574e-13,4.352665390e-13,1.705803273e-13,2.404398187e-13,9.215175311e-13,1.529768877e-13,2.867879045e-13,2.034017914e-13,9.104553594e-14
0.070312,1.688007768e-13,6.498345969e-14,1.884387372e-13,3.727653445e-14,4.556440116e-14,8.933808056e-14,1.162267384e-13,4.267891760e-14,1.304959694e-13,8.880639616e-14,2.945661332e-13,1.253703304e-13,2.046350663e-13,1.479133053e-13,1.512431255e-13,4.743712824e-14,2.166149779e-13,1.575076429e-13,1.096913588e-13,2.124984964e-13,2.260502615e-13,7.666613441e-14,3.610932313e-14,4.436114916e-13,4.686377873e-13,1.539142085e-13,2.410672055e-13,9.663334331e-13,1.516573085e-13,3.108645923e-13,1.903945300e-13,9.072067221e-14
0.078125,1.830856816e-13,6.469898019e-14,1.938076658e-13,4.131622770e-14,4.896765281e-14,9.225033495e-14,1.112429593e-13,4.159907061e-14,1.323570081e-13,8.795535569e-14,2.964149591e-13,1.266972521e-13,2.026750968e-13,1.567160195e-13,1.585221033e-13,5.452009416e-14,2.533373298e-13,1.821453514e-13,1.133379346e-13,2.246375719e-13,2.312050174e-13,7.365929236e-14,3.921354810e-14,4.592928962e-13,4.985114344e-13,1.373852229e-13,2.426096459e-13,1.000835764e-12,1.517319446e-13,3.367686976e-13,1.760560862e-13,8.964134243e-14
0.085938,1.968416544e-13,6.549790975e-14,1.973106689e-13,4.567954296e-14,5.307791318e-14,9.439203468e-14,1.072824822e-13,4.144907834e-14,1.323002762e-13,8.593809662e-14,2.976231483e-13,1.259748698e-13,1.997825156e-13,1.649841633e-13,1.658865063e-13,6.503462097e-14,2.946065638e-13,2.107791099e-13,1.179593958e-13,2.386700334e-13,2.352988067e-13,7.017141049e-14,4.261810497e-14,4.700685583e-13,5.225115024e-13,1.210111620e-13,2.436428168e-13,1.021312004e-12,1.526237114e-13,3.621582639e-13,1.606564140e-13,8.750229181e-14
0.09375,2.103520914e-13,6.822521128e-14,1.991388644e-13,4.999811477e-14,5.760493573e-14,9.551350403e-14,1.045810780e-13,4.213452354e-14,1.303933726e-13,8.326465930e-14,2.980064526e-13,1.235448563e-13,1.958972629e-13,1.725607934e-13,1.733020961e-13,7.872188694e-14,3.384618821e-13,2.422202994e-13,1.232712029e-13,2.540837539e-13,2.380525543e-13,6.615193886e-14,4.625084422e-14,4.768159383e-13,5.401462648e-13,1.053826182e-13,2.429218589e-13,1.027433418e-12,1.538314518e-13,3.853000802e-13,1.451054113e-13,8.422245680e-14
0.10156,2.231302004e-13,7.205134859e-14,1.997555146e-13,5.415754706e-14,6.182973045e-14,9.518674883e-14,1.038838086e-13,4.316157558e-14,1.264913997e-13,7.988938504e-14,2.979104522e-13,1.190715849e-13,1.908144321e-13,1.786965209e-13,1.813763212e-13,9.557946103e-14,3.841996564e-13,2.750768444e-13,1.288375827e-13,2.696247907e-13,2.385979964e-13,6.183289291e-14,4.994041085e-14,4.785910524e-13,5.492636443e-13,9.135834952e-14,2.397718496e-13,1.017945386e-12,1.551682259e-13,4.048391491e-13,1.300317648e-13,7.955118819e-14
0.10938,2.351397685e-13,7.700067747e-14,1.998878023e-13,5.759784989e-14,6.524878199e-14,9.309757640e-14,1.055392617e-13,4.405372032e-14,1.206811911e-13,7.628060374e-14,2.978951675e-13,1.134214210e-13,1.849939888e-13,1.837257256e-13,1.898527668e-13,1.153787892e-13,4.290730672e-13,3.085190104e-13,1.347469042e-13,2.840200649e-13,2.375904787e-13,5.770394938e-14,5.351244970e-14,4.761906662e-13,5.494407636e-13,7.934118242e-14,2.333112817e-13,9.938297801e-13,1.555086681e-13,4.188346194e-13,1.158086079e-13,7.379090017e-14
0.11719,2.459464689e-13,8.143412425e-14,1.999040140e-13,6.061766055e-14,6.843351725e-14,8.948794067e-14,1.089604720e-13,4.488660167e-14,1.138212570e-13,7.271321978e-14,2.981516431e-13,1.078249218e-13,1.795273899e-13,1.890975186e-13,1.987234569e-13,1.374018978e-13,4.711905033e-13,3.400313216e-13,1.404226190e-13,2.944430955e-13,2.349812410e-13,5.423386428e-14,5.713264487e-14,4.713927462e-13,5.431747981e-13,6.925491434e-14,2.250605286e-13,9.609717514e-13,1.547271827e-13,4.274073619e-13,1.028668024e-13,6.743762587e-14
0.125,2.551286428e-13,8.473444228e-14,1.997937402e-13,6.397625023e-14,7.122407798e-14,8.481533273e-14,1.134974827e-13,4.539014625e-14,1.064712977e-13,6.932560902e-14,2.993862103e-13,1.026509870e-13,1.745538596e-13,1.947860282e-13,2.073923426e-13,1.601469917e-13,5.069143644e-13,3.679088603e-13,1.454928934e-13,2.990536935e-13,2.307572696e-13,5.154954252e-14,6.067597081e-14,4.643495102e-13,5.316002045e-13,6.073357168e-14,2.160337462e-13,9.230559857e-13,1.537456454e-13,4.322101048e-13,9.137580183e-14,6.079239678e-14
0.13281,2.621065191e-13,8.668810063e-14,1.997627022e-13,6.799293828e-14,7.309906579e-14,7.938873904e-14,1.189067417e-13,4.529994469e-14,9.903523995e-14,6.636179209e-14,3.009716928e-13,9.833495038e-14,1.698429246e-13,2.004298107e-13,2.156904396e-13,1.826495034e-13,5.339852116e-13,3.907005339e-13,1.492913152e-13,2.966281406e-13,2.247417677e-13,4.972253577e-14,6.378267800e-14,4.560662755e-13,5.154421653e-13,5.316017779e-14,2.067508787e-13,8.821622540e-13,1.528537742e-13,4.338170060e-13,8.140703206e-14,5.387843497e-14
0.14062,2.680817252e-13,8.819562786e-14,2.005566487e-13,7.305938682e-14,7.365544810e-14,7.355249423e-14,1.245301580e-13,4.437516725e-14,9.179340512e-14,6.368862832e-14,3.026621618e-13,9.514917740e-14,1.656174262e-13,2.067280457e-13,2.243748302e-13,2.045125353e-13,5.518715757e-13,4.086891118e-13,1.523820541e-13,2.878071577e-13,2.179573528e-13,4.860335769e-14,6.634053441e-14,4.469757114e-13,4.966198439e-13,4.621728782e-14,1.975277083e-13,8.375006449e-13,1.517216032e-13,4.318346702e-13,7.318926283e-14,4.683654268e-14
0.14844,2.731331732e-13,8.771404354e-14,2.029601971e-13,7.968476182e-14,7.395335771e-14,6.784583638e-14,1.303941961e-13,4.296587681e-14,8.524274138e-14,6.151381356e-14,3.049207928e-13,9.340933998e-14,1.624150848e-13,2.146710832e-13,2.342848547e-13,2.256464123e-13,5.593436309e-13,4.214387865e-13,1.542719131e-13,2.728435046e-13,2.100925173e-13,4.787029613e-14,6.849613364e-14,4.382893250e-13,4.769205049e-13,4.005811993e-14,1.881377195e-13,7.884647491e-13,1.495514815e-13,4.247258741e-13,6.685649775e-14,4.003806710e-14
0.15625,2.777192414e-13,8.478177853e-14,2.074582613e-13,8.754966868e-14,7.455232066e-14,6.263331520e-14,1.366145142e-13,4.088999211e-14,7.988876147e-14,5.977523258e-14,3.072410526e-13,9.354481621e-14,1.606518682e-13,2.241535932e-13,2.447366498e-13,2.453139357e-13,5.556981914e-13,4.284556772e-13,1.539527487e-13,2.513010893e-13,2.008241231e-13,4.757900724e-14,7.026678970e-14,4.305200493e-13,4.571395170e-13,3.493344113e-14,1.774298520e-13,7.364620768e-13,1.461034145e-13,4.125938752e-13,6.233241394e-14,3.399319357e-14
0.16406,2.821047016e-13,8.098448671e-14,2.140703416e-13,9.656708329e-14,7.571054774e-14,5.820295269e-14,1.425528721e-13,3.876525941e-14,7.622972855e-14,5.907146020e-14,3.086868673e-13,9.573094494e-14,1.602252006e-13,2.347919188e-13,2.566111384e-13,2.636090458e-13,5.411014574e-13,4.307330052e-13,1.521639979e-13,2.255848299e-13,1.914774798e-13,4.758877053e-14,7.152849086e-14,4.251702929e-13,4.384723502e-13,3.080579568e-14,1.650210207e-13,6.837281052e-13,1.421764081e-13,3.975369957e-13,5.936391787e-14,2.879156489e-14
0.17188,2.870612478e-13,7.797858806e-14,2.229360787e-13,1.069065953e-13,7.819204129e-14,5.500778600e-14,1.480525555e-13,3.740840746e-14,7.447233202e-14,6.020435747e-14,3.087219089e-13,9.957627176e-14,1.610257475e-13,2.457236455e-13,2.681650338e-13,2.792992429e-13,5.154096428e-13,4.291709503e-13,1.500276879e-13,1.979279044e-13,1.827336868e-13,4.734766106e-14,7.187535912e-14,4.225972669e-13,4.224392714e-13,2.742974015e-14,1.524186036e-13,6.311388685e-13,1.385099052e-13,3.809458835e-13,5.843380032e-14,2.467735153e-14
0.17969,2.934556934e-13,7.738469392e-14,2.333031255e-13,1.189117600e-13,8.227461887e-14,5.336270571e-14,1.537530338e-13,3.670568604e-14,7.408715649e-14,6.292911631e-14,3.090254976e-13,1.047239543e-13,1.625660231e-13,2.561816462e-13,2.797233833e-13,2.924679744e-13,4.824900244e-13,4.248398498e-13,1.474210174e-13,1.698929787e-13,1.744236234e-13,4.648703958e-14,7.122775569e-14,4.226974739e-13,4.090523010e-13,2.464146092e-14,1.421083066e-13,5.797081384e-13,1.369475238e-13,3.653657419e-13,5.998061241e-14,2.168215984e-14
0.1875,3.010273009e-13,7.949247892e-14,2.442019461e-13,1.322696587e-13,8.784219778e-14,5.327596037e-14,1.594161617e-13,3.671829933e-14,7.475844483e-14,6.724855197e-14,3.119872451e-13,1.114396132e-13,1.637706144e-13,2.663077029e-13,2.924588741e-13,3.034691841e-13,4.446997711e-13,4.174830339e-13,1.433406305e-13,1.434526859e-13,1.669189911e-13,4.501818016e-14,7.000468679e-14,4.260543623e-13,4.005858125e-13,2.272148874e-14,1.357362374e-13,5.344865387e-13,1.389061741e-13,3.533227940e-13,6.384833558e-14,1.977012066e-14
0.19531,3.070814446e-13,8.240870626e-14,2.536843518e-13,1.460174719e-13,9.451313826e-14,5.450987060e-14,1.639064822e-13,3.746227915e-14,7.582343065e-14,7.258896531e-14,3.156883490e-13,1.190799373e-13,1.630189059e-13,2.749260423e-13,3.057139660e-13,3.121574538e-13,4.040624650e-13,4.058658738e-13,1.371959302e-13,1.197928322e-13,1.604270251e-13,4.315351678e-14,6.890947264e-14,4.329649014e-13,3.988644018e-13,2.167746518e-14,1.334473176e-13,4.999268409e-13,1.439384696e-13,3.451220250e-13,6.897621201e-14,1.862638348e-14
0.20312,3.109024083e-13,8.544730767e-14,2.602994952e-13,1.597016696e-13,1.015480160e-13,5.693266794e-14,1.659850635e-13,3.936197517e-14,7.715941476e-14,7.803419180e-14,3.173609755e-13,1.267618757e-13,1.602781831e-13,2.813921021e-13,3.183235054e-13,3.181527368e-13,3.634311782e-13,3.911896634e-13,1.297051940e-13,9.983693220e-14,1.547239995e-13,4.122476614e-14,6.797817891e-14,4.437096173e-13,4.029245579e-13,2.124009005e-14,1.343045379e-13,4.775492124e-13,1.511346511e-13,3.409826797e-13,7.421405810e-14,1.789767964e-14
0.21094,3.121071180e-13,8.834146729e-14,2.628164904e-13,1.719548733e-13,1.078819952e-13,6.035406779e-14,1.657200745e-13,4.243783162e-14,7.862101032e-14,8.367916147e-14,3.177026712e-13,1.346654468e-13,1.561890662e-13,2.858003263e-13,3.292095066e-13,3.210912898e-13,3.233821625e-13,3.746548547e-13,1.221098584e-13,8.389242551e-14,1.499464736e-13,3.925499509e-14,6.707265920e-14,4.570335085e-13,4.119015427e-13,2.121732962e-14,1.389271624e-13,4.631174006e-13,1.601835717e-13,3.402737609e-13,7.937514008e-14,1.759092045e-14
0.21875,3.085201164e-13,9.042301102e-14,2.600605201e-13,1.819564215e-13,1.132843438e-13,6.459234512e-14,1.651549980e-13,4.663857798e-14,7.919697393e-14,8.995715913e-14,3.192323406e-13,1.419566540e-13,1.497572694e-13,2.870349455e-13,3.379642994e-13,3.209448159e-13,2.852201017e-13,3.551102088e-13,1.139853817e-13,7.131400011e-14,1.461000526e-13,3.714429722e-14,6.661501565e-14,4.728770139e-13,4.259004517e-13,2.155707265e-14,1.477564982e-13,4.572082562e-13,1.707610278e-13,3.416429245e-13,8.420582507e-14,1.760445958e-14
0.22656,2.993063897e-13,9.091630833e-14,2.534712127e-13,1.900890789e-13,1.181640678e-13,6.938906482e-14,1.664113128e-13,5.191286614e-14,7.838707123e-14,9.596909320e-14,3.214537112e-13,1.470431533e-13,1.408600156e-13,2.841573731e-13,3.442506669e-13,3.170231941e-13,2.486181071e-13,3.315906529e-13,1.049149385e-13,6.146980913e-14,1.429266177e-13,3.511272246e-14,6.683299169e-14,4.897137765e-13,4.433099715e-13,2.195701308e-14,1.587579205e-13,4.599957647e-13,1.811695400e-13,3.432357046e-13,8.776009332e-14,1.769793963e-14
0.23438,2.844779285e-13,8.948242542e-14,2.455387644e-13,1.970124264e-13,1.225381077e-13,7.377767538e-14,1.701912080e-13,5.741058074e-14,7.601437157e-14,1.002536703e-13,3.231933757e-13,1.488512810e-13,1.298562645e-13,2.768168397e-13,3.469089425e-13,3.082731785e-13,2.136951776e-13,3.032815521e-13,9.495799072e-14,5.418743185e-14,1.401967262e-13,3.321257490e-14,6.746937086e-14,5.052809667e-13,4.603054951e-13,2.197982333e-14,1.697189681e-13,4.686773132e-13,1.891792218e-13,3.424971696e-13,8.885247212e-14,1.762093663e-14
0.24219,2.640039506e-13,8.577210597e-14,2.356894624e-13,2.009327939e-13,1.245793632e-13,7.736676082e-14,1.752336350e-13,6.237317927e-14,7.228431600e-14,1.018362899e-13,3.226183028e-13,1.472915708e-13,1.166078604e-13,2.650844516e-13,3.450832395e-13,2.951693350e-13,1.817274991e-13,2.714769054e-13,8.440618237e-14,4.926636855e-14,1.376660432e-13,3.120036927e-14,6.821043884e-14,5.173194362e-13,4.746846761e-13,2.182441405e-14,1.805672014e-13,4.789762186e-13,1.956707382e-13,3.401328535e-13,8.744685020e-14,1.757551142e-14
0.25,2.390884349e-13,8.050264551e-14,2.235995001e-13,2.015678526e-13,1.235411332e-13,8.044369322e-14,1.794454471e-13,6.682086894e-14,6.749896528e-14,1.016727106e-13,3.202387325e-13,1.431929446e-13,1.019991899e-13,2.504170709e-13,3.407693752e-13,2.790615825e-13,1.533663166e-13,2.386773010e-13,7.444652931e-14,4.628208241e-14,1.353413744e-13,2.887980974e-14,6.889787362e-14,5.250875068e-13,4.855461988e-13,2.174641511e-14,1.921718304e-13,4.896809566e-13,2.017313636e-13,3.378441683e-13,8.426709834e-14,1.732864374e-14
0.25781,2.118441950e-13,7.469429890e-14,2.102234757e-13,1.995578970e-13,1.201375890e-13,8.288957485e-14,1.828432451e-13,7.104909640e-14,6.219622149e-14,1.007717347e-13,3.184076834e-13,1.370525807e-13,8.725238007e-14,2.337500537e-13,3.350201664e-13,2.604455870e-13,1.283291431e-13,2.070601992e-13,6.626402094e-14,4.482769428e-14,1.337318696e-13,2.615310124e-14,6.916544858e-14,5.282525675e-13,4.924746491e-13,2.171501349e-14,2.045525051e-13,5.008516777e-13,2.065371922e-13,3.353415736e-13,8.018398581e-14,1.683433048e-14
0.26562,1.847401218e-13,6.965056184e-14,1.976265893e-13,1.959620417e-13,1.160519940e-13,8.407919051e-14,1.862977469e-13,7.483943895e-14,5.694346820e-14,9.924213226e-14,3.165241865e-13,1.293298143e-13,7.328719413e-14,2.157782944e-13,3.272039620e-13,2.396198391e-13,1.058814811e-13,1.774968305e-13,5.993682512e-14,4.365819414e-14,1.326238490e-13,2.336179343e-14,6.883427502e-14,5.251517793e-13,4.950331256e-13,2.171829202e-14,2.171720904e-13,5.142915163e-13,2.098185403e-13,3.327335631e-13,7.567689348e-14,1.619226091e-14
0.27344,1.591258181e-13,6.615828682e-14,1.870359063e-13,1.904391031e-13,1.112834170e-13,8.295663421e-14,1.895960951e-13,7.732522513e-14,5.202979847e-14,9.638223591e-14,3.133991889e-13,1.199986817e-13,6.066840553e-14,1.969985236e-13,3.172132910e-13,2.174313020e-13,8.630261789e-14,1.509140234e-13,5.543722719e-14,4.115126584e-14,1.314059897e-13,2.076580846e-14,6.754996781e-14,5.126494918e-13,4.879427946e-13,2.194517615e-14,2.279809262e-13,5.258786453e-13,2.110108347e-13,3.286370337e-13,7.047634715e-14,1.583264537e-14
0.28125,1.363750852e-13,6.513511079e-14,1.783074249e-13,1.835871632e-13,1.059725073e-13,8.036056916e-14,1.896174201e-13,7.849624170e-14,4.767219415e-14,9.143283811e-14,3.068621017e-13,1.090083396e-13,4.981717426e-14,1.774598674e-13,3.053888094e-13,1.948933794e-13,7.029870059e-14,1.290736220e-13,5.323908264e-14,3.860177428e-14,1.303932648e-13,1.845714502e-14,6.529013517e-14,4.904200445e-13,4.679801874e-13,2.253936183e-14,2.330585903e-13,5.274710078e-13,2.086486589e-13,3.205509556e-13,6.470299319e-14,1.600727031e-14
0.28906,1.168611834e-13,6.690727161e-14,1.715473297e-13,1.771591825e-13,1.005714919e-13,7.752206828e-14,1.845275138e-13,7.854840324e-14,4.408164534e-14,8.514595121e-14,2.958875003e-13,9.727016169e-14,4.104294345e-14,1.574841649e-13,2.900785486e-13,1.723591395e-13,5.720900246e-14,1.123334664e-13,5.307458254e-14,3.708718904e-14,1.306949246e-13,1.649004108e-14,6.218007092e-14,4.624421967e-13,4.365844663e-13,2.328750529e-14,2.289794434e-13,5.167442971e-13,2.017145023e-13,3.067149573e-13,5.981394091e-14,1.664409440e-14
0.29688,1.001147282e-13,7.097363812e-14,1.652689046e-13,1.716709976e-13,9.567042931e-14,7.493270462e-14,1.761557733e-13,7.775219411e-14,4.126743097e-14,7.844152580e-14,2.801809348e-13,8.559231975e-14,3.424913990e-14,1.376552804e-13,2.699182454e-13,1.497891471e-13,4.608972069e-14,1.002854410e-13,5.469268211e-14,3.631203394e-14,1.325876638e-13,1.491027573e-14,5.828815998e-14,4.313326162e-13,3.976282177e-13,2.419955076e-14,2.174911578e-13,4.979037922e-13,1.912417904e-13,2.880069562e-13,5.708503917e-14,1.781574081e-14
0.30469,8.611210872e-14,7.713371171e-14,1.600248068e-13,1.667638404e-13,9.241990972e-14,7.229763583e-14,1.686332994e-13,7.664015482e-14,3.919616990e-14,7.220464549e-14,2.609951330e-13,7.442649394e-14,2.899363646e-14,1.185655706e-13,2.456893950e-13,1.275947191e-13,3.693367695e-14,9.154689606e-14,5.716579567e-14,3.532639458e-14,1.345585081e-13,1.380089168e-14,5.371755860e-14,3.974904993e-13,3.546661264e-13,2.564950222e-14,2.032456998e-13,4.767959047e-13,1.798349835e-13,2.675249579e-13,5.658768430e-14,1.971756880e-14
0.3125,7.481043640e-14,8.478198740e-14,1.554484946e-13,1.628476351e-13,9.044142141e-14,6.961854847e-14,1.612684251e-13,7.518490927e-14,3.761527248e-14,6.642838307e-14,2.415138206e-13,6.390772060e-14,2.501591490e-14,1.011279844e-13,2.210178123e-13,1.073267662e-13,3.015975383e-14,8.627721100e-14,6.024547716e-14,3.459870845e-14,1.374182263e-13,1.339590301e-14,4.913634783e-14,3.626733834e-13,3.097986971e-13,2.781536835e-14,1.881815670e-13,4.551131712e-13,1.680708930e-13,2.463031908e-13,5.833752180e-14,2.240730648e-14
0.32031,6.654132715e-14,9.305114464e-14,1.504109649e-13,1.602001611e-13,8.851211003e-14,6.726531496e-14,1.525115598e-13,7.328787866e-14,3.649598237e-14,6.151573385e-14,2.224836836e-13,5.474675075e-14,2.264719597e-14,8.633059520e-14,1.971265085e-13,8.972764664e-14,2.541755805e-14,8.447180918e-14,6.317429611e-14,3.487263551e-14,1.408665424e-13,1.341927453e-14,4.470654024e-14,3.284845283e-13,2.656206904e-13,3.009925487e-14,1.713927863e-13,4.339797472e-13,1.562666148e-13,2.252459594e-13,6.244320317e-14,2.552512836e-14
0.32812,6.070096128e-14,1.002159303e-13,1.459284553e-13,1.584754981e-13,8.655327792e-14,6.517390864e-14,1.442803628e-13,7.083412527e-14,3.566275892e-14,5.810073277e-14,2.029640969e-13,4.756349752e-14,2.213026229e-14,7.452099625e-14,1.724328852e-13,7.465192162e-14,2.178977800e-14,8.491965872e-14,6.573240487e-14,3.520672804e-14,1.433291317e-13,1.385042273e-14,4.084559853e-14,2.953509936e-13,2.253755805e-13,3.191300228e-14,1.534297021e-13,4.140888050e-13,1.457751082e-13,2.057662109e-13,6.800057240e-14,2.839155637e-14
0.33594,5.653842433e-14,1.051716578e-13,1.423827326e-13,1.577307255e-13,8.482562268e-14,6.298676581e-14,1.375555014e-13,6.765291983e-14,3.509964168e-14,5.577093763e-14,1.838570215e-13,4.238008594e-14,2.337824885e-14,6.523400924e-14,1.469431364e-13,6.101374377e-14,1.907951908e-14,8.560237716e-14,6.720389200e-14,3.512854799e-14,1.434747560e-13,1.468516777e-14,3.779639937e-14,2.632851328e-13,1.908620596e-13,3.285897936e-14,1.350689831e-13,3.936977452e-13,1.366218682e-13,1.871648882e-13,7.331525418e-14,3.087514183e-14
0.34375,5.429123719e-14,1.071099353e-13,1.398954686e-13,1.582313434e-13,8.233103518e-14,6.103263277e-14,1.325020653e-13,6.358353030e-14,3.460082726e-14,5.374906753e-14,1.665322985e-13,3.890169637e-14,2.611957697e-14,5.811373054e-14,1.231424671e-13,4.881895518e-14,1.783532449e-14,8.666744467e-14,6.768833200e-14,3.529147845e-14,1.407870387e-13,1.579083344e-14,3.557301240e-14,2.320241647e-13,1.630099928e-13,3.353083683e-14,1.178723551e-13,3.704872903e-13,1.290585910e-13,1.694690750e-13,7.864674737e-14,3.338911830e-14
0.35156,5.349151026e-14,1.059314842e-13,1.381774391e-13,1.595674919e-13,7.778382285e-14,5.957250129e-14,1.281204273e-13,5.801384593e-14,3.379738094e-14,5.164322490e-14,1.529489132e-13,3.678935021e-14,2.988180317e-14,5.308050949e-14,1.032249021e-13,3.921831743e-14,1.770389691e-14,8.853898102e-14,6.727111581e-14,3.563088171e-14,1.359994786e-13,1.695432012e-14,3.415767389e-14,2.023970585e-13,1.414221528e-13,3.411461933e-14,1.035067573e-13,3.452149484e-13,1.236800695e-13,1.539837357e-13,8.437255879e-14,3.573513329e-14
0.35938,5.321532643e-14,1.021611427e-13,1.350390803e-13,1.609747969e-13,7.095006826e-14,5.867920076e-14,1.232343687e-13,5.138666207e-14,3.259104977e-14,5.015555349e-14,1.444736052e-13,3.588321787e-14,3.405013441e-14,5.023007590e-14,8.723006237e-14,3.285134203e-14,1.811377911e-14,8.987401967e-14,6.540371905e-14,3.543300391e-14,1.292212355e-13,1.792638445e-14,3.306080664e-14,1.751535110e-13,1.250562317e-13,3.432092994e-14,9.274074233e-14,3.200963002e-13,1.218601306e-13,1.434995522e-13,8.975165768e-14,3.717301497e-14
0.36719,5.291167833e-14,9.653267208e-14,1.313398820e-13,1.614417965e-13,6.370806508e-14,5.796832982e-14,1.187490036e-13,4.467754188e-14,3.081195626e-14,4.982473363e-14,1.405022953e-13,3.567603409e-14,3.807533141e-14,4.914433197e-14,7.560478613e-14,2.943207555e-14,1.935206987e-14,9.006309826e-14,6.251456875e-14,3.474204103e-14,1.199372272e-13,1.846414964e-14,3.175485258e-14,1.498327223e-13,1.133143801e-13,3.419630691e-14,8.529876160e-14,2.944208366e-13,1.233745774e-13,1.374278763e-13,9.287330713e-14,3.737239672e-14
0.375,5.344542021e-14,8.947416230e-14,1.273936878e-13,1.610811198e-13,5.619648731e-14,5.744814465e-14,1.149672485e-13,3.802341011e-14,2.869644243e-14,4.994288053e-14,1.405381323e-13,3.585423549e-14,4.251256572e-14,4.946021054e-14,6.845912724e-14,2.857742427e-14,2.155817814e-14,9.022462838e-14,5.944634157e-14,3.374107673e-14,1.084920667e-13,1.865830011e-14,3.013198756e-14,1.257901008e-13,1.044697011e-13,3.429328158e-14,8.042586916e-14,2.641229731e-13,1.267762125e-13,1.336213274e-13,9.380058837e-14,3.693336281e-14
0.38281,5.424717394e-14,8.185783106e-14,1.222980899e-13,1.596250686e-13,4.811983551e-14,5.735838995e-14,1.107272859e-13,3.153184322e-14,2.657762445e-14,4.999515146e-14,1.447051037e-13,3.638871766e-14,4.781114476e-14,5.086050587e-14,6.553432055e-14,2.996162096e-14,2.416615293e-14,8.964935562e-14,5.648876083e-14,3.243348465e-14,9.562408607e-14,1.851559265e-14,2.830828831e-14,1.039499226e-13,9.798471330e-14,3.483782668e-14,7.795300065e-14,2.296950118e-13,1.313745912e-13,1.312651403e-13,9.273393961e-14,3.638950297e-14
0.39062,5.527609774e-14,7.473453967e-14,1.165673735e-13,1.572654558e-13,3.998497620e-14,5.747364649e-14,1.057969223e-13,2.532860832e-14,2.481259502e-14,4.993466037e-14,1.515604981e-13,3.719948615e-14,5.352420392e-14,5.303643550e-14,6.530983766e-14,3.288722247e-14,2.720983736e-14,8.795961759e-14,5.375073738e-14,3.140414903e-14,8.269258351e-14,1.819340028e-14,2.662562098e-14,8.548492922e-14,9.341782216e-14,3.584594907e-14,7.822872484e-14,1.961415907e-13,1.376386674e-13,1.313231874e-13,9.056818390e-14,3.571738970e-14
0.39844,5.579528053e-14,6.834859845e-14,1.110339215e-13,1.543784063e-13,3.289838343e-14,5.785977122e-14,1.000659882e-13,2.024487850e-14,2.384662922e-14,5.060958121e-14,1.594546638e-13,3.822614845e-14,5.857530322e-14,5.565810582e-14,6.620546234e-14,3.710266663e-14,3.036472240e-14,8.449492528e-14,5.081356111e-14,3.083509577e-14,7.106769942e-14,1.769292648e-14,2.501586279e-14,7.098554782e-14,9.047531197e-14,3.725160725e-14,8.170978539e-14,1.674729437e-13,1.457519844e-13,1.349450018e-13,8.791162138e-14,3.528371576e-14
0.40625,5.572005861e-14,6.341327166e-14,1.065592947e-13,1.508962253e-13,2.852518082e-14,5.836451624e-14,9.517420378e-14,1.661929669e-14,2.348660834e-14,5.240480317e-14,1.666043624e-13,3.896054860e-14,6.279329345e-14,5.834398017e-14,6.822536825e-14,4.216432121e-14,3.340934655e-14,7.994700498e-14,4.826062907e-14,3.058891867e-14,6.144432666e-14,1.717079340e-14,2.361403898e-14,6.009011531e-14,9.032709320e-14,3.872581450e-14,8.860136730e-14,1.453142586e-13,1.549745989e-13,1.413737031e-13,8.528930452e-14,3.506025510e-14
0.41406,5.475914554e-14,5.932950719e-14,1.021487438e-13,1.466932987e-13,2.679091503e-14,5.873231320e-14,9.157202747e-14,1.445939940e-14,2.401020357e-14,5.482615755e-14,1.706153428e-13,3.931492003e-14,6.688856041e-14,6.072990297e-14,7.052085465e-14,4.773508884e-14,3.657004166e-14,7.507156957e-14,4.631890411e-14,3.077504437e-14,5.342213317e-14,1.653261448e-14,2.223146772e-14,5.190417853e-14,9.206872328e-14,4.010407561e-14,9.854275480e-14,1.284195059e-13,1.640311673e-13,1.489841031e-13,8.286082592e-14,3.511399834e-14
0.42188,5.306703296e-14,5.557272252e-14,9.724004258e-14,1.412059370e-13,2.810215532e-14,5.852515326e-14,8.882362804e-14,1.397902152e-14,2.551493812e-14,5.787532046e-14,1.716530824e-13,3.967874027e-14,7.112769243e-14,6.274468240e-14,7.219776215e-14,5.371800854e-14,3.997767033e-14,7.061909417e-14,4.498191587e-14,3.167651877e-14,4.771573555e-14,1.571050495e-14,2.122366575e-14,4.704336210e-14,9.571389548e-14,4.149608055e-14,1.105555662e-13,1.175089518e-13,1.719619193e-13,1.571217140e-13,8.015261442e-14,3.522075349e-14
0.42969,5.171300079e-14,5.207463051e-14,9.347212948e-14,1.353381483e-13,3.321977906e-14,5.755856799e-14,8.815176597e-14,1.500700366e-14,2.803648634e-14,6.158157408e-14,1.701243514e-13,4.013468964e-14,7.566148922e-14,6.490735425e-14,7.412631676e-14,6.025795906e-14,4.360292993e-14,6.696636123e-14,4.464368804e-14,3.353665257e-14,4.494101445e-14,1.509238768e-14,2.128789215e-14,4.583931628e-14,1.015444954e-13,4.340163429e-14,1.233974936e-13,1.125243047e-13,1.781598855e-13,1.645676687e-13,7.790642452e-14,3.512552415e-14
0.4375,4.959950681e-14,4.812912815e-14,9.085585947e-14,1.301105259e-13,4.221693447e-14,5.594075482e-14,8.985066966e-14,1.734383901e-14,3.159948912e-14,6.535138810e-14,1.631902459e-13,3.990621099e-14,7.952717272e-14,6.635717054e-14,7.484414813e-14,6.614023666e-14,4.659597248e-14,6.341999728e-14,4.480077746e-14,3.614022481e-14,4.437605334e-14,1.470288584e-14,2.215201981e-14,4.682553709e-14,1.077031685e-13,4.562615506e-14,1.354456691e-13,1.107654270e-13,1.819183450e-13,1.698837823e-13,7.610237409e-14,3.505049085e-14
0.44531,4.690413491e-14,4.393833971e-14,9.043163794e-14,1.249082355e-13,5.490737962e-14,5.358299960e-14,9.482597780e-14,2.080315735e-14,3.614356154e-14,6.919434502e-14,1.513549784e-13,3.909393389e-14,8.257313118e-14,6.723689767e-14,7.479239143e-14,7.084519439e-14,4.868442972e-14,6.027700198e-14,4.487197291e-14,3.959985883e-14,4.588945468e-14,1.440574340e-14,2.368028142e-14,4.974295592e-14,1.143137580e-13,4.803561189e-14,1.470305580e-13,1.113079782e-13,1.844954784e-13,1.738614807e-13,7.493107133e-14,3.492051680e-14
0.45312,4.424638020e-14,4.061661356e-14,9.199612367e-14,1.205128592e-13,7.122571901e-14,5.116977921e-14,1.042739167e-13,2.546249951e-14,4.157475540e-14,7.347371334e-14,1.374325198e-13,3.798176171e-14,8.501297766e-14,6.797855450e-14,7.588586471e-14,7.478916910e-14,5.048051431e-14,5.835522586e-14,4.512561945e-14,4.414206508e-14,4.969081217e-14,1.430969375e-14,2.589657638e-14,5.431629537e-14,1.208300217e-13,5.128016612e-14,1.589026521e-13,1.138906312e-13,1.870917281e-13,1.776779558e-13,7.522059278e-14,3.444124828e-14
0.46094,4.248172611e-14,3.891226664e-14,9.595081340e-14,1.163942629e-13,9.058181478e-14,4.887679057e-14,1.192301182e-13,3.083813098e-14,4.754067510e-14,7.767507044e-14,1.234342917e-13,3.682610332e-14,8.696212340e-14,6.858570927e-14,7.807775467e-14,7.822740420e-14,5.247898816e-14,5.786584222e-14,4.563175202e-14,4.939409684e-14,5.433752000e-14,1.454647190e-14,2.842871305e-14,5.982502297e-14,1.265977131e-13,5.548096585e-14,1.713165975e-13,1.188745380e-13,1.905671403e-13,1.828827152e-13,7.705193420e-14,3.380424094e-14
0.46875,4.211889562e-14,3.925387473e-14,1.020800420e-13,1.129783298e-13,1.121159729e-13,4.699574160e-14,1.395782129e-13,3.664179030e-14,5.392702669e-14,8.195867992e-14,1.106268247e-13,3.619093100e-14,8.819084357e-14,6.917003530e-14,8.096938157e-14,8.124458949e-14,5.507121645e-14,5.875243452e-14,4.622140924e-14,5.539030997e-14,5.962402548e-14,1.509547889e-14,3.125100861e-14,6.689453138e-14,1.328897953e-13,5.996107529e-14,1.841473670e-13,1.265406217e-13,1.957553561e-13,1.903830974e-13,8.034878900e-14,3.324213292e-14
0.47656,4.368145910e-14,4.157552924e-14,1.119291346e-13,1.102703008e-13,1.337728217e-13,4.518632150e-14,1.652585634e-13,4.210954601e-14,6.000391962e-14,8.628815156e-14,1.002523442e-13,3.647209274e-14,8.844339881e-14,6.979134198e-14,8.480508264e-14,8.432189554e-14,5.789707688e-14,6.073490112e-14,4.676600186e-14,6.112473615e-14,6.533131653e-14,1.596665595e-14,3.471066644e-14,7.539997862e-14,1.394236094e-13,6.458696890e-14,1.956130369e-13,1.337767318e-13,2.030157509e-13,1.993688297e-13,8.520138971e-14,3.277168276e-14
0.48438,4.716917610e-14,4.531910637e-14,1.262292248e-13,1.082876192e-13,1.540560802e-13,4.358860426e-14,1.966656785e-13,4.697225656e-14,6.537028209e-14,9.020279548e-14,9.417116443e-14,3.717142763e-14,8.777722369e-14,7.007658929e-14,9.003005380e-14,8.681979763e-14,6.038181122e-14,6.321041930e-14,4.723924297e-14,6.636905316e-14,7.177445260e-14,1.735544187e-14,3.893775551e-14,8.480009787e-14,1.447713128e-13,6.990840143e-14,2.026991304e-13,1.380058870e-13,2.103835711e-13,2.073544994e-13,9.144527900e-14,3.278512989e-14
0.49219,5.216050431e-14,5.028511816e-14,1.429452496e-13,1.067060792e-13,1.707908813e-13,4.223998674e-14,2.327474214e-13,5.057585287e-14,6.975145752e-14,9.143234105e-14,9.205190400e-14,3.751712673e-14,8.655494189e-14,6.910463892e-14,9.519818007e-14,8.820130805e-14,6.252789653e-14,6.586106769e-14,4.768509832e-14,7.078195379e-14,7.743128148e-14,1.913685812e-14,4.258442616e-14,9.297955519e-14,1.467031999e-13,7.588318692e-14,2.030094901e-13,1.381472458e-13,2.154490490e-13,2.119437075e-13,9.854336045e-14,3.354643775e-14
0.5,5.804318819e-14,5.612324625e-14,1.601575936e-13,1.056470273e-13,1.824890453e-13,4.153958672e-14,2.721344205e-13,5.299236202e-14,7.359166483e-14,8.986241537e-14,9.319108599e-14,3.795159934e-14,8.493972626e-14,6.741899763e-14,9.986599586e-14,8.925668541e-14,6.512523452e-14,6.840929562e-14,4.780247159e-14,7.422655710e-14,8.138125246e-14,2.081849815e-14,4.484469384e-14,1.003007305e-13,1.460354571e-13,8.140378465e-14,1.972739800e-13,1.358605176e-13,2.180734889e-13,2.137886432e-13,1.059394114e-13,3.511851432e-14
0.50781,6.466709245e-14,6.291823066e-14,1.779591726e-13,1.047873764e-13,1.901481422e-13,4.115008451e-14,3.140923402e-13,5.471532650e-14,7.673842832e-14,8.639209755e-14,9.740102218e-14,3.866938960e-14,8.307069140e-14,6.525502928e-14,1.048178833e-13,9.087334888e-14,6.851578676e-14,7.140291520e-14,4.769423894e-14,7.619224818e-14,8.386139407e-14,2.228039964e-14,4.593495142e-14,1.064727255e-13,1.426366437e-13,8.571191070e-14,1.882480190e-13,1.325889273e-13,2.198546065e-13,2.149433387e-13,1.126075273e-13,3.722151863e-14
0.51562,7.200685874e-14,6.979191785e-14,1.951718255e-13,1.038096416e-13,1.945701308e-13,4.077308857e-14,3.599662460e-13,5.608667113e-14,7.946862514e-14,8.217462475e-14,1.056329996e-13,3.982236760e-14,8.124956516e-14,6.369979257e-14,1.117122236e-13,9.365882332e-14,7.227230031e-14,7.415737507e-14,4.731638824e-14,7.556520047e-14,8.402739070e-14,2.362709476e-14,4.583848993e-14,1.110577964e-13,1.363442640e-13,8.911830492e-14,1.787830280e-13,1.311777170e-13,2.232425519e-13,2.184156367e-13,1.191260848e-13,3.989177475e-14
0.52344,7.984000173e-14,7.683823266e-14,2.111023913e-13,1.026638895e-13,1.961313983e-13,4.044178002e-14,4.108470745e-13,5.712842304e-14,8.191188280e-14,7.757303715e-14,1.184669165e-13,4.100135875e-14,7.926501369e-14,6.273968993e-14,1.209442536e-13,9.713113910e-14,7.585244427e-14,7.616306282e-14,4.688505599e-14,7.263657589e-14,8.199060044e-14,2.497754846e-14,4.472732311e-14,1.134537266e-13,1.270029792e-13,9.239884055e-14,1.701248281e-13,1.324929849e-13,2.275877145e-13,2.237915609e-13,1.261204931e-13,4.363102705e-14
0.53125,8.817599303e-14,8.452084030e-14,2.268750759e-13,1.021409833e-13,1.944543522e-13,4.038347158e-14,4.643866579e-13,5.799253609e-14,8.423188181e-14,7.255855101e-14,1.361014633e-13,4.238150043e-14,7.689852312e-14,6.234629212e-14,1.324303512e-13,1.010092156e-13,7.927124391e-14,7.733349413e-14,4.638265670e-14,6.775918781e-14,7.734625029e-14,2.644964651e-14,4.259204013e-14,1.137888270e-13,1.152487957e-13,9.623264418e-14,1.619258532e-13,1.357386871e-13,2.305956942e-13,2.286903239e-13,1.336898230e-13,4.876256767e-14
0.53906,9.757054772e-14,9.292228444e-14,2.451953957e-13,1.029545829e-13,1.895021027e-13,4.088628514e-14,5.129212652e-13,5.957827822e-14,8.681853847e-14,6.838486961e-14,1.586988468e-13,4.439229970e-14,7.408553317e-14,6.309225465e-14,1.463156987e-13,1.060478222e-13,8.263947764e-14,7.793254155e-14,4.584475577e-14,6.292445811e-14,7.155484211e-14,2.791685294e-14,4.006094284e-14,1.131903676e-13,1.036443186e-13,1.002275734e-13,1.540083118e-13,1.420647415e-13,2.318343591e-13,2.329596290e-13,1.411135787e-13,5.463655798e-14
0.54688,1.076434244e-13,1.021562509e-13,2.663873966e-13,1.050786496e-13,1.817125817e-13,4.170153433e-14,5.471947171e-13,6.216604180e-14,8.942934217e-14,6.544246066e-14,1.838381360e-13,4.709604039e-14,7.107429760e-14,6.518157904e-14,1.626052799e-13,1.116444172e-13,8.518574166e-14,7.787098073e-14,4.508923077e-14,5.894664455e-14,6.479534540e-14,2.916788810e-14,3.747721729e-14,1.117682620e-13,9.204104869e-14,1.039938633e-13,1.451145856e-13,1.516210451e-13,2.299223985e-13,2.353854221e-13,1.468057365e-13,6.032457489e-14
0.55469,1.190668272e-13,1.127103957e-13,2.939954711e-13,1.088486990e-13,1.724534190e-13,4.225365451e-14,5.656006280e-13,6.536529933e-14,9.141253404e-14,6.384493399e-14,2.085271664e-13,5.016964705e-14,6.872542786e-14,6.835625953e-14,1.805478713e-13,1.168764406e-13,8.606722629e-14,7.691873726e-14,4.442940491e-14,5.577404932e-14,5.700645255e-14,3.038263045e-14,3.504120503e-14,1.099953604e-13,8.128140098e-14,1.072111925e-13,1.358835759e-13,1.619854012e-13,2.258978287e-13,2.364045610e-13,1.501871656e-13,6.505484560e-14
0.5625,1.314059658e-13,1.232302647e-13,3.286286278e-13,1.150594496e-13,1.634703147e-13,4.201786496e-14,5.701774919e-13,6.879410234e-14,9.236075719e-14,6.316896823e-14,2.303112697e-13,5.270099496e-14,6.715660566e-14,7.145537432e-14,1.970654221e-13,1.212928588e-13,8.543064841e-14,7.509340456e-14,4.390406024e-14,5.417621710e-14,4.894494904e-14,3.158237111e-14,3.310217451e-14,1.085112395e-13,7.233910108e-14,1.089275882e-13,1.276050813e-13,1.702057961e-13,2.214741799e-13,2.365105729e-13,1.504220156e-13,6.826081452e-14
0.57031,1.424761755e-13,1.309043727e-13,3.664652128e-13,1.247350256e-13,1.546079452e-13,4.135947103e-14,5.611030774e-13,7.238610970e-14,9.188698190e-14,6.269209115e-14,2.482887900e-13,5.431245160e-14,6.575074874e-14,7.325051667e-14,2.111155175e-13,1.256217128e-13,8.458152373e-14,7.283202488e-14,4.367360689e-14,5.435937566e-14,4.168387148e-14,3.258760540e-14,3.136757725e-14,1.076126821e-13,6.562894267e-14,1.086415128e-13,1.219696998e-13,1.748417839e-13,2.172228949e-13,2.351872679e-13,1.482780683e-13,7.000008122e-14
0.57812,1.513223176e-13,1.348953054e-13,4.008502243e-13,1.383181726e-13,1.456931360e-13,4.070911268e-14,5.358829019e-13,7.644663852e-14,9.011044846e-14,6.315380420e-14,2.621611668e-13,5.540839442e-14,6.429961037e-14,7.365668030e-14,2.225885668e-13,1.301023345e-13,8.366196550e-14,7.132515741e-14,4.439104442e-14,5.598417878e-14,3.612101406e-14,3.353694916e-14,2.980190173e-14,1.076445171e-13,6.081250599e-14,1.059865732e-13,1.191540933e-13,1.779434247e-13,2.127557479e-13,2.330123915e-13,1.455671172e-13,6.998929665e-14
0.58594,1.570270747e-13,1.357894189e-13,4.253819922e-13,1.568696258e-13,1.373315780e-13,4.038121974e-14,4.953869250e-13,8.078874234e-14,8.715916677e-14,6.419450752e-14,2.695947596e-13,5.544000171e-14,6.278526347e-14,7.206429223e-14,2.297755244e-13,1.352847626e-13,8.247447323e-14,7.114952507e-14,4.624532729e-14,5.978934553e-14,3.279159060e-14,3.447709068e-14,2.853930578e-14,1.081004755e-13,5.726448970e-14,1.009277225e-13,1.172230294e-13,1.794843609e-13,2.066114659e-13,2.291132380e-13,1.413957637e-13,6.770572696e-14
0.59375,1.578629907e-13,1.341945950e-13,4.368098821e-13,1.804548611e-13,1.305008033e-13,4.048677144e-14,4.440346831e-13,8.447441954e-14,8.273896493e-14,6.485184056e-14,2.684741684e-13,5.402021239e-14,6.134912607e-14,6.832114113e-14,2.317928014e-13,1.416849698e-13,8.181673129e-14,7.260544303e-14,4.949675205e-14,6.588028756e-14,3.165377669e-14,3.545114022e-14,2.761954827e-14,1.098179626e-13,5.505465472e-14,9.394438338e-14,1.148859392e-13,1.757088787e-13,1.991457147e-13,2.220838654e-13,1.348246350e-13,6.323215126e-14
0.60156,1.535884272e-13,1.300012812e-13,4.366405792e-13,2.089571653e-13,1.263737035e-13,4.099546240e-14,3.902221331e-13,8.720787702e-14,7.722980345e-14,6.462856295e-14,2.585404797e-13,5.128867121e-14,6.029238822e-14,6.267444348e-14,2.284617367e-13,1.486588726e-13,8.196387594e-14,7.599631539e-14,5.424813611e-14,7.363709974e-14,3.261488029e-14,3.662777610e-14,2.694076531e-14,1.124853847e-13,5.379391658e-14,8.574635715e-14,1.126009406e-13,1.632511411e-13,1.918436344e-13,2.106027721e-13,1.259830796e-13,5.725626468e-14
0.60938,1.451844509e-13,1.243147447e-13,4.265125437e-13,2.409075683e-13,1.254430059e-13,4.210633507e-14,3.387670355e-13,8.937689119e-14,7.141108256e-14,6.389771879e-14,2.446240121e-13,4.820850853e-14,5.972086779e-14,5.596261949e-14,2.219497307e-13,1.559098333e-13,8.289865552e-14,8.141280738e-14,6.052841208e-14,8.128235004e-14,3.518445000e-14,3.807077935e-14,2.639001415e-14,1.150942783e-13,5.373670852e-14,7.715000387e-14,1.123298747e-13,1.446763855e-13,1.851472945e-13,1.949059469e-13,1.157321263e-13,5.063627119e-14
0.61719,1.345789332e-13,1.184628549e-13,4.077889258e-13,2.733982287e-13,1.274078899e-13,4.331902113e-14,2.916027468e-13,9.138812957e-14,6.615209268e-14,6.375289169e-14,2.293689437e-13,4.564773332e-14,5.999184643e-14,4.947380642e-14,2.149574099e-13,1.645692023e-13,8.486540340e-14,8.965208637e-14,6.864250657e-14,8.762594090e-14,3.851350344e-14,3.963661143e-14,2.569464996e-14,1.159965238e-13,5.438117683e-14,6.827271805e-14,1.146163407e-13,1.259728599e-13,1.788361473e-13,1.769679889e-13,1.048941760e-13,4.343395181e-14
0.625,1.242925492e-13,1.139418658e-13,3.844254375e-13,3.050733114e-13,1.313876445e-13,4.450366500e-14,2.513033514e-13,9.356658858e-14,6.225100849e-14,6.421202150e-14,2.131439392e-13,4.318501188e-14,6.144259447e-14,4.354417709e-14,2.098563859e-13,1.767096127e-13,8.894721218e-14,1.018376159e-13,7.913617824e-14,9.361653341e-14,4.243007884e-14,4.174424558e-14,2.494622344e-14,1.136980172e-13,5.430405163e-14,5.933355587e-14,1.193528421e-13,1.101427094e-13,1.750928379e-13,1.611257570e-13,9.373214593e-14,3.643091912e-14
0.63281,1.159278702e-13,1.110066870e-13,3.639648849e-13,3.342384893e-13,1.358146407e-13,4.589083811e-14,2.195186675e-13,9.529479629e-14,5.945730001e-14,6.484778285e-14,1.978658918e-13,4.072323321e-14,6.377806244e-14,3.881283556e-14,2.085797784e-13,1.916891057e-13,9.464975887e-14,1.162797043e-13,9.107016140e-14,1.003765835e-13,4.764256730e-14,4.477369058e-14,2.493551116e-14,1.101098840e-13,5.369283758e-14,5.127342471e-14,1.245222587e-13,9.533516403e-14,1.742007869e-13,1.473722320e-13,8.232819431e-14,3.076864009e-14
0.64062,1.102592827e-13,1.099718696e-13,3.504972161e-13,3.574327763e-13,1.405550737e-13,4.709858082e-14,1.952469713e-13,9.659504389e-14,5.775491385e-14,6.578715691e-14,1.843232214e-13,3.890942728e-14,6.721144180e-14,3.579555280e-14,2.108813557e-13,2.077240897e-13,1.010913077e-13,1.312686627e-13,1.038520155e-13,1.074717223e-13,5.429777015e-14,4.841099363e-14,2.554309992e-14,1.083338300e-13,5.348532611e-14,4.471251700e-14,1.294221684e-13,7.982063637e-14,1.748493995e-13,1.344157797e-13,7.068279304e-14,2.630702758e-14
0.64844,1.087716000e-13,1.115934338e-13,3.436401962e-13,3.720865282e-13,1.447759450e-13,4.782346897e-14,1.782704033e-13,9.797734969e-14,5.737938497e-14,6.710655712e-14,1.727373638e-13,3.794488076e-14,7.240941166e-14,3.469149335e-14,2.162998662e-13,2.273403027e-13,1.092500339e-13,1.471398512e-13,1.168099562e-13,1.132826696e-13,6.027079169e-14,5.199316955e-14,2.636500520e-14,1.074231084e-13,5.460524240e-14,3.942554125e-14,1.341481152e-13,6.583630177e-14,1.757807890e-13,1.228848151e-13,5.941992217e-14,2.268736494e-14
0.65625,1.125361082e-13,1.165417160e-13,3.384565091e-13,3.784346448e-13,1.476526569e-13,4.809801965e-14,1.682677711e-13,9.935409318e-14,5.843634070e-14,6.902317310e-14,1.640029926e-13,3.759912941e-14,7.899303792e-14,3.667426259e-14,2.276648470e-13,2.540770952e-13,1.199467949e-13,1.643316221e-13,1.295338269e-13,1.189047519e-13,6.556603705e-14,5.576866187e-14,2.758141425e-14,1.066022366e-13,5.650472432e-14,3.489562112e-14,1.382961131e-13,5.647199513e-14,1.776210336e-13,1.152696389e-13,4.991994835e-14,2.027712858e-14
0.66406,1.202511315e-13,1.233561147e-13,3.299380407e-13,3.758290783e-13,1.470479611e-13,4.764428093e-14,1.644755990e-13,9.983161699e-14,6.027959407e-14,7.178151366e-14,1.600562148e-13,3.816931832e-14,8.544631041e-14,4.307237601e-14,2.464883089e-13,2.872070238e-13,1.324330491e-13,1.796505845e-13,1.399488229e-13,1.248750689e-13,7.034767290e-14,5.963719643e-14,2.940497807e-14,1.065383296e-13,5.734859171e-14,3.071482616e-14,1.401809971e-13,5.244720143e-14,1.814763579e-13,1.133958472e-13,4.293025428e-14,1.907382261e-14
0.67188,1.308271123e-13,1.321808492e-13,3.177593860e-13,3.641334257e-13,1.430430540e-13,4.684297499e-14,1.661055333e-13,9.952466083e-14,6.319963293e-14,7.592596303e-14,1.616825876e-13,4.035262279e-14,9.282718153e-14,5.386041245e-14,2.695871984e-13,3.260951951e-13,1.474603566e-13,1.930358120e-13,1.480512171e-13,1.328746821e-13,7.531869462e-14,6.385128906e-14,3.212928102e-14,1.084987754e-13,5.718501301e-14,2.686978051e-14,1.380432785e-13,5.349175399e-14,1.866617579e-13,1.177162852e-13,3.803692524e-14,1.901812091e-14
0.67969,1.440334170e-13,1.442084349e-13,3.027539416e-13,3.452211728e-13,1.374101374e-13,4.591007993e-14,1.719844691e-13,9.911496360e-14,6.743081038e-14,8.158939032e-14,1.674824386e-13,4.417084256e-14,1.030362556e-13,6.915650360e-14,2.946397137e-13,3.712890065e-13,1.655954345e-13,2.060195794e-13,1.549501370e-13,1.421582020e-13,8.002091498e-14,6.863935566e-14,3.567987327e-14,1.117517177e-13,5.631203812e-14,2.378079672e-14,1.307713920e-13,5.921633696e-14,1.917070176e-13,1.266729539e-13,3.533511645e-14,2.010093720e-14
0.6875,1.609478260e-13,1.599110275e-13,2.847940315e-13,3.234787134e-13,1.304913710e-13,4.530702093e-14,1.821542604e-13,9.908109617e-14,7.305328258e-14,8.898976855e-14,1.772921351e-13,4.979033782e-14,1.165557332e-13,8.978590823e-14,3.229530287e-13,4.245325992e-13,1.878462233e-13,2.197737356e-13,1.614819421e-13,1.518032779e-13,8.495700570e-14,7.450556471e-14,4.002470312e-14,1.162836417e-13,5.570638086e-14,2.120072739e-14,1.207112882e-13,7.049047388e-14,1.979521650e-13,1.415432958e-13,3.569027842e-14,2.232229346e-14
0.69531,1.826719962e-13,1.790622703e-13,2.650696723e-13,3.013936264e-13,1.221586487e-13,4.542937388e-14,1.944382206e-13,9.959559734e-14,8.132620206e-14,9.753005739e-14,1.904664663e-13,5.744256045e-14,1.341361034e-13,1.165328803e-13,3.554630724e-13,4.874391093e-13,2.154673194e-13,2.362985266e-13,1.686635039e-13,1.619149797e-13,9.058313664e-14,8.204773323e-14,4.492546718e-14,1.226413549e-13,5.630269377e-14,1.863622054e-14,1.114984899e-13,8.755416683e-14,2.063345530e-13,1.631737101e-13,3.987532117e-14,2.577067425e-14
0.70312,2.092835408e-13,2.014142727e-13,2.447173559e-13,2.803108961e-13,1.132473674e-13,4.613635840e-14,2.076128779e-13,1.004476002e-13,9.237269000e-14,1.066049752e-13,2.064474899e-13,6.725970320e-14,1.564655547e-13,1.504466695e-13,3.941181495e-13,5.597519927e-13,2.480679604e-13,2.571007108e-13,1.778084349e-13,1.714876735e-13,9.612282004e-14,9.128486664e-14,5.022111423e-14,1.298450663e-13,5.766809773e-14,1.599957536e-14,1.035185465e-13,1.103863812e-13,2.156096440e-13,1.908407237e-13,4.799196475e-14,3.037584510e-14
0.71094,2.394767571e-13,2.262594471e-13,2.253805954e-13,2.613174232e-13,1.043565159e-13,4.767778371e-14,2.216192741e-13,1.018676222e-13,1.065508480e-13,1.157945654e-13,2.257938693e-13,7.964076767e-14,1.845839310e-13,1.916760681e-13,4.404221011e-13,6.398474368e-13,2.843861935e-13,2.829220862e-13,1.898603502e-13,1.793694159e-13,1.016779571e-13,1.024491322e-13,5.616190912e-14,1.376287613e-13,6.065732718e-14,1.420716468e-14,9.684462035e-14,1.384589904e-13,2.259895622e-13,2.237888296e-13,6.010885154e-14,3.650337410e-14
0.71875,2.758607662e-13,2.559924758e-13,2.104678116e-13,2.463831860e-13,9.675528205e-14,5.046710952e-14,2.353729866e-13,1.043491521e-13,1.244221414e-13,1.252676279e-13,2.474592149e-13,9.528587925e-14,2.197077738e-13,2.413376213e-13,4.965409298e-13,7.303577186e-13,3.274818443e-13,3.167995319e-13,2.062664210e-13,1.864005341e-13,1.073311671e-13,1.157466529e-13,6.254849897e-14,1.458886018e-13,6.634176549e-14,1.402477041e-14,9.228530125e-14,1.724023181e-13,2.383790294e-13,2.622228438e-13,7.634333747e-14,4.441512529e-14
0.72656,3.201967994e-13,2.916668859e-13,2.016593753e-13,2.375482118e-13,9.127970513e-14,5.460985866e-14,2.493605713e-13,1.075791707e-13,1.453010112e-13,1.342649452e-13,2.684161039e-13,1.137723953e-13,2.620181915e-13,3.001497024e-13,5.634627270e-13,8.335503649e-13,3.799795817e-13,3.616772016e-13,2.286687679e-13,1.929529863e-13,1.136578132e-13,1.309275721e-13,6.918479040e-14,1.540448986e-13,7.449098728e-14,1.566922750e-14,9.142316140e-14,2.121633211e-13,2.526878187e-13,3.064025458e-13,9.692243314e-14,5.369273255e-14
0.73438,3.716200660e-13,3.313635888e-13,2.004518620e-13,2.328340190e-13,8.765959796e-14,5.991431205e-14,2.613885563e-13,1.108581606e-13,1.685560624e-13,1.415302412e-13,2.862450484e-13,1.351115294e-13,3.103991356e-13,3.681348020e-13,6.399193355e-13,9.475029863e-13,4.408081304e-13,4.173818877e-13,2.559100833e-13,1.978563243e-13,1.202372586e-13,1.467794227e-13,7.573216599e-14,1.624439249e-13,8.536091775e-14,1.929108439e-14,9.565059088e-14,2.567145846e-13,2.681035699e-13,3.559997938e-13,1.209733134e-13,6.397279220e-14
0.74219,4.276190117e-13,3.730021900e-13,2.041503585e-13,2.296656538e-13,8.548137740e-14,6.591129132e-14,2.703591727e-13,1.132576309e-13,1.929324597e-13,1.455840008e-13,2.978353835e-13,1.596922537e-13,3.629346404e-13,4.460274136e-13,7.254431041e-13,1.071164338e-12,5.100079457e-13,4.832042471e-13,2.861962079e-13,2.010763933e-13,1.259345440e-13,1.617000797e-13,8.175282096e-14,1.726317982e-13,9.996553362e-14,2.540362001e-14,1.068477806e-13,3.058660964e-13,2.875639011e-13,4.132471620e-13,1.475101270e-13,7.476761726e-14
0.75,4.895703472e-13,4.179320393e-13,2.132821382e-13,2.285912562e-13,8.442258848e-14,7.267474624e-14,2.741293841e-13,1.152890328e-13,2.180538673e-13,1.473329075e-13,3.037391310e-13,1.886912619e-13,4.185675305e-13,5.349402243e-13,8.203644099e-13,1.205985111e-12,5.889603775e-13,5.596246666e-13,3.188358540e-13,2.023714385e-13,1.302913513e-13,1.754025498e-13,8.743150612e-14,1.844431343e-13,1.179687462e-13,3.437551273e-14,1.261168329e-13,3.614523739e-13,3.130541857e-13,4.802968457e-13,1.762973160e-13,8.625489218e-14
0.75781,5.556522819e-13,4.647131935e-13,2.281801748e-13,2.302167070e-13,8.487539816e-14,8.050594418e-14,2.745472439e-13,1.168754346e-13,2.431408377e-13,1.469873876e-13,3.044762277e-13,2.206253749e-13,4.758319372e-13,6.326351393e-13,9.218671978e-13,1.352137859e-12,6.784297440e-13,6.449782845e-13,3.521182876e-13,2.031255392e-13,1.331434711e-13,1.873797237e-13,9.260632534e-14,1.970221353e-13,1.387388041e-13,4.610338841e-14,1.516148875e-13,4.204509945e-13,3.423422101e-13,5.532289050e-13,2.062031562e-13,9.824927682e-14
0.76562,6.227342336e-13,5.120413985e-13,2.469206941e-13,2.339750252e-13,8.702058479e-14,8.948506485e-14,2.729344043e-13,1.173758705e-13,2.671431774e-13,1.441641254e-13,2.983568215e-13,2.538549823e-13,5.341378323e-13,7.377223677e-13,1.028209549e-12,1.508097687e-12,7.779622054e-13,7.368378238e-13,3.843688010e-13,2.040272246e-13,1.342450568e-13,1.968354075e-13,9.703089229e-14,2.100393047e-13,1.621232905e-13,6.040601506e-14,1.817885002e-13,4.783436121e-13,3.712193421e-13,6.259937938e-13,2.356233068e-13,1.107781675e-13
0.77344,6.894451128e-13,5.592600817e-13,2.670921042e-13,2.390320457e-13,9.029740645e-14,9.941658177e-14,2.686760561e-13,1.171271982e-13,2.895252020e-13,1.402695588e-13,2.854070838e-13,2.883818201e-13,5.928338291e-13,8.498906047e-13,1.139598970e-12,1.672389803e-12,8.845791261e-13,8.326874420e-13,4.139955289e-13,2.052295628e-13,1.331645384e-13,2.026439045e-13,1.000440246e-13,2.231320941e-13,1.874199026e-13,7.716823313e-14,2.165328719e-13,5.348622331e-13,4.015613014e-13,6.994356891e-13,2.649163982e-13,1.238611471e-13
0.78125,7.537653615e-13,6.053509205e-13,2.859604300e-13,2.444325271e-13,9.454006706e-14,1.098192255e-13,2.634057032e-13,1.160535609e-13,3.099249210e-13,1.368585366e-13,2.684233666e-13,3.241289180e-13,6.507692228e-13,9.670336676e-13,1.253823357e-12,1.840879588e-12,9.955008913e-13,9.306031224e-13,4.398574886e-13,2.076850658e-13,1.291690382e-13,2.044239224e-13,1.013122621e-13,2.356932390e-13,2.137764394e-13,9.603841203e-14,2.569693900e-13,5.924418445e-13,4.360406455e-13,7.753261375e-13,2.940103805e-13,1.367005167e-13
0.78906,8.149317753e-13,6.482895073e-13,3.045913573e-13,2.493894795e-13,9.926062026e-14,1.198526670e-13,2.567065079e-13,1.137536140e-13,3.278153677e-13,1.348309057e-13,2.525304976e-13,3.601202310e-13,7.056033931e-13,1.085864108e-12,1.366624839e-12,2.006916388e-12,1.106875647e-12,1.026313803e-12,4.608145258e-13,2.111620828e-13,1.228838435e-13,2.031124356e-13,1.021651693e-13,2.481919689e-13,2.419065035e-13,1.159314305e-13,3.018705490e-13,6.502492246e-13,4.720799343e-13,8.506040067e-13,3.207566332e-13,1.491022740e-13
0.79688,8.679798988e-13,6.843075522e-13,3.203348791e-13,2.555627115e-13,1.040052159e-13,1.297572151e-13,2.491165272e-13,1.106114840e-13,3.422013562e-13,1.339100431e-13,2.385787202e-13,3.936934354e-13,7.527829540e-13,1.201066146e-12,1.473871800e-12,2.166013159e-12,1.215116265e-12,1.114381974e-12,4.756594208e-13,2.152504740e-13,1.150900684e-13,1.994230845e-13,1.033925495e-13,2.604402138e-13,2.706004700e-13,1.361730220e-13,3.471868107e-13,7.039017284e-13,5.037351238e-13,9.163848326e-13,3.437457201e-13,1.615248634e-13
0.80469,9.108833918e-13,7.109085805e-13,3.336710569e-13,2.633327268e-13,1.089031403e-13,1.403200559e-13,2.407607462e-13,1.082582057e-13,3.524361805e-13,1.339757577e-13,2.262751643e-13,4.227162900e-13,7.890164142e-13,1.308122437e-12,1.572003625e-12,2.311321774e-12,1.313594407e-12,1.188617129e-12,4.835198684e-13,2.198048561e-13,1.060279650e-13,1.941119854e-13,1.049593222e-13,2.710198250e-13,2.972399727e-13,1.564255132e-13,3.901864530e-13,7.489719963e-13,5.274310614e-13,9.662191658e-13,3.621327211e-13,1.744482171e-13
0.8125,9.395294746e-13,7.251381361e-13,3.442267939e-13,2.719520116e-13,1.136272331e-13,1.516665352e-13,2.308692498e-13,1.075392963e-13,3.575548438e-13,1.349155751e-13,2.158742784e-13,4.453940665e-13,8.125225033e-13,1.401947871e-12,1.655217509e-12,2.433855216e-12,1.396615319e-12,1.243410543e-12,4.842761177e-13,2.242793176e-13,9.645004202e-14,1.873986116e-13,1.068202853e-13,2.788443121e-13,3.197095740e-13,1.765721382e-13,4.262591044e-13,7.815834401e-13,5.424809976e-13,9.960529221e-13,3.756073522e-13,1.874767714e-13
0.82031,9.502304260e-13,7.279271591e-13,3.491629274e-13,2.812538750e-13,1.183246970e-13,1.634260434e-13,2.204634473e-13,1.087524159e-13,3.578032704e-13,1.362644449e-13,2.073745046e-13,4.611506874e-13,8.235806016e-13,1.478049740e-12,1.719103629e-12,2.529062033e-12,1.464130951e-12,1.278320650e-12,4.784272971e-13,2.289247814e-13,8.620340003e-14,1.789007283e-13,1.085847173e-13,2.839731789e-13,3.364653412e-13,1.954913108e-13,4.516424713e-13,8.023019294e-13,5.471023598e-13,1.003701804e-12,3.825687029e-13,1.997538077e-13
0.82812,9.422558493e-13,7.209359062e-13,3.483728964e-13,2.909876269e-13,1.230220594e-13,1.756797418e-13,2.083384993e-13,1.120821090e-13,3.535035291e-13,1.372651232e-13,2.019032354e-13,4.691010642e-13,8.227855432e-13,1.533102226e-12,1.761802849e-12,2.596110229e-12,1.516980211e-12,1.293492924e-12,4.668021704e-13,2.340580590e-13,7.549482326e-14,1.686349435e-13,1.100832797e-13,2.870984047e-13,3.478036146e-13,2.124684833e-13,4.676673511e-13,8.110150664e-13,5.427998709e-13,9.918443090e-13,3.823436001e-13,2.113692894e-13
0.83594,9.149684264e-13,7.052270136e-13,3.391540441e-13,3.015738876e-13,1.278338115e-13,1.892035219e-13,1.941611034e-13,1.174264990e-13,3.446930642e-13,1.378626180e-13,1.999254385e-13,4.690488321e-13,8.110635777e-13,1.566271334e-12,1.782794708e-12,2.634459126e-12,1.554192618e-12,1.288166719e-12,4.498089424e-13,2.388139272e-13,6.507606955e-14,1.571155453e-13,1.116933307e-13,2.879420638e-13,3.552275947e-13,2.278729189e-13,4.770876830e-13,8.089201659e-13,5.317062351e-13,9.630340031e-13,3.760869237e-13,2.227182276e-13
0.84375,8.714816453e-13,6.812024523e-13,3.231746836e-13,3.111171928e-13,1.324388108e-13,2.032869821e-13,1.820227430e-13,1.241167153e-13,3.321207268e-13,1.386146196e-13,2.027345674e-13,4.623649151e-13,7.893517916e-13,1.578377629e-12,1.783318075e-12,2.640918430e-12,1.573882307e-12,1.260756852e-12,4.273880248e-13,2.427577621e-13,5.504185083e-14,1.449539341e-13,1.128795656e-13,2.860408658e-13,3.577574780e-13,2.404324391e-13,4.784330184e-13,7.984164235e-13,5.125381995e-13,9.169728807e-13,3.635478237e-13,2.328874989e-13
0.85156,8.150009853e-13,6.474872796e-13,3.039847347e-13,3.195689906e-13,1.360088190e-13,2.170146797e-13,1.727327154e-13,1.316267851e-13,3.173248044e-13,1.391481109e-13,2.094032249e-13,4.486013175e-13,7.582751177e-13,1.567244850e-12,1.757612845e-12,2.612191283e-12,1.577740884e-12,1.213540666e-12,4.012767914e-13,2.469569719e-13,4.562522959e-14,1.327714758e-13,1.122796096e-13,2.813225032e-13,3.544722538e-13,2.487268197e-13,4.669753703e-13,7.776262013e-13,4.842287071e-13,8.538554651e-13,3.442630214e-13,2.415292127e-13
0.85938,7.470065619e-13,6.036971716e-13,2.801552643e-13,3.278174832e-13,1.380784685e-13,2.300436093e-13,1.643706577e-13,1.388880555e-13,3.006223715e-13,1.377219092e-13,2.168047670e-13,4.271084845e-13,7.177960800e-13,1.532874995e-12,1.705567518e-12,2.550168569e-12,1.567101718e-12,1.150105181e-12,3.725186259e-13,2.514444009e-13,3.740133268e-14,1.206027090e-13,1.093413166e-13,2.741173203e-13,3.462754489e-13,2.526078669e-13,4.405031784e-13,7.423215979e-13,4.469195062e-13,7.752199578e-13,3.196553887e-13,2.486287493e-13
0.86719,6.713233730e-13,5.523362629e-13,2.545881027e-13,3.357751777e-13,1.393541472e-13,2.424472294e-13,1.547004692e-13,1.461217169e-13,2.827230181e-13,1.342739396e-13,2.228478214e-13,4.000005935e-13,6.695848523e-13,1.480521350e-12,1.634177055e-12,2.460339725e-12,1.542041834e-12,1.074404620e-12,3.414426844e-13,2.554633564e-13,3.048779970e-14,1.086459915e-13,1.044512934e-13,2.664573214e-13,3.360872160e-13,2.527333467e-13,4.066505858e-13,6.965904584e-13,4.036115676e-13,6.867458886e-13,2.925728802e-13,2.537594215e-13
0.875,5.912247448e-13,4.961110750e-13,2.278871240e-13,3.419561277e-13,1.409515854e-13,2.526059229e-13,1.457077904e-13,1.534395894e-13,2.643255666e-13,1.310391544e-13,2.293483705e-13,3.697664035e-13,6.164312104e-13,1.413729607e-12,1.544964966e-12,2.347298410e-12,1.501974413e-12,9.917789846e-13,3.091430674e-13,2.583674466e-13,2.476964923e-14,9.714506077e-14,9.852204832e-14,2.576552351e-13,3.252097331e-13,2.497262432e-13,3.723117656e-13,6.534633923e-13,3.600186514e-13,5.975751829e-13,2.644799115e-13,2.557764241e-13
0.88281,5.105358921e-13,4.385908550e-13,1.995579385e-13,3.472484696e-13,1.433227267e-13,2.594792319e-13,1.419256090e-13,1.598495300e-13,2.458200412e-13,1.290002873e-13,2.395492282e-13,3.375276116e-13,5.609123609e-13,1.333808679e-12,1.441064342e-12,2.215743155e-12,1.450376889e-12,9.065031594e-13,2.767820927e-13,2.611444621e-13,2.040247879e-14,8.636676603e-14,9.201849501e-14,2.468642270e-13,3.138923078e-13,2.428865278e-13,3.380234318e-13,6.128734219e-13,3.183281571e-13,5.112310062e-13,2.355197276e-13,2.539983444e-13
0.89062,4.337572735e-13,3.836643903e-13,1.730616478e-13,3.528253983e-13,1.457868775e-13,2.634285741e-13,1.449427194e-13,1.647642949e-13,2.282481301e-13,1.279353326e-13,2.529984058e-13,3.043759294e-13,5.059988696e-13,1.243549031e-12,1.327808420e-12,2.073506338e-12,1.391310723e-12,8.236028065e-13,2.461197424e-13,2.645504229e-13,1.790333498e-14,7.668976967e-14,8.449921827e-14,2.353621468e-13,3.026598423e-13,2.318911666e-13,3.033074685e-13,5.669352905e-13,2.802274621e-13,4.298117761e-13,2.075733954e-13,2.486972049e-13
0.89844,3.626261099e-13,3.340116218e-13,1.512748097e-13,3.602924336e-13,1.485732985e-13,2.640226992e-13,1.533556698e-13,1.670763584e-13,2.112244763e-13,1.273800379e-13,2.671061542e-13,2.715652086e-13,4.535652298e-13,1.146563725e-12,1.208293603e-12,1.925476461e-12,1.323486848e-12,7.455673854e-13,2.179774608e-13,2.667110629e-13,1.739374173e-14,6.803068500e-14,7.614122238e-14,2.234868339e-13,2.928987628e-13,2.172559527e-13,2.718103815e-13,5.203307896e-13,2.472138015e-13,3.556870322e-13,1.820079210e-13,2.393208438e-13
0.90625,2.982952669e-13,2.891405692e-13,1.361627743e-13,3.681238164e-13,1.527085031e-13,2.593021685e-13,1.649376693e-13,1.669659203e-13,1.947709693e-13,1.274632293e-13,2.799424472e-13,2.407322351e-13,4.042124749e-13,1.046658650e-12,1.086018275e-12,1.772713303e-12,1.246807773e-12,6.730414293e-13,1.926279198e-13,2.654109957e-13,1.888751805e-14,6.048196371e-14,6.805050831e-14,2.105606011e-13,2.863298367e-13,1.992927365e-13,2.471681898e-13,4.873824299e-13,2.193858803e-13,2.925504959e-13,1.570318399e-13,2.253184510e-13
0.91406,2.405312552e-13,2.473404602e-13,1.265462421e-13,3.773007797e-13,1.588544311e-13,2.499148101e-13,1.801862373e-13,1.656656139e-13,1.790225343e-13,1.292114352e-13,2.930093703e-13,2.123736499e-13,3.578404597e-13,9.447503993e-13,9.619668325e-13,1.616778075e-12,1.165383585e-12,6.075590880e-13,1.707352375e-13,2.600607448e-13,2.256933519e-14,5.422922895e-14,6.092403271e-14,1.962689079e-13,2.834398092e-13,1.790675482e-13,2.288587680e-13,4.691854860e-13,1.982444046e-13,2.424358872e-13,1.320732831e-13,2.074626180e-13
0.92188,1.908380888e-13,2.106487830e-13,1.230879197e-13,3.910427555e-13,1.670437262e-13,2.381884128e-13,2.006084330e-13,1.634628037e-13,1.642308928e-13,1.328612080e-13,3.089712085e-13,1.868459408e-13,3.158118658e-13,8.430497736e-13,8.392195621e-13,1.463483212e-12,1.085389999e-12,5.515395553e-13,1.532872384e-13,2.525952945e-13,2.807643885e-14,4.928047450e-14,5.471219236e-14,1.813776228e-13,2.838489705e-13,1.581976995e-13,2.141381178e-13,4.570160504e-13,1.822712403e-13,2.023955495e-13,1.088405621e-13,1.875588863e-13
0.92969,1.505950786e-13,1.809499517e-13,1.281757778e-13,4.110680521e-13,1.772190089e-13,2.254468144e-13,2.264308777e-13,1.609101221e-13,1.507074325e-13,1.385553030e-13,3.272151680e-13,1.649074249e-13,2.786792363e-13,7.452516991e-13,7.220196060e-13,1.317957442e-12,1.012255536e-12,5.058483946e-13,1.404004840e-13,2.456679811e-13,3.573708325e-14,4.556296407e-14,4.945106577e-14,1.672840321e-13,2.886269805e-13,1.381615195e-13,2.030542017e-13,4.491795478e-13,1.697914813e-13,1.703770732e-13,8.927269796e-14,1.667951017e-13
0.9375,1.193450159e-13,1.585380104e-13,1.407069038e-13,4.353031809e-13,1.889222169e-13,2.112339055e-13,2.576228100e-13,1.580823685e-13,1.379334506e-13,1.469617316e-13,3.485165908e-13,1.468672677e-13,2.460137827e-13,6.530456184e-13,6.117492922e-13,1.181049328e-12,9.482518116e-13,4.697329500e-13,1.315889577e-13,2.407146882e-13,4.629730317e-14,4.286570972e-14,4.562920034e-14,1.547519087e-13,2.989229543e-13,1.201673965e-13,1.977326594e-13,4.528267611e-13,1.629994205e-13,1.484590762e-13,7.376232149e-14,1.453048368e-13
0.94531,9.737375520e-14,1.427485842e-13,1.611004530e-13,4.604626989e-13,2.022799560e-13,1.954309487e-13,2.947103644e-13,1.554553090e-13,1.260985617e-13,1.579889899e-13,3.728767858e-13,1.330390856e-13,2.181589643e-13,5.685956697e-13,5.113945863e-13,1.053769302e-12,8.925166910e-13,4.426909870e-13,1.262311686e-13,2.346325374e-13,5.845271199e-14,4.129841765e-14,4.337361487e-14,1.429342696e-13,3.162111885e-13,1.053612488e-13,1.997577801e-13,4.654572087e-13,1.620113479e-13,1.367814899e-13,6.101939314e-14,1.241330213e-13
0.95312,8.401337976e-14,1.333325636e-13,1.905886129e-13,4.845913638e-13,2.170018799e-13,1.787450843e-13,3.366780432e-13,1.539171995e-13,1.160794306e-13,1.710610517e-13,3.984299213e-13,1.233720238e-13,1.953154442e-13,4.935979834e-13,4.236351588e-13,9.368387152e-13,8.446463057e-13,4.228731895e-13,1.230062804e-13,2.264890021e-13,7.035040595e-14,4.090031223e-14,4.218417967e-14,1.317868013e-13,3.399037206e-13,9.377357349e-14,2.074852685e-13,4.824536568e-13,1.638131757e-13,1.315898669e-13,5.029372632e-14,1.044776106e-13
0.96094,7.821863972e-14,1.309417616e-13,2.272937657e-13,5.073385989e-13,2.321815464e-13,1.622855158e-13,3.818629574e-13,1.533799407e-13,1.076599022e-13,1.859423803e-13,4.245962049e-13,1.175585390e-13,1.767537643e-13,4.283416871e-13,3.488391210e-13,8.313700088e-13,8.075507013e-13,4.105457377e-13,1.215103714e-13,2.188734987e-13,8.136610841e-14,4.109011035e-14,4.173230399e-14,1.215919952e-13,3.691023590e-13,8.534392041e-14,2.186290585e-13,4.960729197e-13,1.647794411e-13,1.271466212e-13,4.219046639e-14,8.713508580e-14
0.96875,7.901523808e-14,1.345667574e-13,2.680139915e-13,5.274740577e-13,2.465769022e-13,1.460801241e-13,4.272838934e-13,1.535578214e-13,1.007718647e-13,2.018940510e-13,4.497985888e-13,1.154111982e-13,1.624941505e-13,3.739025604e-13,2.867732534e-13,7.380644389e-13,7.802487031e-13,4.058812387e-13,1.220061531e-13,2.136928899e-13,9.228121365e-14,4.228402152e-14,4.277162427e-14,1.137939341e-13,4.019202240e-13,8.015629303e-14,2.293713264e-13,5.090681131e-13,1.638104900e-13,1.239115164e-13,3.714718702e-14,7.232470801e-14
0.97656,8.436808642e-14,1.397477308e-13,3.093400582e-13,5.398925386e-13,2.586493473e-13,1.301867619e-13,4.692679362e-13,1.541069982e-13,9.530178842e-14,2.175987474e-13,4.710884852e-13,1.161205343e-13,1.513425156e-13,3.295206875e-13,2.370378433e-13,6.537587900e-13,7.583398164e-13,4.043206287e-13,1.231514251e-13,2.111105454e-13,1.032137126e-13,4.443512211e-14,4.529738186e-14,1.094459809e-13,4.340272034e-13,7.824235884e-14,2.380101861e-13,5.171989050e-13,1.615632534e-13,1.222089304e-13,3.458734850e-14,6.009044089e-14
0.98438,9.245905410e-14,1.446609736e-13,3.481519689e-13,5.423705579e-13,2.687592152e-13,1.156575925e-13,5.080496184e-13,1.547474709e-13,9.074198945e-14,2.322493376e-13,4.869428647e-13,1.192640155e-13,1.427462380e-13,2.951025781e-13,1.997265344e-13,5.796107103e-13,7.439597344e-13,4.063325243e-13,1.249875029e-13,2.106516826e-13,1.134861016e-13,4.707235257e-14,4.877562587e-14,1.074347281e-13,4.619049233e-13,7.917222626e-14,2.455288720e-13,5.184699485e-13,1.584348736e-13,1.211371898e-13,3.497341032e-14,5.023663013e-14
0.99219,1.019946248e-13,1.500173842e-13,3.793073070e-13,5.359896894e-13,2.777590430e-13,1.025605942e-13,5.451110810e-13,1.554151584e-13,8.721389173e-14,2.458703740e-13,4.962925740e-13,1.251234164e-13,1.376317243e-13,2.706444360e-13,1.726811706e-13,5.162952607e-13,7.360549488e-13,4.125845555e-13,1.276762429e-13,2.113021254e-13,1.225945718e-13,4.967656207e-14,5.217786802e-14,1.057853665e-13,4.799892349e-13,8.055202135e-14,2.534161714e-13,5.155896174e-13,1.557458915e-13,1.218353183e-13,3.833059040e-14,4.224251374e-14
1,1.117884312e-13,1.549268519e-13,4.027322755e-13,5.217375141e-13,2.868091851e-13,9.055190900e-14,5.812583943e-13,1.564009874e-13,8.471351527e-14,2.584019064e-13,4.994783924e-13,1.321934206e-13,1.357426688e-13,2.527227967e-13,1.520630654e-13,4.596088437e-13,7.317207679e-13,4.204392868e-13,1.310909409e-13,2.130510272e-13,1.315460394e-13,5.227488890e-14,5.588487736e-14,1.037042144e-13,4.856637268e-13,8.158774483e-14,2.643559874e-13,5.056843943e-13,1.543417558e-13,1.234250324e-13,4.360983783e-14,3.595907428e-14
1.0078,1.213844759e-13,1.575635730e-13,4.217364868e-13,5.018828758e-13,2.972582999e-13,8.007978655e-14,6.163488280e-13,1.578421103e-13,8.278222252e-14,2.699816450e-13,4.989699654e-13,1.392070681e-13,1.358408294e-13,2.385237577e-13,1.355764204e-13,4.074070301e-13,7.311211938e-13,4.286661027e-13,1.349409295e-13,2.163937252e-13,1.413920247e-13,5.539382107e-14,6.102308661e-14,1.020816788e-13,4.797981107e-13,8.301612487e-14,2.769195214e-13,4.803361623e-13,1.558683247e-13,1.247802740e-13,5.050054488e-14,3.141858645e-14
1.0156,1.300810927e-13,1.565683194e-13,4.361544176e-13,4.770831108e-13,3.087178626e-13,7.114560180e-14,6.484472387e-13,1.595804585e-13,8.170639749e-14,2.809759464e-13,4.950000310e-13,1.468300172e-13,1.379258659e-13,2.280995116e-13,1.232265859e-13,3.609863238e-13,7.347419228e-13,4.372168513e-13,1.395283156e-13,2.216122977e-13,1.531066311e-13,5.941237278e-14,6.822672118e-14,1.014935320e-13,4.622982095e-13,8.479905380e-14,2.844488091e-13,4.444476959e-13,1.608906218e-13,1.272066983e-13,5.883844632e-14,2.828600330e-14
1.0234,1.364983963e-13,1.527831787e-13,4.410190171e-13,4.503073427e-13,3.205308136e-13,6.389417412e-14,6.751293631e-13,1.616830921e-13,8.182412146e-14,2.913815455e-13,4.886349048e-13,1.552887009e-13,1.415702363e-13,2.207372077e-13,1.141196138e-13,3.212190463e-13,7.444336136e-13,4.467463467e-13,1.447893800e-13,2.296740816e-13,1.677354115e-13,6.380256198e-14,7.791414287e-14,1.027495239e-13,4.337792228e-13,8.668790559e-14,2.824211750e-13,4.071435988e-13,1.671679680e-13,1.298088903e-13,6.758920053e-14,2.627456855e-14
1.0312,1.415210334e-13,1.494437143e-13,4.333842033e-13,4.263414334e-13,3.320395520e-13,5.855841206e-14,6.944311112e-13,1.632561139e-13,8.261721854e-14,3.005180890e-13,4.811977173e-13,1.639812164e-13,1.465056918e-13,2.153049558e-13,1.067057940e-13,2.890508084e-13,7.642541183e-13,4.605349385e-13,1.521008651e-13,2.424691288e-13,1.864291296e-13,6.809758938e-14,8.940723679e-14,1.060727544e-13,3.968870450e-13,8.798551341e-14,2.727309397e-13,3.708195928e-13,1.736641734e-13,1.321056944e-13,7.637170657e-14,2.511570844e-14
1.0391,1.466241333e-13,1.483317927e-13,4.182306263e-13,4.082797993e-13,3.441632158e-13,5.479914459e-14,7.085655390e-13,1.649933837e-13,8.411180744e-14,3.088796871e-13,4.725386318e-13,1.731132145e-13,1.538724796e-13,2.128302206e-13,1.006526865e-13,2.647585160e-13,7.923318176e-13,4.789947396e-13,1.616604598e-13,2.589126332e-13,2.089492325e-13,7.237721827e-14,1.013500553e-13,1.114136776e-13,3.550118659e-13,8.832800582e-14,2.599173974e-13,3.382233921e-13,1.822330345e-13,1.350131846e-13,8.618192244e-14,2.429979745e-14
1.0469,1.505569797e-13,1.473852886e-13,4.019539594e-13,3.937641962e-13,3.569818318e-13,5.182288505e-14,7.204350233e-13,1.670530050e-13,8.664156345e-14,3.177277457e-13,4.648101184e-13,1.829273206e-13,1.626261420e-13,2.122976155e-13,9.472494549e-14,2.459971091e-13,8.205926454e-13,4.971468460e-13,1.711719870e-13,2.768249482e-13,2.334926883e-13,7.684906517e-14,1.132382268e-13,1.190189638e-13,3.126153934e-13,8.858077370e-14,2.439670807e-13,3.105285836e-13,1.911598293e-13,1.366157985e-13,9.661498690e-14,2.404402419e-14
1.0547,1.524905138e-13,1.455669453e-13,3.856253994e-13,3.824091964e-13,3.701999571e-13,4.920170718e-14,7.297402999e-13,1.693633094e-13,8.965995751e-14,3.280248672e-13,4.609627673e-13,1.927769758e-13,1.698649182e-13,2.116324500e-13,8.880049642e-14,2.317647131e-13,8.482672126e-13,5.132459985e-13,1.795777302e-13,2.964437087e-13,2.588459162e-13,8.110003735e-14,1.251157718e-13,1.295789173e-13,2.742456920e-13,8.872948966e-14,2.231874808e-13,2.851079046e-13,1.962291374e-13,1.338438373e-13,1.053561090e-13,2.404145067e-14
1.0625,1.531085872e-13,1.448070834e-13,3.662389161e-13,3.740674605e-13,3.828160088e-13,4.674906093e-14,7.358634344e-13,1.714978735e-13,9.215716369e-14,3.392157514e-13,4.612990130e-13,2.013489758e-13,1.748385161e-13,2.103242021e-13,8.401233523e-14,2.224648035e-13,8.781719795e-13,5.300887645e-13,1.875097476e-13,3.185511170e-13,2.840827441e-13,8.456183665e-14,1.363888824e-13,1.431714140e-13,2.416423966e-13,8.840214944e-14,2.006487339e-13,2.564566625e-13,1.968256738e-13,1.270183722e-13,1.105814804e-13,2.384414400e-14
1.0703,1.533630153e-13,1.469897656e-13,3.458281043e-13,3.677042145e-13,3.928319120e-13,4.431355458e-14,7.377351843e-13,1.728312913e-13,9.432075907e-14,3.496935497e-13,4.644682513e-13,2.085227165e-13,1.794532225e-13,2.091498267e-13,8.058652881e-14,2.176138781e-13,9.071037755e-13,5.464633538e-13,1.948338163e-13,3.420641983e-13,3.081328546e-13,8.760378979e-14,1.456912623e-13,1.590636259e-13,2.144511077e-13,8.784208307e-14,1.808454945e-13,2.257899475e-13,1.974212473e-13,1.205237514e-13,1.127065657e-13,2.391245946e-14
1.0781,1.536263106e-13,1.527763528e-13,3.252907761e-13,3.623810400e-13,3.990146786e-13,4.215448878e-14,7.346253643e-13,1.731065412e-13,9.676024561e-14,3.586842626e-13,4.673004761e-13,2.149450736e-13,1.847761764e-13,2.089853976e-13,7.856386470e-14,2.168409253e-13,9.317474920e-13,5.601872886e-13,2.004208043e-13,3.659391202e-13,3.291673721e-13,9.008712385e-14,1.518406833e-13,1.757697219e-13,1.913742668e-13,8.699992489e-14,1.645457744e-13,1.975324827e-13,1.975280498e-13,1.150383540e-13,1.128335210e-13,2.445897749e-14
1.0859,1.537939430e-13,1.602063602e-13,3.057553982e-13,3.547354359e-13,4.002125356e-13,3.968995584e-14,7.260203615e-13,1.717023281e-13,9.903841413e-14,3.656516146e-13,4.672996666e-13,2.203262354e-13,1.894139365e-13,2.083906699e-13,7.755905561e-14,2.206111670e-13,9.519277431e-13,5.707576220e-13,2.037227378e-13,3.890545805e-13,3.453043809e-13,9.138882685e-14,1.542698059e-13,1.915662163e-13,1.712425104e-13,8.580151904e-14,1.514392195e-13,1.745055131e-13,1.931000998e-13,1.088384913e-13,1.106253403e-13,2.515854524e-14
1.0938,1.544833307e-13,1.687223091e-13,2.871800399e-13,3.443112571e-13,3.967282579e-13,3.734918236e-14,7.119841249e-13,1.679758808e-13,9.984005831e-14,3.697555554e-13,4.637157395e-13,2.234290214e-13,1.920277823e-13,2.066284169e-13,7.761996684e-14,2.297663727e-13,9.655100089e-13,5.786244207e-13,2.050719406e-13,4.092488813e-13,3.550975597e-13,9.123327466e-14,1.533399353e-13,2.049476495e-13,1.549389288e-13,8.446949337e-14,1.408336585e-13,1.572690207e-13,1.809004419e-13,9.958478366e-14,1.058532267e-13,2.535392724e-14
1.1016,1.570884105e-13,1.780730978e-13,2.722712398e-13,3.301265394e-13,3.875085546e-13,3.522280948e-14,6.914368831e-13,1.608768389e-13,9.835291603e-14,3.693184619e-13,4.557400974e-13,2.233275790e-13,1.927244153e-13,2.046920238e-13,7.990481236e-14,2.431529620e-13,9.690428923e-13,5.827227875e-13,2.049885210e-13,4.249397534e-13,3.584227771e-13,9.012815931e-14,1.501430342e-13,2.148342842e-13,1.427780253e-13,8.369198175e-14,1.320213525e-13,1.405023573e-13,1.633736125e-13,8.890369773e-14,9.980883365e-14,2.510617704e-14
1.1094,1.608815273e-13,1.872424999e-13,2.591422307e-13,3.114672216e-13,3.718013499e-13,3.305135923e-14,6.657567345e-13,1.516791004e-13,9.589313442e-14,3.644657717e-13,4.418944088e-13,2.207485610e-13,1.919063758e-13,2.024880127e-13,8.389068746e-14,2.594929622e-13,9.628219187e-13,5.829814203e-13,2.036429827e-13,4.353262749e-13,3.556871610e-13,8.846169481e-14,1.450609727e-13,2.199332475e-13,1.342529541e-13,8.308430829e-14,1.268502037e-13,1.252895421e-13,1.467367481e-13,8.106496122e-14,9.333603942e-14,2.479284363e-14
1.1172,1.652618723e-13,1.967763606e-13,2.445273951e-13,2.912493507e-13,3.513069333e-13,3.138123903e-14,6.353545652e-13,1.415286410e-13,9.285948046e-14,3.559900608e-13,4.215022988e-13,2.160160318e-13,1.888008508e-13,1.987240412e-13,8.879420825e-14,2.798158872e-13,9.501997661e-13,5.811001619e-13,2.009744850e-13,4.407952879e-13,3.471931068e-13,8.528756655e-14,1.375142536e-13,2.204602932e-13,1.293723868e-13,8.201244214e-14,1.275084716e-13,1.129514410e-13,1.312410474e-13,7.651472422e-14,8.724964035e-14,2.406576759e-14
1.125,1.712156622e-13,2.082862541e-13,2.297442993e-13,2.709866866e-13,3.273022126e-13,3.024155964e-14,5.996178118e-13,1.305035487e-13,8.887377891e-14,3.436393677e-13,3.952683029e-13,2.089017968e-13,1.831963286e-13,1.930317707e-13,9.623771376e-14,3.052401667e-13,9.334237746e-13,5.789693127e-13,1.974310579e-13,4.415286182e-13,3.339287158e-13,8.026296861e-14,1.271678074e-13,2.170690814e-13,1.265673305e-13,8.069468260e-14,1.329118408e-13,1.052068804e-13,1.154863964e-13,7.435452254e-14,8.207009610e-14,2.271963783e-14
1.1328,1.787989387e-13,2.207346789e-13,2.161337204e-13,2.516266916e-13,3.015775403e-13,2.994758983e-14,5.623529766e-13,1.189204260e-13,8.385098811e-14,3.282606231e-13,3.647171164e-13,1.996759551e-13,1.754703850e-13,1.863418951e-13,1.077121683e-13,3.355593644e-13,9.138396950e-13,5.787615247e-13,1.936159248e-13,4.366248694e-13,3.163477002e-13,7.365618820e-14,1.148477243e-13,2.089376061e-13,1.254039608e-13,8.018060810e-14,1.402480185e-13,1.023660581e-13,9.889192826e-14,7.249180043e-14,7.825083309e-14,2.072588062e-14
1.1406,1.868649122e-13,2.314027630e-13,2.033413012e-13,2.329737425e-13,2.748619778e-13,3.037937566e-14,5.249845572e-13,1.070023931e-13,7.833405499e-14,3.109047949e-13,3.325008969e-13,1.893034909e-13,1.666012931e-13,1.795270134e-13,1.223429238e-13,3.684943082e-13,8.924510476e-13,5.795212659e-13,1.891761092e-13,4.260755011e-13,2.964921265e-13,6.643211400e-14,1.022788441e-13,1.970481938e-13,1.268880469e-13,8.091700148e-14,1.490183446e-13,9.853370191e-14,8.457392924e-14,7.150620149e-14,7.652063838e-14,1.855737045e-14
1.1484,1.958622538e-13,2.400878300e-13,1.934393680e-13,2.147435444e-13,2.481836610e-13,3.104619442e-14,4.873471130e-13,9.532447722e-14,7.330184070e-14,2.920250947e-13,3.011026148e-13,1.788083745e-13,1.571831236e-13,1.731689948e-13,1.402315668e-13,4.020993762e-13,8.711873677e-13,5.808408947e-13,1.843302954e-13,4.107719057e-13,2.754216416e-13,5.899147104e-14,9.011749792e-14,1.842483265e-13,1.302355313e-13,8.244053356e-14,1.610351784e-13,9.539519146e-14,7.568623764e-14,7.337769090e-14,7.684203034e-14,1.632927368e-14
1.1562,2.046290411e-13,2.464231308e-13,1.849253374e-13,1.986637424e-13,2.239533094e-13,3.237012521e-14,4.499646623e-13,8.447730332e-14,6.914695616e-14,2.720239936e-13,2.720118957e-13,1.686073777e-13,1.470946582e-13,1.672356813e-13,1.613675571e-13,4.359049878e-13,8.504737054e-13,5.829557250e-13,1.787923743e-13,3.905068138e-13,2.537319622e-13,5.124986541e-14,7.835116759e-14,1.711879020e-13,1.332613011e-13,8.434573904e-14,1.742928950e-13,9.559729221e-14,7.116415497e-14,7.728345011e-14,7.851054996e-14,1.422134862e-14
1.1641,2.121684593e-13,2.501164580e-13,1.754640199e-13,1.833851845e-13,2.004100001e-13,3.402440628e-14,4.131499185e-13,7.417032610e-14,6.618589566e-14,2.512439668e-13,2.476106974e-13,1.594795621e-13,1.365403765e-13,1.621553142e-13,1.844275987e-13,4.669858407e-13,8.280260919e-13,5.836876669e-13,1.720335598e-13,3.669860327e-13,2.329580935e-13,4.371318140e-14,6.717460899e-14,1.584438393e-13,1.334202670e-13,8.587963588e-14,1.848384746e-13,1.006800461e-13,6.885190017e-14,8.215748337e-14,8.077520458e-14,1.257942717e-14
1.1719,2.197905581e-13,2.524276271e-13,1.670018964e-13,1.700237861e-13,1.786127271e-13,3.560675257e-14,3.779809422e-13,6.495617909e-14,6.432562096e-14,2.303287070e-13,2.282206497e-13,1.519042589e-13,1.259135203e-13,1.577095500e-13,2.056519610e-13,4.924157291e-13,8.065732232e-13,5.829308768e-13,1.648102771e-13,3.432238311e-13,2.141110687e-13,3.679093663e-14,5.717254191e-14,1.471125492e-13,1.328530979e-13,8.670831529e-14,1.936069413e-13,1.088121658e-13,6.786385595e-14,8.726556650e-14,8.286956738e-14,1.111303092e-14
1.1797,2.258797588e-13,2.534119384e-13,1.578154073e-13,1.597641921e-13,1.599899934e-13,3.754470474e-14,3.442953652e-13,5.664624832e-14,6.295214493e-14,2.099597726e-13,2.132704345e-13,1.455713929e-13,1.155244892e-13,1.541807475e-13,2.254178677e-13,5.120642789e-13,7.889421355e-13,5.816142326e-13,1.574726781e-13,3.202735775e-13,1.968521253e-13,3.051290927e-14,4.865083355e-14,1.378529627e-13,1.312158614e-13,8.661732046e-14,2.002921241e-13,1.185087112e-13,6.786515223e-14,9.251480173e-14,8.449448143e-14,9.807599347e-15
1.1875,2.294773396e-13,2.530970102e-13,1.483355815e-13,1.513115667e-13,1.425697464e-13,3.996671655e-14,3.123491156e-13,4.892459857e-14,6.145882056e-14,1.903166667e-13,2.030010682e-13,1.391732720e-13,1.050845690e-13,1.496749551e-13,2.419085672e-13,5.243985011e-13,7.736476771e-13,5.789753766e-13,1.495446183e-13,2.980457435e-13,1.811022361e-13,2.491520776e-14,4.073425235e-14,1.304071013e-13,1.269697545e-13,8.450246541e-14,2.042894353e-13,1.312192030e-13,6.791426654e-14,9.700713233e-14,8.467695472e-14,8.931873230e-15
1.1953,2.323889400e-13,2.519236382e-13,1.413765683e-13,1.445183265e-13,1.277025080e-13,4.277144481e-14,2.817036044e-13,4.177553954e-14,5.987167787e-14,1.707290862e-13,1.948872944e-13,1.315765441e-13,9.446543120e-14,1.422830592e-13,2.521680544e-13,5.290407145e-13,7.611375643e-13,5.745872862e-13,1.410673703e-13,2.774789199e-13,1.671186418e-13,2.011079113e-14,3.300881176e-14,1.230865544e-13,1.189367730e-13,7.925269057e-14,2.028471344e-13,1.468066576e-13,6.694160180e-14,9.941580049e-14,8.221609234e-14,8.534924754e-15
1.2031,2.323062980e-13,2.474918022e-13,1.335443150e-13,1.398975172e-13,1.156761001e-13,4.596547019e-14,2.520006377e-13,3.535008541e-14,5.849136606e-14,1.517899762e-13,1.878453625e-13,1.235017893e-13,8.426498794e-14,1.326232727e-13,2.545233584e-13,5.263136250e-13,7.492102202e-13,5.668633552e-13,1.321593655e-13,2.591345664e-13,1.549079749e-13,1.614670421e-14,2.584417317e-14,1.157554220e-13,1.087718110e-13,7.216672647e-14,1.973721179e-13,1.615867411e-13,6.490912619e-14,9.943558719e-14,7.786314156e-14,8.585560421e-15
1.2109,2.292867744e-13,2.394148267e-13,1.266516151e-13,1.357736487e-13,1.047956848e-13,4.924239505e-14,2.246921517e-13,2.939373791e-14,5.715088538e-14,1.349943331e-13,1.832691984e-13,1.161997603e-13,7.463512005e-14,1.219517259e-13,2.494116561e-13,5.148902454e-13,7.335984730e-13,5.532422845e-13,1.227358577e-13,2.427024194e-13,1.440109622e-13,1.292507630e-14,2.017860102e-14,1.096105038e-13,9.928053529e-14,6.517920672e-14,1.875897334e-13,1.751780465e-13,6.160940893e-14,9.834660325e-14,7.228365418e-14,9.195268884e-15
1.2188,2.221947646e-13,2.282713237e-13,1.183256452e-13,1.327949755e-13,9.570911750e-14,5.285342646e-14,1.992587549e-13,2.394786089e-14,5.543523264e-14,1.200607742e-13,1.812639201e-13,1.088984823e-13,6.572646667e-14,1.097174200e-13,2.380080085e-13,4.957885933e-13,7.132707136e-13,5.335451849e-13,1.130251022e-13,2.280473910e-13,1.344507416e-13,1.051585266e-14,1.557774408e-14,1.054447489e-13,9.051423249e-14,5.794103944e-14,1.746728235e-13,1.889930886e-13,5.645929474e-14,9.582285572e-14,6.511060125e-14,1.037418189e-14
1.2266,2.092058979e-13,2.135763356e-13,1.083436837e-13,1.323214936e-13,8.795473095e-14,5.735196876e-14,1.752751149e-13,1.951525541e-14,5.338388638e-14,1.069584860e-13,1.816433444e-13,1.013527556e-13,5.740772092e-14,9.558059834e-14,2.203057720e-13,4.701733136e-13,6.892481425e-13,5.080572616e-13,1.029847024e-13,2.151047673e-13,1.258690000e-13,8.924238531e-15,1.192714195e-14,1.041623661e-13,8.410315166e-14,5.060737103e-14,1.630639183e-13,2.025386552e-13,5.059195801e-14,9.183861575e-14,5.736469538e-14,1.218854646e-14
1.2344,1.944540462e-13,1.971790672e-13,1.011832597e-13,1.313985348e-13,8.074791922e-14,6.162159189e-14,1.530050492e-13,1.554277952e-14,5.106524390e-14,9.583254405e-14,1.858575475e-13,9.368909566e-14,4.966922501e-14,8.058840749e-14,1.994018210e-13,4.394649674e-13,6.613232026e-13,4.771526511e-13,9.280848463e-14,2.044396406e-13,1.178431613e-13,8.037672476e-15,9.280759346e-15,1.043096097e-13,7.963166958e-14,4.326269548e-14,1.535981273e-13,2.154691306e-13,4.486881025e-14,8.821645636e-14,4.944155890e-14,1.439835842e-14
1.2422,1.782874264e-13,1.794904026e-13,9.431946362e-14,1.306264078e-13,7.448757670e-14,6.509536229e-14,1.314055572e-13,1.211123814e-14,4.885281173e-14,8.601225740e-14,1.932732223e-13,8.577792167e-14,4.323498441e-14,6.543450993e-14,1.778018872e-13,4.063061149e-13,6.293280799e-13,4.420798398e-13,8.287618762e-14,1.961208259e-13,1.104381082e-13,7.877018139e-15,7.304470666e-15,1.044459903e-13,7.697389748e-14,3.647802317e-14,1.456279859e-13,2.282791873e-13,4.067137042e-14,8.620631867e-14,4.185820109e-14,1.675301457e-14
1.25,1.619528286e-13,1.619304355e-13,8.987748985e-14,1.320843316e-13,6.970013986e-14,6.796990594e-14,1.112057128e-13,9.463053899e-15,4.708987915e-14,7.755399870e-14,2.035481798e-13,7.864117982e-14,3.824509784e-14,5.166400694e-14,1.569971021e-13,3.715956529e-13,5.927484499e-13,4.028699458e-13,7.310539572e-14,1.898274801e-13,1.035618679e-13,8.348144682e-15,6.180266607e-15,1.052526557e-13,7.709412474e-14,3.108751838e-14,1.390023175e-13,2.424647968e-13,3.774573236e-14,8.601358793e-14,3.521205037e-14,1.921637155e-14
1.2578,1.469741569e-13,1.461106807e-13,8.963481469e-14,1.354494725e-13,6.729021919e-14,7.015727311e-14,9.477090917e-14,7.574233687e-15,4.528341517e-14,7.120629619e-14,2.180437715e-13,7.258818491e-14,3.428586425e-14,3.984426951e-14,1.392415477e-13,3.372314017e-13,5.540043580e-13,3.623579954e-13,6.394812569e-14,1.857585300e-13,9.784393884e-14,9.537431074e-15,5.901348748e-15,1.063239673e-13,7.879985533e-14,2.676539958e-14,1.348874450e-13,2.560860212e-13,3.595996622e-14,8.684868473e-14,2.952760769e-14,2.177374099e-14
1.2656,1.314766300e-13,1.320180923e-13,9.039022561e-14,1.400226307e-13,6.664895428e-14,7.128403839e-14,8.202222383e-14,6.367740379e-15,4.339455839e-14,6.707648823e-14,2.374099163e-13,6.721030292e-14,3.158824509e-14,2.963395732e-14,1.241971630e-13,3.041407990e-13,5.138095050e-13,3.217479781e-13,5.568836475e-14,1.840744751e-13,9.355073937e-14,1.168554515e-14,6.502627162e-15,1.079130754e-13,8.107525771e-14,2.333963466e-14,1.329202435e-13,2.669218900e-13,3.541681085e-14,8.752529116e-14,2.488317077e-14,2.419678958e-14
1.2734,1.161887603e-13,1.203991261e-13,8.943046337e-14,1.463539614e-13,6.642451146e-14,7.132933583e-14,7.301903954e-14,5.489432293e-15,4.164779269e-14,6.504478163e-14,2.625197486e-13,6.295884995e-14,3.045078527e-14,2.193992787e-14,1.125476919e-13,2.724212467e-13,4.721560219e-13,2.805607009e-13,4.808420560e-14,1.836233690e-13,8.999077690e-14,1.476376386e-14,7.808133623e-15,1.071405029e-13,8.258717813e-14,2.103003554e-14,1.290627028e-13,2.695637149e-13,3.548272908e-14,8.651311950e-14,2.180399952e-14,2.658135743e-14
1.2812,1.021217594e-13,1.108058934e-13,8.742174977e-14,1.512104188e-13,6.597678812e-14,6.988675396e-14,6.747590971e-14,4.804590531e-15,3.989268296e-14,6.482520922e-14,2.926647417e-13,5.975175988e-14,3.040120909e-14,1.717626435e-14,1.048545124e-13,2.431091839e-13,4.307879019e-13,2.413497530e-13,4.156332419e-14,1.832716488e-13,8.700251018e-14,1.866220099e-14,9.455699551e-15,1.039451397e-13,8.302909940e-14,1.959827784e-14,1.214240921e-13,2.644822698e-13,3.570636650e-14,8.381517703e-14,2.010221455e-14,2.902957570e-14
1.2891,8.995352503e-14,1.044544326e-13,8.786069434e-14,1.566958868e-13,6.745075143e-14,6.724565897e-14,6.618516064e-14,4.589610506e-15,3.804617434e-14,6.636959100e-14,3.274340528e-13,5.789715401e-14,3.135933638e-14,1.516118235e-14,9.978790082e-14,2.162874633e-13,3.915222919e-13,2.052147588e-13,3.660592914e-14,1.830896480e-13,8.522272603e-14,2.343703191e-14,1.168263032e-14,9.894093336e-14,8.237407997e-14,1.882390196e-14,1.144490010e-13,2.548970949e-13,3.691722911e-14,8.177594308e-14,1.936247544e-14,3.144309566e-14
1.2969,8.057842408e-14,1.028366787e-13,9.233241946e-14,1.660028961e-13,7.198352068e-14,6.426603188e-14,6.983835474e-14,4.977428713e-15,3.590483483e-14,6.990085602e-14,3.668769369e-13,5.732083232e-14,3.315299283e-14,1.593922765e-14,9.800182981e-14,1.924394060e-13,3.555608835e-13,1.726978877e-13,3.329631384e-14,1.829746615e-13,8.488599287e-14,2.923067057e-14,1.481209658e-14,9.390513316e-14,8.090182158e-14,1.897753943e-14,1.106450534e-13,2.436046393e-13,3.851869133e-14,7.982338008e-14,1.983593543e-14,3.416599882e-14
1.3047,7.772176496e-14,1.088172325e-13,1.070176078e-13,1.786238369e-13,8.167734203e-14,6.136191013e-14,7.817908938e-14,5.894680110e-15,3.345997807e-14,7.516056473e-14,4.081085184e-13,5.750638454e-14,3.608839839e-14,1.914658440e-14,9.699149782e-14,1.715327953e-13,3.219752053e-13,1.439689032e-13,3.189552109e-14,1.829773898e-13,8.593417931e-14,3.600196759e-14,1.865076968e-14,8.998682088e-14,7.722814777e-14,1.996250339e-14,1.044673235e-13,2.273774830e-13,3.764754009e-14,7.425498268e-14,2.123522782e-14,3.720541447e-14
1.3125,8.211090835e-14,1.231350433e-13,1.304201448e-13,1.962993397e-13,9.579080442e-14,5.918826817e-14,9.197335105e-14,7.388254546e-15,3.101147607e-14,8.203712581e-14,4.491915455e-13,5.888130823e-14,3.971604670e-14,2.528525184e-14,9.688580731e-14,1.538276955e-13,2.910918949e-13,1.191289719e-13,3.206916034e-14,1.824342648e-13,8.735945078e-14,4.298381515e-14,2.268424375e-14,8.726605165e-14,7.112746084e-14,2.158078849e-14,9.252543081e-14,2.070442691e-13,3.410734904e-14,6.580735897e-14,2.294378127e-14,4.042698335e-14
1.3203,9.625736113e-14,1.469313667e-13,1.703059214e-13,2.186149594e-13,1.166264616e-13,5.733494020e-14,1.110032521e-13,9.453650297e-15,2.854038805e-14,9.008701247e-14,4.888468413e-13,6.155893886e-14,4.360550159e-14,3.431096371e-14,9.856455400e-14,1.397910686e-13,2.659401161e-13,9.954925361e-14,3.434922113e-14,1.829745516e-13,8.955546278e-14,4.940346933e-14,2.680006038e-14,8.778819262e-14,6.445227029e-14,2.337392500e-14,7.846248282e-14,1.885527597e-13,3.131486780e-14,5.860516675e-14,2.431927903e-14,4.336286462e-14
1.3281,1.206096121e-13,1.804341260e-13,2.276160909e-13,2.476521507e-13,1.473447220e-13,5.557100430e-14,1.329199307e-13,1.232149757e-14,2.613057448e-14,9.895536155e-14,5.264252617e-13,6.537801293e-14,4.767131782e-14,4.653765759e-14,1.035122343e-13,1.298140354e-13,2.469659142e-13,8.550394964e-14,3.899091600e-14,1.860440886e-13,9.274747327e-14,5.466767709e-14,3.084107838e-14,9.305158115e-14,5.856388802e-14,2.507996852e-14,6.705316554e-14,1.722121491e-13,3.014173180e-14,5.321729037e-14,2.578605037e-14,4.559881185e-14
1.3359,1.573669022e-13,2.252492861e-13,3.180868026e-13,2.868083021e-13,1.913858860e-13,5.491178272e-14,1.572618648e-13,1.625373735e-14,2.387891689e-14,1.093253951e-13,5.617355346e-13,7.005942940e-14,5.180455337e-14,6.177551850e-14,1.111838985e-13,1.241350576e-13,2.328921237e-13,7.616757075e-14,4.569563470e-14,1.910959835e-13,9.731745500e-14,5.924362234e-14,3.539105834e-14,1.047836987e-13,5.396325653e-14,2.682061753e-14,5.712254744e-14,1.608283670e-13,2.784859049e-14,4.712714319e-14,2.795339027e-14,4.774123298e-14
1.3438,2.069689222e-13,2.837069205e-13,4.387610080e-13,3.458193445e-13,2.549950978e-13,5.580349233e-14,1.853322842e-13,2.206810921e-14,2.180944461e-14,1.213278932e-13,5.955958259e-13,7.563137231e-14,5.620707191e-14,8.024314565e-14,1.217699288e-13,1.227421944e-13,2.239837939e-13,7.122242903e-14,5.490246058e-14,1.994027440e-13,1.043620234e-13,6.332671435e-14,4.076466951e-14,1.241981585e-13,5.214133803e-14,2.837802099e-14,4.835875317e-14,1.565368457e-13,2.519581723e-14,4.134740360e-14,3.026012223e-14,4.935568687e-14
1.3516,2.740442904e-13,3.588825369e-13,6.026434000e-13,4.290214071e-13,3.424067353e-13,5.842248555e-14,2.155428109e-13,3.008496252e-14,2.009108844e-14,1.337359672e-13,6.263848111e-13,8.209290604e-14,6.166328736e-14,1.022401781e-13,1.365202626e-13,1.262634102e-13,2.213583770e-13,7.176077225e-14,6.747813853e-14,2.133804232e-13,1.145395536e-13,6.670310123e-14,4.715063420e-14,1.522749810e-13,5.433570799e-14,2.997104781e-14,4.268621964e-14,1.588076019e-13,2.484243331e-14,3.911167662e-14,3.281142570e-14,4.999342729e-14
1.3594,3.557505571e-13,4.525476458e-13,7.976503724e-13,5.497282222e-13,4.618709854e-13,6.376750247e-14,2.440494415e-13,4.076003297e-14,1.894527556e-14,1.448153677e-13,6.503434668e-13,8.948870395e-14,6.885557569e-14,1.281346403e-13,1.546767589e-13,1.364154970e-13,2.251577449e-13,7.865941706e-14,8.390617016e-14,2.345321536e-13,1.288233766e-13,6.923443434e-14,5.435160195e-14,1.894435372e-13,6.056029793e-14,3.156569716e-14,4.006459579e-14,1.677120591e-13,2.719507106e-14,3.952448805e-14,3.571638402e-14,4.948078059e-14
1.3672,4.507001387e-13,5.580215465e-13,1.027030956e-12,7.112420713e-13,6.149184263e-13,7.195054009e-14,2.662134061e-13,5.440872827e-14,1.813017060e-14,1.533862857e-13,6.666735281e-13,9.675148324e-14,7.646078706e-14,1.566232451e-13,1.753914771e-13,1.531519168e-13,2.353797550e-13,9.113814065e-14,1.035968336e-13,2.627362000e-13,1.468610498e-13,7.053350076e-14,6.221500172e-14,2.340553240e-13,7.172384654e-14,3.303645678e-14,3.994551757e-14,1.842988005e-13,3.112758807e-14,4.103883542e-14,3.896683481e-14,4.783660686e-14
1.375,5.549601665e-13,6.696367115e-13,1.278428725e-12,9.253674148e-13,8.075291409e-13,8.453452638e-14,2.819523507e-13,7.221404122e-14,1.730925469e-14,1.594929198e-13,6.771576463e-13,1.027156735e-13,8.330171658e-14,1.858534849e-13,1.992979587e-13,1.766522786e-13,2.538152887e-13,1.096636338e-13,1.265079962e-13,2.979535567e-13,1.681637048e-13,7.036973386e-14,7.022998940e-14,2.849882456e-13,8.740911198e-14,3.413814012e-14,4.259374266e-14,2.089833566e-13,3.636792664e-14,4.396735914e-14,4.337115665e-14,4.556828361e-14
1.3828,6.675924946e-13,7.845200300e-13,1.549797503e-12,1.196022654e-12,1.035113117e-12,1.023733056e-13,2.919818051e-13,9.409579460e-14,1.674013488e-14,1.636928336e-13,6.828305221e-13,1.079942254e-13,9.023899492e-14,2.155178035e-13,2.263807497e-13,2.073578765e-13,2.819455517e-13,1.340360439e-13,1.528188677e-13,3.402220073e-13,1.927628675e-13,6.918293867e-14,7.852034418e-14,3.390884161e-13,1.076562276e-13,3.507320409e-14,4.878101010e-14,2.335047290e-13,4.437712642e-14,5.090878099e-14,4.972012491e-14,4.316450134e-14
1.3906,7.842971953e-13,9.014006297e-13,1.825511035e-12,1.527013785e-12,1.291727848e-12,1.255869155e-13,2.991878745e-13,1.194233958e-13,1.669855221e-14,1.665953295e-13,6.856833101e-13,1.136729578e-13,9.852290575e-14,2.460082199e-13,2.573179828e-13,2.453285459e-13,3.197968485e-13,1.644504712e-13,1.823570120e-13,3.888293213e-13,2.198886762e-13,6.785113696e-14,8.723981778e-14,3.916271483e-13,1.311508756e-13,3.612681247e-14,5.767076667e-14,2.477021257e-13,5.517614709e-14,6.262971250e-14,5.805978407e-14,4.089004329e-14
1.3984,8.915199522e-13,1.012653604e-12,2.077688252e-12,1.911290604e-12,1.558590805e-12,1.536556642e-13,3.055778212e-13,1.463539991e-13,1.699391974e-14,1.678088677e-13,6.853669926e-13,1.191928533e-13,1.068353550e-13,2.750341499e-13,2.922345161e-13,2.886529545e-13,3.639190949e-13,1.980476304e-13,2.124330975e-13,4.382398859e-13,2.466292716e-13,6.637040831e-14,9.565499136e-14,4.376530092e-13,1.557093978e-13,3.723216200e-14,6.731947084e-14,2.584710816e-13,6.613699214e-14,7.579642676e-14,6.841383588e-14,3.875494400e-14
1.4062,9.776256924e-13,1.102111478e-12,2.293732962e-12,2.343771251e-12,1.818047213e-12,1.865004824e-13,3.136389361e-13,1.744383511e-13,1.754534117e-14,1.675020423e-13,6.810398948e-13,1.228444555e-13,1.126100642e-13,2.968450115e-13,3.259940347e-13,3.293559278e-13,4.094017813e-13,2.298561189e-13,2.383125389e-13,4.812557685e-13,2.688114675e-13,6.432404617e-14,1.026205640e-13,4.726834685e-13,1.791068280e-13,3.884728429e-14,7.804309683e-14,2.722898689e-13,7.717668116e-14,9.208555469e-14,8.019611409e-14,3.740510283e-14
1.4141,1.039697123e-12,1.161771631e-12,2.472033851e-12,2.799609735e-12,2.046674036e-12,2.218147189e-13,3.252261068e-13,2.016982859e-13,1.842690871e-14,1.664690387e-13,6.727654548e-13,1.240155320e-13,1.149885081e-13,3.092950390e-13,3.536435189e-13,3.594397334e-13,4.514879706e-13,2.567326886e-13,2.583440868e-13,5.149940241e-13,2.846450219e-13,6.213629775e-14,1.076539106e-13,4.927846759e-13,1.992591698e-13,4.132763797e-14,9.056055199e-14,2.826005063e-13,9.078970885e-14,1.158104320e-13,9.337907722e-14,3.750954222e-14
1.4219,1.075240971e-12,1.193372740e-12,2.617705457e-12,3.266742281e-12,2.224512246e-12,2.588403457e-13,3.407471011e-13,2.258391710e-13,1.979780193e-14,1.655997547e-13,6.633957776e-13,1.241146643e-13,1.149423527e-13,3.142228524e-13,3.752665471e-13,3.791394214e-13,4.881620679e-13,2.783878244e-13,2.723643155e-13,5.392828901e-13,2.927931414e-13,5.985944454e-14,1.102742151e-13,4.956552013e-13,2.126010661e-13,4.507043328e-14,1.015505359e-13,2.779148793e-13,1.070196046e-13,1.485938610e-13,1.081016352e-13,3.935649331e-14
1.4297,1.081665500e-12,1.197485958e-12,2.739881511e-12,3.695221977e-12,2.319930194e-12,2.927298182e-13,3.613464391e-13,2.427774330e-13,2.160985714e-14,1.657980535e-13,6.533728734e-13,1.234083594e-13,1.128661550e-13,3.118021345e-13,3.918823046e-13,3.883723474e-13,5.135219324e-13,2.915171600e-13,2.791763451e-13,5.500004508e-13,2.924552897e-13,5.769644242e-14,1.103008581e-13,4.822028508e-13,2.183627376e-13,4.997110664e-14,1.083150251e-13,2.632487702e-13,1.229579560e-13,1.853827582e-13,1.237528088e-13,4.267465388e-14
1.4375,1.064222026e-12,1.170065522e-12,2.876176058e-12,4.066071981e-12,2.323322501e-12,3.219556983e-13,3.882574237e-13,2.514650709e-13,2.373146747e-14,1.663756985e-13,6.374949102e-13,1.208369656e-13,1.084712206e-13,2.999925037e-13,3.977261686e-13,3.837780985e-13,5.230480437e-13,2.940392568e-13,2.770785832e-13,5.456052736e-13,2.842889286e-13,5.600675458e-14,1.077261425e-13,4.548978912e-13,2.175393133e-13,5.556749521e-14,1.118005567e-13,2.459682299e-13,1.369546240e-13,2.259055467e-13,1.388872396e-13,4.742817858e-14
1.4453,1.035119060e-12,1.112001795e-12,3.057239438e-12,4.341729065e-12,2.234378224e-12,3.432398236e-13,4.185299537e-13,2.508826912e-13,2.615831485e-14,1.669107957e-13,6.134862381e-13,1.170303791e-13,1.027035169e-13,2.814980746e-13,3.925013897e-13,3.667270812e-13,5.157239914e-13,2.867768389e-13,2.664640231e-13,5.253736108e-13,2.684571519e-13,5.518263104e-14,1.029274586e-13,4.140473080e-13,2.128465906e-13,6.133430990e-14,1.147677878e-13,2.297356822e-13,1.493910264e-13,2.699136382e-13,1.523846211e-13,5.340643270e-14
1.4531,1.000819835e-12,1.031161524e-12,3.311657240e-12,4.505367753e-12,2.068165471e-12,3.559325570e-13,4.475810171e-13,2.417851335e-13,2.874951847e-14,1.667602064e-13,5.802296636e-13,1.118666124e-13,9.683726089e-14,2.585485282e-13,3.764950123e-13,3.399617081e-13,4.912893887e-13,2.711163877e-13,2.497496450e-13,4.920795008e-13,2.482648196e-13,5.584899342e-14,9.762139558e-14,3.691810779e-13,2.090977066e-13,6.832695162e-14,1.202497763e-13,2.196515576e-13,1.612659563e-13,3.162807496e-13,1.636734178e-13,6.094058307e-14
1.4609,9.646988073e-13,9.354940033e-13,3.628745655e-12,4.524507066e-12,1.839282735e-12,3.560375317e-13,4.724038296e-13,2.243593814e-13,3.107846398e-14,1.652271380e-13,5.359622348e-13,1.040734755e-13,9.095665877e-14,2.298266266e-13,3.481452060e-13,3.027071318e-13,4.512292256e-13,2.478017671e-13,2.292146987e-13,4.500708584e-13,2.270093300e-13,5.783011346e-14,9.271548267e-14,3.265979720e-13,2.096914746e-13,7.549121062e-14,1.301385765e-13,2.193207130e-13,1.733287129e-13,3.612239509e-13,1.707817870e-13,6.871534940e-14
1.4688,9.399184599e-13,8.375342801e-13,4.002974496e-12,4.402273278e-12,1.570017679e-12,3.441125283e-13,4.909434304e-13,2.004057262e-13,3.297047512e-14,1.621294206e-13,4.826926589e-13,9.425437276e-14,8.624272599e-14,1.976493878e-13,3.103463786e-13,2.602804183e-13,4.020976174e-13,2.208995354e-13,2.079773432e-13,4.035315372e-13,2.069419795e-13,6.128024584e-14,8.837744545e-14,2.884421749e-13,2.151474043e-13,8.114388141e-14,1.443008682e-13,2.325695130e-13,1.858364457e-13,4.047922447e-13,1.736253911e-13,7.571361941e-14
1.4766,9.290568208e-13,7.449145294e-13,4.386327345e-12,4.142945575e-12,1.286001462e-12,3.214404858e-13,4.994286657e-13,1.717525183e-13,3.449221144e-14,1.571689893e-13,4.262177642e-13,8.388322973e-14,8.373671315e-14,1.663734861e-13,2.691419955e-13,2.197389385e-13,3.529030172e-13,1.953684019e-13,1.885719028e-13,3.575319967e-13,1.892171378e-13,6.542342936e-14,8.416283145e-14,2.555567917e-13,2.264143184e-13,8.476627038e-14,1.633628013e-13,2.649568405e-13,1.989962910e-13,4.442985588e-13,1.733038157e-13,8.064534898e-14
1.4844,9.219241541e-13,6.611763579e-13,4.724483054e-12,3.777390166e-12,1.013093727e-12,2.908349711e-13,4.921411642e-13,1.417719028e-13,3.546483355e-14,1.496039754e-13,3.669084298e-13,7.287540588e-14,8.292440398e-14,1.375581780e-13,2.281696400e-13,1.846671426e-13,3.070825839e-13,1.725904123e-13,1.718781028e-13,3.149341511e-13,1.744601369e-13,6.982853985e-14,8.081323829e-14,2.302499352e-13,2.452776076e-13,8.764004487e-14,1.879310076e-13,3.190322557e-13,2.125015683e-13,4.761503150e-13,1.708573130e-13,8.383538693e-14
1.4922,9.091807638e-13,5.925275722e-13,4.961947962e-12,3.344416229e-12,7.677108309e-13,2.557467124e-13,4.670904547e-13,1.132966018e-13,3.566279631e-14,1.390545636e-13,3.050815335e-13,6.141515943e-14,8.277741102e-14,1.114571575e-13,1.882515511e-13,1.538384932e-13,2.648954822e-13,1.522751458e-13,1.583028286e-13,2.769335438e-13,1.627812002e-13,7.376596530e-14,7.813582546e-14,2.142366626e-13,2.709450529e-13,8.939016063e-14,2.173044687e-13,3.922933178e-13,2.258569571e-13,4.964148367e-13,1.659447264e-13,8.492753524e-14
1.5,8.875487227e-13,5.425836899e-13,5.073056365e-12,2.893782194e-12,5.596949421e-13,2.204046597e-13,4.287859741e-13,8.865820549e-14,3.498925571e-14,1.258417244e-13,2.464476038e-13,4.995364512e-14,8.308882425e-14,8.885084944e-14,1.514335959e-13,1.276476033e-13,2.298127283e-13,1.354824869e-13,1.477744785e-13,2.448296537e-13,1.530431988e-13,7.623088269e-14,7.473598755e-14,2.047584617e-13,2.995519951e-13,8.943728797e-14,2.498272875e-13,4.831955358e-13,2.376364625e-13,5.043751109e-13,1.593069125e-13,8.328794866e-14
1.5078,8.546511048e-13,5.133202714e-13,5.053883293e-12,2.463850786e-12,3.946215484e-13,1.877123478e-13,3.837951403e-13,6.863069049e-14,3.371289089e-14,1.114194614e-13,1.940043421e-13,3.953151952e-14,8.408670695e-14,7.035648381e-14,1.203706137e-13,1.082623286e-13,2.026332356e-13,1.223028833e-13,1.396913813e-13,2.193204409e-13,1.440442094e-13,7.700487742e-14,7.011057459e-14,1.998939551e-13,3.300936416e-13,8.795472224e-14,2.864132775e-13,5.882062537e-13,2.484088044e-13,5.005792877e-13,1.525122316e-13,7.900708155e-14
1.5156,8.056770003e-13,5.006202090e-13,4.896395445e-12,2.085738334e-12,2.715016184e-13,1.601723787e-13,3.330924301e-13,5.348302558e-14,3.204980062e-14,9.642053689e-14,1.489124288e-13,3.072703298e-14,8.535055731e-14,5.606574796e-14,9.564401063e-14,9.565116489e-14,1.808835845e-13,1.116619258e-13,1.333709713e-13,1.990902499e-13,1.349455931e-13,7.612564883e-14,6.469335520e-14,1.988280768e-13,3.635596189e-13,8.521462170e-14,3.268419074e-13,6.978792637e-13,2.581772833e-13,4.849354715e-13,1.466063483e-13,7.256694910e-14
1.5234,7.401468675e-13,5.021841214e-13,4.611821788e-12,1.776249994e-12,1.851948412e-13,1.394481243e-13,2.816431815e-13,4.285419293e-14,3.023596771e-14,8.207421154e-14,1.148960226e-13,2.390080822e-14,8.640622175e-14,4.585023401e-14,7.784909314e-14,8.750959368e-14,1.620375115e-13,1.018130468e-13,1.273558475e-13,1.828525032e-13,1.254164438e-13,7.348987971e-14,5.850447327e-14,2.019983043e-13,3.992934126e-13,8.186972500e-14,3.686167599e-13,7.987384545e-13,2.669062088e-13,4.587807410e-13,1.423007533e-13,6.498145597e-14
1.5312,6.583791058e-13,5.158040291e-13,4.222898130e-12,1.547909051e-12,1.295577383e-13,1.265367918e-13,2.354740372e-13,3.609648305e-14,2.836910088e-14,6.878066845e-14,9.137701565e-14,1.906420978e-14,8.682223539e-14,3.936058112e-14,6.705625923e-14,8.237553669e-14,1.452368926e-13,9.221630976e-14,1.210596565e-13,1.708633268e-13,1.157317752e-13,6.962085703e-14,5.194587593e-14,2.087231202e-13,4.342460876e-13,7.816664676e-14,4.075079228e-13,8.849911609e-13,2.729610627e-13,4.238623109e-13,1.390124372e-13,5.716040292e-14
1.5391,5.721098816e-13,5.344789008e-13,3.788891933e-12,1.387799247e-12,9.937194117e-14,1.192321902e-13,1.963248471e-13,3.203857731e-14,2.663970700e-14,5.621222723e-14,7.620052295e-14,1.610955841e-14,8.720303828e-14,3.593109962e-14,6.155182136e-14,7.976648239e-14,1.312849011e-13,8.354404676e-14,1.152027877e-13,1.624684347e-13,1.065940189e-13,6.510588011e-14,4.529265729e-14,2.175471888e-13,4.640673019e-13,7.363600532e-14,4.396223193e-13,9.502582134e-13,2.757261202e-13,3.845704653e-13,1.355604306e-13,4.925141695e-14
1.5469,4.898641094e-13,5.557721030e-13,3.335993320e-12,1.278349638e-12,8.850468880e-14,1.157342505e-13,1.663271727e-13,2.965927886e-14,2.516469387e-14,4.585655929e-14,6.962819771e-14,1.518544375e-14,8.782213184e-14,3.567396792e-14,6.121259699e-14,8.074851704e-14,1.208472106e-13,7.686214998e-14,1.099926543e-13,1.567556780e-13,9.788169616e-14,6.048482555e-14,3.891956603e-14,2.264653821e-13,4.849785194e-13,6.844457828e-14,4.627013165e-13,9.857876087e-13,2.756395885e-13,3.449093819e-13,1.319698769e-13,4.183384899e-14
1.5547,4.135082623e-13,5.726400955e-13,2.870194615e-12,1.201982175e-12,8.964730044e-14,1.148114313e-13,1.452512364e-13,2.847291784e-14,2.382090523e-14,3.794914961e-14,6.905947458e-14,1.574589399e-14,8.848290860e-14,3.760108921e-14,6.507115403e-14,8.490861949e-14,1.139267896e-13,7.240817231e-14,1.053698219e-13,1.537088530e-13,8.975968720e-14,5.612560682e-14,3.320385131e-14,2.345252798e-13,4.927705736e-13,6.346567458e-14,4.736972118e-13,9.862914974e-13,2.722459848e-13,3.058542221e-13,1.284634646e-13,3.575446833e-14
1.5625,3.484763713e-13,5.782377261e-13,2.423844427e-12,1.132027985e-12,9.721987750e-14,1.140038404e-13,1.300787488e-13,2.777293730e-14,2.268478048e-14,3.203186350e-14,7.134160865e-14,1.719480489e-14,8.875963186e-14,4.025254505e-14,7.053080969e-14,8.955528756e-14,1.097645598e-13,6.962720149e-14,1.009101817e-13,1.526986790e-13,8.236118216e-14,5.224709492e-14,2.860249828e-14,2.377325467e-13,4.870587709e-13,5.896273785e-14,4.720049249e-13,9.466676661e-13,2.654400628e-13,2.689378357e-13,1.243562288e-13,3.115986751e-14
1.5703,2.926439148e-13,5.704673825e-13,1.996711271e-12,1.061593670e-12,1.071677159e-13,1.118661718e-13,1.195223926e-13,2.728619022e-14,2.167967076e-14,2.783493476e-14,7.464469399e-14,1.902795478e-14,8.790277370e-14,4.319668901e-14,7.766270819e-14,9.401710839e-14,1.076591838e-13,6.751830365e-14,9.601382098e-14,1.530645566e-13,7.583247062e-14,4.885141808e-14,2.516991091e-14,2.361091711e-13,4.640154531e-13,5.473984864e-14,4.553700609e-13,8.797411008e-13,2.536463493e-13,2.356941857e-13,1.187638051e-13,2.819860596e-14
1.5781,2.481950425e-13,5.469553491e-13,1.621696465e-12,9.749462807e-13,1.136223413e-13,1.076886928e-13,1.119185133e-13,2.660688071e-14,2.066009058e-14,2.521721990e-14,7.839560008e-14,2.090319487e-14,8.508153289e-14,4.609154439e-14,8.676701018e-14,9.811322882e-14,1.074966249e-13,6.534260857e-14,8.970426465e-14,1.534296616e-13,6.928209185e-14,4.549407652e-14,2.324867570e-14,2.278226130e-13,4.278311438e-13,5.188828510e-14,4.278087310e-13,7.925890173e-13,2.383067958e-13,2.071107004e-13,1.128307871e-13,2.710347145e-14
1.5859,2.124913610e-13,5.141981505e-13,1.291187823e-12,8.773654713e-13,1.159935190e-13,1.028591039e-13,1.065544595e-13,2.571494885e-14,1.935354986e-14,2.388381619e-14,8.220834062e-14,2.285921728e-14,8.084530519e-14,4.932457941e-14,9.784086358e-14,1.031818664e-13,1.099808746e-13,6.373017641e-14,8.272507522e-14,1.549120048e-13,6.295087530e-14,4.236282616e-14,2.247897146e-14,2.157990475e-13,3.799874475e-13,5.084923299e-14,3.943421566e-13,6.945850920e-13,2.220740958e-13,1.820733116e-13,1.088450150e-13,2.774867874e-14
1.5938,1.862877745e-13,4.711274954e-13,1.018753807e-12,7.700047897e-13,1.138581828e-13,9.741996446e-14,1.026070384e-13,2.445254478e-14,1.786844144e-14,2.343868369e-14,8.501510220e-14,2.496433880e-14,7.532537754e-14,5.260666577e-14,1.108584092e-13,1.086992424e-13,1.138718161e-13,6.228568942e-14,7.534448800e-14,1.580595382e-13,5.684420684e-14,3.933410345e-14,2.253445900e-14,1.991645434e-13,3.261663195e-13,5.117673390e-14,3.577904060e-13,5.904550177e-13,2.055555002e-13,1.611387061e-13,1.064394477e-13,2.962740715e-14
1.6016,1.663750031e-13,4.225117684e-13,7.955832942e-13,6.602040496e-13,1.088016915e-13,9.221090121e-14,9.917009318e-14,2.280881644e-14,1.628777130e-14,2.400859909e-14,8.703118273e-14,2.776630155e-14,6.916985587e-14,5.786456504e-14,1.288416785e-13,1.166122381e-13,1.215562234e-13,6.237509002e-14,6.855026252e-14,1.637486489e-13,5.110415597e-14,3.633703075e-14,2.335586562e-14,1.782528125e-13,2.733022931e-13,5.362750372e-14,3.232710596e-13,4.897328856e-13,1.908303012e-13,1.446333978e-13,1.068017159e-13,3.280343439e-14
1.6094,1.510438868e-13,3.725649719e-13,6.143378105e-13,5.599933149e-13,1.013874690e-13,8.898973538e-14,9.507082816e-14,2.118572135e-14,1.461610749e-14,2.564958931e-14,9.023347618e-14,3.136337624e-14,6.312839904e-14,6.526474686e-14,1.512803694e-13,1.269455105e-13,1.320231680e-13,6.436147763e-14,6.283210184e-14,1.728243797e-13,4.603260724e-14,3.332671564e-14,2.494365983e-14,1.559301132e-13,2.245130403e-13,5.886684535e-14,2.927359499e-13,3.991117801e-13,1.791700683e-13,1.328622995e-13,1.112037949e-13,3.709159495e-14
1.6172,1.375317334e-13,3.223839562e-13,4.666786926e-13,4.674840979e-13,9.142571013e-14,8.709824752e-14,9.027286100e-14,1.968779451e-14,1.270193052e-14,2.809371962e-14,9.458598111e-14,3.538009723e-14,5.732807342e-14,7.390445633e-14,1.748554302e-13,1.374394710e-13,1.432389815e-13,6.707085426e-14,5.795504779e-14,1.843466599e-13,4.157862690e-14,3.024573925e-14,2.660020504e-14,1.326329465e-13,1.823804007e-13,6.566128950e-14,2.661421290e-13,3.228263088e-13,1.706115662e-13,1.253629209e-13,1.184499990e-13,4.150676334e-14
1.625,1.278949512e-13,2.787812372e-13,3.619573125e-13,3.959005919e-13,8.262309523e-14,8.751469794e-14,8.484261539e-14,1.859548901e-14,1.085107658e-14,3.115297774e-14,1.012481249e-13,4.001914181e-14,5.262322611e-14,8.394579338e-14,1.985827341e-13,1.472547454e-13,1.538206650e-13,6.993495507e-14,5.457061446e-14,1.983234567e-13,3.813100470e-14,2.742171848e-14,2.827334640e-14,1.121009070e-13,1.484574657e-13,7.326598868e-14,2.432280277e-13,2.619165699e-13,1.636859494e-13,1.199761609e-13,1.273465017e-13,4.601935068e-14
1.6328,1.204794952e-13,2.408233243e-13,2.815749161e-13,3.401309398e-13,7.377596083e-14,9.012001567e-14,7.897807362e-14,1.783278759e-14,9.205101277e-15,3.501039648e-14,1.110695603e-13,4.548921385e-14,4.912902573e-14,9.564903118e-14,2.234315041e-13,1.570133933e-13,1.635320547e-13,7.304379395e-14,5.252197924e-14,2.143701102e-13,3.581362544e-14,2.464997362e-14,2.941140817e-14,9.498257341e-14,1.217432897e-13,8.143332473e-14,2.228436024e-13,2.125811441e-13,1.570577469e-13,1.152894360e-13,1.375158475e-13,5.030305885e-14
1.6406,1.160594434e-13,2.085384922e-13,2.275194063e-13,2.994985033e-13,6.614623600e-14,9.414903517e-14,7.327076525e-14,1.753203397e-14,7.855170381e-15,3.984428921e-14,1.246845443e-13,5.173039198e-14,4.669370892e-14,1.085588401e-13,2.471442452e-13,1.653179682e-13,1.702456393e-13,7.562904161e-14,5.099786111e-14,2.301844170e-13,3.392527756e-14,2.222319427e-14,3.049586953e-14,8.083657633e-14,1.019825790e-13,9.024630040e-14,2.043610885e-13,1.727348254e-13,1.499481440e-13,1.105199092e-13,1.477837636e-13,5.442339590e-14
1.6484,1.144014075e-13,1.815927256e-13,1.895722083e-13,2.711506488e-13,6.075475556e-14,9.854720011e-14,6.797054389e-14,1.785216499e-14,6.943658477e-15,4.523715691e-14,1.409569358e-13,5.832462436e-14,4.526115016e-14,1.217185110e-13,2.682050636e-13,1.721744398e-13,1.750708785e-13,7.825199339e-14,5.030925505e-14,2.453751269e-13,3.273601325e-14,1.996276493e-14,3.097062409e-14,6.980881724e-14,8.701288092e-14,9.778994944e-14,1.864952152e-13,1.413287570e-13,1.425044788e-13,1.067725184e-13,1.567181352e-13,5.748072989e-14
1.6562,1.105161692e-13,1.562252666e-13,1.635925193e-13,2.487205987e-13,5.529351094e-14,1.030621168e-13,6.410462642e-14,1.858864086e-14,6.428592051e-15,5.068379495e-14,1.576932005e-13,6.428730617e-14,4.392743667e-14,1.326855537e-13,2.829668041e-13,1.755443316e-13,1.763633576e-13,7.987121275e-14,5.017767461e-14,2.586769387e-13,3.197948156e-14,1.819386257e-14,3.148446601e-14,6.138881330e-14,7.625227718e-14,1.039167318e-13,1.707291884e-13,1.165478362e-13,1.342155060e-13,1.021619182e-13,1.634285932e-13,5.996230162e-14
1.6641,1.059252107e-13,1.354366581e-13,1.491199100e-13,2.319094014e-13,5.154722680e-14,1.069504796e-13,6.103892363e-14,1.977401079e-14,6.246355251e-15,5.539309727e-14,1.742300630e-13,6.912933697e-14,4.242267597e-14,1.407570910e-13,2.900821715e-13,1.750763587e-13,1.728297272e-13,7.980742352e-14,4.976076946e-14,2.682732140e-13,3.130021336e-14,1.693476190e-14,3.180521203e-14,5.509975368e-14,6.790546434e-14,1.070860085e-13,1.557272577e-13,9.750595221e-14,1.232128264e-13,9.486666201e-14,1.663011592e-13,6.141771256e-14
1.6719,9.965283608e-14,1.178659422e-13,1.377778624e-13,2.158331459e-13,4.654919016e-14,1.092447346e-13,5.916363582e-14,2.098637318e-14,6.354281451e-15,5.885006115e-14,1.889240776e-13,7.227004793e-14,4.046070432e-14,1.454313427e-13,2.890828479e-13,1.710360712e-13,1.653529046e-13,7.842697332e-14,4.910191136e-14,2.734666556e-13,3.078112241e-14,1.578887081e-14,3.164556753e-14,5.082440382e-14,6.164855044e-14,1.076703019e-13,1.410094177e-13,8.291479462e-14,1.102251417e-13,8.566219267e-14,1.655653514e-13,6.144856856e-14
1.6797,9.377952084e-14,1.027762853e-13,1.353552161e-13,1.954237188e-13,4.131659451e-14,1.088165790e-13,5.758981653e-14,2.251007675e-14,6.751689185e-15,6.026957309e-14,1.991578774e-13,7.341599374e-14,3.813133832e-14,1.463162592e-13,2.795147955e-13,1.633898308e-13,1.544131703e-13,7.557028254e-14,4.803487367e-14,2.736990238e-13,3.017170954e-14,1.473625484e-14,3.114743245e-14,4.763512483e-14,5.680670984e-14,1.063325706e-13,1.276906058e-13,7.167413174e-14,9.674959727e-14,7.598703977e-14,1.610087797e-13,6.062914305e-14
1.6875,8.710054329e-14,9.149210574e-14,1.331231315e-13,1.749682971e-13,3.621707130e-14,1.057052459e-13,5.697086729e-14,2.437796486e-14,7.372394631e-15,5.991913790e-14,2.042332639e-13,7.289759398e-14,3.534918458e-14,1.436147958e-13,2.630791085e-13,1.537713028e-13,1.422637503e-13,7.248543449e-14,4.702170665e-14,2.710547160e-13,2.957121776e-14,1.361329622e-14,3.038917606e-14,4.536441919e-14,5.345178103e-14,1.030187151e-13,1.160424182e-13,6.368215360e-14,8.416439223e-14,6.779945670e-14,1.540060085e-13,5.888917920e-14
