Time,Fp1,AF3,F7,F3,FC1,FC5,T7,C3,CP1,CP5,P7,P3,Pz,PO3,O1,Oz,O2,PO4,P4,P8,CP6,CP2,C4,T8,FC6,FC2,F4,F8,AF4,Fp2,Fz,Cz,
0,1.004708056e-08,6.798692593e-09,2.809889524e-09,2.106765145e-09,3.078288398e-11,2.523580245e-08,6.341636968e-09,3.624192220e-09,4.030026146e-10,1.258035861e-08,1.227130642e-08,5.830547667e-09,2.715134218e-08,3.392237224e-10,3.490448187e-10,1.198587584e-09,5.081420398e-10,7.563425963e-11,1.300660535e-09,1.407932485e-09,4.365842875e-09,2.297473054e-10,6.578572956e-09,2.338307979e-09,9.437170043e-09,2.748217466e-10,1.706106529e-08,1.812347193e-08,3.362242062e-09,6.356592623e-09,3.084556227e-10,4.437705112e-11
0.0078125,1.031050613e-08,6.966893730e-09,2.873661948e-09,2.160634418e-09,3.165703821e-11,2.586902015e-08,6.487511385e-09,3.715252601e-09,4.123533606e-10,1.290516402e-08,1.258111420e-08,5.978544503e-09,2.774573941e-08,3.488911973e-10,3.571303191e-10,1.226272322e-09,5.225503189e-10,7.726026833e-11,1.332365584e-09,1.441808832e-09,4.475510348e-09,2.358616055e-10,6.743651882e-09,2.399193257e-09,9.666764800e-09,2.802795663e-10,1.747017497e-08,1.859074850e-08,3.446832971e-09,6.524273961e-09,3.168370323e-10,4.550572204e-11
0.015625,9.756792260e-09,6.584165824e-09,2.712597909e-09,2.043075369e-09,3.002391684e-11,2.445633723e-08,6.122968996e-09,3.512621928e-09,3.892512776e-10,1.220784102e-08,1.189621691e-08,5.653343490e-09,2.668113479e-08,3.308676972e-10,3.368753308e-10,1.157296672e-09,4.955071729e-10,7.297878710e-11,1.258491420e-09,1.361795703e-09,4.229935846e-09,2.235267500e-10,6.374057203e-09,2.269122415e-09,9.132127448e-09,2.652512200e-10,1.650384696e-08,1.758572959e-08,3.258769612e-09,6.176334701e-09,3.000363664e-10,4.303699333e-11
0.023438,8.537354639e-09,5.747210229e-09,2.359828211e-09,1.785976976e-09,2.636826009e-11,2.135606329e-08,5.331301576e-09,3.067194309e-09,3.388751333e-10,1.067419807e-08,1.039171838e-08,4.939527584e-09,2.336413950e-08,2.904248353e-10,2.935277615e-10,1.007525263e-09,4.350593864e-10,6.343592527e-11,1.097522255e-09,1.187430075e-09,3.694909939e-09,1.955743123e-10,5.567295914e-09,1.985815886e-09,7.965989674e-09,2.299637421e-10,1.438666691e-08,1.537590147e-08,2.846559777e-09,5.406562009e-09,2.629086605e-10,3.758321472e-11
0.03125,6.932372090e-09,4.659890566e-09,1.908684025e-09,1.448814617e-09,2.147572427e-11,1.732082864e-08,4.314967804e-09,2.487746827e-09,2.742063355e-10,8.663937532e-09,8.430606870e-09,4.007679143e-09,1.862329910e-08,2.362209031e-10,2.374646836e-10,8.151038542e-10,3.541293418e-10,5.133480372e-11,8.890051682e-10,9.621099502e-10,2.995659864e-09,1.591577649e-10,4.514261599e-09,1.610510321e-09,6.454664385e-09,1.851096796e-10,1.165666307e-08,1.248007733e-08,2.309355526e-09,4.395090749e-09,2.133468588e-10,3.048898137e-11
0.039062,5.243488358e-09,3.526513111e-09,1.445633477e-09,1.095018542e-09,1.627761185e-11,1.310999075e-08,3.266273477e-09,1.883523836e-09,2.075170812e-10,6.555478393e-09,6.381865541e-09,3.033143376e-09,1.402360214e-08,1.785950706e-10,1.791739455e-10,6.163517795e-10,2.681931556e-10,3.914214832e-11,6.718594311e-10,7.279886063e-10,2.263196341e-09,1.212402917e-10,3.412455578e-09,1.214388986e-09,4.882001589e-09,1.407321561e-10,8.828974355e-09,9.441465146e-09,1.747806721e-09,3.331697900e-09,1.608505637e-10,2.308724796e-11
0.046875,3.717939104e-09,2.501711320e-09,1.025903294e-09,7.758695113e-10,1.159227718e-11,9.299513429e-09,2.317619845e-09,1.336487638e-09,1.471945226e-10,4.649101178e-09,4.527136747e-09,2.151811264e-09,9.957957075e-09,1.265591759e-10,1.267858218e-10,4.365472504e-10,1.907716957e-10,2.800416747e-11,4.758311380e-10,5.163888915e-10,1.602653636e-09,8.657103589e-11,2.417727909e-09,8.588994690e-10,3.459851898e-09,1.003697756e-10,6.267043457e-09,6.693676331e-09,1.239970092e-09,2.368760636e-09,1.135992253e-10,1.638019465e-11
0.054688,2.488074771e-09,1.675475935e-09,6.863796937e-10,5.190338343e-10,7.806340111e-12,6.225370437e-09,1.552456141e-09,8.950257825e-10,9.859292397e-11,3.112199809e-09,3.030521749e-09,1.441375200e-09,6.527258406e-09,8.469854333e-11,8.471796049e-11,2.913796896e-10,1.285859533e-10,1.883370082e-11,3.182804491e-10,3.460492458e-10,1.071644797e-09,5.826262139e-11,1.616997376e-09,5.743437379e-10,2.313116365e-09,6.710176749e-11,4.197037699e-09,4.476782773e-09,8.302414619e-10,1.590215666e-09,7.568119688e-11,1.096174841e-11
0.0625,1.588696596e-09,1.074460206e-09,4.415318727e-10,3.316883034e-10,5.017242017e-12,3.987899802e-09,9.987296873e-10,5.738912258e-10,6.351448541e-11,1.990230417e-09,1.939906223e-09,9.237218028e-10,4.098344265e-09,5.394826931e-11,5.418623309e-11,1.862087962e-10,8.303513655e-11,1.221079077e-11,2.040196674e-10,2.224609296e-10,6.848264000e-10,3.754022574e-11,1.033768328e-09,3.667693126e-10,1.479659184e-09,4.341141875e-11,2.695155615e-09,2.856957189e-09,5.314644682e-10,1.019226736e-09,4.796913908e-11,7.023476603e-12
0.070312,9.841924901e-10,6.708339438e-10,2.775976299e-10,2.060321192e-10,3.127695423e-12,2.485214935e-09,6.270921221e-10,3.581802727e-10,4.005605743e-11,1.236427132e-09,1.207121496e-09,5.761298694e-10,2.562407576e-09,3.336703468e-11,3.370107988e-11,1.155741948e-10,5.261096539e-11,7.688165719e-12,1.278268630e-10,1.397638170e-10,4.259664436e-10,2.341224612e-11,6.429706644e-10,2.288439869e-10,9.204524396e-10,2.764659735e-11,1.685863550e-09,1.767511006e-09,3.304513168e-10,6.332120967e-10,2.951972534e-11,4.385437162e-12
0.078125,6.059337727e-10,4.172070476e-10,1.742529615e-10,1.274639251e-10,1.930739129e-12,1.541960655e-09,3.924143095e-10,2.226696003e-10,2.529154357e-11,7.641310767e-10,7.472833964e-10,3.581098636e-10,1.582908831e-09,2.060453158e-11,2.081756820e-11,7.110610789e-11,3.367708216e-11,4.757585562e-12,8.028177396e-11,8.785803998e-11,2.643933832e-10,1.438137873e-11,3.986352278e-10,1.437487564e-10,5.692837998e-10,1.742529051e-11,1.048861440e-09,1.084010175e-09,2.040036518e-10,3.893955050e-10,1.816678421e-11,2.737131566e-12
0.085938,3.833528027e-10,2.680748446e-10,1.142431133e-10,8.122728560e-11,1.206975168e-12,9.883681476e-10,2.543571154e-10,1.430902952e-10,1.662844641e-11,4.861924751e-10,4.773205467e-10,2.297774808e-10,1.040644239e-09,1.306739016e-11,1.321289986e-11,4.521155858e-11,2.231588479e-11,3.054052964e-12,5.247787401e-11,5.729637486e-11,1.694658840e-10,9.043612521e-12,2.553237217e-10,9.389248579e-11,3.632972391e-10,1.148692784e-11,6.746236111e-10,6.813809656e-10,1.294111925e-10,2.446039000e-10,1.157704455e-11,1.778543168e-12
0.09375,2.575384853e-10,1.828543827e-10,8.005080834e-11,5.494954234e-11,7.840260643e-13,6.731032801e-10,1.746664834e-10,9.762821616e-11,1.159458314e-11,3.281354860e-10,3.237886681e-10,1.563706467e-10,7.647984967e-10,8.777166148e-12,8.873652990e-12,3.068437288e-11,1.555570539e-11,2.136782587e-12,3.648507227e-11,3.957971680e-11,1.153460708e-10,6.027024137e-12,1.738940107e-10,6.566114615e-11,2.458690345e-10,8.076165692e-12,4.599666298e-10,4.527533646e-10,8.684354999e-11,1.618847507e-10,7.935558642e-12,1.238016260e-12
0.10156,1.855495353e-10,1.327947669e-10,5.955828294e-11,3.971337700e-11,5.387586573e-13,4.885289425e-10,1.265711987e-10,7.084781391e-11,8.481390802e-12,2.362348145e-10,2.341239229e-10,1.131026451e-10,5.764171614e-10,6.260351922e-12,6.359569310e-12,2.243400446e-11,1.129804728e-11,1.683939383e-12,2.675031152e-11,2.873660317e-11,8.345583422e-11,4.339311016e-12,1.262702420e-10,4.893470684e-11,1.768464530e-10,5.869193041e-12,3.323132979e-10,3.208752275e-10,6.206941220e-11,1.144023970e-10,5.866887340e-12,9.202701600e-13
0.10938,1.422371313e-10,1.015098953e-10,4.636963832e-11,3.037617439e-11,3.956405496e-13,3.733412231e-10,9.552742409e-11,5.398332013e-11,6.376233745e-12,1.794018322e-10,1.782313321e-10,8.572019903e-11,4.170965331e-10,4.634439519e-12,4.888999666e-12,1.767151627e-11,8.222481234e-12,1.500509294e-12,2.021807255e-11,2.145693730e-11,6.323676686e-11,3.381968520e-12,9.642554680e-11,3.806381379e-11,1.337070741e-10,4.280178425e-12,2.514237449e-10,2.412744255e-10,4.704105963e-11,8.609084677e-11,4.570773098e-12,7.145227025e-13
0.11719,1.220635755e-10,8.781351568e-11,4.180798438e-11,2.596951054e-11,3.279395143e-13,3.222364468e-10,8.272706594e-11,4.645081040e-11,5.456236718e-12,1.526024564e-10,1.531513101e-10,7.289628916e-11,4.115347324e-10,3.702077404e-12,4.263604651e-12,1.606547310e-11,6.290525299e-12,1.562541791e-12,1.707476989e-11,1.809283378e-11,5.334438169e-11,3.068042068e-12,8.238255608e-11,3.182840785e-11,1.150064634e-10,3.931995631e-12,2.185271056e-10,2.053636548e-10,4.057364085e-11,7.360159872e-11,3.819734045e-12,6.228794674e-13
0.125,1.058133779e-10,7.502328954e-11,3.593441260e-11,2.239818056e-11,2.973795909e-13,2.744408084e-10,6.952055996e-11,3.940588370e-11,4.516567575e-12,1.298979105e-10,1.300547500e-10,6.157579118e-11,3.836383454e-10,3.047420795e-12,3.733216250e-12,1.415895036e-11,4.821358184e-12,1.496464045e-12,1.407889610e-11,1.492325421e-11,4.485436519e-11,2.712425089e-12,6.976567549e-11,2.695373399e-11,9.733723930e-11,3.326226484e-12,1.849647426e-10,1.767550093e-10,3.507795920e-11,6.391201672e-11,3.213972382e-12,5.205428524e-13
0.13281,9.289571230e-11,6.478139751e-11,3.086603269e-11,1.967000564e-11,2.827572973e-13,2.360304200e-10,5.874918404e-11,3.380070011e-11,3.758637481e-12,1.121943487e-10,1.117177513e-10,5.278233093e-11,2.708732024e-10,2.620655526e-12,3.281419249e-12,1.244254909e-11,3.840418610e-12,1.361676562e-12,1.179985666e-11,1.253093412e-11,3.837968042e-11,2.365746013e-12,5.976269622e-11,2.338750280e-11,8.345820754e-11,2.631280427e-12,1.575906537e-10,1.558025025e-10,3.096172594e-11,5.661758312e-11,2.690212826e-12,4.279016995e-13
0.14062,8.293208184e-11,5.856219771e-11,2.897800312e-11,1.768812530e-11,2.671120534e-13,2.123121229e-10,5.368259178e-11,3.044408050e-11,3.403919613e-12,1.000858982e-10,1.005745171e-10,4.725524572e-11,2.676827481e-10,2.304648269e-12,2.939783076e-12,1.151473106e-11,3.128513458e-12,1.309250752e-12,1.052763836e-11,1.134061087e-11,3.397610453e-11,2.168841589e-12,5.298155395e-11,2.049008554e-11,7.566622971e-11,2.617741555e-12,1.442165818e-10,1.421878867e-10,2.850344210e-11,5.169538533e-11,2.201536524e-12,3.635265018e-13
0.14844,7.394998343e-11,5.218145591e-11,2.611880446e-11,1.595714898e-11,2.556043931e-13,1.888449861e-10,4.795196036e-11,2.716652967e-11,3.044194670e-12,8.965508935e-11,9.005669458e-11,4.237035050e-11,2.764958903e-10,2.186710011e-12,2.562097060e-12,1.014485108e-11,2.793096908e-12,1.133295803e-12,9.504498204e-12,1.030247443e-11,3.044607790e-11,1.875700279e-12,4.702716862e-11,1.888463219e-11,6.775550623e-11,2.430643803e-12,1.285238494e-10,1.295491821e-10,2.584463298e-11,4.684604985e-11,1.868533279e-12,3.006620112e-13
0.15625,6.611934120e-11,4.610347969e-11,2.261952287e-11,1.445415284e-11,2.414302703e-13,1.669883609e-10,4.213129463e-11,2.413165262e-11,2.679181631e-12,8.083711330e-11,8.062201523e-11,3.808645705e-11,1.973940566e-10,2.145431397e-12,2.200923251e-12,8.616807935e-12,2.686430541e-12,8.426329078e-13,8.702993971e-12,9.463977384e-12,2.768609241e-11,1.540938647e-12,4.198112296e-11,1.798702489e-11,6.041143410e-11,1.985999967e-12,1.122611700e-10,1.181358024e-10,2.325394352e-11,4.239007748e-11,1.649075158e-12,2.415552401e-13
0.16406,5.906025908e-11,4.205877345e-11,2.110470239e-11,1.312232758e-11,2.116061364e-13,1.526400032e-10,3.972018327e-11,2.224004098e-11,2.535280281e-12,7.423386082e-11,7.473238289e-11,3.527068050e-11,1.810501722e-10,2.059566869e-12,1.924254146e-12,7.698458423e-12,2.590679167e-12,6.372927483e-13,8.325429593e-12,9.121149858e-12,2.563462563e-11,1.328451670e-12,3.840615482e-11,1.680002096e-11,5.617183209e-11,2.001164074e-12,1.041599550e-10,1.085995366e-10,2.129770758e-11,3.850670087e-11,1.453037529e-12,2.008174505e-13
0.17188,5.283737216e-11,3.801776060e-11,1.927279584e-11,1.186108032e-11,1.811098603e-13,1.383235815e-10,3.687599073e-11,2.030484746e-11,2.348957170e-12,6.803962412e-11,6.870292715e-11,3.240848137e-11,2.017810855e-10,1.981174416e-12,1.698500077e-12,6.800345992e-12,2.575352173e-12,5.017823174e-13,7.843209623e-12,8.639828466e-12,2.371985284e-11,1.148998636e-12,3.509528370e-11,1.578081929e-11,5.155936743e-11,1.981006079e-12,9.527083728e-11,9.867772283e-11,1.924743294e-11,3.456733506e-11,1.344334822e-12,1.707792866e-13
0.17969,4.764020772e-11,3.367271513e-11,1.636251738e-11,1.069995310e-11,1.558924420e-13,1.229119629e-10,3.293324433e-11,1.813367046e-11,2.056580893e-12,6.208711650e-11,6.203215773e-11,2.930068264e-11,1.514176814e-10,1.895968407e-12,1.530745638e-12,5.836214880e-12,2.576402707e-12,3.837132976e-13,7.111345114e-12,7.859595151e-12,2.177454773e-11,9.830626311e-13,3.178248043e-11,1.482039578e-11,4.608786072e-11,1.620513587e-12,8.385861212e-11,8.869984278e-11,1.710266940e-11,3.066259937e-11,1.307611007e-12,1.450650787e-13
0.1875,4.304328888e-11,3.061956128e-11,1.473996474e-11,9.609003474e-12,1.263139657e-13,1.120097555e-10,3.110391721e-11,1.660717449e-11,1.888821550e-12,5.701111728e-11,5.721821920e-11,2.690636455e-11,1.289024177e-10,1.697990861e-12,1.440019778e-12,5.328581630e-12,2.454066760e-12,3.316704382e-13,6.524473846e-12,7.308573826e-12,2.000615490e-11,9.209853579e-13,2.916361909e-11,1.316174331e-11,4.241914401e-11,1.565275341e-12,7.807048699e-11,8.005536443e-11,1.553415544e-11,2.703748461e-11,1.238208081e-12,1.342945664e-13
0.19531,3.915578144e-11,2.801235705e-11,1.357401083e-11,8.631217554e-12,1.010002159e-13,1.024318290e-10,2.943767918e-11,1.523595461e-11,1.741795762e-12,5.228395627e-11,5.276782399e-11,2.469650058e-11,1.521225581e-10,1.478749945e-12,1.373374730e-12,4.938155319e-12,2.318001868e-12,3.096274182e-13,5.938212526e-12,6.762057158e-12,1.828357538e-11,8.880045016e-13,2.675504341e-11,1.134676068e-11,3.902142525e-11,1.615684781e-12,7.334980468e-11,7.230749479e-11,1.419323962e-11,2.365825288e-11,1.187909872e-12,1.302589182e-13
0.20312,3.597583355e-11,2.500012869e-11,1.161135397e-11,7.754528416e-12,8.381479736e-14,9.136524248e-11,2.632080396e-11,1.357683846e-11,1.500407026e-12,4.755297069e-11,4.755333333e-11,2.228345216e-11,1.232970009e-10,1.317074350e-12,1.295550682e-12,4.379055005e-12,2.240285772e-12,2.968434144e-13,5.134261278e-12,5.917563211e-12,1.645881368e-11,8.383722678e-13,2.415654654e-11,9.869476097e-12,3.460174964e-11,1.336550896e-12,6.568760422e-11,6.487851297e-11,1.276475481e-11,2.036784781e-11,1.181563395e-12,1.249998560e-13
0.21094,3.308511695e-11,2.284799001e-11,1.046714696e-11,6.983308846e-12,7.013751216e-14,8.325495190e-11,2.437319172e-11,1.233683620e-11,1.340517658e-12,4.340961352e-11,4.356613300e-11,2.038625829e-11,9.812866904e-11,1.135849971e-12,1.236264027e-12,4.049198910e-12,2.132641604e-12,3.162215750e-13,4.542691932e-12,5.344260134e-12,1.491732644e-11,8.267542672e-13,2.206270861e-11,8.442202100e-12,3.153898689e-11,1.207123675e-12,6.137985560e-11,5.891237684e-11,1.173055799e-11,1.756219118e-11,1.109844202e-12,1.249518688e-13
0.21875,3.063564156e-11,2.133996088e-11,1.004569706e-11,6.349290895e-12,6.053535939e-14,7.738506241e-11,2.318374117e-11,1.143734590e-11,1.254104436e-12,3.989784925e-11,4.052535103e-11,1.893135199e-11,1.185440000e-10,9.769033410e-13,1.176892449e-12,3.819066634e-12,2.072597063e-12,3.272081298e-13,4.181651885e-12,5.049039608e-12,1.371439747e-11,8.158109929e-13,2.042076223e-11,7.298052135e-12,2.947496767e-11,1.264748895e-12,5.899028917e-11,5.422723724e-11,1.095620816e-11,1.537137444e-11,1.014196301e-12,1.257360945e-13
0.22656,2.865493629e-11,1.951439401e-11,9.047397370e-12,5.826185974e-12,5.777009005e-14,7.043459181e-11,2.077817055e-11,1.033755965e-11,1.114615393e-12,3.646031136e-11,3.690327298e-11,1.734088174e-11,1.051734711e-10,8.896918401e-13,1.113108432e-12,3.399410779e-12,2.133232470e-12,2.903348034e-13,3.790699211e-12,4.706383923e-12,1.264332181e-11,7.519317574e-13,1.874290111e-11,6.741256636e-12,2.684967762e-11,1.082553651e-12,5.374058916e-11,4.980106400e-11,1.005419189e-11,1.359875598e-11,9.499258465e-13,1.192830893e-13
0.23438,2.689276217e-11,1.817635327e-11,8.466061193e-12,5.397696522e-12,5.786599862e-14,6.522685705e-11,1.901815748e-11,9.495669260e-12,1.026682808e-12,3.349029379e-11,3.391284084e-11,1.600924774e-11,7.885773310e-11,8.123288967e-13,1.089111524e-12,3.072633257e-12,2.244988411e-12,2.449398480e-13,3.610316460e-12,4.664392179e-12,1.194032443e-11,6.856853452e-13,1.746448976e-11,6.478170733e-12,2.516671658e-11,9.425127388e-13,5.011679859e-11,4.630054229e-11,9.392437094e-12,1.243279911e-11,8.438799369e-13,1.126649993e-13
0.24219,2.539042887e-11,1.745610848e-11,8.535777621e-12,5.068037624e-12,6.034614511e-14,6.221635176e-11,1.828354753e-11,8.999515115e-12,1.008287496e-12,3.111812567e-11,3.182797180e-11,1.502486005e-11,9.231900364e-11,7.306043073e-13,1.118689263e-12,2.927181903e-12,2.371537514e-12,2.239707247e-13,3.594554708e-12,4.855968692e-12,1.151745082e-11,6.433237656e-13,1.658930118e-11,6.311460342e-12,2.443735393e-11,9.989153653e-13,4.877019197e-11,4.367465770e-11,8.989712629e-12,1.176584446e-11,7.102304179e-13,1.081395751e-13
0.25,2.419188547e-11,1.645807694e-11,8.091802523e-12,4.809271440e-12,6.788936295e-14,5.826788990e-11,1.673976030e-11,8.336905532e-12,9.428243986e-13,2.879118158e-11,2.923045515e-11,1.385583494e-11,8.981775309e-11,6.874196813e-13,1.182311482e-12,2.688787526e-12,2.576351714e-12,1.877696790e-13,3.514151063e-12,4.943429967e-12,1.113847689e-11,5.659202799e-13,1.567266942e-11,6.389450352e-12,2.310847263e-11,9.151136661e-13,4.529026709e-11,4.126273646e-11,8.521179329e-12,1.132887318e-11,6.085385970e-13,9.989311608e-14
0.25781,2.292099096e-11,1.554762129e-11,7.628774312e-12,4.559522538e-12,7.422927964e-14,5.473116912e-11,1.524375205e-11,7.721794049e-12,8.818735928e-13,2.660066737e-11,2.668497318e-11,1.268278798e-11,6.599815509e-11,6.337738207e-13,1.291717290e-12,2.539288490e-12,2.701070857e-12,1.494535806e-13,3.452702538e-12,5.021941769e-12,1.075121004e-11,4.927760957e-13,1.482378218e-11,6.277177510e-12,2.188381109e-11,8.027421912e-13,4.204450482e-11,3.912646065e-11,8.100028944e-12,1.096637405e-11,5.252662766e-13,9.279059836e-14
0.26562,2.157191388e-11,1.508851445e-11,7.700096924e-12,4.325174499e-12,7.924550132e-14,5.290189956e-11,1.461442388e-11,7.383581204e-12,8.735322819e-13,2.481897963e-11,2.490235717e-11,1.178257458e-11,7.183107948e-11,5.499182077e-13,1.430453934e-12,2.579368563e-12,2.647853610e-12,1.343239717e-13,3.426007217e-12,5.102968234e-12,1.030633802e-11,4.619456260e-13,1.415025907e-11,5.796213690e-12,2.124725500e-11,8.598140570e-13,4.088677211e-11,3.771104597e-11,7.828471160e-12,1.068968210e-11,4.509088017e-13,9.065911411e-14
0.27344,2.024017816e-11,1.436222933e-11,7.343968684e-12,4.097648907e-12,8.497706738e-14,5.027116807e-11,1.343485911e-11,6.923705849e-12,8.240571145e-13,2.307152061e-11,2.289240964e-11,1.081396962e-11,7.584978425e-11,4.866154245e-13,1.533808404e-12,2.546713115e-12,2.523356923e-12,1.343132803e-13,3.287773408e-12,4.919047611e-12,9.699776091e-12,4.227696577e-13,1.336239437e-11,5.281704528e-12,2.001194612e-11,8.235402835e-13,3.823197244e-11,3.641334642e-11,7.403062104e-12,1.035874633e-11,4.202993883e-13,8.812307961e-14
0.28125,1.880797402e-11,1.349059430e-11,6.670941265e-12,3.840255810e-12,8.681586705e-14,4.730918206e-11,1.194165441e-11,6.418671763e-12,7.618284101e-13,2.142017346e-11,2.088594718e-11,9.888724632e-12,5.723800687e-11,4.516002158e-13,1.587095322e-12,2.503534076e-12,2.321070016e-12,1.505819333e-13,3.081258031e-12,4.528204859e-12,8.966202930e-12,3.853004535e-13,1.251071016e-11,4.771177368e-12,1.853318693e-11,6.861147125e-13,3.489649026e-11,3.528080425e-11,6.868084670e-12,1.004568462e-11,4.153379801e-13,8.735726743e-14
0.28906,1.727824063e-11,1.294782334e-11,6.396402283e-12,3.565992472e-12,8.311842986e-14,4.561816719e-11,1.118048392e-11,6.146001585e-12,7.531246173e-13,2.017861272e-11,1.963664393e-11,9.303681204e-12,5.733148879e-11,4.300351727e-13,1.588218879e-12,2.547660744e-12,1.993000838e-12,1.678272285e-13,2.925941471e-12,4.146393222e-12,8.225058974e-12,3.761770925e-13,1.183689012e-11,4.164177472e-12,1.768654610e-11,6.748453736e-13,3.334546443e-11,3.458232351e-11,6.419417306e-12,9.924974514e-12,4.125308512e-13,9.052292969e-14
0.29688,1.593127218e-11,1.231218038e-11,6.006207296e-12,3.314179741e-12,7.847372054e-14,4.362841474e-11,1.043564813e-11,5.863434112e-12,7.444426871e-13,1.921728666e-11,1.863880896e-11,8.906860492e-12,6.429491872e-11,4.603085327e-13,1.489206823e-12,2.437565743e-12,1.686267120e-12,1.627125203e-13,2.786516503e-12,3.768757796e-12,7.592985233e-12,3.531598024e-13,1.124410595e-11,3.802185846e-12,1.685871234e-11,6.607565971e-13,3.150056546e-11,3.385251354e-11,5.965107645e-12,1.001480659e-11,4.243138544e-13,9.253224586e-14
0.30469,1.478611511e-11,1.150164243e-11,5.270978436e-12,3.073434304e-12,7.264859503e-14,4.105490652e-11,9.538681677e-12,5.535563136e-12,7.310054090e-13,1.847513770e-11,1.775147948e-11,8.639839001e-12,5.116372804e-11,5.338417914e-13,1.305244983e-12,2.185945690e-12,1.500525711e-12,1.605666257e-13,2.640181105e-12,3.376670254e-12,7.067062238e-12,3.169107856e-13,1.068089607e-11,3.699070707e-12,1.595367808e-11,5.606497412e-13,2.904951163e-11,3.279616361e-11,5.504700444e-12,1.024517566e-11,4.342641073e-13,9.205556400e-14
0.3125,1.373342849e-11,1.092718164e-11,4.828943676e-12,2.848800683e-12,6.314648283e-14,3.929835385e-11,9.274434938e-12,5.361732676e-12,7.662112998e-13,1.805852227e-11,1.746330303e-11,8.639130799e-12,4.648123102e-11,6.292510413e-13,1.092459799e-12,1.981931660e-12,1.405724675e-12,1.737823084e-13,2.601778668e-12,3.160817379e-12,6.732967976e-12,2.907468143e-13,1.032444306e-11,3.681137915e-12,1.568672982e-11,5.480688874e-13,2.815826910e-11,3.155185124e-11,5.218002070e-12,1.061203241e-11,4.158880079e-13,9.277461846e-14
0.32031,1.294813140e-11,1.039959572e-11,4.516066762e-12,2.676953252e-12,5.452857436e-14,3.761395039e-11,9.182659490e-12,5.217719482e-12,7.969048761e-13,1.779379088e-11,1.733246595e-11,8.716939290e-12,5.320403725e-11,7.423079584e-13,8.884420838e-13,1.799579283e-12,1.426660529e-12,1.972448262e-13,2.596404612e-12,3.069924324e-12,6.519993787e-12,2.693525421e-13,1.003874082e-11,3.729840589e-12,1.555018424e-11,5.737931640e-13,2.757058445e-11,2.993013015e-11,5.032468266e-12,1.095385294e-11,3.903100782e-13,8.980419425e-14
0.32812,1.237880242e-11,9.714435809e-12,3.983823251e-12,2.551516720e-12,4.824144559e-14,3.536643779e-11,8.779134467e-12,4.982420054e-12,7.904101365e-13,1.746457469e-11,1.695613215e-11,8.684690943e-12,4.531227804e-11,8.401957341e-13,7.236478724e-13,1.641353625e-12,1.543506136e-12,2.407536003e-13,2.517964690e-12,2.929508436e-12,6.297718757e-12,2.503625021e-13,9.651452977e-12,3.768548471e-12,1.508973723e-11,5.276760695e-13,2.621639562e-11,2.771896166e-11,4.829854038e-12,1.114262637e-11,3.694063745e-13,8.102960110e-14
0.33594,1.177519350e-11,9.125010021e-12,3.607340045e-12,2.445509081e-12,4.198181596e-14,3.352651814e-11,8.544227342e-12,4.782890065e-12,7.884933830e-13,1.698050717e-11,1.659138845e-11,8.559965728e-12,3.780906572e-11,8.742484751e-13,6.340035120e-13,1.643714003e-12,1.658292690e-12,3.149214589e-13,2.442974297e-12,2.820934657e-12,6.045418088e-12,2.485182029e-13,9.248486856e-12,3.585114853e-12,1.478143951e-11,5.244452367e-13,2.547551274e-11,2.529264513e-11,4.648552294e-12,1.111627097e-11,3.362469947e-13,7.238837953e-14
0.34375,1.123313354e-11,8.657344248e-12,3.451581427e-12,2.382918363e-12,3.684565599e-14,3.213360933e-11,8.346287229e-12,4.615857777e-12,7.716231676e-13,1.637852420e-11,1.615333906e-11,8.317813176e-12,4.221290802e-11,8.557408502e-13,6.318605226e-13,1.798075250e-12,1.727982221e-12,4.102968552e-13,2.333640207e-12,2.703649847e-12,5.723628663e-12,2.659445433e-13,8.809373165e-12,3.221426631e-12,1.441051295e-11,5.605837395e-13,2.494524332e-11,2.295095028e-11,4.462868559e-12,1.095496958e-11,3.074886175e-13,6.409099770e-14
0.35156,1.073091816e-11,8.075283466e-12,3.182103303e-12,2.342094282e-12,3.375901843e-14,3.043266373e-11,7.684734168e-12,4.350859339e-12,7.055040732e-13,1.555631302e-11,1.529318638e-11,7.839182577e-12,3.911278302e-11,8.024251585e-13,7.069806697e-13,2.049942830e-12,1.743059340e-12,5.188539934e-13,2.102240134e-12,2.430550153e-12,5.284042563e-12,2.895521494e-13,8.231244485e-12,2.810984603e-12,1.353063530e-11,5.160018502e-13,2.337229464e-11,2.071121049e-11,4.155343764e-12,1.061846854e-11,3.004321364e-13,5.656817852e-14
0.35938,1.009734805e-11,7.510651578e-12,2.986233662e-12,2.279708307e-12,3.091970812e-14,2.888131312e-11,6.969828339e-12,4.076825496e-12,6.269593242e-13,1.452595581e-11,1.424671992e-11,7.200318201e-12,3.252317088e-11,6.977493139e-13,8.315282568e-13,2.391578408e-12,1.666702459e-12,6.344289341e-13,1.822314829e-12,2.069126275e-12,4.777333309e-12,3.195565501e-13,7.592079585e-12,2.359849503e-12,1.247859134e-11,4.584968397e-13,2.170707010e-11,1.875967491e-11,3.774161804e-12,1.011105381e-11,2.993874777e-13,5.310509372e-14
0.36719,9.429111649e-12,7.082556738e-12,2.964059750e-12,2.204097125e-12,2.800343883e-14,2.777719146e-11,6.467396292e-12,3.858175716e-12,5.608397349e-13,1.350701873e-11,1.330091055e-11,6.566995701e-12,3.541567191e-11,5.624374140e-13,9.640991866e-13,2.738403817e-12,1.485195208e-12,7.246281314e-13,1.551008980e-12,1.717560148e-12,4.291435983e-12,3.511721561e-13,7.014008635e-12,1.924458348e-12,1.154068257e-11,4.458845031e-13,2.049377545e-11,1.733219322e-11,3.415684257e-12,9.552931429e-12,3.067781818e-13,5.531169327e-14
0.375,8.808319487e-12,6.616262046e-12,2.831209478e-12,2.109067082e-12,2.678320862e-14,2.642049192e-11,5.895955736e-12,3.611248124e-12,4.889734158e-13,1.255577357e-11,1.229942708e-11,5.939435632e-12,3.559995253e-11,4.432360853e-13,1.070192732e-12,2.946572339e-12,1.258666951e-12,7.628425591e-13,1.291693253e-12,1.384089139e-12,3.894472150e-12,3.638892002e-13,6.506472234e-12,1.637709495e-12,1.048737756e-11,3.995730840e-13,1.887439413e-11,1.634343400e-11,3.052866886e-12,8.901427679e-12,3.268757511e-13,6.252410279e-14
0.38281,8.160144402e-12,6.129245256e-12,2.625664144e-12,1.982240998e-12,2.696890346e-14,2.484963787e-11,5.410339990e-12,3.368134312e-12,4.224618350e-13,1.164245590e-11,1.129899314e-11,5.348708414e-12,3.045150223e-11,3.434899140e-13,1.132986300e-12,3.051626374e-12,1.047871201e-12,7.836165951e-13,1.055611095e-12,1.085553069e-12,3.555980752e-12,3.689317945e-13,6.029340787e-12,1.450745229e-12,9.445044777e-12,3.258906159e-13,1.717140699e-11,1.555510995e-11,2.714755846e-12,8.065361748e-12,3.414899851e-13,7.202247376e-14
0.39062,7.558602604e-12,5.752352163e-12,2.500435861e-12,1.835018034e-12,2.824843853e-14,2.352186765e-11,5.274520280e-12,3.201425230e-12,3.826491796e-13,1.090027244e-11,1.057419972e-11,4.913762317e-12,3.135165600e-11,2.639645702e-13,1.135981531e-12,3.041462453e-12,8.386273515e-13,7.693696915e-13,8.809185271e-13,8.822150788e-13,3.321948900e-12,3.707004109e-13,5.670317098e-12,1.311005587e-12,8.722163685e-12,2.912742612e-13,1.611601863e-11,1.513820838e-11,2.481883977e-12,7.145689818e-12,3.450418114e-13,8.188000605e-14
0.39844,7.147365659e-12,5.441359847e-12,2.321948441e-12,1.710260298e-12,3.221441270e-14,2.219079669e-11,5.277973422e-12,3.080270615e-12,3.560994079e-13,1.036810967e-11,1.005684380e-11,4.620822483e-12,3.296075629e-11,2.180605791e-13,1.071628460e-12,2.843196534e-12,6.740027082e-13,6.926829747e-13,7.850538879e-13,8.026760634e-13,3.218693694e-12,3.550489616e-13,5.440415029e-12,1.243478779e-12,8.219943130e-12,2.701717538e-13,1.522562879e-11,1.506356626e-11,2.338754895e-12,6.221555181e-12,3.430742555e-13,8.887714879e-14
0.40625,6.882528826e-12,5.123425937e-12,2.073902770e-12,1.600655960e-12,3.723853987e-14,2.071206506e-11,5.312835060e-12,2.967170698e-12,3.341006654e-13,9.929310031e-12,9.622764468e-12,4.402249830e-12,2.901406956e-11,2.017940995e-13,9.514516522e-13,2.515800263e-12,5.836611147e-13,5.891101384e-13,7.348564648e-13,7.997432810e-13,3.157512305e-12,3.328488900e-13,5.230369158e-12,1.198495572e-12,7.797550641e-12,2.397856025e-13,1.428756098e-11,1.512637706e-11,2.240723985e-12,5.309997531e-12,3.299395616e-13,9.058264417e-14
0.41406,6.754726854e-12,4.903539982e-12,1.925983641e-12,1.515574749e-12,4.247838796e-14,1.953944558e-11,5.520626575e-12,2.910072077e-12,3.273016741e-13,9.608174715e-12,9.402387332e-12,4.275234892e-12,2.732665475e-11,2.019559365e-13,8.019930843e-13,2.168215583e-12,5.674552799e-13,4.871961754e-13,7.349424073e-13,8.709968234e-13,3.130430099e-12,3.143721226e-13,5.074089890e-12,1.141502140e-12,7.621447502e-12,2.384879204e-13,1.380988215e-11,1.544182990e-11,2.218206045e-12,4.501959806e-12,3.012794010e-13,8.732959644e-14
0.42188,6.836487164e-12,4.773248431e-12,1.882347169e-12,1.472377002e-12,4.724840868e-14,1.874084484e-11,5.745087110e-12,2.893804253e-12,3.279844796e-13,9.432202139e-12,9.357735915e-12,4.215707775e-12,2.868257746e-11,2.153979174e-13,6.521160714e-13,1.857240873e-12,6.129551694e-13,3.922376060e-13,7.693994614e-13,9.679312140e-13,3.127832878e-12,2.982417282e-13,4.963464443e-12,1.096765901e-12,7.590496584e-12,2.548447733e-13,1.360674375e-11,1.599967926e-11,2.247260866e-12,3.911689258e-12,2.727538500e-13,7.947461122e-14
0.42969,7.021266533e-12,4.629152247e-12,1.864468103e-12,1.454311432e-12,5.081195299e-14,1.799805575e-11,5.797788854e-12,2.853026337e-12,3.228879712e-13,9.274521829e-12,9.274252412e-12,4.124322717e-12,2.653603932e-11,2.296249499e-13,5.251755855e-13,1.624188795e-12,6.980975031e-13,3.179654274e-13,7.858529159e-13,1.019493198e-12,3.068806861e-12,2.849381818e-13,4.814371693e-12,1.066804765e-12,7.488963288e-12,2.580082222e-13,1.323919548e-11,1.650385310e-11,2.263177236e-12,3.518121932e-12,2.491605886e-13,6.912487754e-14
0.4375,7.222532648e-12,4.499287687e-12,1.946120250e-12,1.442138317e-12,5.146406907e-14,1.743810547e-11,5.815487394e-12,2.804009687e-12,3.179115470e-13,9.111566632e-12,9.166481114e-12,3.978834661e-12,2.360097621e-11,2.306774388e-13,4.333203842e-13,1.512273606e-12,7.885759561e-13,2.712881058e-13,7.917462632e-13,1.027684416e-12,2.964624632e-12,2.755255475e-13,4.647729738e-12,1.040954237e-12,7.424317174e-12,2.684424569e-13,1.298886145e-11,1.687715832e-11,2.289632817e-12,3.337811395e-12,2.269291649e-13,5.835603977e-14
0.44531,7.450410742e-12,4.428321192e-12,2.113041295e-12,1.435659178e-12,4.923496992e-14,1.720723284e-11,5.836486088e-12,2.766590760e-12,3.164402413e-13,9.003298196e-12,9.112578342e-12,3.838202283e-12,2.413533137e-11,2.196073880e-13,3.940862135e-13,1.562748202e-12,8.617135809e-13,2.666908190e-13,7.730605100e-13,9.814414030e-13,2.821149646e-12,2.786005146e-13,4.492616257e-12,1.002353885e-12,7.430445623e-12,2.891528786e-13,1.294411145e-11,1.718833534e-11,2.327248531e-12,3.392741080e-12,2.159214027e-13,4.888445232e-14
0.45312,7.653267883e-12,4.346443786e-12,2.251692892e-12,1.425697654e-12,4.516861226e-14,1.695491310e-11,5.731036258e-12,2.696601480e-12,3.105609063e-13,8.886204637e-12,8.985289947e-12,3.674120765e-12,2.391653437e-11,2.051907120e-13,3.870436403e-13,1.689051936e-12,9.013098114e-13,2.841475637e-13,7.155768934e-13,8.739388215e-13,2.644108760e-12,2.827552517e-13,4.332905219e-12,9.744676155e-13,7.373534054e-12,2.901565580e-13,1.272842721e-11,1.724307662e-11,2.344726980e-12,3.604910565e-12,2.157979054e-13,4.195797544e-14
0.46094,7.682985353e-12,4.211384582e-12,2.330484377e-12,1.385825067e-12,3.974777692e-14,1.648995179e-11,5.501177469e-12,2.571544213e-12,2.966733004e-13,8.638047196e-12,8.657704716e-12,3.436979332e-12,2.129440893e-11,1.776257545e-13,4.010530755e-13,1.844461661e-12,8.984997155e-13,3.123129920e-13,6.291478413e-13,7.279283752e-13,2.444369315e-12,2.833814114e-13,4.140154747e-12,9.365447843e-13,7.214268371e-12,2.718561937e-13,1.228491640e-11,1.681555921e-11,2.315462874e-12,3.915767849e-12,2.203200059e-13,3.722865509e-14
0.46875,7.662547107e-12,4.154645089e-12,2.445166902e-12,1.335783244e-12,3.360609558e-14,1.620348643e-11,5.369479364e-12,2.463960431e-12,2.898562557e-13,8.422349874e-12,8.396218921e-12,3.261340330e-12,2.097866983e-11,1.522809665e-13,4.130306865e-13,1.979456956e-12,8.444997388e-13,3.383989657e-13,5.567320621e-13,6.056566205e-13,2.309029598e-12,2.831905420e-13,4.013930738e-12,9.193384469e-13,7.150023073e-12,2.651526647e-13,1.206825086e-11,1.632373595e-11,2.310808889e-12,4.325655830e-12,2.230282831e-13,3.477577490e-14
0.47656,7.627008595e-12,4.147316251e-12,2.541374637e-12,1.293792129e-12,2.890167991e-14,1.597976620e-11,5.250196320e-12,2.365568727e-12,2.836514097e-13,8.233002961e-12,8.167415191e-12,3.143511428e-12,2.216832622e-11,1.377981244e-13,4.095486757e-13,2.021848745e-12,7.534974113e-13,3.449926054e-13,5.064594625e-13,5.307625145e-13,2.252754640e-12,2.759535890e-13,3.943286333e-12,9.559476244e-13,7.082511009e-12,2.584803612e-13,1.184744302e-11,1.579003392e-11,2.307877742e-12,4.747405079e-12,2.236927991e-13,3.336096598e-14
0.48438,7.403756376e-12,4.059619581e-12,2.496670245e-12,1.226614488e-12,2.661396311e-14,1.536085439e-11,4.952829746e-12,2.212332249e-12,2.706088984e-13,7.881899721e-12,7.748113434e-12,3.012122885e-12,2.026244943e-11,1.354427722e-13,3.881982240e-13,1.922730392e-12,6.496844280e-13,3.248116208e-13,4.742194532e-13,4.869500784e-13,2.237420849e-12,2.544410638e-13,3.833587407e-12,1.050320464e-12,6.795364916e-12,2.326069391e-13,1.126719272e-11,1.495382275e-11,2.241770979e-12,4.991504574e-12,2.200332470e-13,3.285291877e-14
0.49219,7.129977207e-12,4.026421562e-12,2.458080365e-12,1.170202563e-12,2.745401488e-14,1.486628683e-11,4.704544282e-12,2.082345442e-12,2.613076687e-13,7.540834833e-12,7.383729273e-12,2.937906727e-12,1.858321208e-11,1.438228804e-13,3.586806924e-13,1.740405384e-12,5.379485091e-13,2.895469065e-13,4.811581849e-13,4.927678370e-13,2.295072517e-12,2.291342557e-13,3.759076880e-12,1.205760383e-12,6.511749845e-12,2.184972249e-13,1.084561336e-11,1.416932444e-11,2.184850574e-12,5.140864943e-12,2.045076655e-13,3.269977112e-14
0.5,6.881507549e-12,4.067477101e-12,2.478970858e-12,1.154209727e-12,3.208762957e-14,1.463656727e-11,4.537590467e-12,1.997948418e-12,2.560193959e-13,7.251354707e-12,7.103902358e-12,2.917886301e-12,1.997442706e-11,1.590037069e-13,3.418049333e-13,1.526154066e-12,4.293416427e-13,2.474596518e-13,5.267579223e-13,5.416572517e-13,2.419894566e-12,2.043468332e-13,3.734033217e-12,1.421407456e-12,6.277404610e-12,2.243359380e-13,1.062650816e-11,1.354385205e-11,2.146517907e-12,5.188159733e-12,1.817329368e-13,3.308313142e-14
0.50781,6.556350302e-12,4.017464044e-12,2.380639073e-12,1.149890749e-12,3.998407393e-14,1.410352337e-11,4.217784480e-12,1.886542449e-12,2.405367954e-13,6.862037176e-12,6.684275714e-12,2.835477640e-12,1.905224330e-11,1.725727502e-13,3.513142452e-13,1.287565818e-12,3.279324844e-13,2.027117284e-13,5.640771431e-13,5.716104045e-13,2.493155599e-12,1.808444780e-13,3.629813617e-12,1.633626409e-12,5.849387835e-12,2.196584862e-13,1.008319954e-11,1.281765713e-11,2.055817026e-12,5.063544406e-12,1.580922754e-13,3.255021557e-14
0.51562,6.184344487e-12,3.962236389e-12,2.247067793e-12,1.162696846e-12,4.976435177e-14,1.361162490e-11,3.878930596e-12,1.789645860e-12,2.216798734e-13,6.447636341e-12,6.217836307e-12,2.716815528e-12,1.625684178e-11,1.755219050e-13,4.007656611e-13,1.098672056e-12,2.443821897e-13,1.714332939e-13,5.979873770e-13,5.929170832e-13,2.522345387e-12,1.672070907e-13,3.481152334e-12,1.783000969e-12,5.351857761e-12,2.167086773e-13,9.561024034e-12,1.204500389e-11,1.942819723e-12,4.866518017e-12,1.363859934e-13,3.109814199e-14
0.52344,5.898408192e-12,3.982879460e-12,2.217828384e-12,1.203572717e-12,6.015032461e-14,1.347296017e-11,3.711445907e-12,1.758308007e-12,2.082439262e-13,6.128689836e-12,5.879716900e-12,2.626233065e-12,1.718326066e-11,1.676529644e-13,4.858152069e-13,1.002905683e-12,1.800489300e-13,1.589452182e-13,6.308142270e-13,6.193571645e-13,2.522868174e-12,1.695410394e-13,3.354533421e-12,1.828659784e-12,5.001584747e-12,2.377831224e-13,9.379000313e-12,1.146644237e-11,1.857140353e-12,4.710509832e-12,1.212897163e-13,2.924976376e-14
0.53125,5.596729259e-12,3.897516596e-12,2.134687944e-12,1.221975504e-12,6.822698580e-14,1.308886050e-11,3.480574491e-12,1.706155443e-12,1.890856512e-13,5.782277346e-12,5.462308470e-12,2.471375532e-12,1.762799885e-11,1.516614880e-13,5.864115189e-13,9.601763175e-13,1.319128259e-13,1.531259481e-13,6.263811990e-13,6.128980126e-13,2.441797746e-12,1.769473345e-13,3.167096818e-12,1.766831270e-12,4.582596206e-12,2.417417610e-13,8.979248205e-12,1.077272200e-11,1.734240678e-12,4.518555053e-12,1.198745943e-13,2.593969194e-14
0.53906,5.247147593e-12,3.710271164e-12,1.950390617e-12,1.199208819e-12,7.233564321e-14,1.251605563e-11,3.185839091e-12,1.635280310e-12,1.659496263e-13,5.411245431e-12,4.996670573e-12,2.274671321e-12,1.477244207e-11,1.308146441e-13,6.805645208e-13,9.557092866e-13,9.870868846e-14,1.500576522e-13,5.980369734e-13,5.911207853e-13,2.303935240e-12,1.869656343e-13,2.940643432e-12,1.597556983e-12,4.132116761e-12,2.233779984e-13,8.463243705e-12,9.970677928e-12,1.575896045e-12,4.274059264e-12,1.299858617e-13,2.207483104e-14
0.54688,4.964804428e-12,3.574904616e-12,1.863026410e-12,1.154050781e-12,7.123872532e-14,1.225958428e-11,3.072251122e-12,1.626192565e-12,1.528509909e-13,5.191932093e-12,4.749225489e-12,2.164376980e-12,1.521330218e-11,1.126540283e-13,7.444696053e-13,9.938837090e-13,8.108428087e-14,1.529648976e-13,5.769270415e-13,5.832400084e-13,2.171271352e-12,2.033433139e-13,2.778154602e-12,1.338808368e-12,3.870918539e-12,2.236070896e-13,8.326203959e-12,9.270676147e-12,1.456588552e-12,4.021811836e-12,1.490624562e-13,1.853325245e-14
0.55469,4.691868310e-12,3.375154541e-12,1.763129654e-12,1.073307774e-12,6.587620000e-14,1.183766380e-11,2.942402971e-12,1.599183355e-12,1.422545972e-13,5.016845789e-12,4.574922062e-12,2.081295398e-12,1.693218508e-11,1.040321982e-13,7.575040354e-13,1.003848300e-12,7.641722324e-14,1.470081362e-13,5.487810514e-13,5.769047449e-13,2.036681132e-12,2.109913513e-13,2.641991282e-12,1.069798562e-12,3.671926877e-12,2.216567094e-13,8.118068195e-12,8.604399306e-12,1.347947122e-12,3.721210792e-12,1.740667503e-13,1.611582423e-14
0.5625,4.398189800e-12,3.054922491e-12,1.520856426e-12,9.493824370e-13,5.706036996e-14,1.109643012e-11,2.688029864e-12,1.532926179e-12,1.279466325e-13,4.842756749e-12,4.408837976e-12,2.001224492e-12,1.423642664e-11,1.048722018e-13,7.160583679e-13,9.686744528e-13,7.734643700e-14,1.308930260e-13,5.016161097e-13,5.419615484e-13,1.877370374e-12,2.066196276e-13,2.494578635e-12,8.252083155e-13,3.459606399e-12,1.881141757e-13,7.641684225e-12,7.902957547e-12,1.224268864e-12,3.321200172e-12,1.983998280e-13,1.480906038e-14
0.57031,4.168000987e-12,2.813880558e-12,1.315385046e-12,8.257479953e-13,4.582265400e-14,1.064556394e-11,2.573837560e-12,1.518248331e-12,1.231537787e-13,4.811826054e-12,4.487465923e-12,2.022357960e-12,1.338370185e-11,1.146594472e-13,6.380372119e-13,9.335231158e-13,8.391565853e-14,1.173270560e-13,4.759342936e-13,5.282208405e-13,1.764952042e-12,2.022607737e-13,2.433892052e-12,6.407405869e-13,3.467611112e-12,1.676665712e-13,7.510515247e-12,7.459159331e-12,1.150090951e-12,2.976446407e-12,2.143813562e-13,1.528409434e-14
0.57812,4.008486432e-12,2.626912964e-12,1.169487644e-12,7.174028554e-13,3.359393437e-14,1.027497518e-11,2.503779598e-12,1.511874253e-12,1.211628718e-13,4.834217072e-12,4.634102527e-12,2.070056030e-12,1.564851576e-11,1.291926282e-13,5.452615583e-13,8.895981447e-13,9.312488220e-14,1.094667858e-13,4.567316014e-13,5.195846780e-13,1.671365154e-12,1.970249827e-13,2.405757542e-12,5.208996964e-13,3.574659481e-12,1.661762379e-13,7.445161308e-12,7.279381013e-12,1.110640455e-12,2.725232494e-12,2.228393667e-13,1.698918447e-14
0.58594,3.852069509e-12,2.403802381e-12,9.666730737e-13,6.280888870e-13,2.301619081e-14,9.651806519e-12,2.301398797e-12,1.464521602e-12,1.099330654e-13,4.778298481e-12,4.621670648e-12,2.058134663e-12,1.360814526e-11,1.393852470e-13,4.642256089e-13,8.273202455e-13,1.032889024e-13,1.092114106e-13,4.068011437e-13,4.620873013e-13,1.535397709e-12,1.896470091e-13,2.306499417e-12,4.547443116e-13,3.580616955e-12,1.411135187e-13,6.968875955e-12,7.097116243e-12,1.051681615e-12,2.524015426e-12,2.236041390e-13,1.836531246e-14
0.59375,3.721152382e-12,2.266466816e-12,8.115750605e-13,5.679181498e-13,1.499054397e-14,9.283371856e-12,2.188020834e-12,1.450577420e-12,1.024984581e-13,4.736848213e-12,4.631833148e-12,2.064544230e-12,1.149774137e-11,1.395269144e-13,4.190915817e-13,8.061367192e-13,1.126137765e-13,1.211211318e-13,3.584814218e-13,4.004801025e-13,1.409918610e-12,1.912595947e-13,2.216836019e-12,4.146697583e-13,3.681737685e-12,1.185289138e-13,6.679588710e-12,7.014586293e-12,1.014456430e-12,2.402327127e-12,2.164294170e-13,1.982539107e-14
0.60156,3.604506514e-12,2.214344375e-12,7.542892605e-13,5.363317033e-13,8.838069396e-15,9.144080333e-12,2.166623022e-12,1.457284255e-12,1.000035982e-13,4.680972152e-12,4.602020052e-12,2.065657910e-12,1.372574461e-11,1.306993296e-13,4.235396835e-13,8.262107534e-13,1.214668124e-13,1.375414772e-13,3.224398333e-13,3.564352266e-13,1.304890144e-12,2.009723570e-13,2.136650383e-12,3.938859576e-13,3.810435682e-12,1.198640299e-13,6.584491628e-12,6.969146043e-12,9.952509128e-13,2.356445075e-12,2.053603224e-13,2.213972184e-14
0.60938,3.437140220e-12,2.101782397e-12,6.907082570e-13,5.206285046e-13,4.930691756e-15,8.740030364e-12,2.010778905e-12,1.398695978e-12,9.072953114e-14,4.475044472e-12,4.303854456e-12,1.977448955e-12,1.285518312e-11,1.188173933e-13,4.700060176e-13,8.386595383e-13,1.334544863e-13,1.517482304e-13,2.723499595e-13,3.008040385e-13,1.182720931e-12,2.084757565e-13,1.971525948e-12,3.989033158e-13,3.673960129e-12,1.044228187e-13,6.055113581e-12,6.573617226e-12,9.301073962e-13,2.245520979e-12,1.956692454e-13,2.445212526e-14
0.61719,3.203219312e-12,1.996176615e-12,6.408573540e-13,5.089265290e-13,2.673489658e-15,8.399061336e-12,1.871800145e-12,1.332885983e-12,8.465653920e-14,4.216765573e-12,3.939338748e-12,1.879649576e-12,1.028897711e-11,1.026699358e-13,5.514132022e-13,8.866245792e-13,1.477580657e-13,1.690358218e-13,2.207750194e-13,2.456908421e-13,1.069259320e-12,2.218284804e-13,1.798115076e-12,4.197477400e-13,3.464563834e-12,7.834533019e-14,5.575497554e-12,5.933467289e-12,8.513461183e-13,2.083464605e-12,1.867839436e-13,2.784192228e-14
0.625,2.932320453e-12,1.944826646e-12,6.549213970e-13,5.020381713e-13,1.678080654e-15,8.274591491e-12,1.840948852e-12,1.287784056e-12,8.738309027e-14,3.981147531e-12,3.672137720e-12,1.820230465e-12,1.242862106e-11,8.679052436e-14,6.387197680e-13,9.543387026e-13,1.626627607e-13,1.803534432e-13,1.946065166e-13,2.205870127e-13,1.009161105e-12,2.357547596e-13,1.683500787e-12,4.803518507e-13,3.315892124e-12,7.347110087e-14,5.432700987e-12,5.220097626e-12,7.898781387e-13,1.908590414e-12,1.781949140e-13,3.369400799e-14
0.63281,2.633880057e-12,1.821144603e-12,6.129009436e-13,4.899909407e-13,1.681504729e-15,7.833286269e-12,1.705337890e-12,1.183004927e-12,8.809369398e-14,3.696068378e-12,3.385736187e-12,1.727780741e-12,1.278338019e-11,7.989714091e-14,6.897854262e-13,9.570488370e-13,1.773501175e-13,1.717663020e-13,1.799450164e-13,2.111284541e-13,9.718687434e-13,2.343710823e-13,1.573503414e-12,6.058054513e-13,3.005665807e-12,6.729139156e-14,5.055990330e-12,4.401107639e-12,7.056907426e-13,1.705706178e-12,1.727076880e-13,4.303295049e-14
0.64062,2.332001761e-12,1.681321118e-12,5.152761760e-13,4.736237392e-13,2.355723063e-15,7.289315242e-12,1.550055000e-12,1.058045984e-12,9.223512818e-14,3.431674011e-12,3.186134628e-12,1.646007207e-12,9.737420126e-12,8.114985373e-14,7.021559939e-13,9.186881290e-13,1.882599766e-13,1.554353358e-13,1.823718075e-13,2.189367123e-13,9.735662370e-13,2.205597051e-13,1.512898529e-12,7.697233759e-13,2.662543075e-12,5.737277314e-14,4.694257218e-12,3.616029971e-12,6.206010115e-13,1.510709516e-12,1.668427830e-13,5.552110695e-14
0.64844,2.084454538e-12,1.624762674e-12,4.609245524e-13,4.619313545e-13,3.826173150e-15,7.024789695e-12,1.529499241e-12,9.822179339e-13,1.053881378e-13,3.297443422e-12,3.235018852e-12,1.640413360e-12,1.108053090e-11,9.176000429e-14,6.807109891e-13,8.935839728e-13,2.012235123e-13,1.457814103e-13,2.069215491e-13,2.475637676e-13,1.025530622e-12,2.077736589e-13,1.538369074e-12,9.609938882e-13,2.482102155e-12,6.425003319e-14,4.735992566e-12,3.113283035e-12,5.776659055e-13,1.399485836e-12,1.594534600e-13,6.891593115e-14
0.65625,1.929572360e-12,1.573596484e-12,4.199123014e-13,4.606062476e-13,6.197555224e-15,6.664702463e-12,1.478865014e-12,9.109151839e-13,1.124023126e-13,3.208991294e-12,3.321654123e-12,1.622579852e-12,1.248569713e-11,1.087626062e-13,6.065158440e-13,8.130519315e-13,2.122520778e-13,1.275420359e-13,2.329324755e-13,2.696817923e-13,1.085876741e-12,1.848136112e-13,1.580513710e-12,1.169526434e-12,2.313980406e-12,6.892153916e-14,4.631613947e-12,2.854009950e-12,5.578755346e-13,1.339041830e-12,1.517725741e-13,8.067958288e-14
0.66406,1.863597244e-12,1.539437145e-12,3.701249917e-13,4.733419313e-13,9.216185370e-15,6.292259971e-12,1.412826628e-12,8.541226159e-13,1.144097531e-13,3.167027852e-12,3.439633714e-12,1.593012005e-12,9.314847977e-12,1.212165806e-13,4.975211796e-13,6.887166624e-13,2.070197539e-13,1.086590601e-13,2.579065231e-13,2.786285368e-13,1.136521629e-12,1.547546610e-13,1.621624935e-12,1.322895577e-12,2.127831369e-12,7.046585054e-14,4.419829538e-12,2.756147373e-12,5.609539311e-13,1.300752194e-12,1.436225298e-13,8.982609622e-14
0.67188,1.899752888e-12,1.610789114e-12,3.811806921e-13,5.052082708e-13,1.294506760e-14,6.339845717e-12,1.498970318e-12,8.716468934e-13,1.218744752e-13,3.246671882e-12,3.693762263e-12,1.619036591e-12,9.229307958e-12,1.274786864e-13,3.903968806e-13,6.041731007e-13,1.931226171e-13,1.022941315e-13,2.895133400e-13,2.944300486e-13,1.189287287e-12,1.360026518e-13,1.691828571e-12,1.381761871e-12,2.090459523e-12,9.197143960e-14,4.565497118e-12,2.868773246e-12,6.170970175e-13,1.303636102e-12,1.304255958e-13,9.469179276e-14
0.67969,2.013476522e-12,1.688238471e-12,4.112748222e-13,5.528012058e-13,1.754882492e-14,6.458792448e-12,1.567945600e-12,9.090753993e-13,1.215661489e-13,3.328769549e-12,3.837644983e-12,1.624341405e-12,1.117704608e-11,1.316347366e-13,2.990801591e-13,5.381498111e-13,1.846488928e-13,1.002607170e-13,2.997053543e-13,2.958826626e-13,1.196157366e-12,1.297115303e-13,1.704916097e-12,1.378935206e-12,2.039131201e-12,1.046564091e-13,4.604599224e-12,2.988547490e-12,6.796845251e-13,1.301814985e-12,1.150461580e-13,9.387619557e-14
0.6875,2.126568365e-12,1.715235207e-12,4.339575791e-13,5.980040917e-13,2.155362777e-14,6.484522319e-12,1.552238289e-12,9.394209712e-13,1.070985287e-13,3.336700761e-12,3.779162993e-12,1.569215522e-12,8.774520538e-12,1.277027073e-13,2.286145670e-13,4.819782493e-13,1.693867056e-13,1.042655289e-13,2.751730703e-13,2.581516444e-13,1.128126382e-12,1.353337075e-13,1.621174622e-12,1.297127828e-12,1.858867525e-12,9.032070485e-14,4.367056540e-12,3.019534580e-12,7.259715998e-13,1.248085888e-12,1.041865879e-13,8.787049032e-14
0.69531,2.219923946e-12,1.784035452e-12,5.061917479e-13,6.379433373e-13,2.389786828e-14,6.796874964e-12,1.648070323e-12,1.005990206e-12,9.496628883e-14,3.357096957e-12,3.733441101e-12,1.532577226e-12,7.986600148e-12,1.114515518e-13,1.920544454e-13,4.789728206e-13,1.489070152e-13,1.223483865e-13,2.480895755e-13,2.229516597e-13,1.038497893e-12,1.582730643e-13,1.522573944e-12,1.136373510e-12,1.747027321e-12,9.048024983e-14,4.427406869e-12,3.096357470e-12,7.881205107e-13,1.187658056e-12,9.162492870e-14,7.917386047e-14
0.70312,2.263402152e-12,1.813068011e-12,5.501147346e-13,6.610875739e-13,2.519934741e-14,7.018259107e-12,1.706254916e-12,1.050856992e-12,8.479174449e-14,3.315566128e-12,3.607874107e-12,1.480137861e-12,1.034800077e-11,9.412175300e-14,1.804689824e-13,4.985024777e-13,1.363078834e-13,1.405842215e-13,2.226841443e-13,2.039529573e-13,9.404859489e-13,1.851929517e-13,1.407237194e-12,9.608004452e-13,1.654574605e-12,9.816307776e-14,4.506085939e-12,3.176757715e-12,8.201340843e-13,1.124506219e-12,8.036857759e-14,7.033022255e-14
0.71094,2.223030194e-12,1.716072341e-12,4.953370466e-13,6.508759558e-13,2.503389068e-14,6.791820164e-12,1.578977088e-12,1.017966035e-12,6.666452907e-14,3.123354274e-12,3.265931638e-12,1.353464235e-12,8.817015226e-12,7.896350526e-14,1.849696055e-13,5.040064247e-13,1.363097222e-13,1.533366817e-13,1.829186823e-13,1.743817162e-13,8.151495399e-13,2.071364975e-13,1.242280407e-12,8.001546627e-13,1.466391192e-12,7.780255395e-14,4.254753674e-12,3.217091301e-12,7.984054460e-13,1.024465508e-12,7.601119169e-14,6.242473753e-14
0.71875,2.129866696e-12,1.629972714e-12,4.593566115e-13,6.161052179e-13,2.268255917e-14,6.587457396e-12,1.500828699e-12,9.792084271e-13,5.262145902e-14,2.908416850e-12,2.956680220e-12,1.234081557e-12,7.423016785e-12,6.295381967e-14,2.025080041e-13,5.291556261e-13,1.522603380e-13,1.698347265e-13,1.558889345e-13,1.591838642e-13,7.279707476e-13,2.267565414e-13,1.123090547e-12,6.751773493e-13,1.363397851e-12,5.813565608e-14,4.222038176e-12,3.374782572e-12,7.857743775e-13,9.270786253e-13,7.391573248e-14,5.642954596e-14
0.72656,2.034636234e-12,1.567237724e-12,4.480586064e-13,5.673055826e-13,1.891489964e-14,6.381167846e-12,1.462330163e-12,9.364628274e-13,4.728169201e-14,2.698001361e-12,2.727869284e-12,1.140824371e-12,9.948417535e-12,5.083244090e-14,2.241285573e-13,5.546634017e-13,1.943763664e-13,1.846601788e-13,1.473083156e-13,1.642797849e-13,6.894576809e-13,2.375399128e-13,1.063685879e-12,5.912039467e-13,1.360432924e-12,5.627738636e-14,4.337877569e-12,3.612563581e-12,7.835736466e-13,8.495725011e-13,7.390250612e-14,5.252311450e-14
0.73438,1.944521922e-12,1.451011810e-12,3.755556355e-13,5.044818685e-13,1.525644484e-14,5.816673667e-12,1.298462568e-12,8.350908812e-13,4.514060936e-14,2.436007195e-12,2.450705638e-12,1.027924074e-12,9.313182036e-12,4.609902323e-14,2.401633681e-13,5.259345377e-13,2.662497130e-13,1.785137562e-13,1.492876391e-13,1.798178281e-13,6.861799375e-13,2.252644826e-13,1.029180607e-12,5.712545465e-13,1.337049859e-12,4.769505504e-14,4.140980304e-12,3.793421637e-12,7.667284614e-13,7.584101285e-13,7.843166095e-14,5.064717492e-14
0.74219,1.891737086e-12,1.386560447e-12,3.120144509e-13,4.436812183e-13,1.214780939e-14,5.308180309e-12,1.174464082e-12,7.410501466e-13,5.125322974e-14,2.220977519e-12,2.288453975e-12,9.547007039e-13,6.971166210e-12,4.944758389e-14,2.490321457e-13,4.787920756e-13,3.636439224e-13,1.627429480e-13,1.694697366e-13,2.155749333e-13,7.312289383e-13,2.015080467e-13,1.055641028e-12,5.856351339e-13,1.398036523e-12,4.232932623e-14,4.069236709e-12,4.002579885e-12,7.877575995e-13,6.831123091e-13,8.037995310e-14,4.981258331e-14
0.75,1.902164446e-12,1.417928971e-12,3.069544512e-13,4.028456050e-13,9.864868089e-15,5.093998298e-12,1.165842856e-12,6.946683915e-13,6.524632447e-14,2.110788118e-12,2.310513990e-12,9.609101253e-13,8.749554023e-12,6.165204143e-14,2.509390142e-13,4.386163001e-13,4.842756613e-13,1.484953142e-13,1.966448965e-13,2.530376662e-13,8.043652792e-13,1.774895413e-13,1.129609395e-12,6.169655694e-13,1.524323237e-12,4.912741103e-14,4.228938157e-12,4.203662860e-12,8.427804714e-13,6.337845614e-13,7.791006776e-14,4.774327554e-14
0.75781,1.940787978e-12,1.443674634e-12,2.809413613e-13,3.806983339e-13,9.007159379e-15,4.836510036e-12,1.108293550e-12,6.468095401e-13,8.071726681e-14,2.031168074e-12,2.356406209e-12,9.866916776e-13,9.062613738e-12,8.188652659e-14,2.442806403e-13,3.819906444e-13,6.221853791e-13,1.305158069e-13,2.090087023e-13,2.620391455e-13,8.633996279e-13,1.475913245e-13,1.186394952e-12,6.748626891e-13,1.540150299e-12,4.879728800e-14,4.105769359e-12,4.258265448e-12,8.790509591e-13,5.998642226e-13,7.580229375e-14,4.336114693e-14
0.76562,2.000591508e-12,1.520113956e-12,2.727152297e-13,3.826049580e-13,9.279024569e-15,4.738395098e-12,1.101823448e-12,6.256605635e-13,1.043199859e-13,2.024913653e-12,2.498933302e-12,1.057647390e-12,6.386161158e-12,1.066935069e-13,2.320853180e-13,3.240908291e-13,7.500966158e-13,1.092296663e-13,2.250309110e-13,2.613032807e-13,9.206037492e-13,1.157872696e-13,1.252944610e-12,7.251345531e-13,1.551229158e-12,5.428475738e-14,3.960265732e-12,4.275229747e-12,9.239318400e-13,6.057299657e-13,7.093783026e-14,3.793675499e-14
0.77344,2.072525939e-12,1.671354250e-12,3.167358918e-13,4.080922375e-13,1.030079919e-14,4.963322305e-12,1.217650843e-12,6.564873681e-13,1.326821549e-13,2.121121516e-12,2.775356045e-12,1.183826119e-12,7.059614374e-12,1.353735139e-13,2.251802911e-13,3.069658199e-13,8.624824614e-13,9.907128878e-14,2.505238684e-13,2.668192299e-13,9.892812462e-13,9.136057148e-14,1.347996402e-12,7.709624581e-13,1.623186778e-12,7.429589617e-14,4.073726123e-12,4.353850637e-12,9.755459001e-13,6.801590370e-13,5.972325529e-14,3.241419658e-14
0.78125,2.116712815e-12,1.756891011e-12,3.432642352e-13,4.427030919e-13,1.187434483e-14,5.109459347e-12,1.286675343e-12,6.817443849e-13,1.481345444e-13,2.222700407e-12,2.955169252e-12,1.275828025e-12,8.028404892e-12,1.645391024e-13,2.343985453e-13,3.394787268e-13,9.609814554e-13,1.095549777e-13,2.554839984e-13,2.484500045e-13,1.023273076e-12,7.371331698e-14,1.395773378e-12,8.207598565e-13,1.599945230e-12,7.826593839e-14,3.956195362e-12,4.358633821e-12,9.771272602e-13,8.119631772e-13,4.908104465e-14,2.622380869e-14
0.78906,2.125015227e-12,1.799159876e-12,3.801321484e-13,4.783001490e-13,1.349109144e-14,5.210766911e-12,1.361824412e-12,7.034707517e-13,1.573463484e-13,2.324706277e-12,3.046307586e-12,1.328226979e-12,5.775544438e-12,1.834607257e-13,2.627442512e-13,4.248701321e-13,1.039679150e-12,1.375620919e-13,2.523303432e-13,2.148277720e-13,1.040226299e-12,5.985844972e-14,1.423998295e-12,8.631454751e-13,1.554205353e-12,7.907762670e-14,3.693150800e-12,4.337627515e-12,9.523343505e-13,1.005090877e-12,4.020685037e-14,2.094085529e-14
0.79688,2.096318858e-12,1.848716502e-12,4.616387927e-13,5.061119029e-13,1.436896883e-14,5.456134341e-12,1.531850976e-12,7.465940504e-13,1.666975074e-13,2.446665961e-12,3.129207296e-12,1.362658410e-12,5.708685362e-12,1.847907162e-13,3.178117060e-13,5.697191262e-13,1.077021000e-12,1.803014648e-13,2.540054509e-13,1.947382423e-13,1.054980872e-12,5.559959768e-14,1.463786621e-12,8.652746796e-13,1.595758910e-12,1.016930571e-13,3.685201151e-12,4.324910698e-12,9.381527076e-13,1.237250365e-12,3.117162802e-14,1.793479133e-14
0.80469,2.036028744e-12,1.802804303e-12,4.970125808e-13,5.136360949e-13,1.455844953e-14,5.497547234e-12,1.624556208e-12,7.610646799e-13,1.619189730e-13,2.518239328e-12,3.067137011e-12,1.334044471e-12,7.018123844e-12,1.777305148e-13,3.923965617e-13,7.289783432e-13,1.080039507e-12,2.276588610e-13,2.465125616e-13,1.785920111e-13,1.048361520e-12,5.747062671e-14,1.465052817e-12,8.427887879e-13,1.596001616e-12,1.137241036e-13,3.600599732e-12,4.215313790e-12,8.999208117e-13,1.459966659e-12,2.538688593e-14,1.728421005e-14
0.8125,1.956717904e-12,1.648919685e-12,4.953204274e-13,5.024694891e-13,1.451600385e-14,5.302300696e-12,1.639696530e-12,7.393424723e-13,1.405957063e-13,2.527349554e-12,2.846049036e-12,1.230931380e-12,5.495365228e-12,1.639355991e-13,4.795377838e-13,9.103235525e-13,1.079889985e-12,2.874091436e-13,2.223012825e-13,1.523869095e-13,1.010780251e-12,6.309328346e-14,1.418803626e-12,8.074407413e-13,1.534071336e-12,1.113262893e-13,3.330222885e-12,3.955063603e-12,8.425083884e-13,1.651391135e-12,2.391128478e-14,1.873718754e-14
0.82031,1.838543689e-12,1.485425625e-12,5.187968198e-13,4.699437010e-13,1.341299014e-14,5.155385146e-12,1.723038329e-12,7.285059184e-13,1.207906456e-13,2.519321553e-12,2.628742819e-12,1.116819486e-12,5.218962150e-12,1.387707947e-13,5.672480341e-13,1.114149687e-12,1.074033454e-12,3.552096144e-13,1.951174027e-13,1.300402107e-13,9.477739780e-13,7.683109740e-14,1.360567115e-12,7.184572802e-13,1.514283585e-12,1.297323336e-13,3.274818357e-12,3.647098766e-12,8.010416731e-13,1.796916224e-12,2.711804991e-14,2.211738188e-14
0.82812,1.713719804e-12,1.310780123e-12,5.172033577e-13,4.242300458e-13,1.160793247e-14,4.948001276e-12,1.750287927e-12,7.087228242e-13,1.027711192e-13,2.470396494e-12,2.422136554e-12,1.006854698e-12,6.858311089e-12,1.106398933e-13,6.283863955e-13,1.256089482e-12,1.044467275e-12,4.009559715e-13,1.722938052e-13,1.168961304e-13,8.695800829e-13,8.962670768e-14,1.282999317e-12,6.219668759e-13,1.470242305e-12,1.474957482e-13,3.238814640e-12,3.318590259e-12,7.538968142e-13,1.882357304e-12,3.534464675e-14,2.557756951e-14
0.83594,1.588969312e-12,1.098159903e-12,4.627415306e-13,3.732934276e-13,9.919556371e-15,4.553445584e-12,1.651813180e-12,6.607684194e-13,8.052006608e-14,2.363470700e-12,2.191393457e-12,8.885408794e-13,5.900609039e-12,8.827217199e-14,6.475641539e-13,1.310572644e-12,1.001687822e-12,4.203286711e-13,1.445062278e-13,1.015969567e-13,7.686594913e-13,9.677745417e-14,1.161016681e-12,5.569091664e-13,1.343914188e-12,1.348365544e-13,2.981268755e-12,2.969126665e-12,6.853261206e-13,1.910295879e-12,4.674259927e-14,2.812441855e-14
0.84375,1.468040920e-12,9.400619327e-13,4.465872980e-13,3.272692387e-13,8.171400654e-15,4.264922333e-12,1.613634878e-12,6.330125740e-13,6.473702459e-14,2.274975230e-12,2.068542420e-12,8.206491818e-13,5.207874598e-12,7.421270962e-14,6.249119254e-13,1.318869229e-12,9.594766881e-13,4.204594254e-13,1.275952928e-13,9.216474393e-14,6.725117977e-13,1.009439053e-13,1.050871318e-12,5.212958091e-13,1.276774650e-12,1.270736767e-13,2.842464154e-12,2.744595676e-12,6.227856577e-13,1.930681885e-12,5.910067203e-14,3.017521351e-14
0.85156,1.352004743e-12,8.496351820e-13,4.487954395e-13,2.889078284e-13,6.285737708e-15,4.076835394e-12,1.587660492e-12,6.202042103e-13,5.874346245e-14,2.197102917e-12,2.037417425e-12,8.054130613e-13,6.920172430e-12,6.786162185e-14,5.712415618e-13,1.274904925e-12,9.106183308e-13,4.022612012e-13,1.252964309e-13,9.595698349e-14,5.949297882e-13,1.019451305e-13,9.610059595e-13,5.227102284e-13,1.260809375e-12,1.316076828e-13,2.801719904e-12,2.653197848e-12,5.665772940e-13,1.935367035e-12,7.285006653e-14,3.028837184e-14
0.85938,1.264412401e-12,7.973684854e-13,4.243382437e-13,2.611319085e-13,4.728536427e-15,3.796415290e-12,1.456468160e-12,5.907616575e-13,5.792944330e-14,2.092251835e-12,1.995744497e-12,8.067673485e-13,6.501208388e-12,6.763477700e-14,4.883101632e-13,1.142567307e-12,8.468613230e-13,3.583630730e-13,1.296004505e-13,1.115367057e-13,5.269660371e-13,9.434680410e-14,8.716057464e-13,5.622491654e-13,1.246319234e-12,1.121404328e-13,2.569813343e-12,2.643918338e-12,5.007962952e-13,1.929452715e-12,8.564988386e-14,2.746410058e-14
0.86719,1.202999906e-12,8.105871455e-13,4.291089109e-13,2.469743813e-13,3.534148578e-15,3.601593264e-12,1.357480243e-12,5.756264712e-13,6.622123727e-14,2.020154052e-12,2.016362322e-12,8.521659936e-13,5.032813437e-12,7.249083343e-14,3.872688551e-13,9.595439611e-13,7.595300614e-13,2.938847998e-13,1.503646059e-13,1.394036484e-13,4.916817268e-13,8.151335609e-14,8.245780222e-13,6.172754252e-13,1.318506171e-12,8.181539885e-14,2.404409505e-12,2.734434820e-12,4.508185566e-13,1.922008839e-12,9.225639517e-14,2.340736265e-14
0.875,1.163173725e-12,8.735974053e-13,4.527817465e-13,2.404494813e-13,2.627288641e-15,3.526517567e-12,1.315600680e-12,5.762671200e-13,7.987291154e-14,1.976986251e-12,2.073384006e-12,9.140643258e-13,6.063942869e-12,8.110035491e-14,2.965796982e-13,7.909796276e-13,6.669739705e-13,2.345971393e-13,1.747865809e-13,1.660991007e-13,4.811017013e-13,7.080577489e-14,8.210297405e-13,6.532230917e-13,1.450141939e-12,6.836420962e-14,2.397330767e-12,2.860805631e-12,4.206335863e-13,1.911806335e-12,9.515902908e-14,1.948276063e-14
0.88281,1.158670167e-12,9.351684646e-13,4.351369311e-13,2.405691509e-13,2.172079652e-15,3.382013682e-12,1.221770921e-12,5.626225570e-13,9.256506942e-14,1.923877673e-12,2.062423607e-12,9.499229028e-13,6.184166976e-12,9.197519231e-14,2.192491309e-13,6.198960983e-13,5.703445360e-13,1.810809503e-13,1.904319210e-13,1.822206399e-13,4.777593427e-13,5.878330332e-14,8.311159162e-13,6.740786873e-13,1.543574465e-12,5.565871844e-14,2.267001418e-12,2.908991851e-12,3.940295873e-13,1.866165920e-12,9.667106169e-14,1.513117560e-14
0.89062,1.172760628e-12,1.006428316e-12,4.139533099e-13,2.447503783e-13,2.265784702e-15,3.238644450e-12,1.140091536e-12,5.464693771e-13,1.064131931e-13,1.873114577e-12,2.022867848e-12,9.621585438e-13,4.495786581e-12,9.499954203e-14,1.591360017e-13,4.555088588e-13,4.523287349e-13,1.274681560e-13,2.002329705e-13,1.918540659e-13,4.767339686e-13,4.579682484e-14,8.639713625e-13,6.874458161e-13,1.644557543e-12,3.863521198e-14,2.155257833e-12,2.897426782e-12,3.823031172e-13,1.812830314e-12,9.258397103e-14,1.144299007e-14
0.89844,1.184258300e-12,1.085335026e-12,4.125365106e-13,2.475148604e-13,2.923776150e-15,3.196900685e-12,1.127398838e-12,5.394631307e-13,1.197487876e-13,1.834021753e-12,1.995093801e-12,9.561994013e-13,4.683254423e-12,9.053101305e-14,1.248804995e-13,3.462785358e-13,3.471696921e-13,9.367131509e-14,2.030737593e-13,1.922181767e-13,4.729468291e-13,3.853728157e-14,9.105525448e-13,6.789934839e-13,1.746744896e-12,3.191907492e-14,2.184884605e-12,2.825081235e-12,3.875500250e-13,1.745507793e-12,8.493520206e-14,9.161322891e-15
0.90625,1.196939021e-12,1.126504499e-12,3.860113798e-13,2.520240027e-13,4.036027857e-15,3.096510933e-12,1.095345351e-12,5.176074847e-13,1.217542414e-13,1.778207433e-12,1.922104549e-12,9.057627178e-13,5.121238282e-12,8.579203805e-14,1.079843658e-13,2.773638896e-13,2.708666120e-13,7.339775135e-14,1.956024898e-13,1.769207358e-13,4.639414703e-13,3.323032153e-14,9.450477093e-13,6.818675040e-13,1.758718245e-12,3.056294262e-14,2.143767516e-12,2.670141664e-12,4.004676684e-13,1.658553317e-12,7.705161089e-14,8.199520511e-15
0.91406,1.193013114e-12,1.142515001e-12,3.428819951e-13,2.546825780e-13,5.805810824e-15,2.944111326e-12,1.042027345e-12,4.815366545e-13,1.155131465e-13,1.697932067e-12,1.814949386e-12,8.229834259e-13,3.883547875e-12,7.824527102e-14,1.017917078e-13,2.324524267e-13,2.174749120e-13,6.059344603e-14,1.790031916e-13,1.559289195e-13,4.480678209e-13,2.916609509e-14,9.575262124e-13,7.175677619e-13,1.710142790e-12,3.202920019e-14,2.067267689e-12,2.477999331e-12,4.252656683e-13,1.561085282e-12,6.916417708e-14,8.378436350e-15
0.92188,1.156833709e-12,1.161625919e-12,3.278218201e-13,2.552546711e-13,8.528022721e-15,2.867113151e-12,1.042398909e-12,4.539736046e-13,1.077734481e-13,1.620906537e-12,1.739312826e-12,7.426797790e-13,3.747545395e-12,6.622387324e-14,1.045116644e-13,2.208048226e-13,1.948206281e-13,5.804209945e-14,1.682283816e-13,1.492400000e-13,4.463054620e-13,2.955141992e-14,9.640267775e-13,7.982212479e-13,1.676416582e-12,4.174654354e-14,2.128611098e-12,2.333174658e-12,4.761259935e-13,1.448130635e-12,5.970628144e-14,9.420774341e-15
0.92969,1.113107169e-12,1.161683752e-12,3.117993861e-13,2.598056085e-13,1.153201343e-14,2.787079842e-12,1.026763870e-12,4.262451390e-13,9.467396324e-14,1.540677750e-12,1.664266572e-12,6.663347852e-13,4.366712349e-12,5.592156318e-14,1.086938180e-13,2.148587909e-13,1.996257079e-13,5.618189174e-14,1.596983331e-13,1.490970338e-13,4.552291784e-13,3.244013864e-14,9.493895519e-13,8.994042075e-13,1.603645559e-12,5.035917446e-14,2.177311385e-12,2.254039641e-12,5.401804050e-13,1.320711010e-12,5.068480337e-14,1.046688259e-14
0.9375,1.065755762e-12,1.134125155e-12,2.893789177e-13,2.683758544e-13,1.409942831e-14,2.673438032e-12,9.760317445e-13,3.958629956e-13,7.549860691e-14,1.452321778e-12,1.567346732e-12,6.009908011e-13,3.626006374e-12,5.008179080e-14,1.095101436e-13,2.010317027e-13,2.222656357e-13,5.156134941e-14,1.530864830e-13,1.607604837e-13,4.754896474e-13,3.754093245e-14,9.115985379e-13,9.954092688e-13,1.494177536e-12,5.690711781e-14,2.181401960e-12,2.250464647e-12,6.129631470e-13,1.177320368e-12,4.325804634e-14,1.137826732e-14
0.94531,1.013267281e-12,1.109874543e-12,2.938909179e-13,2.789345961e-13,1.645960470e-14,2.649338525e-12,9.626758561e-13,3.849909490e-13,6.063771590e-14,1.387882705e-12,1.518155594e-12,5.722361582e-13,3.369251406e-12,4.847026804e-14,1.063092351e-13,1.838988973e-13,2.512627020e-13,4.395899323e-14,1.594101039e-13,1.901981981e-13,5.181833532e-13,4.485878464e-14,8.803343944e-13,1.059390659e-12,1.429082308e-12,7.224566971e-14,2.290997559e-12,2.362688361e-12,6.979052122e-13,1.022519503e-12,3.656461300e-14,1.213291727e-14
0.95312,9.786832510e-13,1.080532900e-12,3.087679191e-13,2.955478703e-13,1.848364744e-14,2.674312538e-12,9.635407463e-13,3.851960536e-13,4.982037423e-14,1.340656254e-12,1.480627430e-12,5.700767604e-13,4.060954444e-12,4.978095691e-14,1.069703983e-13,1.686171104e-13,2.770940310e-13,3.576425127e-14,1.659537433e-13,2.150420258e-13,5.586547834e-13,5.372196277e-14,8.492314702e-13,1.074224470e-12,1.381515985e-12,8.723529321e-14,2.409918736e-12,2.518294909e-12,7.744799520e-13,8.704843944e-13,3.096015710e-14,1.221647591e-14
0.96094,9.627284384e-13,1.017147946e-12,3.150942373e-13,3.125522490e-13,1.907768488e-14,2.688661641e-12,9.395059229e-13,3.837188245e-13,3.913238269e-14,1.291198444e-12,1.400833210e-12,5.733316587e-13,3.701334888e-12,5.196902457e-14,1.154531054e-13,1.532045513e-13,2.870500523e-13,2.718140857e-14,1.642024585e-13,2.273936145e-13,5.805064239e-13,6.284457480e-14,8.065033629e-13,1.028889988e-12,1.307551835e-12,9.173275568e-14,2.426400488e-12,2.656688003e-12,8.197394181e-13,7.176166990e-13,2.923024845e-14,1.153113225e-14
0.96875,9.459434774e-13,9.482638118e-13,3.403615244e-13,3.233509888e-13,1.803582437e-14,2.761252841e-12,9.490348192e-13,3.893633132e-13,3.289705339e-14,1.257768062e-12,1.324740701e-12,5.840518440e-13,3.315369471e-12,5.341602239e-14,1.308381383e-13,1.455848259e-13,2.823728364e-13,1.858199517e-14,1.654349356e-13,2.366268987e-13,5.850908045e-13,7.099951277e-14,7.687174882e-13,9.127520105e-13,1.266518230e-12,9.928712334e-14,2.450681053e-12,2.715792193e-12,8.346462493e-13,5.724243570e-13,3.208163069e-14,1.058165883e-14
0.97656,9.350061824e-13,8.871451774e-13,3.677415881e-13,3.277168627e-13,1.633778770e-14,2.882540248e-12,9.887010853e-13,3.964234362e-13,3.152514109e-14,1.238178496e-12,1.245274849e-12,5.902234461e-13,3.934673157e-12,5.233050755e-14,1.588038724e-13,1.530308184e-13,2.632131940e-13,1.208266198e-14,1.649623873e-13,2.362451570e-13,5.745977808e-13,7.793440061e-14,7.386090105e-13,7.826156492e-13,1.252763443e-12,1.103841755e-13,2.473829563e-12,2.688549001e-12,8.221356873e-13,4.475759896e-13,3.918259181e-14,9.799776404e-15
0.98438,9.158440463e-13,8.099292069e-13,3.680824146e-13,3.199849609e-13,1.426527743e-14,2.964613290e-12,9.976095263e-13,3.923952202e-13,3.300039511e-14,1.221337321e-12,1.135648284e-12,5.826414631e-13,3.867659806e-12,5.152778296e-14,1.926198805e-13,1.662676771e-13,2.440983331e-13,8.387268833e-15,1.599912372e-13,2.210132976e-13,5.468016081e-13,7.999662557e-14,7.018435206e-13,6.723206997e-13,1.224963179e-12,1.076735452e-13,2.348163669e-12,2.532790872e-12,7.643240450e-13,3.483959594e-13,5.131666094e-14,9.250385236e-15
0.99219,8.752822859e-13,7.403278843e-13,3.613496175e-13,2.998184294e-13,1.261905804e-14,3.042668029e-12,1.007248735e-12,3.858918849e-13,3.898109181e-14,1.208753902e-12,1.020925081e-12,5.642033911e-13,3.342797963e-12,5.119418277e-14,2.271027024e-13,1.839281112e-13,2.253762950e-13,6.907028265e-15,1.558540695e-13,2.030591996e-13,5.082004836e-13,7.950065745e-14,6.613030950e-13,5.880679125e-13,1.197953947e-12,9.579360614e-14,2.147242261e-12,2.245194137e-12,6.742519630e-13,2.778848668e-13,6.545835646e-14,9.581639308e-15
1,8.299416136e-13,7.008938870e-13,3.563301534e-13,2.733227407e-13,1.198891844e-14,3.152329795e-12,1.017631718e-12,3.840677885e-13,4.940676183e-14,1.212449776e-12,9.339465129e-13,5.506868379e-13,3.693605866e-12,5.287789439e-14,2.545750742e-13,2.011770183e-13,2.190381433e-13,8.154040726e-15,1.589807945e-13,1.912679481e-13,4.782930580e-13,7.855867606e-14,6.342681330e-13,5.500868156e-13,1.208683842e-12,8.913190014e-14,1.968208295e-12,1.903595722e-12,5.807198808e-13,2.449262502e-13,7.976108853e-14,1.120613313e-14
1.0078,8.059403295e-13,6.811857894e-13,3.334268568e-13,2.466430227e-13,1.261325865e-14,3.227947413e-12,9.977982407e-13,3.853124751e-13,6.305286966e-14,1.242825890e-12,8.945947028e-13,5.538798455e-13,3.811125338e-12,5.997295083e-14,2.632855172e-13,2.025411738e-13,2.409114127e-13,1.175786168e-14,1.764868575e-13,1.931019283e-13,4.753539562e-13,7.210705187e-14,6.278806961e-13,5.608770816e-13,1.234903439e-12,8.252971154e-14,1.754314872e-12,1.577538052e-12,4.922633393e-13,2.598728649e-13,9.305689896e-14,1.441261258e-14
1.0156,8.077620415e-13,6.806511229e-13,3.037091166e-13,2.226691539e-13,1.443034704e-14,3.252153579e-12,9.304237179e-13,3.878666225e-13,7.746814403e-14,1.261454905e-12,8.839139519e-13,5.637649681e-13,3.227869446e-12,7.070391700e-14,2.546945844e-13,2.008203669e-13,2.908466653e-13,2.106297475e-14,1.969171643e-13,2.002183440e-13,4.858043599e-13,6.204704909e-14,6.379462600e-13,5.848161679e-13,1.273917352e-12,7.247194835e-14,1.539809524e-12,1.293199466e-12,4.219251969e-13,3.142368731e-13,9.850741099e-14,1.884985712e-14
1.0234,8.513746488e-13,7.104122620e-13,2.830116979e-13,2.047424715e-13,1.684555103e-14,3.269892249e-12,8.514006604e-13,3.981431906e-13,9.116683459e-14,1.278388143e-12,9.150365302e-13,5.820881026e-13,3.184249784e-12,8.359140225e-14,2.354216517e-13,2.101217764e-13,3.505184315e-13,3.567425467e-14,2.232625785e-13,2.138643790e-13,5.144358487e-13,5.416920002e-14,6.780654875e-13,5.973448309e-13,1.354671170e-12,6.793924002e-14,1.439557620e-12,1.096579898e-12,3.916811208e-13,4.076899302e-13,9.462293151e-14,2.386981652e-14
1.0312,9.454651549e-13,7.515285327e-13,2.637929930e-13,1.937519983e-13,1.875682833e-14,3.247773895e-12,7.546391021e-13,4.068862745e-13,9.929382348e-14,1.281400270e-12,9.672637929e-13,6.047101080e-13,3.362632453e-12,9.739094699e-14,2.122560326e-13,2.345996528e-13,4.354492123e-13,5.811800852e-14,2.608373463e-13,2.403555578e-13,5.679257953e-13,4.602957467e-14,7.518544172e-13,6.072197009e-13,1.460785457e-12,7.183904435e-14,1.447513256e-12,1.040056852e-12,4.030988098e-13,5.217981564e-13,8.662605229e-14,2.879751936e-14
1.0391,1.062584521e-12,7.861133142e-13,2.363437781e-13,1.845602616e-13,1.984952829e-14,3.135940917e-12,6.297561957e-13,4.055039381e-13,1.007716256e-13,1.244960892e-12,1.000149121e-12,6.074288196e-13,2.963090581e-12,1.061427183e-13,1.943369943e-13,2.830613678e-13,5.319841266e-13,9.214817155e-14,2.883872433e-13,2.570697713e-13,6.155420495e-13,3.674636544e-14,8.294084383e-13,5.925297995e-13,1.541185333e-12,8.129167019e-14,1.509805041e-12,1.094017434e-12,4.423012567e-13,6.282664136e-13,7.552084549e-14,3.332124339e-14
1.0469,1.180019447e-12,8.209246840e-13,2.180190638e-13,1.768685166e-13,1.964975469e-14,2.998630472e-12,5.273812076e-13,4.003956638e-13,9.670066455e-14,1.187686637e-12,1.021785035e-12,5.921359463e-13,2.729020428e-12,1.070834471e-13,1.888016670e-13,3.572602108e-13,6.162885761e-13,1.325282673e-13,3.031101694e-13,2.642143464e-13,6.501723478e-13,2.919557823e-14,9.035189985e-13,5.578788549e-13,1.596543844e-12,9.489694003e-14,1.662567869e-12,1.269655682e-12,5.009468857e-13,7.231992822e-13,6.149146189e-14,3.643429001e-14
1.0547,1.264942028e-12,8.397028666e-13,2.045808202e-13,1.686909581e-13,1.823889452e-14,2.858222106e-12,4.641094991e-13,3.907821237e-13,8.750108232e-14,1.116529705e-12,1.010736107e-12,5.616568147e-13,2.919944210e-12,1.011923525e-13,2.026621385e-13,4.494536606e-13,6.802368840e-13,1.788411848e-13,3.063835037e-13,2.632980655e-13,6.694144614e-13,2.429745476e-14,9.538208617e-13,5.290661896e-13,1.606205378e-12,1.061988443e-13,1.835300521e-12,1.539267148e-12,5.535390614e-13,7.873958190e-13,4.922404970e-14,3.741413057e-14
1.0625,1.287401881e-12,8.274613159e-13,1.867556907e-13,1.588462082e-13,1.572322204e-14,2.681297501e-12,4.276609981e-13,3.729538960e-13,7.410808464e-14,1.033955170e-12,9.580547581e-13,5.120465786e-13,2.825769815e-12,8.944239521e-14,2.304254253e-13,5.400704782e-13,7.148546453e-13,2.231708266e-13,2.864599641e-13,2.404569741e-13,6.529636584e-13,2.291678467e-14,9.555912410e-13,5.078190512e-13,1.523515518e-12,1.097974199e-13,1.928035758e-12,1.814075902e-12,5.762714357e-13,8.060426092e-13,4.112032503e-14,3.659337868e-14
1.0703,1.237444524e-12,7.890276998e-13,1.831371452e-13,1.510587887e-13,1.269230078e-14,2.510581634e-12,4.405457410e-13,3.572590231e-13,6.163776935e-14,9.699846126e-13,9.055174623e-13,4.694499243e-13,2.599083792e-12,7.564900465e-14,2.583555274e-13,5.991409130e-13,7.093264018e-13,2.536389288e-13,2.554003908e-13,2.086955814e-13,6.094657345e-13,2.374410337e-14,9.136673222e-13,5.029840127e-13,1.375730764e-12,1.076592206e-13,1.953283409e-12,2.092671100e-12,5.604108373e-13,7.792738652e-13,3.783664444e-14,3.423704880e-14
1.0781,1.144991454e-12,7.410881721e-13,2.006007073e-13,1.492224419e-13,1.023975040e-14,2.393799142e-12,4.962073404e-13,3.519724860e-13,5.197124264e-14,9.328331761e-13,8.624304170e-13,4.439433548e-13,2.784046091e-12,6.247546022e-14,2.825315304e-13,6.284209077e-13,6.744707894e-13,2.743885073e-13,2.168874775e-13,1.741142480e-13,5.459352538e-13,2.715712059e-14,8.390169702e-13,5.045738951e-13,1.211601668e-12,1.018063812e-13,1.937576841e-12,2.339650803e-12,5.145876885e-13,7.255423916e-13,3.766431271e-14,3.074163151e-14
1.0859,1.035123432e-12,6.722263916e-13,2.277018381e-13,1.509086927e-13,8.331612221e-15,2.291804149e-12,5.592388360e-13,3.525714150e-13,4.569327692e-14,9.136430380e-13,8.304075848e-13,4.372481999e-13,2.912265152e-12,5.154100382e-14,2.915705366e-13,6.137303480e-13,6.081033060e-13,2.780332695e-13,1.759945211e-13,1.363697607e-13,4.688959123e-13,3.188280072e-14,7.387641423e-13,4.940223584e-13,1.041647188e-12,8.859142885e-14,1.829279277e-12,2.519779972e-12,4.387941195e-13,6.467187039e-13,3.914435285e-14,2.663501782e-14
1.0938,9.552123185e-13,5.974573168e-13,2.710892580e-13,1.599153297e-13,7.564331626e-15,2.195066732e-12,6.228478451e-13,3.563947664e-13,4.264391325e-14,9.069953298e-13,8.184248538e-13,4.463834146e-13,2.687676729e-12,4.435742017e-14,2.786284444e-13,5.537033502e-13,5.196591037e-13,2.608699141e-13,1.398222612e-13,1.033697270e-13,3.882451606e-13,3.620083246e-14,6.342349407e-13,4.709941374e-13,9.082769090e-13,7.146953424e-14,1.679149013e-12,2.641341274e-12,3.570272218e-13,5.668775616e-13,3.911057376e-14,2.268886120e-14
1.1016,9.336611540e-13,5.330499256e-13,3.193627799e-13,1.703597504e-13,7.778971881e-15,2.129976847e-12,6.856138891e-13,3.659067470e-13,4.393126516e-14,9.083095447e-13,8.321304624e-13,4.710718568e-13,2.716640134e-12,3.981253000e-14,2.477150573e-13,4.719126230e-13,4.217582583e-13,2.305482551e-13,1.164476944e-13,8.075591036e-14,3.211359140e-13,3.988507250e-14,5.557269811e-13,4.269983037e-13,8.538543766e-13,5.839743309e-14,1.575461319e-12,2.767581501e-12,2.884151503e-13,5.096577438e-13,3.771061649e-14,1.981407604e-14
1.1094,9.819304801e-13,4.824183493e-13,3.588158283e-13,1.823168875e-13,8.900850228e-15,2.079273285e-12,7.368964952e-13,3.745103066e-13,4.725107759e-14,9.135489791e-13,8.615513190e-13,4.973299812e-13,2.924364157e-12,3.757791663e-14,2.060374262e-13,3.833470909e-13,3.251750911e-13,1.877406696e-13,1.124342178e-13,7.182050257e-14,2.812232012e-13,4.142007297e-14,5.158124903e-13,3.716549349e-13,8.752947369e-13,5.006161374e-14,1.508184867e-12,2.893873297e-12,2.407039563e-13,4.825012766e-13,3.490163658e-14,1.790352743e-14
1.1172,1.079105224e-12,4.406523518e-13,3.737458904e-13,1.910609970e-13,1.070504235e-14,1.985747705e-12,7.583076616e-13,3.675414344e-13,4.920421936e-14,8.920930198e-13,8.595840684e-13,4.969828228e-13,2.706282593e-12,3.459241002e-14,1.685278789e-13,3.085448628e-13,2.406146270e-13,1.463064691e-13,1.177077493e-13,7.015118172e-14,2.559826364e-13,4.107487131e-14,5.044582692e-13,3.060801492e-13,9.359358118e-13,4.539117441e-14,1.450513348e-12,3.009856099e-12,2.146233393e-13,4.978154303e-13,3.047256724e-14,1.747478529e-14
1.125,1.189832837e-12,4.175689858e-13,3.758793643e-13,1.967034596e-13,1.230105300e-14,1.881240472e-12,8.007660717e-13,3.509504599e-13,5.080601707e-14,8.646974463e-13,8.499096801e-13,4.798851241e-13,2.453733979e-12,3.163728073e-14,1.388106803e-13,2.582615969e-13,1.777300179e-13,1.116047959e-13,1.347415045e-13,7.805695700e-14,2.506366531e-13,3.985763280e-14,5.255444263e-13,2.419274005e-13,1.042249446e-12,4.600187004e-14,1.448538281e-12,3.131753536e-12,2.061787245e-13,5.540920545e-13,2.564497274e-14,1.824570507e-14
1.1328,1.284770262e-12,4.184907328e-13,3.652245850e-13,2.018053651e-13,1.371334327e-14,1.805449976e-12,8.719831721e-13,3.297406926e-13,5.158202599e-14,8.496566608e-13,8.374455790e-13,4.536065741e-13,2.604846428e-12,2.930426713e-14,1.233768883e-13,2.378843767e-13,1.364267453e-13,8.259352504e-14,1.580784877e-13,9.010961990e-14,2.620737418e-13,3.880926531e-14,5.727873813e-13,1.920421735e-13,1.167969337e-12,5.141631144e-14,1.490243021e-12,3.249822316e-12,2.107209801e-13,6.425222197e-13,2.179849538e-14,1.941037762e-14
1.1406,1.317716440e-12,4.224736862e-13,3.340840869e-13,2.015734192e-13,1.473012475e-14,1.696863891e-12,9.270890880e-13,2.953907875e-13,4.775502978e-14,8.186985342e-13,7.823004772e-13,4.020647463e-13,2.513012481e-12,2.628878704e-14,1.216408670e-13,2.433772993e-13,1.153438843e-13,6.375501995e-14,1.707606456e-13,9.532682927e-14,2.708151168e-13,3.910702907e-14,6.113581234e-13,1.513640707e-13,1.248203918e-12,5.478942321e-14,1.481079698e-12,3.248721427e-12,2.119731861e-13,7.331909975e-13,1.983937984e-14,2.039757309e-14
1.1484,1.281857825e-12,4.322696305e-13,3.034502198e-13,1.978664300e-13,1.475476572e-14,1.598490118e-12,9.909725647e-13,2.569314179e-13,4.203971109e-14,7.957133016e-13,7.182289079e-13,3.464764291e-13,2.152696279e-12,2.248431813e-14,1.263955435e-13,2.668280327e-13,1.107812454e-13,5.449195441e-14,1.767672260e-13,9.989477690e-14,2.802584509e-13,4.070386615e-14,6.395685901e-13,1.271276106e-13,1.308908382e-12,5.614198081e-14,1.450636813e-12,3.135869991e-12,2.103081003e-13,8.150021134e-13,1.972624927e-14,2.089209939e-14
1.1562,1.201652192e-12,4.562482764e-13,2.929619615e-13,1.952291064e-13,1.413992544e-14,1.564505271e-12,1.070433331e-12,2.275134463e-13,3.724002971e-14,7.964606767e-13,6.759859476e-13,3.105379547e-13,2.282065466e-12,1.896189838e-14,1.380534598e-13,3.110219927e-13,1.225160922e-13,5.600414104e-14,1.716466501e-13,1.007559824e-13,2.821675636e-13,4.246426565e-14,6.487510811e-13,1.068921849e-13,1.366468413e-12,5.838855311e-14,1.448017951e-12,2.915409592e-12,2.102653029e-13,8.702003482e-13,2.055945965e-14,1.974051411e-14
1.1641,1.092071909e-12,4.635144731e-13,2.865725633e-13,1.885013363e-13,1.302739563e-14,1.537280007e-12,1.090841965e-12,2.023608195e-13,3.264574011e-14,7.911941788e-13,6.299433075e-13,2.838743574e-13,2.400075971e-12,1.593133957e-14,1.552617933e-13,3.612730586e-13,1.455617488e-13,6.558436919e-14,1.546569596e-13,9.471765046e-14,2.749518280e-13,4.300088700e-14,6.283824434e-13,9.231068761e-14,1.379301905e-12,5.701706448e-14,1.391119457e-12,2.579815820e-12,2.061002626e-13,8.764549483e-13,2.261947153e-14,1.732548441e-14
1.1719,9.731515098e-13,4.499253578e-13,2.961242770e-13,1.765737095e-13,1.121405560e-14,1.517691614e-12,1.038830186e-12,1.836709347e-13,2.978957538e-14,7.801709016e-13,5.908034909e-13,2.695189750e-13,2.045405582e-12,1.333364279e-14,1.743279534e-13,4.145372840e-13,1.813444091e-13,8.053438246e-14,1.305159469e-13,8.144339230e-14,2.583225309e-13,4.438070083e-14,5.782793989e-13,7.967383788e-14,1.357911722e-12,4.765968380e-14,1.273643997e-12,2.139806079e-12,1.965117025e-13,8.282680235e-13,2.523042053e-14,1.426352777e-14
1.1797,8.933278740e-13,4.439595127e-13,3.373323297e-13,1.697449748e-13,9.751226803e-15,1.565253761e-12,9.806195997e-13,1.795583570e-13,3.001512126e-14,7.765917694e-13,5.856288461e-13,2.750536928e-13,2.108689784e-12,1.102648263e-14,1.972905431e-13,4.742684390e-13,2.285532047e-13,1.017508584e-13,1.028600159e-13,6.935962346e-14,2.411528303e-13,4.593226268e-14,5.199820328e-13,7.235126204e-14,1.359957717e-12,3.899140995e-14,1.212858668e-12,1.692047808e-12,1.956939762e-13,7.615530623e-13,2.588592976e-14,1.093673257e-14
1.1875,8.604183268e-13,4.293166819e-13,3.907318102e-13,1.655181052e-13,8.743265497e-15,1.610363136e-12,8.830741511e-13,1.826719955e-13,3.162683759e-14,7.578838971e-13,5.830283174e-13,2.813154556e-13,2.389846907e-12,9.290050716e-15,2.259105618e-13,5.299687172e-13,2.846285711e-13,1.200197237e-13,7.887783384e-14,5.996188592e-14,2.267007362e-13,4.515685183e-14,4.615858913e-13,7.275315536e-14,1.356555968e-12,3.337792087e-14,1.155330937e-12,1.302485318e-12,1.962838095e-13,6.863430113e-13,2.648546591e-14,7.918262882e-15
1.1953,8.714208454e-13,4.072081988e-13,4.580280297e-13,1.680331394e-13,8.674888878e-15,1.616155435e-12,7.457577030e-13,1.895768007e-13,3.292621960e-14,7.133412853e-13,5.738439795e-13,2.755181429e-13,2.051609633e-12,8.910435634e-15,2.598164021e-13,5.731275281e-13,3.509705148e-13,1.332473856e-13,5.688527814e-14,4.987805930e-14,2.051557947e-13,4.623433222e-14,3.906130223e-13,8.634873725e-14,1.294416473e-12,2.480576080e-14,1.040928695e-12,9.451916103e-13,1.862937412e-13,6.268420281e-13,2.698695476e-14,5.658157115e-15
1.2031,9.328040460e-13,4.080938339e-13,5.581504677e-13,1.818870408e-13,9.560894411e-15,1.664928059e-12,6.356703991e-13,2.077668404e-13,3.509804878e-14,6.765162107e-13,5.932330042e-13,2.725502047e-13,1.924757120e-12,1.039952790e-14,2.888513843e-13,6.026851604e-13,4.189864045e-13,1.438720699e-13,4.115039639e-14,4.653943729e-14,1.932092379e-13,4.926208944e-14,3.367012102e-13,1.162527516e-13,1.251845926e-12,1.711604769e-14,9.738793668e-13,6.834169388e-13,1.789975056e-13,6.299414862e-13,2.585369765e-14,4.140080383e-15
1.2109,1.029752896e-12,4.285829132e-13,6.640005128e-13,2.059438673e-13,1.141004222e-14,1.713255477e-12,5.782113851e-13,2.287120853e-13,3.605545244e-14,6.517958653e-13,6.271455689e-13,2.652228086e-13,2.280212222e-12,1.275945650e-14,3.066438681e-13,6.117024590e-13,4.824145225e-13,1.487682578e-13,3.597884433e-14,5.218362646e-14,1.913884815e-13,5.496395666e-14,3.032435932e-13,1.691805828e-13,1.212143949e-12,1.390348470e-14,9.361530653e-13,5.406426127e-13,1.711212143e-13,7.126675360e-13,2.369935286e-14,3.321734590e-15
1.2188,1.141441385e-12,4.584979344e-13,7.442780047e-13,2.355667608e-13,1.403551947e-14,1.687063029e-12,5.450393555e-13,2.419217930e-13,3.285714749e-14,6.189810286e-13,6.448073333e-13,2.414239586e-13,2.069856790e-12,1.635875905e-14,3.061939044e-13,5.814158524e-13,5.322781542e-13,1.449856416e-13,3.879038463e-14,6.755843442e-14,1.903086258e-13,6.331086807e-14,2.806139982e-13,2.504864905e-13,1.117672263e-12,1.219625089e-14,8.455129761e-13,5.101711735e-13,1.548865077e-13,8.808176488e-13,2.122872244e-14,2.968963647e-15
1.2266,1.233348064e-12,5.010576760e-13,8.096030361e-13,2.638290838e-13,1.657626726e-14,1.664694109e-12,5.693061283e-13,2.568859776e-13,2.937031241e-14,6.142997307e-13,6.860744009e-13,2.229587920e-13,1.825160922e-12,1.938137058e-14,2.867149599e-13,5.256539121e-13,5.657864121e-13,1.383687567e-13,5.107285276e-14,9.456930756e-14,2.013519376e-13,7.276254291e-14,2.829648286e-13,3.623923215e-13,1.010965452e-12,1.277383079e-14,7.783738142e-13,5.693939707e-13,1.383051210e-13,1.104878175e-12,1.900261907e-14,2.981848123e-15
1.2344,1.298003967e-12,5.461155096e-13,8.515953256e-13,2.864744326e-13,1.883742391e-14,1.654006831e-12,6.442398195e-13,2.692389530e-13,2.690559356e-14,6.384778364e-13,7.391536120e-13,2.148668883e-13,2.253507963e-12,2.181752826e-14,2.487334590e-13,4.551393757e-13,5.714254579e-13,1.262693914e-13,7.228318298e-14,1.276296281e-13,2.300531478e-13,8.086768586e-14,3.181542031e-13,5.001679570e-13,9.407088212e-13,1.736457612e-14,7.828324858e-13,6.996582585e-13,1.328434029e-13,1.346169970e-12,1.638839932e-14,3.462102705e-15
1.2422,1.310336351e-12,5.595392573e-13,8.126727538e-13,2.925281610e-13,2.019763488e-14,1.549407047e-12,7.021543329e-13,2.619021438e-13,2.448789789e-14,6.592721610e-13,7.432370983e-13,2.036578799e-13,2.196022895e-12,2.320133430e-14,2.003812848e-13,3.687203626e-13,5.462305167e-13,1.111749851e-13,9.860911062e-14,1.530173696e-13,2.605756587e-13,8.472023364e-14,3.722582067e-13,6.469036674e-13,8.413610598e-13,2.188609784e-14,7.711474414e-13,8.431422774e-13,1.346237421e-13,1.535707692e-12,1.535944673e-14,4.532966456e-15
1.25,1.265915861e-12,5.558836422e-13,7.175201695e-13,2.847542694e-13,2.079853975e-14,1.430978125e-12,7.733038932e-13,2.488497154e-13,2.404187368e-14,6.962476990e-13,7.451052652e-13,2.014697324e-13,1.728533971e-12,2.168735948e-14,1.500283491e-13,2.790322595e-13,5.036550483e-13,9.650271530e-14,1.343434910e-13,1.855433258e-13,3.029938107e-13,8.496941701e-14,4.526523578e-13,8.044792763e-13,7.461430464e-13,3.081928390e-14,8.172369936e-13,9.972804875e-13,1.517010517e-13,1.644901420e-12,1.610327426e-14,6.441329890e-15
1.2578,1.174916125e-12,5.439552483e-13,6.182452351e-13,2.658240313e-13,2.051209131e-14,1.356921309e-12,8.646742434e-13,2.379461274e-13,2.617471382e-14,7.453019284e-13,7.477449605e-13,2.097903824e-13,1.997472121e-12,1.856531190e-14,1.061044112e-13,2.058900349e-13,4.427852406e-13,8.361169930e-14,1.740926098e-13,2.215807248e-13,3.526905345e-13,8.530802242e-14,5.484523091e-13,9.425100441e-13,7.011836416e-13,4.469020485e-14,9.414116680e-13,1.134773829e-12,1.824182876e-13,1.656634465e-12,1.920154719e-14,9.097351229e-15
1.2656,1.045828677e-12,5.020555090e-13,5.018312859e-13,2.349107870e-13,1.936626536e-14,1.252687182e-12,8.867259197e-13,2.187229965e-13,2.898412364e-14,7.638784831e-13,6.999352626e-13,2.122474296e-13,2.101334211e-12,1.544610214e-14,7.474854972e-14,1.548935710e-13,3.757866997e-13,7.824697305e-14,2.078119184e-13,2.356700685e-13,3.884050266e-13,8.564207444e-14,6.277369976e-13,1.041036603e-12,6.589495616e-13,5.356484886e-14,1.023535598e-12,1.169396556e-12,2.127413306e-13,1.544897303e-12,2.524299899e-14,1.244724154e-14
1.2734,8.980928951e-13,4.412903671e-13,3.659840393e-13,1.970148900e-13,1.713272387e-14,1.153236353e-12,8.539641676e-13,1.986527511e-13,3.232637158e-14,7.655907084e-13,6.343790534e-13,2.146384187e-13,1.537457021e-12,1.256162228e-14,5.541834203e-14,1.212448075e-13,3.104197846e-13,7.717212667e-14,2.347448390e-13,2.355169966e-13,4.064005061e-13,8.499588775e-14,6.846379127e-13,1.077557582e-12,6.150256057e-13,5.886742944e-14,1.081441864e-12,1.134941760e-12,2.389242733e-13,1.341905655e-12,3.364622000e-14,1.633417239e-14
1.2812,7.591451164e-13,3.939931220e-13,2.601926889e-13,1.626887532e-13,1.477828002e-14,1.138055628e-12,8.271701422e-13,1.910932434e-13,3.608747432e-14,7.579595465e-13,5.814894178e-13,2.203177191e-13,1.548201057e-12,9.314484498e-15,4.596896961e-14,1.080705706e-13,2.481965796e-13,7.726116956e-14,2.486702894e-13,2.336686319e-13,4.021921159e-13,8.622732303e-14,7.099572241e-13,1.040773476e-12,5.993609827e-13,6.967473784e-14,1.162019148e-12,1.058315191e-12,2.586050018e-13,1.100325822e-12,4.416103132e-14,2.037879569e-14
1.2891,6.423904152e-13,3.483824929e-13,1.910724313e-13,1.340164972e-13,1.248194137e-14,1.137308949e-12,7.630999995e-13,1.857602242e-13,3.732972195e-14,7.202024860e-13,5.179599327e-13,2.195139261e-13,1.754240673e-12,7.514747031e-15,4.225682839e-14,1.056260289e-13,1.982610961e-13,8.013372546e-14,2.491873584e-13,2.246699910e-13,3.754830145e-13,9.167297845e-14,6.888707255e-13,9.480326412e-13,5.783630506e-13,7.667290468e-14,1.145407206e-12,9.450550692e-13,2.565354545e-13,8.626393693e-13,5.566337769e-14,2.347608933e-14
1.2969,5.447740686e-13,3.026217378e-13,1.455973174e-13,1.141366010e-13,9.869302339e-15,1.162878556e-12,6.355290108e-13,1.816716568e-13,3.471972994e-14,6.605803934e-13,4.507436135e-13,2.125454714e-13,1.345078443e-12,6.959419500e-15,4.197742380e-14,1.081676412e-13,1.641531436e-13,8.881409961e-14,2.297588245e-13,1.984971853e-13,3.219670926e-13,1.014130403e-13,6.145552046e-13,8.190509047e-13,5.198490886e-13,6.906657130e-14,1.007330868e-12,7.848507011e-13,2.325653202e-13,6.460868877e-13,6.539585510e-14,2.463390835e-14
1.3047,4.683819898e-13,2.779975514e-13,1.301693888e-13,1.055154770e-13,7.715261991e-15,1.265900454e-12,5.135997654e-13,1.869691577e-13,3.117901183e-14,5.969701209e-13,4.115469866e-13,2.063301551e-13,1.353469151e-12,7.495861092e-15,4.403657723e-14,1.179499609e-13,1.373006829e-13,9.564588031e-14,1.965874837e-13,1.665244660e-13,2.574511167e-13,1.098910845e-13,5.216661577e-13,6.735917009e-13,4.642611768e-13,6.033448260e-14,8.962202462e-13,6.573528823e-13,2.042299535e-13,4.797926433e-13,7.198754044e-14,2.487896758e-14
1.3125,4.025891806e-13,2.654579773e-13,1.305753786e-13,1.061198503e-13,5.964798338e-15,1.371398089e-12,4.133639722e-13,1.923152740e-13,2.764978109e-14,5.412451736e-13,3.915486395e-13,2.040882833e-13,1.698454545e-12,1.000698303e-14,4.490566304e-14,1.226167375e-13,1.164493611e-13,9.522218773e-14,1.626125042e-13,1.420272384e-13,2.001913730e-13,1.140254004e-13,4.265720782e-13,5.467878986e-13,4.145850591e-13,5.671473010e-14,8.068948916e-13,5.858348698e-13,1.769490487e-13,3.816909424e-13,7.507328350e-14,2.437669627e-14
1.3203,3.439176436e-13,2.564633104e-13,1.398786087e-13,1.145641322e-13,4.847721000e-15,1.453396865e-12,3.101107362e-13,1.912648677e-13,2.172200879e-14,4.850956021e-13,3.752935315e-13,1.975305448e-13,1.390010829e-12,1.301253762e-14,4.666920384e-14,1.195561597e-13,1.004585547e-13,9.083731896e-14,1.198460499e-13,1.165749503e-13,1.449834095e-13,1.143649095e-13,3.254383169e-13,4.529762036e-13,3.428342273e-13,4.881579101e-14,7.190482287e-13,5.796292896e-13,1.576400661e-13,3.478662874e-13,7.340912860e-14,2.197615866e-14
1.3281,2.908770637e-13,2.622981424e-13,1.616994989e-13,1.240419003e-13,4.553368124e-15,1.553127151e-12,2.281690536e-13,1.947330698e-13,1.684701794e-14,4.548542973e-13,3.975178385e-13,2.014030289e-13,1.330015465e-12,1.749174847e-14,4.871717836e-14,1.193553751e-13,9.002207915e-14,8.303373130e-14,7.723288242e-14,8.782769739e-14,1.051990643e-13,1.099322885e-13,2.483389786e-13,4.025338191e-13,2.864154060e-13,3.672566195e-14,7.215568551e-13,6.697533988e-13,1.559075362e-13,3.835127950e-13,6.805503279e-14,1.851886071e-14
1.3359,2.486262439e-13,2.766560396e-13,1.801746216e-13,1.334299036e-13,4.871281223e-15,1.618213042e-12,1.896822249e-13,1.972813346e-13,1.455557278e-14,4.491279693e-13,4.365165964e-13,2.112982380e-13,1.798891305e-12,2.246787673e-14,5.079585744e-14,1.235352744e-13,8.606309386e-14,7.445301860e-14,4.634786010e-14,6.243925014e-14,8.229037980e-14,1.005805198e-13,2.021390939e-13,3.931435825e-13,2.664683386e-13,2.768067630e-14,8.012626117e-13,8.607144907e-13,1.728111371e-13,4.751655093e-13,5.995181201e-14,1.531794854e-14
1.3438,2.294629197e-13,2.842897840e-13,1.750308565e-13,1.382031955e-13,5.736823674e-15,1.571104728e-12,1.820540369e-13,1.881158036e-13,1.237812522e-14,4.449401739e-13,4.612877312e-13,2.100343412e-13,1.587105150e-12,2.638662515e-14,5.453649548e-14,1.332014451e-13,9.348706084e-14,7.131673604e-14,2.682751283e-14,4.720278633e-14,6.889080032e-14,8.743664524e-14,1.776631260e-13,4.118215676e-13,2.686566206e-13,2.329874868e-14,9.090422071e-13,1.146793066e-12,2.024835034e-13,6.058739688e-13,5.149163316e-14,1.274407233e-14
1.3516,2.327022643e-13,2.930138089e-13,1.693703372e-13,1.343923880e-13,6.683969223e-15,1.489912401e-12,2.065058158e-13,1.795442958e-13,1.142982556e-14,4.569487063e-13,5.005299629e-13,2.166488854e-13,1.296136658e-12,2.988420925e-14,6.126869321e-14,1.584241418e-13,1.204622204e-13,7.656016759e-14,1.597119067e-14,4.039185345e-14,6.410703446e-14,7.434363970e-14,1.754674557e-13,4.447840312e-13,3.019417086e-13,2.220960889e-14,1.091250467e-12,1.517333323e-12,2.421356301e-13,7.436475139e-13,4.570215473e-14,1.056265653e-14
1.3594,2.577312513e-13,3.059956937e-13,1.712257539e-13,1.258996234e-13,7.454180509e-15,1.400867555e-12,2.557106533e-13,1.747527107e-13,1.207944808e-14,4.802699460e-13,5.410445635e-13,2.266570679e-13,1.705108692e-12,3.152377698e-14,6.943548328e-14,1.984460668e-13,1.712913667e-13,9.200859428e-14,1.511310084e-14,4.139229679e-14,6.642299916e-14,6.420698207e-14,1.846514611e-13,4.845095345e-13,3.509328316e-13,2.100758782e-14,1.268985583e-12,1.891322510e-12,2.773450354e-13,8.592915655e-13,4.216241806e-14,9.220206456e-15
1.3672,2.951013940e-13,2.956309568e-13,1.532141281e-13,1.107575644e-13,7.972390845e-15,1.235505303e-12,2.974409968e-13,1.607126674e-13,1.112290245e-14,4.823605682e-13,5.341319034e-13,2.206494689e-13,1.662482161e-12,3.049910364e-14,8.145297202e-14,2.463543579e-13,2.490495509e-13,1.152771687e-13,2.526166306e-14,5.658700105e-14,7.461262673e-14,5.405200759e-14,1.941517843e-13,5.268625414e-13,3.794379949e-13,1.679871441e-14,1.302140720e-12,2.210722915e-12,2.908668232e-13,9.102349524e-13,4.181326908e-14,9.302446068e-15
1.375,3.308892622e-13,2.782042048e-13,1.374448527e-13,9.298315638e-14,8.093455009e-15,1.069616003e-12,3.515422017e-13,1.474821212e-13,9.761571907e-15,4.777919561e-13,5.110461581e-13,2.159880672e-13,1.261697985e-12,2.684514166e-14,9.757432914e-14,3.018332751e-13,3.472227684e-13,1.422004982e-13,4.470562764e-14,8.529329471e-14,9.162393026e-14,4.547598484e-14,2.091354763e-13,5.751519560e-13,4.002174672e-13,1.435349726e-14,1.292296585e-12,2.467426451e-12,2.911504760e-13,9.017112281e-13,4.450425861e-14,1.033941135e-14
1.3828,3.595290699e-13,2.703105685e-13,1.411934436e-13,7.886556420e-14,7.711033406e-15,9.715913984e-13,4.181772967e-13,1.416793415e-13,9.014886358e-15,4.765607434e-13,4.944920510e-13,2.209461658e-13,1.592989969e-12,2.347146757e-14,1.154738967e-13,3.574209159e-13,4.657946298e-13,1.702075552e-13,7.174195283e-14,1.256232344e-13,1.215064242e-13,4.186692196e-14,2.314873286e-13,6.254727256e-13,4.178798428e-13,1.610422872e-14,1.295942463e-12,2.618483270e-12,2.841782280e-13,8.570424233e-13,5.034260798e-14,1.149622309e-14
1.3906,3.690678868e-13,2.457987792e-13,1.418893552e-13,6.793997892e-14,7.025745192e-15,8.883983308e-13,4.418862734e-13,1.349981477e-13,8.283714878e-15,4.640936612e-13,4.550834882e-13,2.283056104e-13,1.722637804e-12,2.117651062e-14,1.313466830e-13,3.867740115e-13,5.730773400e-13,1.873505181e-13,1.049201961e-13,1.709205544e-13,1.616989596e-13,3.852889687e-14,2.490105774e-13,6.691078836e-13,3.928605711e-13,1.478938756e-14,1.164857012e-12,2.574213556e-12,2.510153738e-13,7.892413260e-13,5.807997766e-14,1.275418373e-14
1.3984,3.726981209e-13,2.136826052e-13,1.462143173e-13,6.097521278e-14,6.166006171e-15,8.328113632e-13,4.430570923e-13,1.292805763e-13,7.451485581e-15,4.453825438e-13,4.094591015e-13,2.403474355e-13,1.249915486e-12,1.881249544e-14,1.469778425e-13,3.920216316e-13,6.516680371e-13,1.906964100e-13,1.407416387e-13,2.213259592e-13,2.076321628e-13,3.450670381e-14,2.688110896e-13,6.988456710e-13,3.384777968e-13,1.025231570e-14,9.460343013e-13,2.383144104e-12,2.027554369e-13,7.388302070e-13,6.208487579e-14,1.407795309e-14
1.4062,3.749703089e-13,1.962666607e-13,1.667610454e-13,6.016603146e-14,5.448303360e-15,8.435097364e-13,4.573448293e-13,1.310827298e-13,7.747170035e-15,4.357409625e-13,3.923516987e-13,2.653857336e-13,1.366540686e-12,1.903315826e-14,1.555959323e-13,3.735423242e-13,6.921762857e-13,1.831962098e-13,1.733664517e-13,2.629262283e-13,2.527515029e-13,3.231624582e-14,2.956438682e-13,7.045038943e-13,2.976541053e-13,9.502799581e-15,7.782268115e-13,2.118324951e-12,1.587174746e-13,7.493268279e-13,6.395924373e-14,1.462102572e-14
1.4141,3.845979578e-13,1.780529972e-13,1.775903377e-13,6.225561843e-14,4.944305361e-15,8.438097214e-13,4.494172996e-13,1.298927670e-13,8.026257917e-15,4.254104137e-13,3.835519930e-13,2.864751151e-13,1.608531037e-12,2.130340335e-14,1.564657220e-13,3.313241099e-13,6.787541082e-13,1.674568392e-13,1.904020624e-13,2.762968151e-13,2.767410145e-13,3.279984143e-14,3.062634906e-13,6.759200025e-13,2.524209429e-13,1.022877104e-14,6.243485393e-13,1.774090018e-12,1.185728149e-13,8.304916243e-13,6.517293575e-14,1.399588068e-14
1.4219,4.060428320e-13,1.631839857e-13,1.757301931e-13,6.759028595e-14,4.716803535e-15,8.223161720e-13,4.076896453e-13,1.229710771e-13,7.569862307e-15,4.048364355e-13,3.781025281e-13,2.974398045e-13,1.178048239e-12,2.506157864e-14,1.528321892e-13,2.717360763e-13,6.189483186e-13,1.474427168e-13,1.932242803e-13,2.691466041e-13,2.785715149e-13,3.564951328e-14,3.004505114e-13,6.132683546e-13,2.011508537e-13,8.828579151e-15,4.512632192e-13,1.399946337e-12,8.242167039e-14,9.817966835e-13,6.312398576e-14,1.277933712e-14
1.4297,4.220346290e-13,1.598569353e-13,1.792609227e-13,7.284117916e-14,4.942635101e-15,8.205940551e-13,3.798762528e-13,1.197158793e-13,8.254910061e-15,3.926479357e-13,3.985578420e-13,3.107255956e-13,1.044974167e-12,2.949460280e-14,1.431607758e-13,2.100557897e-13,5.227721341e-13,1.277427524e-13,1.865570970e-13,2.489574042e-13,2.635826873e-13,4.001637818e-14,2.891945576e-13,5.214105721e-13,1.692192808e-13,7.793478153e-15,3.303653058e-13,1.084815806e-12,5.698187426e-14,1.163567562e-12,5.824258150e-14,1.096860902e-14
1.4375,4.411597605e-13,1.653184874e-13,1.751466981e-13,7.776960623e-14,5.691286241e-15,7.914777816e-13,3.592315968e-13,1.136489602e-13,8.738341988e-15,3.815519743e-13,4.166341292e-13,3.100177457e-13,1.287499444e-12,3.467407035e-14,1.336040431e-13,1.628025815e-13,4.174259219e-13,1.153542963e-13,1.666951431e-13,2.170307103e-13,2.319320214e-13,4.501697180e-14,2.664946658e-13,4.322854302e-13,1.537954485e-13,8.970259287e-15,2.646458271e-13,8.705195808e-13,4.489545443e-14,1.345879010e-12,5.191432189e-14,9.131618506e-15
1.4453,4.559238435e-13,1.763983715e-13,1.481825945e-13,8.131787765e-14,6.511537566e-15,7.181029503e-13,3.168907728e-13,1.017918042e-13,8.865700370e-15,3.655099335e-13,4.210624172e-13,2.933280204e-13,1.022048686e-12,4.216565543e-14,1.262821147e-13,1.282404638e-13,3.208261861e-13,1.106347841e-13,1.372922196e-13,1.799883681e-13,1.902799370e-13,4.900924696e-14,2.316806639e-13,3.714397271e-13,1.423178347e-13,1.134882049e-14,2.151768066e-13,7.612253686e-13,4.345404936e-14,1.496953448e-12,4.565164855e-14,7.594473391e-15
1.4531,4.533676785e-13,2.001481736e-13,1.176218309e-13,8.236134738e-14,7.394372775e-15,6.682240753e-13,2.865153693e-13,9.595234611e-14,1.038697287e-14,3.656750154e-13,4.437007053e-13,2.812860628e-13,8.578583764e-13,5.077381954e-14,1.238654691e-13,1.100667589e-13,2.509803869e-13,1.123977885e-13,1.102219689e-13,1.567950645e-13,1.563213060e-13,5.151223523e-14,2.033735344e-13,3.589473859e-13,1.498937132e-13,1.541613136e-14,2.081057137e-13,7.775124215e-13,5.287593479e-14,1.586926466e-12,3.957295739e-14,6.755961335e-15
1.4609,4.425585538e-13,2.270179338e-13,9.509083952e-14,8.201354256e-14,8.308724196e-15,6.398746139e-13,2.809396497e-13,9.524463386e-14,1.282414132e-14,3.809763140e-13,4.721264496e-13,2.736079574e-13,1.134075248e-12,6.267076237e-14,1.272132235e-13,1.065093185e-13,2.123984087e-13,1.147955155e-13,9.056408420e-14,1.509239204e-13,1.362023616e-13,5.025597791e-14,1.845917663e-13,4.039795117e-13,1.663822188e-13,1.931508053e-14,2.184340590e-13,8.823961281e-13,6.811638085e-14,1.627480707e-12,3.549037065e-14,6.714400033e-15
1.4688,4.233766071e-13,2.428361945e-13,6.803554484e-14,7.752781081e-14,8.959091768e-15,6.051142311e-13,2.634540065e-13,9.473072692e-14,1.591075896e-14,3.955423073e-13,4.781160475e-13,2.614874133e-13,9.860011880e-13,7.625477278e-14,1.326086771e-13,1.055113631e-13,2.002464235e-13,1.136773220e-13,8.009088160e-14,1.577305398e-13,1.289350780e-13,4.429098048e-14,1.728763690e-13,4.951120432e-13,1.773124273e-13,2.106202373e-14,2.193353516e-13,1.033126504e-12,8.773268581e-14,1.605092156e-12,3.495764304e-14,7.544578547e-15
1.4766,3.922561115e-13,2.534250868e-13,4.129565684e-14,7.095319677e-14,9.230248472e-15,6.104349551e-13,2.486364024e-13,1.000334262e-13,1.993972196e-14,4.197926908e-13,4.942290330e-13,2.550168064e-13,7.545510470e-13,8.771393979e-14,1.385830172e-13,1.023275327e-13,2.050035603e-13,1.069350704e-13,7.788278426e-14,1.770207665e-13,1.312179223e-13,3.890663989e-14,1.687411171e-13,6.061025928e-13,1.941879348e-13,2.409468428e-14,2.389785547e-13,1.196403155e-12,1.095657289e-13,1.542710213e-12,3.872890039e-14,8.993763652e-15
1.4844,3.537218505e-13,2.546543344e-13,2.700489667e-14,6.366334381e-14,9.107725678e-15,6.472453550e-13,2.555823813e-13,1.078091002e-13,2.351345877e-14,4.441253122e-13,5.148821613e-13,2.519213670e-13,9.831282281e-13,9.655585818e-14,1.408575919e-13,9.753537621e-14,2.112136934e-13,9.623505312e-14,7.905198334e-14,1.962918560e-13,1.352546356e-13,3.582084692e-14,1.671633253e-13,7.058882430e-13,2.080681842e-13,2.866369951e-14,2.688591734e-13,1.315742735e-12,1.267284026e-13,1.452905350e-12,4.614852319e-14,1.085241087e-14
1.4922,3.092658070e-13,2.332682418e-13,2.200662713e-14,5.650162193e-14,8.762569251e-15,6.779846912e-13,2.477857647e-13,1.092701431e-13,2.428360836e-14,4.442478864e-13,5.029757955e-13,2.382989470e-13,9.574928982e-13,1.009464869e-13,1.380058860e-13,8.806176528e-14,2.111227613e-13,8.165229987e-14,8.118347384e-14,2.042455702e-13,1.367784431e-13,3.492557073e-14,1.602379650e-13,7.797743660e-13,2.062552735e-13,3.000058608e-14,2.848368986e-13,1.362580029e-12,1.361644637e-13,1.333281523e-12,5.568569446e-14,1.294472836e-14
1.5,2.659592736e-13,2.047675176e-13,2.454574253e-14,5.223060941e-14,8.400238717e-15,7.237481583e-13,2.224123414e-13,1.085213608e-13,2.376164451e-14,4.256580836e-13,4.737164373e-13,2.186957366e-13,7.216870987e-13,9.867455764e-14,1.272928772e-13,7.297911230e-14,1.962180045e-13,6.390610211e-14,7.977705966e-14,1.971168376e-13,1.286407382e-13,3.820022188e-14,1.474959449e-13,7.969880627e-13,1.966426327e-13,2.785992951e-14,3.197937572e-13,1.327735774e-12,1.396190513e-13,1.208542284e-12,6.515935984e-14,1.484013721e-14
1.5078,2.303210053e-13,1.813051422e-13,3.522235326e-14,5.252184645e-14,8.138634042e-15,7.896464784e-13,1.987726796e-13,1.063965690e-13,2.247140094e-14,3.880824062e-13,4.361744842e-13,1.922544654e-13,9.010975154e-13,8.741558951e-14,1.093838671e-13,5.736289585e-14,1.674623727e-13,4.826081335e-14,7.266482534e-14,1.796493829e-13,1.123071765e-13,4.513927803e-14,1.318434978e-13,7.390385114e-13,1.909599432e-13,2.629138190e-14,3.828077555e-13,1.241751746e-12,1.394659416e-13,1.082070774e-12,7.134148516e-14,1.623352046e-14
1.5156,2.146951375e-13,1.637231906e-13,5.326537201e-14,5.862288326e-14,8.156897211e-15,8.351517773e-13,1.767552375e-13,9.782628374e-14,1.980773073e-14,3.389669370e-13,3.863921061e-13,1.653194983e-13,9.723645086e-13,7.449484339e-14,9.064717455e-14,4.652258629e-14,1.402989094e-13,3.856032571e-14,6.328106085e-14,1.548679599e-13,9.818945375e-14,5.216962022e-14,1.177342328e-13,6.436557252e-13,1.881068666e-13,2.688814312e-14,4.309411605e-13,1.129184104e-12,1.321621996e-13,9.786254121e-13,7.311475589e-14,1.750438457e-14
1.5234,2.232718964e-13,1.559753358e-13,7.944337246e-14,6.774259950e-14,8.483749492e-15,8.747575242e-13,1.439068246e-13,8.672860329e-14,1.652164778e-14,2.824594095e-13,3.231810527e-13,1.406609143e-13,7.665483943e-13,6.244704589e-14,7.167824485e-14,3.940418246e-14,1.176806371e-13,3.334715702e-14,5.358985720e-14,1.259313531e-13,8.711411843e-14,5.889853743e-14,1.077474632e-13,5.409188993e-13,1.911758917e-13,2.774545467e-14,4.834617318e-13,1.020619533e-12,1.216377152e-13,9.260309827e-13,6.987361492e-14,1.848146714e-14
1.5312,2.545716853e-13,1.613698719e-13,1.073022610e-13,7.759260146e-14,9.073978388e-15,9.237322068e-13,1.121131326e-13,7.921867242e-14,1.454251896e-14,2.303552405e-13,2.745838903e-13,1.243801959e-13,9.264702113e-13,4.995348684e-14,5.318654879e-14,3.625207089e-14,1.056610614e-13,3.240726463e-14,4.628670868e-14,1.010127388e-13,8.503109474e-14,6.362002769e-14,1.093105750e-13,4.286689034e-13,2.120219079e-13,2.705650860e-14,5.475928418e-13,9.340100829e-13,1.096097181e-13,9.358857493e-13,6.217923639e-14,1.846453484e-14
1.5391,3.044422246e-13,1.706917519e-13,1.260161983e-13,8.680544004e-14,9.650543700e-15,9.452818832e-13,9.366990002e-14,7.304174816e-14,1.454026167e-14,1.939912824e-13,2.457166746e-13,1.184536635e-13,1.083934277e-12,4.113366954e-14,3.810616455e-14,3.516221386e-14,1.096215139e-13,3.251686960e-14,4.225213674e-14,8.531694576e-14,9.131946893e-14,6.297170496e-14,1.195294784e-13,3.235284165e-13,2.417143012e-13,2.466900425e-14,5.694846527e-13,8.981202074e-13,9.792866768e-14,9.991881973e-13,5.071237058e-14,1.720154342e-14
1.5469,3.526600637e-13,1.789758993e-13,1.404373878e-13,9.206632487e-14,9.725351101e-15,9.362812551e-13,8.573577757e-14,6.882646764e-14,1.642376194e-14,1.715504877e-13,2.297515282e-13,1.197623448e-13,8.591924789e-13,3.773262482e-14,2.873741555e-14,3.766855169e-14,1.288613667e-13,3.252480376e-14,4.140620247e-14,7.809126551e-14,1.006880134e-13,5.732215039e-14,1.328090870e-13,2.377528071e-13,2.681061974e-13,2.334015545e-14,5.513844029e-13,8.774608580e-13,8.592913283e-14,1.097927366e-12,3.761975852e-14,1.549809113e-14
1.5547,3.847183532e-13,1.821835908e-13,1.523247718e-13,8.874383760e-14,9.035434115e-15,9.186285698e-13,8.445219284e-14,7.064902138e-14,1.997535771e-14,1.698212043e-13,2.399174629e-13,1.330150209e-13,8.727297628e-13,4.085194512e-14,2.426672573e-14,4.579435926e-14,1.575904534e-13,3.411709861e-14,4.374546039e-14,7.815703276e-14,1.114251269e-13,4.939717751e-14,1.483209306e-13,1.768266817e-13,2.941322640e-13,2.307301858e-14,5.337762772e-13,8.547079476e-13,7.504748326e-14,1.200340877e-12,2.685253995e-14,1.366558041e-14
1.5625,4.034305295e-13,1.811956385e-13,1.477565258e-13,8.302797512e-14,8.192936979e-15,8.716843265e-13,8.812360030e-14,7.437371649e-14,2.382285206e-14,1.839756632e-13,2.648454945e-13,1.494402480e-13,1.050244390e-12,4.836309280e-14,2.462504550e-14,6.115820766e-14,1.954290096e-13,3.757758936e-14,4.564249443e-14,8.185149905e-14,1.200046510e-13,4.022879074e-14,1.610306247e-13,1.337359736e-13,3.068634037e-13,2.072880022e-14,5.041183363e-13,8.330158851e-13,7.130714360e-14,1.282748174e-12,1.831200391e-14,1.170599824e-14
1.5703,4.022922690e-13,1.719497212e-13,1.275653904e-13,7.460331188e-14,7.205690327e-15,7.855543585e-13,1.044651592e-13,7.796564611e-14,2.908617297e-14,2.072519120e-13,2.972419279e-13,1.651498796e-13,8.676057535e-13,5.856109005e-14,2.901785771e-14,8.346001031e-14,2.367452031e-13,4.191246587e-14,4.572818036e-14,8.502721002e-14,1.214213605e-13,2.997352229e-14,1.645159036e-13,1.064104709e-13,2.964221863e-13,1.605553123e-14,4.459405855e-13,7.849938480e-13,7.217966000e-14,1.320290205e-12,1.223718421e-14,9.765765984e-15
1.5781,3.800669933e-13,1.645349525e-13,1.142102452e-13,6.524801626e-14,6.267546165e-15,7.102198808e-13,1.292098247e-13,8.484197985e-14,3.519040580e-14,2.385871238e-13,3.394155061e-13,1.815649012e-13,7.429254946e-13,6.934598079e-14,3.724285102e-14,1.103913296e-13,2.711768147e-13,4.673228082e-14,4.391485214e-14,8.599399690e-14,1.173473790e-13,2.109306157e-14,1.620346073e-13,9.287405150e-14,2.732368453e-13,1.367986526e-14,4.140174609e-13,7.110909870e-13,8.184540187e-14,1.297326223e-12,8.863343054e-15,8.591965578e-15
1.5859,3.531969399e-13,1.604353842e-13,1.009508425e-13,5.684112470e-14,5.643410983e-15,6.473598880e-13,1.464078834e-13,8.987622625e-14,3.954798351e-14,2.680892872e-13,3.742509109e-13,1.935662678e-13,8.795996943e-13,7.822777038e-14,4.761860585e-14,1.348676147e-13,2.955226941e-13,5.196551398e-14,4.138619730e-14,8.620152118e-14,1.133519613e-13,1.498492480e-14,1.572542499e-13,9.836987331e-14,2.491507218e-13,1.291400708e-14,4.074517043e-13,6.322927793e-13,9.747081827e-14,1.234398546e-12,6.469742792e-15,8.455692095e-15
1.5938,3.254193960e-13,1.552119139e-13,8.222854807e-14,4.992712525e-14,5.669661807e-15,5.921811030e-13,1.601003638e-13,9.176740313e-14,4.264282702e-14,2.929626801e-13,3.929068745e-13,1.994342883e-13,7.818512789e-13,8.731058147e-14,6.164141054e-14,1.542433323e-13,3.126398476e-13,5.608703358e-14,3.860137763e-14,8.581136325e-14,1.127960843e-13,1.006718425e-14,1.478806586e-13,1.241074513e-13,2.215279851e-13,1.199948129e-14,3.935101289e-13,5.561833511e-13,1.127386006e-13,1.151981944e-12,5.494987466e-15,9.283391755e-15
1.6016,3.012699301e-13,1.554432038e-13,7.196905866e-14,4.510913986e-14,6.564619390e-15,5.729353032e-13,1.738426336e-13,9.377330062e-14,4.477379613e-14,3.050399543e-13,3.967570534e-13,1.979327387e-13,6.220625690e-13,9.327404845e-14,8.064057082e-14,1.679603206e-13,3.227655326e-13,5.895573763e-14,3.735202397e-14,8.636110965e-14,1.173330041e-13,6.946434141e-15,1.376215056e-13,1.685256787e-13,2.010762512e-13,1.359466533e-14,4.019118969e-13,4.819158703e-13,1.294142272e-13,1.085258522e-12,4.945023893e-15,1.095362681e-14
1.6094,2.832425708e-13,1.626355518e-13,7.151506779e-14,4.247045285e-14,8.345019078e-15,5.877462344e-13,1.827884132e-13,9.552427465e-14,4.519923114e-14,3.059295704e-13,3.841392560e-13,1.882658689e-13,7.070337568e-13,9.348569739e-14,1.039804041e-13,1.710180511e-13,3.202610387e-13,5.886396050e-14,3.940607494e-14,8.980849055e-14,1.314380875e-13,5.263465104e-15,1.320069063e-13,2.357752653e-13,1.949097786e-13,1.664619694e-14,4.241821813e-13,4.323128168e-13,1.407977039e-13,1.056446535e-12,4.189519394e-15,1.279649797e-14
1.6172,2.670562227e-13,1.695147637e-13,7.801036996e-14,4.272969965e-14,1.068716238e-14,6.184736261e-13,1.824767378e-13,9.542132393e-14,4.283737573e-14,2.984925418e-13,3.509190639e-13,1.704520235e-13,6.972298524e-13,9.088464502e-14,1.294870395e-13,1.604455332e-13,3.037327593e-13,5.483086874e-14,4.270849447e-14,9.515811759e-14,1.501517641e-13,4.209741155e-15,1.255049727e-13,3.084424884e-13,1.904313936e-13,1.889710034e-14,4.244299160e-13,4.148554658e-13,1.418364768e-13,1.080578525e-12,3.778861112e-15,1.439258356e-14
1.625,2.498683535e-13,1.778155422e-13,9.561526943e-14,4.413540717e-14,1.314622955e-14,6.587413484e-13,1.803763323e-13,9.460955717e-14,3.873840208e-14,2.771364772e-13,3.045570328e-13,1.472752978e-13,5.837377123e-13,8.621456672e-14,1.554250612e-13,1.418407176e-13,2.797458112e-13,4.707810221e-14,4.895503421e-14,1.019222848e-13,1.701077233e-13,3.493339095e-15,1.194261379e-13,3.710991782e-13,1.844262171e-13,2.242027438e-14,4.084349399e-13,4.476278618e-13,1.340553570e-13,1.155649942e-12,4.086438174e-15,1.616756245e-14
1.6328,2.236772624e-13,1.888195544e-13,1.288313959e-13,4.823085500e-14,1.553537265e-14,7.130635784e-13,1.819773634e-13,9.529490552e-14,3.398998555e-14,2.498940858e-13,2.561795164e-13,1.212791314e-13,6.541241345e-13,7.776385858e-14,1.764798025e-13,1.211523600e-13,2.515111104e-13,3.732587091e-14,5.597178682e-14,1.080639132e-13,1.870466800e-13,2.785018554e-15,1.152968721e-13,4.232428448e-13,1.775568271e-13,2.609833854e-14,3.892337385e-13,5.324525221e-13,1.218303988e-13,1.261117117e-12,4.773185478e-15,1.702933976e-14
1.6406,2.016238907e-13,1.988326162e-13,1.711675482e-13,5.478316796e-14,1.776922161e-14,7.561568283e-13,1.851758318e-13,9.461658236e-14,2.765559482e-14,2.265782504e-13,2.133195537e-13,9.663312432e-14,7.048582546e-13,6.611963554e-14,1.881233597e-13,1.004309807e-13,2.171461156e-13,2.804153388e-14,5.874485601e-14,1.090470066e-13,1.925203029e-13,2.302141824e-15,1.086743428e-13,4.507470216e-13,1.652931150e-13,2.666109646e-14,3.564889416e-13,6.752573494e-13,1.090974459e-13,1.367131435e-12,5.935585929e-15,1.641254708e-14
1.6484,1.755988895e-13,2.006853985e-13,2.222598002e-13,6.084299610e-14,1.914125310e-14,7.848198498e-13,1.874989702e-13,9.186816129e-14,2.086631812e-14,2.038924924e-13,1.784110163e-13,7.818561519e-14,6.220150513e-13,5.450856355e-14,1.893819868e-13,8.110586378e-14,1.773005910e-13,1.948727288e-14,5.997768214e-14,1.041210532e-13,1.862614635e-13,1.961833873e-15,9.862294544e-14,4.399943213e-13,1.440642851e-13,2.450875662e-14,3.042749805e-13,8.409116721e-13,9.512184854e-14,1.440972173e-12,7.514908777e-15,1.489279341e-14
1.6562,1.517056283e-13,1.977682311e-13,2.784063024e-13,6.514774744e-14,1.937073120e-14,8.146718784e-13,1.915743147e-13,9.039617309e-14,1.524971056e-14,1.857722573e-13,1.570456274e-13,6.850952827e-14,6.583357439e-13,4.412734031e-14,1.806471567e-13,6.864437993e-14,1.412623661e-13,1.304080648e-14,5.950597088e-14,9.411205904e-14,1.707901790e-13,1.621276685e-15,8.838400964e-14,3.980243504e-13,1.248601890e-13,2.191705963e-14,2.595493579e-13,1.010808536e-12,8.492216426e-14,1.459519832e-12,9.499623058e-15,1.269299221e-14
1.6641,1.359666991e-13,1.851042478e-13,3.205035691e-13,6.595920174e-14,1.845292494e-14,8.267877832e-13,1.949316424e-13,8.787096590e-14,1.092682619e-14,1.746919562e-13,1.485369066e-13,6.732833730e-14,7.291202165e-13,3.407039722e-14,1.631460687e-13,6.070145795e-14,1.098034459e-13,9.089827135e-15,5.595578652e-14,8.246392805e-14,1.496752348e-13,1.557435020e-15,7.968220432e-14,3.447596353e-13,1.157568595e-13,1.847543509e-14,2.294810447e-13,1.131709896e-12,7.964220372e-14,1.404144659e-12,1.156621080e-14,1.007660539e-14
1.6719,1.338794706e-13,1.649564251e-13,3.429111112e-13,6.336481179e-14,1.645519149e-14,8.220892946e-13,1.917479827e-13,8.388101451e-14,7.679258740e-15,1.639093517e-13,1.430564386e-13,7.098855144e-14,6.448594046e-13,2.713968823e-14,1.490842274e-13,5.995973779e-14,8.495826305e-14,6.720474608e-15,5.057326396e-14,6.939138133e-14,1.291613223e-13,1.594690229e-15,7.366136806e-14,2.931719140e-13,1.165882024e-13,1.394549618e-14,2.081546708e-13,1.165521952e-12,7.723382766e-14,1.280692175e-12,1.325323947e-14,7.630886712e-15
1.6797,1.461465095e-13,1.446754650e-13,3.530081130e-13,5.802968312e-14,1.391829121e-14,8.136542703e-13,1.840857952e-13,8.109627427e-14,5.596590080e-15,1.526228629e-13,1.350088768e-13,7.727132513e-14,5.996302965e-13,2.381683279e-14,1.474296574e-13,7.018238568e-14,6.830138258e-14,5.910243740e-15,4.361426026e-14,5.522839400e-14,1.120389896e-13,2.000225829e-15,7.212262183e-14,2.532667036e-13,1.318875812e-13,9.847920407e-15,2.066947251e-13,1.117185160e-12,7.743417853e-14,1.097010582e-12,1.495380412e-14,5.400577446e-15
1.6875,1.732909649e-13,1.284483451e-13,3.471027295e-13,5.021711177e-14,1.118756382e-14,7.944077308e-13,1.776255543e-13,7.912613722e-14,4.782301378e-15,1.423149867e-13,1.266276064e-13,8.397445586e-14,6.416961097e-13,2.339515821e-14,1.613115191e-13,8.878207637e-14,6.305060692e-14,5.703000361e-15,3.755584524e-14,4.594665787e-14,1.036124775e-13,2.540977454e-15,7.717990620e-14,2.418734693e-13,1.569680112e-13,7.204160798e-15,2.212394757e-13,1.034672368e-12,7.785222475e-14,8.854741717e-13,1.715301577e-14,3.615988208e-15
1.6953,2.121771067e-13,1.193334778e-13,3.248691667e-13,4.222128214e-14,8.455851500e-15,7.647391805e-13,1.732605872e-13,7.671264363e-14,4.712980452e-15,1.302428534e-13,1.138262589e-13,8.568733866e-14,5.926822710e-13,2.679661069e-14,1.949914894e-13,1.174148460e-13,6.982644585e-14,5.414296298e-15,3.269510627e-14,4.279516836e-14,1.039852163e-13,3.378214151e-15,8.542576149e-14,2.581213720e-13,1.842283637e-13,5.506656655e-15,2.373855863e-13,9.558913032e-13,7.768809483e-14,6.661432018e-13,1.930449799e-14,2.406332696e-15
1.7031,2.568300732e-13,1.215876804e-13,3.004093781e-13,3.654667094e-14,6.273963223e-15,7.295172395e-13,1.761392419e-13,7.462300694e-14,5.514465392e-15,1.177370208e-13,9.792722751e-14,8.188036678e-14,5.233165168e-13,3.333607029e-14,2.427812962e-13,1.548118779e-13,8.988469279e-14,6.117761378e-15,2.829691023e-14,4.191927502e-14,1.073250035e-13,4.256013928e-15,9.442810491e-14,2.916025706e-13,2.058522103e-13,4.850850847e-15,2.496169157e-13,9.324846395e-13,7.620517920e-14,4.762171949e-13,2.238275314e-14,1.691413823e-15
1.7109,2.973300771e-13,1.316208832e-13,2.856162429e-13,3.309598982e-14,4.673617171e-15,7.002023463e-13,1.865082467e-13,7.331876056e-14,7.291919599e-15,1.103641798e-13,8.650881528e-14,7.881786109e-14,5.437977325e-13,4.205821125e-14,2.941498426e-13,1.911659007e-13,1.221737289e-13,8.016873452e-15,2.586129394e-14,4.805430259e-14,1.139897274e-13,4.853858562e-15,1.032990233e-13,3.321517833e-13,2.201348105e-13,5.050571351e-15,2.580277577e-13,9.999434120e-13,7.349799044e-14,3.286278004e-13,2.675194354e-14,1.389139580e-15
1.7188,3.281433342e-13,1.448862615e-13,2.882708959e-13,3.375550048e-14,3.734472076e-15,6.789076539e-13,2.012131374e-13,7.159443376e-14,9.828910356e-15,1.120646498e-13,8.823170243e-14,7.882234136e-14,5.415889211e-13,5.272654645e-14,3.381498593e-13,2.195523542e-13,1.640847739e-13,1.068786864e-14,2.518290447e-14,5.932410558e-14,1.222483021e-13,5.299991000e-15,1.092886023e-13,3.663998878e-13,2.226338828e-13,5.754982943e-15,2.527030019e-13,1.153136555e-12,7.017292251e-14,2.327157518e-13,3.196205189e-14,1.335500056e-15
1.7266,3.350868412e-13,1.534757391e-13,3.074982793e-13,3.675583225e-14,3.355395199e-15,6.487125893e-13,2.311179662e-13,6.876955478e-14,1.319149366e-14,1.186507161e-13,1.019071404e-13,8.172132633e-14,4.803084977e-13,6.599383547e-14,3.726078382e-13,2.385168299e-13,2.094060257e-13,1.460805986e-14,2.486697826e-14,7.220287025e-14,1.232380984e-13,5.648684337e-15,1.075612807e-13,3.693771404e-13,2.041624173e-13,6.694732287e-15,2.282676844e-13,1.327387163e-12,6.503142457e-14,1.867116098e-13,3.824680326e-14,1.442138612e-15
1.7344,3.193578770e-13,1.543675271e-13,3.407491536e-13,4.171348817e-14,3.259839019e-15,6.221206382e-13,2.814506756e-13,6.712826401e-14,1.731486360e-14,1.374146735e-13,1.356923869e-13,9.393412808e-14,4.737296236e-13,8.049926180e-14,3.856734501e-13,2.428386149e-13,2.534953643e-13,2.038990894e-14,2.486527461e-14,8.648473236e-14,1.189771150e-13,5.943597734e-15,1.016297017e-13,3.391737690e-13,1.779369391e-13,7.785264135e-15,2.011143936e-13,1.513149246e-12,5.888807261e-14,1.749877752e-13,4.527538533e-14,1.602786374e-15
1.7422,2.864963872e-13,1.466792653e-13,3.786674967e-13,4.801444409e-14,3.400394013e-15,6.041265613e-13,3.356549034e-13,6.695979288e-14,2.102850974e-14,1.677089615e-13,1.864229022e-13,1.133287318e-13,4.842013653e-13,9.239850638e-14,3.706267688e-13,2.255063604e-13,2.863804217e-13,2.783865313e-14,2.511936323e-14,1.033761464e-13,1.153535399e-13,6.185988291e-15,9.439138486e-14,2.949513863e-13,1.553449699e-13,9.071458821e-15,1.789789840e-13,1.667323300e-12,5.365664310e-14,1.844655264e-13,5.141656343e-14,1.743046934e-15
1.75,2.444503585e-13,1.283948919e-13,4.053099448e-13,5.271954755e-14,3.548205487e-15,5.704248738e-13,3.882742477e-13,6.614477301e-14,2.341500371e-14,1.990729881e-13,2.426240834e-13,1.325042944e-13,4.272057582e-13,1.009253671e-13,3.375858120e-13,1.955055998e-13,3.006765879e-13,3.560289896e-14,2.426179780e-14,1.151817364e-13,1.063959011e-13,6.728264240e-15,8.436967708e-14,2.383824116e-13,1.376723847e-13,1.105108253e-14,1.624558550e-13,1.731422406e-12,5.125928544e-14,2.111154679e-13,5.571908677e-14,1.841025240e-15
1.7578,1.964288947e-13,1.031882794e-13,4.197867457e-13,5.520838524e-14,3.434534832e-15,5.336606857e-13,4.492300225e-13,6.728978291e-14,2.568863701e-14,2.343904023e-13,3.113650619e-13,1.546361451e-13,3.765988329e-13,1.087080138e-13,2.938995878e-13,1.599671429e-13,2.915679163e-13,4.245411852e-14,2.240436975e-14,1.182385328e-13,9.379690843e-14,7.527771786e-15,7.416952318e-14,1.756676567e-13,1.311292286e-13,1.331809394e-14,1.598306807e-13,1.713735545e-12,5.079311622e-14,2.385192403e-13,5.811993416e-14,1.841965293e-15
1.7656,1.597485857e-13,8.041794128e-14,4.175678288e-13,5.789913314e-14,3.133281404e-15,5.053069025e-13,5.019963862e-13,7.069070709e-14,2.693227612e-14,2.678942659e-13,3.787328572e-13,1.739902877e-13,3.812805584e-13,1.115860613e-13,2.439005713e-13,1.243803655e-13,2.646629230e-13,4.788476638e-14,2.050568666e-14,1.149187349e-13,8.224139058e-14,8.478442370e-15,6.875916378e-14,1.231054713e-13,1.417984989e-13,1.496222715e-14,1.778711615e-13,1.677562448e-12,5.462889197e-14,2.662794828e-13,5.542461852e-14,1.743866803e-15
1.7734,1.440184097e-13,6.262653514e-14,3.916316689e-13,5.757810473e-14,3.055268979e-15,4.724084585e-13,5.257948086e-13,7.258421403e-14,2.686359722e-14,2.888422810e-13,4.274588611e-13,1.827784223e-13,3.576648552e-13,1.103480207e-13,2.002473574e-13,9.745200078e-14,2.349989896e-13,5.176810275e-14,1.891404956e-14,1.059663548e-13,7.249748200e-14,9.388184075e-15,6.698330622e-14,9.110653997e-14,1.622473273e-13,1.569319696e-14,2.009088816e-13,1.586698096e-12,6.089953246e-14,3.038981289e-13,4.963463665e-14,1.625175077e-15
1.7812,1.521313843e-13,5.078455687e-14,3.535526689e-13,5.497049544e-14,2.878459992e-15,4.450331360e-13,5.275074975e-13,7.437216689e-14,2.667200852e-14,2.954696952e-13,4.563354410e-13,1.824054957e-13,3.096305654e-13,1.038984771e-13,1.607317176e-13,7.892312760e-14,2.100886251e-13,5.390869672e-14,1.877897247e-14,9.073313441e-14,6.259808961e-14,1.044332785e-14,6.744887333e-14,7.668218751e-14,1.879198912e-13,1.689561435e-14,2.316886133e-13,1.462769942e-12,6.898313502e-14,3.604719967e-13,4.373136321e-14,1.407890561e-15
1.7891,1.873401770e-13,4.686375120e-14,3.147057113e-13,5.305533670e-14,2.751963555e-15,4.306779926e-13,5.041048397e-13,7.583697393e-14,2.668596888e-14,2.868320795e-13,4.560945578e-13,1.754667075e-13,3.330551444e-13,9.065453526e-14,1.283103859e-13,7.047131113e-14,1.977185479e-13,5.221280254e-14,2.110318584e-14,7.129145314e-14,5.418778448e-14,1.175856265e-14,7.149740759e-14,7.985585130e-14,2.145071130e-13,1.728653700e-14,2.678632333e-13,1.338024438e-12,7.584918590e-14,4.459649827e-13,3.596746153e-14,1.176402000e-15
