Time,Fp1,AF3,F7,F3,FC1,FC5,T7,C3,CP1,CP5,P7,P3,Pz,PO3,O1,Oz,O2,PO4,P4,P8,CP6,CP2,C4,T8,FC6,FC2,F4,F8,AF4,Fp2,Fz,Cz,
0,2.395680873e-09,2.186402953e-09,1.042007079e-08,5.783703840e-10,6.547897264e-11,8.287568480e-10,5.491458924e-10,8.669568497e-10,2.723521435e-11,2.218719675e-09,4.388025524e-11,5.070881881e-10,3.087440707e-10,4.103741861e-10,1.166741697e-09,5.844823055e-10,8.163787318e-10,7.888467561e-11,1.222430796e-11,2.027798459e-10,2.778961122e-11,1.008140879e-09,3.311918852e-09,6.721759223e-10,2.122325891e-09,4.375006727e-11,2.651424184e-09,5.484978707e-11,3.087648911e-10,1.402118873e-08,8.222147937e-10,1.038998921e-10
0.0078125,2.365017946e-09,2.157900423e-09,1.030183124e-08,5.710771121e-10,6.514039346e-11,8.183348730e-10,5.414197974e-10,8.572566681e-10,2.724237982e-11,2.192339431e-09,4.416668726e-11,5.033447280e-10,3.022627509e-10,4.090844148e-10,1.158798436e-09,5.821055432e-10,8.124930080e-10,7.774320657e-11,1.200865302e-11,2.009635164e-10,2.766566744e-11,9.956494786e-10,3.285299269e-09,6.619825733e-10,2.093533959e-09,4.384115342e-11,2.621051882e-09,5.284943159e-11,3.046791145e-10,1.384928467e-08,8.125506225e-10,1.039649610e-10
0.015625,2.233632427e-09,2.038697159e-09,9.745375784e-09,5.398414154e-10,6.198817738e-11,7.729021221e-10,5.116448744e-10,8.109720718e-10,2.620291388e-11,2.072718682e-09,4.268961223e-11,4.779424183e-10,2.840220282e-10,3.902528846e-10,1.101043065e-09,5.546613546e-10,7.734342411e-10,7.343350912e-11,1.131907197e-11,1.905490669e-10,2.652612508e-11,9.410419718e-10,3.116624144e-09,6.238710665e-10,1.976488319e-09,4.208028960e-11,2.479257971e-09,4.956711826e-11,2.878049178e-10,1.308935845e-08,7.683142155e-10,9.965215429e-11
0.023438,2.021787007e-09,1.845090374e-09,8.832620282e-09,4.888495446e-10,5.668061107e-11,6.992046363e-10,4.642273332e-10,7.352733914e-10,2.440989683e-11,1.877960413e-09,3.996687445e-11,4.355754933e-10,2.554451626e-10,3.580363384e-10,1.003988886e-09,5.079076682e-10,7.070784755e-10,6.653471505e-11,1.019029284e-11,1.734066794e-10,2.463731989e-11,8.520917171e-10,2.835298003e-09,5.636751354e-10,1.786182119e-09,3.888554628e-11,2.246428876e-09,4.505571690e-11,2.602745955e-10,1.185325556e-08,6.962324896e-10,9.202107741e-11
0.03125,1.757442267e-09,1.602364911e-09,7.683337212e-09,4.247754954e-10,4.989941994e-11,6.069203845e-10,4.050774749e-10,6.401235745e-10,2.199262305e-11,1.633825071e-09,3.616112041e-11,3.817741211e-10,2.199206309e-10,3.164342575e-10,8.802151762e-10,4.477337206e-10,6.218032311e-10,5.790764078e-11,8.762674230e-12,1.516930945e-10,2.206845911e-11,7.403829502e-10,2.477930122e-09,4.892866445e-10,1.547223022e-09,3.459744201e-11,1.952806665e-09,3.949228277e-11,2.255669461e-10,1.030232501e-08,6.058414295e-10,8.189060740e-11
0.039062,1.470852626e-09,1.339824255e-09,6.432540030e-09,3.553816320e-10,4.228522620e-11,5.067382306e-10,3.413685840e-10,5.363946535e-10,1.908235496e-11,1.368310308e-09,3.152669283e-11,3.221375422e-10,1.822928317e-10,2.692698599e-10,7.429362247e-10,3.800540876e-10,5.262447083e-10,4.863875934e-11,7.239687654e-12,1.277834966e-10,1.894576119e-11,6.192763844e-10,2.083396509e-09,4.091309153e-10,1.289271398e-09,2.957507017e-11,1.633624577e-09,3.358471209e-11,1.881402072e-10,8.619923986e-09,5.075125597e-10,7.006886743e-11
0.046875,1.189607523e-09,1.082965831e-09,5.202088285e-09,2.874983199e-10,3.459435326e-11,4.083885632e-10,2.788646449e-10,4.342314829e-10,1.601207898e-11,1.107304957e-09,2.658870677e-11,2.625083385e-10,1.463579138e-10,2.212175908e-10,6.053800096e-10,3.114303848e-10,4.297307976e-10,3.959752692e-11,5.787689936e-12,1.039753456e-10,1.567365938e-11,5.005355618e-10,1.690525868e-09,3.308890834e-10,1.037540944e-09,2.435213120e-11,1.320022347e-09,2.798793491e-11,1.516658381e-10,6.968982901e-09,4.108039118e-10,5.780794453e-11
0.054688,9.345129570e-10,8.500183869e-10,4.083637016e-09,2.258878076e-10,2.750264553e-11,3.192195234e-10,2.221073166e-10,3.413302224e-10,1.312676931e-11,8.701676913e-10,2.193754203e-11,2.078436666e-10,1.141968585e-10,1.767380578e-10,4.790665602e-10,2.480271502e-10,3.407439238e-10,3.139007057e-11,4.493085908e-12,8.220233334e-11,1.263848022e-11,3.927790709e-10,1.331379367e-09,2.602694279e-10,8.098708824e-10,1.947110903e-11,1.035189728e-09,2.302789610e-11,1.186900182e-10,5.470143815e-09,3.229103332e-10,4.636228088e-11
0.0625,7.175161844e-10,6.515933779e-10,3.130014340e-09,1.733867741e-10,2.141189427e-11,2.433650671e-10,1.734929751e-10,2.621378363e-10,1.058592800e-11,6.681416948e-10,1.787914233e-11,1.610346034e-10,8.682296994e-11,1.383646285e-10,3.707237718e-10,1.934029450e-10,2.642133067e-10,2.437164570e-11,3.392013366e-12,6.358694484e-11,9.990470181e-12,3.009977922e-10,1.024492640e-09,2.004272352e-10,6.162546507e-10,1.522261605e-11,7.923386995e-10,1.870179229e-11,9.057665912e-11,4.193312403e-09,2.480538061e-10,3.641255907e-11
0.070312,5.410954479e-10,4.905410125e-10,2.354600503e-09,1.307497359e-10,1.637680058e-11,1.818465559e-10,1.336898900e-10,1.976692070e-10,8.394534241e-12,5.037084486e-10,1.435133586e-11,1.225696405e-10,6.474956212e-11,1.064372303e-10,2.816486854e-10,1.481157020e-10,2.010106195e-10,1.864230802e-11,2.509322305e-12,4.830089018e-11,7.727529110e-12,2.264645683e-10,7.736490512e-10,1.518747385e-10,4.598702819e-10,1.166310406e-11,5.951554840e-10,1.505028787e-11,6.782999491e-11,3.155675203e-09,1.871477303e-10,2.805212169e-11
0.078125,4.026973367e-10,3.647768978e-10,1.747869794e-09,9.745745598e-11,1.235542432e-11,1.338088763e-10,1.022058274e-10,1.471060328e-10,6.571983634e-12,3.747907477e-10,1.142223733e-11,9.208636795e-11,4.770418402e-11,8.079329996e-11,2.111186928e-10,1.118757403e-10,1.506604521e-10,1.414391974e-11,1.831895256e-12,3.620318210e-11,5.867873660e-12,1.682393675e-10,5.760705078e-10,1.138649293e-10,3.385084883e-10,8.791440681e-12,4.412325646e-10,1.204710521e-11,5.016788627e-11,2.343484993e-09,1.393940464e-10,2.127723987e-11
0.085938,2.969252548e-10,2.689711228e-10,1.285351364e-09,7.207502099e-11,9.236481576e-12,9.731477669e-11,7.779738220e-11,1.084707804e-10,5.117039658e-12,2.763557034e-10,9.098741543e-12,6.859807761e-11,3.484016923e-11,6.082916834e-11,1.568075544e-10,8.374312026e-11,1.117497486e-10,1.067713853e-11,1.325812111e-12,2.687909161e-11,4.413339582e-12,1.238680559e-10,4.247838281e-10,8.477324706e-11,2.467947378e-10,6.566361592e-12,3.241573925e-10,9.634151689e-12,3.678228544e-11,1.723788633e-09,1.028820059e-10,1.598415527e-11
0.09375,2.176998605e-10,1.973468046e-10,9.398334958e-10,5.306901004e-11,6.879600799e-12,7.014181023e-11,5.914811866e-11,7.953701992e-11,3.988899388e-12,2.025351665e-10,7.361116958e-12,5.092636384e-11,2.521057869e-11,4.575078825e-11,1.161593455e-10,6.256824410e-11,8.255623318e-11,8.046791872e-12,9.511659055e-13,1.986876520e-11,3.305557038e-12,9.070085838e-11,3.116344303e-10,6.290039137e-11,1.787170338e-10,4.898591662e-12,2.368426468e-10,7.703274159e-12,2.679663905e-11,1.260267510e-09,7.552224356e-11,1.197388450e-11
0.10156,1.588926679e-10,1.443430197e-10,6.843855314e-10,3.898701735e-11,5.105070820e-12,5.013813823e-11,4.502762223e-11,5.806363262e-11,3.104791579e-12,1.477140318e-10,6.103720263e-12,3.772239864e-11,1.809084716e-11,3.438186836e-11,8.593100752e-11,4.668044624e-11,6.078492967e-11,6.066187883e-12,6.784932428e-13,1.464393556e-11,2.461183926e-12,6.615879525e-11,2.276962171e-10,4.653963299e-11,1.287584991e-10,3.654049285e-12,1.724215334e-10,6.170699762e-12,1.944076591e-11,9.170377969e-10,5.520212461e-11,8.939377380e-12
0.10938,1.153737671e-10,1.053260676e-10,4.964540833e-10,2.860450061e-11,3.768100699e-12,3.554293022e-11,3.432533327e-11,4.220465129e-11,2.402941323e-12,1.072610341e-10,5.197804133e-12,2.785718427e-11,1.288888133e-11,2.574715951e-11,6.339795869e-11,3.468987810e-11,4.452862808e-11,4.574220333e-12,4.817785663e-13,1.075511428e-11,1.821580907e-12,4.808062598e-11,1.655888964e-10,3.433699995e-11,9.234958844e-11,2.725229455e-12,1.251405200e-10,4.953752108e-12,1.407024369e-11,6.641576416e-10,4.017479898e-11,6.636754153e-12
0.11719,8.332158808e-11,7.669381472e-11,3.587094783e-10,2.096921279e-11,2.767228984e-12,2.496086417e-11,2.624327276e-11,3.052626354e-11,1.848771897e-12,7.744821382e-11,4.575941260e-12,2.049396470e-11,9.123447638e-12,1.920972395e-11,4.668405321e-11,2.568037947e-11,3.244681223e-11,3.455531667e-12,3.421266217e-13,7.866767691e-12,1.336672167e-12,3.481034897e-11,1.197795171e-10,2.523762533e-11,6.597602576e-11,2.035825312e-12,9.058036994e-11,4.015543174e-12,1.018446734e-11,4.787668063e-10,2.910102568e-11,4.896974664e-12
0.125,5.976236899e-11,5.561862944e-11,2.576413043e-10,1.533475342e-11,2.024251491e-12,1.732846052e-11,2.013937100e-11,2.192909603e-11,1.419170572e-12,5.548681341e-11,4.190604355e-12,1.500869403e-11,6.397769738e-12,1.429241671e-11,3.429208774e-11,1.894877848e-11,2.351811559e-11,2.606665078e-12,2.450439882e-13,5.718685235e-12,9.667805003e-13,2.504750764e-11,8.603392804e-11,1.842789061e-11,4.684040008e-11,1.527110064e-12,6.527151569e-11,3.305919116e-12,7.369536814e-12,3.427962557e-10,2.094125141e-11,3.593367161e-12
0.13281,4.224188731e-11,4.001445546e-11,1.832750233e-10,1.119279599e-11,1.470536838e-12,1.188543095e-11,1.558452327e-11,1.558957626e-11,1.086300230e-12,3.921583638e-11,3.966829350e-12,1.088107047e-11,4.437952086e-12,1.055857532e-11,2.501807063e-11,1.389970019e-11,1.691977139e-11,1.951734797e-12,1.802877236e-13,4.122781366e-12,6.932604317e-13,1.787877553e-11,6.138040404e-11,1.331327783e-11,3.310145415e-11,1.159558275e-12,4.679474557e-11,2.756742193e-12,5.360638012e-12,2.429606988e-10,1.491739900e-11,2.625991824e-12
0.14062,3.001946126e-11,2.886837161e-11,1.299125600e-10,8.194845518e-12,1.067034521e-12,8.052636914e-12,1.210845512e-11,1.104238200e-11,8.285354281e-13,2.770898599e-11,3.812795614e-12,7.910120856e-12,3.032906975e-12,7.838265271e-12,1.842620049e-11,1.026737525e-11,1.219707485e-11,1.484963753e-12,1.366716814e-13,2.978082336e-12,5.037375354e-13,1.268873393e-11,4.339573290e-11,9.569782623e-12,2.303061365e-11,8.942385663e-13,3.336446727e-11,2.262535849e-12,3.879640022e-12,1.720424322e-10,1.060491000e-11,1.910823532e-12
0.14844,2.111874850e-11,2.063656353e-11,9.139743181e-11,5.950252290e-12,7.678099312e-13,5.463792477e-12,9.426502254e-12,7.729438612e-12,6.274631252e-13,1.926615654e-11,3.790969051e-12,5.688505802e-12,2.036645084e-12,5.776420020e-12,1.355421846e-11,7.576907713e-12,8.768389994e-12,1.136586200e-12,1.078782801e-13,2.149873076e-12,3.732475512e-13,8.928105398e-12,3.048739505e-11,6.787595315e-12,1.598626668e-11,7.037172491e-13,2.371586169e-11,1.891256246e-12,2.824789336e-12,1.202549593e-10,7.439341309e-12,1.389975336e-12
0.15625,1.488872838e-11,1.466456749e-11,6.369083093e-11,4.315122473e-12,5.564793928e-13,3.713096695e-12,7.365400320e-12,5.361541600e-12,4.809267689e-13,1.331643887e-11,3.816640910e-12,4.089209923e-12,1.347656997e-12,4.270681107e-12,1.004875345e-11,5.639555527e-12,6.304819941e-12,8.804216368e-13,8.964454616e-14,1.550201802e-12,2.532698996e-13,6.213788129e-12,2.108161013e-11,4.760065533e-12,1.099856817e-11,5.379851092e-13,1.671954903e-11,1.629742844e-12,2.067371270e-12,8.338533062e-11,5.179008060e-12,9.927203764e-13
0.16406,1.035853755e-11,1.023540468e-11,4.384736571e-11,3.071503063e-12,3.993220166e-13,2.600262489e-12,5.766393074e-12,3.639426420e-12,3.710543429e-13,8.909810963e-12,3.786332823e-12,2.908688864e-12,8.727988046e-13,3.185150585e-12,7.592490269e-12,4.252154983e-12,4.537691494e-12,7.052229153e-13,7.590153672e-14,1.118986664e-12,1.609306988e-13,4.259088239e-12,1.431556025e-11,3.278627242e-12,7.568550097e-12,4.118984059e-13,1.175992626e-11,1.409256124e-12,1.549706831e-12,5.637679513e-11,3.521111970e-12,6.949058162e-13
0.17188,7.322004142e-12,7.146634417e-12,3.008588244e-11,2.236550229e-12,2.854141394e-13,1.876704880e-12,4.712251209e-12,2.462246543e-12,2.811067220e-13,6.034240145e-12,3.742572704e-12,2.078451101e-12,5.440927325e-13,2.360488040e-12,5.790737385e-12,3.203600098e-12,3.244328146e-12,5.736273471e-13,6.623948462e-14,8.101507968e-13,1.118713640e-13,2.906393663e-12,9.662979265e-12,2.246754108e-12,5.153119268e-12,3.242495293e-13,8.234317488e-12,1.193493035e-12,1.175611073e-12,3.806403639e-11,2.388728657e-12,4.824433294e-13
0.17969,5.263319866e-12,4.950162320e-12,2.031032353e-11,1.650843199e-12,2.031471264e-13,1.453584214e-12,3.895485739e-12,1.650111643e-12,2.111758100e-13,4.093245822e-12,3.752083635e-12,1.469827759e-12,3.342941332e-13,1.761641216e-12,4.504384350e-12,2.463874331e-12,2.352236839e-12,4.627648059e-13,6.216833940e-14,5.839961709e-13,8.942438046e-14,1.944968542e-12,6.432094213e-12,1.516268828e-12,3.467793494e-12,2.657936915e-13,5.704389354e-12,1.017669148e-12,8.983996841e-13,2.556295466e-11,1.606884094e-12,3.363190299e-13
0.1875,3.881941013e-12,3.403099725e-12,1.373557184e-11,1.234591743e-12,1.489464332e-13,1.175856648e-12,3.389075533e-12,1.091714361e-12,1.705233326e-13,2.834038624e-12,3.962595743e-12,1.067547349e-12,2.143320340e-13,1.372482724e-12,3.710662801e-12,2.000200042e-12,1.760454220e-12,3.750209831e-13,5.865560898e-14,4.363930469e-13,6.728404802e-14,1.293117482e-12,4.197972698e-12,1.030347302e-12,2.365179388e-12,2.095436738e-13,3.944191981e-12,9.011890440e-13,7.023025998e-13,1.710578112e-11,1.076425924e-12,2.360944461e-13
0.19531,2.883644344e-12,2.251844579e-12,8.786195977e-12,9.376792317e-13,1.167073238e-13,1.060294427e-12,3.016242238e-12,7.280305450e-13,1.477678935e-13,2.034666876e-12,4.247437838e-12,8.035910299e-13,1.505704519e-13,1.115818616e-12,3.207082140e-12,1.667444583e-12,1.292046888e-12,2.958876277e-13,5.460257657e-14,3.073205685e-13,4.589088043e-14,8.003301013e-13,2.536978041e-12,6.912500212e-13,1.546979728e-12,1.489532740e-13,2.527616944e-12,8.080115065e-13,5.401170651e-13,1.129870590e-11,7.460650316e-13,1.549960231e-13
0.20312,2.291542557e-12,1.521458866e-12,6.224165357e-12,7.281864675e-13,9.078818662e-14,9.318674123e-13,3.003963030e-12,4.755813731e-13,1.247889681e-13,1.623130881e-12,4.440244233e-12,6.541607055e-13,9.206189389e-14,9.427847602e-13,2.974782744e-12,1.428418612e-12,9.698724411e-13,2.537059832e-13,4.651420514e-14,2.406541358e-13,4.360607444e-14,5.227775766e-13,1.591872240e-12,5.065789251e-13,1.014324559e-12,1.204896856e-13,1.737551594e-12,7.650541001e-13,4.421986819e-13,7.571670323e-12,5.152374769e-13,1.106856219e-13
0.21094,1.855722787e-12,1.040664504e-12,4.286301239e-12,6.086331054e-13,7.352840032e-14,8.129996756e-13,3.055667488e-12,3.048988836e-13,9.594314149e-14,1.323011523e-12,4.576335604e-12,5.123722542e-13,4.447516318e-14,7.992290789e-13,2.846414681e-12,1.256572087e-12,7.641511449e-13,2.221806162e-13,4.015942630e-14,1.991622681e-13,5.182170105e-14,3.454497954e-13,1.005464225e-12,3.635948825e-13,7.107054511e-13,1.017134701e-13,1.186301116e-12,7.794814116e-13,3.646189272e-13,5.286780044e-12,3.614799822e-13,7.557877786e-14
0.21875,1.464441933e-12,7.111383414e-13,3.133473434e-12,5.114544029e-13,6.472120764e-14,7.228516103e-13,3.206655117e-12,1.862170105e-13,7.930503563e-14,1.202974807e-12,4.795733264e-12,4.237285431e-13,2.145191868e-14,7.389948913e-13,2.908125134e-12,1.191899131e-12,6.487246750e-13,1.974947604e-13,3.587833980e-14,1.897537203e-13,5.431897015e-14,2.301999043e-13,6.061334587e-13,2.819085869e-13,5.260978265e-13,8.089193646e-14,8.313969658e-13,7.860379171e-13,3.117049112e-13,3.721453943e-12,2.590676863e-13,5.000911929e-14
0.22656,1.178996390e-12,5.151099018e-13,2.375619046e-12,4.509246517e-13,6.274386734e-14,6.440650680e-13,3.338549042e-12,1.118075468e-13,7.769713695e-14,1.213450507e-12,5.163711590e-12,3.815209892e-13,2.434874249e-14,7.601179690e-13,3.148525793e-12,1.213929361e-12,5.780373246e-13,1.781850901e-13,3.423857299e-14,1.920064375e-13,5.148916368e-14,1.571615364e-13,3.581813313e-13,2.281178144e-13,4.585344454e-13,6.078682214e-14,6.029551701e-13,7.741835823e-13,2.836308826e-13,2.885087968e-12,2.036188287e-13,3.621156058e-14
0.23438,9.484634565e-13,3.816665883e-13,1.923259943e-12,4.040193676e-13,5.692680864e-14,6.008707849e-13,3.416854273e-12,6.921283907e-14,7.834353205e-14,1.383283549e-12,5.541020215e-12,3.722564828e-13,3.559663268e-14,7.946509773e-13,3.429669381e-12,1.242622194e-12,5.066909611e-13,1.667922421e-13,3.552435836e-14,2.159428991e-13,4.950051510e-14,1.066433151e-13,2.027838412e-13,2.050200491e-13,4.158420074e-13,5.214249064e-14,4.481304031e-13,7.944707244e-13,2.623564883e-13,2.344131053e-12,1.669697937e-13,3.401226182e-14
0.24219,7.881181628e-13,3.108606361e-13,1.566062370e-12,3.725835859e-13,4.873363148e-14,5.760148841e-13,3.439116596e-12,4.977166809e-14,6.960892458e-14,1.627756490e-12,5.793283525e-12,3.482619838e-13,4.148763964e-14,7.742630779e-13,3.624819978e-12,1.229244063e-12,4.408298970e-13,1.648528236e-13,3.927551657e-14,2.510112015e-13,5.548563090e-14,7.480878257e-14,1.239215605e-13,1.814464231e-13,4.367141358e-13,5.322025243e-14,3.530990330e-13,8.435495087e-13,2.457695414e-13,2.192752838e-12,1.416397923e-13,3.399664156e-14
0.25,6.417188001e-13,2.536677167e-13,1.249867692e-12,3.376973854e-13,4.474150911e-14,5.610230081e-13,3.404717792e-12,4.481395671e-14,5.710533924e-14,1.948670445e-12,5.907445576e-12,3.190125182e-13,4.151648140e-14,7.239365823e-13,3.743156545e-12,1.204332622e-12,3.991420128e-13,1.689160829e-13,4.253855707e-14,2.955344811e-13,6.907873052e-14,5.399691516e-14,7.726073201e-14,1.724526233e-13,4.569073735e-13,5.125525897e-14,2.834885219e-13,8.564845227e-13,2.360138804e-13,2.135507473e-12,1.254558852e-13,2.820939207e-14
0.25781,6.012235369e-13,1.895926255e-13,9.392175563e-13,2.891057214e-13,4.217531619e-14,6.199253027e-13,3.315722832e-12,5.156455890e-14,4.768426789e-14,2.383465806e-12,5.967061183e-12,2.794575040e-13,7.165351181e-14,6.726967782e-13,3.767358793e-12,1.178743485e-12,3.399654205e-13,1.569460438e-13,4.658777361e-14,3.306529002e-13,8.392384258e-14,1.822495599e-14,5.063787256e-14,1.738437875e-13,4.862499142e-13,4.193760807e-14,1.615247298e-13,8.022415120e-13,1.994574759e-13,2.307818297e-12,1.251900771e-13,1.744611860e-14
0.26562,6.042736055e-13,2.048580152e-13,8.998618793e-13,2.462262016e-13,4.437964153e-14,6.329127790e-13,3.222885936e-12,6.020393306e-14,4.953331444e-14,2.756883915e-12,6.012703196e-12,2.843231199e-13,1.024908432e-13,7.322562042e-13,3.984850408e-12,1.286220344e-12,3.874996878e-13,1.630945085e-13,5.437775918e-14,3.567581260e-13,8.037289795e-14,1.137209018e-14,6.669087514e-14,1.767305881e-13,5.497240563e-13,3.569765375e-14,1.670663387e-13,7.328846296e-13,2.041742460e-13,2.875174437e-12,1.312363831e-13,1.814520302e-14
0.27344,5.616922657e-13,2.506704338e-13,7.109956340e-13,2.419526192e-13,4.305913642e-14,5.721643905e-13,3.095488677e-12,4.957266650e-14,5.217476604e-14,3.012080680e-12,6.012334460e-12,2.884048798e-13,1.114674286e-13,7.517932267e-13,3.999002751e-12,1.315001827e-12,4.096789237e-13,1.829161244e-13,6.208167494e-14,4.038702859e-13,7.653797561e-14,1.534616722e-14,6.278593485e-14,1.866166173e-13,5.962408178e-13,3.234882555e-14,1.466409079e-13,7.043726114e-13,2.058162798e-13,3.066562596e-12,1.322466253e-13,2.616749886e-14
0.28125,5.399689737e-13,2.833035561e-13,6.023672368e-13,2.282558735e-13,3.874340062e-14,5.521092237e-13,3.038812923e-12,4.956916459e-14,5.618897605e-14,3.333888717e-12,5.840756375e-12,3.155191156e-13,1.176217264e-13,7.095889717e-13,3.813115344e-12,1.260623736e-12,4.014895265e-13,2.061387086e-13,7.247071179e-14,4.414448180e-13,8.170583804e-14,1.650230763e-14,5.067949221e-14,1.970340442e-13,6.539305124e-13,3.087226337e-14,1.400132518e-13,6.960671032e-13,2.116414178e-13,3.360502874e-12,1.325704334e-13,2.784688260e-14
0.28906,5.326640715e-13,3.084713939e-13,5.052309558e-13,2.145509866e-13,3.747430105e-14,5.333606698e-13,3.089263706e-12,4.933975886e-14,6.191216615e-14,3.653576809e-12,5.481277704e-12,3.496919730e-13,1.178476659e-13,6.498657197e-13,3.536971193e-12,1.189919133e-12,4.095322387e-13,2.306164597e-13,8.271053878e-14,4.635367025e-13,9.468573118e-14,1.945671885e-14,4.423973054e-14,1.978610464e-13,6.895292245e-13,3.036125368e-14,1.395054810e-13,7.026685064e-13,2.216963668e-13,3.621568845e-12,1.351461762e-13,2.261848812e-14
0.29688,5.214368015e-13,3.099589805e-13,4.147526291e-13,1.996600990e-13,3.768917812e-14,5.407123061e-13,3.300347785e-12,5.183947845e-14,6.676724880e-14,3.979779898e-12,5.036543128e-12,3.817225721e-13,1.198975282e-13,6.076467223e-13,3.238066344e-12,1.133659302e-12,4.212483365e-13,2.470181984e-13,9.117364583e-14,4.719570816e-13,1.053378560e-13,1.986863386e-14,6.197288083e-14,1.884175038e-13,6.869677997e-13,3.185528455e-14,1.334579165e-13,7.154747784e-13,2.245379689e-13,3.707196657e-12,1.417165013e-13,1.481769061e-14
0.30469,5.016699402e-13,3.169473445e-13,3.290394748e-13,1.882823122e-13,3.635934408e-14,5.457967765e-13,3.717509439e-12,5.293439243e-14,6.828394523e-14,4.259729599e-12,4.592280764e-12,4.057812566e-13,1.195363766e-13,5.810302294e-13,2.929130381e-12,1.081436514e-12,4.296655832e-13,2.615815420e-13,9.802425499e-14,4.724568240e-13,1.086587250e-13,2.154318892e-14,7.807201659e-14,1.751234033e-13,6.700651656e-13,3.916395908e-14,1.345411430e-13,7.091400511e-13,2.280582683e-13,3.647531971e-12,1.427357467e-13,1.115253632e-14
0.3125,4.684566825e-13,3.237190361e-13,2.294759325e-13,1.822500312e-13,3.333796974e-14,5.436362820e-13,4.362422988e-12,4.969866415e-14,7.239176012e-14,4.485539255e-12,4.225954877e-12,4.319277419e-13,1.295317309e-13,5.681571432e-13,2.595360728e-12,1.018952796e-12,4.335155427e-13,2.747869842e-13,1.061837594e-13,4.783323050e-13,1.093300646e-13,2.491144003e-14,7.689108698e-14,1.669218542e-13,6.467113297e-13,4.989905778e-14,1.303375656e-13,6.769942358e-13,2.301664753e-13,3.381208721e-12,1.372080166e-13,1.403207265e-14
0.32031,4.415065436e-13,3.233871507e-13,1.695048702e-13,1.696395847e-13,3.173641382e-14,5.466893510e-13,5.253740918e-12,4.842035867e-14,8.579572951e-14,4.697819261e-12,3.960136753e-12,4.819490152e-13,1.548929303e-13,5.893407102e-13,2.305607709e-12,9.873361699e-13,4.674076185e-13,2.885965460e-13,1.178800638e-13,4.832344751e-13,1.084853854e-13,3.007524651e-14,6.559697045e-14,1.592246390e-13,6.301172923e-13,5.792119108e-14,1.304766490e-13,6.434066487e-13,2.326927055e-13,3.067623179e-12,1.260243781e-13,1.889103920e-14
0.32812,4.065490544e-13,2.975987137e-13,1.265441555e-13,1.515725935e-13,3.214525461e-14,5.516000794e-13,6.385539956e-12,4.789374192e-14,1.018556731e-13,4.847981239e-12,3.783023868e-12,5.350774770e-13,1.832795642e-13,6.195001182e-13,2.060409320e-12,9.706295726e-13,5.102620238e-13,3.033887253e-13,1.301557752e-13,4.840739360e-13,1.070269305e-13,3.764340886e-14,4.993412543e-14,1.559995573e-13,6.034289588e-13,5.810508668e-14,1.296039028e-13,6.293118592e-13,2.304762698e-13,2.665996110e-12,1.150324351e-13,2.043896377e-14
0.33594,3.578037030e-13,2.567266657e-13,1.104651856e-13,1.284535864e-13,3.054787565e-14,5.639552226e-13,7.708053041e-12,5.238135959e-14,1.094453793e-13,4.917094393e-12,3.611817016e-12,5.684483723e-13,2.032041507e-13,6.302480788e-13,1.852903297e-12,9.467474101e-13,5.326000331e-13,3.219429161e-13,1.407694043e-13,4.712768577e-13,1.130892533e-13,4.522334058e-14,4.350444782e-14,1.634372879e-13,5.780177961e-13,5.586614076e-14,1.272126237e-13,6.231907973e-13,2.182363534e-13,2.225180465e-12,1.025976679e-13,1.937875210e-14
0.34375,3.025602436e-13,2.144785245e-13,9.702382924e-14,1.105109158e-13,2.667686596e-14,5.649770324e-13,9.157273712e-12,5.383374721e-14,1.068921765e-13,4.839619449e-12,3.435266803e-12,5.717536189e-13,2.115458590e-13,6.292619024e-13,1.692616245e-12,9.188713424e-13,5.468328036e-13,3.464031682e-13,1.509267878e-13,4.523250081e-13,1.304421600e-13,5.331136586e-14,5.469528894e-14,1.845984302e-13,5.509596052e-13,5.883215842e-14,1.262548664e-13,6.347358514e-13,2.041276540e-13,1.778619114e-12,8.911641145e-14,2.114483130e-14
0.35156,2.539455623e-13,1.838101163e-13,1.003211528e-13,9.967507108e-14,2.256695654e-14,5.602308585e-13,1.066616681e-11,5.321701154e-14,1.048088224e-13,4.655349641e-12,3.352016683e-12,5.768776643e-13,2.167681948e-13,6.477172028e-13,1.586717284e-12,9.117859481e-13,5.682341258e-13,3.737981911e-13,1.608944536e-13,4.305279443e-13,1.514370290e-13,6.255317030e-14,7.935242871e-14,2.164522225e-13,5.403655307e-13,6.427142805e-14,1.258788458e-13,6.880139910e-13,1.910874801e-13,1.367769739e-12,7.703761617e-14,2.416494729e-14
0.35938,2.158997663e-13,1.613747267e-13,1.140952688e-13,9.253026072e-14,1.973271934e-14,5.541960156e-13,1.213406836e-11,5.167940982e-14,1.097185581e-13,4.437510465e-12,3.336947392e-12,6.038199535e-13,2.243975138e-13,6.929547417e-13,1.537537508e-12,9.372031237e-13,5.975064233e-13,4.033707216e-13,1.698208010e-13,4.032291272e-13,1.608637374e-13,7.006432462e-14,8.799383775e-14,2.676695274e-13,5.416074657e-13,6.531125471e-14,1.290815182e-13,7.680444216e-13,1.797389950e-13,1.044086181e-12,6.721567783e-14,2.354453612e-14
0.36719,1.857912649e-13,1.451006665e-13,1.398380607e-13,8.725664156e-14,1.744506588e-14,5.444386413e-13,1.347270483e-11,5.278459065e-14,1.197024370e-13,4.207172931e-12,3.363638457e-12,6.493249419e-13,2.347733384e-13,7.530475428e-13,1.510710274e-12,9.782958706e-13,6.240880394e-13,4.308124801e-13,1.770610905e-13,3.778809863e-13,1.595060798e-13,7.619618170e-14,8.007468384e-14,3.407911555e-13,5.529282318e-13,6.032823258e-14,1.307745631e-13,8.298659232e-13,1.653382354e-13,7.751321202e-13,5.969232294e-14,2.007381155e-14
0.375,1.682150710e-13,1.297402151e-13,1.838072833e-13,8.089504403e-14,1.561626673e-14,5.231273599e-13,1.460679816e-11,5.383117589e-14,1.323414779e-13,3.952911174e-12,3.440354248e-12,7.056852961e-13,2.530972451e-13,8.282138166e-13,1.508496238e-12,1.036689131e-12,6.559607742e-13,4.528780132e-13,1.847584817e-13,3.539039088e-13,1.586074191e-13,7.949446909e-14,7.111112576e-14,4.366074956e-13,5.650182911e-13,5.537597772e-14,1.339137219e-13,8.527429955e-13,1.547331300e-13,5.733021695e-13,5.376909973e-14,1.768503095e-14
0.38281,1.578356755e-13,1.165882297e-13,2.311714243e-13,7.643767304e-14,1.534081730e-14,4.864720545e-13,1.542351995e-11,5.082800283e-14,1.475215355e-13,3.694835367e-12,3.563362113e-12,7.689746622e-13,2.768360818e-13,9.173031242e-13,1.515012869e-12,1.110308741e-12,7.088459067e-13,4.710251531e-13,1.919335619e-13,3.372364907e-13,1.640863090e-13,8.432103622e-14,7.192928529e-14,5.440400852e-13,5.807980321e-13,5.217076961e-14,1.377264596e-13,8.673171227e-13,1.478199103e-13,4.128638456e-13,5.091100735e-14,1.779768875e-14
0.39062,1.590109587e-13,1.071646140e-13,2.905615172e-13,7.333110078e-14,1.588811590e-14,4.406002149e-13,1.591326027e-11,4.462340687e-14,1.631498871e-13,3.437549365e-12,3.748808089e-12,8.311516389e-13,2.983984761e-13,9.970844655e-13,1.498578597e-12,1.173392739e-12,7.643287313e-13,4.808921734e-13,1.953285318e-13,3.236495158e-13,1.684150058e-13,8.792643821e-14,7.715256208e-14,6.596555117e-13,5.971526175e-13,4.891722219e-14,1.419189766e-13,8.736649398e-13,1.404271771e-13,3.082205170e-13,4.992120148e-14,1.826893191e-14
0.39844,1.641753263e-13,1.021377309e-13,3.583571240e-13,7.299470066e-14,1.602686224e-14,3.935817272e-13,1.598775437e-11,3.758381825e-14,1.755599006e-13,3.202951163e-12,4.000991489e-12,8.850252376e-13,3.061227876e-13,1.048253182e-12,1.460602912e-12,1.209193265e-12,8.005036673e-13,4.870430396e-13,1.926679206e-13,3.113857614e-13,1.666175467e-13,9.118390642e-14,8.007601027e-14,7.809796925e-13,6.260854383e-13,4.507981689e-14,1.491364889e-13,8.522145576e-13,1.345022758e-13,2.406473855e-13,4.964178727e-14,1.863044304e-14
0.40625,1.863058158e-13,1.084756400e-13,4.561442938e-13,7.724951331e-14,1.534698288e-14,3.518173689e-13,1.562178747e-11,3.172067543e-14,1.817660114e-13,2.984876384e-12,4.302412362e-12,9.210403228e-13,3.021666680e-13,1.063294960e-12,1.394734444e-12,1.202393831e-12,7.943098807e-13,4.896078751e-13,1.872957597e-13,2.987870631e-13,1.641713007e-13,9.118860502e-14,8.130083324e-14,9.107980632e-13,6.592975245e-13,4.254663425e-14,1.571612268e-13,7.840489200e-13,1.373311704e-13,1.993178318e-13,5.255184777e-14,1.927322263e-14
0.41406,2.180855233e-13,1.216122623e-13,5.683254163e-13,8.479783271e-14,1.499511275e-14,3.154492888e-13,1.487257990e-11,2.755626957e-14,1.857711197e-13,2.791875661e-12,4.647944841e-12,9.493295737e-13,2.917251878e-13,1.060522130e-12,1.324773608e-12,1.172743092e-12,7.579396860e-13,4.850959726e-13,1.786851320e-13,2.856298184e-13,1.667094793e-13,8.918464911e-14,8.884672038e-14,1.044847654e-12,6.989829852e-13,4.228303180e-14,1.685626097e-13,7.064801614e-13,1.497219064e-13,1.885795604e-13,5.903791140e-14,2.051336226e-14
0.42188,2.535591647e-13,1.438560006e-13,6.887879529e-13,9.888481221e-14,1.583950171e-14,2.857908416e-13,1.377830785e-11,2.479965166e-14,1.899758593e-13,2.636795543e-12,4.935368359e-12,9.734823601e-13,2.791510991e-13,1.054637836e-12,1.260014333e-12,1.136258864e-12,7.113131353e-13,4.683027841e-13,1.655962336e-13,2.715512171e-13,1.716634332e-13,8.516239525e-14,9.968820003e-14,1.200877686e-12,7.294965849e-13,4.344679662e-14,1.760284451e-13,6.256816513e-13,1.636120411e-13,1.992212069e-13,7.134939741e-14,2.154184362e-14
0.42969,2.858447617e-13,1.669632967e-13,7.842763592e-13,1.148923227e-13,1.721563561e-14,2.581249570e-13,1.242686365e-11,2.419990460e-14,1.926201134e-13,2.506433399e-12,5.114545821e-12,9.878589876e-13,2.648703426e-13,1.046862013e-12,1.212516554e-12,1.102034465e-12,6.653146011e-13,4.387411260e-13,1.506147508e-13,2.539975171e-13,1.770192234e-13,7.988520579e-14,1.041894924e-13,1.369347698e-12,7.540538125e-13,4.522382544e-14,1.801214120e-13,5.464950794e-13,1.840260236e-13,2.274987939e-13,8.520559271e-14,2.288913942e-14
0.4375,3.231503535e-13,1.938277253e-13,8.588050314e-13,1.335809300e-13,1.913140574e-14,2.299856191e-13,1.094251237e-11,2.365871944e-14,1.905963211e-13,2.386802442e-12,5.177876869e-12,9.838449385e-13,2.477060949e-13,1.028832400e-12,1.168459388e-12,1.059190358e-12,6.203220909e-13,4.045160014e-13,1.376079683e-13,2.349141331e-13,1.834850844e-13,7.449245096e-14,9.653167764e-14,1.558293090e-12,7.610205352e-13,4.652946133e-14,1.703799334e-13,4.726574989e-13,2.083161982e-13,2.833885191e-13,1.017479894e-13,2.525282386e-14
0.44531,3.449535907e-13,2.145343483e-13,8.954093832e-13,1.495611416e-13,2.140644799e-14,2.072218246e-13,9.408797504e-12,2.387109402e-14,1.832457691e-13,2.267147579e-12,5.148372024e-12,9.593698254e-13,2.306256073e-13,9.947382678e-13,1.117563965e-12,1.000182477e-12,5.701445588e-13,3.692096112e-13,1.275671723e-13,2.176299867e-13,1.968472616e-13,6.879812692e-14,8.762488323e-14,1.751479397e-12,7.636681981e-13,4.798842450e-14,1.582468216e-13,4.117813041e-13,2.362704914e-13,3.562139471e-13,1.158284110e-13,2.868183408e-14
0.45312,3.530649919e-13,2.336327873e-13,8.984945320e-13,1.653366647e-13,2.462045942e-14,1.860239810e-13,7.947109050e-12,2.369452881e-14,1.719635251e-13,2.151903075e-12,5.019464645e-12,9.225183785e-13,2.110804721e-13,9.450175392e-13,1.045362909e-12,9.208061897e-13,5.152945370e-13,3.350910620e-13,1.197602618e-13,2.028233600e-13,2.158309243e-13,6.521670471e-14,8.091411760e-14,1.953030696e-12,7.545713693e-13,4.990600300e-14,1.439544902e-13,3.599041886e-13,2.639006567e-13,4.439740809e-13,1.304078052e-13,3.251473219e-14
0.46094,3.422074049e-13,2.476782981e-13,8.528065056e-13,1.803123721e-13,2.809337430e-14,1.685502904e-13,6.658651563e-12,2.538518371e-14,1.594339726e-13,2.051090098e-12,4.871752833e-12,8.804170178e-13,1.929424273e-13,8.909472924e-13,9.718236150e-13,8.347113705e-13,4.607342305e-13,3.050365622e-13,1.147630786e-13,1.922751843e-13,2.406797375e-13,6.292868134e-14,7.748655628e-14,2.140670418e-12,7.393318210e-13,5.278219949e-14,1.349401324e-13,3.214475412e-13,2.931023848e-13,5.357511858e-13,1.431694944e-13,3.778860347e-14
0.46875,3.257927373e-13,2.612661757e-13,7.698983673e-13,1.967530484e-13,3.242507421e-14,1.533518872e-13,5.612879548e-12,2.897831039e-14,1.479664989e-13,1.985458719e-12,4.691551278e-12,8.488699533e-13,1.752653953e-13,8.503436916e-13,9.096667902e-13,7.549830076e-13,4.143368429e-13,2.806940756e-13,1.153865785e-13,1.808511524e-13,2.729863557e-13,6.361852823e-14,7.346701939e-14,2.313405682e-12,7.130648849e-13,5.582035437e-14,1.257484731e-13,3.074485374e-13,3.224558592e-13,6.569105118e-13,1.563668177e-13,4.382965345e-14
0.47656,3.017166104e-13,2.714816357e-13,6.728640630e-13,2.110035146e-13,3.701367156e-14,1.416293827e-13,4.807229968e-12,3.439379724e-14,1.382063724e-13,1.957819647e-12,4.534792330e-12,8.266192091e-13,1.613179237e-13,8.177370170e-13,8.497072340e-13,6.821273004e-13,3.780872708e-13,2.623952624e-13,1.206372866e-13,1.713509111e-13,3.143507027e-13,6.598038951e-14,6.978552415e-14,2.443151717e-12,6.768562062e-13,5.770219593e-14,1.166687626e-13,3.155367748e-13,3.432841288e-13,7.815847649e-13,1.664033628e-13,4.919806525e-14
0.48438,2.677976781e-13,2.819938050e-13,5.740380784e-13,2.255902166e-13,4.142452725e-14,1.331814610e-13,4.265459706e-12,3.986236502e-14,1.296314793e-13,1.962828844e-12,4.470705243e-12,8.148294336e-13,1.485122035e-13,7.963782676e-13,8.085496324e-13,6.278584529e-13,3.566828764e-13,2.541555348e-13,1.281810215e-13,1.673703052e-13,3.571439476e-13,7.031806240e-14,6.773662448e-14,2.516047137e-12,6.371480109e-13,5.832249009e-14,1.052888973e-13,3.410819259e-13,3.532097998e-13,8.973841056e-13,1.737435336e-13,5.162653998e-14
0.49219,2.359089479e-13,2.894550433e-13,4.940156160e-13,2.386270162e-13,4.415553178e-14,1.267511840e-13,3.990866846e-12,4.521913105e-14,1.204204138e-13,1.980940746e-12,4.545843521e-12,8.019028102e-13,1.382142266e-13,7.723908241e-13,7.740364122e-13,5.845413203e-13,3.452164435e-13,2.564534929e-13,1.389600688e-13,1.716604431e-13,4.000488764e-13,7.435114100e-14,6.798491066e-14,2.528229721e-12,6.008927170e-13,5.896701007e-14,9.457365287e-14,3.720228568e-13,3.550321927e-13,9.772310398e-13,1.770605801e-13,5.270774474e-14
0.5,2.113113315e-13,2.919119682e-13,4.238444983e-13,2.510849407e-13,4.562767960e-14,1.220070378e-13,3.913030742e-12,5.152639629e-14,1.114033754e-13,2.008968024e-12,4.707506891e-12,7.895612978e-13,1.317610863e-13,7.529500154e-13,7.576680691e-13,5.576673514e-13,3.472302506e-13,2.693665759e-13,1.561926264e-13,1.849034729e-13,4.491580052e-13,7.804443091e-14,7.113943771e-14,2.469530254e-12,5.706311854e-13,5.970683162e-14,8.608740980e-14,4.055565070e-13,3.547322877e-13,1.038686636e-12,1.774750312e-13,5.283301000e-14
0.50781,1.972059463e-13,2.828346754e-13,3.649429883e-13,2.587947908e-13,4.644570816e-14,1.202701825e-13,4.019039384e-12,5.904622658e-14,1.036267560e-13,2.024434515e-12,4.956170284e-12,7.782059222e-13,1.282737627e-13,7.447861748e-13,7.716799297e-13,5.548954427e-13,3.762094481e-13,2.951409453e-13,1.797272179e-13,2.093225003e-13,5.018772400e-13,8.177989810e-14,7.673420251e-14,2.343007235e-12,5.368589535e-13,6.048456116e-14,8.054610276e-14,4.428629491e-13,3.518028958e-13,1.103593904e-12,1.736614096e-13,5.182693914e-14
0.51562,1.867093535e-13,2.623875490e-13,3.082685817e-13,2.626831079e-13,4.582788780e-14,1.233067594e-13,4.273089868e-12,6.665842153e-14,9.865097507e-14,2.028901308e-12,5.272974598e-12,7.719245689e-13,1.262568354e-13,7.525744391e-13,8.166477150e-13,5.783079488e-13,4.338649637e-13,3.341732066e-13,2.092776275e-13,2.460403435e-13,5.519068411e-13,8.736735978e-14,8.424409063e-14,2.152613694e-12,5.085836478e-13,6.050443419e-14,7.538619730e-14,4.920721994e-13,3.431593832e-13,1.186016375e-12,1.654373412e-13,4.913136589e-14
0.52344,1.860168983e-13,2.347830588e-13,2.611702128e-13,2.608134079e-13,4.286477178e-14,1.293379443e-13,4.589099948e-12,7.423341786e-14,9.650222389e-14,2.039157271e-12,5.648820532e-12,7.705729647e-13,1.255603778e-13,7.736037797e-13,8.919712512e-13,6.253079660e-13,5.169235732e-13,3.856032587e-13,2.413987985e-13,2.942522477e-13,5.883234096e-13,9.275789013e-14,8.912666738e-14,1.914244065e-12,4.923740837e-13,6.085542952e-14,7.305705682e-14,5.554884493e-13,3.394972963e-13,1.297186941e-12,1.539101424e-13,4.590031048e-14
0.53125,1.983641478e-13,2.040243316e-13,2.211427153e-13,2.554550645e-13,3.833092030e-14,1.368805042e-13,4.968208245e-12,8.076102693e-14,9.528840914e-14,2.059844894e-12,6.047058506e-12,7.682425339e-13,1.283542528e-13,8.025264587e-13,9.911381409e-13,6.854746262e-13,6.153761930e-13,4.466794102e-13,2.786270238e-13,3.552496634e-13,6.187738647e-13,9.729905282e-14,9.094789484e-14,1.645092998e-12,4.926646120e-13,6.262876461e-14,7.657903329e-14,6.172507003e-13,3.531248585e-13,1.434590333e-12,1.424020370e-13,4.351636520e-14
0.53906,2.181116168e-13,1.727116070e-13,1.930603708e-13,2.451069642e-13,3.429728274e-14,1.477499629e-13,5.340362066e-12,8.795548359e-14,9.356031881e-14,2.105954884e-12,6.509512425e-12,7.679071012e-13,1.315413026e-13,8.338510035e-13,1.090293509e-12,7.437622401e-13,7.186986245e-13,5.121482861e-13,3.187830621e-13,4.216984554e-13,6.474619872e-13,9.991303827e-14,9.227598965e-14,1.375319028e-12,4.962763023e-13,6.570962582e-14,8.636318807e-14,6.666237566e-13,3.810146971e-13,1.570807597e-12,1.314318550e-13,4.085492348e-14
0.54688,2.313600281e-13,1.396917164e-13,1.722415410e-13,2.311816151e-13,3.084018457e-14,1.607963601e-13,5.645427362e-12,9.424498374e-14,9.103451327e-14,2.176672652e-12,7.008779151e-12,7.662053414e-13,1.329261439e-13,8.565606442e-13,1.173782248e-12,7.890855878e-13,8.078387761e-13,5.769867064e-13,3.597343653e-13,4.871513593e-13,6.739894063e-13,1.021018966e-13,9.477970223e-14,1.128927479e-12,4.984271337e-13,7.010292247e-14,9.974540322e-14,7.198158374e-13,4.151327278e-13,1.700026092e-12,1.202924422e-13,3.742466356e-14
0.55469,2.402400876e-13,1.105754301e-13,1.602115033e-13,2.172676911e-13,2.711636164e-14,1.788839231e-13,5.868560925e-12,1.012130439e-13,8.832712918e-14,2.284740166e-12,7.562500352e-12,7.615171839e-13,1.370016105e-13,8.745350942e-13,1.252774759e-12,8.326047385e-13,8.898722609e-13,6.414527258e-13,4.033531797e-13,5.497417690e-13,6.960449562e-13,1.050347988e-13,9.825541647e-14,9.142712277e-13,5.130684492e-13,7.426845279e-14,1.180828678e-13,7.826779031e-13,4.520826033e-13,1.797271053e-12,1.075481858e-13,3.460186043e-14
0.5625,2.575858974e-13,8.741795502e-14,1.534833816e-13,2.061057661e-13,2.356402015e-14,1.974111219e-13,5.957613739e-12,1.067588434e-13,8.643855370e-14,2.418428851e-12,8.164256950e-12,7.542413285e-13,1.467170397e-13,8.917851260e-13,1.324027282e-12,8.755549748e-13,9.656990508e-13,6.993124311e-13,4.496206936e-13,6.084239767e-13,7.109925583e-13,1.102924525e-13,1.025848713e-13,7.371260694e-13,5.402337783e-13,7.787460229e-14,1.439056991e-13,8.501936945e-13,5.055253421e-13,1.876260535e-12,9.623575299e-14,3.433777230e-14
0.57031,2.853411509e-13,7.115305256e-14,1.478960396e-13,1.960088985e-13,2.101524758e-14,2.182103751e-13,5.931084373e-12,1.134435718e-13,8.465054694e-14,2.600279326e-12,8.790750187e-12,7.507936069e-13,1.590113017e-13,9.029821322e-13,1.367482022e-12,9.047485418e-13,1.032300815e-12,7.490446754e-13,4.957163676e-13,6.607824492e-13,7.227469657e-13,1.172109217e-13,1.073639953e-13,6.011789172e-13,5.776830002e-13,8.124091148e-14,1.710870734e-13,9.225415815e-13,5.689227833e-13,1.957370563e-12,8.909888310e-14,3.557668875e-14
0.57812,3.180120276e-13,5.787987755e-14,1.379335919e-13,1.852245998e-13,1.933541415e-14,2.364079149e-13,5.852732490e-12,1.199989201e-13,8.208957260e-14,2.793225409e-12,9.384448526e-12,7.454018608e-13,1.683494195e-13,8.946857822e-13,1.360996711e-12,8.988146431e-13,1.062785825e-12,7.912254404e-13,5.377369614e-13,6.978021416e-13,7.320202644e-13,1.274016974e-13,1.137436022e-13,5.052264825e-13,6.094986318e-13,8.486157160e-14,1.921128351e-13,1.014867176e-12,6.209207052e-13,2.044590048e-12,8.416623633e-14,3.769490062e-14
0.58594,3.563310731e-13,4.666362411e-14,1.253284364e-13,1.732306463e-13,1.803422093e-14,2.558747227e-13,5.745386887e-12,1.285522070e-13,7.865633606e-14,3.000012319e-12,9.848561754e-12,7.314319666e-13,1.771839459e-13,8.662130239e-13,1.320758635e-12,8.640650702e-13,1.048853821e-12,8.278762676e-13,5.742903821e-13,7.142641448e-13,7.374682526e-13,1.372677432e-13,1.203973691e-13,4.459905437e-13,6.438309632e-13,8.915216909e-14,2.085803559e-13,1.119363389e-12,6.539630478e-13,2.152064428e-12,8.153424504e-14,4.197343207e-14
0.59375,4.066988595e-13,3.879871179e-14,1.120012055e-13,1.635527069e-13,1.764687875e-14,2.701491702e-13,5.652659819e-12,1.358827770e-13,7.438858724e-14,3.160884744e-12,1.012079766e-11,7.004776132e-13,1.904063130e-13,8.304798000e-13,1.279897066e-12,8.247805158e-13,1.010171984e-12,8.591741611e-13,6.087331519e-13,7.136012936e-13,7.434471021e-13,1.474338135e-13,1.271516044e-13,4.122533391e-13,6.948101324e-13,9.127885951e-14,2.235318854e-13,1.199353863e-12,6.782098508e-13,2.244455903e-12,7.839778968e-14,4.869311749e-14
0.60156,4.697444387e-13,3.510255396e-14,1.007444360e-13,1.560791670e-13,1.849464626e-14,2.759228675e-13,5.670956229e-12,1.406366522e-13,7.078435350e-14,3.244880494e-12,1.021342652e-11,6.604592182e-13,2.059024953e-13,7.971913927e-13,1.237180202e-12,7.862017040e-13,9.686526007e-13,8.859023287e-13,6.408948852e-13,6.967387847e-13,7.527054655e-13,1.582220841e-13,1.310946335e-13,4.028556994e-13,7.707866917e-13,8.868701206e-14,2.327444081e-13,1.263150672e-12,6.936782772e-13,2.320945135e-12,7.555328875e-14,5.392071744e-14
0.60938,5.349800122e-13,3.452350131e-14,9.358707430e-14,1.528233018e-13,1.925036217e-14,2.721207970e-13,5.800750886e-12,1.412747998e-13,6.731885893e-14,3.227522299e-12,1.004910773e-11,6.092342858e-13,2.171343851e-13,7.568906667e-13,1.179928786e-12,7.341160102e-13,9.138420435e-13,9.039788101e-13,6.655883297e-13,6.672203760e-13,7.609275266e-13,1.699038556e-13,1.347915734e-13,4.168594338e-13,8.488383005e-13,8.232868535e-14,2.311597865e-13,1.332867917e-12,6.926877315e-13,2.360347413e-12,7.169589851e-14,5.502062140e-14
0.61719,6.149631415e-13,3.771439245e-14,9.274101722e-14,1.518480357e-13,1.894696836e-14,2.590096505e-13,6.116587368e-12,1.371570499e-13,6.344301005e-14,3.098502807e-12,9.653619673e-12,5.445267848e-13,2.257162086e-13,7.100570509e-13,1.112994000e-12,6.708146882e-13,8.437426081e-13,9.153642960e-13,6.842158727e-13,6.329386723e-13,7.645688265e-13,1.807788179e-13,1.437003168e-13,4.506032903e-13,9.227816766e-13,7.587124972e-14,2.214915742e-13,1.398314810e-12,6.757530897e-13,2.356841634e-12,6.943445083e-14,5.449967204e-14
0.625,7.320576230e-13,4.597323775e-14,1.084462057e-13,1.525257389e-13,1.835159940e-14,2.424411841e-13,6.658301273e-12,1.288303887e-13,5.968646032e-14,2.874608928e-12,9.083658796e-12,4.705550682e-13,2.388342084e-13,6.692118115e-13,1.067762241e-12,6.180030288e-13,7.702072272e-13,9.236033701e-13,7.019675456e-13,6.006307326e-13,7.709684200e-13,1.886265620e-13,1.586435091e-13,4.980195752e-13,1.002210783e-12,7.073819171e-14,2.104597625e-13,1.426051814e-12,6.549423917e-13,2.355064492e-12,6.879318564e-14,5.653416465e-14
0.63281,8.854545719e-13,6.042394851e-14,1.391073040e-13,1.537394903e-13,1.882337398e-14,2.232872061e-13,7.381343005e-12,1.170107840e-13,5.570475585e-14,2.565039751e-12,8.450320217e-12,3.937824600e-13,2.485624719e-13,6.337638375e-13,1.037775831e-12,5.765363715e-13,7.072931717e-13,9.258321798e-13,7.134721268e-13,5.712117239e-13,7.760890207e-13,1.942840458e-13,1.734443921e-13,5.570916929e-13,1.101000557e-12,6.472572908e-14,2.014521906e-13,1.395399092e-12,6.423740921e-13,2.371578880e-12,7.166659019e-14,5.831558011e-14
0.64062,1.036933805e-12,7.682501203e-14,1.821773435e-13,1.543865647e-13,1.906873542e-14,2.063576867e-13,8.292369978e-12,1.048790099e-13,5.120318937e-14,2.227259196e-12,7.791298760e-12,3.220776965e-13,2.464945970e-13,5.920062632e-13,1.002967499e-12,5.323409826e-13,6.461515268e-13,9.187610118e-13,7.142265231e-13,5.405094552e-13,7.665020799e-13,1.980670472e-13,1.776439490e-13,6.255533068e-13,1.202440490e-12,5.678723203e-14,1.933812944e-13,1.343463934e-12,6.377157846e-13,2.406937218e-12,7.506951323e-14,5.581343161e-14
0.64844,1.167004866e-12,9.567787956e-14,2.302282177e-13,1.578110218e-13,1.842603818e-14,1.946110840e-13,9.336201785e-12,9.382526388e-14,4.612541598e-14,1.866226000e-12,7.115673074e-12,2.572479602e-13,2.339627527e-13,5.428080082e-13,9.562314313e-13,4.847544899e-13,5.887339809e-13,8.991959652e-13,7.018426228e-13,5.110905492e-13,7.402260206e-13,1.981293709e-13,1.766854263e-13,6.971088024e-13,1.266488852e-12,4.881186911e-14,1.874875476e-13,1.306496624e-12,6.437987185e-13,2.425076997e-12,8.101349753e-14,4.918516220e-14
0.65625,1.287886949e-12,1.120842375e-13,2.797324135e-13,1.608249533e-13,1.781990615e-14,1.883277574e-13,1.037011588e-11,8.365617349e-14,4.138007234e-14,1.543247515e-12,6.394431925e-12,2.018549055e-13,2.218490755e-13,4.947064911e-13,9.090130558e-13,4.425188639e-13,5.385230688e-13,8.597583622e-13,6.749084252e-13,4.791355860e-13,7.052418645e-13,1.899513253e-13,1.798167685e-13,7.719076309e-13,1.289513802e-12,4.363373967e-14,1.858476902e-13,1.289395569e-12,6.681234260e-13,2.442497940e-12,8.974716317e-14,4.329311047e-14
0.66406,1.406635441e-12,1.273153038e-13,3.313300767e-13,1.638286626e-13,1.831858661e-14,1.885362061e-13,1.138811210e-11,7.458321350e-14,3.860335867e-14,1.258930453e-12,5.726740759e-12,1.581630830e-13,2.148634875e-13,4.561665275e-13,8.680160067e-13,4.108754739e-13,5.023548601e-13,8.015759615e-13,6.338392608e-13,4.431496740e-13,6.679574336e-13,1.749302571e-13,1.820939709e-13,8.367263894e-13,1.303339855e-12,4.091857668e-14,1.851658890e-13,1.286038491e-12,6.998335974e-13,2.432319738e-12,1.011917756e-13,3.967810196e-14
0.67188,1.476847650e-12,1.393709476e-13,3.756784128e-13,1.659784775e-13,1.858035855e-14,1.927528967e-13,1.217284152e-11,6.638161486e-14,3.689450278e-14,1.032570821e-12,5.108416626e-12,1.253619084e-13,2.035616573e-13,4.177933734e-13,8.264190118e-13,3.816204689e-13,4.674921970e-13,7.298990692e-13,5.775066892e-13,4.001079174e-13,6.111359658e-13,1.575776716e-13,1.707986700e-13,8.940413339e-13,1.322077141e-12,4.004791100e-14,1.856231445e-13,1.279316815e-12,7.222068628e-13,2.388860567e-12,1.099320860e-13,3.727504634e-14
0.67969,1.470859345e-12,1.508195770e-13,4.129855069e-13,1.682860213e-13,1.763708966e-14,2.090183746e-13,1.272807412e-11,6.083631069e-14,3.395321635e-14,8.619792283e-13,4.508442056e-12,9.827001562e-14,1.831497118e-13,3.688769738e-13,7.737064647e-13,3.475730138e-13,4.249037042e-13,6.516477829e-13,5.122170643e-13,3.532864979e-13,5.405749785e-13,1.400707380e-13,1.498681249e-13,9.393109912e-13,1.344274958e-12,4.151917054e-14,1.847519712e-13,1.241553773e-12,7.289178939e-13,2.266350830e-12,1.167092991e-13,3.568029517e-14
0.6875,1.402680070e-12,1.582983025e-13,4.367800025e-13,1.675971313e-13,1.646912255e-14,2.336956366e-13,1.296380581e-11,5.714630627e-14,2.943074482e-14,7.440848927e-13,3.889995154e-12,7.317677077e-14,1.581117627e-13,3.124032910e-13,7.097868361e-13,3.097532037e-13,3.766297671e-13,5.711113290e-13,4.436742888e-13,3.069713286e-13,4.763288653e-13,1.239492135e-13,1.373837590e-13,9.730727512e-13,1.346493890e-12,4.599675738e-14,1.883458685e-13,1.174639057e-12,7.323220771e-13,2.082177967e-12,1.228135467e-13,3.540156328e-14
0.69531,1.308774099e-12,1.610007315e-13,4.517202188e-13,1.615602598e-13,1.644464734e-14,2.717602068e-13,1.288859380e-11,5.547665558e-14,2.564768259e-14,6.746337744e-13,3.317453273e-12,5.414768652e-14,1.365277030e-13,2.594572055e-13,6.481960711e-13,2.754060362e-13,3.325148260e-13,4.891076093e-13,3.756474585e-13,2.636632082e-13,4.270409445e-13,1.077019491e-13,1.311115719e-13,9.910155943e-13,1.361614647e-12,5.204430672e-14,1.955182414e-13,1.115658322e-12,7.403287888e-13,1.857768227e-12,1.308779489e-13,3.499812202e-14
0.70312,1.192767973e-12,1.603267276e-13,4.500577782e-13,1.517440444e-13,1.672526174e-14,3.229085374e-13,1.258412376e-11,5.533956202e-14,2.301376381e-14,6.552406739e-13,2.820383574e-12,4.235036332e-14,1.159049774e-13,2.155619372e-13,6.003712925e-13,2.515315255e-13,3.016605931e-13,4.097524871e-13,3.122008179e-13,2.266609845e-13,3.933473980e-13,9.477013785e-14,1.234364789e-13,9.898794609e-13,1.418861409e-12,5.819543209e-14,2.080297655e-13,1.088045366e-12,7.412241435e-13,1.610642012e-12,1.377694593e-13,3.410778775e-14
0.71094,1.045238832e-12,1.599870701e-13,4.352353534e-13,1.417552874e-13,1.599422340e-14,3.902025237e-13,1.205925251e-11,5.812882531e-14,2.014647245e-14,6.746779755e-13,2.420880152e-12,3.455496843e-14,9.527526013e-14,1.807246646e-13,5.705013610e-13,2.403386823e-13,2.822835941e-13,3.392333826e-13,2.574906973e-13,2.014113893e-13,3.781761517e-13,8.473077809e-14,1.153300726e-13,9.629380891e-13,1.516312449e-12,6.618708097e-14,2.238520526e-13,1.063868854e-12,7.233724342e-13,1.340867083e-12,1.416704906e-13,3.466367243e-14
0.71875,8.782816930e-13,1.590522219e-13,4.120574611e-13,1.310100772e-13,1.434677089e-14,4.706355896e-13,1.152550663e-11,6.366329255e-14,1.629551721e-14,7.286301320e-13,2.142508563e-12,2.807265869e-14,7.752107114e-14,1.522066847e-13,5.515283518e-13,2.376894196e-13,2.710187223e-13,2.800223990e-13,2.133832963e-13,1.888587907e-13,3.831239530e-13,7.781220191e-14,1.180718312e-13,9.061063013e-13,1.624220055e-12,7.655673023e-14,2.419708866e-13,1.009920037e-12,6.880329240e-13,1.085757468e-12,1.414952163e-13,3.839623056e-14
0.72656,7.063712715e-13,1.534999050e-13,3.882776153e-13,1.181421898e-13,1.332019713e-14,5.591486286e-13,1.110003311e-11,7.188708753e-14,1.315911395e-14,8.163340020e-13,1.960944239e-12,2.425952662e-14,6.689868021e-14,1.277812351e-13,5.238055983e-13,2.303008139e-13,2.577838347e-13,2.303746435e-13,1.794364838e-13,1.842886378e-13,3.969647716e-13,7.292942495e-14,1.255849142e-13,8.314103491e-13,1.740403466e-12,8.615923932e-14,2.610532583e-13,9.356060076e-13,6.456523117e-13,8.591030956e-13,1.395391016e-13,4.237110757e-14
0.73438,5.455308580e-13,1.405612842e-13,3.722759810e-13,1.016208662e-13,1.297739969e-14,6.458531122e-13,1.088443537e-11,8.181309308e-14,1.166311968e-14,9.300650100e-13,1.866092610e-12,2.559842494e-14,5.924526462e-14,1.092602446e-13,5.009778447e-13,2.217281622e-13,2.467527374e-13,1.914642306e-13,1.535274359e-13,1.828872721e-13,4.055218450e-13,7.000959689e-14,1.243061543e-13,7.428976754e-13,1.870294547e-12,9.095013541e-14,2.806825132e-13,8.822751481e-13,6.092081894e-13,6.722277433e-13,1.357054853e-13,4.253167048e-14
0.74219,3.999737255e-13,1.255414798e-13,3.677223137e-13,8.627606022e-14,1.205589515e-14,7.253854057e-13,1.096574677e-11,9.154099428e-14,1.048586985e-14,1.049505001e-12,1.856999273e-12,3.074590914e-14,5.195970398e-14,1.005443057e-13,4.888941429e-13,2.226467126e-13,2.490481781e-13,1.634613879e-13,1.365950013e-13,1.899980369e-13,4.186009516e-13,7.017608947e-14,1.169323653e-13,6.534217201e-13,1.986967752e-12,9.215125365e-14,2.981179259e-13,8.404634508e-13,5.730477002e-13,5.148906063e-13,1.272589085e-13,4.061209584e-14
0.75,2.883517444e-13,1.128600834e-13,3.832308211e-13,7.193797334e-14,1.037910665e-14,7.892028247e-13,1.131335944e-11,9.940377285e-14,9.501116776e-15,1.178935298e-12,1.952690839e-12,4.007432561e-14,4.934913262e-14,1.045536394e-13,4.909682200e-13,2.375768921e-13,2.691715346e-13,1.458901448e-13,1.292676162e-13,2.042324640e-13,4.398080129e-13,7.170910320e-14,1.146478522e-13,5.647402786e-13,2.029748956e-12,9.314181055e-14,3.077613060e-13,7.877741752e-13,5.365322681e-13,4.081032820e-13,1.141457403e-13,4.170601501e-14
0.75781,2.110386182e-13,9.924029019e-14,4.167039575e-13,5.911270019e-14,9.260486774e-15,8.334576510e-13,1.199503059e-11,1.049774303e-13,1.008061899e-14,1.303756984e-12,2.166657240e-12,5.613017449e-14,5.240313316e-14,1.142228969e-13,4.821287465e-13,2.523015457e-13,2.948104128e-13,1.366941205e-13,1.294271859e-13,2.232031306e-13,4.635969151e-13,7.441340438e-14,1.174171779e-13,4.878155738e-13,1.993448627e-12,9.291481925e-14,3.063251418e-13,7.498026300e-13,4.918008793e-13,3.423582507e-13,9.863559851e-14,4.532272053e-14
0.76562,1.543611587e-13,8.206002073e-14,4.584254081e-13,4.567729408e-14,8.819641917e-15,8.545128524e-13,1.286652459e-11,1.099026069e-13,1.188347738e-14,1.428762047e-12,2.425192154e-12,7.527574946e-14,5.524713597e-14,1.164286172e-13,4.506088165e-13,2.499794895e-13,3.023228247e-13,1.329364928e-13,1.328139208e-13,2.384196494e-13,4.739890863e-13,7.763236727e-14,1.118658216e-13,4.238606391e-13,1.923115259e-12,8.899259441e-14,2.998637403e-13,7.559555954e-13,4.445605120e-13,3.044098955e-13,8.363204413e-14,4.623102930e-14
0.77344,1.126738503e-13,6.797441964e-14,5.033052499e-13,3.517157050e-14,8.117951859e-15,8.596472564e-13,1.380669068e-11,1.144973598e-13,1.378888590e-14,1.509721586e-12,2.724518200e-12,9.482523961e-14,5.406890522e-14,1.126987918e-13,4.099339008e-13,2.377764644e-13,2.938990301e-13,1.330870731e-13,1.384624773e-13,2.506455282e-13,4.712430635e-13,8.200144470e-14,9.401445178e-14,3.735421794e-13,1.827607826e-12,8.081907648e-14,2.899919354e-13,8.045596452e-13,4.015228170e-13,2.721566093e-13,6.978950317e-14,4.303193341e-14
0.78125,9.186753973e-14,6.192902622e-14,5.383770560e-13,2.946409191e-14,7.549852447e-15,8.517635069e-13,1.465278090e-11,1.157083749e-13,1.695512529e-14,1.566197534e-12,3.079731692e-12,1.169295563e-13,5.536228788e-14,1.143919241e-13,3.788222457e-13,2.320065457e-13,2.875820731e-13,1.346764548e-13,1.474518998e-13,2.645087166e-13,4.683427224e-13,8.532217435e-14,7.659700137e-14,3.279019205e-13,1.710341191e-12,7.243499142e-14,2.786527831e-13,8.546369707e-13,3.676805235e-13,2.592922732e-13,5.797802971e-14,3.986169442e-14
0.78906,9.025071900e-14,5.960570236e-14,5.566014005e-13,2.621578766e-14,8.264737231e-15,8.317251734e-13,1.532777915e-11,1.136447397e-13,2.338883450e-14,1.585755087e-12,3.478303376e-12,1.454838973e-13,6.497662386e-14,1.267590006e-13,3.602521276e-13,2.364027533e-13,2.894019931e-13,1.379465672e-13,1.619741811e-13,2.823420505e-13,4.802945167e-13,8.927397354e-14,6.656179701e-14,2.902042526e-13,1.561569194e-12,6.679813847e-14,2.636704710e-13,9.112311525e-13,3.395126705e-13,2.585609394e-13,4.941422949e-14,3.946378463e-14
0.79688,9.391577762e-14,5.431635516e-14,5.511133805e-13,2.359837212e-14,9.425943623e-15,8.076233858e-13,1.559892731e-11,1.093276131e-13,3.064948842e-14,1.577180173e-12,3.840314737e-12,1.713388245e-13,7.597366651e-14,1.350795451e-13,3.422315033e-13,2.374929338e-13,2.833720604e-13,1.408361849e-13,1.762389320e-13,2.973402076e-13,4.998969123e-13,9.293259665e-14,5.811881353e-14,2.578796797e-13,1.387865750e-12,6.247670571e-14,2.462881878e-13,9.994808128e-13,3.080164568e-13,2.549457301e-13,4.256079461e-14,3.854903654e-14
0.80469,9.925067986e-14,5.113397744e-14,5.370156974e-13,2.445417888e-14,1.006992740e-14,7.885039535e-13,1.555618097e-11,1.052498980e-13,3.530820002e-14,1.536063625e-12,4.094784944e-12,1.840435635e-13,8.017063626e-14,1.329071294e-13,3.321604698e-13,2.334329447e-13,2.653646632e-13,1.461485827e-13,1.887171739e-13,3.080649912e-13,5.150210456e-13,9.800579116e-14,5.011254988e-14,2.312158269e-13,1.219676532e-12,5.909051896e-14,2.281295276e-13,1.109463831e-12,2.708272984e-13,2.463463424e-13,3.737945833e-14,3.547071648e-14
0.8125,1.101965488e-13,5.268289151e-14,5.117596358e-13,2.883200311e-14,1.069765137e-14,7.746187480e-13,1.509017318e-11,9.939245459e-14,3.919289345e-14,1.468631160e-12,4.276485902e-12,1.870362651e-13,8.101390672e-14,1.289577410e-13,3.400999592e-13,2.345959092e-13,2.472343741e-13,1.517863273e-13,1.989821263e-13,3.125025217e-13,5.222414170e-13,1.035265700e-13,4.676725054e-14,2.107462516e-13,1.076024337e-12,5.794574818e-14,2.113681541e-13,1.216032101e-12,2.309025565e-13,2.474012644e-13,3.438051203e-14,3.322460669e-14
0.82031,1.232956335e-13,5.654915036e-14,4.710583429e-13,3.529485897e-14,1.210540640e-14,7.531022626e-13,1.430098507e-11,9.053307125e-14,4.530993083e-14,1.387999515e-12,4.379934961e-12,1.883953713e-13,8.548618162e-14,1.329559518e-13,3.680442822e-13,2.477468755e-13,2.397846844e-13,1.552567185e-13,2.079234043e-13,3.191948672e-13,5.265874352e-13,1.082583860e-13,4.923664135e-14,1.980128833e-13,9.582397911e-13,5.978375061e-14,1.969587441e-13,1.323233943e-12,1.930880987e-13,2.680036481e-13,3.407405177e-14,3.393793097e-14
0.82812,1.380009522e-13,6.077402446e-14,4.258816560e-13,4.350120742e-14,1.380377378e-14,7.272262894e-13,1.329413806e-11,8.056985355e-14,5.130809853e-14,1.306736067e-12,4.351226575e-12,1.883085912e-13,9.220998598e-14,1.403556463e-13,4.090474538e-13,2.676030015e-13,2.396573477e-13,1.565559883e-13,2.165477106e-13,3.249245350e-13,5.405798155e-13,1.113617461e-13,5.412542404e-14,1.971971877e-13,8.689752027e-13,6.404384961e-14,1.884971738e-13,1.435299962e-12,1.624229559e-13,2.967028447e-13,3.673667644e-14,3.586268045e-14
0.83594,1.562011887e-13,6.774008723e-14,3.857031620e-13,5.464864695e-14,1.477775548e-14,7.026926907e-13,1.210294161e-11,7.237479004e-14,5.184397288e-14,1.213922104e-12,4.130708201e-12,1.764390323e-13,9.273776894e-14,1.398315693e-13,4.550211183e-13,2.840422403e-13,2.364682163e-13,1.565229292e-13,2.202734252e-13,3.228049710e-13,5.543077195e-13,1.130468568e-13,5.701878405e-14,2.092786061e-13,7.956978714e-13,6.783636062e-14,1.832024216e-13,1.550431321e-12,1.396058895e-13,3.367249507e-13,4.181423406e-14,3.621655882e-14
0.84375,1.838596645e-13,7.698485751e-14,3.583972587e-13,6.580637691e-14,1.551478889e-14,6.739003697e-13,1.087908555e-11,6.593810265e-14,4.796588159e-14,1.115674902e-12,3.799978515e-12,1.553602261e-13,8.667723431e-14,1.356362468e-13,5.106412006e-13,3.007928495e-13,2.332604124e-13,1.563624752e-13,2.174584717e-13,3.128256482e-13,5.491782423e-13,1.127733725e-13,5.838544761e-14,2.354691343e-13,7.418024540e-13,7.015399139e-14,1.784288444e-13,1.611851554e-12,1.245658621e-13,3.920924111e-13,4.893290412e-14,3.469313150e-14
0.85156,2.106611091e-13,8.319120126e-14,3.308199795e-13,7.239603037e-14,1.659394874e-14,6.309037338e-13,9.619595758e-12,5.975230184e-14,4.417927965e-14,1.032580533e-12,3.391451103e-12,1.334408131e-13,8.104518756e-14,1.360287702e-13,5.763117847e-13,3.237103105e-13,2.377932839e-13,1.524975634e-13,2.091667874e-13,2.952245964e-13,5.289472095e-13,1.095819254e-13,6.354385513e-14,2.745310998e-13,6.925174394e-13,7.220193716e-14,1.717315934e-13,1.612675064e-12,1.135687265e-13,4.483968108e-13,5.618742889e-14,3.361936588e-14
0.85938,2.292744647e-13,8.522999286e-14,3.072605858e-13,7.729998125e-14,1.735710878e-14,5.773836132e-13,8.391865299e-12,5.461555821e-14,4.174585759e-14,9.569404392e-13,2.952762790e-12,1.141539955e-13,8.001584212e-14,1.382692534e-13,6.325994570e-13,3.438551603e-13,2.491362884e-13,1.450299974e-13,1.977658610e-13,2.750937089e-13,5.014367989e-13,1.031196958e-13,7.356607175e-14,3.275534423e-13,6.466380431e-13,7.542727774e-14,1.654871713e-13,1.590341216e-12,1.066108715e-13,5.006587531e-13,6.244645728e-14,3.438605964e-14
0.86719,2.458536808e-13,8.762299159e-14,2.981856327e-13,8.420101538e-14,1.705520416e-14,5.248869460e-13,7.232599077e-12,5.163993418e-14,3.765508823e-14,9.032088147e-13,2.526339059e-12,9.565367572e-14,7.854348312e-14,1.321294809e-13,6.616387200e-13,3.467223194e-13,2.538104497e-13,1.342992326e-13,1.835238760e-13,2.552875382e-13,4.753399308e-13,9.431103107e-14,8.444712487e-14,3.938140320e-13,6.152808854e-13,7.940359273e-14,1.605893202e-13,1.579775969e-12,1.046129887e-13,5.373092489e-13,6.792302637e-14,3.703532398e-14
0.875,2.725975947e-13,9.109645842e-14,2.988861643e-13,9.043664931e-14,1.604441312e-14,4.773898578e-13,6.196359834e-12,5.135675217e-14,3.130622836e-14,8.762992453e-13,2.119031412e-12,7.950124324e-14,7.242387853e-14,1.193741083e-13,6.678996025e-13,3.346336780e-13,2.518270827e-13,1.230629165e-13,1.646008004e-13,2.362309367e-13,4.422533975e-13,8.435356408e-14,9.101244278e-14,4.751553195e-13,5.944148482e-13,8.128827708e-14,1.541066410e-13,1.596450932e-12,1.085375942e-13,5.702660961e-13,7.304523010e-14,3.973412861e-14
0.88281,3.064204138e-13,9.428954491e-14,2.983368242e-13,9.504447852e-14,1.513059519e-14,4.328368985e-13,5.355530133e-12,5.246757680e-14,2.494458292e-14,8.669548127e-13,1.774687940e-12,6.741199933e-14,6.323494250e-14,1.092992626e-13,6.658494620e-13,3.212510281e-13,2.511026381e-13,1.125387687e-13,1.433721727e-13,2.211431320e-13,4.026129118e-13,7.489549538e-14,9.393012772e-14,5.709714543e-13,5.801917748e-13,8.188517014e-14,1.516325652e-13,1.637502231e-12,1.188673495e-13,5.817784235e-13,7.814515649e-14,4.098691467e-14
0.89062,3.421694045e-13,9.851098840e-14,3.035090057e-13,1.005087720e-13,1.520762860e-14,3.903391531e-13,4.755952739e-12,5.508406188e-14,2.013144501e-14,8.875327562e-13,1.492673815e-12,6.006921824e-14,5.465550642e-14,1.032167430e-13,6.569442250e-13,3.104232977e-13,2.562606050e-13,1.023993430e-13,1.219796310e-13,2.118660958e-13,3.691924355e-13,6.577799821e-14,9.698226690e-14,6.752095871e-13,5.682929681e-13,8.174236173e-14,1.522244159e-13,1.693635565e-12,1.357071682e-13,5.826200483e-13,8.457999093e-14,4.033386945e-14
0.89844,3.824764931e-13,1.033431362e-13,3.249229608e-13,1.067389561e-13,1.630560064e-14,3.493884703e-13,4.480870121e-12,5.961637357e-14,1.644532631e-14,9.277321072e-13,1.264689236e-12,5.574184927e-14,4.780092965e-14,9.794342560e-14,6.400509363e-13,3.004259926e-13,2.665871047e-13,9.486686139e-14,1.031911590e-13,2.090933845e-13,3.481167287e-13,5.785786191e-14,1.030393833e-13,7.828829746e-13,5.571353755e-13,8.196932230e-14,1.555923065e-13,1.778839368e-12,1.593816188e-13,5.882315983e-13,9.194669634e-14,3.901682744e-14
0.90625,4.327583946e-13,1.078008615e-13,3.543076646e-13,1.129779138e-13,1.825666636e-14,3.216954373e-13,4.564155208e-12,6.630524461e-14,1.324797506e-14,9.913461008e-13,1.090821309e-12,5.344209289e-14,4.239665553e-14,9.185369745e-14,6.153181151e-13,2.913803765e-13,2.821039937e-13,9.184640507e-14,8.919322632e-14,2.136121863e-13,3.404319403e-13,5.114751620e-14,1.100543929e-13,8.926345977e-13,5.492658495e-13,8.295299495e-14,1.602360860e-13,1.911776178e-12,1.880978178e-13,6.045877147e-13,1.009144267e-13,3.824251395e-14
0.91406,4.855545478e-13,1.137189889e-13,3.837785239e-13,1.188526815e-13,2.054518235e-14,2.995200710e-13,5.055217753e-12,7.372028152e-14,1.107951249e-14,1.079672435e-12,9.642571545e-13,5.311695593e-14,3.980505294e-14,9.101924023e-14,6.003765591e-13,2.926795676e-13,3.096209276e-13,9.385101239e-14,8.131346546e-14,2.277878282e-13,3.467629842e-13,4.678675160e-14,1.199337471e-13,9.935804149e-13,5.530830559e-13,8.697436688e-14,1.660817760e-13,2.085045891e-12,2.184904124e-13,6.389993224e-13,1.104613565e-13,3.936117232e-14
0.92188,5.283858651e-13,1.217790841e-13,4.121957921e-13,1.251848832e-13,2.280989398e-14,2.845177989e-13,5.908302498e-12,8.193445902e-14,1.013187682e-14,1.176516379e-12,8.681173852e-13,5.394461584e-14,4.072948041e-14,9.368114061e-14,5.942096128e-13,3.017741195e-13,3.466241470e-13,9.898968993e-14,7.775265414e-14,2.526987972e-13,3.647703246e-13,4.412432737e-14,1.324762127e-13,1.086883515e-12,5.616956576e-13,9.327123200e-14,1.718304716e-13,2.277397906e-12,2.502589764e-13,6.812419270e-13,1.200581469e-13,4.191527773e-14
0.92969,5.612036212e-13,1.288745676e-13,4.524776686e-13,1.287265469e-13,2.505866160e-14,2.696610023e-13,7.092175953e-12,9.097888047e-14,9.698027882e-15,1.293224167e-12,7.964490405e-13,5.535865412e-14,4.322252847e-14,9.829552591e-14,6.058468244e-13,3.223288274e-13,3.939332631e-13,1.096471823e-13,7.685052177e-14,2.861159406e-13,3.933345013e-13,4.299244634e-14,1.454767814e-13,1.164058592e-12,5.798901094e-13,1.004400758e-13,1.777438605e-13,2.487258680e-12,2.843433948e-13,7.203004949e-13,1.296807906e-13,4.503579614e-14
0.9375,5.975175997e-13,1.310214131e-13,5.033039898e-13,1.257605324e-13,2.706671824e-14,2.596770874e-13,8.460732939e-12,1.018220179e-13,9.239854164e-15,1.407872313e-12,7.477747706e-13,5.708178313e-14,4.623856475e-14,1.031293787e-13,6.325042980e-13,3.514609663e-13,4.476873633e-13,1.262867636e-13,8.029493488e-14,3.264306139e-13,4.248214684e-13,4.368573694e-14,1.516040013e-13,1.211854511e-12,6.029583278e-13,1.059504879e-13,1.795769115e-13,2.695582929e-12,3.177485021e-13,7.619579527e-13,1.385550818e-13,4.747056226e-14
0.94531,6.344905612e-13,1.318972414e-13,5.544382409e-13,1.204018512e-13,2.854247097e-14,2.572729568e-13,9.880249249e-12,1.130455622e-13,8.885784936e-15,1.524653405e-12,7.156083760e-13,5.955736416e-14,5.064078694e-14,1.097128093e-13,6.698995566e-13,3.861391664e-13,5.050225992e-13,1.455320508e-13,8.806465222e-14,3.721670053e-13,4.591079218e-13,4.650408935e-14,1.486824731e-13,1.230493925e-12,6.327260862e-13,1.110462049e-13,1.781934400e-13,2.846679712e-12,3.512739404e-13,8.159548430e-13,1.468612651e-13,4.974123852e-14
0.95312,6.702094339e-13,1.339698899e-13,6.084523551e-13,1.154355522e-13,2.911640472e-14,2.610032886e-13,1.115584936e-11,1.237607339e-13,9.406916453e-15,1.641049005e-12,6.863643450e-13,6.457674175e-14,5.783211494e-14,1.180450549e-13,7.131210052e-13,4.201994053e-13,5.566500882e-13,1.631391778e-13,9.850944668e-14,4.146040379e-13,4.966333614e-13,5.053206499e-14,1.457695846e-13,1.211235765e-12,6.671925642e-13,1.169678761e-13,1.734921739e-13,2.886525497e-12,3.849751419e-13,8.749216443e-13,1.536488299e-13,5.308931272e-14
0.96094,7.052395955e-13,1.390216425e-13,6.751217746e-13,1.126780270e-13,2.922328228e-14,2.650144563e-13,1.212256564e-11,1.332691623e-13,1.055104535e-14,1.755749456e-12,6.519761037e-13,7.164969336e-14,6.653845969e-14,1.244511271e-13,7.553051948e-13,4.495144268e-13,5.989762277e-13,1.799018180e-13,1.087430265e-13,4.514002140e-13,5.342247957e-13,5.455166447e-14,1.460640276e-13,1.173831418e-12,6.950084283e-13,1.226227978e-13,1.672657496e-13,2.839160986e-12,4.180965179e-13,9.386054504e-13,1.589640905e-13,5.671254192e-14
0.96875,7.473375828e-13,1.438821192e-13,7.598980629e-13,1.078678922e-13,2.870167764e-14,2.718266250e-13,1.273344899e-11,1.428547248e-13,1.208052011e-14,1.858895966e-12,6.235245308e-13,8.108003790e-14,7.670633721e-14,1.300899135e-13,7.966061816e-13,4.743279465e-13,6.320912647e-13,1.991863175e-13,1.209799883e-13,4.830976054e-13,5.606253323e-13,5.908551109e-14,1.467789718e-13,1.109405912e-12,7.213052755e-13,1.257832511e-13,1.584647437e-13,2.755599163e-12,4.486095011e-13,9.942418088e-13,1.616227501e-13,5.938153435e-14
0.97656,8.024190362e-13,1.516537167e-13,8.524077168e-13,1.090484860e-13,2.739358225e-14,2.821330872e-13,1.288718240e-11,1.509715251e-13,1.393646480e-14,1.961582397e-12,6.022246967e-13,9.347415825e-14,8.789611999e-14,1.347050792e-13,8.253820089e-13,4.879784194e-13,6.521919570e-13,2.170707938e-13,1.374257264e-13,5.109328412e-13,5.728246147e-13,6.554189484e-14,1.430225204e-13,1.023610277e-12,7.533238060e-13,1.264009134e-13,1.497905469e-13,2.627118141e-12,4.757797243e-13,1.058562371e-12,1.624247282e-13,6.073858466e-14
0.98438,8.674776637e-13,1.659420071e-13,9.576231660e-13,1.170029837e-13,2.512173011e-14,2.925518052e-13,1.260280214e-11,1.567987090e-13,1.645493968e-14,2.063432498e-12,5.996842259e-13,1.093777389e-13,1.007654273e-13,1.398814751e-13,8.326068249e-13,4.870667673e-13,6.567980028e-13,2.290555849e-13,1.547673319e-13,5.281841614e-13,5.684601506e-13,7.200029268e-14,1.360252568e-13,9.313903418e-13,7.922521313e-13,1.274591959e-13,1.437895381e-13,2.451331091e-12,5.017854145e-13,1.130715876e-12,1.625743586e-13,6.228908349e-14
0.99219,9.454738076e-13,1.888646774e-13,1.073906024e-12,1.315039225e-13,2.230080782e-14,3.052143871e-13,1.192370015e-11,1.595121893e-13,1.998187271e-14,2.156588505e-12,6.114580019e-13,1.286063837e-13,1.155219004e-13,1.463693029e-13,8.230327833e-13,4.737153318e-13,6.457572607e-13,2.377532743e-13,1.733120431e-13,5.332116062e-13,5.506806358e-13,7.909372820e-14,1.318026118e-13,8.547251371e-13,8.338930103e-13,1.297617587e-13,1.419737807e-13,2.250505853e-12,5.316403163e-13,1.199179836e-12,1.623484750e-13,6.487744786e-14
1,1.045561474e-12,2.219692269e-13,1.200908160e-12,1.541519115e-13,1.978704270e-14,3.199889223e-13,1.099135910e-11,1.600319042e-13,2.450746995e-14,2.254286948e-12,6.427924282e-13,1.520538309e-13,1.304986352e-13,1.547150180e-13,7.962822387e-13,4.493718663e-13,6.177895817e-13,2.456891199e-13,1.925200165e-13,5.300948973e-13,5.279142776e-13,8.545814727e-14,1.317281313e-13,7.901015768e-13,8.754687263e-13,1.311407205e-13,1.461148148e-13,2.073737793e-12,5.665561600e-13,1.260163743e-12,1.635045827e-13,6.707110466e-14
1.0078,1.160986882e-12,2.691851983e-13,1.347586866e-12,1.900207891e-13,1.794147982e-14,3.369427287e-13,1.000248706e-11,1.594775480e-13,2.949968840e-14,2.316907662e-12,6.974273639e-13,1.775590146e-13,1.437617402e-13,1.666034706e-13,7.533962384e-13,4.166158958e-13,5.727513867e-13,2.541439587e-13,2.113258559e-13,5.202451741e-13,5.001603939e-13,9.144028056e-14,1.323527589e-13,7.361912915e-13,9.270087008e-13,1.294683713e-13,1.563523393e-13,1.931353671e-12,6.091269672e-13,1.332875451e-12,1.672019340e-13,6.687938384e-14
1.0156,1.277915619e-12,3.283825997e-13,1.516091753e-12,2.390966975e-13,1.685533851e-14,3.566602985e-13,8.967467964e-12,1.576841932e-13,3.465281717e-14,2.372190043e-12,7.594956051e-13,2.055003983e-13,1.545920084e-13,1.823502874e-13,7.064903278e-13,3.836615828e-13,5.209834967e-13,2.621622000e-13,2.285288906e-13,5.039911861e-13,4.733603486e-13,9.494623443e-14,1.310351194e-13,6.952132404e-13,9.827147115e-13,1.243592739e-13,1.714150760e-13,1.797731643e-12,6.594640794e-13,1.379768451e-12,1.722113392e-13,6.397812590e-14
1.0234,1.395379849e-12,4.032045163e-13,1.711727785e-12,3.045254671e-13,1.665222017e-14,3.796871835e-13,8.067752417e-12,1.556549009e-13,4.026174822e-14,2.394550833e-12,8.315392199e-13,2.351122078e-13,1.643454241e-13,2.031172342e-13,6.637583804e-13,3.551117289e-13,4.699305616e-13,2.706191199e-13,2.445666138e-13,4.839985859e-13,4.479453942e-13,9.669419682e-14,1.298695305e-13,6.621421682e-13,1.035231011e-12,1.180503762e-13,1.916958181e-13,1.690385490e-12,7.176951651e-13,1.410399900e-12,1.801516971e-13,5.988752563e-14
1.0312,1.510418169e-12,4.903968943e-13,1.916633424e-12,3.847386495e-13,1.741193450e-14,4.067474311e-13,7.286320914e-12,1.540629487e-13,4.604723315e-14,2.392937860e-12,9.135786941e-13,2.648452055e-13,1.737435682e-13,2.273276657e-13,6.279995960e-13,3.325420977e-13,4.209995167e-13,2.791439574e-13,2.594307453e-13,4.641582223e-13,4.251422660e-13,9.758551297e-14,1.300711081e-13,6.363326244e-13,1.081410512e-12,1.122197964e-13,2.184889050e-13,1.585440815e-12,7.872165919e-13,1.409764196e-12,1.911493409e-13,5.584651395e-14
1.0391,1.636724158e-12,5.904818168e-13,2.132463286e-12,4.747488765e-13,1.904270519e-14,4.315704120e-13,6.665513326e-12,1.526327270e-13,5.188518843e-14,2.364140121e-12,9.982636893e-13,2.944013076e-13,1.817815278e-13,2.546925058e-13,6.050524149e-13,3.179018483e-13,3.778217910e-13,2.873393293e-13,2.726297516e-13,4.460189398e-13,4.044146857e-13,9.781884688e-14,1.282621136e-13,6.227491460e-13,1.110704182e-12,1.047874809e-13,2.403818795e-13,1.465717280e-12,8.607203789e-13,1.394249442e-12,2.043873790e-13,5.184545826e-14
1.0469,1.783016199e-12,7.003543319e-13,2.339739580e-12,5.710875631e-13,2.149811213e-14,4.565082577e-13,6.200155681e-12,1.510960661e-13,5.705464145e-14,2.297041825e-12,1.094568995e-12,3.200057775e-13,1.893417359e-13,2.834497326e-13,5.981764443e-13,3.117574441e-13,3.442614089e-13,2.990445417e-13,2.863961259e-13,4.310185593e-13,3.855956849e-13,9.834259453e-14,1.257559779e-13,6.331604537e-13,1.118080895e-12,9.695599896e-14,2.560859136e-13,1.326376128e-12,9.388243059e-13,1.380937478e-12,2.193661008e-13,4.837322076e-14
1.0547,1.941823376e-12,8.162612597e-13,2.531994100e-12,6.720089451e-13,2.459557544e-14,4.790587252e-13,5.852252056e-12,1.487184161e-13,6.123103539e-14,2.208595817e-12,1.200019234e-12,3.411989013e-13,1.947280822e-13,3.120292934e-13,6.116304383e-13,3.138287578e-13,3.194598139e-13,3.126312865e-13,2.984649098e-13,4.185702025e-13,3.676144410e-13,9.959221602e-14,1.261893458e-13,6.682271088e-13,1.109235084e-12,9.055975761e-14,2.689814806e-13,1.182364055e-12,1.014406769e-12,1.384766071e-12,2.354105528e-13,4.550851500e-14
1.0625,2.082134368e-12,9.199737726e-13,2.675897516e-12,7.651962783e-13,2.789342030e-14,4.973649455e-13,5.610183230e-12,1.470912327e-13,6.451465930e-14,2.102760392e-12,1.308562111e-12,3.562799845e-13,1.989945335e-13,3.387596106e-13,6.422883854e-13,3.211163096e-13,3.013069830e-13,3.266325309e-13,3.104375001e-13,4.131027024e-13,3.538004966e-13,1.023473875e-13,1.296123046e-13,7.375098013e-13,1.093484084e-12,8.490768277e-14,2.787917749e-13,1.034091479e-12,1.071954122e-12,1.400676453e-12,2.489758151e-13,4.346340717e-14
1.0703,2.166877393e-12,9.947024744e-13,2.749663248e-12,8.413123760e-13,3.147560479e-14,5.096945730e-13,5.435634384e-12,1.469831067e-13,6.711173173e-14,1.996288388e-12,1.449191217e-12,3.673120511e-13,2.023627756e-13,3.662794099e-13,6.892768669e-13,3.353312450e-13,2.909881185e-13,3.397207691e-13,3.207537794e-13,4.153881453e-13,3.403263923e-13,1.067626857e-13,1.367066688e-13,8.464167549e-13,1.075915841e-12,7.912729967e-14,2.785960419e-13,8.809495069e-13,1.087840416e-12,1.405389537e-12,2.574542519e-13,4.218466035e-14
1.0781,2.196430755e-12,1.033065044e-12,2.748750031e-12,8.877466197e-13,3.468511149e-14,5.075177963e-13,5.320638454e-12,1.470029871e-13,6.878927060e-14,1.889689929e-12,1.613586671e-12,3.732956831e-13,2.046660514e-13,3.956284264e-13,7.595718500e-13,3.592940264e-13,2.890189670e-13,3.511048195e-13,3.298674831e-13,4.222906367e-13,3.301363445e-13,1.114915416e-13,1.455506329e-13,9.904261062e-13,1.058080343e-12,7.354776505e-14,2.646946519e-13,7.254180250e-13,1.058843695e-12,1.399171250e-12,2.592922259e-13,4.137356009e-14
1.0859,2.197696525e-12,1.044481007e-12,2.674605528e-12,9.077685770e-13,3.737950814e-14,4.984001035e-13,5.322936429e-12,1.465282593e-13,6.918328289e-14,1.793743997e-12,1.793520572e-12,3.726737282e-13,2.057288842e-13,4.240814563e-13,8.483691710e-13,3.916712001e-13,2.940812031e-13,3.635536159e-13,3.401101999e-13,4.326030069e-13,3.204816401e-13,1.163497207e-13,1.533109070e-13,1.155768634e-12,1.038769351e-12,6.896851651e-14,2.461343436e-13,5.940665490e-13,1.000482251e-12,1.374959592e-12,2.569289326e-13,4.052983943e-14
1.0938,2.172651367e-12,1.033199419e-12,2.531679055e-12,9.086154752e-13,3.958660792e-14,4.868397125e-13,5.411330862e-12,1.464333489e-13,6.835739508e-14,1.733315582e-12,2.004153927e-12,3.666670584e-13,2.047401555e-13,4.501474099e-13,9.519013843e-13,4.318109936e-13,3.051942224e-13,3.764599727e-13,3.505524890e-13,4.479212946e-13,3.070589718e-13,1.191166745e-13,1.535119897e-13,1.335090725e-12,1.006860918e-12,6.583004954e-14,2.283107063e-13,4.912036613e-13,9.266138152e-13,1.346440891e-12,2.518336712e-13,3.925824994e-14
1.1016,2.125199512e-12,9.998466046e-13,2.333922951e-12,8.906037666e-13,4.135828913e-14,4.722807750e-13,5.636283370e-12,1.467722409e-13,6.681533130e-14,1.716755948e-12,2.231840949e-12,3.568102552e-13,2.020257169e-13,4.735512901e-13,1.072790465e-12,4.808722964e-13,3.212839592e-13,3.890411097e-13,3.618509621e-13,4.659698766e-13,2.945863175e-13,1.199550227e-13,1.491898696e-13,1.506410746e-12,9.727474825e-13,6.401685095e-14,2.119733073e-13,4.201553352e-13,8.446388871e-13,1.321595550e-12,2.454813575e-13,3.750796900e-14
1.1094,2.046160130e-12,9.456430967e-13,2.095238297e-12,8.549757535e-13,4.290997212e-14,4.570054879e-13,5.948733516e-12,1.469619530e-13,6.478220638e-14,1.744451116e-12,2.478094516e-12,3.432178851e-13,1.982254447e-13,4.942713670e-13,1.209069915e-12,5.373743288e-13,3.406203163e-13,3.990580900e-13,3.714725461e-13,4.851548195e-13,2.829583455e-13,1.185330306e-13,1.409504835e-13,1.663640490e-12,9.311429327e-13,6.330499325e-14,1.949478363e-13,3.664763113e-13,7.548965304e-13,1.299995008e-12,2.372980644e-13,3.557446769e-14
1.1172,1.951776227e-12,8.750550525e-13,1.848187003e-12,8.047763338e-13,4.399742716e-14,4.441912747e-13,6.409989802e-12,1.467846132e-13,6.329787700e-14,1.831265559e-12,2.752723037e-12,3.285679170e-13,1.945641221e-13,5.171091004e-13,1.373089786e-12,6.073305821e-13,3.656882941e-13,4.093040834e-13,3.820098071e-13,5.054722814e-13,2.749049476e-13,1.163889824e-13,1.321698215e-13,1.776994757e-12,8.914835962e-13,6.399389486e-14,1.783898877e-13,3.425762322e-13,6.709255218e-13,1.273213333e-12,2.295989103e-13,3.406206606e-14
1.125,1.851219233e-12,7.965078211e-13,1.608480884e-12,7.459630956e-13,4.482332506e-14,4.403261062e-13,6.955931462e-12,1.467200313e-13,6.224289897e-14,1.977203795e-12,3.036400943e-12,3.125872026e-13,1.913467545e-13,5.398200425e-13,1.557510009e-12,6.875316045e-13,3.944956348e-13,4.200693668e-13,3.940691437e-13,5.237181593e-13,2.718726531e-13,1.140198431e-13,1.223205118e-13,1.844173809e-12,8.501220609e-13,6.486704490e-14,1.647388766e-13,3.448338911e-13,5.932120670e-13,1.258137626e-12,2.218998747e-13,3.321366198e-14
1.1328,1.743684517e-12,7.188261742e-13,1.402508229e-12,6.877934503e-13,4.573958517e-14,4.549435460e-13,7.543317740e-12,1.482079908e-13,6.153331938e-14,2.194020830e-12,3.335728072e-12,2.955138723e-13,1.896454250e-13,5.613721811e-13,1.760005873e-12,7.753910179e-13,4.253716971e-13,4.320936099e-13,4.092976434e-13,5.385077272e-13,2.753202480e-13,1.123302188e-13,1.127797243e-13,1.870186479e-12,8.094517415e-13,6.650820243e-14,1.542769159e-13,3.617549627e-13,5.249793097e-13,1.252907993e-12,2.151869086e-13,3.326790233e-14
1.1406,1.637117718e-12,6.481898679e-13,1.241362655e-12,6.328464345e-13,4.705923047e-14,4.832925871e-13,8.127838570e-12,1.518022759e-13,6.097237527e-14,2.479256630e-12,3.642149506e-12,2.791655459e-13,1.893318706e-13,5.821256376e-13,1.974449076e-12,8.685854372e-13,4.592236379e-13,4.479939755e-13,4.290456616e-13,5.492631667e-13,2.848292680e-13,1.127721291e-13,1.056830251e-13,1.855035988e-12,7.705633457e-13,6.848761604e-14,1.440013629e-13,3.853655010e-13,4.657293493e-13,1.276571480e-12,2.097079713e-13,3.407588784e-14
1.1484,1.541598696e-12,5.878782106e-13,1.122877252e-12,5.841000272e-13,4.922404838e-14,5.192526064e-13,8.630445349e-12,1.551079721e-13,6.056312036e-14,2.800796776e-12,3.952466371e-12,2.629730809e-13,1.904608213e-13,5.992578203e-13,2.190246652e-12,9.625445367e-13,4.960033790e-13,4.699182504e-13,4.551682750e-13,5.613285032e-13,3.018028841e-13,1.157587007e-13,1.012161620e-13,1.801881032e-12,7.402640230e-13,7.049126918e-14,1.362893634e-13,4.162933049e-13,4.180864964e-13,1.319518444e-12,2.056595793e-13,3.573824018e-14
1.1562,1.455722964e-12,5.374310739e-13,1.042624422e-12,5.432293213e-13,5.274390484e-14,5.610236113e-13,8.981890724e-12,1.584680690e-13,6.038817769e-14,3.135882832e-12,4.249700649e-12,2.479515358e-13,1.944622516e-13,6.134416897e-13,2.397109328e-12,1.053912503e-12,5.378191848e-13,5.013773435e-13,4.883864584e-13,5.743298736e-13,3.268960595e-13,1.222962508e-13,1.008391881e-13,1.721101556e-12,7.167845254e-13,7.245200693e-14,1.297895985e-13,4.574727138e-13,3.783190588e-13,1.383440505e-12,2.038293219e-13,3.858611565e-14
1.1641,1.382109329e-12,4.944666278e-13,9.954767713e-13,5.093284444e-13,5.774124907e-14,6.034951065e-13,9.153405121e-12,1.605095514e-13,6.027827416e-14,3.444132877e-12,4.528975504e-12,2.331799832e-13,2.008500030e-13,6.224318351e-13,2.576824634e-12,1.137636173e-12,5.852206838e-13,5.395840409e-13,5.250208102e-13,5.909976451e-13,3.580918645e-13,1.288238488e-13,1.023000602e-13,1.616851929e-12,6.917904960e-13,7.420110933e-14,1.233319022e-13,5.002693005e-13,3.442731714e-13,1.438865912e-12,2.037575833e-13,4.223384599e-14
1.1719,1.316880858e-12,4.597279973e-13,9.759311859e-13,4.811629686e-13,6.410138074e-14,6.394611068e-13,9.086990454e-12,1.614231524e-13,6.007133691e-14,3.680014334e-12,4.758635395e-12,2.199335332e-13,2.092562015e-13,6.259176790e-13,2.706106615e-12,1.203873605e-12,6.383629321e-13,5.853827965e-13,5.654251015e-13,6.151845410e-13,3.948902290e-13,1.355548197e-13,1.066158501e-13,1.510325539e-12,6.620399353e-13,7.632447055e-14,1.163807928e-13,5.356060022e-13,3.175231281e-13,1.474256667e-12,2.061935439e-13,4.640966394e-14
1.1797,1.254124310e-12,4.302884569e-13,9.754096119e-13,4.559824281e-13,7.165753039e-14,6.632612624e-13,8.796463285e-12,1.610148818e-13,5.902548296e-14,3.824413542e-12,4.921886228e-12,2.075467748e-13,2.159171697e-13,6.241666092e-13,2.776884134e-12,1.251600119e-12,6.979363268e-13,6.377781053e-13,6.065771268e-13,6.462764737e-13,4.316671819e-13,1.416439738e-13,1.115587049e-13,1.390069903e-12,6.205822318e-13,7.898999969e-14,1.101916316e-13,5.667655013e-13,3.018543573e-13,1.487564597e-12,2.105490950e-13,5.046071831e-14
1.1875,1.200646830e-12,4.077366776e-13,9.945428002e-13,4.332532156e-13,8.014198465e-14,6.692966881e-13,8.317471953e-12,1.593260063e-13,5.734460050e-14,3.846991351e-12,4.981140661e-12,1.979892463e-13,2.171352773e-13,6.124613897e-13,2.767086165e-12,1.269301020e-12,7.623239954e-13,6.940253248e-13,6.463768235e-13,6.892578590e-13,4.704641776e-13,1.469204212e-13,1.154955299e-13,1.269514634e-12,5.706221216e-13,8.203915290e-14,1.074859122e-13,6.123294232e-13,3.017627609e-13,1.482134007e-12,2.195516020e-13,5.304996758e-14
1.1953,1.151878442e-12,3.891722008e-13,1.012615290e-12,4.137595939e-13,8.916520278e-14,6.615269441e-13,7.685302758e-12,1.565509259e-13,5.563853127e-14,3.741990897e-12,4.920703561e-12,1.913818583e-13,2.147033296e-13,5.923217073e-13,2.675034807e-12,1.256707412e-12,8.299105230e-13,7.520197336e-13,6.819956426e-13,7.428823676e-13,5.075533211e-13,1.504109897e-13,1.171797936e-13,1.141950532e-12,5.137466951e-13,8.528838271e-14,1.104863236e-13,6.662768115e-13,3.168271359e-13,1.455336558e-12,2.319484283e-13,5.344844904e-14
1.2031,1.101690713e-12,3.698708817e-13,1.020633516e-12,3.909817555e-13,9.773055899e-14,6.396604926e-13,6.963672119e-12,1.549135223e-13,5.437484572e-14,3.554625745e-12,4.737627501e-12,1.884935289e-13,2.113650239e-13,5.650781101e-13,2.509051047e-12,1.218971729e-12,8.993194576e-13,8.039708188e-13,7.086595218e-13,8.058840596e-13,5.439273096e-13,1.505138063e-13,1.187855145e-13,1.015288012e-12,4.501847065e-13,8.869907446e-14,1.164652760e-13,7.269485921e-13,3.421354170e-13,1.430464472e-12,2.460102910e-13,5.262917359e-14
1.2109,1.044298521e-12,3.491208235e-13,1.013400605e-12,3.650275491e-13,1.046188571e-13,6.095315214e-13,6.218475381e-12,1.539600187e-13,5.315761660e-14,3.299212590e-12,4.462457400e-12,1.885992071e-13,2.069831193e-13,5.349463291e-13,2.290753771e-12,1.165734194e-12,9.680856025e-13,8.451390150e-13,7.231434633e-13,8.668771885e-13,5.737787389e-13,1.472757869e-13,1.201181564e-13,8.834054246e-13,3.816896978e-13,9.337267117e-14,1.273942413e-13,7.848215065e-13,3.742986193e-13,1.416490517e-12,2.598174852e-13,5.162032148e-14
1.2188,9.786294834e-13,3.272725843e-13,9.877208116e-13,3.373752639e-13,1.083171507e-13,5.763187445e-13,5.504367823e-12,1.542555508e-13,5.028070102e-14,3.023192920e-12,4.133515312e-12,1.891689383e-13,1.962839768e-13,4.991820632e-13,2.042362554e-12,1.097263070e-12,1.020993215e-12,8.669492470e-13,7.197538275e-13,9.145759203e-13,5.913751402e-13,1.410679461e-13,1.187599866e-13,7.620807342e-13,3.210581156e-13,9.914809657e-14,1.415165173e-13,8.535449772e-13,4.075362471e-13,1.431643340e-12,2.713391279e-13,4.981223042e-14
1.2266,9.088172954e-13,3.065840261e-13,9.483206071e-13,3.091580999e-13,1.080005602e-13,5.492087061e-13,4.858191308e-12,1.558122242e-13,4.650042463e-14,2.750750844e-12,3.788491900e-12,1.916709710e-13,1.794003742e-13,4.568485621e-13,1.767055563e-12,1.011154169e-12,1.050916307e-12,8.666554022e-13,7.005092783e-13,9.511012778e-13,6.067533836e-13,1.332329756e-13,1.137963199e-13,6.522373267e-13,2.705503163e-13,1.055668629e-13,1.601186095e-13,9.345276091e-13,4.390021472e-13,1.489338366e-12,2.787034406e-13,4.653459487e-14
1.2344,8.344685810e-13,2.838190829e-13,8.874042548e-13,2.824054391e-13,1.047783673e-13,5.290086006e-13,4.325803282e-12,1.594401677e-13,4.319620111e-14,2.517780472e-12,3.476648355e-12,1.957630839e-13,1.636811351e-13,4.149302229e-13,1.497498255e-12,9.241747095e-13,1.064358211e-12,8.479906608e-13,6.700694209e-13,9.787748184e-13,6.211165679e-13,1.247162128e-13,1.082040094e-13,5.589241355e-13,2.393385071e-13,1.097644305e-13,1.801276771e-13,1.012849419e-12,4.633325345e-13,1.581353825e-12,2.796835324e-13,4.216049005e-14
1.2422,7.621425921e-13,2.563110579e-13,8.100113359e-13,2.522132269e-13,9.918141382e-14,5.144960549e-13,3.946185613e-12,1.630110121e-13,4.066737209e-14,2.311649803e-12,3.224854488e-12,1.995813456e-13,1.518662622e-13,3.773988104e-13,1.249559411e-12,8.409088369e-13,1.060601520e-12,8.096095632e-13,6.319400938e-13,9.946549431e-13,6.355858286e-13,1.160899343e-13,1.047358499e-13,4.885901076e-13,2.275481926e-13,1.109978364e-13,2.026911448e-13,1.087727625e-12,4.766920020e-13,1.706679196e-12,2.726925234e-13,3.778332291e-14
1.25,7.021124392e-13,2.301957027e-13,7.362388846e-13,2.241018652e-13,9.154999492e-14,5.089064968e-13,3.751111434e-12,1.662346971e-13,3.774317437e-14,2.144551090e-12,3.045522438e-12,1.992527359e-13,1.434532271e-13,3.447468639e-13,1.038851881e-12,7.619457570e-13,1.033870159e-12,7.590363381e-13,5.920500012e-13,9.910313891e-13,6.461805877e-13,1.093533050e-13,1.030861611e-13,4.337472926e-13,2.366364326e-13,1.092413967e-13,2.266127492e-13,1.157370216e-12,4.787864977e-13,1.836560417e-12,2.586510147e-13,3.393745121e-14
1.2578,6.558701718e-13,2.088793894e-13,6.685804208e-13,2.012274881e-13,8.209952903e-14,5.065021969e-13,3.717240273e-12,1.687041854e-13,3.391142656e-14,2.002229911e-12,2.930036542e-12,1.926293423e-13,1.351087458e-13,3.124547546e-13,8.615478354e-13,6.790836045e-13,9.722565159e-13,6.972855913e-13,5.488336838e-13,9.638008779e-13,6.497646645e-13,1.044872061e-13,1.037135308e-13,4.026592170e-13,2.713461239e-13,1.071334532e-13,2.529291514e-13,1.213308549e-12,4.733582739e-13,1.949417812e-12,2.407220492e-13,3.079662906e-14
1.2656,6.079197077e-13,1.906470081e-13,6.065219949e-13,1.846972184e-13,7.159493984e-14,4.978587496e-13,3.836226421e-12,1.708068127e-13,3.061923981e-14,1.884760635e-12,2.837823442e-12,1.823570441e-13,1.295105681e-13,2.831650944e-13,7.167543127e-13,5.984956551e-13,8.897929817e-13,6.296711453e-13,5.071374117e-13,9.239075907e-13,6.518884068e-13,1.010646082e-13,1.058144274e-13,3.947455258e-13,3.219235922e-13,1.031779935e-13,2.773712041e-13,1.254068607e-12,4.610969499e-13,2.068889497e-12,2.193077947e-13,2.823450146e-14
1.2734,5.671850507e-13,1.706177997e-13,5.542196172e-13,1.722265617e-13,6.141800611e-14,4.871746935e-13,4.123923511e-12,1.718965094e-13,2.859580135e-14,1.778964956e-12,2.768568532e-12,1.717635866e-13,1.286882140e-13,2.622319597e-13,6.085609981e-13,5.317897015e-13,8.055738122e-13,5.628922350e-13,4.708765561e-13,8.813056319e-13,6.496349983e-13,9.926468015e-14,1.076183596e-13,4.111220238e-13,3.920088402e-13,9.541767537e-14,2.963933050e-13,1.270813780e-12,4.357173765e-13,2.186140498e-12,1.943547860e-13,2.623901116e-14
1.2812,5.464185533e-13,1.497752004e-13,5.247262979e-13,1.607924289e-13,5.248166822e-14,4.711191729e-13,4.483518557e-12,1.717844560e-13,2.706108694e-14,1.684494035e-12,2.678424184e-12,1.625891636e-13,1.295848161e-13,2.518131424e-13,5.428360482e-13,4.840310829e-13,7.307853983e-13,5.033060596e-13,4.409041403e-13,8.371373905e-13,6.316104351e-13,9.890574726e-14,1.068248011e-13,4.464305183e-13,4.783124399e-13,8.427994729e-14,3.096554325e-13,1.275551816e-12,4.013099088e-13,2.268198815e-12,1.681571751e-13,2.413274358e-14
1.2891,5.398809924e-13,1.332400357e-13,5.118353158e-13,1.511005486e-13,4.469236474e-14,4.500523169e-13,4.911451608e-12,1.702813916e-13,2.540452704e-14,1.593138184e-12,2.511097262e-12,1.540637723e-13,1.284829614e-13,2.489721354e-13,5.155066724e-13,4.528514333e-13,6.653713999e-13,4.546572457e-13,4.172019011e-13,7.887069413e-13,6.021038340e-13,1.002079130e-13,1.056833507e-13,4.858006152e-13,5.650160785e-13,7.179417262e-14,3.144200636e-13,1.272445301e-12,3.587269391e-13,2.268117302e-12,1.417331836e-13,2.152152947e-14
1.2969,5.356344149e-13,1.238627000e-13,5.134638076e-13,1.455636089e-13,3.812097207e-14,4.282897642e-13,5.293295204e-12,1.682576663e-13,2.437041459e-14,1.510524931e-12,2.259875221e-12,1.470576906e-13,1.260699486e-13,2.503123736e-13,5.159196300e-13,4.324485468e-13,6.069690684e-13,4.165810639e-13,3.990822558e-13,7.388541201e-13,5.654979060e-13,1.022114219e-13,1.096527717e-13,5.406575119e-13,6.625839169e-13,6.068063289e-14,3.136894766e-13,1.279423377e-12,3.151487725e-13,2.202627266e-12,1.172058937e-13,1.896698958e-14
1.3047,5.412047101e-13,1.179727932e-13,5.364947335e-13,1.430698926e-13,3.267729148e-14,4.066681998e-13,5.610643891e-12,1.640771820e-13,2.480692981e-14,1.429285166e-12,1.990378734e-12,1.440788435e-13,1.250120866e-13,2.597616026e-13,5.398481217e-13,4.279432896e-13,5.641136215e-13,3.859199677e-13,3.837673810e-13,6.844324644e-13,5.277541454e-13,1.036379055e-13,1.172553412e-13,5.934383013e-13,7.737755318e-13,5.111334642e-14,3.104299539e-13,1.312527426e-12,2.723785530e-13,2.128033354e-12,9.551402974e-14,1.694910429e-14
1.3125,5.660444669e-13,1.141170789e-13,5.861271640e-13,1.401799171e-13,2.853408309e-14,3.923361559e-13,5.857204668e-12,1.577464337e-13,2.619191751e-14,1.353164832e-12,1.707316115e-12,1.457363550e-13,1.252882483e-13,2.772019931e-13,5.887608870e-13,4.402961135e-13,5.401533860e-13,3.609369837e-13,3.708371255e-13,6.285025339e-13,4.897767561e-13,1.042166720e-13,1.277577636e-13,6.487096716e-13,9.010812547e-13,4.288363523e-14,3.069319829e-13,1.380535388e-12,2.361062070e-13,2.062400284e-12,7.756602624e-14,1.565645326e-14
1.3203,6.021511187e-13,1.145828763e-13,6.482108141e-13,1.362627262e-13,2.537831831e-14,3.899136801e-13,5.940596469e-12,1.498646156e-13,2.751430782e-14,1.281648350e-12,1.423142348e-12,1.493961327e-13,1.235717501e-13,2.956793141e-13,6.445640979e-13,4.576047401e-13,5.239292086e-13,3.396213553e-13,3.582022423e-13,5.675260301e-13,4.473465238e-13,1.047058026e-13,1.436454305e-13,7.145347184e-13,1.023488428e-12,3.751875170e-14,3.063871823e-13,1.480905107e-12,2.068971730e-13,2.013595320e-12,6.429717577e-14,1.478041002e-14
1.3281,6.463354187e-13,1.202529590e-13,7.188176965e-13,1.332321123e-13,2.247982135e-14,4.015692418e-13,5.970097617e-12,1.406499721e-13,2.836389269e-14,1.203935134e-12,1.172723101e-12,1.521578586e-13,1.180799302e-13,3.089240602e-13,7.008832545e-13,4.758829540e-13,5.106154887e-13,3.226141756e-13,3.457492670e-13,5.060108306e-13,4.056181042e-13,1.057924243e-13,1.641527990e-13,7.899395444e-13,1.142737040e-12,3.626156559e-14,3.105041138e-13,1.598390367e-12,1.853398204e-13,1.994031386e-12,5.582361066e-14,1.401731107e-14
1.3359,6.973472697e-13,1.294294890e-13,7.938856280e-13,1.288711550e-13,1.956193135e-14,4.294065663e-13,5.893935685e-12,1.304866424e-13,2.910513396e-14,1.126942942e-12,9.542550889e-13,1.548300321e-13,1.095910720e-13,3.134096931e-13,7.394339946e-13,4.834156760e-13,4.924052256e-13,3.053820433e-13,3.316718078e-13,4.369812206e-13,3.637220747e-13,1.073484779e-13,1.867457067e-13,8.753479089e-13,1.281783618e-12,3.921865130e-14,3.257254527e-13,1.751214908e-12,1.742655777e-13,2.003961585e-12,5.320396615e-14,1.355545151e-14
1.3438,7.521920992e-13,1.403251931e-13,8.715368794e-13,1.217958508e-13,1.704919012e-14,4.724105537e-13,5.801888192e-12,1.201833753e-13,3.063133408e-14,1.046805277e-12,7.905220020e-13,1.582427715e-13,1.018180932e-13,3.159213436e-13,7.657939929e-13,4.884216236e-13,4.774327086e-13,2.869109818e-13,3.157696295e-13,3.673497169e-13,3.238051536e-13,1.083449313e-13,2.091070469e-13,9.547029785e-13,1.439131050e-12,4.546723988e-14,3.536065356e-13,1.912267855e-12,1.761244181e-13,2.082398719e-12,5.694849948e-14,1.387927279e-14
1.3516,8.048911462e-13,1.539511696e-13,9.435462835e-13,1.114740093e-13,1.498712717e-14,5.268599454e-13,5.714068349e-12,1.095743088e-13,3.279448172e-14,9.624731344e-13,6.774689203e-13,1.609340814e-13,9.636178415e-14,3.156236694e-13,7.749616303e-13,4.878663572e-13,4.638635089e-13,2.661544666e-13,2.992267018e-13,3.023548388e-13,2.871289338e-13,1.089205362e-13,2.353276417e-13,1.029353587e-12,1.585817583e-12,5.471116279e-14,3.874921869e-13,2.042798200e-12,1.859428894e-13,2.215309854e-12,6.487544471e-14,1.514276956e-14
1.3594,8.414632849e-13,1.688864540e-13,9.908559827e-13,1.012109997e-13,1.342358478e-14,5.848217400e-13,5.701102387e-12,9.848352855e-14,3.453960750e-14,8.721650424e-13,6.221587347e-13,1.597056524e-13,9.253153527e-14,3.080465679e-13,7.652308351e-13,4.784562113e-13,4.457128602e-13,2.451592404e-13,2.846344239e-13,2.462652239e-13,2.584189474e-13,1.103477090e-13,2.648641025e-13,1.105479789e-12,1.711755813e-12,6.584240018e-14,4.182374406e-13,2.106858505e-12,1.947138815e-13,2.378207161e-12,7.437713020e-14,1.717714062e-14
1.3672,8.622567140e-13,1.797193919e-13,1.003276296e-12,9.069359003e-14,1.207648855e-14,6.378820983e-13,5.843887664e-12,8.836373503e-14,3.500927780e-14,7.847078448e-13,6.286172528e-13,1.534494290e-13,8.825452163e-14,2.907274778e-13,7.396863410e-13,4.600685425e-13,4.210031752e-13,2.244995825e-13,2.702726540e-13,2.015686474e-13,2.376473793e-13,1.128478536e-13,2.920114185e-13,1.173353573e-12,1.828727823e-12,7.687722280e-14,4.459032948e-13,2.133545408e-12,2.037021147e-13,2.570743969e-12,8.445825389e-14,1.980844632e-14
1.375,8.611545051e-13,1.830591661e-13,9.774077500e-13,8.033315019e-14,1.103507098e-14,6.771411159e-13,6.166348773e-12,7.917804046e-14,3.518540628e-14,6.964906085e-13,6.823340853e-13,1.453144229e-13,8.435348956e-14,2.704944549e-13,7.123804003e-13,4.411375307e-13,3.957392723e-13,2.061987809e-13,2.584271546e-13,1.727835922e-13,2.287057405e-13,1.160551596e-13,3.117910313e-13,1.213461006e-12,1.942118151e-12,8.553480632e-14,4.668080733e-13,2.155997003e-12,2.122111614e-13,2.762981068e-12,9.285299205e-14,2.283039927e-14
1.3828,8.429187911e-13,1.818148564e-13,9.237267081e-13,6.949524425e-14,1.011729106e-14,7.005903837e-13,6.711508461e-12,7.284576297e-14,3.622323253e-14,6.173880009e-13,7.806515460e-13,1.378046696e-13,8.334847057e-14,2.554674965e-13,6.977582350e-13,4.315846173e-13,3.786661240e-13,1.921422266e-13,2.520710938e-13,1.592025957e-13,2.347849350e-13,1.202203405e-13,3.280407043e-13,1.217906865e-12,2.012988503e-12,9.175796219e-14,4.743257305e-13,2.140453319e-12,2.153742583e-13,2.932112177e-12,9.781515989e-14,2.661322265e-14
1.3906,8.094535334e-13,1.792156398e-13,8.544795912e-13,6.164678658e-14,9.116857063e-15,7.007267557e-13,7.485077979e-12,6.945827056e-14,3.823718669e-14,5.534996822e-13,9.168222722e-13,1.324270478e-13,8.562168948e-14,2.480343409e-13,6.985086506e-13,4.338615942e-13,3.700195739e-13,1.809827499e-13,2.506361737e-13,1.609850279e-13,2.571055682e-13,1.248797984e-13,3.433764084e-13,1.197515629e-12,2.030742347e-12,9.616746162e-14,4.652108734e-13,2.089782989e-12,2.113852808e-13,3.061599131e-12,9.909840329e-14,3.091543939e-14
1.3984,7.616934347e-13,1.727192791e-13,7.714899506e-13,5.814773139e-14,8.091930113e-15,6.820026931e-13,8.461283793e-12,6.909293625e-14,4.063971013e-14,4.976441760e-13,1.091188980e-12,1.281580338e-13,9.098676509e-14,2.492454323e-13,7.235918162e-13,4.527586789e-13,3.746665080e-13,1.778071143e-13,2.562099247e-13,1.793225527e-13,2.972716837e-13,1.313273247e-13,3.536657166e-13,1.152788351e-12,1.997797703e-12,9.708714602e-14,4.423036692e-13,2.019621128e-12,2.003661726e-13,3.096897764e-12,9.645597951e-14,3.490080795e-14
1.4062,7.073457898e-13,1.599120802e-13,6.833039262e-13,5.701240666e-14,7.283266752e-15,6.486620905e-13,9.607876051e-12,7.184530078e-14,4.262514467e-14,4.528969802e-13,1.288400523e-12,1.240593435e-13,9.745097502e-14,2.534754829e-13,7.599757082e-13,4.780885485e-13,3.858012430e-13,1.813778855e-13,2.658619503e-13,2.159066953e-13,3.517311277e-13,1.391953061e-13,3.551789125e-13,1.076945356e-12,1.942202394e-12,9.498479895e-14,4.152625330e-13,1.975867392e-12,1.873049015e-13,3.054532245e-12,9.227143366e-14,3.856539680e-14
1.4141,6.607539781e-13,1.440348022e-13,5.982648427e-13,5.749918582e-14,6.503426126e-15,6.037357177e-13,1.081921740e-11,7.734444889e-14,4.468049878e-14,4.188742394e-13,1.493683181e-12,1.210425688e-13,1.042588854e-13,2.594097896e-13,7.974435122e-13,5.050741464e-13,4.040486947e-13,1.923861778e-13,2.786252788e-13,2.682792590e-13,4.173602362e-13,1.484495435e-13,3.495487512e-13,9.707857404e-13,1.861992072e-12,9.147339023e-14,3.863966001e-13,1.974531660e-12,1.729291501e-13,2.954567083e-12,8.749698505e-14,4.259182048e-14
1.4219,6.326093917e-13,1.300855161e-13,5.271113189e-13,6.040211724e-14,5.621905924e-15,5.581923723e-13,1.202479875e-11,8.596740846e-14,4.732944906e-14,3.895816606e-13,1.701584781e-12,1.205854697e-13,1.124953454e-13,2.696330031e-13,8.344328093e-13,5.346827317e-13,4.336183968e-13,2.128040277e-13,2.947972846e-13,3.369987368e-13,4.872438401e-13,1.582870109e-13,3.402517734e-13,8.507592634e-13,1.738724851e-12,8.806840515e-14,3.605378778e-13,2.002187388e-12,1.595713433e-13,2.820248811e-12,8.364837682e-14,4.736960682e-14
1.4297,6.214529000e-13,1.175900703e-13,4.685856196e-13,6.597567968e-14,4.624813145e-15,5.213202355e-13,1.303369834e-11,9.722202849e-14,5.097352850e-14,3.670525909e-13,1.904008040e-12,1.231742447e-13,1.227770631e-13,2.851612124e-13,8.674896889e-13,5.655670827e-13,4.764688104e-13,2.396880078e-13,3.120304383e-13,4.207045376e-13,5.556324979e-13,1.682535575e-13,3.331777260e-13,7.383584468e-13,1.588584120e-12,8.592769359e-14,3.389060494e-13,2.064529167e-12,1.513286755e-13,2.677729913e-12,8.067881095e-14,5.340946364e-14
1.4375,6.303559199e-13,1.041749999e-13,4.243970362e-13,6.990036158e-14,3.754994706e-15,4.938184917e-13,1.376005806e-11,1.109911629e-13,5.519645342e-14,3.561959966e-13,2.108926845e-12,1.288837937e-13,1.348418178e-13,3.044976514e-13,8.920943458e-13,5.930386103e-13,5.271622450e-13,2.683052869e-13,3.260275063e-13,5.122696361e-13,6.178934654e-13,1.758806164e-13,3.239072679e-13,6.426929350e-13,1.425568766e-12,8.514419612e-14,3.200508525e-13,2.174922748e-12,1.463650519e-13,2.549447220e-12,7.977408223e-14,6.054316296e-14
1.4453,6.550150753e-13,8.976915076e-14,3.905433819e-13,7.136805530e-14,3.265135579e-15,4.744195198e-13,1.413142677e-11,1.251512106e-13,5.870529841e-14,3.550426902e-13,2.311007542e-12,1.368185739e-13,1.447777633e-13,3.240351984e-13,9.125453276e-13,6.148242345e-13,5.829185571e-13,2.985198862e-13,3.341702763e-13,6.038724870e-13,6.639420170e-13,1.815014607e-13,3.122239227e-13,5.821192000e-13,1.273799454e-12,8.651170584e-14,3.039182549e-13,2.324794362e-12,1.473884995e-13,2.453476386e-12,8.102184277e-14,6.774437509e-14
1.4531,6.876472490e-13,7.753775475e-14,3.652578062e-13,7.155010077e-14,3.151841102e-15,4.622928978e-13,1.408254491e-11,1.394092597e-13,6.016012480e-14,3.749209883e-13,2.503946742e-12,1.462045182e-13,1.497277988e-13,3.403317131e-13,9.240707918e-13,6.243798020e-13,6.348732059e-13,3.315838674e-13,3.360348740e-13,6.897095782e-13,6.878559790e-13,1.848117579e-13,2.961380596e-13,5.729551929e-13,1.148407031e-12,8.869713590e-14,2.903068298e-13,2.522048169e-12,1.534368608e-13,2.415076066e-12,8.347895882e-14,7.347611269e-14
1.4609,7.192623901e-13,6.797301918e-14,3.421311458e-13,7.073686412e-14,3.417511551e-15,4.546661305e-13,1.363465358e-11,1.522664296e-13,5.994682766e-14,4.167002046e-13,2.682802456e-12,1.581537464e-13,1.496330924e-13,3.589257608e-13,9.470841116e-13,6.313178460e-13,6.820110431e-13,3.638869878e-13,3.295079031e-13,7.595134576e-13,6.863663989e-13,1.849625826e-13,2.785290789e-13,6.116708077e-13,1.070689264e-12,9.075000864e-14,2.771009852e-13,2.747424624e-12,1.652190702e-13,2.424716384e-12,8.609201344e-14,7.740076186e-14
1.4688,7.457722949e-13,6.088333521e-14,3.224212418e-13,6.653274642e-14,4.148730250e-15,4.427279487e-13,1.280507717e-11,1.618481740e-13,5.956165036e-14,4.820157613e-13,2.851010055e-12,1.741537572e-13,1.483072446e-13,3.840294464e-13,9.852990300e-13,6.429659359e-13,7.272714959e-13,3.891093909e-13,3.134746595e-13,8.064808297e-13,6.646658803e-13,1.794671749e-13,2.613079847e-13,6.932193997e-13,1.038161842e-12,9.326428717e-14,2.656718176e-13,2.947444187e-12,1.826561279e-13,2.477647871e-12,8.942694054e-14,8.083812792e-14
1.4766,7.638668693e-13,5.601711006e-14,3.041837922e-13,6.080589633e-14,5.245587022e-15,4.262158872e-13,1.173943590e-11,1.669622639e-13,5.950902486e-14,5.703972364e-13,3.006281363e-12,1.950129651e-13,1.477459026e-13,4.184780327e-13,1.046582380e-12,6.657511110e-13,7.768623448e-13,4.087715075e-13,2.916303271e-13,8.389773743e-13,6.312542056e-13,1.694637528e-13,2.487087416e-13,8.063336308e-13,1.045090642e-12,9.643633549e-14,2.519365350e-13,3.070925179e-12,2.026666226e-13,2.550848641e-12,9.184518836e-14,8.469657734e-14
1.4844,7.621577510e-13,5.312440954e-14,2.818688054e-13,5.477185565e-14,6.503302342e-15,4.071356136e-13,1.049728125e-11,1.681492965e-13,5.891942959e-14,6.796397868e-13,3.126213500e-12,2.197065908e-13,1.438714847e-13,4.602923116e-13,1.130359331e-12,6.964390631e-13,8.200739004e-13,4.222226675e-13,2.627009062e-13,8.523630742e-13,5.803308028e-13,1.553076538e-13,2.384445553e-13,9.383769901e-13,1.086684443e-12,9.967510477e-14,2.373720317e-13,3.103045146e-12,2.238734924e-13,2.613729049e-12,9.337802127e-14,8.667689968e-14
1.4922,7.367488217e-13,5.064596358e-14,2.529782115e-13,5.041465330e-14,7.905647298e-15,3.841954224e-13,9.253492399e-12,1.652845193e-13,5.794152114e-14,7.921503546e-13,3.208091828e-12,2.484793537e-13,1.366235480e-13,5.109391415e-13,1.238269150e-12,7.422961317e-13,8.610925369e-13,4.357046184e-13,2.314734410e-13,8.550981562e-13,5.203857006e-13,1.395825842e-13,2.256099933e-13,1.073711004e-12,1.142408279e-12,9.981614565e-14,2.221596735e-13,3.052268173e-12,2.428815476e-13,2.639141355e-12,9.256640903e-14,8.423426628e-14
1.5,6.924459963e-13,4.937796742e-14,2.203175222e-13,4.836290295e-14,9.432287957e-15,3.574619975e-13,8.081833859e-12,1.585901963e-13,5.699040163e-14,9.023961250e-13,3.223795231e-12,2.794215857e-13,1.280572397e-13,5.694575267e-13,1.365895428e-12,8.067107988e-13,9.074147701e-13,4.498905763e-13,2.019880790e-13,8.522368630e-13,4.591135933e-13,1.230305374e-13,2.117833098e-13,1.173555789e-12,1.210907956e-12,9.731598985e-14,2.071645054e-13,2.936132530e-12,2.552408430e-13,2.622777915e-12,8.989693257e-14,7.787588623e-14
1.5078,6.333725003e-13,4.962607929e-14,1.865610104e-13,4.859703790e-14,1.067934253e-14,3.308757812e-13,7.038227551e-12,1.478775843e-13,5.650921920e-14,9.927353144e-13,3.165682698e-12,3.091840756e-13,1.218281154e-13,6.327763850e-13,1.502868408e-12,8.897853166e-13,9.647562164e-13,4.641781413e-13,1.767938534e-13,8.556072430e-13,4.023711697e-13,1.057381803e-13,1.976035483e-13,1.239446956e-12,1.263297172e-12,9.256388255e-14,1.915223208e-13,2.716873442e-12,2.570393779e-13,2.574137558e-12,8.525476564e-14,7.033157129e-14
1.5156,5.718572155e-13,5.117003020e-14,1.573119380e-13,5.132540274e-14,1.142742650e-14,3.049418529e-13,6.216669115e-12,1.338759430e-13,5.550582635e-14,1.048265104e-12,3.051041386e-12,3.322100851e-13,1.170708409e-13,6.934054773e-13,1.636213051e-12,9.819132000e-13,1.026229891e-12,4.773318156e-13,1.564814230e-13,8.623833459e-13,3.513151925e-13,8.903168577e-14,1.855799035e-13,1.250047383e-12,1.284445954e-12,8.705401229e-14,1.778367029e-13,2.422467746e-12,2.505755905e-13,2.517492536e-12,7.991797954e-14,6.266372445e-14
1.5234,5.049744744e-13,5.279828295e-14,1.290874155e-13,5.506855701e-14,1.179469658e-14,2.874328764e-13,5.569341771e-12,1.178274411e-13,5.433030033e-14,1.067033113e-12,2.898453984e-12,3.491787310e-13,1.128438716e-13,7.503547948e-13,1.763461105e-12,1.078555688e-12,1.082019803e-12,4.891637756e-13,1.401301189e-13,8.680443002e-13,3.051301938e-13,7.327019296e-14,1.711440769e-13,1.222035526e-12,1.282919837e-12,7.949312201e-14,1.648019526e-13,2.096944578e-12,2.350962016e-13,2.454682138e-12,7.349719874e-14,5.389036320e-14
1.5312,4.429632179e-13,5.561365586e-14,1.051017459e-13,5.825292771e-14,1.203522650e-14,2.755182678e-13,5.127276616e-12,1.018031390e-13,5.357961643e-14,1.055880212e-12,2.721583996e-12,3.605641551e-13,1.102024025e-13,8.008947907e-13,1.874018246e-12,1.173736443e-12,1.132926507e-12,4.996711440e-13,1.282763652e-13,8.730246714e-13,2.697946597e-13,5.964803469e-14,1.547320426e-13,1.148504063e-12,1.273662828e-12,7.097081586e-14,1.541226720e-13,1.795847108e-12,2.150835249e-13,2.406330452e-12,6.770945074e-14,4.431574259e-14
1.5391,3.864550995e-13,5.996541294e-14,8.567072147e-14,6.126207159e-14,1.214928443e-14,2.719979873e-13,4.821775131e-12,8.587027388e-14,5.319731241e-14,1.015532118e-12,2.525482746e-12,3.652471858e-13,1.102524851e-13,8.432200501e-13,1.964673846e-12,1.265043204e-12,1.180720785e-12,5.079912392e-13,1.219857117e-13,8.760594941e-13,2.483428742e-13,4.855649749e-14,1.400806347e-13,1.056992827e-12,1.269419684e-12,6.245292132e-14,1.455793703e-13,1.561740719e-12,1.913482901e-13,2.375324139e-12,6.253733346e-14,3.491925206e-14
1.5469,3.388197748e-13,6.558247134e-14,7.056672246e-14,6.335935832e-14,1.192904736e-14,2.767452967e-13,4.633268584e-12,7.104244723e-14,5.179687956e-14,9.541435143e-13,2.337649458e-12,3.619031116e-13,1.111494713e-13,8.699849867e-13,2.027739857e-12,1.345266565e-12,1.221058144e-12,5.145461956e-13,1.202061798e-13,8.768280193e-13,2.367974479e-13,4.081719748e-14,1.301046673e-13,9.559869966e-13,1.268918110e-12,5.518211658e-14,1.376217717e-13,1.408025168e-12,1.663323088e-13,2.367317857e-12,5.816291437e-14,2.729044539e-14
1.5547,2.994255608e-13,7.034215098e-14,5.834387685e-14,6.388253139e-14,1.127396987e-14,2.874711618e-13,4.533037071e-12,5.729662560e-14,4.843142170e-14,8.827767481e-13,2.173872386e-12,3.505583036e-13,1.099774146e-13,8.756265752e-13,2.058083291e-12,1.404177411e-12,1.240825133e-12,5.176195868e-13,1.205883133e-13,8.718211222e-13,2.333416084e-13,3.603509348e-14,1.255557958e-13,8.624974940e-13,1.268514345e-12,4.961183224e-14,1.295005513e-13,1.343596332e-12,1.426914736e-13,2.375353686e-12,5.421166251e-14,2.146561015e-14
1.5625,2.676642063e-13,7.526081585e-14,5.034143059e-14,6.211362726e-14,1.039813965e-14,3.057413701e-13,4.435374353e-12,4.602366917e-14,4.415521658e-14,8.137119328e-13,2.017963526e-12,3.348415530e-13,1.082163446e-13,8.623164841e-13,2.053182473e-12,1.434346106e-12,1.235173403e-12,5.163444059e-13,1.226740562e-13,8.580190711e-13,2.368882516e-13,3.378288123e-14,1.238930052e-13,7.916320596e-13,1.263917389e-12,4.530014455e-14,1.201204657e-13,1.352723044e-12,1.244244609e-13,2.398323495e-12,5.109147118e-14,1.722241553e-14
1.5703,2.440333303e-13,8.076451143e-14,4.688027172e-14,5.993342446e-14,9.472056541e-15,3.337487182e-13,4.316482665e-12,3.718743250e-14,4.017061936e-14,7.469611129e-13,1.870118953e-12,3.171281004e-13,1.083501946e-13,8.357917705e-13,2.011916122e-12,1.437639180e-12,1.213525438e-12,5.106641212e-13,1.272000173e-13,8.365798499e-13,2.471806763e-13,3.423447025e-14,1.237730877e-13,7.464961581e-13,1.255003310e-12,4.176656735e-14,1.101543550e-13,1.418648286e-12,1.120332157e-13,2.421296071e-12,4.830922568e-14,1.443584239e-14
1.5781,2.267951176e-13,8.508188064e-14,4.637418420e-14,5.757727097e-14,8.742927213e-15,3.737294984e-13,4.124342087e-12,3.095875396e-14,3.689271971e-14,6.866782362e-13,1.741136088e-12,3.002444919e-13,1.101497951e-13,8.023797516e-13,1.943465692e-12,1.419155044e-12,1.180473748e-12,4.996279726e-13,1.326541148e-13,8.071050475e-13,2.593342347e-13,3.637481626e-14,1.216185013e-13,7.285230576e-13,1.250015512e-12,3.796411363e-14,9.947242033e-14,1.522234279e-12,1.045674612e-13,2.445105908e-12,4.509953475e-14,1.269203513e-14
1.5859,2.106704997e-13,8.663799340e-14,4.687822366e-14,5.603409759e-14,7.949571529e-15,4.226323817e-13,3.846662565e-12,2.692127779e-14,3.405881149e-14,6.353767177e-13,1.631141669e-12,2.847451159e-13,1.132204558e-13,7.636978617e-13,1.852254853e-12,1.380868538e-12,1.136047831e-12,4.857704791e-13,1.379870959e-13,7.715849873e-13,2.693256288e-13,4.000509987e-14,1.165814427e-13,7.288928549e-13,1.248900224e-12,3.371963828e-14,8.801199047e-14,1.629576928e-12,1.016293944e-13,2.449214436e-12,4.172187712e-14,1.167339917e-14
1.5938,1.999593898e-13,8.605507150e-14,5.088082232e-14,5.620706043e-14,6.980007321e-15,4.824343794e-13,3.507052200e-12,2.511979824e-14,3.174093554e-14,5.955617600e-13,1.544097178e-12,2.711640533e-13,1.179532783e-13,7.212251133e-13,1.743172228e-12,1.327451074e-12,1.085116679e-12,4.719227894e-13,1.429763293e-13,7.360768736e-13,2.768902109e-13,4.432768035e-14,1.107932963e-13,7.517179765e-13,1.255469025e-12,2.965327377e-14,7.725158965e-14,1.703852662e-12,1.014604502e-13,2.445560678e-12,3.833523042e-14,1.159591644e-14
1.6016,1.931838183e-13,8.404565204e-14,5.760601161e-14,5.870651226e-14,5.818190153e-15,5.480112899e-13,3.117532819e-12,2.480497615e-14,3.043584115e-14,5.612821354e-13,1.472946584e-12,2.583762948e-13,1.246522589e-13,6.761921812e-13,1.621073035e-12,1.260213056e-12,1.028608540e-12,4.577731789e-13,1.480789187e-13,6.995321861e-13,2.825228701e-13,4.924349780e-14,1.064500391e-13,7.821520673e-13,1.274029304e-12,2.609313828e-14,6.697592774e-14,1.722783105e-12,1.036881284e-13,2.434479934e-12,3.500274057e-14,1.253659489e-14
1.6094,1.894034640e-13,8.138110564e-14,6.369515221e-14,6.289342401e-14,4.741449894e-15,6.155359767e-13,2.704337188e-12,2.556090190e-14,2.999506048e-14,5.290351708e-13,1.407822237e-12,2.463594176e-13,1.313129410e-13,6.319342543e-13,1.496007855e-12,1.184802335e-12,9.700528711e-13,4.436759162e-13,1.525466541e-13,6.618387529e-13,2.832751068e-13,5.390281627e-14,1.036931790e-13,8.177923833e-13,1.305518496e-12,2.337704325e-14,5.820257920e-14,1.693739423e-12,1.070871777e-13,2.426001313e-12,3.196426319e-14,1.391861994e-14
1.6172,1.883743216e-13,7.914435707e-14,6.739213906e-14,6.824691802e-14,3.930390424e-15,6.794545125e-13,2.277881785e-12,2.723930458e-14,2.985989270e-14,5.017255565e-13,1.342943582e-12,2.345855735e-13,1.361847018e-13,5.891639857e-13,1.376684448e-12,1.108772695e-12,9.125558510e-13,4.326786735e-13,1.574971142e-13,6.271189672e-13,2.757792265e-13,5.860811509e-14,1.007067978e-13,8.568285886e-13,1.347074317e-12,2.160751520e-14,5.171045306e-14,1.637204496e-12,1.117258962e-13,2.423614678e-12,3.022258882e-14,1.549839342e-14
1.625,1.906745867e-13,7.816487254e-14,7.196400422e-14,7.461893967e-14,3.445292069e-15,7.333768842e-13,1.910552413e-12,2.908134222e-14,3.016004656e-14,4.775482603e-13,1.270186434e-12,2.226381342e-13,1.397810238e-13,5.492255157e-13,1.270896524e-12,1.034296598e-12,8.559831368e-13,4.243511139e-13,1.632915972e-13,5.949041236e-13,2.603500534e-13,6.325144233e-14,9.526471582e-14,8.949432493e-13,1.386935369e-12,2.048707444e-14,4.724417229e-14,1.573663892e-12,1.171346269e-13,2.424059318e-12,3.031600963e-14,1.723671408e-14
1.6328,1.954046201e-13,7.773736211e-14,7.572576107e-14,8.191094435e-14,3.334930136e-15,7.765797491e-13,1.625918746e-12,3.132740837e-14,3.109262635e-14,4.535847838e-13,1.200809330e-12,2.111206349e-13,1.420578847e-13,5.133244196e-13,1.178821356e-12,9.650380958e-13,8.019626205e-13,4.139939901e-13,1.687576058e-13,5.602353444e-13,2.378665266e-13,6.647753160e-14,8.808526743e-14,9.260850321e-13,1.424907394e-12,1.982462959e-14,4.456485865e-14,1.513115198e-12,1.229342727e-13,2.428513889e-12,3.182428173e-14,1.920773050e-14
1.6406,2.035080578e-13,7.728536845e-14,7.775272470e-14,8.938485243e-14,3.616205519e-15,8.014842843e-13,1.408363554e-12,3.374486505e-14,3.260618537e-14,4.269696776e-13,1.115184748e-12,1.998055455e-13,1.430862640e-13,4.808274290e-13,1.101541977e-12,9.032473539e-13,7.507384621e-13,4.008866070e-13,1.746945258e-13,5.222620415e-13,2.125857683e-13,6.878586801e-14,8.054690061e-14,9.554387017e-13,1.452704450e-12,1.939418986e-14,4.301021579e-14,1.464874694e-12,1.295769554e-13,2.430587751e-12,3.441246370e-14,2.144321397e-14
1.6484,2.118447591e-13,7.555213828e-14,7.714335483e-14,9.631850505e-14,4.127038370e-15,8.072758678e-13,1.280158410e-12,3.589603159e-14,3.403384945e-14,4.002429828e-13,1.019747583e-12,1.887942093e-13,1.408829347e-13,4.493512663e-13,1.035311048e-12,8.471647981e-13,6.988071512e-13,3.851436156e-13,1.800729024e-13,4.808468804e-13,1.865734162e-13,6.979851842e-14,7.480444332e-14,9.931168428e-13,1.464714139e-12,1.950325860e-14,4.210474137e-14,1.441769978e-12,1.363033009e-13,2.421529126e-12,3.713690272e-14,2.296546603e-14
1.6562,2.205049273e-13,7.331208442e-14,7.500138911e-14,1.021033596e-13,4.864376137e-15,7.923245060e-13,1.214752401e-12,3.814510542e-14,3.496831157e-14,3.738835177e-13,9.107533357e-13,1.776180810e-13,1.358186149e-13,4.154207139e-13,9.736807516e-13,7.940597669e-13,6.436634358e-13,3.667371296e-13,1.838140460e-13,4.376804692e-13,1.613183090e-13,6.983152810e-14,7.076983371e-14,1.053941615e-12,1.453753673e-12,1.975172370e-14,4.187906718e-14,1.440918364e-12,1.425870197e-13,2.385232333e-12,3.995804818e-14,2.380684281e-14
1.6641,2.312854798e-13,7.066242633e-14,7.289326395e-14,1.062759659e-13,5.831609060e-15,7.592201137e-13,1.207465084e-12,3.965172199e-14,3.579273661e-14,3.487967809e-13,7.881821605e-13,1.682336835e-13,1.294547597e-13,3.846582016e-13,9.207694712e-13,7.462092829e-13,5.896043058e-13,3.481225054e-13,1.873422742e-13,3.961914841e-13,1.425999208e-13,6.908476343e-14,6.997852039e-14,1.138995697e-12,1.436667104e-12,2.059933733e-14,4.349388263e-14,1.473426036e-12,1.490606904e-13,2.326450706e-12,4.341099794e-14,2.416261763e-14
1.6719,2.429215117e-13,6.780951190e-14,6.929907313e-14,1.085493937e-13,6.939502771e-15,7.124285530e-13,1.242255201e-12,4.058708781e-14,3.670618166e-14,3.268241247e-13,6.737906971e-13,1.622176900e-13,1.231175806e-13,3.603652407e-13,8.754306761e-13,7.062961147e-13,5.428288560e-13,3.307059726e-13,1.903174237e-13,3.583238791e-13,1.290085987e-13,6.781262288e-14,7.119216842e-14,1.253886127e-12,1.425253194e-12,2.192515263e-14,4.686256171e-14,1.515715764e-12,1.546400149e-13,2.228364336e-12,4.747639679e-14,2.451051809e-14
1.6797,2.573889622e-13,6.538941551e-14,6.386243472e-14,1.098031279e-13,8.197943235e-15,6.533676190e-13,1.297114889e-12,4.098010453e-14,3.698458240e-14,3.049476350e-13,5.712501147e-13,1.586828641e-13,1.154633304e-13,3.405357861e-13,8.390649146e-13,6.728093835e-13,4.992372665e-13,3.128688225e-13,1.919125067e-13,3.246565314e-13,1.226473160e-13,6.594904097e-14,7.512558912e-14,1.390634883e-12,1.414089393e-12,2.429961776e-14,5.322896654e-14,1.562148060e-12,1.605667749e-13,2.111839928e-12,5.275499862e-14,2.479479890e-14
1.6875,2.743958996e-13,6.496442168e-14,5.770104918e-14,1.096547835e-13,9.447371870e-15,5.895655472e-13,1.386112162e-12,4.113935691e-14,3.681956119e-14,2.877568701e-13,4.855979881e-13,1.572934542e-13,1.074208574e-13,3.241977687e-13,8.063796233e-13,6.426346423e-13,4.614007089e-13,2.979761973e-13,1.927281965e-13,2.976770476e-13,1.234132678e-13,6.407195971e-14,8.171701985e-14,1.551964067e-12,1.405373382e-12,2.792316076e-14,6.293994025e-14,1.592542816e-12,1.677621254e-13,1.973346248e-12,5.920230738e-14,2.514436550e-14
1.6953,2.975845502e-13,6.609553369e-14,5.181881068e-14,1.085585245e-13,1.081244183e-14,5.262319194e-13,1.510747710e-12,4.143323310e-14,3.628915883e-14,2.721600386e-13,4.119589884e-13,1.578572334e-13,9.979650223e-14,3.122478780e-13,7.822210051e-13,6.186345430e-13,4.324269942e-13,2.878480985e-13,1.935099205e-13,2.794084171e-13,1.319654655e-13,6.250518127e-14,9.004812864e-14,1.707671437e-12,1.393220958e-12,3.264904756e-14,7.669232790e-14,1.593210887e-12,1.773948144e-13,1.837261281e-12,6.686939559e-14,2.569467584e-14
1.7031,3.240481219e-13,6.791274624e-14,4.599817769e-14,1.064284431e-13,1.240413579e-14,4.676632535e-13,1.667682419e-12,4.182171017e-14,3.546839288e-14,2.586085675e-13,3.602213609e-13,1.605167846e-13,9.271765993e-14,3.068288746e-13,7.683416029e-13,6.033145082e-13,4.170904107e-13,2.832161529e-13,1.959118948e-13,2.715399613e-13,1.516232399e-13,6.164552637e-14,9.802100102e-14,1.854653799e-12,1.372598235e-12,3.771747805e-14,9.199304695e-14,1.565578053e-12,1.871731372e-13,1.716355262e-12,7.465919032e-14,2.622033710e-14
1.7109,3.540394956e-13,6.818594596e-14,3.974195890e-14,1.038171623e-13,1.418563376e-14,4.192761192e-13,1.828983227e-12,4.333414597e-14,3.441135818e-14,2.515037999e-13,3.369977652e-13,1.656153028e-13,8.621804429e-14,3.088754160e-13,7.689782277e-13,5.991291482e-13,4.173450574e-13,2.849119918e-13,2.006423977e-13,2.788200795e-13,1.808235655e-13,6.143718490e-14,1.043813064e-13,1.962070566e-12,1.348356411e-12,4.300865648e-14,1.090280207e-13,1.505983659e-12,1.959422449e-13,1.617167117e-12,8.241107200e-14,2.704579295e-14
1.7188,3.885219822e-13,6.762097553e-14,3.518050205e-14,1.009372127e-13,1.598744373e-14,3.812072194e-13,1.986510271e-12,4.616562313e-14,3.297822563e-14,2.451509767e-13,3.351861142e-13,1.699024009e-13,8.046653690e-14,3.129176857e-13,7.764337868e-13,6.010570528e-13,4.292353373e-13,2.923891506e-13,2.079595785e-13,2.959602160e-13,2.205371206e-13,6.157063532e-14,1.074607775e-13,2.014023358e-12,1.301510093e-12,4.763547313e-14,1.267909316e-13,1.421836589e-12,2.044809376e-13,1.559921986e-12,8.939430626e-14,2.789930581e-14
1.7266,4.242465045e-13,6.652699885e-14,3.256986365e-14,9.941043262e-14,1.773916909e-14,3.536096739e-13,2.128328040e-12,5.007956146e-14,3.163602403e-14,2.417144419e-13,3.465737723e-13,1.734042943e-13,7.613827210e-14,3.206824759e-13,7.927859290e-13,6.090736715e-13,4.509475556e-13,3.052387746e-13,2.176023492e-13,3.217175848e-13,2.675643275e-13,6.209417444e-14,1.095941441e-13,1.990560985e-12,1.253314954e-12,5.144764264e-14,1.449864941e-13,1.330149370e-12,2.142467097e-13,1.552269779e-12,9.511865848e-14,2.876023010e-14
1.7344,4.599434687e-13,6.519812128e-14,3.197702451e-14,9.868793862e-14,1.944131902e-14,3.365199695e-13,2.222215810e-12,5.484232605e-14,3.040119368e-14,2.417346426e-13,3.711830922e-13,1.764940259e-13,7.320935099e-14,3.327451964e-13,8.213613797e-13,6.281370507e-13,4.862996873e-13,3.235850554e-13,2.292787081e-13,3.567927932e-13,3.177563875e-13,6.295594638e-14,1.087252283e-13,1.887748935e-12,1.190178989e-12,5.383959277e-14,1.637158713e-13,1.234772727e-12,2.264747470e-13,1.608272054e-12,9.897726507e-14,2.906389513e-14
1.7422,5.031665986e-13,6.351049295e-14,3.651835582e-14,9.986687225e-14,2.109582484e-14,3.264692163e-13,2.277329880e-12,6.026526507e-14,2.896733160e-14,2.451936013e-13,4.065206736e-13,1.778746446e-13,6.969900051e-14,3.451499861e-13,8.576037558e-13,6.548214306e-13,5.299233959e-13,3.432210815e-13,2.408613004e-13,3.955043826e-13,3.706866076e-13,6.380640791e-14,1.047634392e-13,1.736117168e-12,1.101816939e-12,5.451318307e-14,1.795108268e-13,1.147323964e-12,2.394294210e-13,1.726853766e-12,1.002222958e-13,2.869076760e-14
1.75,5.607390975e-13,6.085477361e-14,4.752171680e-14,1.029855831e-13,2.268831028e-14,3.220461908e-13,2.287321750e-12,6.629189226e-14,2.770860534e-14,2.530454368e-13,4.451175562e-13,1.779650799e-13,6.639253254e-14,3.586240300e-13,9.018977881e-13,6.893333934e-13,5.809567807e-13,3.647536201e-13,2.523567454e-13,4.344855515e-13,4.212809084e-13,6.503378630e-14,9.912702123e-14,1.547014842e-12,9.952940524e-13,5.353633287e-14,1.911360564e-13,1.068574812e-12,2.508151746e-13,1.893238391e-12,9.861250069e-14,2.767726021e-14
1.7578,6.493670188e-13,5.845850670e-14,6.692202892e-14,1.086472496e-13,2.438577389e-14,3.204761473e-13,2.251566708e-12,7.214001646e-14,2.708510178e-14,2.646237818e-13,4.874123609e-13,1.779606353e-13,6.455244351e-14,3.741766713e-13,9.538361280e-13,7.317665644e-13,6.408410187e-13,3.886516362e-13,2.628453174e-13,4.775953621e-13,4.637129519e-13,6.611381402e-14,9.263615481e-14,1.352858714e-12,8.878019862e-13,5.128208278e-14,1.995127064e-13,1.011568081e-12,2.614434174e-13,2.075734777e-12,9.585228645e-14,2.619564176e-14
1.7656,7.710151342e-13,5.721192726e-14,9.529044767e-14,1.174649484e-13,2.612907971e-14,3.206157004e-13,2.217361020e-12,7.780217614e-14,2.732253749e-14,2.802944555e-13,5.275998059e-13,1.775796260e-13,6.457818429e-14,3.895921711e-13,1.006474444e-12,7.796019347e-13,7.084821940e-13,4.132174680e-13,2.716856213e-13,5.199346168e-13,4.963026825e-13,6.694178041e-14,8.682314122e-14,1.170333090e-12,7.869331162e-13,4.817113384e-14,2.070087300e-13,9.569798425e-13,2.719684504e-13,2.249349817e-12,9.259681782e-14,2.469971344e-14
1.7734,9.372127848e-13,5.804004781e-14,1.344628051e-13,1.294604342e-13,2.798244596e-14,3.214314284e-13,2.188968307e-12,8.258052541e-14,2.830179135e-14,2.948877347e-13,5.675636365e-13,1.769574243e-13,6.675495708e-14,4.065997461e-13,1.064165338e-12,8.360679015e-13,7.911822086e-13,4.417168488e-13,2.797962690e-13,5.637861676e-13,5.159488625e-13,6.819253267e-14,8.318913419e-14,1.016525293e-12,6.954097071e-13,4.414265226e-14,2.139732368e-13,9.066082059e-13,2.812457939e-13,2.391969588e-12,8.782570086e-14,2.315684863e-14
1.7812,1.160255205e-12,5.877251859e-14,1.859315595e-13,1.454516897e-13,2.946611665e-14,3.244525857e-13,2.175357336e-12,8.684493430e-14,3.000639414e-14,3.102407114e-13,6.071760728e-13,1.763421123e-13,7.061572434e-14,4.237964770e-13,1.120803083e-12,8.988569294e-13,8.872506874e-13,4.730622889e-13,2.872030054e-13,6.038727517e-13,5.213943623e-13,6.968342735e-14,8.174878564e-14,8.985380412e-13,6.152280836e-13,3.953539047e-14,2.180576064e-13,8.657338177e-13,2.861742823e-13,2.489710921e-12,8.063007254e-14,2.190805048e-14
1.7891,1.435414232e-12,6.075156304e-14,2.491260280e-13,1.664405920e-13,3.078563615e-14,3.310505247e-13,2.191905633e-12,9.061467708e-14,3.255279715e-14,3.232634672e-13,6.456469583e-13,1.750695125e-13,7.758709380e-14,4.412478543e-13,1.177230362e-12,9.678988211e-13,9.992453617e-13,5.110729075e-13,2.964208517e-13,6.439124213e-13,5.143774829e-13,7.216902830e-14,8.142534348e-14,8.201138245e-13,5.493877719e-13,3.473676271e-14,2.189856058e-13,8.466339507e-13,2.838723450e-13,2.551929956e-12,7.214756308e-14,2.093139871e-14
