Time,Fp1,AF3,F7,F3,FC1,FC5,T7,C3,CP1,CP5,P7,P3,Pz,PO3,O1,Oz,O2,PO4,P4,P8,CP6,CP2,C4,T8,FC6,FC2,F4,F8,AF4,Fp2,Fz,Cz,
0,3.960503270e-09,1.567198680e-09,1.023506612e-09,3.631961676e-10,9.907421167e-11,2.412332931e-10,1.092998391e-09,6.936500739e-11,6.346078912e-11,1.844332928e-11,2.291935433e-10,1.908837788e-11,1.285017606e-10,3.139363458e-11,2.996988484e-11,4.044732516e-11,6.107485206e-11,7.932906521e-11,2.202394507e-11,1.421397499e-10,6.701083984e-11,9.808143758e-11,1.224084245e-09,4.439186072e-10,7.851472405e-10,7.841623400e-11,2.486892655e-10,2.460175805e-09,2.971141828e-11,5.428383835e-09,6.854138152e-09,5.288102622e-10
0.0078125,3.957714492e-09,1.567595664e-09,1.021160295e-09,3.626930640e-10,9.951064712e-11,2.405165500e-10,1.090021514e-09,6.937511463e-11,6.375754808e-11,1.839208311e-11,2.285614169e-10,1.905216944e-11,1.287526119e-10,3.115248811e-11,3.017384847e-11,4.043682809e-11,6.142478083e-11,7.971396623e-11,2.196924410e-11,1.422751084e-10,6.686832322e-11,9.799303968e-11,1.227062376e-09,4.419995536e-10,7.829318543e-10,7.861651982e-11,2.479323775e-10,2.454458353e-09,2.987862212e-11,5.418681236e-09,6.883083206e-09,5.313074445e-10
0.015625,3.943776898e-09,1.563603532e-09,1.015880136e-09,3.611586699e-10,9.967417470e-11,2.391054747e-10,1.083912819e-09,6.918903097e-11,6.388326254e-11,1.828884379e-11,2.272792161e-10,1.896205784e-11,1.286521920e-10,3.081791687e-11,3.029672912e-11,4.031395558e-11,6.160674035e-11,7.988512957e-11,2.185188525e-11,1.420110965e-10,6.653641103e-11,9.763120416e-11,1.226660315e-09,4.388002591e-10,7.784636461e-10,7.859904200e-11,2.464604979e-10,2.441726944e-09,2.998261303e-11,5.393548225e-09,6.893293287e-09,5.323714417e-10
0.023438,3.918904987e-09,1.555282244e-09,1.007724252e-09,3.586155429e-10,9.955699370e-11,2.370187642e-10,1.074748227e-09,6.880470872e-11,6.383154846e-11,1.813408501e-11,2.253587601e-10,1.881795748e-11,1.281952829e-10,3.039421981e-11,3.033772604e-11,4.007778268e-11,6.161735551e-11,7.983137044e-11,2.167133284e-11,1.413440966e-10,6.601390510e-11,9.699698456e-11,1.222838351e-09,4.343566825e-10,7.717962553e-10,7.835706134e-11,2.442949624e-10,2.422146311e-09,3.002637543e-11,5.353328653e-09,6.884198842e-09,5.319581037e-10
0.03125,3.883347878e-09,1.542699552e-09,9.967536011e-10,3.550861370e-10,9.915542657e-11,2.342739478e-10,1.062616193e-09,6.822254498e-11,6.359628937e-11,1.792880244e-11,2.228140840e-10,1.862030034e-11,1.273780692e-10,2.988678499e-11,3.029387764e-11,3.973005957e-11,6.145250545e-11,7.954768586e-11,2.142939917e-11,1.402748870e-10,6.530574424e-11,9.609108223e-11,1.215592151e-09,4.287135685e-10,7.630021894e-10,7.788877489e-11,2.414586683e-10,2.395899187e-09,3.001184470e-11,5.298447634e-09,6.855473643e-09,5.300470066e-10
0.039062,3.837532155e-09,1.525995010e-09,9.831204843e-10,3.506138889e-10,9.846616522e-11,2.309052418e-10,1.047651199e-09,6.744678928e-11,6.317690414e-11,1.767693354e-11,2.196807711e-10,1.837186232e-11,1.262117925e-10,2.929908898e-11,3.016282605e-11,3.927450195e-11,6.111217276e-11,7.903828976e-11,2.112748211e-11,1.388070729e-10,6.441699460e-11,9.492710522e-11,1.204989024e-09,4.219184936e-10,7.521664935e-10,7.719490307e-11,2.379813225e-10,2.363238687e-09,2.994224881e-11,5.229520014e-09,6.807054858e-09,5.266422010e-10
0.046875,3.781998058e-09,1.505356424e-09,9.670188825e-10,3.452574968e-10,9.749073990e-11,2.269601237e-10,1.030010635e-09,6.648663632e-11,6.257566551e-11,1.738299719e-11,2.159957801e-10,1.807569645e-11,1.247079190e-10,2.863697960e-11,2.994627093e-11,3.871267738e-11,6.059795049e-11,7.830513924e-11,2.076571849e-11,1.369464265e-10,6.335199847e-11,9.352000321e-11,1.191092061e-09,4.140360901e-10,7.393893860e-10,7.627723284e-11,2.339057641e-10,2.324508863e-09,2.982653871e-11,5.147322350e-09,6.739113694e-09,5.217474048e-10
0.054688,3.717243003e-09,1.480957624e-09,9.485752839e-10,3.390623945e-10,9.623797433e-11,2.224716629e-10,1.009844991e-09,6.535053051e-11,6.179633128e-11,1.704682859e-11,2.117843216e-10,1.773351352e-11,1.228733623e-10,2.790967235e-11,2.964487949e-11,3.804887749e-11,5.990956729e-11,7.734916090e-11,2.034867955e-11,1.347122424e-10,6.212360203e-11,9.187859787e-11,1.173981634e-09,4.051601055e-10,7.248023153e-10,7.514363615e-11,2.292760537e-10,2.280095689e-09,2.967064717e-11,5.052667405e-09,6.652150867e-09,5.153884021e-10
0.0625,3.643835570e-09,1.452996059e-09,9.279141418e-10,3.320745606e-10,9.471888554e-11,2.174687737e-10,9.873264169e-10,6.404710983e-11,6.084663801e-11,1.666899681e-11,2.070856517e-10,1.734905379e-11,1.207222628e-10,2.712377195e-11,2.925944026e-11,3.729598563e-11,5.905254433e-11,7.617847438e-11,1.988399510e-11,1.321396228e-10,6.075091765e-11,9.001509804e-11,1.153789846e-09,3.953924955e-10,7.085580571e-10,7.380692948e-11,2.241383035e-10,2.230418084e-09,2.947784835e-11,4.946452447e-09,6.547004108e-09,5.076184841e-10
0.070312,3.562519623e-09,1.421735524e-09,9.052376206e-10,3.243632343e-10,9.294770571e-11,2.120012356e-10,9.626708339e-10,6.259323101e-11,5.973708440e-11,1.625672815e-11,2.019538676e-10,1.692848726e-11,1.182738182e-10,2.628491415e-11,2.879651365e-11,3.646636955e-11,5.803771352e-11,7.480447893e-11,1.937648953e-11,1.292618361e-10,5.925040653e-11,8.794678102e-11,1.130684464e-09,3.848295588e-10,6.908128416e-10,7.228098762e-11,2.185493791e-10,2.175960332e-09,2.925794120e-11,4.829747255e-09,6.424772788e-09,4.985023606e-10
0.078125,3.473956294e-09,1.387420558e-09,8.807340100e-10,3.159922014e-10,9.094422870e-11,2.061175913e-10,9.360736372e-10,6.101016747e-11,5.847956985e-11,1.581618450e-11,1.964296326e-10,1.647622603e-11,1.155446618e-10,2.540194966e-11,2.826100453e-11,3.556549101e-11,5.687567411e-11,7.323942174e-11,1.883048789e-11,1.261101409e-10,5.763507062e-11,8.568892866e-11,1.104845242e-09,3.735542238e-10,6.717002372e-10,7.058103689e-11,2.125577763e-10,2.117149058e-09,2.901941251e-11,4.703503110e-09,6.286796718e-09,4.881192017e-10
0.085938,3.378849074e-09,1.350329595e-09,8.545894848e-10,3.070263907e-10,8.873040133e-11,1.998613943e-10,9.077311332e-10,5.931357408e-11,5.708766404e-11,1.534870962e-11,1.905518590e-10,1.599491113e-11,1.125582247e-10,2.448459633e-11,2.765489064e-11,3.459976299e-11,5.558085393e-11,7.150208594e-11,1.825209227e-11,1.227206560e-10,5.591846809e-11,8.325930969e-11,1.076499266e-09,3.616512237e-10,6.513674320e-10,6.872559420e-11,2.062100389e-10,2.054434057e-09,2.876673767e-11,4.568715932e-09,6.134624252e-09,4.765761435e-10
0.09375,3.278014737e-09,1.310790036e-09,8.270228391e-10,2.975434643e-10,8.632981743e-11,1.932846198e-10,8.778678201e-10,5.751653195e-11,5.557492926e-11,1.485661163e-11,1.843677873e-10,1.548787859e-11,1.093417575e-10,2.354257583e-11,2.698474221e-11,3.357832725e-11,5.416569359e-11,6.961065229e-11,1.764660259e-11,1.191212277e-10,5.411706795e-11,8.067826546e-11,1.045914281e-09,3.492206588e-10,6.299845949e-10,6.673787394e-11,1.995598541e-10,1.988350923e-09,2.850607084e-11,4.426529234e-09,5.969878373e-09,4.639940766e-10
0.10156,3.172099468e-09,1.269070155e-09,7.982025905e-10,2.876037828e-10,8.376980681e-11,1.864282811e-10,8.466761611e-10,5.563520078e-11,5.395718271e-11,1.434277108e-11,1.779131729e-10,1.495836364e-11,1.059191188e-10,2.258438956e-11,2.625817500e-11,3.250804866e-11,5.263833541e-11,6.757959791e-11,1.701853839e-11,1.153343411e-10,5.224650587e-11,7.796311774e-11,1.013352883e-09,3.363442859e-10,6.076855597e-10,6.464077062e-11,1.926474956e-10,1.919321110e-09,2.824067427e-11,4.277843163e-09,5.794263397e-09,4.504957012e-10
0.10938,3.061887826e-09,1.225496611e-09,7.683313250e-10,2.772783743e-10,8.107603005e-11,1.793362753e-10,8.143867999e-10,5.368520854e-11,5.225308988e-11,1.380970054e-11,1.712300663e-10,1.440900528e-11,1.023243550e-10,2.161571658e-11,2.548138093e-11,3.139640156e-11,5.101498632e-11,6.543108941e-11,1.637285672e-11,1.113943504e-10,5.031897203e-11,7.513635942e-11,9.790980694e-10,3.230996690e-10,5.846217280e-10,6.245075660e-11,1.855205495e-10,1.847814260e-09,2.797469126e-11,4.123703450e-09,5.609505345e-09,4.362108183e-10
0.11719,2.948253351e-09,1.180428185e-09,7.376533137e-10,2.666512638e-10,7.826923394e-11,1.720642412e-10,7.812481020e-10,5.168021955e-11,5.047821325e-11,1.326190552e-11,1.643717233e-10,1.384268772e-11,9.859368590e-11,2.064230749e-11,2.466155799e-11,3.025128097e-11,4.931454817e-11,6.318959210e-11,1.571394352e-11,1.073366110e-10,4.834659652e-11,7.222198967e-11,9.434218855e-10,3.095775310e-10,5.609642582e-10,6.018397377e-11,1.782330797e-10,1.774371305e-09,2.771568426e-11,3.965260449e-09,5.417201259e-09,4.212644475e-10
0.125,2.831870150e-09,1.134160081e-09,7.063443368e-10,2.557860623e-10,7.537177895e-11,1.646568516e-10,7.474511657e-10,4.963384239e-11,4.864547232e-11,1.270405522e-11,1.573828256e-10,1.326380893e-11,9.475368312e-11,1.966951469e-11,2.380523125e-11,2.907795515e-11,4.755046279e-11,6.087311406e-11,1.504551209e-11,1.031851026e-10,4.634216280e-11,6.923880110e-11,9.066041136e-10,2.958557233e-10,5.368515140e-10,5.785952482e-11,1.708206826e-10,1.699429109e-09,2.746528940e-11,3.803404846e-09,5.218909140e-09,4.057870135e-10
0.13281,2.713515848e-09,1.087021858e-09,6.745837029e-10,2.447504278e-10,7.240555354e-11,1.571571064e-10,7.132151389e-10,4.755812773e-11,4.676782190e-11,1.213959813e-11,1.503076143e-10,1.267770887e-11,9.083118144e-11,1.870055561e-11,2.291887282e-11,2.788374826e-11,4.573659964e-11,5.849867137e-11,1.437156587e-11,9.896146303e-11,4.431756615e-11,6.620708020e-11,8.689545463e-10,2.820138264e-10,5.124377821e-10,5.549193910e-11,1.633257559e-10,1.623474724e-09,2.722297069e-11,3.639203989e-09,5.016026292e-09,3.899062482e-10
0.14062,2.593901633e-09,1.039299649e-09,6.425566273e-10,2.336089717e-10,6.938743927e-11,1.496046429e-10,6.787382933e-10,4.546202730e-11,4.485698297e-11,1.157085676e-11,1.431797099e-10,1.208639290e-11,8.685184716e-11,1.773946404e-11,2.200984310e-11,2.667561234e-11,4.388527740e-11,5.608297524e-11,1.369517571e-11,9.468365686e-11,4.228113414e-11,6.314461315e-11,8.307136674e-10,2.681198237e-10,4.878580219e-10,5.309404819e-11,1.557899101e-10,1.546936732e-09,2.699125252e-11,3.473619313e-09,4.809734565e-09,3.737230733e-10
0.14844,2.473697714e-09,9.912823354e-10,6.104545710e-10,2.224259195e-10,6.633487850e-11,1.420411010e-10,6.442070570e-10,4.335329159e-11,4.292419100e-11,1.100006372e-11,1.360327091e-10,1.149062360e-11,8.284332929e-11,1.679119063e-11,2.108402839e-11,2.545656223e-11,4.200615056e-11,5.364026222e-11,1.301804945e-11,9.036535630e-11,4.023781007e-11,6.007061644e-11,7.921283784e-10,2.542309108e-10,4.632369741e-10,5.068048105e-11,1.482473871e-10,1.470209614e-09,2.677215088e-11,3.307498702e-09,4.601209932e-09,3.573451496e-10
0.15625,2.353728702e-09,9.433156877e-10,5.784986044e-10,2.112799678e-10,6.326440936e-11,1.345205635e-10,6.098615033e-10,4.124209405e-11,4.097916348e-11,1.043134965e-11,1.289188966e-10,1.089465162e-11,7.883384940e-11,1.585918851e-11,2.014570571e-11,2.423267564e-11,4.011014792e-11,5.118289454e-11,1.234281549e-11,8.602828641e-11,3.819638342e-11,5.700797294e-11,7.534622249e-10,2.404303939e-10,4.387364899e-10,4.826044140e-11,1.407461299e-10,1.393808535e-09,2.656799072e-11,3.141950770e-09,4.391443100e-09,3.408704520e-10
0.16406,2.234575454e-09,8.956288256e-10,5.468357651e-10,2.002244740e-10,6.018897465e-11,1.270779119e-10,5.758634012e-10,3.913913928e-11,3.903032183e-11,9.868141286e-12,1.218729852e-10,1.030189430e-11,7.484235942e-11,1.494618762e-11,1.920010889e-11,2.301143936e-11,3.820796587e-11,4.872390890e-11,1.167260122e-11,8.169497275e-11,3.616848836e-11,5.397064224e-11,7.148875761e-10,2.267869361e-10,4.144745353e-10,4.584170570e-11,1.333228453e-10,1.318096039e-09,2.638009268e-11,2.977779903e-09,4.181305525e-09,3.243688580e-10
0.17188,2.116833480e-09,8.484619164e-10,5.156185224e-10,1.893104108e-10,5.712140208e-11,1.197443440e-10,5.423649603e-10,3.705182577e-11,3.708652910e-11,9.313022028e-12,1.149248324e-10,9.714617412e-12,7.089026042e-11,1.405518299e-11,1.825386731e-11,2.179765815e-11,3.630911561e-11,4.627633157e-11,1.100973523e-11,7.738142738e-11,3.416308864e-11,5.097296402e-11,6.766050871e-10,2.133609532e-10,3.905697036e-10,4.343569028e-11,1.260105872e-10,1.243425605e-09,2.620825587e-11,2.815765592e-09,3.971734521e-09,3.079268196e-10
0.17969,2.001148884e-09,8.020700178e-10,4.850158753e-10,1.785964870e-10,5.407274320e-11,1.125609507e-10,5.095504152e-10,3.498807410e-11,3.515492711e-11,8.769806449e-12,1.081157531e-10,9.137273860e-12,6.699599666e-11,1.318826394e-11,1.731217882e-11,2.059731850e-11,3.442136230e-11,4.384716298e-11,1.035729830e-11,7.310792231e-11,3.218883372e-11,4.803030365e-11,6.388082727e-10,2.002257903e-10,3.671516995e-10,4.105067770e-11,1.188485503e-10,1.170211217e-09,2.605291370e-11,2.656800776e-09,3.763515242e-09,2.916150735e-10
0.1875,1.887888440e-09,7.566014105e-10,4.551107592e-10,1.681173583e-10,5.105376701e-11,1.055486955e-10,4.775161463e-10,3.295716859e-11,3.324292170e-11,8.239715395e-12,1.014644602e-10,8.572208073e-12,6.316960562e-11,1.234707145e-11,1.637860446e-11,1.941629626e-11,3.255278203e-11,4.144446222e-11,9.719054167e-12,6.889474291e-11,3.025319074e-11,4.515004926e-11,6.016204679e-10,1.874200793e-10,3.442904947e-10,3.869390385e-11,1.118586979e-10,1.098680944e-09,2.591393382e-11,2.501407448e-09,3.557481364e-09,2.754867412e-10
0.19531,1.777592072e-09,7.122771583e-10,4.260449361e-10,1.579220323e-10,4.807711050e-11,9.873556181e-11,4.463951033e-10,3.096610067e-11,3.135906461e-11,7.722952137e-12,9.499359529e-11,8.020257244e-12,5.942868308e-11,1.153524516e-11,1.545703336e-11,1.825977074e-11,3.071319238e-11,3.908182174e-11,9.097941218e-12,6.475815602e-11,2.836220863e-11,4.234542746e-11,5.652179770e-10,1.749852468e-10,3.220877600e-10,3.637576426e-11,1.050729669e-10,1.029145624e-09,2.579285793e-11,2.350301225e-09,3.354522910e-09,2.596176063e-10
0.20312,1.670721000e-09,6.692707361e-10,3.979614078e-10,1.480543644e-10,4.515473728e-11,9.215534715e-11,4.163237014e-10,2.902285996e-11,2.951010570e-11,7.222885088e-12,8.873505596e-11,7.484437454e-12,5.578674463e-11,1.075658497e-11,1.455169881e-11,1.713239678e-11,2.890970382e-11,3.676796104e-11,8.495947345e-12,6.071721004e-11,2.652358020e-11,3.962863614e-11,5.297255141e-10,1.629765524e-10,3.006330263e-10,3.410518522e-11,9.852303061e-11,9.618944406e-10,2.569144305e-11,2.204101398e-09,3.155340084e-09,2.440624256e-10
0.21094,1.567449485e-09,6.276537589e-10,3.708927372e-10,1.385298898e-10,4.229883327e-11,8.581918990e-11,3.873499955e-10,2.713680365e-11,2.770395586e-11,6.741946289e-12,8.270135408e-11,6.967271579e-12,5.225235695e-11,1.001230874e-11,1.366667610e-11,1.603678268e-11,2.714780944e-11,3.451017562e-11,7.915099028e-12,5.678822015e-11,2.474478271e-11,3.700342323e-11,4.952228939e-10,1.514252414e-10,2.799602112e-10,3.188975003e-11,9.221806814e-11,8.970405968e-10,2.560739114e-11,2.063026901e-09,2.960750195e-09,2.288709029e-10
0.21875,1.468156848e-09,5.875868264e-10,3.449177115e-10,1.293810185e-10,3.951988959e-11,7.974456125e-11,3.595700639e-10,2.531428357e-11,2.594863081e-11,6.280845156e-12,7.691348194e-11,6.470493598e-12,4.884031706e-11,9.303329598e-12,1.280488217e-11,1.497859556e-11,2.543372603e-11,3.231817827e-11,7.358267788e-12,5.298567943e-11,2.303348878e-11,3.447865569e-11,4.618537157e-10,1.403746433e-10,2.601502071e-10,2.973831892e-11,8.617986505e-11,8.348328632e-10,2.553875476e-11,1.927606103e-09,2.771544733e-09,2.141074232e-10
0.22656,1.373039571e-09,5.491498284e-10,3.201007392e-10,1.206269679e-10,3.682724058e-11,7.394573375e-11,3.330410197e-10,2.356027489e-11,2.424914253e-11,5.840740153e-12,7.138785654e-11,5.995404835e-12,4.555664636e-11,8.630747200e-12,1.196966376e-11,1.396350898e-11,2.377358362e-11,3.019822867e-11,6.827181151e-12,4.932479381e-11,2.139524832e-11,3.205995638e-11,4.296972044e-10,1.298480399e-10,2.412404446e-10,2.766010706e-11,8.042322436e-11,7.754052548e-10,2.548582151e-11,1.798139042e-09,2.588318465e-09,1.998116688e-10
0.23438,1.282131003e-09,5.123699595e-10,2.964466852e-10,1.122713211e-10,3.423178699e-11,6.842314125e-11,3.077583649e-10,2.187971245e-11,2.261115247e-11,5.421767294e-12,6.611951271e-11,5.542209438e-12,4.240592256e-11,7.994838077e-12,1.116579105e-11,1.299140210e-11,2.217451971e-11,2.815701148e-11,6.322002576e-12,4.581332006e-11,1.983067250e-11,2.974852669e-11,3.988195664e-10,1.198366505e-10,2.232261724e-10,2.566267403e-11,7.494750364e-11,7.187493004e-10,2.544830926e-11,1.674636383e-09,2.411753773e-09,1.860295443e-10
0.24219,1.195642376e-09,4.773372776e-10,2.740008587e-10,1.043322954e-10,3.174020787e-11,6.318707652e-11,2.837736117e-10,2.027607415e-11,2.104007539e-11,5.024055456e-12,6.111470073e-11,5.111781246e-12,3.939800209e-11,7.396555989e-12,1.039565142e-11,1.206361356e-11,2.064202077e-11,2.620182360e-11,5.843785373e-12,4.245887077e-11,1.834253303e-11,2.754978747e-11,3.693111879e-10,1.103594850e-10,2.061502539e-10,2.375062814e-11,6.976409956e-11,6.649854576e-10,2.542389475e-11,1.557361662e-09,2.242352907e-09,1.728040797e-10
0.25,1.113569920e-09,4.440537821e-10,2.527703622e-10,9.680969713e-11,2.935766767e-11,5.823926095e-11,2.610922546e-10,1.875161493e-11,1.953953966e-11,4.648027880e-12,5.637797330e-11,4.704553281e-12,3.653548948e-11,6.836343803e-12,9.660677778e-12,1.118248922e-11,1.917932700e-11,2.433757550e-11,5.392956186e-12,3.927092000e-11,1.693391785e-11,2.546548201e-11,3.411958977e-10,1.014208081e-10,1.900075643e-10,2.192814601e-11,6.487103826e-11,6.141168203e-10,2.540828157e-11,1.446300751e-09,2.080453594e-09,1.601546994e-10
0.25781,1.035895273e-09,4.125324567e-10,2.327399592e-10,8.970151930e-11,2.709216194e-11,5.357441345e-11,2.397005549e-10,1.730758605e-11,1.811288015e-11,4.293178185e-12,5.190587250e-11,4.320255392e-12,3.382251865e-11,6.313258550e-12,8.962828610e-12,1.034683596e-11,1.778847299e-11,2.256744203e-11,4.968509574e-12,3.624930645e-11,1.560273288e-11,2.349654995e-11,3.145238127e-10,9.300587842e-11,1.747842388e-10,2.019931893e-11,6.026083234e-11,5.661194789e-10,2.539935343e-11,1.341389061e-09,1.926440804e-09,1.481160806e-10
0.26562,9.626375791e-10,3.827865446e-10,2.139052404e-10,8.300916529e-11,2.494683864e-11,4.919194547e-11,2.196067786e-10,1.594464496e-11,1.676095422e-11,3.959573501e-12,4.770046146e-11,3.959361438e-12,3.126154413e-11,5.826669125e-12,8.301240676e-12,9.557008435e-12,1.646853493e-11,2.089006864e-11,4.570421113e-12,3.339201584e-11,1.434879201e-11,2.164290554e-11,2.893186762e-10,8.511897342e-11,1.604930242e-10,1.856579861e-11,5.593468890e-11,5.210153585e-10,2.539547176e-11,1.242656303e-09,1.780417224e-09,1.367025274e-10
0.27344,8.936192111e-10,3.547488521e-10,1.962305042e-10,7.671664925e-11,2.292167626e-11,4.508372172e-11,2.007683436e-10,1.466225507e-11,1.548342955e-11,3.647597609e-12,4.375634010e-11,3.621400672e-12,2.884867399e-11,5.375405229e-12,7.676126530e-12,8.814003665e-12,1.522058027e-11,1.930516882e-11,4.198403189e-12,3.070094717e-11,1.317325553e-11,1.990019992e-11,2.655471446e-10,7.774615171e-11,1.470986755e-10,1.702840039e-11,5.188100250e-11,4.786905825e-10,2.539138753e-11,1.149850630e-09,1.642390216e-09,1.259082919e-10
0.28125,8.288331659e-10,3.284300156e-10,1.797166916e-10,7.082350090e-11,2.101756760e-11,4.124793203e-11,1.831740747e-10,1.345845110e-11,1.428049978e-11,3.356947911e-12,4.006955051e-11,3.305830197e-12,2.658580612e-11,4.957773511e-12,7.089809091e-12,8.116722414e-12,1.404704869e-11,1.781537922e-11,3.851126100e-12,2.817500799e-11,1.207325185e-11,1.826911764e-11,2.432404412e-10,7.087128027e-11,1.345871976e-10,1.558715238e-11,4.809295864e-11,4.391154434e-10,2.538257948e-11,1.062914566e-09,1.512408147e-09,1.157478745e-10
0.28906,7.681949838e-10,3.037948236e-10,1.643397875e-10,6.532115839e-11,1.923253727e-11,3.767920795e-11,1.668035351e-10,1.233165322e-11,1.315078911e-11,3.087230510e-12,3.663524893e-11,3.012845116e-12,2.447037747e-11,4.572589656e-12,6.541567292e-12,7.463934732e-12,1.294555937e-11,1.641856281e-11,3.527782119e-12,2.581033451e-11,1.104576543e-11,1.674810371e-11,2.223816458e-10,6.448371543e-11,1.229422263e-10,1.423996427e-11,4.456265870e-11,4.022371181e-10,2.536453219e-11,9.817279524e-10,1.390289158e-09,1.062126267e-10
0.29688,7.114186303e-10,2.807315937e-10,1.500240082e-10,6.018073899e-11,1.756362675e-11,3.435913131e-11,1.515806836e-10,1.127972834e-11,1.209239735e-11,2.837892094e-12,3.343859630e-11,2.741696298e-12,2.249442318e-11,4.217897095e-12,6.030176785e-12,6.853871563e-12,1.191430836e-11,1.511187402e-11,3.227477666e-12,2.360023312e-11,1.008855610e-11,1.533039946e-11,2.029027962e-10,5.855188334e-11,1.121030966e-10,1.298337392e-11,4.126887455e-11,3.678670005e-10,2.533111573e-11,9.058815983e-10,1.275855156e-09,9.728101869e-11
0.30469,6.584519622e-10,2.592264150e-10,1.367503085e-10,5.539619851e-11,1.600746438e-11,3.128216055e-11,1.374850268e-10,1.029949815e-11,1.110304262e-11,2.608477520e-12,3.047485243e-11,2.492157676e-12,2.065557096e-11,3.891749401e-12,5.555249637e-12,6.285779346e-12,1.095294242e-11,1.389309082e-11,2.949239861e-12,2.153879836e-11,9.198981046e-12,1.401368361e-11,1.847863382e-10,5.306067579e-11,1.020545212e-10,1.181262219e-11,3.820581403e-11,3.359627607e-10,2.527953809e-11,8.352750534e-10,1.168923147e-09,8.894300678e-11
0.3125,6.091639415e-10,2.392244629e-10,1.244814512e-10,5.095597981e-11,1.455948409e-11,2.844100046e-11,1.244812679e-10,9.388616974e-12,1.018001006e-11,2.398417856e-12,2.773846513e-11,2.264172146e-12,1.894816153e-11,3.593166524e-12,5.115645648e-12,5.759832077e-12,1.005818609e-11,1.275724654e-11,2.692381342e-12,1.962414869e-11,8.374861055e-12,1.279343345e-11,1.679750834e-10,4.800089535e-11,9.277603053e-11,1.072403209e-11,3.536728771e-11,3.064560462e-10,2.520688064e-11,7.697368565e-10,1.069167147e-09,8.117341372e-11
0.32031,5.632953379e-10,2.206271558e-10,1.131511760e-10,4.683563032e-11,1.321576849e-11,2.581898931e-11,1.124939388e-10,8.544369160e-12,9.321678876e-12,2.206667529e-12,2.521472006e-11,2.056327158e-12,1.736540902e-11,3.320412861e-12,4.711095526e-12,5.274313101e-12,9.227900832e-12,1.170209978e-11,2.455831276e-12,1.785045110e-11,7.613291080e-12,1.166385685e-11,1.524077708e-10,4.334399913e-11,8.421256753e-11,9.715441133e-12,3.273488629e-11,2.791769488e-10,2.510742139e-11,7.088981601e-10,9.763395221e-10,7.395332594e-11
0.32812,5.207272928e-10,2.033872687e-10,1.027323623e-10,4.302449657e-11,1.197051987e-11,2.340857126e-11,1.014836281e-10,7.763325657e-12,8.525252096e-12,2.032408613e-12,2.289487320e-11,1.867682113e-12,1.590310088e-11,3.071657093e-12,4.340404674e-12,4.826937785e-12,8.460535992e-12,1.072605905e-11,2.238552644e-12,1.620889072e-11,6.911049024e-12,1.062267775e-11,1.380441805e-10,3.907045649e-11,7.633412128e-11,8.782693665e-12,3.029941110e-11,2.540403554e-10,2.497838699e-11,6.525884127e-10,8.901318405e-10,6.726272901e-11
0.33594,4.812638674e-10,1.874206249e-10,9.317112063e-11,3.950515755e-11,1.081814428e-11,2.119828946e-11,9.139266225e-11,7.042627765e-12,7.787081075e-12,1.874828798e-12,2.076695931e-11,1.697547985e-12,1.455421815e-11,2.846173840e-12,4.001566148e-12,4.415441256e-12,7.752585470e-12,9.824785997e-12,2.039443801e-12,1.469327247e-11,6.265074425e-12,9.664723068e-12,1.248034352e-10,3.516044092e-11,6.910246181e-11,7.921396325e-12,2.805044020e-11,2.309272331e-10,2.481871186e-11,6.005543233e-10,8.101813685e-10,6.106641844e-11
0.34375,4.447322594e-10,1.726626898e-10,8.441480913e-11,3.626072278e-11,9.755480908e-12,1.917499029e-11,8.216663385e-11,6.378813358e-12,7.104900578e-12,1.733065870e-12,1.881931245e-11,1.544882753e-12,1.331428968e-11,2.642816996e-12,3.693959995e-12,4.038087483e-12,7.101391725e-12,8.995022581e-12,1.857275748e-12,1.329776543e-11,5.672174126e-12,8.785576042e-12,1.126369384e-10,3.159196419e-11,6.248076766e-11,7.128365400e-12,2.597624389e-11,2.097224116e-10,2.462607213e-11,5.525421292e-10,7.362572213e-10,5.534700251e-11
0.35156,4.109931177e-10,1.590566703e-10,7.642843830e-11,3.327889724e-11,8.777199823e-12,1.733055483e-11,7.376431832e-11,5.768328137e-12,6.475776537e-12,1.606106925e-12,1.704425065e-11,1.408898374e-12,1.217761564e-11,2.459953086e-12,3.415799865e-12,3.694022283e-12,6.503969535e-12,8.232522492e-12,1.691202471e-12,1.201734357e-11,5.129477485e-12,7.981317100e-12,1.014921267e-10,2.834841615e-11,5.643874093e-11,6.399359320e-12,2.406884244e-11,1.903349951e-10,2.439890987e-11,5.083541612e-10,6.680393908e-10,5.008163837e-11
0.35938,3.797828991e-10,1.464922832e-10,6.914136609e-11,3.053634613e-11,7.878257889e-12,1.564978109e-11,6.610902636e-11,5.208601416e-12,5.896298487e-12,1.492389607e-12,1.542642897e-11,1.288319906e-12,1.113448871e-11,2.296661400e-12,3.164572324e-12,3.380755445e-12,5.956080960e-12,7.531997534e-12,1.540091460e-12,1.084567270e-11,4.633470880e-12,7.244522230e-12,9.127550144e-11,2.540241349e-11,5.092366306e-11,5.730932804e-12,2.231378465e-11,1.725988396e-10,2.413668456e-11,4.676425854e-10,6.051725507e-10,4.523490028e-11
0.36719,3.509661220e-10,1.349149078e-10,6.250741197e-11,2.801903570e-11,7.055851250e-12,1.412107575e-11,5.915612457e-11,4.696762824e-12,5.363837762e-12,1.391284958e-12,1.395642327e-11,1.182350249e-12,1.017990783e-11,2.152120919e-12,2.939001518e-12,3.096226565e-12,5.454616175e-12,6.890060131e-12,1.402834299e-12,9.774336134e-12,4.181088556e-12,6.571367947e-12,8.194539255e-11,2.273498912e-11,4.590731392e-11,5.120861352e-12,2.070135296e-11,1.564232638e-10,2.384027951e-11,4.302142119e-10,5.474018791e-10,4.078947532e-11
0.375,3.244235711e-10,1.242723631e-10,5.649182063e-11,2.571475940e-11,6.305179145e-12,1.273630993e-11,5.287110356e-11,4.229785668e-12,4.875534528e-12,1.302762004e-12,1.262795669e-11,1.090683984e-12,9.308645909e-12,2.025124074e-12,2.737592690e-12,2.839771059e-12,4.997314339e-12,6.303057392e-12,1.278659626e-12,8.797959692e-12,3.770236071e-12,5.958863597e-12,7.345779892e-11,2.033245468e-11,4.136343111e-11,4.565545457e-12,1.922291924e-11,1.417312593e-10,2.351087844e-11,3.958997540e-10,4.944198654e-10,3.672280847e-11
0.38281,2.998988274e-10,1.144616620e-10,5.102841753e-11,2.360011577e-11,5.621478820e-12,1.148060360e-11,4.718085578e-11,3.804814471e-12,4.428641447e-12,1.225585516e-12,1.142494155e-11,1.011863888e-12,8.513142141e-12,1.914724841e-12,2.558414314e-12,2.608514724e-12,4.580943890e-12,5.766986831e-12,1.166219585e-12,7.910521218e-12,3.397552872e-12,5.400890208e-12,6.573507538e-11,1.816613162e-11,3.723648764e-11,4.061231747e-12,1.786126732e-11,1.283515710e-10,2.314691038e-11,3.643472926e-10,4.459259335e-10,3.300577189e-11
0.39062,2.772487601e-10,1.054252841e-10,4.607845124e-11,2.166160462e-11,5.001423071e-12,1.034455729e-11,4.204398680e-11,3.418638793e-12,4.020226974e-12,1.158585727e-12,1.033812393e-11,9.447381793e-13,7.788964174e-12,1.820127048e-12,2.399283154e-12,2.399964277e-12,4.201422901e-12,5.278143026e-12,1.064534970e-12,7.104446380e-12,3.060396619e-12,4.893896280e-12,5.872900826e-11,1.621829657e-11,3.349698845e-11,3.604980896e-12,1.660676394e-11,1.161853258e-10,2.274705443e-11,3.353601199e-10,4.016379893e-10,2.961914066e-11
0.39844,2.563638564e-10,9.711368886e-11,4.161088662e-11,1.988787132e-11,4.440922304e-12,9.321261013e-12,3.742969817e-11,3.068571457e-12,3.647205316e-12,1.101292748e-12,9.362560032e-12,8.889013157e-13,7.130734735e-12,1.740014217e-12,2.258706266e-12,2.213840581e-12,3.856844211e-12,4.833300599e-12,9.733201924e-13,6.376400169e-12,2.757488452e-12,4.434456728e-12,5.238921369e-11,1.447776840e-11,3.012360347e-11,3.193624662e-12,1.545387827e-11,1.051657051e-10,2.231377147e-11,3.087901704e-10,3.612453713e-10,2.653861668e-11
0.40625,2.370803343e-10,8.946250523e-11,3.757535952e-11,1.826242319e-11,3.935984210e-12,8.398677789e-12,3.328371969e-11,2.752469164e-12,3.307594190e-12,1.053079346e-12,8.486696509e-12,8.434177115e-13,6.532745984e-12,1.672898142e-12,2.136507093e-12,2.048674806e-12,3.546809912e-12,4.430784572e-12,8.915677235e-13,5.722224947e-12,2.485833879e-12,4.017678078e-12,4.666192124e-11,1.292180413e-11,2.707831316e-11,2.823876122e-12,1.439231027e-11,9.518200145e-11,2.185026938e-11,2.843986253e-10,3.245113423e-10,2.374263875e-11
0.41406,2.192785451e-10,8.242376873e-11,3.393442336e-11,1.677403947e-11,3.482175718e-12,7.567519540e-12,2.956566316e-11,2.467779088e-12,2.999215610e-12,1.013445348e-12,7.701944611e-12,8.075090581e-13,5.990986047e-12,1.617834500e-12,2.031122572e-12,1.902556369e-12,3.268137301e-12,4.067604330e-12,8.183110849e-13,5.134329403e-12,2.242530224e-12,3.640409148e-12,4.150375829e-11,1.153295566e-11,2.433279942e-11,2.492376707e-12,1.341419902e-11,8.614630482e-11,2.135776695e-11,2.620108431e-10,2.911742695e-10,2.121270657e-11
0.42188,2.028168867e-10,7.593553832e-11,3.065256085e-11,1.540976094e-11,3.074740649e-12,6.820024344e-12,2.623769954e-11,2.211798715e-12,2.719279084e-12,9.817452376e-13,7.001307537e-12,7.805269485e-13,5.500226412e-12,1.574096775e-12,1.940184570e-12,1.774276991e-12,3.017337702e-12,3.739492355e-12,7.532129834e-13,4.607070594e-12,2.025870041e-12,3.299305716e-12,3.685938878e-11,1.029700899e-11,2.185844575e-11,2.195809261e-12,1.251127547e-11,7.796487579e-11,2.083669864e-11,2.414379184e-10,2.609317491e-10,1.892324555e-11
0.42969,1.875880441e-10,6.995516634e-11,2.770001176e-11,1.415815049e-11,2.710232640e-12,6.148961973e-12,2.326590030e-11,1.981987111e-12,2.465757286e-12,9.573259107e-13,6.377052648e-12,7.616334175e-13,5.056656435e-12,1.540816637e-12,1.863299522e-12,1.662320595e-12,2.793341415e-12,3.444233929e-12,6.953774095e-13,4.135328896e-12,1.833063139e-12,2.991081262e-12,3.268986158e-11,9.198662399e-12,1.963119926e-11,1.931068582e-12,1.167625045e-11,7.056321290e-11,2.028845051e-11,2.225242274e-10,2.335762994e-10,1.685701694e-11
0.4375,1.735220235e-10,6.445476160e-11,2.505228941e-11,1.301180566e-11,2.384938050e-12,5.548204785e-12,2.062210808e-11,1.775981605e-12,2.236698738e-12,9.399343383e-13,5.823063735e-12,7.501888293e-13,4.656876508e-12,1.517201145e-12,1.800082585e-12,1.565444891e-12,2.594100492e-12,3.179565945e-12,6.437770684e-13,3.713451609e-12,1.661581680e-12,2.713137330e-12,2.895950709e-11,8.226665312e-12,1.763361331e-11,1.695039659e-12,1.090442888e-11,6.388800882e-11,1.971499993e-11,2.051620158e-10,2.088880609e-10,1.499867688e-11
0.44531,1.604796233e-10,5.937653206e-11,2.267121953e-11,1.195843550e-11,2.094838017e-12,5.009217335e-12,1.826441861e-11,1.591695439e-12,2.029887451e-12,9.288059576e-13,5.331232916e-12,7.452841299e-13,4.295534725e-12,1.502250802e-12,1.748687006e-12,1.482319253e-12,2.416933715e-12,2.942414735e-12,5.979976577e-13,3.337256572e-12,1.509968481e-12,2.462301200e-12,2.561560735e-11,7.366452358e-12,1.583538873e-11,1.485065306e-12,1.018691719e-11,5.784484990e-11,1.911812674e-11,1.891602808e-10,1.866103770e-10,1.332594466e-11
0.45312,1.483813451e-10,5.468736412e-11,2.053287099e-11,1.098988170e-11,1.836935415e-12,4.526026644e-12,1.616687596e-11,1.427150098e-12,1.843503462e-12,9.231408435e-13,4.896031485e-12,7.461925862e-13,3.969657419e-12,1.494782375e-12,1.707569937e-12,1.411478112e-12,2.260470206e-12,2.730918374e-12,5.575947504e-13,3.002333031e-12,1.376294625e-12,2.236695813e-12,2.262831673e-11,6.606200008e-12,1.421674696e-11,1.298980402e-12,9.518028591e-12,5.237437682e-11,1.850115753e-11,1.744057658e-10,1.665516255e-10,1.182420437e-11
0.46094,1.371945071e-10,5.037168349e-11,1.862192779e-11,1.010233534e-11,1.608295813e-12,4.094768556e-12,1.431429272e-11,1.280477337e-12,1.675869968e-12,9.228031376e-13,4.513991183e-12,7.527265228e-13,3.677007092e-12,1.494077752e-12,1.675930167e-12,1.352073770e-12,2.122781582e-12,2.542883372e-12,5.220195512e-13,2.704426934e-12,1.258733869e-12,2.034549656e-12,1.997317756e-11,5.938739071e-12,1.276860752e-11,1.134562661e-12,8.896614357e-12,4.744896993e-11,1.786852329e-11,1.608481369e-10,1.485257316e-10,1.048082800e-11
0.46875,1.268103894e-10,4.638572926e-11,1.690780933e-11,9.286594035e-12,1.405910447e-12,3.708724477e-12,1.267268444e-11,1.149918000e-12,1.525419435e-12,9.272854254e-13,4.177540237e-12,7.641869340e-13,3.413244414e-12,1.499581409e-12,1.652857964e-12,1.302813739e-12,2.001652205e-12,2.375583142e-12,4.908419358e-13,2.440661739e-12,1.155932084e-12,1.852516946e-12,1.760845106e-11,5.351815254e-12,1.146822684e-11,9.895021518e-13,8.316624611e-12,4.299611487e-11,1.722274225e-11,1.483336101e-10,1.323403661e-10,9.278639839e-12
0.47656,1.171619710e-10,4.270201333e-11,1.537119830e-11,8.536433159e-12,1.226970791e-12,3.363399972e-12,1.121796427e-11,1.033730872e-12,1.390645401e-12,9.358622806e-13,3.881417982e-12,7.795925568e-13,3.175445437e-12,1.510356438e-12,1.637267156e-12,1.262379561e-12,1.895815545e-12,2.227193589e-12,4.636306726e-13,2.207820202e-12,1.066625716e-12,1.688514712e-12,1.550402558e-11,4.836502069e-12,1.029923348e-11,8.614987823e-13,7.773652064e-12,3.896381361e-11,1.656626932e-11,1.367624491e-10,1.178309203e-10,8.204153823e-12
0.48438,1.082223467e-10,3.930698623e-11,1.400173626e-11,7.849162624e-12,1.068954878e-12,3.056341299e-12,9.939068052e-12,9.304384201e-13,1.269976485e-12,9.482760057e-13,3.623624279e-12,7.983729244e-13,2.961718943e-12,1.525409827e-12,1.628414326e-12,1.230372610e-12,1.803850521e-12,2.095962671e-12,4.401775204e-13,2.002544155e-12,9.898200832e-13,1.541510163e-12,1.363752869e-11,4.388371012e-12,9.254603371e-12,7.486951193e-13,7.267359494e-12,3.532989346e-11,1.590314582e-11,1.260995774e-10,1.048352814e-10,7.245786070e-12
0.49219,9.992137629e-11,3.617223414e-11,1.278053560e-11,7.218520328e-12,9.300843106e-13,2.783163194e-12,8.815418078e-12,8.388393329e-13,1.162154876e-12,9.642996148e-13,3.399675293e-12,8.200305086e-13,2.769534704e-12,1.544129204e-12,1.625706618e-12,1.205862938e-12,1.724133652e-12,1.980243845e-12,4.203228428e-13,1.821982965e-12,9.241461409e-13,1.409768585e-12,1.198456431e-11,3.998405778e-12,8.319465800e-12,6.497950818e-13,6.794582068e-12,3.205069172e-11,1.523675162e-11,1.162539555e-10,9.321401688e-11,6.392735747e-12
0.5,9.221488021e-11,3.327792100e-11,1.169186645e-11,6.639287252e-12,8.084622991e-13,2.540265812e-12,7.828102272e-12,7.577312535e-13,1.065927207e-12,9.836256627e-13,3.205315978e-12,8.440658543e-13,2.596669193e-12,1.566173363e-12,1.628022508e-12,1.187622826e-12,1.655472511e-12,1.878767398e-12,4.036619856e-13,1.663249735e-12,8.681209639e-13,1.291679776e-12,1.052376166e-11,3.658792757e-12,7.481357469e-12,5.634893805e-13,6.352645062e-12,2.908961799e-11,1.457074996e-11,1.071604662e-10,8.283480449e-11,5.635067357e-12
0.50781,8.506531412e-11,3.060589159e-11,1.072098560e-11,6.107491508e-12,7.019724662e-13,2.324707944e-12,6.963735475e-12,6.859916393e-13,9.798520342e-13,1.005776926e-12,3.037836953e-12,8.699814646e-13,2.440728666e-12,1.590808989e-12,1.634190166e-12,1.175278526e-12,1.596882942e-12,1.789974469e-12,3.898838858e-13,1.524254686e-12,8.210821401e-13,1.185819850e-12,9.231940205e-12,3.365148904e-12,6.731787617e-12,4.884255650e-13,5.939930086e-12,2.641739771e-11,1.390907690e-11,9.876635802e-11,7.355359647e-11,4.961396242e-12
0.51562,7.842108538e-11,2.813581130e-11,9.854873192e-12,5.618876338e-12,6.091070309e-13,2.133368395e-12,6.209488361e-12,6.227051490e-13,9.029278966e-13,1.030061352e-12,2.894467755e-12,8.972132016e-13,2.299842214e-12,1.616864560e-12,1.643573762e-12,1.168186171e-12,1.547532042e-12,1.712563611e-12,3.786436927e-13,1.403408017e-12,7.823580460e-13,1.091019801e-12,8.092031761e-12,3.112268192e-12,6.061151898e-12,4.232234650e-13,5.553641642e-12,2.400299822e-11,1.325321824e-11,9.100442806e-11,6.526678215e-11,4.363574740e-12
0.52344,7.225863792e-11,2.585730890e-11,9.086384922e-12,5.170901781e-12,5.284109511e-13,1.964130724e-12,5.553868782e-12,5.670138648e-13,8.343677401e-13,1.056091832e-12,2.772539631e-12,9.253734253e-13,2.172726635e-12,1.643513332e-12,1.655648834e-12,1.165414907e-12,1.506565094e-12,1.645521650e-12,3.694920266e-13,1.298443292e-12,7.509371719e-13,1.006356975e-12,7.091046191e-12,2.895339833e-12,5.462814126e-12,3.665516022e-13,5.192688426e-12,2.182628831e-11,1.260459720e-11,8.384218709e-11,5.788554552e-11,3.834961329e-12
0.53125,6.653594709e-11,2.375167660e-11,8.403175448e-12,4.759686810e-12,4.584768119e-13,1.814440049e-12,4.982795569e-12,5.180458036e-13,7.732591577e-13,1.083629272e-12,2.668796539e-12,9.541817185e-13,2.057453769e-12,1.670447678e-12,1.670184122e-12,1.166695759e-12,1.473115803e-12,1.587739040e-12,3.624069023e-13,1.207455676e-12,7.261900200e-13,9.305339580e-13,6.209245274e-12,2.709509806e-12,4.927774943e-12,3.176847904e-13,4.855648815e-12,1.985751254e-11,1.196687813e-11,7.722232373e-11,5.129883800e-11,3.366287722e-12
0.53906,6.121697317e-11,2.180324398e-11,7.795141202e-12,4.381646974e-12,3.982688476e-13,1.682046114e-12,4.486220295e-12,4.750463645e-13,7.189444204e-13,1.112391225e-12,2.580917261e-12,9.833502051e-13,1.952966679e-12,1.697607790e-12,1.687291747e-12,1.171704565e-12,1.446502938e-12,1.538367356e-12,3.573278915e-13,1.129248177e-12,7.074654360e-13,8.627671878e-13,5.433151720e-12,2.550716443e-12,4.447502415e-12,2.760167020e-13,4.540414842e-12,1.807202826e-11,1.134339506e-11,7.109448615e-11,4.542097898e-11,2.951238325e-12
0.54688,5.730811091e-11,2.042469017e-11,7.388065651e-12,4.146815115e-12,3.344424298e-13,1.575640544e-12,3.956203187e-12,4.366807804e-13,6.720349807e-13,1.132203822e-12,2.452532735e-12,1.008026313e-12,1.833881796e-12,1.725130433e-12,1.712177621e-12,1.177399128e-12,1.428928504e-12,1.492428590e-12,3.538942721e-13,1.052239782e-12,6.915207250e-13,8.001768191e-13,4.696352682e-12,2.392102915e-12,4.049662964e-12,2.358487490e-13,4.332781872e-12,1.671478266e-11,1.078342901e-11,6.653019716e-11,4.027348327e-11,2.577055057e-12
0.55469,5.303632077e-11,1.887013509e-11,6.990398256e-12,3.866591985e-12,2.953417631e-13,1.488649576e-12,3.611785398e-12,4.052603522e-13,6.288909830e-13,1.162332937e-12,2.397627841e-12,1.038273988e-12,1.745448930e-12,1.747004586e-12,1.730905636e-12,1.191134690e-12,1.413261024e-12,1.457068054e-12,3.519884687e-13,9.844008546e-13,6.823559425e-13,7.472640802e-13,4.111468117e-12,2.297862924e-12,3.704714192e-12,2.105491292e-13,4.097542434e-12,1.541424986e-11,1.021591661e-11,6.171430289e-11,3.553835130e-11,2.256792751e-12
0.5625,4.838078934e-11,1.715060530e-11,6.486263084e-12,3.531111471e-12,2.661390067e-13,1.387115926e-12,3.288472403e-12,3.798351022e-13,5.926236572e-13,1.194495651e-12,2.350779749e-12,1.066853150e-12,1.678485078e-12,1.767889755e-12,1.754453188e-12,1.205126531e-12,1.406891492e-12,1.433819750e-12,3.511625390e-13,9.346971419e-13,6.780036629e-13,6.989335523e-13,3.604075906e-12,2.199840514e-12,3.332266312e-12,1.903306133e-13,3.813008071e-12,1.395410973e-11,9.634126445e-12,5.643380146e-11,3.127420164e-11,1.966996901e-12
0.57031,4.431125069e-11,1.567175080e-11,6.096527781e-12,3.248941571e-12,2.362451628e-13,1.309027846e-12,3.034713918e-12,3.589235621e-13,5.608393039e-13,1.228091156e-12,2.322906764e-12,1.096370106e-12,1.611587989e-12,1.786135980e-12,1.777018488e-12,1.222842318e-12,1.402856532e-12,1.412300073e-12,3.516028080e-13,8.980097244e-13,6.781773895e-13,6.563319195e-13,3.157022451e-12,2.133125570e-12,3.025349218e-12,1.699010742e-13,3.566677328e-12,1.273540063e-11,9.077289303e-12,5.183786116e-11,2.756163574e-11,1.714656944e-12
0.57812,4.063795082e-11,1.435044710e-11,5.797072302e-12,3.001671549e-12,2.083152650e-13,1.252053058e-12,2.857015238e-12,3.428975240e-13,5.327776411e-13,1.265353254e-12,2.321254300e-12,1.127928692e-12,1.547329583e-12,1.801353469e-12,1.798052947e-12,1.245449817e-12,1.401043800e-12,1.393072661e-12,3.532352394e-13,8.733299297e-13,6.830510186e-13,6.186013816e-13,2.763898120e-12,2.100073675e-12,2.773101162e-12,1.508288657e-13,3.347451313e-12,1.170317131e-11,8.542905671e-12,4.772495625e-11,2.430122072e-11,1.493739020e-12
0.58594,3.715066410e-11,1.310426554e-11,5.476886278e-12,2.762602173e-12,1.824761416e-13,1.188519769e-12,2.661664904e-12,3.290960565e-13,5.093260810e-13,1.299407523e-12,2.302061475e-12,1.154993567e-12,1.489740727e-12,1.818954843e-12,1.824365477e-12,1.265599547e-12,1.406224671e-12,1.380150812e-12,3.557200826e-13,8.570251528e-13,6.896848237e-13,5.847760687e-13,2.419874101e-12,2.050306882e-12,2.518577386e-12,1.331137070e-13,3.127744864e-12,1.067505827e-11,8.023995772e-12,4.376789465e-11,2.145599505e-11,1.297872690e-12
0.59375,3.394985586e-11,1.197150170e-11,5.199748842e-12,2.545610129e-12,1.588394090e-13,1.133954247e-12,2.500616645e-12,3.160953876e-13,4.873989580e-13,1.332410417e-12,2.289555637e-12,1.179636968e-12,1.434947810e-12,1.837378031e-12,1.847935047e-12,1.284695401e-12,1.411260286e-12,1.367768202e-12,3.588501906e-13,8.456396412e-13,6.981134950e-13,5.547775711e-13,2.119046295e-12,2.009241446e-12,2.293097008e-12,1.168347887e-13,2.923647883e-12,9.751349628e-12,7.526606636e-12,4.013863445e-11,1.896673222e-11,1.127552718e-12
0.60156,3.095957509e-11,1.091637545e-11,4.968610427e-12,2.343273372e-12,1.383204518e-13,1.091570415e-12,2.393046810e-12,3.042795549e-13,4.661211409e-13,1.366519776e-12,2.295037893e-12,1.203480192e-12,1.383599426e-12,1.855438467e-12,1.866727780e-12,1.304140769e-12,1.414658896e-12,1.354959114e-12,3.625026222e-13,8.392899817e-13,7.088688461e-13,5.279588608e-13,1.855030690e-12,1.986078397e-12,2.099373580e-12,1.024243361e-13,2.731491627e-12,8.925709789e-12,7.048608178e-12,3.677222307e-11,1.677324042e-11,9.791854041e-13
0.60938,2.837843491e-11,9.951774244e-12,4.825439265e-12,2.144885374e-12,1.224697421e-13,1.084874339e-12,2.435480633e-12,2.952181684e-13,4.425514646e-13,1.414188299e-12,2.383329847e-12,1.237738325e-12,1.327277110e-12,1.862016113e-12,1.859003785e-12,1.338537149e-12,1.397468327e-12,1.329169546e-12,3.673530798e-13,8.453854846e-13,7.290651499e-13,4.979841815e-13,1.577357166e-12,2.048117728e-12,2.002575514e-12,9.066444990e-14,2.561458436e-12,8.314373445e-12,6.602963025e-12,3.403579022e-11,1.477745498e-11,8.453229867e-13
0.61719,2.586720749e-11,9.070550174e-12,4.629657563e-12,1.969075777e-12,1.049258631e-13,1.052441565e-12,2.376365178e-12,2.861471765e-13,4.244196619e-13,1.446988983e-12,2.399020246e-12,1.259167251e-12,1.281507216e-12,1.873501597e-12,1.875292180e-12,1.362261036e-12,1.405504470e-12,1.320707587e-12,3.733645950e-13,8.559123242e-13,7.468176223e-13,4.763084274e-13,1.383396998e-12,2.041667812e-12,1.857508762e-12,7.797619751e-14,2.387652207e-12,7.633578903e-12,6.169506196e-12,3.121813678e-11,1.317098672e-11,7.365774229e-13
0.625,2.360585419e-11,8.321251176e-12,4.468518573e-12,1.831914970e-12,8.652818954e-14,1.014961270e-12,2.263643860e-12,2.734667215e-13,4.069545220e-13,1.468165721e-12,2.371403702e-12,1.269759393e-12,1.238418840e-12,1.892930342e-12,1.898003641e-12,1.374392286e-12,1.421905894e-12,1.318238230e-12,3.797802284e-13,8.563057307e-13,7.590608872e-13,4.591064723e-13,1.216978451e-12,1.989185265e-12,1.687736419e-12,6.584162294e-14,2.231888341e-12,6.967424258e-12,5.758622047e-12,2.855853184e-11,1.182730758e-11,6.443434620e-13
0.63281,2.148793935e-11,7.612777513e-12,4.310219248e-12,1.698513114e-12,7.395857198e-14,9.800121064e-13,2.175576810e-12,2.584240975e-13,3.884548807e-13,1.486800231e-12,2.349707331e-12,1.278082440e-12,1.198698417e-12,1.914738872e-12,1.912171959e-12,1.384900360e-12,1.431194735e-12,1.313117087e-12,3.870881669e-13,8.489725893e-13,7.691180756e-13,4.432741549e-13,1.072063313e-12,1.936493803e-12,1.538103327e-12,5.761691845e-14,2.082762646e-12,6.353969361e-12,5.369952485e-12,2.608918185e-11,1.061161132e-11,5.659217300e-13
0.64062,1.945368866e-11,6.929039588e-12,4.137333396e-12,1.566894634e-12,6.598766719e-14,9.423008831e-13,2.090087386e-12,2.417523438e-13,3.698173073e-13,1.501470679e-12,2.324144487e-12,1.283541074e-12,1.162842753e-12,1.939099516e-12,1.922749918e-12,1.393248407e-12,1.437630691e-12,1.308008760e-12,3.955139285e-13,8.362026174e-13,7.768826029e-13,4.289699689e-13,9.465685978e-13,1.875947036e-12,1.395876541e-12,5.261878529e-14,1.938209185e-12,5.762817862e-12,5.002404988e-12,2.372398225e-11,9.511148100e-12,4.977678778e-13
0.64844,1.771156806e-11,6.353255774e-12,4.022069578e-12,1.463076722e-12,6.050912360e-14,9.149551871e-13,2.020594274e-12,2.244117008e-13,3.513710192e-13,1.512718538e-12,2.298203304e-12,1.286044170e-12,1.128377727e-12,1.964149122e-12,1.929724104e-12,1.399475600e-12,1.442635188e-12,1.303392952e-12,4.047304090e-13,8.168500960e-13,7.833596688e-13,4.167563963e-13,8.336361857e-13,1.817253553e-12,1.271583974e-12,5.013583856e-14,1.817570514e-12,5.260695460e-12,4.662921869e-12,2.167784641e-11,8.533928961e-12,4.408620167e-13
0.65625,1.611261831e-11,5.821783932e-12,3.921971516e-12,1.369840351e-12,5.940253591e-14,8.917564790e-13,1.961584265e-12,2.078196247e-13,3.337752549e-13,1.521638024e-12,2.273459845e-12,1.286444030e-12,1.097273092e-12,1.987894277e-12,1.934295049e-12,1.405208383e-12,1.446674632e-12,1.299919464e-12,4.148617806e-13,7.925658524e-13,7.889418441e-13,4.062358575e-13,7.360484751e-13,1.759807325e-12,1.159065765e-12,5.093633959e-14,1.709613327e-12,4.804986361e-12,4.346941698e-12,1.980552904e-11,7.626923917e-12,3.916488557e-13
0.66406,1.456620293e-11,5.303819161e-12,3.810776993e-12,1.279654799e-12,6.202050427e-14,8.667980248e-13,1.898154590e-12,1.926011825e-13,3.177552526e-13,1.527566054e-12,2.243407998e-12,1.284350038e-12,1.070933305e-12,2.011096602e-12,1.939654778e-12,1.409778986e-12,1.451869441e-12,1.299097459e-12,4.257264823e-13,7.652093369e-13,7.928888801e-13,3.973577488e-13,6.532051978e-13,1.697001041e-12,1.048127256e-12,5.441477767e-14,1.609019217e-12,4.361782102e-12,4.052171414e-12,1.800089896e-11,6.778663011e-12,3.471096091e-13
0.67188,1.322858038e-11,4.854561812e-12,3.737078617e-12,1.206198364e-12,6.675040571e-14,8.510473900e-13,1.853888636e-12,1.797095142e-13,3.032627636e-13,1.532660176e-12,2.219677921e-12,1.282063551e-12,1.045822330e-12,2.031022306e-12,1.942314107e-12,1.415643176e-12,1.455382090e-12,1.298495057e-12,4.369971577e-13,7.367451994e-13,7.971725914e-13,3.894137733e-13,5.783167652e-13,1.646331869e-12,9.571637157e-13,5.961891415e-14,1.527910202e-12,3.992971824e-12,3.784365155e-12,1.644615519e-11,6.001921068e-12,3.086390090e-13
0.67969,1.128724041e-11,4.246078483e-12,3.515969302e-12,1.116975239e-12,7.071049462e-14,8.046921470e-13,1.675773656e-12,1.683026515e-13,2.957499663e-13,1.521298265e-12,2.126546128e-12,1.260318550e-12,1.059082652e-12,2.069090606e-12,1.974687073e-12,1.400807582e-12,1.487421123e-12,1.327518238e-12,4.435042393e-13,7.005594485e-13,7.876579144e-13,3.997467728e-13,5.269680511e-13,1.490582854e-12,7.498866909e-13,6.575183101e-14,1.433682765e-12,3.358770181e-12,3.520850669e-12,1.417518707e-11,5.240425071e-12,2.609115217e-13
0.6875,1.004465805e-11,3.852432712e-12,3.455229524e-12,1.063750791e-12,7.936119946e-14,7.932436682e-13,1.620986541e-12,1.593169005e-13,2.834822014e-13,1.518067145e-12,2.087644601e-12,1.248410801e-12,1.045673695e-12,2.102486010e-12,1.981481194e-12,1.395986517e-12,1.492076549e-12,1.329511666e-12,4.504910048e-13,6.609645130e-13,7.820477434e-13,4.002803196e-13,4.816046153e-13,1.413970072e-12,6.461192880e-13,7.324397562e-14,1.374991022e-12,3.009813762e-12,3.289420288e-12,1.270913224e-11,4.600378273e-12,2.307719007e-13
0.69531,9.288672381e-12,3.578815347e-12,3.445635294e-12,1.019558902e-12,9.097846418e-14,7.975714994e-13,1.627806247e-12,1.554463391e-13,2.713541041e-13,1.523373171e-12,2.089816409e-12,1.248418075e-12,1.011071740e-12,2.117868631e-12,1.972348253e-12,1.407445630e-12,1.482342316e-12,1.317299516e-12,4.610290748e-13,6.325274042e-13,7.877876596e-13,3.895541700e-13,4.213334504e-13,1.409481399e-12,6.207987274e-13,8.126430805e-14,1.338688027e-12,2.854723082e-12,3.092034574e-12,1.186742539e-11,4.027490664e-12,2.034516628e-13
0.70312,8.492927290e-12,3.301187316e-12,3.444254306e-12,9.809354753e-13,1.012041320e-13,8.059207364e-13,1.634267390e-12,1.560470933e-13,2.636583256e-13,1.528669182e-12,2.091036080e-12,1.247332485e-12,9.871015209e-13,2.127029210e-12,1.973352092e-12,1.421896558e-12,1.485540066e-12,1.317334430e-12,4.720663344e-13,6.135597068e-13,7.973047558e-13,3.834834766e-13,3.781751775e-13,1.405867368e-12,5.859112620e-13,8.873680308e-14,1.308359849e-12,2.683361711e-12,2.911526076e-12,1.097591953e-11,3.515150929e-12,1.779577786e-13
0.71094,7.734351090e-12,3.046678113e-12,3.473789906e-12,9.533846846e-13,1.094237233e-13,8.221703118e-13,1.649595190e-12,1.602614802e-13,2.588362460e-13,1.534393699e-12,2.094449450e-12,1.245310570e-12,9.690335710e-13,2.131779891e-12,1.980576464e-12,1.438767953e-12,1.497085135e-12,1.324762872e-12,4.830315556e-13,6.017442806e-13,8.101437750e-13,3.804777567e-13,3.431915748e-13,1.406024927e-12,5.464938611e-13,9.496559758e-14,1.286145143e-12,2.511635683e-12,2.747082596e-12,1.009980338e-11,3.072471446e-12,1.540884503e-13
0.71875,7.092044481e-12,2.821368170e-12,3.474802640e-12,9.231558850e-13,1.169696331e-13,8.345253396e-13,1.658723252e-12,1.669142509e-13,2.560968561e-13,1.539643582e-12,2.098573021e-12,1.244945229e-12,9.496738518e-13,2.128141195e-12,1.988710799e-12,1.460188325e-12,1.511522567e-12,1.334284296e-12,4.957412171e-13,6.002186910e-13,8.278619285e-13,3.759456940e-13,3.148754734e-13,1.417256360e-12,5.214829143e-13,9.971339392e-14,1.267475048e-12,2.378905748e-12,2.599930842e-12,9.393670838e-12,2.711309068e-12,1.309202094e-13
0.72656,6.483217334e-12,2.609896660e-12,3.471712313e-12,8.935686572e-13,1.221971775e-13,8.463475083e-13,1.667037035e-12,1.746600536e-13,2.548661141e-13,1.543802911e-12,2.103221013e-12,1.245045176e-12,9.333597624e-13,2.118824805e-12,2.000172291e-12,1.484381971e-12,1.531488638e-12,1.348528690e-12,5.097954415e-13,6.079289318e-13,8.488762836e-13,3.723448194e-13,2.943931717e-13,1.432027829e-12,4.981664002e-13,1.026681532e-13,1.249197635e-12,2.250142812e-12,2.464641594e-12,8.724814371e-12,2.425771454e-12,1.104065974e-13
0.73438,5.963555847e-12,2.434684304e-12,3.505003100e-12,8.730348096e-13,1.244493581e-13,8.659743539e-13,1.694326702e-12,1.829736780e-13,2.542380030e-13,1.548688498e-12,2.116879259e-12,1.246829807e-12,9.181723703e-13,2.104638664e-12,2.012439612e-12,1.512566030e-12,1.554126278e-12,1.365008050e-12,5.248358480e-13,6.226183531e-13,8.730006988e-13,3.693314907e-13,2.748577978e-13,1.456520660e-12,4.818936031e-13,1.038103052e-13,1.235026840e-12,2.140187586e-12,2.341467592e-12,8.128620552e-12,2.212116489e-12,9.368582852e-14
0.74219,5.482383152e-12,2.276437783e-12,3.509878735e-12,8.511009700e-13,1.246667837e-13,8.793266861e-13,1.705583650e-12,1.904366207e-13,2.546473584e-13,1.550141800e-12,2.122018473e-12,1.247625782e-12,9.065874471e-13,2.088421300e-12,2.027911954e-12,1.541364248e-12,1.581875689e-12,1.386219418e-12,5.412834918e-13,6.424025007e-13,8.971200447e-13,3.674061240e-13,2.631126428e-13,1.472402612e-12,4.639861016e-13,1.034148745e-13,1.220553883e-12,2.034535778e-12,2.229527479e-12,7.586604216e-12,2.075745967e-12,7.908674768e-14
0.75,5.017407585e-12,2.129671523e-12,3.493565840e-12,8.280079743e-13,1.229700173e-13,8.863287551e-13,1.702332038e-12,1.955329729e-13,2.547913451e-13,1.546987552e-12,2.116340044e-12,1.246101290e-12,8.984717125e-13,2.072726355e-12,2.044629294e-12,1.568766034e-12,1.613033632e-12,1.411080414e-12,5.592803605e-13,6.640360406e-13,9.191486442e-13,3.666597962e-13,2.566915525e-13,1.475299918e-12,4.408230872e-13,1.018957347e-13,1.203993144e-12,1.920448467e-12,2.126384265e-12,7.058281945e-12,2.000015748e-12,6.744927034e-14
0.75781,4.636671668e-12,2.011404768e-12,3.494922937e-12,8.085427199e-13,1.198360981e-13,8.955627242e-13,1.711826471e-12,1.982500834e-13,2.532620967e-13,1.542447224e-12,2.114148120e-12,1.245069450e-12,8.881527579e-13,2.055365369e-12,2.056349497e-12,1.597368281e-12,1.640595707e-12,1.433801071e-12,5.792518264e-13,6.861232597e-13,9.405595800e-13,3.646663578e-13,2.462011556e-13,1.481512855e-12,4.267241551e-13,9.968301757e-14,1.187531700e-12,1.824823276e-12,2.032639592e-12,6.604270110e-12,1.962423360e-12,5.972115297e-14
0.76562,3.682019410e-12,1.635604125e-12,3.408762078e-12,7.206100800e-13,1.224132932e-13,8.865987596e-13,1.772103264e-12,1.993902478e-13,2.429417173e-13,1.545911659e-12,2.141361135e-12,1.258851301e-12,8.149089095e-13,2.020864657e-12,2.044629267e-12,1.642425656e-12,1.636382319e-12,1.415600398e-12,6.127741761e-13,7.171514615e-13,9.789814757e-13,3.247932386e-13,1.493873704e-13,1.553425717e-12,4.209994545e-13,9.949298289e-14,1.098872358e-12,1.581902440e-12,1.920135311e-12,5.352465426e-12,1.773517733e-12,2.949151541e-14
0.77344,3.267467848e-12,1.509254399e-12,3.357306558e-12,6.877814236e-13,1.145255533e-13,8.811365984e-13,1.778364317e-12,1.975921334e-13,2.443644061e-13,1.535818650e-12,2.128902837e-12,1.260027060e-12,8.023283227e-13,1.994232187e-12,2.054367348e-12,1.673933985e-12,1.667224225e-12,1.446272967e-12,6.454843552e-13,7.496891313e-13,1.007714074e-12,3.163159165e-13,1.421907161e-13,1.565717938e-12,4.140232900e-13,9.532163450e-14,1.064734232e-12,1.495377720e-12,1.834377674e-12,4.826982426e-12,1.896857922e-12,3.023047164e-14
0.78125,3.096947232e-12,1.494071303e-12,3.348225989e-12,6.874758654e-13,1.041936092e-13,8.817395543e-13,1.744096030e-12,1.919797847e-13,2.473143350e-13,1.514817125e-12,2.093834113e-12,1.250554771e-12,8.260518974e-13,1.981785202e-12,2.067558998e-12,1.690787641e-12,1.706441244e-12,1.493938249e-12,6.710143027e-13,7.699997851e-13,1.019312713e-12,3.279824057e-13,1.637007600e-13,1.523478859e-12,3.855569077e-13,9.299387634e-14,1.060507681e-12,1.414705489e-12,1.768358336e-12,4.598522630e-12,2.062606313e-12,4.653606354e-14
0.78906,2.901291889e-12,1.453984276e-12,3.316213450e-12,6.776282810e-13,9.819878340e-14,8.765047721e-13,1.714509735e-12,1.835625180e-13,2.449590504e-13,1.490508146e-12,2.056495108e-12,1.240842860e-12,8.331678220e-13,1.974569088e-12,2.069659708e-12,1.702621228e-12,1.728326549e-12,1.524042770e-12,6.964791738e-13,7.805057368e-13,1.024084949e-12,3.318579120e-13,1.687547572e-13,1.482937615e-12,3.660390598e-13,9.348006181e-14,1.053111863e-12,1.353408843e-12,1.710120353e-12,4.351932618e-12,2.134791566e-12,5.779840194e-14
0.79688,2.741117581e-12,1.421213062e-12,3.273594076e-12,6.682496584e-13,9.455976827e-14,8.679983394e-13,1.681234095e-12,1.730035342e-13,2.397710525e-13,1.462194350e-12,2.011752741e-12,1.228788928e-12,8.342592848e-13,1.974349767e-12,2.066131423e-12,1.707783233e-12,1.740510963e-12,1.545934161e-12,7.217417059e-13,7.826960103e-13,1.021315808e-12,3.335668328e-13,1.660962635e-13,1.435209097e-12,3.503976160e-13,9.640174246e-14,1.053085615e-12,1.327334829e-12,1.662019062e-12,4.168015541e-12,2.148625710e-12,6.707271611e-14
0.80469,2.576179511e-12,1.384121155e-12,3.243721938e-12,6.624284479e-13,9.380983328e-14,8.616784514e-13,1.644059067e-12,1.611666416e-13,2.324136651e-13,1.430033214e-12,1.963248067e-12,1.213056477e-12,8.403852989e-13,1.982053403e-12,2.057149788e-12,1.706020383e-12,1.745352267e-12,1.562695343e-12,7.437090043e-13,7.751099584e-13,1.010010796e-12,3.384814421e-13,1.639209843e-13,1.373270507e-12,3.262276636e-13,1.025825513e-13,1.054164239e-12,1.268708034e-12,1.619527660e-12,3.953636820e-12,2.100321712e-12,8.010863277e-14
0.8125,2.423701969e-12,1.343890173e-12,3.204150132e-12,6.551212103e-13,9.611639727e-14,8.539343071e-13,1.602276059e-12,1.488526222e-13,2.226746810e-13,1.394685387e-12,1.910261770e-12,1.194489092e-12,8.415008042e-13,1.995489153e-12,2.042274634e-12,1.698483444e-12,1.740453712e-12,1.570602376e-12,7.630991523e-13,7.585878858e-13,9.925054567e-13,3.419259549e-13,1.568458124e-13,1.306663813e-12,3.028409444e-13,1.104303115e-13,1.059033449e-12,1.220683585e-12,1.584684033e-12,3.767272436e-12,1.992683008e-12,9.025858949e-14
0.82031,2.351119429e-12,1.327796696e-12,3.171924539e-12,6.529414400e-13,1.005062738e-13,8.484168657e-13,1.561503720e-12,1.367953136e-13,2.112213005e-13,1.356837941e-12,1.855421318e-12,1.173182570e-12,8.386539462e-13,2.013685496e-12,2.022929276e-12,1.685663848e-12,1.727447343e-12,1.571644505e-12,7.794259017e-13,7.342498984e-13,9.688997485e-13,3.451379149e-13,1.465642486e-13,1.237862081e-12,2.854344215e-13,1.194433517e-13,1.077367164e-12,1.220847613e-12,1.560605238e-12,3.705916661e-12,1.841140749e-12,9.756243774e-14
0.82812,2.244288410e-12,1.292164514e-12,3.145780509e-12,6.489484104e-13,1.078518094e-13,8.449585168e-13,1.525722733e-12,1.259806643e-13,1.982884247e-13,1.318309100e-12,1.803946828e-12,1.150841317e-12,8.325832384e-13,2.034142118e-12,1.999172741e-12,1.669969643e-12,1.706259804e-12,1.563908994e-12,7.924125261e-13,7.042603997e-13,9.418544599e-13,3.473666730e-13,1.329059346e-13,1.170550564e-12,2.660260322e-13,1.301227264e-13,1.092610415e-12,1.199817871e-12,1.538072420e-12,3.586858374e-12,1.636972069e-12,1.036872098e-13
0.83594,2.125033392e-12,1.247559096e-12,3.112124188e-12,6.429104651e-13,1.168805012e-13,8.411701506e-13,1.487807158e-12,1.169513810e-13,1.851271449e-13,1.279603129e-12,1.752621178e-12,1.127894620e-12,8.233006297e-13,2.056066290e-12,1.973901461e-12,1.651996078e-12,1.680128029e-12,1.550388205e-12,8.022662337e-13,6.707494916e-13,9.129054971e-13,3.487566293e-13,1.182326666e-13,1.103812418e-12,2.449443437e-13,1.406545855e-13,1.106668360e-12,1.172807102e-12,1.517588602e-12,3.453124112e-12,1.409574813e-12,1.064485406e-13
0.84375,2.080062058e-12,1.227703952e-12,3.089349549e-12,6.415364476e-13,1.262959998e-13,8.408383449e-13,1.452452957e-12,1.099379674e-13,1.723923061e-13,1.241673736e-12,1.704279546e-12,1.104880933e-12,8.132408338e-13,2.078133896e-12,1.948505221e-12,1.633138232e-12,1.651820167e-12,1.534530382e-12,8.083917156e-13,6.351537352e-13,8.816134977e-13,3.510084217e-13,1.050656431e-13,1.038037460e-12,2.281325052e-13,1.502509305e-13,1.130314309e-12,1.177123928e-12,1.504105929e-12,3.426896961e-12,1.182209425e-12,1.064221453e-13
0.85156,2.016829260e-12,1.196225342e-12,3.069356433e-12,6.378808638e-13,1.366126906e-13,8.422580227e-13,1.424552068e-12,1.051186839e-13,1.599912974e-13,1.205431448e-12,1.661578768e-12,1.083040671e-12,7.995274529e-13,2.096724643e-12,1.923236268e-12,1.616608121e-12,1.621431786e-12,1.514414663e-12,8.122600188e-13,6.002803422e-13,8.512009339e-13,3.513894589e-13,9.001113537e-14,9.802212060e-13,2.134168119e-13,1.592075296e-13,1.150786508e-12,1.175341675e-12,1.491497913e-12,3.371252645e-12,9.519259097e-13,1.035470112e-13
0.85938,1.936256327e-12,1.158114165e-12,3.044874162e-12,6.327002776e-13,1.465566722e-13,8.436978178e-13,1.398147828e-12,1.023248297e-13,1.489764609e-13,1.169988630e-12,1.620202225e-12,1.061606008e-12,7.844361777e-13,2.110857908e-12,1.899954528e-12,1.602430265e-12,1.592211790e-12,1.494105068e-12,8.155072153e-13,5.679379111e-13,8.235970958e-13,3.510522679e-13,7.612966142e-14,9.283493664e-13,1.983779845e-13,1.663652399e-13,1.167368790e-12,1.169344903e-12,1.478512065e-12,3.288876265e-12,7.449345196e-13,9.787964959e-14
0.86719,1.898746108e-12,1.136673878e-12,3.026527519e-12,6.297432610e-13,1.551765217e-13,8.468090464e-13,1.371457578e-12,1.012841111e-13,1.398430397e-13,1.135550887e-12,1.581047401e-12,1.040784228e-12,7.717264002e-13,2.120018429e-12,1.878393728e-12,1.589912054e-12,1.565661062e-12,1.476888261e-12,8.180332032e-13,5.384781976e-13,7.979717044e-13,3.522428133e-13,6.673037703e-14,8.788079369e-13,1.841537043e-13,1.712893056e-13,1.185937891e-12,1.170878896e-12,1.467862023e-12,3.259933193e-12,5.782591833e-13,9.085617683e-14
0.875,1.856161956e-12,1.111391989e-12,3.003907746e-12,6.240135107e-13,1.626512350e-13,8.496588546e-13,1.348096904e-12,1.017532682e-13,1.322855251e-13,1.102989376e-12,1.546053669e-12,1.022029732e-12,7.578178651e-13,2.122490026e-12,1.858245814e-12,1.580263738e-12,1.540634798e-12,1.460400177e-12,8.203944027e-13,5.134006322e-13,7.755461466e-13,3.522254431e-13,5.799338177e-14,8.369424586e-13,1.723400785e-13,1.741949737e-13,1.199842712e-12,1.169804949e-12,1.456548918e-12,3.220339171e-12,4.498750960e-13,8.201979702e-14
0.88281,1.809709937e-12,1.086165706e-12,2.978716480e-12,6.173300319e-13,1.680172047e-13,8.522735020e-13,1.328644476e-12,1.033319726e-13,1.266714048e-13,1.071588637e-12,1.513203552e-12,1.004938630e-12,7.438274891e-13,2.118018825e-12,1.840302128e-12,1.573288993e-12,1.518391466e-12,1.446461718e-12,8.231211387e-13,4.935009634e-13,7.568822773e-13,3.513049267e-13,5.092522976e-14,8.028228769e-13,1.636282376e-13,1.746554909e-13,1.209547883e-12,1.175474637e-12,1.443362927e-12,3.171214059e-12,3.709142779e-13,7.226942233e-14
0.89062,1.776146427e-12,1.068160675e-12,2.954985361e-12,6.108901866e-13,1.709362810e-13,8.542707942e-13,1.306796033e-12,1.054719404e-13,1.232111816e-13,1.040453865e-12,1.480044808e-12,9.887979736e-13,7.331711819e-13,2.106775371e-12,1.823947330e-12,1.567273189e-12,1.499534055e-12,1.437023976e-12,8.261227835e-13,4.780221475e-13,7.407442444e-13,3.511949804e-13,4.823029489e-14,7.701914834e-13,1.543566006e-13,1.728951237e-13,1.215347021e-12,1.175454025e-12,1.427997674e-12,3.126803190e-12,3.420255764e-13,6.320842236e-14
0.89844,1.735244869e-12,1.048292186e-12,2.921425095e-12,6.018238918e-13,1.716824661e-13,8.532685807e-13,1.281831309e-12,1.076124543e-13,1.215202180e-13,1.009323779e-12,1.445515235e-12,9.736586006e-13,7.235906756e-13,2.088815445e-12,1.808127784e-12,1.561576901e-12,1.482631380e-12,1.430325273e-12,8.299485826e-13,4.669301951e-13,7.270165233e-13,3.504981626e-13,4.768065413e-14,7.397533067e-13,1.449412019e-13,1.692740134e-13,1.214747056e-12,1.169105117e-12,1.409259765e-12,3.065569811e-12,3.571306946e-13,5.444436768e-14
0.90625,1.704017110e-12,1.033638780e-12,2.885235273e-12,5.923075757e-13,1.700285446e-13,8.508516331e-13,1.259946475e-12,1.093643386e-13,1.211851805e-13,9.779748048e-13,1.411046247e-12,9.589786001e-13,7.149232196e-13,2.064401784e-12,1.791606216e-12,1.555810090e-12,1.466707453e-12,1.426015843e-12,8.348462581e-13,4.601260296e-13,7.155356760e-13,3.492383545e-13,4.839873510e-14,7.140841483e-13,1.396492485e-13,1.640299815e-13,1.211831693e-12,1.177091879e-12,1.388153052e-12,3.015290278e-12,4.134008563e-13,4.681469652e-14
0.91406,1.672189077e-12,1.020167998e-12,2.847638035e-12,5.820635333e-13,1.663873283e-13,8.469437537e-13,1.237580417e-12,1.105229106e-13,1.218905061e-13,9.464077516e-13,1.376079889e-12,9.439024062e-13,7.086625500e-13,2.034168191e-12,1.773827859e-12,1.548587238e-12,1.451270677e-12,1.423798260e-12,8.405122005e-13,4.563352632e-13,7.054378372e-13,3.482344572e-13,5.117120993e-14,6.899246804e-13,1.347454009e-13,1.580328126e-13,1.204844653e-12,1.180851377e-12,1.364567696e-12,2.954263318e-12,4.972849047e-13,4.145914996e-14
0.92188,1.630064135e-12,1.004242718e-12,2.800865610e-12,5.702096934e-13,1.612031539e-13,8.402489886e-13,1.212202789e-12,1.109808077e-13,1.233657155e-13,9.150613554e-13,1.339362104e-12,9.283290258e-13,7.039083826e-13,2.000322045e-12,1.755011225e-12,1.539247867e-12,1.436208632e-12,1.422887124e-12,8.468245312e-13,4.544728701e-13,6.961298346e-13,3.472447427e-13,5.569666450e-14,6.651811483e-13,1.286142808e-13,1.516929524e-13,1.193321013e-12,1.179150208e-12,1.339078146e-12,2.874288385e-12,5.999684836e-13,3.799679111e-14
0.92969,1.604391390e-12,9.951196315e-13,2.753482933e-12,5.586255880e-13,1.547712253e-13,8.325685535e-13,1.189387529e-12,1.106720106e-13,1.251098444e-13,8.841325498e-13,1.302976593e-12,9.126637080e-13,7.001755088e-13,1.964945570e-12,1.734066756e-12,1.528099531e-12,1.420581796e-12,1.422669076e-12,8.533901626e-13,4.537651461e-13,6.868010588e-13,3.461323665e-13,6.095485900e-14,6.411563905e-13,1.251980341e-13,1.452650806e-13,1.182620906e-12,1.189992845e-12,1.313658858e-12,2.818105084e-12,7.137904053e-13,3.650151579e-14
0.9375,1.575720691e-12,9.842812117e-13,2.705299578e-12,5.465530943e-13,1.478448896e-13,8.238778712e-13,1.168318973e-12,1.095910328e-13,1.265988981e-13,8.531404492e-13,1.266749672e-12,8.966758437e-13,6.967141157e-13,1.928715534e-12,1.710502984e-12,1.514471254e-12,1.402312039e-12,1.420627132e-12,8.595649416e-13,4.532942844e-13,6.768574078e-13,3.444032965e-13,6.564635104e-14,6.183649502e-13,1.230505337e-13,1.394996315e-13,1.170083071e-12,1.199782868e-12,1.287374585e-12,2.755066120e-12,8.217338925e-13,3.706144562e-14
0.94531,1.536201124e-12,9.696776278e-13,2.653401146e-12,5.344033764e-13,1.406823763e-13,8.137602669e-13,1.146731917e-12,1.079042821e-13,1.276524794e-13,8.218840156e-13,1.229198604e-12,8.796159356e-13,6.928866442e-13,1.892305130e-12,1.684819674e-12,1.497050125e-12,1.380729831e-12,1.415169327e-12,8.644847871e-13,4.525001337e-13,6.660280508e-13,3.421814667e-13,7.018256170e-14,5.959076442e-13,1.209140458e-13,1.344893623e-13,1.155105988e-12,1.209814125e-12,1.260132518e-12,2.677197392e-12,9.174219000e-13,3.926785933e-14
0.95312,1.509586505e-12,9.589067122e-13,2.601889609e-12,5.224211606e-13,1.335475482e-13,8.027769270e-13,1.125531525e-12,1.058272233e-13,1.279911302e-13,7.908615065e-13,1.191734971e-12,8.611782774e-13,6.885309612e-13,1.855792195e-12,1.656226540e-12,1.475588525e-12,1.355881091e-12,1.405960515e-12,8.670208852e-13,4.508307823e-13,6.536170318e-13,3.398135167e-13,7.508077233e-14,5.724622381e-13,1.193362274e-13,1.302232434e-13,1.141119894e-12,1.226392042e-12,1.233398252e-12,2.620226492e-12,9.968046742e-13,4.279190382e-14
0.96094,1.480195556e-12,9.439522202e-13,2.547719453e-12,5.092912682e-13,1.271521944e-13,7.911186069e-13,1.106261727e-12,1.035580786e-13,1.272149846e-13,7.605331792e-13,1.155455416e-12,8.413846954e-13,6.820595828e-13,1.818854415e-12,1.624489401e-12,1.451128809e-12,1.327025636e-12,1.391202481e-12,8.666985701e-13,4.478395757e-13,6.394453210e-13,3.364358936e-13,7.840697882e-14,5.498397685e-13,1.183829358e-13,1.271353896e-13,1.126183648e-12,1.242044006e-12,1.206734878e-12,2.562100013e-12,1.049502356e-12,4.701251172e-14
0.96875,1.446390734e-12,9.254703647e-13,2.494671914e-12,4.969180864e-13,1.216053193e-13,7.804316463e-13,1.091082289e-12,1.013450747e-13,1.253821874e-13,7.308588218e-13,1.120030573e-12,8.202564773e-13,6.735577916e-13,1.782249275e-12,1.590280206e-12,1.424106303e-12,1.294605617e-12,1.371259219e-12,8.637688249e-13,4.434637430e-13,6.237932816e-13,3.322234088e-13,7.968914251e-14,5.297115268e-13,1.199460959e-13,1.252260242e-13,1.111839453e-12,1.264875135e-12,1.180707399e-12,2.502960648e-12,1.076282874e-12,5.151175145e-14
0.97656,1.421403972e-12,9.087975897e-13,2.443869459e-12,4.853312176e-13,1.169485811e-13,7.698860856e-13,1.075252949e-12,9.927915177e-14,1.227258908e-13,7.014099453e-13,1.084082435e-12,7.979760251e-13,6.641538441e-13,1.746327165e-12,1.553385032e-12,1.393692628e-12,1.259503145e-12,1.347710567e-12,8.584123376e-13,4.370424471e-13,6.061871930e-13,3.280487088e-13,8.080266108e-14,5.081874958e-13,1.214542878e-13,1.245081664e-13,1.099536355e-12,1.289692196e-12,1.156132045e-12,2.459002052e-12,1.080061046e-12,5.602091600e-14
0.98438,1.392110081e-12,8.876873357e-13,2.387901060e-12,4.727702878e-13,1.134377948e-13,7.577317503e-13,1.056516818e-12,9.735615314e-14,1.192238730e-13,6.723211864e-13,1.047598824e-12,7.750504917e-13,6.523805060e-13,1.710521913e-12,1.514129188e-12,1.360614006e-12,1.221392492e-12,1.319095975e-12,8.504680380e-13,4.282923230e-13,5.865470090e-13,3.231020454e-13,8.092220286e-14,4.853797457e-13,1.218338050e-13,1.250307615e-13,1.086668930e-12,1.310370559e-12,1.132103019e-12,2.412213718e-12,1.059190599e-12,5.982102964e-14
0.99219,1.362725568e-12,8.637581538e-13,2.333031383e-12,4.605145099e-13,1.108845408e-13,7.462161968e-13,1.040831474e-12,9.568265960e-14,1.149879967e-13,6.441866246e-13,1.013054832e-12,7.519495966e-13,6.379285707e-13,1.674831267e-12,1.473653438e-12,1.326508068e-12,1.180566495e-12,1.285176487e-12,8.395030212e-13,4.181675107e-13,5.656193164e-13,3.169164553e-13,7.861673501e-14,4.657513058e-13,1.255156989e-13,1.265289822e-13,1.075112467e-12,1.339612153e-12,1.108655017e-12,2.371241964e-12,1.018749874e-12,6.263001480e-14
1,1.337843187e-12,8.396685115e-13,2.282304268e-12,4.485856915e-13,1.091402307e-13,7.354563157e-13,1.025392937e-12,9.429322323e-14,1.103534561e-13,6.167922771e-13,9.797287299e-13,7.284198173e-13,6.222736494e-13,1.638885796e-12,1.432470972e-12,1.290694384e-12,1.137792214e-12,1.247686388e-12,8.254652801e-13,4.068485217e-13,5.435876268e-13,3.102409067e-13,7.584542918e-14,4.471011578e-13,1.301588655e-13,1.290669263e-13,1.064964402e-12,1.369272262e-12,1.085817786e-12,2.336913675e-12,9.643635163e-13,6.466100010e-14
1.0078,1.308248546e-12,8.126306126e-13,2.229254279e-12,4.362293934e-13,1.081022491e-13,7.235483889e-13,1.006358469e-12,9.312013323e-14,1.054867352e-13,5.899799477e-13,9.457490449e-13,7.042645445e-13,6.050554233e-13,1.601556900e-12,1.390782058e-12,1.252863809e-12,1.093640932e-12,1.206958677e-12,8.089976838e-13,3.942913222e-13,5.207162148e-13,3.030235428e-13,7.325558758e-14,4.277088825e-13,1.337585791e-13,1.325180873e-13,1.054463490e-12,1.394867459e-12,1.063220940e-12,2.296557808e-12,8.998917493e-13,6.564846512e-14
1.0156,1.281800986e-12,7.851979185e-13,2.176030915e-12,4.239359292e-13,1.074932543e-13,7.113571229e-13,9.882569249e-13,9.205930556e-14,1.005059001e-13,5.641713479e-13,9.127391643e-13,6.801890727e-13,5.859973923e-13,1.562513688e-12,1.348629635e-12,1.214747379e-12,1.049321591e-12,1.164071090e-12,7.907413934e-13,3.815675973e-13,4.978559187e-13,2.950019349e-13,6.943763665e-14,4.104014527e-13,1.394730159e-13,1.364157192e-13,1.045178119e-12,1.424923966e-12,1.041060911e-12,2.264200905e-12,8.306267137e-13,6.541261815e-14
1.0234,1.256536003e-12,7.568485219e-13,2.123831297e-12,4.115444445e-13,1.071894158e-13,6.989694317e-13,9.699528266e-13,9.098779117e-14,9.567146062e-14,5.390321339e-13,8.804574625e-13,6.563546581e-13,5.662112102e-13,1.521808800e-12,1.305949950e-12,1.176323604e-12,1.005068179e-12,1.119950980e-12,7.709683759e-13,3.687249329e-13,4.752106334e-13,2.866230995e-13,6.533877273e-14,3.943886176e-13,1.457149679e-13,1.407002725e-13,1.035480487e-12,1.450196527e-12,1.018314240e-12,2.230644451e-12,7.595626377e-13,6.444321532e-14
1.0312,1.226968950e-12,7.271856382e-13,2.070713564e-12,3.996041801e-13,1.068765003e-13,6.856930683e-13,9.487559328e-13,8.990312441e-14,9.111747637e-14,5.142348540e-13,8.472513924e-13,6.321893108e-13,5.463010181e-13,1.479190131e-12,1.262952163e-12,1.136392367e-12,9.602853405e-13,1.073941200e-12,7.496083627e-13,3.549484264e-13,4.525352726e-13,2.780481372e-13,6.191277299e-14,3.784134638e-13,1.519811436e-13,1.451602788e-13,1.025019812e-12,1.472702875e-12,9.946589068e-13,2.189468044e-12,6.911201954e-13,6.297005508e-14
1.0391,1.201947849e-12,6.995364749e-13,2.016532478e-12,3.879950841e-13,1.062873437e-13,6.718301717e-13,9.271717647e-13,8.880223199e-14,8.678936508e-14,4.902313292e-13,8.143275927e-13,6.080545146e-13,5.261364784e-13,1.434892341e-12,1.219556244e-12,1.095450708e-12,9.155237429e-13,1.026813251e-12,7.267879474e-13,3.407662995e-13,4.299640819e-13,2.690334545e-13,5.869689454e-14,3.632363160e-13,1.593886559e-13,1.495912245e-13,1.016011333e-12,1.498594281e-12,9.713263754e-13,2.156193523e-12,6.282193645e-13,6.090459605e-14
1.0469,1.176003493e-12,6.712766858e-13,1.960504237e-12,3.759294723e-13,1.055374226e-13,6.575841382e-13,9.062752413e-13,8.765134013e-14,8.268874881e-14,4.670076989e-13,7.823438702e-13,5.843420518e-13,5.057843691e-13,1.389270516e-12,1.175589538e-12,1.053968690e-12,8.712076024e-13,9.795951769e-13,7.032162278e-13,3.269734436e-13,4.079374137e-13,2.595418657e-13,5.554834710e-14,3.494921872e-13,1.667033767e-13,1.541472542e-13,1.006543015e-12,1.519563866e-12,9.480769672e-13,2.117996716e-12,5.697414342e-13,5.857739052e-14
1.0547,1.147277765e-12,6.429658249e-13,1.906348267e-12,3.645976937e-13,1.044327186e-13,6.437786802e-13,8.872661647e-13,8.660676088e-14,7.885132770e-14,4.444035714e-13,7.513051103e-13,5.605006888e-13,4.858977354e-13,1.342145487e-12,1.131327479e-12,1.011505530e-12,8.273297335e-13,9.323882467e-13,6.790411545e-13,3.135925793e-13,3.868364516e-13,2.499225493e-13,5.237851895e-14,3.384293050e-13,1.755260145e-13,1.584767939e-13,9.966760216e-13,1.540701557e-12,9.244642566e-13,2.074604467e-12,5.184936306e-13,5.627408463e-14
1.0625,1.123247312e-12,6.178635184e-13,1.854741698e-12,3.539275839e-13,1.027711013e-13,6.301892059e-13,8.699229051e-13,8.583291271e-14,7.524858066e-14,4.228618224e-13,7.220140582e-13,5.365535784e-13,4.666627427e-13,1.293656956e-12,1.086948136e-12,9.684327206e-13,7.845467296e-13,8.858702548e-13,6.540444765e-13,3.008549152e-13,3.665443304e-13,2.405671092e-13,4.999282051e-14,3.284228756e-13,1.847483106e-13,1.622234589e-13,9.871705568e-13,1.562700206e-12,9.005626320e-13,2.037742619e-12,4.753564678e-13,5.391332953e-14
1.0703,1.097082734e-12,5.926157206e-13,1.801226374e-12,3.429736764e-13,1.007633099e-13,6.160525552e-13,8.530691767e-13,8.534741001e-14,7.186402545e-14,4.027232292e-13,6.944354996e-13,5.130471900e-13,4.478053581e-13,1.244667657e-12,1.042655442e-12,9.258396459e-13,7.434114896e-13,8.401348710e-13,6.290226294e-13,2.893430255e-13,3.471420832e-13,2.313774407e-13,4.839614015e-14,3.187656910e-13,1.926049160e-13,1.655717678e-13,9.759886378e-13,1.579292475e-12,8.759153091e-13,1.994530906e-12,4.370868573e-13,5.153144146e-14
1.0781,1.070366409e-12,5.678582624e-13,1.749257126e-12,3.328158915e-13,9.844939796e-14,6.028827242e-13,8.403250057e-13,8.523087758e-14,6.865194626e-14,3.840030337e-13,6.693490615e-13,4.899521768e-13,4.298641120e-13,1.195766440e-12,9.988172431e-13,8.841795825e-13,7.039419697e-13,7.950370520e-13,6.044049657e-13,2.792561625e-13,3.292882838e-13,2.222479605e-13,4.619292620e-14,3.132330731e-13,2.027025561e-13,1.685467006e-13,9.647486956e-13,1.599279306e-12,8.510636065e-13,1.950315708e-12,4.047833660e-13,4.926364601e-14
1.0859,1.049122322e-12,5.463344860e-13,1.701575030e-12,3.235735913e-13,9.583228510e-14,5.910638697e-13,8.312130438e-13,8.560544613e-14,6.557885858e-14,3.664999920e-13,6.469201183e-13,4.671938788e-13,4.132001624e-13,1.147005012e-12,9.556127236e-13,8.428175272e-13,6.659185320e-13,7.510007817e-13,5.794667675e-13,2.702156212e-13,3.127902944e-13,2.134564780e-13,4.442503718e-14,3.105611464e-13,2.138832852e-13,1.711639550e-13,9.545354085e-13,1.620250619e-12,8.264136654e-13,1.912208423e-12,3.787643229e-13,4.710823735e-14
1.0938,1.026144187e-12,5.254069276e-13,1.653702349e-12,3.145996088e-13,9.307701048e-14,5.793974743e-13,8.217794799e-13,8.643068611e-14,6.271082571e-14,3.500168383e-13,6.255234544e-13,4.450756225e-13,3.974027350e-13,1.098695986e-12,9.132155445e-13,8.014639667e-13,6.292911868e-13,7.079261987e-13,5.542728412e-13,2.623188965e-13,2.970527321e-13,2.049116530e-13,4.368662143e-14,3.079126640e-13,2.242719248e-13,1.735681862e-13,9.440323486e-13,1.637041946e-12,8.013193173e-13,1.869867617e-12,3.569043823e-13,4.487125338e-14
1.1016,1.001958031e-12,5.046368700e-13,1.606249847e-12,3.061010575e-13,9.025616552e-14,5.683713169e-13,8.148861989e-13,8.754732511e-14,5.999741707e-14,3.347268490e-13,6.062429647e-13,4.239376823e-13,3.822638029e-13,1.051000835e-12,8.715288148e-13,7.611998394e-13,5.942435286e-13,6.660246446e-13,5.296041541e-13,2.564097537e-13,2.825364529e-13,1.963299670e-13,4.225836470e-14,3.079644208e-13,2.369695243e-13,1.758991764e-13,9.342426590e-13,1.657093483e-12,7.760865220e-13,1.828404031e-12,3.386677021e-13,4.239953281e-14
1.1094,9.789735632e-13,4.845975586e-13,1.562325870e-12,2.977098483e-13,8.742062344e-14,5.580471092e-13,8.106707498e-13,8.887700293e-14,5.734906500e-14,3.207440603e-13,5.901820917e-13,4.036630711e-13,3.678517704e-13,1.003423725e-12,8.306183387e-13,7.225397958e-13,5.608184635e-13,6.257424912e-13,5.054524441e-13,2.523024851e-13,2.695458754e-13,1.880871745e-13,4.093674807e-14,3.102458992e-13,2.506282923e-13,1.784897293e-13,9.248756910e-13,1.675424415e-12,7.510988947e-13,1.787694286e-12,3.229751406e-13,3.993055246e-14
1.1172,9.540024797e-13,4.648633917e-13,1.519895702e-12,2.894378233e-13,8.456905041e-14,5.476156830e-13,8.052965394e-13,9.035231778e-14,5.486674948e-14,3.080266187e-13,5.758721350e-13,3.840024236e-13,3.541828449e-13,9.560081054e-13,7.913486764e-13,6.851964299e-13,5.293783043e-13,5.868523561e-13,4.814690505e-13,2.490949050e-13,2.576942615e-13,1.804343201e-13,4.076353077e-14,3.127232054e-13,2.641147341e-13,1.814395296e-13,9.157560667e-13,1.690217560e-12,7.263997506e-13,1.744918476e-12,3.100659554e-13,3.755451139e-14
1.125,9.303820793e-13,4.464891369e-13,1.476873137e-12,2.814465342e-13,8.178474131e-14,5.370274633e-13,8.001553574e-13,9.168170683e-14,5.262712664e-14,2.964635618e-13,5.635227523e-13,3.655517530e-13,3.407167484e-13,9.095248369e-13,7.541735291e-13,6.497747764e-13,5.001103750e-13,5.493909355e-13,4.578014230e-13,2.470758059e-13,2.470087651e-13,1.727449530e-13,4.059338314e-14,3.170225707e-13,2.793867181e-13,1.847571281e-13,9.083326316e-13,1.708118516e-12,7.029517449e-13,1.707955214e-12,2.995713198e-13,3.500579493e-14
1.1328,9.076654062e-13,4.284816284e-13,1.433397183e-12,2.732180026e-13,7.925939915e-14,5.259662767e-13,7.947284559e-13,9.258701719e-14,5.065897178e-14,2.856230013e-13,5.528668035e-13,3.488341135e-13,3.272963590e-13,8.642804996e-13,7.190722861e-13,6.164252971e-13,4.724704090e-13,5.135410670e-13,4.347140630e-13,2.466385262e-13,2.375773363e-13,1.648166096e-13,4.054717268e-14,3.226301525e-13,2.953737805e-13,1.889026888e-13,9.019760943e-13,1.723202895e-12,6.815443465e-13,1.670806080e-12,2.890694421e-13,3.246133500e-14
1.1406,8.849899844e-13,4.111277861e-13,1.390662706e-12,2.652161668e-13,7.691039888e-14,5.145267612e-13,7.871985525e-13,9.308078441e-14,4.902272216e-14,2.754167173e-13,5.426114955e-13,3.334910360e-13,3.148667461e-13,8.201020864e-13,6.860283725e-13,5.843611459e-13,4.463365346e-13,4.792989803e-13,4.121899974e-13,2.472820348e-13,2.292330544e-13,1.572770106e-13,4.111666289e-14,3.285628063e-13,3.122638251e-13,1.941026116e-13,8.970781627e-13,1.734850140e-12,6.624084631e-13,1.634243769e-12,2.795963399e-13,3.030192359e-14
1.1484,8.669299950e-13,3.963618829e-13,1.349084296e-12,2.574369433e-13,7.465073014e-14,5.026326092e-13,7.787117108e-13,9.307308973e-14,4.768320436e-14,2.659331497e-13,5.332814909e-13,3.193609870e-13,3.033026838e-13,7.768182670e-13,6.543385408e-13,5.532838064e-13,4.217628404e-13,4.468000123e-13,3.902924790e-13,2.486421870e-13,2.218690745e-13,1.501431002e-13,4.215321966e-14,3.346276312e-13,3.297621455e-13,2.000762235e-13,8.942862040e-13,1.745473075e-12,6.458776955e-13,1.605786457e-12,2.716243974e-13,2.846417375e-14
1.1562,8.495474044e-13,3.822630386e-13,1.306278378e-12,2.489283686e-13,7.256521747e-14,4.890870193e-13,7.673511973e-13,9.229929743e-14,4.661498460e-14,2.568484163e-13,5.245399642e-13,3.063865023e-13,2.917669276e-13,7.343740930e-13,6.237279966e-13,5.231316542e-13,3.983707035e-13,4.158347316e-13,3.692380823e-13,2.506507585e-13,2.154166395e-13,1.429955279e-13,4.373604172e-14,3.395241502e-13,3.457178940e-13,2.066203280e-13,8.920429258e-13,1.749145438e-12,6.321509762e-13,1.575936034e-12,2.630712964e-13,2.693488571e-14
1.1641,8.316351578e-13,3.689003046e-13,1.262761674e-12,2.403738508e-13,7.054807406e-14,4.744272798e-13,7.540108917e-13,9.086929584e-14,4.581941832e-14,2.484428756e-13,5.169925080e-13,2.944543523e-13,2.806453988e-13,6.930712310e-13,5.948882722e-13,4.943896284e-13,3.760372121e-13,3.861335545e-13,3.490250557e-13,2.535739316e-13,2.100809386e-13,1.359546767e-13,4.521471974e-14,3.448324605e-13,3.617219338e-13,2.135534425e-13,8.904200449e-13,1.748588102e-12,6.212983093e-13,1.545306281e-12,2.546235310e-13,2.597824937e-14
1.1719,8.179764378e-13,3.582640014e-13,1.220422347e-12,2.322857592e-13,6.847130775e-14,4.594914291e-13,7.414389963e-13,8.904218494e-14,4.529290136e-14,2.409852281e-13,5.119009759e-13,2.838227414e-13,2.702226802e-13,6.535750112e-13,5.681190023e-13,4.672926818e-13,3.547839392e-13,3.578393813e-13,3.295669227e-13,2.574656331e-13,2.057325363e-13,1.292404802e-13,4.675660095e-14,3.505835454e-13,3.771154089e-13,2.205000627e-13,8.895028715e-13,1.744638454e-12,6.130393733e-13,1.518967266e-12,2.473081715e-13,2.565419924e-14
1.1797,8.045177603e-13,3.487584658e-13,1.176970410e-12,2.241232922e-13,6.631792125e-14,4.434086949e-13,7.270826936e-13,8.679704986e-14,4.507381094e-14,2.339320649e-13,5.076614441e-13,2.743430229e-13,2.602512585e-13,6.162955581e-13,5.433173364e-13,4.408629778e-13,3.345204618e-13,3.308913666e-13,3.108868143e-13,2.615971096e-13,2.019273364e-13,1.228186969e-13,4.887631237e-14,3.543913055e-13,3.895417006e-13,2.270572818e-13,8.880470614e-13,1.732798163e-12,6.067959969e-13,1.490081822e-12,2.411793740e-13,2.576088710e-14
1.1875,7.904111903e-13,3.401210263e-13,1.134609958e-12,2.164036984e-13,6.406099979e-14,4.268964612e-13,7.129269064e-13,8.433020689e-14,4.505179278e-14,2.276178866e-13,5.053756074e-13,2.657885084e-13,2.507718571e-13,5.810173911e-13,5.202262677e-13,4.154546587e-13,3.151960809e-13,3.050645302e-13,2.931572524e-13,2.663477139e-13,1.992594593e-13,1.166062730e-13,5.039468332e-14,3.587397936e-13,4.012381665e-13,2.329508148e-13,8.857672714e-13,1.717493420e-12,6.020490196e-13,1.459376837e-12,2.364709661e-13,2.620907889e-14
1.1953,7.787598779e-13,3.331764790e-13,1.097119934e-12,2.094095256e-13,6.168917421e-14,4.111242666e-13,7.016329854e-13,8.205825863e-14,4.511376918e-14,2.226066225e-13,5.068999626e-13,2.583667607e-13,2.420322314e-13,5.477579857e-13,4.987862875e-13,3.919495520e-13,2.969780482e-13,2.806078824e-13,2.766079599e-13,2.728365230e-13,1.981764293e-13,1.108317757e-13,5.145583962e-14,3.646173449e-13,4.121320987e-13,2.379727584e-13,8.823035403e-13,1.698715772e-12,5.983944158e-13,1.427051189e-12,2.335382573e-13,2.704659358e-14
1.2031,7.670499361e-13,3.274537001e-13,1.061632976e-12,2.029733219e-13,5.913364920e-14,3.957174113e-13,6.905247027e-13,8.005198813e-14,4.527170834e-14,2.184366643e-13,5.102539577e-13,2.518785583e-13,2.342689389e-13,5.169920329e-13,4.793838018e-13,3.697017805e-13,2.800677791e-13,2.577092296e-13,2.610624688e-13,2.805702245e-13,1.979700329e-13,1.057663200e-13,5.293051843e-14,3.700204771e-13,4.208481860e-13,2.419116552e-13,8.780122522e-13,1.675518502e-12,5.959449251e-13,1.392307643e-12,2.342797622e-13,2.805219686e-14
1.2109,7.562685969e-13,3.232736763e-13,1.028183267e-12,1.973088790e-13,5.641049384e-14,3.807591737e-13,6.815823355e-13,7.833972203e-14,4.537884498e-14,2.151426724e-13,5.158956592e-13,2.461802340e-13,2.269555216e-13,4.888545941e-13,4.621980313e-13,3.491323417e-13,2.643376132e-13,2.360599468e-13,2.462238014e-13,2.889684843e-13,1.984652456e-13,1.009578207e-13,5.371855893e-14,3.764083292e-13,4.291934991e-13,2.447143849e-13,8.732746746e-13,1.653026105e-12,5.944747783e-13,1.359911112e-12,2.386987709e-13,2.882265094e-14
1.2188,7.458948725e-13,3.194862681e-13,9.982382973e-13,1.919280175e-13,5.367671275e-14,3.661777262e-13,6.754308151e-13,7.712202099e-14,4.533471316e-14,2.130700034e-13,5.247240429e-13,2.414537257e-13,2.197650316e-13,4.635656879e-13,4.475120120e-13,3.310816720e-13,2.500994318e-13,2.158420521e-13,2.323059004e-13,2.984590779e-13,1.998596958e-13,9.626631884e-14,5.373981563e-14,3.835650046e-13,4.367306100e-13,2.464541327e-13,8.667996049e-13,1.628040948e-12,5.929325115e-13,1.324528635e-12,2.451493956e-13,2.924034809e-14
1.2266,7.342162561e-13,3.161998654e-13,9.710895074e-13,1.871477177e-13,5.098257562e-14,3.523015272e-13,6.704207681e-13,7.644907354e-14,4.519449051e-14,2.120771346e-13,5.358895404e-13,2.374655413e-13,2.134296181e-13,4.412549914e-13,4.353176090e-13,3.149248626e-13,2.377322478e-13,1.974563251e-13,2.195451475e-13,3.091377658e-13,2.020525322e-13,9.231863004e-14,5.373359616e-14,3.907857349e-13,4.433195246e-13,2.472051712e-13,8.591522434e-13,1.601098126e-12,5.913439983e-13,1.286465635e-12,2.547537635e-13,2.931966186e-14
1.2344,7.262646969e-13,3.154806544e-13,9.489683980e-13,1.837205940e-13,4.840465626e-14,3.401301292e-13,6.693963037e-13,7.632027907e-14,4.487015775e-14,2.122404474e-13,5.505993377e-13,2.339960265e-13,2.076887585e-13,4.212454231e-13,4.251801910e-13,3.005910182e-13,2.267712451e-13,1.804927121e-13,2.076662922e-13,3.209655165e-13,2.051858113e-13,8.896949736e-14,5.328348117e-14,4.000526499e-13,4.505841309e-13,2.472757009e-13,8.520574410e-13,1.578922562e-12,5.906230712e-13,1.255259794e-12,2.672474585e-13,2.886619839e-14
1.2422,7.205248160e-13,3.157884578e-13,9.307129776e-13,1.808611676e-13,4.611036082e-14,3.290099450e-13,6.705430893e-13,7.670910983e-14,4.429624717e-14,2.135992341e-13,5.680657665e-13,2.311306145e-13,2.017573076e-13,4.033519574e-13,4.176493515e-13,2.883515342e-13,2.170534666e-13,1.646117421e-13,1.962817050e-13,3.338924305e-13,2.091063121e-13,8.587892757e-14,5.271666805e-14,4.103951783e-13,4.575774047e-13,2.471663126e-13,8.452831050e-13,1.557892603e-12,5.908755315e-13,1.226816852e-12,2.799813446e-13,2.774230848e-14
1.25,7.148775329e-13,3.169743520e-13,9.161108591e-13,1.787316757e-13,4.418055629e-14,3.189821060e-13,6.727298019e-13,7.739049130e-14,4.352494240e-14,2.162232982e-13,5.873820386e-13,2.290006399e-13,1.960331540e-13,3.879091724e-13,4.129286300e-13,2.781466665e-13,2.086714183e-13,1.499927966e-13,1.854876155e-13,3.477839737e-13,2.137270154e-13,8.330442881e-14,5.228747307e-14,4.214120991e-13,4.648167590e-13,2.471680846e-13,8.387808302e-13,1.536930532e-12,5.919244121e-13,1.199539525e-12,2.917363285e-13,2.616366559e-14
1.2578,7.143651091e-13,3.210155932e-13,9.089940000e-13,1.779261025e-13,4.268317372e-14,3.108383117e-13,6.792345064e-13,7.809718873e-14,4.258874772e-14,2.202862526e-13,6.101195060e-13,2.275854100e-13,1.905982132e-13,3.744417533e-13,4.102879981e-13,2.701831355e-13,2.016013363e-13,1.368488312e-13,1.756312808e-13,3.628061588e-13,2.193266470e-13,8.110817067e-14,5.186083375e-14,4.343113076e-13,4.734441706e-13,2.474326592e-13,8.331211772e-13,1.519566508e-12,5.938068513e-13,1.179702242e-12,3.011635407e-13,2.433322663e-14
1.2656,7.165811756e-13,3.265064032e-13,9.065899679e-13,1.776682148e-13,4.165000642e-14,3.036243007e-13,6.876085652e-13,7.868098876e-14,4.154316587e-14,2.255302642e-13,6.350704773e-13,2.265152986e-13,1.849856220e-13,3.623759824e-13,4.098343556e-13,2.641429871e-13,1.961925990e-13,1.252703667e-13,1.665746878e-13,3.788727306e-13,2.256477186e-13,7.910294737e-14,5.209031634e-14,4.479610997e-13,4.822109188e-13,2.482791468e-13,8.285376900e-13,1.504174703e-12,5.967982092e-13,1.165831347e-12,3.064606987e-13,2.224508911e-14
1.2734,7.199802356e-13,3.331437153e-13,9.080747368e-13,1.780252441e-13,4.106657040e-14,2.973770492e-13,6.975948429e-13,7.911814355e-14,4.043728367e-14,2.319780706e-13,6.617247879e-13,2.257048104e-13,1.792961447e-13,3.514645896e-13,4.115778284e-13,2.598558197e-13,1.921276018e-13,1.148106597e-13,1.579582046e-13,3.958215562e-13,2.327344522e-13,7.736824068e-14,5.279036692e-14,4.630583337e-13,4.915047476e-13,2.500046132e-13,8.251710161e-13,1.490948684e-12,6.013174848e-13,1.157462755e-12,3.059714791e-13,2.015037022e-14
1.2812,7.282425941e-13,3.417049500e-13,9.160652071e-13,1.791831902e-13,4.094426668e-14,2.926106652e-13,7.112327223e-13,7.935018436e-14,3.939188931e-14,2.398510744e-13,6.912239491e-13,2.254499149e-13,1.736849959e-13,3.413611623e-13,4.152559468e-13,2.575702184e-13,1.890317836e-13,1.051216738e-13,1.497397922e-13,4.137884722e-13,2.409694781e-13,7.583641931e-14,5.389169402e-14,4.796538625e-13,5.011997098e-13,2.525705407e-13,8.226071455e-13,1.477875103e-12,6.071991536e-13,1.155294210e-12,2.985077981e-13,1.841674577e-14
1.2891,7.400987451e-13,3.518717022e-13,9.283343332e-13,1.810055576e-13,4.119347102e-14,2.888302971e-13,7.265471998e-13,7.926112750e-14,3.857788834e-14,2.489946716e-13,7.225398888e-13,2.257433442e-13,1.681799352e-13,3.318846183e-13,4.211845185e-13,2.570076739e-13,1.872837965e-13,9.631765877e-14,1.418809850e-13,4.328837822e-13,2.500980028e-13,7.456800060e-14,5.610660447e-14,4.959363801e-13,5.103799338e-13,2.558336269e-13,8.208267420e-13,1.462929124e-12,6.143662191e-13,1.158410886e-12,2.847400936e-13,1.711876452e-14
1.2969,7.563567906e-13,3.642700245e-13,9.455118687e-13,1.839119147e-13,4.169472885e-14,2.862933819e-13,7.445049171e-13,7.893910205e-14,3.801124798e-14,2.594376232e-13,7.560219813e-13,2.265130539e-13,1.627192094e-13,3.228556894e-13,4.292257329e-13,2.581629614e-13,1.865817877e-13,8.807620710e-14,1.342518420e-13,4.534461481e-13,2.601646979e-13,7.342413116e-14,5.900146614e-14,5.136674555e-13,5.201028656e-13,2.596871223e-13,8.198115488e-13,1.449385922e-12,6.230135774e-13,1.168230331e-12,2.648644705e-13,1.635105136e-14
1.3047,7.767069182e-13,3.775669681e-13,9.673448793e-13,1.872084301e-13,4.236335560e-14,2.846442519e-13,7.647561345e-13,7.852520225e-14,3.772905140e-14,2.711383031e-13,7.920939143e-13,2.277209884e-13,1.572677708e-13,3.139825481e-13,4.391973648e-13,2.610657837e-13,1.867091916e-13,8.025105506e-14,1.268425156e-13,4.755965119e-13,2.712427972e-13,7.220246051e-14,6.232785362e-14,5.329318859e-13,5.291251431e-13,2.636730607e-13,8.183739967e-13,1.433596981e-12,6.324319685e-13,1.180328444e-12,2.390083257e-13,1.622699664e-14
1.3125,7.988425263e-13,3.914357810e-13,9.924562792e-13,1.909452661e-13,4.301510647e-14,2.837857591e-13,7.864467183e-13,7.803913350e-14,3.783921095e-14,2.839079466e-13,8.297754065e-13,2.291589134e-13,1.522866633e-13,3.049546543e-13,4.508134336e-13,2.652727834e-13,1.879062952e-13,7.309992071e-14,1.197265506e-13,4.989015247e-13,2.828073512e-13,7.115395936e-14,6.629542704e-14,5.514783339e-13,5.360643596e-13,2.671869270e-13,8.161520971e-13,1.412778274e-12,6.420339672e-13,1.191922735e-12,2.100474238e-13,1.673231275e-14
1.3203,8.257864371e-13,4.075289160e-13,1.024227339e-12,1.961063491e-13,4.352163226e-14,2.844717094e-13,8.123626912e-13,7.762440300e-14,3.831677627e-14,2.976140750e-13,8.692477556e-13,2.306737204e-13,1.478965633e-13,2.954533310e-13,4.632264763e-13,2.706373905e-13,1.897848865e-13,6.641994120e-14,1.130144707e-13,5.233406710e-13,2.948817781e-13,7.026491035e-14,7.034148960e-14,5.703269843e-13,5.420705175e-13,2.700791979e-13,8.132491047e-13,1.391484633e-12,6.519533206e-13,1.206315340e-12,1.807602282e-13,1.783547545e-14
1.3281,8.549860575e-13,4.237457381e-13,1.059838623e-12,2.017710711e-13,4.385071517e-14,2.857025500e-13,8.401037884e-13,7.745364707e-14,3.910938207e-14,3.118614551e-13,9.099686720e-13,2.321810481e-13,1.437579565e-13,2.856529652e-13,4.767280494e-13,2.771673323e-13,1.925011363e-13,6.014896804e-14,1.067771901e-13,5.492403745e-13,3.075508183e-13,6.936828621e-14,7.433810280e-14,5.895282602e-13,5.463632455e-13,2.722839872e-13,8.088146395e-13,1.367889361e-12,6.618661143e-13,1.219135539e-12,1.531795405e-13,1.929217495e-14
1.3359,8.833477963e-13,4.396941327e-13,1.096953571e-12,2.077722112e-13,4.389727667e-14,2.873417955e-13,8.683980155e-13,7.757476574e-14,4.014659143e-14,3.267737401e-13,9.520301215e-13,2.337716145e-13,1.400564663e-13,2.759185485e-13,4.918140920e-13,2.850683157e-13,1.964305119e-13,5.446948883e-14,1.010705371e-13,5.762707548e-13,3.203404373e-13,6.855231208e-14,7.820568371e-14,6.077990754e-13,5.484793650e-13,2.733624461e-13,8.027199887e-13,1.339750217e-12,6.715128033e-13,1.226577887e-12,1.302266882e-13,2.084953497e-14
1.3438,9.147454168e-13,4.572329213e-13,1.140011875e-12,2.148027444e-13,4.356819016e-14,2.904331976e-13,9.002364171e-13,7.804276384e-14,4.129767590e-14,3.427127367e-13,9.960048543e-13,2.355407944e-13,1.368536472e-13,2.663280538e-13,5.076047199e-13,2.943026131e-13,2.010586690e-13,4.926592151e-14,9.588021565e-14,6.033441406e-13,3.330663867e-13,6.772708875e-14,8.141406397e-14,6.253579021e-13,5.490717378e-13,2.729079329e-13,7.950460812e-13,1.309279192e-12,6.806814356e-13,1.231186227e-12,1.142516965e-13,2.238085516e-14
1.3516,9.465616471e-13,4.746015831e-13,1.186762834e-12,2.222391743e-13,4.281812378e-14,2.944382126e-13,9.339970083e-13,7.888267473e-14,4.249369231e-14,3.592241937e-13,1.040052725e-12,2.371537245e-13,1.339760642e-13,2.571441104e-13,5.236490799e-13,3.041891530e-13,2.061767455e-13,4.447469118e-14,9.110425561e-14,6.295995154e-13,3.454133791e-13,6.695308628e-14,8.381438658e-14,6.415133249e-13,5.473588460e-13,2.708117924e-13,7.851812656e-13,1.276403480e-12,6.884447821e-13,1.230959580e-12,1.069714043e-13,2.360294111e-14
1.3594,9.748092836e-13,4.911595161e-13,1.234379796e-12,2.301107835e-13,4.167715970e-14,2.991289220e-13,9.686787737e-13,8.004778738e-14,4.359511440e-14,3.760629274e-13,1.083513615e-12,2.383209939e-13,1.315319373e-13,2.486296087e-13,5.403227232e-13,3.146377130e-13,2.117965151e-13,4.016845070e-14,8.691800489e-14,6.546576591e-13,3.566476489e-13,6.633486596e-14,8.528183690e-14,6.554998266e-13,5.436490387e-13,2.671816212e-13,7.731829631e-13,1.241122366e-12,6.944786756e-13,1.222789667e-12,1.091315479e-13,2.438430026e-14
1.3672,1.000849167e-12,5.078274535e-13,1.284151744e-12,2.384169750e-13,4.026758903e-14,3.044696833e-13,1.004246634e-12,8.141111431e-14,4.440496794e-14,3.933403997e-13,1.126437901e-12,2.391026811e-13,1.291325407e-13,2.408000498e-13,5.572223724e-13,3.254839426e-13,2.174639889e-13,3.646443975e-14,8.352175459e-14,6.774596724e-13,3.664677692e-13,6.562402947e-14,8.574622680e-14,6.671260250e-13,5.383417813e-13,2.622988156e-13,7.595980483e-13,1.202915186e-12,6.992588618e-13,1.207033465e-12,1.205427923e-13,2.470909144e-14
1.375,1.024067369e-12,5.246264938e-13,1.334275213e-12,2.469598870e-13,3.863237736e-14,3.102653895e-13,1.039246501e-12,8.278762253e-14,4.489844028e-14,4.106690075e-13,1.167125756e-12,2.394359228e-13,1.265215589e-13,2.337733389e-13,5.731928514e-13,3.357662945e-13,2.227763082e-13,3.332055065e-14,8.064996594e-14,6.967181618e-13,3.748522576e-13,6.487450661e-14,8.518686323e-14,6.759414467e-13,5.313344111e-13,2.564272862e-13,7.449759447e-13,1.162817539e-12,7.027431168e-13,1.185466670e-12,1.412596482e-13,2.445261867e-14
1.3828,1.043438360e-12,5.419400678e-13,1.383873165e-12,2.564273427e-13,3.686940235e-14,3.170196850e-13,1.074489138e-12,8.410906569e-14,4.502319468e-14,4.277135797e-13,1.204994447e-12,2.391170284e-13,1.239836858e-13,2.276405553e-13,5.878415532e-13,3.453201685e-13,2.276793130e-13,3.048178452e-14,7.800991455e-14,7.124363682e-13,3.815349621e-13,6.415925832e-14,8.355479989e-14,6.823404501e-13,5.237655526e-13,2.497785687e-13,7.295237650e-13,1.124005101e-12,7.047103403e-13,1.159062826e-12,1.691547258e-13,2.370335466e-14
1.3906,1.058217213e-12,5.589086594e-13,1.432782391e-12,2.664102235e-13,3.517875732e-14,3.241624418e-13,1.109105533e-12,8.535533708e-14,4.462989800e-14,4.444499525e-13,1.240161417e-12,2.380810875e-13,1.211824733e-13,2.224976398e-13,6.016645604e-13,3.543973506e-13,2.324989837e-13,2.802335888e-14,7.547028964e-14,7.252819104e-13,3.863839903e-13,6.319050177e-14,8.128892728e-14,6.865028189e-13,5.158014321e-13,2.427111932e-13,7.131553949e-13,1.085007100e-12,7.052975450e-13,1.126432345e-12,2.006274140e-13,2.256110534e-14
1.3984,1.068274017e-12,5.756331637e-13,1.479815311e-12,2.766427310e-13,3.362172354e-14,3.312974758e-13,1.142433473e-12,8.643903722e-14,4.375309859e-14,4.609623002e-13,1.272367085e-12,2.363804197e-13,1.180460597e-13,2.183936151e-13,6.143544183e-13,3.626608936e-13,2.372440069e-13,2.606512338e-14,7.286158564e-14,7.352333565e-13,3.897777202e-13,6.206032109e-14,7.878653911e-14,6.882337213e-13,5.076689412e-13,2.357522616e-13,6.969070881e-13,1.045349140e-12,7.047586801e-13,1.089463035e-12,2.336203531e-13,2.115109092e-14
1.4062,1.075031349e-12,5.929419396e-13,1.524435715e-12,2.877214588e-13,3.232853302e-14,3.388549575e-13,1.175416401e-12,8.733176579e-14,4.250749527e-14,4.771962532e-13,1.301606736e-12,2.340254486e-13,1.150052891e-13,2.149579974e-13,6.253473239e-13,3.699698846e-13,2.414314470e-13,2.443135720e-14,7.026629182e-14,7.416580413e-13,3.920059217e-13,6.094596496e-14,7.622808703e-14,6.882062376e-13,5.004480215e-13,2.294424923e-13,6.817859424e-13,1.007963215e-12,7.035019136e-13,1.051991708e-12,2.653943938e-13,1.984700929e-14
1.4141,1.077818422e-12,6.094558293e-13,1.565076191e-12,2.991825512e-13,3.150414917e-14,3.463626946e-13,1.206256487e-12,8.808298869e-14,4.093953627e-14,4.927754986e-13,1.327821175e-12,2.310335975e-13,1.118365177e-13,2.118489164e-13,6.351694335e-13,3.764280284e-13,2.450916913e-13,2.309905599e-14,6.786321665e-14,7.447256643e-13,3.927410651e-13,5.969483261e-14,7.393050948e-14,6.867513232e-13,4.938617707e-13,2.241178911e-13,6.676860232e-13,9.730604554e-13,7.020052215e-13,1.013932177e-12,2.926518445e-13,1.878863377e-14
1.4219,1.076336399e-12,6.251922530e-13,1.601557566e-12,3.109260651e-13,3.113723602e-14,3.537909242e-13,1.235063739e-12,8.877587978e-14,3.913966811e-14,5.077620013e-13,1.350941220e-12,2.275886801e-13,1.085889136e-13,2.089642503e-13,6.437827759e-13,3.818698868e-13,2.485174414e-13,2.213680437e-14,6.551905720e-14,7.456347937e-13,3.919468437e-13,5.830297145e-14,7.219991778e-14,6.837446917e-13,4.879458449e-13,2.199002413e-13,6.550921378e-13,9.401751016e-13,7.006042899e-13,9.756118070e-13,3.133892941e-13,1.802431893e-14
1.4297,1.072441480e-12,6.407603858e-13,1.634578387e-12,3.232745509e-13,3.123518580e-14,3.613382139e-13,1.263228075e-12,8.951386492e-14,3.723655196e-14,5.225273420e-13,1.370115447e-12,2.238397421e-13,1.055859225e-13,2.060794693e-13,6.502914408e-13,3.861808240e-13,2.516473720e-13,2.154465437e-14,6.311768329e-14,7.450346310e-13,3.904942345e-13,5.681657148e-14,7.131981722e-14,6.801295206e-13,4.833550591e-13,2.168779698e-13,6.446691345e-13,9.101867333e-13,6.997292934e-13,9.401491642e-13,3.258807514e-13,1.780080012e-14
1.4375,1.067731116e-12,6.555471715e-13,1.663960634e-12,3.361559815e-13,3.186033383e-14,3.688820091e-13,1.290139444e-12,9.039597943e-14,3.536409204e-14,5.368307783e-13,1.385244222e-12,2.197466257e-13,1.027347725e-13,2.030421325e-13,6.549581484e-13,3.897760291e-13,2.546413477e-13,2.133233620e-14,6.076159050e-14,7.433500234e-13,3.889574582e-13,5.526471819e-14,7.133050281e-14,6.769570837e-13,4.801128248e-13,2.150927116e-13,6.363769440e-13,8.849828319e-13,6.999948204e-13,9.102533068e-13,3.294702556e-13,1.819379635e-14
1.4453,1.062468496e-12,6.698832457e-13,1.690531220e-12,3.497611394e-13,3.295940108e-14,3.767694820e-13,1.316162153e-12,9.154781098e-14,3.358571862e-14,5.503402119e-13,1.397772392e-12,2.152701762e-13,1.001795274e-13,1.996357244e-13,6.585283261e-13,3.930278241e-13,2.580307689e-13,2.154106559e-14,5.852762294e-14,7.414606225e-13,3.870262630e-13,5.370704367e-14,7.235706545e-14,6.737178070e-13,4.780552048e-13,2.145024814e-13,6.300173933e-13,8.639256818e-13,7.017118184e-13,8.851378435e-13,3.244249155e-13,1.913133860e-14
1.4531,1.056820307e-12,6.836743409e-13,1.714374092e-12,3.637879230e-13,3.450768721e-14,3.847820741e-13,1.341042247e-12,9.305807886e-14,3.189303041e-14,5.630975094e-13,1.407363909e-12,2.104355117e-13,9.782361234e-14,1.954132510e-13,6.606370581e-13,3.956742830e-13,2.618901734e-13,2.227266871e-14,5.652894281e-14,7.394131113e-13,3.846424034e-13,5.200623840e-14,7.446007061e-14,6.700773148e-13,4.765933123e-13,2.148441976e-13,6.251951297e-13,8.440364512e-13,7.048035751e-13,8.634958679e-13,3.116658395e-13,2.049095411e-14
1.4609,1.052914491e-12,6.967212685e-13,1.734904436e-12,3.781521424e-13,3.640572137e-14,3.928464689e-13,1.364268589e-12,9.492489487e-14,3.041783952e-14,5.749891002e-13,1.412850798e-12,2.053128692e-13,9.552642956e-14,1.903238215e-13,6.607833079e-13,3.975680154e-13,2.655705800e-13,2.335192122e-14,5.492533770e-14,7.367374257e-13,3.820910210e-13,5.020447156e-14,7.693417612e-14,6.663911591e-13,4.753157255e-13,2.155782212e-13,6.216277649e-13,8.266609426e-13,7.089160529e-13,8.474153898e-13,2.938257755e-13,2.208782379e-14
1.4688,1.050056793e-12,7.088100685e-13,1.751673847e-12,3.930354515e-13,3.846535940e-14,4.011364352e-13,1.385619017e-12,9.715340466e-14,2.931311791e-14,5.857710459e-13,1.414383778e-12,2.000882071e-13,9.379726232e-14,1.846815235e-13,6.591803464e-13,3.987852200e-13,2.687625180e-13,2.448074422e-14,5.362738767e-14,7.334329223e-13,3.791334069e-13,4.851123255e-14,7.954811587e-14,6.618198137e-13,4.740070873e-13,2.164437998e-13,6.188464443e-13,8.119810253e-13,7.133257832e-13,8.352241646e-13,2.730324008e-13,2.376707808e-14
1.4766,1.046195812e-12,7.191479827e-13,1.764248053e-12,4.078180424e-13,4.057606322e-14,4.089755220e-13,1.403649450e-12,9.972838495e-14,2.855537495e-14,5.954659915e-13,1.411944601e-12,1.949619979e-13,9.263980495e-14,1.786531602e-13,6.559974432e-13,3.992925049e-13,2.719397740e-13,2.577187714e-14,5.241499461e-14,7.295865579e-13,3.756509515e-13,4.683241600e-14,8.260066977e-14,6.563530894e-13,4.725910447e-13,2.174604051e-13,6.163543933e-13,7.974288304e-13,7.178926843e-13,8.232518281e-13,2.514708468e-13,2.532780830e-14
1.4844,1.043582836e-12,7.287316473e-13,1.772727725e-12,4.224335392e-13,4.259846355e-14,4.162803506e-13,1.418784930e-12,1.025129694e-13,2.810249411e-14,6.040856709e-13,1.405437295e-12,1.898827321e-13,9.173908738e-14,1.722770152e-13,6.511718507e-13,3.992668476e-13,2.752878990e-13,2.735599192e-14,5.132666598e-14,7.253515143e-13,3.720372833e-13,4.511113104e-14,8.552992000e-14,6.509056228e-13,4.714911434e-13,2.182420209e-13,6.144547690e-13,7.843709580e-13,7.230647007e-13,8.133499628e-13,2.329515425e-13,2.660451131e-14
1.4922,1.041569583e-12,7.377240130e-13,1.775989446e-12,4.369340155e-13,4.445398892e-14,4.231155981e-13,1.431543849e-12,1.053625792e-13,2.791700987e-14,6.113995290e-13,1.394840885e-12,1.845866697e-13,9.123689273e-14,1.655013433e-13,6.445377779e-13,3.985583051e-13,2.783562440e-13,2.910598473e-14,5.054305730e-14,7.204805342e-13,3.680112091e-13,4.340216363e-14,8.778605150e-14,6.442462621e-13,4.699020525e-13,2.183372658e-13,6.125724728e-13,7.723222438e-13,7.280575063e-13,8.046692464e-13,2.195157613e-13,2.748771658e-14
1.5,1.037325259e-12,7.447042718e-13,1.773964704e-12,4.509025830e-13,4.611720654e-14,4.290893495e-13,1.441171497e-12,1.082091053e-13,2.794345697e-14,6.175423554e-13,1.379793827e-12,1.790234452e-13,9.111589078e-14,1.583820702e-13,6.357358754e-13,3.967715624e-13,2.808211654e-13,3.094986128e-14,5.002297842e-14,7.138958724e-13,3.626919243e-13,4.163809430e-14,8.936110520e-14,6.350095339e-13,4.667781063e-13,2.176990506e-13,6.094439518e-13,7.588620402e-13,7.314353083e-13,7.927878777e-13,2.119838058e-13,2.787935109e-14
1.5078,1.030783143e-12,7.499996884e-13,1.767095066e-12,4.642899654e-13,4.744958712e-14,4.343069043e-13,1.448297139e-12,1.108615413e-13,2.816382104e-14,6.229005792e-13,1.360290622e-12,1.735030055e-13,9.134827039e-14,1.512618387e-13,6.247947894e-13,3.940134210e-13,2.826454148e-13,3.287853328e-14,4.959933507e-14,7.047779600e-13,3.558463969e-13,3.984704955e-14,9.006779575e-14,6.231296657e-13,4.624250746e-13,2.162700993e-13,6.053081740e-13,7.438518725e-13,7.328095141e-13,7.767649898e-13,2.117567840e-13,2.776940598e-14
1.5156,1.020575011e-12,7.537544213e-13,1.753399960e-12,4.766580508e-13,4.844094791e-14,4.384817964e-13,1.452553795e-12,1.130243174e-13,2.851894243e-14,6.273017055e-13,1.336778912e-12,1.682891940e-13,9.205736146e-14,1.444964682e-13,6.122072999e-13,3.903563754e-13,2.836220940e-13,3.486589345e-14,4.928393764e-14,6.932676370e-13,3.477924220e-13,3.806886137e-14,8.975928729e-14,6.088126716e-13,4.570750715e-13,2.140405088e-13,6.006327475e-13,7.270399734e-13,7.322687090e-13,7.570741146e-13,2.187595734e-13,2.716204192e-14
1.5234,1.006526014e-12,7.555558042e-13,1.733080558e-12,4.877738057e-13,4.916656068e-14,4.413659548e-13,1.453516208e-12,1.146175463e-13,2.894908242e-14,6.307258958e-13,1.310067047e-12,1.633783847e-13,9.320362151e-14,1.383645566e-13,5.985509284e-13,3.859436660e-13,2.836188271e-13,3.689376250e-14,4.913207792e-14,6.798546660e-13,3.387163994e-13,3.630259619e-14,8.871725146e-14,5.928863053e-13,4.511208344e-13,2.113268657e-13,5.953215760e-13,7.100722522e-13,7.299571133e-13,7.342013420e-13,2.319882685e-13,2.621949841e-14
1.5312,9.886151704e-13,7.556239296e-13,1.706902963e-12,4.976967729e-13,4.959319983e-14,4.431899244e-13,1.452626218e-12,1.156771081e-13,2.944444106e-14,6.338736166e-13,1.280911931e-12,1.588186789e-13,9.479690160e-14,1.330193766e-13,5.842652181e-13,3.811452176e-13,2.829312557e-13,3.900720345e-14,4.904724041e-14,6.646706793e-13,3.286540724e-13,3.461706979e-14,8.741826013e-14,5.755167997e-13,4.447734796e-13,2.084443568e-13,5.896443037e-13,6.931661903e-13,7.261232552e-13,7.074220917e-13,2.500365585e-13,2.515117400e-14
1.5391,9.655831870e-13,7.540944907e-13,1.674384936e-12,5.061858833e-13,4.986344643e-14,4.439644908e-13,1.450825484e-12,1.161441532e-13,2.997826114e-14,6.370878545e-13,1.249798837e-12,1.548048747e-13,9.691499802e-14,1.284471490e-13,5.691183894e-13,3.758219625e-13,2.815321335e-13,4.118648520e-14,4.896600563e-14,6.477079981e-13,3.174732913e-13,3.297741479e-14,8.584308282e-14,5.563414592e-13,4.376959673e-13,2.055422941e-13,5.838551639e-13,6.745780300e-13,7.209212106e-13,6.767145535e-13,2.707900215e-13,2.394791942e-14
1.5469,9.392958495e-13,7.515473942e-13,1.637341106e-12,5.139310163e-13,5.021493404e-14,4.441628675e-13,1.448614173e-12,1.160323325e-13,3.049898147e-14,6.401363629e-13,1.216782946e-12,1.513216533e-13,9.956647531e-14,1.246579005e-13,5.528705384e-13,3.698032006e-13,2.791175305e-13,4.326517647e-14,4.882485437e-14,6.290937621e-13,3.048671497e-13,3.136212068e-14,8.379521505e-14,5.353895458e-13,4.303541097e-13,2.027143416e-13,5.782204091e-13,6.563326388e-13,7.147380808e-13,6.450170276e-13,2.924593544e-13,2.277879951e-14
1.5547,9.089959067e-13,7.474749500e-13,1.595774946e-12,5.209411177e-13,5.065325480e-14,4.436917443e-13,1.445246062e-12,1.154064484e-13,3.092352454e-14,6.428350268e-13,1.181200361e-12,1.482204477e-13,1.025667029e-13,1.216153517e-13,5.357728801e-13,3.630898483e-13,2.759467318e-13,4.537286170e-14,4.844966086e-14,6.087993787e-13,2.909834057e-13,2.983419680e-14,8.182533329e-14,5.125845615e-13,4.229106051e-13,2.000960033e-13,5.728046784e-13,6.385893309e-13,7.076475343e-13,6.120624194e-13,3.124440496e-13,2.188698766e-14
1.5625,8.729184207e-13,7.407057859e-13,1.548419734e-12,5.261286200e-13,5.116481597e-14,4.417151094e-13,1.439626642e-12,1.143046684e-13,3.122649942e-14,6.451316970e-13,1.143205969e-12,1.456285618e-13,1.056301848e-13,1.193450316e-13,5.178385732e-13,3.556394013e-13,2.722489561e-13,4.781973489e-14,4.787219012e-14,5.870725578e-13,2.765909417e-13,2.837558507e-14,8.052180726e-14,4.890052782e-13,4.151781665e-13,1.979262378e-13,5.672871685e-13,6.200495896e-13,6.994088830e-13,5.766289513e-13,3.281337758e-13,2.126247766e-14
1.5703,8.347498267e-13,7.324523424e-13,1.496220993e-12,5.301614443e-13,5.188162125e-14,4.387916010e-13,1.433406871e-12,1.129042012e-13,3.145096094e-14,6.473566409e-13,1.103927144e-12,1.438340990e-13,1.087576610e-13,1.180043514e-13,4.994523024e-13,3.480131725e-13,2.680631931e-13,5.057980226e-14,4.727945660e-14,5.644742542e-13,2.621504345e-13,2.697548793e-14,7.970747984e-14,4.659045408e-13,4.079213572e-13,1.963460453e-13,5.621631102e-13,6.032897511e-13,6.909085794e-13,5.423580252e-13,3.391590283e-13,2.096743333e-14
1.5781,7.966775859e-13,7.239874753e-13,1.440063202e-12,5.339019111e-13,5.287087387e-14,4.357055136e-13,1.427587123e-12,1.114077635e-13,3.158155838e-14,6.499523603e-13,1.063690067e-12,1.428715584e-13,1.121153749e-13,1.174549872e-13,4.811690087e-13,3.405875801e-13,2.637701891e-13,5.367154939e-14,4.662517806e-14,5.412183281e-13,2.475430087e-13,2.565329011e-14,7.923281878e-14,4.431705487e-13,4.015173387e-13,1.953272879e-13,5.580540319e-13,5.891230380e-13,6.833316756e-13,5.118227639e-13,3.453119880e-13,2.102348705e-14
1.5859,7.585318173e-13,7.143606893e-13,1.381711375e-12,5.367531885e-13,5.408099460e-14,4.320898209e-13,1.420514005e-12,1.098442387e-13,3.161778514e-14,6.526859705e-13,1.022227314e-12,1.424800311e-13,1.156428643e-13,1.173939323e-13,4.625341014e-13,3.327763265e-13,2.593870358e-13,5.720828996e-14,4.581520544e-14,5.175447539e-13,2.327703881e-13,2.443205187e-14,7.945133935e-14,4.208240156e-13,3.954195513e-13,1.947484366e-13,5.543749907e-13,5.758679272e-13,6.766130494e-13,4.834694746e-13,3.457525206e-13,2.133507287e-14
1.5938,7.220283171e-13,7.032975432e-13,1.322525583e-12,5.385974582e-13,5.546975249e-14,4.279478727e-13,1.412354246e-12,1.082109055e-13,3.158256171e-14,6.552441387e-13,9.794463465e-13,1.425003565e-13,1.190214324e-13,1.176346673e-13,4.431435253e-13,3.242247475e-13,2.545680869e-13,6.099859764e-14,4.490905674e-14,4.938668850e-13,2.181477011e-13,2.329119271e-14,8.018086826e-14,3.991383895e-13,3.892220911e-13,1.943204202e-13,5.506076852e-13,5.632405563e-13,6.703801139e-13,4.570815333e-13,3.411565270e-13,2.190146118e-14
1.6016,6.886421932e-13,6.918939018e-13,1.262766983e-12,5.397341860e-13,5.701536001e-14,4.237905453e-13,1.404846281e-12,1.066066660e-13,3.146901116e-14,6.579279746e-13,9.358003919e-13,1.430446749e-13,1.220656332e-13,1.180628498e-13,4.232116636e-13,3.151549249e-13,2.494184829e-13,6.495314161e-14,4.396082457e-14,4.707309711e-13,2.039626672e-13,2.212825933e-14,8.081239121e-14,3.786633405e-13,3.831743775e-13,1.939082435e-13,5.468977948e-13,5.521553049e-13,6.645670304e-13,4.348219164e-13,3.331045922e-13,2.265226888e-14
1.6094,6.576169077e-13,6.794894537e-13,1.202795426e-12,5.398254647e-13,5.865315812e-14,4.193756700e-13,1.397041419e-12,1.051176948e-13,3.134346111e-14,6.609668315e-13,8.916967220e-13,1.442219421e-13,1.248519122e-13,1.188904777e-13,4.032393425e-13,3.059052168e-13,2.443537398e-13,6.922978507e-14,4.302793180e-14,4.487708197e-13,1.902894369e-13,2.101496352e-14,8.167805006e-14,3.597550812e-13,3.776002744e-13,1.936410870e-13,5.431889401e-13,5.430240461e-13,6.590609356e-13,4.156235263e-13,3.226636290e-13,2.357097077e-14
1.6172,6.274216187e-13,6.650886479e-13,1.141642069e-12,5.384925897e-13,6.024211983e-14,4.143755784e-13,1.388185245e-12,1.037187385e-13,3.127999449e-14,6.644166820e-13,8.469578942e-13,1.461022898e-13,1.273587570e-13,1.203653318e-13,3.839282440e-13,2.968912047e-13,2.396408886e-13,7.382559079e-14,4.217065877e-14,4.276932822e-13,1.771666220e-13,2.006102345e-14,8.287636295e-14,3.419892477e-13,3.721227606e-13,1.932623227e-13,5.392731789e-13,5.343985890e-13,6.538604353e-13,3.968944319e-13,3.109817359e-13,2.460808414e-14
1.625,5.996334062e-13,6.501018194e-13,1.081216010e-12,5.360193514e-13,6.162172954e-14,4.094538680e-13,1.380581978e-12,1.024159775e-13,3.130784876e-14,6.686218926e-13,8.022723650e-13,1.487905307e-13,1.296508691e-13,1.224092347e-13,3.651815160e-13,2.880479354e-13,2.350077716e-13,7.855586326e-14,4.136705988e-14,4.069656874e-13,1.647196448e-13,1.916553076e-14,8.366038997e-14,3.260023009e-13,3.662996038e-13,1.922801744e-13,5.346792896e-13,5.254684420e-13,6.486635665e-13,3.796943230e-13,2.993646663e-13,2.552972878e-14
1.6328,5.754661428e-13,6.350676986e-13,1.024062216e-12,5.327426774e-13,6.273019263e-14,4.049499939e-13,1.374749428e-12,1.012508387e-13,3.147587273e-14,6.737713902e-13,7.585914156e-13,1.523454192e-13,1.319551994e-13,1.250538855e-13,3.468605697e-13,2.790232676e-13,2.300494243e-13,8.318411395e-14,4.062773121e-14,3.873023040e-13,1.530695899e-13,1.833570369e-14,8.407543987e-14,3.126472539e-13,3.602759499e-13,1.906511948e-13,5.289566495e-13,5.170707782e-13,6.428291325e-13,3.643545746e-13,2.887335649e-13,2.639182694e-14
1.6406,5.518068479e-13,6.189713043e-13,9.679233728e-13,5.281782661e-13,6.355384889e-14,4.003450795e-13,1.369605533e-12,1.000905811e-13,3.178756263e-14,6.797984315e-13,7.160578176e-13,1.568384262e-13,1.344121228e-13,1.284682586e-13,3.298635041e-13,2.701926969e-13,2.250973833e-13,8.769277052e-14,4.006126797e-14,3.697030926e-13,1.424306254e-13,1.770371569e-14,8.424541562e-14,3.018054101e-13,3.543647659e-13,1.884455939e-13,5.222857162e-13,5.094343914e-13,6.359964609e-13,3.491770807e-13,2.796562861e-13,2.728551513e-14
1.6484,5.267100100e-13,6.014474267e-13,9.125271183e-13,5.218591332e-13,6.407657981e-14,3.956444885e-13,1.365956749e-12,9.882292196e-14,3.222589658e-14,6.868885618e-13,6.752622629e-13,1.623192932e-13,1.371985340e-13,1.327552010e-13,3.145311911e-13,2.621428195e-13,2.205480194e-13,9.225831891e-14,3.976043094e-14,3.544375628e-13,1.328762596e-13,1.727044979e-14,8.402289105e-14,2.933970320e-13,3.482467628e-13,1.856185446e-13,5.145349774e-13,5.016642377e-13,6.278535895e-13,3.327515529e-13,2.720965354e-13,2.807082922e-14
1.6562,5.017010608e-13,5.829502469e-13,8.602373588e-13,5.144374056e-13,6.433811447e-14,3.914302963e-13,1.365121560e-12,9.755732930e-14,3.279624461e-14,6.953135201e-13,6.366755098e-13,1.688341885e-13,1.402388645e-13,1.379899448e-13,3.004820727e-13,2.548681526e-13,2.161735575e-13,9.676139679e-14,3.967761842e-14,3.413309007e-13,1.242284989e-13,1.693920134e-14,8.364363633e-14,2.872932513e-13,3.419434163e-13,1.823733373e-13,5.058646757e-13,4.939524625e-13,6.186628184e-13,3.152400249e-13,2.661528203e-13,2.888231166e-14
1.6641,4.785027563e-13,5.651650007e-13,8.112636139e-13,5.067072301e-13,6.435012708e-14,3.881373091e-13,1.368244577e-12,9.631556764e-14,3.348224045e-14,7.050673722e-13,6.002555890e-13,1.764854556e-13,1.433531630e-13,1.441409086e-13,2.879016727e-13,2.482284220e-13,2.118649756e-13,1.010104590e-13,3.966992395e-14,3.303309587e-13,1.166038654e-13,1.666646701e-14,8.294619893e-14,2.840584069e-13,3.366801247e-13,1.789236235e-13,4.972929012e-13,4.885737503e-13,6.094407653e-13,2.997967976e-13,2.621029476e-13,2.979341151e-14
1.6719,4.559103701e-13,5.480047916e-13,7.648643837e-13,4.983768987e-13,6.412178787e-14,3.855205379e-13,1.374471831e-12,9.498578438e-14,3.427662881e-14,7.160277426e-13,5.661233108e-13,1.851884402e-13,1.466957742e-13,1.511916503e-13,2.770570335e-13,2.420006711e-13,2.076351688e-13,1.050138296e-13,3.976454052e-14,3.215697190e-13,1.101215319e-13,1.659103095e-14,8.215535227e-14,2.838789675e-13,3.321386386e-13,1.752224565e-13,4.885228418e-13,4.847303872e-13,6.004847622e-13,2.856805980e-13,2.587945079e-13,3.062883302e-14
1.6797,4.338533804e-13,5.308767283e-13,7.214034064e-13,4.894108204e-13,6.374406218e-14,3.835132285e-13,1.383191059e-12,9.359278665e-14,3.513039845e-14,7.282834885e-13,5.341738514e-13,1.947774589e-13,1.503289447e-13,1.590302334e-13,2.675632657e-13,2.358397818e-13,2.030939813e-13,1.086636776e-13,4.011572639e-14,3.146407389e-13,1.045394695e-13,1.672708009e-14,8.158988718e-14,2.858859668e-13,3.274529838e-13,1.712708081e-13,4.793173305e-13,4.808769637e-13,5.920416051e-13,2.716452939e-13,2.554308166e-13,3.151520204e-14
1.6875,4.167071202e-13,5.163453887e-13,6.840509379e-13,4.806815899e-13,6.323357900e-14,3.831313672e-13,1.397316915e-12,9.220837211e-14,3.592509043e-14,7.418469960e-13,5.045507400e-13,2.051472009e-13,1.544363930e-13,1.673383115e-13,2.590446214e-13,2.299582514e-13,1.982658121e-13,1.120777144e-13,4.066269935e-14,3.091461566e-13,9.981250105e-14,1.686649075e-14,8.069718321e-14,2.905794551e-13,3.237241417e-13,1.671553446e-13,4.707096123e-13,4.797291599e-13,5.848346725e-13,2.624926561e-13,2.523781247e-13,3.256178445e-14
1.6953,4.043344238e-13,5.040904461e-13,6.535986611e-13,4.719473397e-13,6.254715947e-14,3.842765676e-13,1.415997754e-12,9.081156089e-14,3.660335227e-14,7.562234218e-13,4.772053461e-13,2.160204176e-13,1.592049744e-13,1.759017468e-13,2.518133675e-13,2.246656900e-13,1.937033922e-13,1.155749235e-13,4.127747279e-14,3.052485654e-13,9.595544314e-14,1.703689760e-14,7.970000574e-14,2.979137747e-13,3.204368665e-13,1.628143625e-13,4.620046447e-13,4.803878978e-13,5.784855842e-13,2.574940373e-13,2.487246558e-13,3.363346239e-14
1.7031,3.950566656e-13,4.926449363e-13,6.277968631e-13,4.627222359e-13,6.171508235e-14,3.861616039e-13,1.436683233e-12,8.940886631e-14,3.720139231e-14,7.711442338e-13,4.515772908e-13,2.272290329e-13,1.642825620e-13,1.844860983e-13,2.457564259e-13,2.195508959e-13,1.891064025e-13,1.189231171e-13,4.200262599e-14,3.026816267e-13,9.282269833e-14,1.727960582e-14,7.886450688e-14,3.068194567e-13,3.166075339e-13,1.582180715e-13,4.525965029e-13,4.806250605e-13,5.729722268e-13,2.541751538e-13,2.440986046e-13,3.474030873e-14
1.7109,3.924654743e-13,4.844439316e-13,6.086565626e-13,4.537989968e-13,6.078144911e-14,3.895836965e-13,1.461835110e-12,8.805989646e-14,3.776257002e-14,7.869354703e-13,4.278560582e-13,2.388907016e-13,1.696792982e-13,1.929787849e-13,2.402957638e-13,2.143433818e-13,1.840266992e-13,1.219405140e-13,4.279198676e-14,3.010499220e-13,9.039459278e-14,1.745241963e-14,7.799468559e-14,3.178102214e-13,3.135451285e-13,1.535196153e-13,4.437277448e-13,4.826125443e-13,5.695425933e-13,2.553485303e-13,2.392613645e-13,3.591779515e-14
1.7188,3.971333167e-13,4.794735690e-13,5.977087183e-13,4.452775224e-13,5.974132418e-14,3.948315951e-13,1.491858046e-12,8.678298236e-14,3.828398184e-14,8.036645969e-13,4.063324250e-13,2.511127733e-13,1.756092848e-13,2.017233074e-13,2.361320164e-13,2.095365785e-13,1.791574586e-13,1.250538299e-13,4.353958666e-14,3.003057291e-13,8.868078838e-14,1.764330348e-14,7.764046052e-14,3.310302855e-13,3.112692864e-13,1.486892802e-13,4.352817505e-13,4.860061850e-13,5.681701292e-13,2.600274926e-13,2.338848481e-13,3.715259798e-14
1.7266,4.081259304e-13,4.765480491e-13,5.935828166e-13,4.366499417e-13,5.852633871e-14,4.015108623e-13,1.525668440e-12,8.559732117e-14,3.874916399e-14,8.213096511e-13,3.871448312e-13,2.639820296e-13,1.818322722e-13,2.108936590e-13,2.339855628e-13,2.055332970e-13,1.749797818e-13,1.284728079e-13,4.432355132e-14,3.003455426e-13,8.784722239e-14,1.795866752e-14,7.756616986e-14,3.464329348e-13,3.093567290e-13,1.434993174e-13,4.266166654e-13,4.906463322e-13,5.678548512e-13,2.677598028e-13,2.280579684e-13,3.844732198e-14
1.7344,4.247004577e-13,4.755660860e-13,5.965737567e-13,4.277436928e-13,5.710847805e-14,4.100007035e-13,1.564047940e-12,8.456162749e-14,3.916074833e-14,8.401586269e-13,3.705624330e-13,2.773894359e-13,1.883907879e-13,2.202408298e-13,2.333217399e-13,2.022064257e-13,1.713719320e-13,1.320622605e-13,4.518947326e-14,3.014543806e-13,8.804296241e-14,1.831259608e-14,7.747138396e-14,3.645285988e-13,3.080155887e-13,1.379324167e-13,4.177053596e-13,4.970291000e-13,5.680223590e-13,2.779826382e-13,2.219474801e-13,3.970227820e-14
1.7422,4.452936464e-13,4.751965751e-13,6.070499562e-13,4.183265032e-13,5.553962194e-14,4.203111011e-13,1.606459454e-12,8.367724980e-14,3.954542921e-14,8.601971634e-13,3.565325143e-13,2.911176810e-13,1.953129604e-13,2.295381864e-13,2.341190412e-13,1.995355348e-13,1.685504969e-13,1.357434750e-13,4.612111206e-14,3.039230039e-13,8.909410032e-14,1.867366272e-14,7.788956495e-14,3.849606584e-13,3.067755058e-13,1.320819552e-13,4.081830610e-13,5.034159027e-13,5.683425099e-13,2.880636051e-13,2.152154349e-13,4.098026218e-14
1.75,4.728832001e-13,4.766428487e-13,6.258710239e-13,4.087985235e-13,5.384125936e-14,4.324709656e-13,1.653973951e-12,8.291148635e-14,3.997390573e-14,8.813740771e-13,3.456469613e-13,3.053683091e-13,2.024598195e-13,2.388317385e-13,2.368997475e-13,1.978807464e-13,1.665608886e-13,1.395254303e-13,4.723881135e-14,3.077021114e-13,9.110632332e-14,1.903007276e-14,7.844578020e-14,4.082368312e-13,3.067862547e-13,1.260726188e-13,3.987973568e-13,5.125440693e-13,5.692575002e-13,3.019882962e-13,2.086129664e-13,4.246341016e-14
1.7578,5.056211739e-13,4.797780818e-13,6.518448238e-13,3.991143812e-13,5.207528817e-14,4.463176562e-13,1.706356203e-12,8.228235156e-14,4.046551334e-14,9.040388769e-13,3.382737170e-13,3.203831129e-13,2.100352254e-13,2.485455429e-13,2.418211970e-13,1.973723413e-13,1.654023791e-13,1.435638342e-13,4.856471633e-14,3.131085958e-13,9.426334596e-14,1.941374408e-14,7.923196277e-14,4.345542774e-13,3.085985998e-13,1.201720680e-13,3.902298512e-13,5.252999941e-13,5.711180836e-13,3.194117835e-13,2.021352171e-13,4.407344832e-14
1.7656,5.396450810e-13,4.822759360e-13,6.822864737e-13,3.886983334e-13,5.030876245e-14,4.612902051e-13,1.761573420e-12,8.175867963e-14,4.094407454e-14,9.281868219e-13,3.339199465e-13,3.360466561e-13,2.179433136e-13,2.589186689e-13,2.487409819e-13,1.976965017e-13,1.651434806e-13,1.477687786e-13,4.993987000e-14,3.200283106e-13,9.824993675e-14,1.987918536e-14,8.064814821e-14,4.627737133e-13,3.109403389e-13,1.144455204e-13,3.819101271e-13,5.387621397e-13,5.735308156e-13,3.365279207e-13,1.950330805e-13,4.582782586e-14
1.7734,5.798985597e-13,4.860091235e-13,7.193001870e-13,3.781219902e-13,4.853184336e-14,4.778283818e-13,1.821564486e-12,8.122649706e-14,4.137769525e-14,9.532991701e-13,3.327392024e-13,3.523364702e-13,2.259972828e-13,2.698004620e-13,2.572140486e-13,1.985424014e-13,1.652178877e-13,1.518475599e-13,5.134009853e-14,3.276147254e-13,1.028487073e-13,2.039188585e-14,8.210285365e-14,4.929700128e-13,3.142941801e-13,1.087829137e-13,3.740485579e-13,5.549838897e-13,5.768167590e-13,3.576933500e-13,1.873728625e-13,4.790949556e-14
1.7812,6.265046501e-13,4.915469714e-13,7.629711559e-13,3.675796735e-13,4.683007233e-14,4.958878735e-13,1.885337838e-12,8.062584604e-14,4.177428362e-14,9.791490085e-13,3.343286326e-13,3.693490417e-13,2.343071356e-13,2.813478894e-13,2.674706680e-13,1.998994642e-13,1.654806807e-13,1.559382045e-13,5.290007857e-14,3.356194970e-13,1.081547202e-13,2.100340408e-14,8.397775630e-14,5.250337935e-13,3.191494993e-13,1.033448993e-13,3.672203087e-13,5.744021119e-13,5.818142268e-13,3.833893134e-13,1.790238992e-13,5.025556227e-14
1.7891,6.775525055e-13,4.981507375e-13,8.107411462e-13,3.570012063e-13,4.528588362e-14,5.151399694e-13,1.950660817e-12,7.999293764e-14,4.210929050e-14,1.005881134e-12,3.381767221e-13,3.869457043e-13,2.426653962e-13,2.936050040e-13,2.799227843e-13,2.019592141e-13,1.663254524e-13,1.601111705e-13,5.467421172e-14,3.443937814e-13,1.142419889e-13,2.173609647e-14,8.649273291e-14,5.587455362e-13,3.254604650e-13,9.836395121e-14,3.616890932e-13,5.960768789e-13,5.890443919e-13,4.121342564e-13,1.701977753e-13,5.287360612e-14
