Time,Fp1,AF3,F7,F3,FC1,FC5,T7,C3,CP1,CP5,P7,P3,Pz,PO3,O1,Oz,O2,PO4,P4,P8,CP6,CP2,C4,T8,FC6,FC2,F4,F8,AF4,Fp2,Fz,Cz,
0,5.987469730e-09,4.110113995e-09,1.790236543e-09,1.264158199e-09,1.825218170e-11,1.522131902e-08,3.935125847e-09,2.185666109e-09,2.497472646e-10,7.520359828e-09,7.373971969e-09,3.497969834e-09,3.593073207e-08,1.996768499e-10,2.159706007e-10,7.468108634e-10,2.942640692e-10,5.135579465e-11,7.894351154e-10,8.545854383e-10,2.625272742e-09,1.373287753e-10,3.974920419e-09,1.392624387e-09,5.745560442e-09,2.241954301e-10,1.048235453e-08,1.086403544e-08,2.019824605e-09,3.786120681e-09,1.852806255e-10,2.703411519e-11
0.0078125,5.915574204e-09,4.048737328e-09,1.755001296e-09,1.248919057e-09,1.806681727e-11,1.500012175e-08,3.863747169e-09,2.153479900e-09,2.452914857e-10,7.424028656e-09,7.267696583e-09,3.449946676e-09,3.499998662e-08,1.981582325e-10,2.129911388e-10,7.343618572e-10,2.912874843e-10,5.026937538e-11,7.770660434e-10,8.395649759e-10,2.590817272e-09,1.349161065e-10,3.922009550e-09,1.378373068e-09,5.656827779e-09,2.176408291e-10,1.029825559e-08,1.072194203e-08,1.990125289e-09,3.734811439e-09,1.840621286e-10,2.662218039e-11
0.015625,5.592172695e-09,3.818994863e-09,1.650776885e-09,1.180682884e-09,1.709069784e-11,1.415490437e-08,3.636839525e-09,2.031917240e-09,2.309706311e-10,7.014810644e-09,6.858876693e-09,3.257557950e-09,3.318183964e-08,1.881166386e-10,2.011119827e-10,6.921167799e-10,2.756842365e-10,4.733992924e-11,7.325688581e-10,7.901157660e-10,2.447221691e-09,1.270126821e-10,3.704538128e-09,1.305177916e-09,5.334303249e-09,2.041329077e-10,9.696199369e-09,1.012807940e-08,1.877302332e-09,3.525566141e-09,1.749482612e-10,2.511462084e-11
0.023438,5.064526697e-09,3.449288158e-09,1.486756552e-09,1.069207677e-09,1.549156573e-11,1.279049254e-08,3.277767081e-09,1.835749122e-09,2.082205818e-10,6.348696260e-09,6.198883986e-09,2.945846415e-09,3.052727344e-08,1.712568738e-10,1.819045149e-10,6.245252970e-10,2.500525172e-10,4.272107177e-11,6.613307683e-10,7.119570316e-10,2.214358178e-09,1.144322873e-10,3.351660346e-09,1.185183752e-09,4.816399979e-09,1.840523399e-10,8.740256985e-09,9.163859109e-09,1.695943369e-09,3.187624404e-09,1.594781791e-10,2.268921559e-11
0.03125,4.401405219e-09,2.987136095e-09,1.282510767e-09,9.290124218e-10,1.347368349e-11,1.108246999e-08,2.831321067e-09,1.590191583e-09,1.798592186e-10,5.512548711e-09,5.372952677e-09,2.555248355e-09,2.705992251e-08,1.497856624e-10,1.578707260e-10,5.401106724e-10,2.177327011e-10,3.694429593e-11,5.724112696e-10,6.149239757e-10,1.922465275e-09,9.878041949e-11,2.909118421e-09,1.033992794e-09,4.169170362e-09,1.590422510e-10,7.550238138e-09,7.954030120e-09,1.469335617e-09,2.764866753e-09,1.397043226e-10,1.965360052e-11
0.039062,3.681182982e-09,2.490319561e-09,1.065592983e-09,7.768514244e-10,1.126583278e-11,9.244474832e-09,2.355676362e-09,1.326177000e-09,1.496175331e-10,4.607495068e-09,4.483606214e-09,2.133818945e-09,2.315816520e-08,1.260488460e-10,1.319721041e-10,4.499375644e-10,1.822282646e-10,3.088120527e-11,4.767849769e-10,5.111122822e-10,1.606359559e-09,8.214109194e-11,2.430552754e-09,8.682198739e-10,3.474036825e-09,1.326173699e-10,6.280132422e-09,6.644940194e-09,1.225416522e-09,2.308251978e-09,1.177993171e-10,1.638994980e-11
0.046875,2.974245737e-09,2.007384903e-09,8.575960038e-10,6.275793555e-10,9.083579299e-12,7.456230875e-09,1.897689124e-09,1.069534807e-09,1.204852832e-10,3.721924503e-09,3.617685817e-09,1.722678986e-09,1.932298139e-08,1.023956992e-10,1.067509457e-10,3.629070768e-10,1.470648588e-10,2.516718242e-11,3.838132896e-10,4.106620203e-10,1.296909926e-09,6.614816183e-11,1.962779430e-09,7.039881628e-10,2.799248807e-09,1.076727746e-10,5.054979540e-09,5.364481405e-09,9.880114393e-10,1.862127690e-09,9.593263954e-11,1.322133772e-11
0.054688,2.332432799e-09,1.571078403e-09,6.709054074e-10,4.920762370e-10,7.097740146e-12,5.839432582e-09,1.485997274e-09,8.375828680e-10,9.428936178e-11,2.919156016e-09,2.834816200e-09,1.350572648e-09,1.582791404e-08,8.079403149e-11,8.388687220e-11,2.844519421e-10,1.150951865e-10,2.006942847e-11,2.998634166e-10,3.202662850e-10,1.016407665e-09,5.177726536e-11,1.538871942e-09,5.543525690e-10,2.189931606e-09,8.544902072e-11,3.952435122e-09,4.204086209e-09,7.734864454e-10,1.458549134e-09,7.587605528e-11,1.035651945e-11
0.0625,1.785735356e-09,1.199828201e-09,5.118092851e-10,3.765827576e-10,5.407734953e-12,4.463012271e-09,1.135889954e-09,6.400996260e-10,7.199688784e-11,2.235384801e-09,2.168452029e-09,1.033721718e-09,1.271564348e-08,6.232774511e-11,6.441107131e-11,2.176610995e-10,8.791624780e-11,1.574013902e-11,2.283580050e-10,2.434774555e-10,7.774402582e-10,3.960105702e-11,1.177532534e-09,4.265729139e-10,1.671294787e-09,6.627520717e-11,3.014865907e-09,3.216056092e-09,5.910555768e-10,1.115517821e-09,5.868180787e-11,7.912989354e-12
0.070312,1.341720491e-09,8.993058984e-10,3.832407705e-10,2.827655799e-10,4.034151466e-12,3.348388719e-09,8.530197197e-10,4.802074222e-10,5.399319789e-11,1.680614953e-09,1.628781478e-09,7.769060758e-10,1.003458620e-08,4.724044600e-11,4.859243460e-11,1.636267053e-10,6.584313281e-11,1.224652219e-11,1.704770227e-10,1.814825650e-10,5.834773501e-10,2.979749410e-11,8.841910126e-10,3.222514497e-10,1.251565711e-09,5.053300471e-11,2.257527394e-09,2.414826051e-09,4.434006487e-10,8.375966703e-10,4.459099137e-11,5.930820061e-12
0.078125,9.947652184e-10,6.655622646e-10,2.836923158e-10,2.094613017e-10,2.959759827e-12,2.481248681e-09,6.336851215e-10,3.558606852e-10,4.006082977e-11,1.247853901e-09,1.208874171e-09,5.768208534e-10,7.825707658e-09,3.538245205e-11,3.621714646e-11,1.216114442e-10,4.862457759e-11,9.509150532e-12,1.255893186e-10,1.335363612e-10,4.322219377e-10,2.220009623e-11,6.553682373e-10,2.402346105e-10,9.255472400e-10,3.818412770e-11,1.670654682e-09,1.790439495e-09,3.285883781e-10,6.209529685e-10,3.346615593e-11,4.390282566e-12
0.085938,7.304925573e-10,4.880345177e-10,2.083033146e-10,1.536323391e-10,2.143118460e-12,1.822471500e-09,4.672622245e-10,2.614193512e-10,2.951954794e-11,9.184570215e-10,8.898315392e-10,4.246347774e-10,6.065517041e-09,2.632315047e-11,2.674645727e-11,8.961221539e-11,3.559046862e-11,7.363189317e-12,9.166853226e-11,9.740758281e-11,3.172384808e-10,1.642181397e-11,4.812125826e-10,1.775320941e-10,6.782341658e-10,2.870504194e-11,1.225914967e-09,1.315746705e-09,2.413931134e-10,4.561433063e-10,2.492075276e-11,3.220721356e-12
0.09375,5.331106976e-10,3.553360491e-10,1.516897336e-10,1.119168962e-10,1.536368803e-12,1.330006305e-09,3.423919786e-10,1.908010432e-10,2.163414574e-11,6.722272279e-10,6.513073472e-10,3.108193547e-10,4.661535070e-09,1.955762207e-11,1.962625666e-11,6.559138693e-11,2.590476939e-11,5.690059914e-12,6.640522203e-11,7.051045336e-11,2.313601278e-10,1.208472295e-11,3.509224642e-10,1.305672592e-10,4.934420385e-10,2.138503188e-11,8.931211106e-10,9.613187783e-10,1.762237541e-10,3.329503441e-10,1.851959074e-11,2.345700430e-12
0.10156,3.872384376e-10,2.573059528e-10,1.097375817e-10,8.108806053e-11,1.090597513e-12,9.660907176e-10,2.497967115e-10,1.385959940e-10,1.580628379e-11,4.901302166e-10,4.749878778e-10,2.266407720e-10,3.540445718e-09,1.455519591e-11,1.432571198e-11,4.776864265e-11,1.878943798e-11,4.400472017e-12,4.782524582e-11,5.073138400e-11,1.679386166e-10,8.863376880e-12,2.545588700e-10,9.576014102e-11,3.570238749e-10,1.577303606e-11,6.471177732e-10,6.995992740e-10,1.280776733e-10,2.417977256e-10,1.376350556e-11,1.698842861e-12
0.10938,2.800348999e-10,1.854505022e-10,7.903176866e-11,5.845591647e-11,7.659065657e-13,6.991713253e-10,1.817178210e-10,1.002910175e-10,1.153336411e-11,3.562295838e-10,3.455312302e-10,1.647622431e-10,2.656534544e-09,1.085624867e-11,1.040810899e-11,3.465808635e-11,1.358024064e-11,3.414038319e-12,3.429454466e-11,3.632814662e-11,1.214260407e-10,6.485834477e-12,1.838107306e-10,7.007835437e-11,2.571742734e-10,1.153038239e-11,4.668677846e-10,5.075025107e-10,9.274041508e-11,1.747762427e-10,1.023468685e-11,1.224456593e-12
0.11719,2.015701650e-10,1.330730257e-10,5.675225827e-11,4.192431705e-11,5.321432563e-13,5.043212240e-10,1.319403857e-10,7.231527857e-11,8.417540676e-12,2.580994874e-10,2.508014498e-10,1.194365470e-10,1.974016531e-09,8.110392072e-12,7.535585184e-12,2.506531468e-11,9.766206942e-12,2.654387457e-12,2.451793761e-11,2.591814445e-11,8.746844448e-11,4.732785774e-12,1.321141558e-10,5.115601637e-11,1.845115609e-10,8.370679486e-12,3.355795691e-10,3.670045292e-10,6.691653709e-11,1.257093335e-10,7.615662539e-12,8.775842132e-13
0.125,1.441213630e-10,9.481973454e-11,4.052442004e-11,2.984381179e-11,3.649466026e-13,3.616626585e-10,9.541235223e-11,5.182289113e-11,6.135978011e-12,1.860250147e-10,1.812173190e-10,8.614375201e-11,1.454019272e-09,6.065344824e-12,5.429615928e-12,1.801183071e-11,6.975824314e-12,2.059176405e-12,1.745408004e-11,1.838989444e-11,6.265549041e-11,3.429837782e-12,9.429332657e-11,3.722869187e-11,1.314975518e-10,6.024385081e-12,2.396774231e-10,2.639876308e-10,4.800764932e-11,8.972414221e-11,5.672255032e-12,6.238111911e-13
0.13281,1.022093884e-10,6.697497202e-11,2.871781713e-11,2.106762429e-11,2.510864852e-13,2.572523641e-10,6.861116549e-11,3.681992616e-11,4.468551912e-12,1.330642482e-10,1.299734130e-10,6.170100468e-11,1.059652971e-09,4.535963777e-12,3.902936724e-12,1.284062219e-11,4.939938768e-12,1.598679221e-12,1.234001219e-11,1.294484446e-11,4.450534676e-11,2.461106653e-12,6.659607905e-11,2.692136137e-11,9.285725094e-11,4.292513432e-12,1.698384297e-10,1.889730627e-10,3.427504837e-11,6.355052725e-11,4.205898728e-12,4.371614400e-13
0.14062,7.207912079e-11,4.698960693e-11,2.021374454e-11,1.474556722e-11,1.685152369e-13,1.820899192e-10,4.911865501e-11,2.599400850e-11,3.235432947e-12,9.475906781e-11,9.288003306e-11,4.393869300e-11,7.648545739e-10,3.395056278e-12,2.815814907e-12,9.192906651e-12,3.449926166e-12,1.304182045e-12,8.649809139e-12,8.975671716e-12,3.140850999e-11,1.784526472e-12,4.673584075e-11,1.944486540e-11,6.507192543e-11,3.011201182e-12,1.195472350e-10,1.343172288e-10,2.427158862e-11,4.464642087e-11,3.146542836e-12,3.062407914e-13
0.14844,5.028904854e-11,3.259100881e-11,1.405934948e-11,1.021484273e-11,1.143022130e-13,1.277330678e-10,3.493582569e-11,1.818067743e-11,2.342712716e-12,6.699435966e-11,6.593758815e-11,3.108716462e-11,5.443162483e-10,2.551168198e-12,2.020283807e-12,6.495833771e-12,2.408155147e-12,1.055005506e-12,6.076930514e-12,6.190996963e-12,2.202005076e-11,1.272813621e-12,3.246310874e-11,1.405010981e-11,4.512922923e-11,2.063688066e-12,8.318034430e-11,9.481343373e-11,1.701378321e-11,3.101571246e-11,2.348016371e-12,2.111112477e-13
0.15625,3.472480723e-11,2.234549014e-11,9.695116594e-12,6.986595107e-12,7.717543046e-14,8.879151173e-11,2.471219400e-11,1.258429023e-11,1.696431677e-12,4.694602529e-11,4.643726517e-11,2.178973175e-11,3.801575058e-10,1.894218357e-12,1.456374876e-12,4.554174281e-12,1.641795762e-12,8.456240531e-13,4.270376720e-12,4.238894267e-12,1.529216935e-11,8.987041318e-13,2.228591296e-11,1.006555765e-11,3.095511697e-11,1.391139921e-12,5.725630747e-11,6.629972168e-11,1.179468509e-11,2.132196429e-11,1.754088277e-12,1.434063858e-13
0.16406,2.342930184e-11,1.506068665e-11,6.662148695e-12,4.687972556e-12,5.010376819e-14,6.092866529e-11,1.730033387e-11,8.583859062e-12,1.223866036e-12,3.252931000e-11,3.246858668e-11,1.512940036e-11,2.618472314e-10,1.412628875e-12,1.028092565e-12,3.144504553e-12,1.111255345e-12,6.760691240e-13,3.031240914e-12,2.880864564e-12,1.049970593e-11,6.229088583e-13,1.507640867e-11,7.250195016e-12,2.090445898e-11,9.238134613e-13,3.876880792e-11,4.571833227e-11,8.015777845e-12,1.441654227e-11,1.316076659e-12,9.361454193e-14
0.17188,1.583919501e-11,1.009842973e-11,4.584444303e-12,3.129414237e-12,3.486981352e-14,4.163748736e-11,1.215224363e-11,5.819700997e-12,8.840398976e-13,2.240169310e-11,2.249759030e-11,1.041415160e-11,1.787630798e-10,1.042488151e-12,7.543193823e-13,2.196104902e-12,7.824955389e-13,5.784851697e-13,2.135253546e-12,1.945438294e-12,7.166308234e-12,4.440441824e-13,1.008244997e-11,5.210437804e-12,1.399907258e-11,6.145392781e-13,2.627021505e-11,3.152457156e-11,5.479269475e-12,9.735401328e-12,9.832282439e-13,6.163092125e-14
0.17969,1.060350985e-11,6.668698014e-12,3.070252905e-12,2.055143055e-12,2.541706536e-14,2.807100597e-11,8.493993432e-12,3.881600440e-12,6.300313743e-13,1.521770965e-11,1.532908351e-11,7.027740365e-12,1.204795948e-10,7.599293864e-13,5.693918978e-13,1.561152297e-12,5.636635515e-13,5.161975024e-13,1.487989626e-12,1.285811240e-12,4.811545307e-12,3.257572545e-13,6.610316308e-12,3.747992230e-12,9.198346793e-12,4.013059371e-13,1.748880075e-11,2.138624052e-11,3.677157323e-12,6.559726518e-12,7.336202513e-13,3.954021683e-14
0.1875,7.095603883e-12,4.375588672e-12,2.050323790e-12,1.340589043e-12,2.029655802e-14,1.886630773e-11,6.000264837e-12,2.579287436e-12,4.529682124e-13,1.027257536e-11,1.036292132e-11,4.692129659e-12,8.008219585e-11,5.427985891e-13,4.393760642e-13,1.120464264e-12,4.472098142e-13,4.458315758e-13,1.052684855e-12,8.795455815e-13,3.221288407e-12,2.414707066e-13,4.278206682e-12,2.680270801e-12,6.022683829e-12,2.623230485e-13,1.157247150e-11,1.445595686e-11,2.463743812e-12,4.477504190e-12,5.466221504e-13,2.459386015e-14
0.19531,4.612237789e-12,2.745969168e-12,1.314211011e-12,8.099654093e-13,1.623339386e-14,1.204170787e-11,4.064787532e-12,1.630948817e-12,3.164651903e-13,6.579661909e-12,6.642246283e-12,2.962733542e-12,5.316442384e-11,3.628057708e-13,3.332010731e-13,7.712322988e-13,3.927778191e-13,3.620400083e-13,7.849504636e-13,6.030429875e-13,2.061981413e-12,1.710453895e-13,2.672540742e-12,1.810893904e-12,3.691109744e-12,1.583463330e-13,7.374305589e-12,9.180864684e-12,1.579714474e-12,2.867634289e-12,4.062395692e-13,1.490624949e-14
0.20312,3.071311908e-12,1.778752404e-12,8.851025923e-13,5.190357536e-13,1.498257472e-14,7.954333526e-12,2.856156539e-12,1.054894763e-12,2.246995705e-13,4.378003229e-12,4.425857855e-12,1.928410871e-12,3.497793260e-11,2.519034604e-13,2.613122936e-13,5.439018650e-13,4.321159373e-13,3.038498293e-13,6.006468008e-13,5.003793996e-13,1.423941018e-12,1.284672702e-13,1.716939033e-12,1.416055421e-12,2.312169218e-12,9.777575102e-14,4.831794003e-12,6.057829166e-12,1.063604584e-12,2.095462132e-12,3.076054318e-13,9.027069591e-15
0.21094,2.114422531e-12,1.118738093e-12,6.003729804e-13,3.294589700e-13,1.484118891e-14,5.208998732e-12,2.042573217e-12,6.771175454e-13,1.572350081e-13,2.855621890e-12,2.840405467e-12,1.201404955e-12,2.337099984e-11,1.725155932e-13,2.149448349e-13,4.210515240e-13,4.599061017e-13,2.802986524e-13,4.157598173e-13,4.010014453e-13,9.320663628e-13,1.085048299e-13,1.024581700e-12,1.136522094e-12,1.399586935e-12,7.740009536e-14,3.153194007e-12,4.065794819e-12,7.300133764e-13,1.565995623e-12,2.335222899e-13,6.276444720e-15
0.21875,1.445212817e-12,7.091121021e-13,4.272903787e-13,2.120210692e-13,1.406599667e-14,3.429252419e-12,1.524679797e-12,4.350880720e-13,1.136530862e-13,1.857760719e-12,1.804780233e-12,7.343923560e-13,1.581134146e-11,1.221613103e-13,1.821424298e-13,3.408718678e-13,5.464364866e-13,2.666232675e-13,3.060911339e-13,4.038127623e-13,6.654811421e-13,9.187140772e-14,6.110204088e-13,1.018969962e-12,8.647502831e-13,8.436088455e-14,2.074267835e-12,2.714013216e-12,5.221848388e-13,1.291414504e-12,1.852343348e-13,4.504765064e-15
0.22656,1.021626984e-12,4.594357476e-13,3.325520489e-13,1.400297835e-13,1.315361104e-14,2.314825770e-12,1.158825329e-12,2.877274483e-13,8.599359748e-14,1.208044207e-12,1.118881366e-12,4.359551603e-13,1.036316265e-11,8.798634346e-14,1.605933088e-13,3.067091495e-13,6.500198274e-13,2.619437383e-13,2.326194723e-13,4.307799372e-13,5.011474150e-13,8.083381380e-14,3.486922373e-13,9.639811028e-13,5.818208567e-13,8.226590866e-14,1.343271316e-12,1.870506264e-12,3.830209340e-13,1.137215382e-12,1.570764335e-13,3.870794928e-15
0.23438,7.386510724e-13,3.065301825e-13,2.666329838e-13,9.602220660e-14,1.262790569e-14,1.553209457e-12,8.741703347e-13,1.910409087e-13,6.417550350e-14,7.870676681e-13,6.895266813e-13,2.590357334e-13,6.534998088e-12,7.313320697e-14,1.448411720e-13,2.792938694e-13,8.001385845e-13,2.624727132e-13,2.004683314e-13,4.777952630e-13,4.381707711e-13,7.089181671e-14,2.227924072e-13,1.037897130e-12,3.994275724e-13,6.187144655e-14,8.714699283e-13,1.270790888e-12,2.938746308e-13,1.066045669e-12,1.328744035e-13,4.229554524e-15
0.24219,5.803686588e-13,2.134154627e-13,2.125108787e-13,7.098995914e-14,1.235134825e-14,1.060365457e-12,6.716844136e-13,1.307324020e-13,4.517405758e-14,5.229903708e-13,4.224608734e-13,1.522756175e-13,4.278840754e-12,7.233060623e-14,1.452480295e-13,2.797300596e-13,9.449249120e-13,2.737259502e-13,1.752573403e-13,5.079224393e-13,4.044641086e-13,6.548477877e-14,1.553751082e-13,1.167352863e-12,2.634797256e-13,4.168773838e-14,5.789502326e-13,8.965127024e-13,2.397994525e-13,1.027324944e-12,1.116539402e-13,5.527851120e-15
0.25,4.968040144e-13,1.605295535e-13,1.939551232e-13,5.655181324e-14,1.163414829e-14,7.339104534e-13,5.781313752e-13,9.533126613e-14,3.274331468e-14,3.704912206e-13,2.747306594e-13,9.854619610e-14,2.810538840e-12,8.484505918e-14,1.579858558e-13,2.786812644e-13,1.078778878e-12,2.835316519e-13,1.758429964e-13,5.751132061e-13,4.159646856e-13,5.964921959e-14,1.489213958e-13,1.305029787e-12,1.887073170e-13,4.731593026e-14,4.701268444e-13,6.368154594e-13,2.334167073e-13,1.011694235e-12,9.625035720e-14,6.995229960e-15
0.25781,3.034923402e-13,7.015888435e-14,1.166747256e-13,2.438707365e-14,1.252481491e-14,1.395284217e-13,3.630430786e-13,2.332045654e-14,2.232551732e-14,1.006965381e-13,8.965483565e-14,6.286139049e-14,2.254948948e-12,1.091103884e-13,1.702659811e-13,2.517637362e-13,1.191764533e-12,2.984385891e-13,1.811175077e-13,6.725207263e-13,4.300292033e-13,5.403137655e-14,1.728198048e-13,1.399456628e-12,2.084168366e-13,8.623375544e-14,2.847309184e-13,1.992755691e-13,1.933010844e-13,9.334278847e-13,7.724102050e-14,1.178571417e-14
0.26562,3.559080133e-13,1.121913904e-13,1.317887207e-13,2.711028614e-14,1.164818540e-14,9.997722456e-14,3.698944462e-13,2.503038541e-14,2.503421130e-14,1.045241329e-13,1.295289556e-13,1.024380375e-13,2.453335871e-12,1.347764721e-13,2.101531614e-13,2.726782089e-13,1.272674645e-12,3.211921819e-13,2.132677682e-13,7.579282904e-13,4.928744171e-13,4.743420867e-14,2.322838733e-13,1.450668103e-12,3.073357441e-13,1.151363463e-13,3.609847526e-13,2.359067454e-13,2.274072601e-13,9.844660857e-13,7.273344431e-14,1.497569089e-14
0.27344,3.243289713e-13,8.778474793e-14,1.388628791e-13,2.267173268e-14,1.002613531e-14,1.149464324e-13,3.949660713e-13,2.686812368e-14,2.859131863e-14,1.214979074e-13,1.399371308e-13,1.152301017e-13,2.634511003e-12,1.718848829e-13,2.713314427e-13,3.463945211e-13,1.308736841e-12,3.659383441e-13,1.995866681e-13,7.336491593e-13,4.736369576e-13,5.370679576e-14,2.109745881e-13,1.461709718e-12,2.909324168e-13,9.976250812e-14,3.177904619e-13,2.422858550e-13,2.404042157e-13,9.410795631e-13,7.040697531e-14,1.757376087e-14
0.28125,3.371995839e-13,8.411738201e-14,1.700448454e-13,2.245236208e-14,8.849022853e-15,1.267545886e-13,4.101565022e-13,3.152572613e-14,2.927607033e-14,1.380216049e-13,1.474011989e-13,1.226051863e-13,2.337108046e-12,2.163832571e-13,3.423471402e-13,4.343995808e-13,1.345100423e-12,4.098764738e-13,1.956421792e-13,6.830814620e-13,4.583988280e-13,6.144073758e-14,1.983631430e-13,1.520878811e-12,2.405865860e-13,6.744225110e-14,2.850955543e-13,3.116551940e-13,2.581688512e-13,9.216919492e-13,6.154622954e-14,2.044962054e-14
0.28906,3.545711248e-13,8.927987894e-14,2.440596824e-13,2.616965386e-14,7.627554602e-15,1.916673624e-13,4.965588095e-13,4.929494714e-14,3.184600535e-14,1.626888300e-13,1.619891863e-13,1.229351157e-13,1.957817493e-12,2.547910827e-13,4.203000930e-13,5.100037950e-13,1.328051415e-12,4.307736852e-13,1.964058448e-13,6.313816713e-13,4.285497808e-13,7.104292016e-14,1.752098629e-13,1.548619908e-12,1.855082846e-13,5.030640038e-14,3.448343354e-13,4.092671660e-13,2.815201715e-13,9.068045358e-13,5.534612446e-14,2.286856318e-14
0.29688,3.534846648e-13,7.934212689e-14,2.865319458e-13,2.446977553e-14,6.891702994e-15,1.905777645e-13,5.908936236e-13,6.159600160e-14,4.114115247e-14,1.842757664e-13,2.150872150e-13,1.543312534e-13,1.492411517e-12,2.915916574e-13,4.828570804e-13,5.314084222e-13,1.261427569e-12,4.316039389e-13,2.098467595e-13,5.971712308e-13,4.090115024e-13,7.874903044e-14,1.789462686e-13,1.538830848e-12,1.836214050e-13,5.665791639e-14,4.501174347e-13,5.310264370e-13,2.988718400e-13,8.871675504e-13,5.064068335e-14,2.726325212e-14
0.30469,3.583603193e-13,6.912265677e-14,2.947554847e-13,2.634922572e-14,6.219529837e-15,2.093702889e-13,6.351057225e-13,7.392970310e-14,5.092221786e-14,2.033546813e-13,2.569396939e-13,1.840110360e-13,1.347061894e-12,3.256101799e-13,5.398882429e-13,5.487231707e-13,1.180142063e-12,4.388826715e-13,2.219939711e-13,5.603826801e-13,3.902970586e-13,8.933491116e-14,1.790907239e-13,1.501968168e-12,1.962583533e-13,6.396015930e-14,4.734203757e-13,6.689814882e-13,2.980893115e-13,8.666849586e-13,4.431737523e-14,3.289170778e-14
0.3125,3.538974803e-13,5.639939364e-14,2.815103163e-13,2.884941733e-14,5.205564155e-15,2.332665643e-13,5.915437982e-13,7.743323873e-14,5.829816897e-14,2.170749155e-13,2.762745447e-13,2.107465656e-13,1.820698104e-12,3.667823527e-13,5.892818232e-13,5.843514625e-13,1.102532196e-12,4.578254568e-13,2.295271112e-13,5.086078893e-13,3.767604851e-13,1.035146814e-13,1.800007086e-13,1.493645533e-12,2.141366788e-13,5.734242925e-14,4.254089870e-13,8.034571898e-13,2.863345238e-13,8.295384772e-13,3.703942729e-14,4.044353855e-14
0.32031,3.626482066e-13,5.465621449e-14,2.671721504e-13,3.613052134e-14,4.054370856e-15,2.368271113e-13,5.128305620e-13,7.997547017e-14,6.219497714e-14,2.278131778e-13,2.799901314e-13,2.281363812e-13,2.096352123e-12,4.006773111e-13,6.262368266e-13,6.210108675e-13,1.038665848e-12,4.735421776e-13,2.384540651e-13,4.615753835e-13,3.687659781e-13,1.165730446e-13,1.750864149e-13,1.505630908e-12,2.317055984e-13,4.459286117e-14,3.481332501e-13,9.191108212e-13,2.711555753e-13,7.930496556e-13,3.005080196e-14,4.809828882e-14
0.32812,3.659915363e-13,6.016789283e-14,2.650372261e-13,4.610227769e-14,3.197281210e-15,2.277854759e-13,4.857157667e-13,8.614830851e-14,6.987591381e-14,2.415357838e-13,2.998223257e-13,2.474487511e-13,1.459022818e-12,4.144354767e-13,6.391462624e-13,6.152288838e-13,9.573365719e-13,4.642442547e-13,2.557032127e-13,4.321077270e-13,3.640006222e-13,1.231240716e-13,1.724365682e-13,1.496411984e-12,2.668012262e-13,3.918592059e-14,3.546459324e-13,1.018687192e-12,2.675751021e-13,7.396904843e-13,2.586250074e-14,5.609224182e-14
0.33594,3.536913615e-13,6.790827141e-14,2.798348385e-13,5.476691203e-14,2.917432622e-15,2.015071622e-13,5.050198013e-13,9.570464370e-14,7.939569293e-14,2.425686558e-13,3.328177701e-13,2.681727587e-13,6.861012199e-13,4.101337152e-13,6.275811749e-13,5.697146663e-13,8.714666030e-13,4.326143205e-13,2.763965921e-13,4.225129667e-13,3.567973309e-13,1.236613297e-13,1.737698001e-13,1.434956331e-12,3.133073221e-13,4.371204117e-14,4.004715655e-13,1.108392658e-12,2.618642206e-13,6.723031016e-13,2.293850369e-14,6.430117605e-14
0.34375,3.398858425e-13,7.919862357e-14,3.344442518e-13,6.745297387e-14,2.985480141e-15,2.152342873e-13,5.263433834e-13,1.096003666e-13,8.272410332e-14,2.322634909e-13,3.398472889e-13,2.664735369e-13,6.058147606e-13,3.989731781e-13,6.075273347e-13,5.273795838e-13,7.860827453e-13,4.007858149e-13,2.846488930e-13,4.064478402e-13,3.411403104e-13,1.244417961e-13,1.655568357e-13,1.343310728e-12,3.231602920e-13,4.516378436e-14,4.086411164e-13,1.167526447e-12,2.530135142e-13,6.031728128e-13,2.134609381e-14,7.149643983e-14
0.35156,3.168644255e-13,8.519704248e-14,3.922391667e-13,8.185168750e-14,3.269743647e-15,2.458069879e-13,5.076993725e-13,1.221720678e-13,7.740693971e-14,2.054944822e-13,3.160047433e-13,2.493060232e-13,1.061339107e-12,3.877503073e-13,5.836377003e-13,5.065153061e-13,7.264964470e-13,3.813766414e-13,2.786191584e-13,3.817457320e-13,3.209112017e-13,1.287278499e-13,1.522617511e-13,1.256766682e-12,3.139106362e-13,4.138249338e-14,3.485387139e-13,1.194383833e-12,2.310011030e-13,5.447079314e-13,2.183216891e-14,7.689024579e-14
0.35938,3.075684568e-13,1.012641415e-13,4.406472170e-13,1.020510525e-13,3.681768091e-15,3.038761147e-13,4.809018795e-13,1.382882062e-13,6.871305687e-14,1.800250351e-13,2.785000028e-13,2.216271735e-13,1.488523164e-12,3.713174969e-13,5.599596267e-13,4.955725670e-13,6.782192536e-13,3.704256667e-13,2.669725296e-13,3.579730449e-13,2.980247741e-13,1.337503570e-13,1.330730107e-13,1.179272861e-12,3.020214343e-13,3.652087473e-14,2.845421862e-13,1.198692115e-12,2.078652233e-13,5.063101434e-13,2.416774930e-14,8.022984945e-14
0.36719,2.913300160e-13,1.140155399e-13,4.541535685e-13,1.221565373e-13,4.293667467e-15,3.364607551e-13,4.439751072e-13,1.472294532e-13,6.138234863e-14,1.464679585e-13,2.369862609e-13,1.947486068e-13,1.467338411e-12,3.486120446e-13,5.391637587e-13,4.836758695e-13,6.440984945e-13,3.617269743e-13,2.577900542e-13,3.484289511e-13,2.747777778e-13,1.347736356e-13,1.183781664e-13,1.085838618e-12,3.067951301e-13,3.224158584e-14,2.309133124e-13,1.200031426e-12,1.819532790e-13,4.812570480e-13,2.758136113e-14,8.304205254e-14
0.375,2.845526631e-13,1.267379987e-13,4.589145828e-13,1.415430775e-13,5.220690302e-15,3.428070026e-13,3.902585369e-13,1.464102599e-13,5.694545569e-14,1.189789534e-13,2.053505936e-13,1.744912893e-13,1.037857922e-12,3.226819219e-13,5.201076147e-13,4.760719128e-13,6.275723625e-13,3.534706733e-13,2.528023577e-13,3.495293833e-13,2.571806653e-13,1.302478808e-13,1.091569435e-13,9.777013707e-13,3.195323261e-13,2.682293579e-14,1.912926033e-13,1.202901994e-12,1.579492712e-13,4.701193172e-13,3.071444408e-14,8.553090862e-14
0.38281,2.650891019e-13,1.385183235e-13,4.730986366e-13,1.612122052e-13,6.717771400e-15,3.447198006e-13,3.321158354e-13,1.418228738e-13,5.465980334e-14,9.486691050e-14,1.862122534e-13,1.596140484e-13,6.148719324e-13,2.963465697e-13,5.047323838e-13,4.749921653e-13,6.279405721e-13,3.490611576e-13,2.548225106e-13,3.633047900e-13,2.456527106e-13,1.228560245e-13,1.083638036e-13,8.556504265e-13,3.458025672e-13,2.657753405e-14,1.722425723e-13,1.207513882e-12,1.395626322e-13,4.575436456e-13,3.441517829e-14,8.676936179e-14
0.39062,2.451935326e-13,1.518444166e-13,4.930069003e-13,1.794935610e-13,8.512184121e-15,3.372627287e-13,2.916819572e-13,1.379553947e-13,5.364396472e-14,8.101647993e-14,1.831647383e-13,1.539200251e-13,3.563241517e-13,2.727367593e-13,4.900126637e-13,4.688743950e-13,6.366592967e-13,3.446795033e-13,2.626325253e-13,3.935786445e-13,2.422002208e-13,1.135012257e-13,1.120813026e-13,7.431897568e-13,3.794155917e-13,3.483428077e-14,1.682789298e-13,1.211208602e-12,1.288530313e-13,4.401644737e-13,3.974974570e-14,8.603051499e-14
0.39844,2.282371565e-13,1.712985448e-13,5.064654434e-13,2.027170302e-13,1.062571820e-14,3.336820530e-13,2.863036202e-13,1.420491101e-13,5.071448814e-14,7.474656303e-14,1.778948831e-13,1.456241193e-13,2.431287757e-13,2.525379982e-13,4.794519169e-13,4.626531482e-13,6.447488781e-13,3.419282011e-13,2.662813964e-13,4.289153772e-13,2.369503984e-13,1.054323121e-13,1.140940014e-13,6.483434199e-13,3.965616365e-13,4.401190508e-14,1.494572472e-13,1.200679970e-12,1.263131887e-13,4.124195236e-13,4.565678946e-14,8.260613564e-14
0.40625,2.164279847e-13,1.894495740e-13,5.128678695e-13,2.243675205e-13,1.292252881e-14,3.231288731e-13,2.916874232e-13,1.466827724e-13,4.589591440e-14,7.211056721e-14,1.663484654e-13,1.394458914e-13,3.591890189e-13,2.405702512e-13,4.710151966e-13,4.707506128e-13,6.631116809e-13,3.487814842e-13,2.648565621e-13,4.585379546e-13,2.339475227e-13,9.991919782e-14,1.141030265e-13,5.743543497e-13,3.962745563e-13,4.486078599e-14,1.182466566e-13,1.185780308e-12,1.243886259e-13,3.860311496e-13,5.136658653e-14,7.793865832e-14
0.41406,2.114363619e-13,2.134653970e-13,5.311982960e-13,2.480368317e-13,1.553425050e-14,3.249790958e-13,3.014836911e-13,1.547859486e-13,4.024167528e-14,7.321592847e-14,1.512167735e-13,1.328832715e-13,5.755354669e-13,2.329216831e-13,4.590238449e-13,4.886561730e-13,6.955491538e-13,3.580038781e-13,2.581535150e-13,4.778537740e-13,2.301520741e-13,9.640774820e-14,1.129496043e-13,5.075184017e-13,3.813459162e-13,3.841656633e-14,9.564402785e-14,1.167889919e-12,1.274175558e-13,3.641652700e-13,5.626317860e-14,7.268468620e-14
0.42188,1.979384086e-13,2.362085674e-13,5.509233054e-13,2.688619525e-13,1.817262397e-14,3.283886852e-13,3.053302426e-13,1.601173323e-13,3.581118366e-14,7.214911693e-14,1.330117932e-13,1.283763108e-13,5.846542716e-13,2.265435175e-13,4.410013161e-13,4.980871591e-13,7.280144501e-13,3.584580462e-13,2.515263963e-13,4.898725026e-13,2.292031984e-13,9.199467025e-14,1.114571163e-13,4.472191175e-13,3.670563139e-13,3.223940079e-14,9.720283414e-14,1.141249978e-12,1.325839166e-13,3.461980570e-13,6.272552563e-14,6.707143430e-14
0.42969,1.856661327e-13,2.610089243e-13,5.580902975e-13,2.897599540e-13,2.070451862e-14,3.358373024e-13,3.053211725e-13,1.638183713e-13,3.284107058e-14,7.153250359e-14,1.174279194e-13,1.227314826e-13,4.205324035e-13,2.163839108e-13,4.193983479e-13,4.977102192e-13,7.556813703e-13,3.449803372e-13,2.437272949e-13,4.949245668e-13,2.236644077e-13,8.543001356e-14,1.110009536e-13,3.905344312e-13,3.537345013e-13,3.033355467e-14,1.133300647e-13,1.117256524e-12,1.416160587e-13,3.498747709e-13,7.024274801e-14,6.179631538e-14
0.4375,1.752528731e-13,2.803442512e-13,5.441595791e-13,3.108283484e-13,2.343164839e-14,3.452533348e-13,2.908151085e-13,1.643093647e-13,2.989522156e-14,7.063481334e-14,9.536286944e-14,1.109400561e-13,2.990905417e-13,2.022721918e-13,3.941756449e-13,4.915278383e-13,7.731597728e-13,3.235564365e-13,2.324326724e-13,4.835121553e-13,2.129122840e-13,7.796006074e-14,1.060660667e-13,3.508037721e-13,3.329540978e-13,3.016647642e-14,1.209501847e-13,1.074639358e-12,1.504269830e-13,3.786021191e-13,7.812420322e-14,5.689246038e-14
0.44531,1.729220947e-13,2.910353194e-13,5.073482967e-13,3.304384985e-13,2.647033790e-14,3.397816815e-13,2.671185377e-13,1.597250040e-13,2.736287660e-14,7.165565415e-14,7.940397125e-14,1.014150892e-13,2.451218573e-13,1.903721241e-13,3.693479685e-13,4.898083451e-13,7.912062939e-13,3.031491531e-13,2.195714542e-13,4.595437040e-13,2.009290158e-13,7.082186991e-14,1.012097456e-13,3.336793707e-13,3.152953084e-13,3.065359250e-14,1.180040218e-13,1.050973772e-12,1.589157136e-13,4.416333787e-13,8.609809648e-14,5.242747922e-14
0.45312,1.681718880e-13,2.931101616e-13,4.564303923e-13,3.469360093e-13,2.997912779e-14,3.223869405e-13,2.496951582e-13,1.540982894e-13,2.471014557e-14,7.357419191e-14,6.328686991e-14,9.290072259e-14,2.226828243e-13,1.807314494e-13,3.486171985e-13,4.903159502e-13,8.058443761e-13,2.831033833e-13,2.047195954e-13,4.249063446e-13,1.882699015e-13,6.528114692e-14,9.426938842e-14,3.338788717e-13,2.888525887e-13,3.145536462e-14,1.060797458e-13,1.016607304e-12,1.658567998e-13,5.284850704e-13,9.479900811e-14,4.840508585e-14
0.46094,1.596134878e-13,2.912337617e-13,4.011579278e-13,3.607607321e-13,3.397718481e-14,2.937994640e-13,2.374819187e-13,1.458669330e-13,2.263176269e-14,7.220112063e-14,4.816960420e-14,8.578047960e-14,2.065298547e-13,1.729900365e-13,3.335012819e-13,4.945889355e-13,8.060334169e-13,2.680270615e-13,1.911994535e-13,3.852533364e-13,1.776228585e-13,6.186537797e-14,8.979918932e-14,3.487278706e-13,2.604940543e-13,3.131412701e-14,9.098988579e-14,9.692752818e-13,1.715738670e-13,6.464035786e-13,1.051550662e-13,4.489535739e-14
0.46875,1.528492019e-13,2.883710406e-13,3.579784839e-13,3.718905228e-13,3.858673723e-14,2.723174571e-13,2.347990982e-13,1.395801417e-13,2.036851982e-14,7.105923178e-14,3.101524441e-14,7.498319342e-14,1.734830895e-13,1.655889570e-13,3.242479191e-13,5.035841132e-13,7.935944069e-13,2.596248497e-13,1.785965516e-13,3.386128748e-13,1.662927411e-13,6.140330760e-14,8.604980555e-14,3.772580464e-13,2.221783492e-13,3.051203964e-14,7.660763049e-14,9.049146064e-13,1.793580285e-13,7.772068250e-13,1.168946799e-13,4.177351420e-14
0.47656,1.505774411e-13,2.895260319e-13,3.322880565e-13,3.814665813e-13,4.367771477e-14,2.670574468e-13,2.396607364e-13,1.362132488e-13,1.837661595e-14,7.104549496e-14,1.971975651e-14,6.506741538e-14,1.641489231e-13,1.606832261e-13,3.199092757e-13,5.100434087e-13,7.658655453e-13,2.533769264e-13,1.688383112e-13,2.891573092e-13,1.575189168e-13,6.257891427e-14,8.531641147e-14,4.170006115e-13,1.887000098e-13,3.163054906e-14,7.978666629e-14,8.414428734e-13,1.907982708e-13,9.107899798e-13,1.300854446e-13,3.902105767e-14
0.48438,1.515479509e-13,2.881715202e-13,3.099860712e-13,3.832764425e-13,4.868802773e-14,2.557316489e-13,2.458399664e-13,1.326720735e-13,1.687901093e-14,6.996014903e-14,1.277329492e-14,6.121427576e-14,1.559441706e-13,1.609581496e-13,3.183472904e-13,5.053804583e-13,7.298083653e-13,2.473345509e-13,1.651768541e-13,2.476113295e-13,1.547784473e-13,6.384560884e-14,8.847162918e-14,4.666010089e-13,1.581940919e-13,3.672302377e-14,8.791768888e-14,7.929132240e-13,2.041938562e-13,1.035199493e-12,1.450824518e-13,3.664487178e-14
0.49219,1.560457107e-13,2.877390334e-13,2.840551264e-13,3.802651114e-13,5.351338369e-14,2.411302840e-13,2.465671809e-13,1.269740689e-13,1.573653686e-14,6.906944695e-14,1.002944492e-14,6.137730071e-14,1.235722837e-13,1.635295077e-13,3.195337737e-13,4.900640453e-13,6.784809479e-13,2.422098074e-13,1.651353675e-13,2.139541987e-13,1.564402739e-13,6.494726478e-14,9.478345675e-14,5.199664866e-13,1.340003258e-13,4.288583855e-14,9.457737697e-14,7.387460322e-13,2.164160027e-13,1.150723863e-12,1.607526988e-13,3.475557565e-14
0.5,1.619732713e-13,2.806601316e-13,2.531458620e-13,3.713632896e-13,5.790479257e-14,2.225149769e-13,2.376172611e-13,1.178688279e-13,1.532436658e-14,6.918203604e-14,1.409920047e-14,6.399228760e-14,1.395223283e-13,1.675606851e-13,3.237709859e-13,4.782003485e-13,6.169307032e-13,2.457942770e-13,1.668465011e-13,1.847769948e-13,1.596455884e-13,6.743498614e-14,1.025297328e-13,5.741749001e-13,1.200845396e-13,4.664563772e-14,9.831226699e-14,6.941043090e-13,2.253784465e-13,1.251855345e-12,1.754139756e-13,3.345469869e-14
0.50781,1.706084397e-13,2.749389728e-13,2.233073404e-13,3.638545117e-13,6.215155953e-14,2.154790866e-13,2.236834830e-13,1.101450604e-13,1.512795617e-14,7.301360333e-14,2.418473274e-14,6.383455757e-14,2.154756554e-13,1.703928972e-13,3.312513226e-13,4.706766540e-13,5.512695162e-13,2.555830087e-13,1.671034411e-13,1.561947715e-13,1.595420065e-13,7.146326267e-14,1.095426607e-13,6.236017114e-13,1.075074325e-13,4.835070333e-14,1.037391491e-13,6.454696057e-13,2.327087927e-13,1.341120765e-12,1.860915150e-13,3.262028013e-14
0.51562,1.775977354e-13,2.652995629e-13,1.918700347e-13,3.525053079e-13,6.568102811e-14,2.026181572e-13,1.977361849e-13,1.005487925e-13,1.560573812e-14,7.378364807e-14,3.704030734e-14,6.502528731e-14,2.110112440e-13,1.734296545e-13,3.391179155e-13,4.580983285e-13,4.901051575e-13,2.648894625e-13,1.684912219e-13,1.326919628e-13,1.585308358e-13,7.420679439e-14,1.163288376e-13,6.602982931e-13,9.441145405e-14,5.017303321e-14,1.021017764e-13,6.104831083e-13,2.364251334e-13,1.413371839e-12,1.932768421e-13,3.253001356e-14
0.52344,1.924559385e-13,2.596858139e-13,1.681692640e-13,3.380424764e-13,6.821061986e-14,1.922487093e-13,1.743220421e-13,9.131383159e-14,1.661067280e-14,7.951986132e-14,5.955434098e-14,7.071046253e-14,1.266303801e-13,1.749490324e-13,3.430908285e-13,4.334191602e-13,4.341377243e-13,2.696964371e-13,1.694748888e-13,1.175542549e-13,1.559045190e-13,7.467899720e-14,1.242891855e-13,6.773949347e-13,8.895168895e-14,5.269019197e-14,1.023305598e-13,6.001697838e-13,2.399616659e-13,1.491343757e-12,1.977099686e-13,3.267030771e-14
0.53125,2.035512573e-13,2.489348417e-13,1.505635568e-13,3.171973240e-13,6.949603616e-14,1.718262701e-13,1.525095884e-13,8.037756940e-14,1.815788271e-14,8.152388156e-14,8.340648090e-14,7.510735148e-14,7.928480329e-14,1.746194741e-13,3.464289242e-13,4.051417293e-13,3.833631934e-13,2.720738691e-13,1.681292363e-13,1.072491860e-13,1.513801322e-13,7.416941426e-14,1.294690390e-13,6.739944823e-13,9.769241134e-14,5.373754437e-14,1.012779955e-13,6.061332614e-13,2.402534693e-13,1.557786386e-12,2.007642686e-13,3.292496241e-14
0.53906,2.196920683e-13,2.385193485e-13,1.415766272e-13,2.938074089e-13,6.958362559e-14,1.529973682e-13,1.379379741e-13,7.013788380e-14,1.857391518e-14,8.500283784e-14,1.054320747e-13,7.236995825e-14,1.249115457e-13,1.700767096e-13,3.464923066e-13,3.796580110e-13,3.407254814e-13,2.733133585e-13,1.604203048e-13,9.761108440e-14,1.393838047e-13,7.342919377e-14,1.249639904e-13,6.491025025e-13,1.119990608e-13,5.330568484e-14,1.003394700e-13,6.370605448e-13,2.364945684e-13,1.634685766e-12,2.023812681e-13,3.260221187e-14
0.54688,2.345854904e-13,2.345634736e-13,1.444570400e-13,2.709550011e-13,6.843197569e-14,1.483833077e-13,1.285204121e-13,6.267476436e-14,1.821469950e-14,8.994702514e-14,1.271230581e-13,6.634797425e-14,2.241983078e-13,1.633305410e-13,3.467212077e-13,3.557096258e-13,3.062119426e-13,2.718962899e-13,1.536549033e-13,9.088476160e-14,1.290699521e-13,7.206650806e-14,1.172349027e-13,6.112593225e-13,1.264487228e-13,5.477783720e-14,1.045927698e-13,6.782414359e-13,2.317708822e-13,1.694276332e-12,2.027686560e-13,3.187921269e-14
0.55469,2.517946403e-13,2.303640931e-13,1.500535187e-13,2.459695234e-13,6.587778856e-14,1.446214190e-13,1.192355794e-13,5.542505205e-14,1.789099095e-14,1.013556013e-13,1.623765642e-13,6.482353138e-14,2.600136387e-13,1.537286548e-13,3.422472686e-13,3.282212586e-13,2.801460618e-13,2.659319889e-13,1.481413235e-13,8.921583361e-14,1.203434120e-13,6.869287559e-14,1.094504356e-13,5.626482349e-13,1.482574313e-13,5.747854954e-14,1.100392736e-13,7.474299758e-13,2.262428018e-13,1.741661421e-12,2.014645083e-13,3.129353209e-14
0.5625,2.613734085e-13,2.170874275e-13,1.473221238e-13,2.181312185e-13,6.232781171e-14,1.285657253e-13,1.049780062e-13,4.782380269e-14,1.850414658e-14,1.130781609e-13,2.030734355e-13,6.814191143e-14,1.473191200e-13,1.415032329e-13,3.323859151e-13,2.914060412e-13,2.595237549e-13,2.512480838e-13,1.448126857e-13,9.098591803e-14,1.154438414e-13,6.253475403e-14,1.049659230e-13,5.151638590e-13,1.704867972e-13,5.792720154e-14,1.128172597e-13,8.249438846e-13,2.206329571e-13,1.742509034e-12,1.973871875e-13,3.088470729e-14
0.57031,2.667168664e-13,1.940734639e-13,1.433288033e-13,1.885786720e-13,5.809954011e-14,1.034753613e-13,8.818070389e-14,3.941403301e-14,1.944564136e-14,1.199907654e-13,2.356755710e-13,6.888057309e-14,4.966464342e-14,1.292871312e-13,3.239724886e-13,2.577709665e-13,2.464108195e-13,2.348006055e-13,1.433604673e-13,9.817085480e-14,1.140309392e-13,5.689870331e-14,9.893059288e-14,4.770361549e-13,1.908352328e-13,5.522069086e-14,1.124628748e-13,9.279579146e-13,2.108003064e-13,1.719209547e-12,1.913691567e-13,3.096384437e-14
0.57812,2.703773916e-13,1.752597846e-13,1.518593288e-13,1.626534442e-13,5.306627868e-14,8.809825079e-14,7.486993583e-14,3.324259978e-14,1.955843554e-14,1.220471401e-13,2.515607347e-13,6.325239676e-14,1.074277547e-13,1.181290945e-13,3.195472571e-13,2.311869254e-13,2.413054399e-13,2.199714791e-13,1.426359609e-13,1.094583758e-13,1.161952637e-13,5.306712890e-14,9.101197359e-14,4.560418673e-13,2.090272062e-13,5.275883617e-14,1.097188980e-13,1.054503714e-12,1.999808664e-13,1.674860476e-12,1.827071394e-13,3.144399603e-14
0.58594,2.765796656e-13,1.623454295e-13,1.655248482e-13,1.408442362e-13,4.760421786e-14,8.239166028e-14,6.820788985e-14,2.958893407e-14,1.835612878e-14,1.259925882e-13,2.692080574e-13,5.475499782e-14,1.764507148e-13,1.086388645e-13,3.170715767e-13,2.077459503e-13,2.412086121e-13,2.081496415e-13,1.420253462e-13,1.247738060e-13,1.208222957e-13,5.110093882e-14,8.299157154e-14,4.457205286e-13,2.392057003e-13,5.261828772e-14,1.076034452e-13,1.227222598e-12,1.899361827e-13,1.634106019e-12,1.723374274e-13,3.257827650e-14
0.59375,2.846104960e-13,1.513634106e-13,1.711039516e-13,1.230660110e-13,4.216575041e-14,8.559741917e-14,6.688599280e-14,2.860337407e-14,1.685562500e-14,1.343527683e-13,2.960604053e-13,5.057710636e-14,1.462832418e-13,9.860713897e-14,3.119253705e-13,1.864203516e-13,2.471888851e-13,1.962018485e-13,1.404708469e-13,1.420958986e-13,1.251265235e-13,4.974972390e-14,7.852497049e-14,4.418595091e-13,2.733599450e-13,5.397336115e-14,1.142305739e-13,1.412415177e-12,1.834108973e-13,1.583826599e-12,1.607653673e-13,3.489721014e-14
0.60156,2.916596482e-13,1.372235442e-13,1.672808304e-13,1.091872895e-13,3.704596231e-14,9.393296337e-14,6.747321260e-14,2.786741637e-14,1.612174271e-14,1.406963568e-13,3.163326078e-13,4.730648433e-14,1.127402974e-13,8.827211700e-14,3.069116104e-13,1.711330913e-13,2.595445314e-13,1.852282800e-13,1.417730949e-13,1.642725380e-13,1.321897324e-13,5.015263717e-14,7.666177375e-14,4.525872337e-13,2.899760791e-13,5.458051722e-14,1.254435331e-13,1.575863941e-12,1.758351005e-13,1.517068548e-12,1.479006701e-13,3.894864629e-14
0.60938,2.949802181e-13,1.189486085e-13,1.754716004e-13,9.788140252e-14,3.222981617e-14,1.077853519e-13,6.363646389e-14,2.677900809e-14,1.603443618e-14,1.370952992e-13,3.022165521e-13,4.075540536e-14,1.330815041e-13,8.060456788e-14,3.043669389e-13,1.660439741e-13,2.769276247e-13,1.771968387e-13,1.429805646e-13,1.895541817e-13,1.397592493e-13,5.251234383e-14,6.995016798e-14,4.738532757e-13,2.711890821e-13,5.095534434e-14,1.114321056e-13,1.673816681e-12,1.641725779e-13,1.428654351e-12,1.347271617e-13,4.376448683e-14
0.61719,2.992501387e-13,1.052940534e-13,2.065391230e-13,9.056043957e-14,2.796638744e-14,1.316364759e-13,6.167914350e-14,2.856959095e-14,1.576207797e-14,1.265831751e-13,2.645148452e-13,3.097860892e-14,1.651474968e-13,7.608478952e-14,3.030939567e-13,1.657487761e-13,2.984126443e-13,1.721887367e-13,1.427212916e-13,2.133796221e-13,1.485166462e-13,5.640922754e-14,6.176938132e-14,5.033714932e-13,2.457413150e-13,4.429886485e-14,8.189063592e-14,1.743605787e-12,1.524186473e-13,1.336178019e-12,1.205636490e-13,4.919272133e-14
0.625,3.090214499e-13,9.649963389e-14,2.491616268e-13,8.691735849e-14,2.426047640e-14,1.621301189e-13,6.826097868e-14,3.410654762e-14,1.556724955e-14,1.197315496e-13,2.342503294e-13,2.445604856e-14,1.588936512e-13,7.302614357e-14,2.970883639e-13,1.618454813e-13,3.216036059e-13,1.690575508e-13,1.448438122e-13,2.400296123e-13,1.612517452e-13,6.100677091e-14,5.917061630e-14,5.309861009e-13,2.334374147e-13,3.968144589e-14,6.270567507e-14,1.787282956e-12,1.434081949e-13,1.247653241e-12,1.062516329e-13,5.547063349e-14
0.63281,3.224108116e-13,8.810356789e-14,2.811209406e-13,8.739723846e-14,2.124087483e-14,1.818847938e-13,7.893108950e-14,3.749294502e-14,1.586115085e-14,1.116683561e-13,2.160476265e-13,2.028798001e-14,8.903126233e-14,6.981557218e-14,2.839560138e-13,1.515518195e-13,3.433098218e-13,1.650936537e-13,1.496450557e-13,2.734664921e-13,1.757432821e-13,6.602702919e-14,6.237041094e-14,5.524672430e-13,2.257706950e-13,4.031171516e-14,6.354841877e-14,1.793868726e-12,1.367110342e-13,1.165713362e-12,9.236990017e-14,6.316005500e-14
0.64062,3.458650651e-13,7.948136051e-14,3.087402438e-13,9.215317407e-14,1.897562710e-14,2.069140176e-13,9.272777120e-14,3.839402854e-14,1.622486955e-14,1.056803559e-13,1.948730472e-13,1.794923594e-14,8.223585837e-14,6.820439672e-14,2.691542607e-13,1.434969980e-13,3.632929151e-13,1.617452122e-13,1.539369651e-13,3.123354540e-13,1.895291360e-13,7.206150445e-14,6.527186947e-14,5.671745365e-13,2.056905662e-13,4.038204270e-14,6.236728976e-14,1.715414931e-12,1.308651600e-13,1.087098684e-12,7.990297117e-14,7.105443371e-14
0.64844,3.739116122e-13,7.558984096e-14,3.509045679e-13,9.936765838e-14,1.751862732e-14,2.508967442e-13,1.118923617e-13,4.142527695e-14,1.617839619e-14,1.012145318e-13,1.643659546e-13,1.678559353e-14,2.455540415e-13,7.007559114e-14,2.554787414e-13,1.425683134e-13,3.814688015e-13,1.617878104e-13,1.532943791e-13,3.466964833e-13,1.983278953e-13,7.971513245e-14,6.441479991e-14,5.758586479e-13,1.777541431e-13,3.502868491e-14,4.964787753e-14,1.567228064e-12,1.284909415e-13,1.007559860e-12,6.870939759e-14,7.739074544e-14
0.65625,4.092278017e-13,8.053020944e-14,4.148321381e-13,1.083284524e-13,1.687642080e-14,3.078883208e-13,1.389829435e-13,4.935683142e-14,1.624487278e-14,1.065045448e-13,1.428354157e-13,1.870365640e-14,3.628776478e-13,7.300492764e-14,2.382132373e-13,1.395411594e-13,4.007063231e-13,1.629254469e-13,1.536765457e-13,3.733709012e-13,2.091172868e-13,8.642070128e-14,6.835365137e-14,5.794575389e-13,1.599345747e-13,2.833416281e-14,3.330521417e-14,1.394544494e-12,1.305722615e-13,9.299144464e-13,5.845006010e-14,8.218411957e-14
0.66406,4.400967712e-13,8.560432056e-14,4.689379470e-13,1.166692241e-13,1.703263558e-14,3.376454934e-13,1.610662565e-13,5.582863322e-14,1.794068201e-14,1.138614003e-13,1.382776863e-13,2.331304816e-14,2.315892988e-13,7.380827531e-14,2.149839718e-13,1.254112802e-13,4.127219897e-13,1.607067292e-13,1.581114190e-13,3.958215456e-13,2.230621269e-13,8.955818377e-14,7.867310834e-14,5.654683902e-13,1.564545831e-13,2.603678002e-14,2.882016623e-14,1.248207277e-12,1.305849686e-13,8.725635485e-13,4.894343771e-14,8.561823632e-14
0.67188,4.672590272e-13,8.561878864e-14,4.962146049e-13,1.243300050e-13,1.787461477e-14,3.364239208e-13,1.743819399e-13,5.732293308e-14,2.011805202e-14,1.184593490e-13,1.348917410e-13,2.762038625e-14,6.109034843e-14,7.266663785e-14,1.910147027e-13,1.076100389e-13,4.249993864e-13,1.561345015e-13,1.629577094e-13,4.206287790e-13,2.383247990e-13,9.005776012e-14,9.111101295e-14,5.384511688e-13,1.641404985e-13,2.635617996e-14,3.518711200e-14,1.116188350e-12,1.252361538e-13,8.348077828e-13,4.014610420e-14,8.749625995e-14
0.67969,4.852331086e-13,8.282260277e-14,5.134717808e-13,1.300809428e-13,1.907499630e-14,3.378336977e-13,1.889677347e-13,5.833265069e-14,2.028619395e-14,1.186908589e-13,1.183369809e-13,3.043114798e-14,9.349257953e-14,7.305784698e-14,1.743305326e-13,9.693407132e-14,4.444446628e-13,1.524494343e-13,1.623718553e-13,4.488370124e-13,2.498206200e-13,9.233436325e-14,9.666748286e-14,5.143236253e-13,1.715729264e-13,2.272933249e-14,3.804070965e-14,9.896368301e-13,1.157507958e-13,8.167019153e-13,3.275404040e-14,8.720598697e-14
0.6875,5.000801960e-13,8.865983155e-14,5.522647236e-13,1.353443587e-13,2.016134977e-14,3.759356899e-13,2.218193788e-13,6.466825988e-14,1.779208848e-14,1.226050073e-13,9.854851747e-14,3.472070317e-14,2.336044648e-13,7.403157841e-14,1.604458321e-13,9.120658792e-14,4.664235937e-13,1.501279511e-13,1.569869365e-13,4.760275542e-13,2.568436335e-13,9.541116487e-14,9.722238384e-14,4.914781859e-13,1.860480760e-13,1.695478491e-14,3.415254369e-14,8.628865670e-13,1.120706407e-13,8.049576352e-13,2.718517207e-14,8.425733043e-14
0.69531,5.047081899e-13,1.013110355e-13,5.991640775e-13,1.393664324e-13,2.116998563e-14,4.280256407e-13,2.625646789e-13,7.270345919e-14,1.570879572e-14,1.328288641e-13,9.809745197e-14,4.553858065e-14,2.751725949e-13,7.531948944e-14,1.495958999e-13,8.409665437e-14,4.883654450e-13,1.478863671e-13,1.548540502e-13,5.026476434e-13,2.652206184e-13,9.626588438e-14,1.012749245e-13,4.759251417e-13,2.136673732e-13,1.584237716e-14,3.603797486e-14,7.599944402e-13,1.130713702e-13,7.919254815e-13,2.312872474e-14,7.958870089e-14
0.70312,4.939623694e-13,1.044005954e-13,6.132616199e-13,1.398595297e-13,2.205336732e-14,4.418491935e-13,2.802826768e-13,7.191530941e-14,1.534601463e-14,1.355892912e-13,1.037846156e-13,5.618572804e-14,1.789328335e-13,7.637321406e-14,1.427936880e-13,7.723338247e-14,5.133009537e-13,1.468537539e-13,1.564625065e-13,5.314045295e-13,2.734974641e-13,9.407096184e-14,1.080771695e-13,4.692595215e-13,2.455319171e-13,1.868866877e-14,4.357303711e-14,6.917688352e-13,1.109842710e-13,7.836042614e-13,1.932766440e-14,7.393561559e-14
0.71094,4.658385992e-13,9.197851334e-14,5.831950411e-13,1.357454198e-13,2.253637059e-14,4.180082624e-13,2.684637196e-13,6.349244951e-14,1.514961022e-14,1.278878769e-13,1.017923357e-13,6.469649998e-14,9.390270686e-14,7.771011407e-14,1.388893841e-13,7.406165237e-14,5.389376708e-13,1.486359935e-13,1.527900540e-13,5.485937649e-13,2.718685526e-13,9.154089406e-14,1.079083078e-13,4.763290081e-13,2.565155387e-13,1.817716608e-14,5.482993976e-14,6.530104749e-13,1.019923836e-13,7.791301304e-13,1.558613958e-14,6.779649053e-14
0.71875,4.316914969e-13,7.839587101e-14,5.396014829e-13,1.307161246e-13,2.262334330e-14,4.005552380e-13,2.538901134e-13,5.698452921e-14,1.433896232e-14,1.174998572e-13,9.866257725e-14,7.323297274e-14,1.770186691e-13,8.052512346e-14,1.395196599e-13,7.638522519e-14,5.645356070e-13,1.507600436e-13,1.416253143e-13,5.503466880e-13,2.617825479e-13,8.976899490e-14,1.006699374e-13,5.016790585e-13,2.475390025e-13,1.444694138e-14,7.292562835e-14,6.406704370e-13,9.325611542e-14,7.843513188e-13,1.309390147e-14,6.084069145e-14
0.72656,3.948838458e-13,7.305608229e-14,5.063992541e-13,1.252757741e-13,2.197514734e-14,3.967044686e-13,2.519587972e-13,5.429971423e-14,1.436971362e-14,1.119142842e-13,1.096185529e-13,8.616791083e-14,3.067710742e-13,8.583122266e-14,1.461214745e-13,7.764154805e-14,5.859838385e-13,1.483742849e-13,1.295646293e-13,5.434762436e-13,2.499479269e-13,8.597591651e-14,9.524401784e-14,5.347635980e-13,2.408631565e-13,1.435694486e-14,9.309301203e-14,6.508605349e-13,9.015462657e-14,8.002452390e-13,1.200679848e-14,5.358651093e-14
0.73438,3.614486022e-13,7.152880712e-14,4.890354382e-13,1.198635051e-13,2.116945708e-14,3.830847262e-13,2.592875323e-13,5.048313604e-14,1.513815821e-14,1.074073899e-13,1.198340106e-13,9.618290308e-14,2.698458219e-13,9.246062969e-14,1.595605701e-13,7.688862650e-14,6.030149001e-13,1.424232448e-13,1.234628619e-13,5.415022049e-13,2.427024356e-13,7.816875833e-14,9.607677065e-14,5.776791527e-13,2.546951412e-13,1.800313079e-14,1.018845586e-13,6.892460123e-13,8.961357489e-14,8.285654764e-13,1.131644997e-14,4.685983696e-14
0.74219,3.328909877e-13,6.627223152e-14,4.778723199e-13,1.147412491e-13,2.032655191e-14,3.585138407e-13,2.663212671e-13,4.339293591e-14,1.553493718e-14,1.016617293e-13,1.213976558e-13,1.015356340e-13,1.522756514e-13,9.980632898e-14,1.796920868e-13,8.098258949e-14,6.219141068e-13,1.390256284e-13,1.193304434e-13,5.400871448e-13,2.335965173e-13,6.878987198e-14,9.795839493e-14,6.309321634e-13,2.707882291e-13,1.937034760e-14,9.878534504e-14,7.362094017e-13,8.704525602e-14,8.531058365e-13,1.025864980e-14,4.103078856e-14
0.75,3.112994633e-13,6.236791918e-14,4.725410396e-13,1.116264638e-13,1.946154356e-14,3.585359296e-13,2.818611109e-13,3.958626234e-14,1.619615552e-14,1.005521946e-13,1.247468308e-13,1.076786165e-13,1.285228419e-13,1.074994937e-13,2.078855704e-13,9.342214104e-14,6.427677591e-13,1.398337586e-13,1.140593362e-13,5.305528747e-13,2.209477459e-13,6.200445233e-14,9.718982348e-14,6.974695859e-13,2.662443936e-13,1.622210941e-14,8.969672578e-14,7.784865368e-13,8.190572399e-14,8.720662173e-13,9.186609781e-15,3.539100106e-14
0.75781,2.944084137e-13,6.560612058e-14,4.649259353e-13,1.100919631e-13,1.878135257e-14,3.825343478e-13,3.020870072e-13,3.913553847e-14,1.929154677e-14,1.022401691e-13,1.442630880e-13,1.199733103e-13,1.246852491e-13,1.147868265e-13,2.423044456e-13,1.049625239e-13,6.547051140e-13,1.399472807e-13,1.070402974e-13,5.093042921e-13,2.039944775e-13,5.800740203e-14,9.397292002e-14,7.742092037e-13,2.349716284e-13,1.378003804e-14,8.867858948e-14,7.960945138e-13,7.935031458e-14,8.719828024e-13,9.032556089e-15,2.983370921e-14
0.76562,2.805077726e-13,7.456142539e-14,4.543818637e-13,1.080561381e-13,1.825207929e-14,4.000900843e-13,3.240464295e-13,3.926512719e-14,2.354359369e-14,1.047496451e-13,1.685364249e-13,1.321217309e-13,1.059031854e-13,1.202174128e-13,2.797678399e-13,1.119183886e-13,6.535634803e-13,1.364418544e-13,1.005308117e-13,4.859045206e-13,1.875904103e-13,5.492362174e-14,9.281099051e-14,8.531575045e-13,2.035746263e-13,1.543617527e-14,1.052184812e-13,8.139261051e-13,8.075691647e-14,8.675122785e-13,9.137558526e-15,2.523104192e-14
0.77344,2.698994789e-13,8.131066882e-14,4.482023423e-13,1.045156293e-13,1.783625522e-14,3.890448494e-13,3.460156281e-13,3.749949091e-14,2.622581843e-14,1.048880808e-13,1.815184223e-13,1.351104240e-13,1.812855851e-13,1.258823177e-13,3.232833722e-13,1.227202382e-13,6.387683178e-13,1.359017396e-13,9.725895792e-14,4.689371453e-13,1.754389531e-13,5.317839902e-14,9.496047748e-14,9.368566819e-13,1.841773518e-13,1.899925771e-14,1.287392404e-13,8.474566237e-13,8.034600559e-14,8.598983424e-13,8.922531588e-15,2.177700906e-14
0.78125,2.605759769e-13,8.918843280e-14,4.559250764e-13,1.008608587e-13,1.738995294e-14,3.665355055e-13,3.752352114e-13,3.727526073e-14,2.761341003e-14,1.054373538e-13,1.857116704e-13,1.305801181e-13,2.874584205e-13,1.305730635e-13,3.689277502e-13,1.441232654e-13,6.239765638e-13,1.442372261e-13,9.900865945e-14,4.558525077e-13,1.690814978e-13,5.328406209e-14,1.012428143e-13,1.023226551e-12,1.765173297e-13,2.184827178e-14,1.315198319e-13,9.031275323e-13,7.283659159e-14,8.522916212e-13,8.837444791e-15,1.912627634e-14
0.78906,2.552394828e-13,1.039837517e-13,4.719482254e-13,9.793398797e-14,1.697714169e-14,3.590269640e-13,4.113861981e-13,4.082808382e-14,3.012187193e-14,1.094176389e-13,1.956883604e-13,1.278904107e-13,2.530022286e-13,1.316128406e-13,4.100521735e-13,1.636659159e-13,6.034045688e-13,1.558704299e-13,1.040681885e-13,4.402994105e-13,1.658882327e-13,5.392989598e-14,1.100233070e-13,1.100978398e-12,1.661184822e-13,2.433906290e-14,1.122211951e-13,9.591161928e-13,6.109860323e-14,8.245046498e-13,9.437526086e-15,1.689305615e-14
0.79688,2.503559672e-13,1.204365006e-13,4.804697582e-13,9.448614659e-14,1.670145283e-14,3.590698736e-13,4.444828604e-13,4.495554455e-14,3.310653642e-14,1.147619860e-13,2.105152768e-13,1.292349657e-13,1.280855720e-13,1.282688533e-13,4.415740274e-13,1.739620563e-13,5.759435250e-13,1.662218729e-13,1.082064219e-13,4.198780563e-13,1.630236990e-13,5.429794043e-14,1.178873975e-13,1.172656470e-12,1.485711096e-13,2.733550707e-14,8.993195950e-14,9.921724658e-13,5.013885313e-14,7.679253641e-13,1.009785470e-14,1.526741427e-14
0.80469,2.503771244e-13,1.255952055e-13,4.826315841e-13,9.017522571e-14,1.635972870e-14,3.517080937e-13,4.752241941e-13,4.582817503e-14,3.274424849e-14,1.193814212e-13,2.044665726e-13,1.266022374e-13,8.049263034e-14,1.216736443e-13,4.614703007e-13,1.819521626e-13,5.467204117e-13,1.803520542e-13,1.088988972e-13,3.992365695e-13,1.592578435e-13,5.594664094e-14,1.212842433e-13,1.235300256e-12,1.281545868e-13,3.089771756e-14,7.412922878e-14,9.852112217e-13,4.218806267e-14,6.858846524e-13,1.020957220e-14,1.452627251e-14
0.8125,2.526475698e-13,1.219845748e-13,4.933258027e-13,8.424314613e-14,1.577508641e-14,3.387097377e-13,5.174356751e-13,4.556036534e-14,2.920403558e-14,1.252490475e-13,1.791072895e-13,1.213293915e-13,1.322300041e-13,1.132553165e-13,4.673322405e-13,1.938346996e-13,5.169574193e-13,1.986678900e-13,1.093928886e-13,3.848470361e-13,1.577973612e-13,5.872014079e-14,1.235820273e-13,1.287709625e-12,1.195659913e-13,3.553231117e-14,6.775032298e-14,9.512757460e-13,3.761418687e-14,5.911573241e-13,1.039150132e-14,1.421040665e-14
0.82031,2.570779375e-13,1.236621395e-13,5.179351084e-13,7.883419551e-14,1.477418433e-14,3.371715866e-13,5.774877739e-13,4.876807811e-14,2.602107435e-14,1.360130650e-13,1.549834425e-13,1.189239671e-13,1.696442357e-13,1.027660734e-13,4.566034837e-13,2.009640779e-13,4.917186986e-13,2.140178323e-13,1.132529175e-13,3.800092702e-13,1.591391294e-13,6.011521480e-14,1.285687117e-13,1.310654779e-12,1.248420902e-13,3.943019277e-14,6.659577459e-14,9.090067745e-13,3.505703484e-14,4.989547036e-13,1.094110897e-14,1.409518707e-14
0.82812,2.627566578e-13,1.294368502e-13,5.347090631e-13,7.363634819e-14,1.348149029e-14,3.340506776e-13,6.330563386e-13,5.363478044e-14,2.494211797e-14,1.454893832e-13,1.446788834e-13,1.213077792e-13,1.307947409e-13,9.224473409e-14,4.328039133e-13,1.964664465e-13,4.709275069e-13,2.224792107e-13,1.213913377e-13,3.853269192e-13,1.620495398e-13,5.918313573e-14,1.340926926e-13,1.308599469e-12,1.296822337e-13,3.977873662e-14,6.329815237e-14,8.614057056e-13,3.278233128e-14,4.090187864e-13,1.147418316e-14,1.391450437e-14
0.83594,2.701313749e-13,1.291591837e-13,5.211763828e-13,6.824631471e-14,1.215068221e-14,3.152150920e-13,6.657632443e-13,5.725989439e-14,2.382658352e-14,1.508092605e-13,1.359572390e-13,1.197426051e-13,1.152243088e-13,8.244209046e-14,3.974311916e-13,1.891990134e-13,4.588669110e-13,2.295039895e-13,1.299075560e-13,3.925925474e-13,1.649732280e-13,5.714895270e-14,1.385173562e-13,1.294482748e-12,1.212481089e-13,4.024636226e-14,5.893786252e-14,7.918918217e-13,3.076294800e-14,3.241743645e-13,1.176966632e-14,1.402446388e-14
0.84375,2.785855578e-13,1.198907134e-13,4.815450508e-13,6.297812023e-14,1.083330508e-14,2.875513225e-13,6.791087431e-13,5.813300783e-14,2.184847687e-14,1.531464878e-13,1.187801746e-13,1.129846951e-13,1.914366769e-13,7.438877251e-14,3.555691584e-13,1.874843519e-13,4.599337184e-13,2.382696782e-13,1.379448273e-13,3.996141931e-13,1.688963899e-13,5.599181914e-14,1.426364484e-13,1.284330479e-12,1.074068768e-13,4.624259257e-14,6.196819675e-14,6.986803649e-13,3.001821540e-14,2.491407870e-13,1.207979843e-14,1.420011902e-14
0.85156,2.858386829e-13,1.101693925e-13,4.319878136e-13,5.785977795e-14,9.621841787e-15,2.595137047e-13,6.767131978e-13,5.764067270e-14,2.103263379e-14,1.546985882e-13,9.797205155e-14,1.073747111e-13,2.141871948e-13,6.837998080e-14,3.095702861e-13,1.869250758e-13,4.709652707e-13,2.467424127e-13,1.476021658e-13,4.088194385e-13,1.746760579e-13,5.537910752e-14,1.469883404e-13,1.279478744e-12,1.007870944e-13,5.441873070e-14,7.014319352e-14,5.980685710e-13,3.151614977e-14,1.899934275e-13,1.245309193e-14,1.391108386e-14
0.85938,2.942260484e-13,1.035452292e-13,3.912123379e-13,5.357362496e-14,8.754495680e-15,2.382846491e-13,6.678336087e-13,5.757054164e-14,2.162023122e-14,1.573112493e-13,8.040246795e-14,1.070944694e-13,1.001317036e-13,6.224585768e-14,2.624010844e-13,1.821739919e-13,4.836735130e-13,2.538492302e-13,1.598572176e-13,4.213906231e-13,1.810254820e-13,5.524966707e-14,1.472007928e-13,1.282084646e-12,1.017045476e-13,5.598543421e-14,7.078130117e-14,5.030966861e-13,3.391773644e-14,1.460305995e-13,1.273549088e-14,1.280836178e-14
0.86719,3.008052479e-13,9.722672031e-14,3.574076520e-13,4.973995766e-14,8.279159448e-15,2.187234566e-13,6.615611026e-13,5.908819494e-14,2.286062385e-14,1.589429194e-13,7.013991340e-14,1.090708746e-13,4.232486112e-14,5.936542988e-14,2.214651784e-13,1.801188160e-13,4.998565490e-13,2.612316431e-13,1.745897658e-13,4.368208296e-13,1.908885498e-13,5.622129281e-14,1.442619549e-13,1.297555176e-12,9.801009433e-14,5.019335048e-14,6.459907983e-14,4.267315703e-13,3.671281167e-14,1.155884245e-13,1.227122689e-14,1.142138980e-14
0.875,3.060238605e-13,8.971015937e-14,3.224735492e-13,4.660250242e-14,8.033911266e-15,2.020057980e-13,6.613996535e-13,6.179798734e-14,2.454949471e-14,1.597846124e-13,6.028407439e-14,1.097955340e-13,1.515029994e-13,6.171604111e-14,1.911636404e-13,1.891284542e-13,5.210354432e-13,2.747765739e-13,1.920277638e-13,4.555955445e-13,2.048943612e-13,5.922952085e-14,1.404273762e-13,1.329888082e-12,8.903496365e-14,4.419571712e-14,6.066679176e-14,3.583267291e-13,4.108695694e-14,9.603633012e-14,1.191657032e-14,1.029197037e-14
0.88281,3.132623775e-13,8.572151757e-14,2.811246156e-13,4.452793720e-14,8.064540832e-15,1.861378354e-13,6.581147901e-13,6.507298407e-14,2.805916773e-14,1.594154596e-13,5.064588632e-14,1.120796756e-13,2.494931028e-13,6.766093487e-14,1.700365917e-13,2.007479244e-13,5.416213682e-13,2.921571420e-13,2.139065321e-13,4.793268654e-13,2.235433530e-13,6.323033468e-14,1.382389568e-13,1.379918521e-12,8.204272885e-14,4.041927018e-14,6.685587113e-14,3.038271739e-13,4.782641589e-14,8.211855644e-14,1.217585721e-14,9.109112845e-15
0.89062,3.194577675e-13,8.399097847e-14,2.367349602e-13,4.305211058e-14,8.375805475e-15,1.717728268e-13,6.363911960e-13,6.653138972e-14,3.300833584e-14,1.557553454e-13,4.268869515e-14,1.191230318e-13,2.417874764e-13,7.588712593e-14,1.583128620e-13,2.071206341e-13,5.500875488e-13,3.064279119e-13,2.385139608e-13,5.039028313e-13,2.421607992e-13,6.773912176e-14,1.348628505e-13,1.432481081e-12,7.928649377e-14,3.718098305e-14,8.156029466e-14,2.587086191e-13,5.561863610e-14,7.451721117e-14,1.275109553e-14,7.909879137e-15
0.89844,3.246090008e-13,8.079305299e-14,1.942218745e-13,4.201874276e-14,9.162571380e-15,1.557392837e-13,5.940269180e-13,6.542445902e-14,3.745131390e-14,1.488114875e-13,3.919609008e-14,1.310778285e-13,2.295314032e-13,8.793778506e-14,1.560001949e-13,2.122416277e-13,5.477944810e-13,3.192297733e-13,2.654298744e-13,5.281043788e-13,2.624623070e-13,7.266701780e-14,1.288801080e-13,1.475672210e-12,7.413290348e-14,3.432595326e-14,9.737907914e-14,2.275166244e-13,6.496403234e-14,7.408578614e-14,1.403118652e-14,6.776453806e-15
0.90625,3.303204083e-13,7.449300644e-14,1.539614874e-13,4.214526167e-14,1.070580805e-14,1.353356600e-13,5.353216092e-13,6.053858918e-14,4.056758122e-14,1.363944167e-13,3.685822033e-14,1.434068635e-13,2.432028405e-13,1.036964387e-13,1.625175624e-13,2.250791028e-13,5.454234962e-13,3.370049488e-13,2.942317308e-13,5.479855460e-13,2.839503428e-13,7.857380674e-14,1.222864209e-13,1.511631803e-12,6.306686119e-14,3.379870918e-14,1.037223551e-13,2.040110017e-13,7.481047238e-14,8.067693572e-14,1.640166695e-14,5.946207605e-15
0.91406,3.349305539e-13,6.667699246e-14,1.189038975e-13,4.381143607e-14,1.308386315e-14,1.176624362e-13,4.750299076e-13,5.525652912e-14,4.349657105e-14,1.219457407e-13,3.683190045e-14,1.570746335e-13,2.187218760e-13,1.214407100e-13,1.730730144e-13,2.421099346e-13,5.445316016e-13,3.587070468e-13,3.254209271e-13,5.652259394e-13,3.078362718e-13,8.484760272e-14,1.168394692e-13,1.552829405e-12,5.196792251e-14,3.392167994e-14,1.008847757e-13,1.900359594e-13,8.530009517e-14,9.238668819e-14,2.010872814e-14,5.398430481e-15
0.92188,3.404577202e-13,5.984774794e-14,9.244453073e-14,4.734451380e-14,1.623002925e-14,1.065819832e-13,4.204490299e-13,5.148223355e-14,4.692478472e-14,1.069013961e-13,3.993945309e-14,1.734702559e-13,1.576319574e-13,1.402511784e-13,1.849415232e-13,2.563677785e-13,5.377023455e-13,3.797690138e-13,3.571522027e-13,5.816023531e-13,3.312357060e-13,9.027450089e-14,1.123835979e-13,1.585796205e-12,4.551936233e-14,3.275163383e-14,1.001614535e-13,1.845260222e-13,9.597556876e-14,1.089923403e-13,2.532006842e-14,4.960190537e-15
0.92969,3.469382112e-13,5.472183362e-14,7.376384183e-14,5.242465501e-14,1.967357730e-14,1.012960362e-13,3.736836734e-13,4.895019692e-14,4.910168006e-14,9.372396902e-14,4.516217034e-14,1.898010777e-13,1.303631483e-13,1.587927241e-13,1.970359566e-13,2.656285459e-13,5.228786133e-13,3.974854629e-13,3.867161207e-13,5.957961297e-13,3.520494655e-13,9.557842935e-14,1.074937294e-13,1.590422770e-12,4.094600257e-14,3.168828924e-14,1.092506025e-13,1.923366317e-13,1.077180356e-13,1.301264520e-13,3.228525414e-14,4.728384553e-15
0.9375,3.549440155e-13,5.336776256e-14,6.224583005e-14,6.000491700e-14,2.341395066e-14,1.009394617e-13,3.345633266e-13,4.537191969e-14,4.932230449e-14,8.200383340e-14,5.088313418e-14,2.032252948e-13,1.856545808e-13,1.785552332e-13,2.109118784e-13,2.754784985e-13,5.038802814e-13,4.140102428e-13,4.143844261e-13,6.071758973e-13,3.706649950e-13,1.008353454e-13,1.040788992e-13,1.562470311e-12,3.805257551e-14,3.301005222e-14,1.281698124e-13,2.103584618e-13,1.203910184e-13,1.541377563e-13,4.093739412e-14,4.803309514e-15
0.94531,3.630442448e-13,5.503104800e-14,5.735413558e-14,6.974885457e-14,2.785365059e-14,1.081727716e-13,3.015550490e-13,4.069230729e-14,4.823186022e-14,7.239750653e-14,5.707076794e-14,2.128879930e-13,3.140909853e-13,1.994909296e-13,2.255598912e-13,2.899558851e-13,4.879796244e-13,4.335704105e-13,4.396099964e-13,6.148057960e-13,3.873862091e-13,1.053523878e-13,1.027252840e-13,1.517097490e-12,3.831138692e-14,3.619412669e-14,1.450608365e-13,2.383879909e-13,1.315272907e-13,1.786173102e-13,5.100701148e-14,5.154125606e-15
0.95312,3.702336913e-13,5.723191688e-14,6.054750638e-14,8.118643063e-14,3.269724958e-14,1.226547223e-13,2.718435620e-13,3.602288518e-14,4.690330077e-14,6.414066473e-14,6.498642844e-14,2.205568316e-13,4.496637676e-13,2.194140574e-13,2.384134678e-13,3.040984653e-13,4.754711402e-13,4.549929593e-13,4.628005568e-13,6.231438825e-13,4.029555986e-13,1.083182220e-13,1.047157007e-13,1.469070623e-12,4.223627482e-14,4.060670951e-14,1.585320292e-13,2.746164432e-13,1.416198070e-13,2.022374605e-13,6.239435262e-14,5.699086932e-15
0.96094,3.738078093e-13,5.871050767e-14,6.820656941e-14,9.323715206e-14,3.735168281e-14,1.419198627e-13,2.448542322e-13,3.330053577e-14,4.657977702e-14,5.892008877e-14,7.783759039e-14,2.274753436e-13,5.239206689e-13,2.355470690e-13,2.480895145e-13,3.126233560e-13,4.629433048e-13,4.751092273e-13,4.829309294e-13,6.323198562e-13,4.154020179e-13,1.097308625e-13,1.095058380e-13,1.415088194e-12,4.936151000e-14,4.714085134e-14,1.710134590e-13,3.143234345e-13,1.507614888e-13,2.264537899e-13,7.473519531e-14,6.355092635e-15
0.96875,3.814161526e-13,6.118969487e-14,7.660639085e-14,1.065477446e-13,4.181467308e-14,1.611410387e-13,2.243305827e-13,3.207722593e-14,4.705353357e-14,5.807052771e-14,9.356528256e-14,2.299572468e-13,4.980407294e-13,2.443656718e-13,2.527352033e-13,3.123451848e-13,4.460552684e-13,4.893748406e-13,4.976678447e-13,6.393751216e-13,4.208507093e-13,1.095417008e-13,1.164448620e-13,1.343499513e-12,6.050395250e-14,5.524423726e-14,1.873415440e-13,3.455317921e-13,1.613981376e-13,2.528910016e-13,8.745772123e-14,7.338527635e-15
0.97656,3.901257493e-13,6.381647425e-14,8.167400499e-14,1.193037156e-13,4.608066507e-14,1.803714718e-13,2.117880078e-13,3.145459642e-14,4.836742945e-14,6.037150726e-14,1.078786282e-13,2.282779064e-13,3.713877907e-13,2.489773340e-13,2.570151122e-13,3.096294025e-13,4.304965991e-13,4.985742947e-13,5.070950898e-13,6.443892590e-13,4.202881515e-13,1.075399236e-13,1.245050265e-13,1.262665681e-12,7.562169151e-14,6.113454989e-14,1.982934474e-13,3.742731455e-13,1.706863445e-13,2.786966794e-13,9.917392548e-14,8.491724873e-15
0.98438,3.988011258e-13,6.603836585e-14,8.657309140e-14,1.298470989e-13,4.982327481e-14,2.001919706e-13,2.104940913e-13,3.060928960e-14,4.887581669e-14,6.499110355e-14,1.164597743e-13,2.201974194e-13,2.347685236e-13,2.513557813e-13,2.612789183e-13,3.092153360e-13,4.199563340e-13,5.036899714e-13,5.113182720e-13,6.481919547e-13,4.166126023e-13,1.043696011e-13,1.345727776e-13,1.194896690e-12,9.630461227e-14,6.575172550e-14,2.160340292e-13,4.009056310e-13,1.804398580e-13,3.058290347e-13,1.090916077e-13,9.863883179e-15
0.99219,4.038960091e-13,6.848590107e-14,9.502477396e-14,1.362348050e-13,5.232298799e-14,2.268435268e-13,2.170041971e-13,3.043421141e-14,4.855578119e-14,7.181021579e-14,1.237243254e-13,2.107369887e-13,1.961882408e-13,2.531822829e-13,2.666973227e-13,3.112757442e-13,4.176194917e-13,5.053967331e-13,5.102155065e-13,6.521988567e-13,4.116427647e-13,1.005487193e-13,1.461156607e-13,1.144349263e-12,1.239190860e-13,7.362166795e-14,2.461461875e-13,4.286376986e-13,1.920630312e-13,3.275063349e-13,1.178316096e-13,1.129754638e-14
1,4.066704111e-13,7.243392861e-14,1.048570296e-13,1.385998201e-13,5.329114972e-14,2.570817768e-13,2.287241287e-13,3.120383633e-14,4.836734989e-14,8.146460327e-14,1.323104175e-13,2.006452369e-13,2.485590836e-13,2.548473694e-13,2.748327532e-13,3.162147575e-13,4.268541493e-13,5.065493609e-13,5.041943655e-13,6.553391845e-13,4.050124789e-13,9.664028735e-14,1.585660583e-13,1.107405257e-12,1.590324593e-13,8.506378194e-14,2.811983024e-13,4.477751824e-13,2.062322282e-13,3.425096614e-13,1.251780953e-13,1.276352790e-14
1.0078,4.131201913e-13,7.719961034e-14,1.133719426e-13,1.382129462e-13,5.332529209e-14,2.920806867e-13,2.456216256e-13,3.298552746e-14,4.907763168e-14,9.444091450e-14,1.410118486e-13,1.915451333e-13,3.175308307e-13,2.557466275e-13,2.838835378e-13,3.220688595e-13,4.461521775e-13,5.073477911e-13,4.919180100e-13,6.549392019e-13,3.955038538e-13,9.249811831e-14,1.685038316e-13,1.079276978e-12,1.989778334e-13,9.342292796e-14,2.982087866e-13,4.682335436e-13,2.191454316e-13,3.508828855e-13,1.301094022e-13,1.409112926e-14
1.0156,4.245857555e-13,7.986462605e-14,1.181556321e-13,1.350632030e-13,5.232322765e-14,3.212901853e-13,2.720822022e-13,3.476626908e-14,4.992731864e-14,1.087658795e-13,1.467984858e-13,1.837821277e-13,3.689271662e-13,2.566724151e-13,2.929862186e-13,3.299432438e-13,4.753251912e-13,5.042614322e-13,4.744700527e-13,6.514146831e-13,3.852946286e-13,8.827427360e-14,1.776235854e-13,1.058297934e-12,2.456457359e-13,9.413571617e-14,2.997854540e-13,4.939014901e-13,2.306665277e-13,3.510401394e-13,1.298707610e-13,1.485933265e-14
1.0234,4.459507794e-13,8.117444883e-14,1.189559940e-13,1.302813553e-13,5.038680009e-14,3.409042882e-13,3.076304045e-13,3.587683403e-14,4.981450700e-14,1.233111930e-13,1.489231137e-13,1.765384039e-13,3.894551233e-13,2.568472326e-13,3.005750067e-13,3.398140769e-13,5.153649892e-13,4.977830234e-13,4.541879080e-13,6.472546306e-13,3.755621623e-13,8.461907782e-14,1.868344339e-13,1.043530803e-12,3.003158085e-13,9.171674426e-14,3.011479362e-13,5.296417859e-13,2.446509972e-13,3.461380876e-13,1.266822603e-13,1.496221729e-14
1.0312,4.777337161e-13,8.307944464e-14,1.202517381e-13,1.242191784e-13,4.783768690e-14,3.494790594e-13,3.466160020e-13,3.608779045e-14,4.909605399e-14,1.352828546e-13,1.494609560e-13,1.700938927e-13,3.453538069e-13,2.561980007e-13,3.059944376e-13,3.496349887e-13,5.659701538e-13,4.860052281e-13,4.330668129e-13,6.419969180e-13,3.662045224e-13,8.097949304e-14,1.971023483e-13,1.029141812e-12,3.672073999e-13,9.085949777e-14,3.094945723e-13,5.624238073e-13,2.634943569e-13,3.351418402e-13,1.234332743e-13,1.456015656e-14
1.0391,5.205522262e-13,8.565553408e-14,1.251462281e-13,1.172448586e-13,4.492358699e-14,3.534377080e-13,3.909091273e-13,3.580907351e-14,4.770151321e-14,1.441750839e-13,1.481168162e-13,1.616552023e-13,2.580817162e-13,2.507596067e-13,3.074983751e-13,3.541330781e-13,6.138021351e-13,4.688623048e-13,4.090000381e-13,6.313337147e-13,3.539470033e-13,7.785820889e-14,2.069286631e-13,1.009406503e-12,4.389289641e-13,9.048591259e-14,3.182851051e-13,5.966746914e-13,2.844321450e-13,3.199424204e-13,1.196865792e-13,1.390669271e-14
1.0469,5.707478331e-13,8.804475329e-14,1.343325508e-13,1.095804535e-13,4.188271024e-14,3.522099560e-13,4.356433568e-13,3.481755504e-14,4.559795383e-14,1.475091018e-13,1.439074439e-13,1.514516185e-13,1.852072417e-13,2.418359569e-13,3.068457388e-13,3.542732308e-13,6.549275213e-13,4.476637275e-13,3.814044685e-13,6.156285025e-13,3.395904356e-13,7.523406212e-14,2.146638934e-13,9.786043766e-13,5.104445177e-13,8.740002757e-14,3.215591495e-13,6.241625296e-13,3.056989737e-13,3.042426853e-13,1.148711984e-13,1.285697487e-14
1.0547,6.276587435e-13,9.230704611e-14,1.468038199e-13,1.023989099e-13,3.920374300e-14,3.492341669e-13,4.739014736e-13,3.307986671e-14,4.263090041e-14,1.476596484e-13,1.381536032e-13,1.398877931e-13,1.531976516e-13,2.326357617e-13,3.056607085e-13,3.520648926e-13,6.912232470e-13,4.258043499e-13,3.518724144e-13,5.965003020e-13,3.237646918e-13,7.352621582e-14,2.200837521e-13,9.391866063e-13,5.760187309e-13,8.316588352e-14,3.234282258e-13,6.419563863e-13,3.282731987e-13,2.916835525e-13,1.096913208e-13,1.167209611e-14
1.0625,6.795231600e-13,9.631095650e-14,1.592984410e-13,9.564112438e-14,3.696840745e-14,3.403347191e-13,4.985173218e-13,3.063655250e-14,3.976528142e-14,1.445428389e-13,1.319070079e-13,1.292773760e-13,1.484443271e-13,2.246515502e-13,3.021433767e-13,3.474875262e-13,7.226628546e-13,4.057119688e-13,3.229947937e-13,5.756660213e-13,3.075683739e-13,7.296672536e-14,2.221711453e-13,9.003309982e-13,6.346882615e-13,7.923464461e-14,3.223534786e-13,6.398630288e-13,3.500228419e-13,2.808154234e-13,1.057769761e-13,1.047113112e-14
1.0703,7.245988897e-13,1.011417181e-13,1.727278776e-13,9.051074170e-14,3.547628201e-14,3.271101339e-13,5.104737915e-13,2.832831974e-14,3.730283374e-14,1.418195886e-13,1.287579477e-13,1.190993066e-13,1.442799958e-13,2.160947510e-13,2.950807582e-13,3.353656432e-13,7.413841410e-13,3.839716135e-13,2.930503238e-13,5.501532482e-13,2.894711638e-13,7.317966597e-14,2.193637675e-13,8.628022252e-13,6.748993206e-13,7.531911702e-14,3.128551211e-13,6.243914021e-13,3.689489415e-13,2.759605210e-13,1.038200770e-13,9.431484559e-15
1.0781,7.584247347e-13,1.056293159e-13,1.907061292e-13,8.778228845e-14,3.480565555e-14,3.111369286e-13,5.137537872e-13,2.672145627e-14,3.480773855e-14,1.380974739e-13,1.285172915e-13,1.085470641e-13,1.419666010e-13,2.046720416e-13,2.833138233e-13,3.140478105e-13,7.408450336e-13,3.585696683e-13,2.627586028e-13,5.184590698e-13,2.679105696e-13,7.528654878e-14,2.109900074e-13,8.234261157e-13,6.908938511e-13,6.987697157e-14,2.950647032e-13,5.944517036e-13,3.823809422e-13,2.718721792e-13,1.026648350e-13,8.696824253e-15
1.0859,7.822841823e-13,1.121160965e-13,2.121244482e-13,8.800926986e-14,3.487031395e-14,2.970309617e-13,5.054820765e-13,2.656506822e-14,3.293717414e-14,1.335904939e-13,1.322986539e-13,9.962491969e-14,1.482644675e-13,1.909559625e-13,2.660224031e-13,2.833352260e-13,7.215279463e-13,3.317896350e-13,2.361480904e-13,4.857181168e-13,2.467788217e-13,7.939725342e-14,2.006616066e-13,7.831135768e-13,6.850199981e-13,6.401200603e-14,2.764108063e-13,5.550896108e-13,3.913782088e-13,2.721928837e-13,1.017114708e-13,8.441190881e-15
1.0938,7.968003186e-13,1.213008457e-13,2.362538601e-13,9.081856205e-14,3.555910658e-14,2.881098918e-13,4.823356983e-13,2.777802625e-14,3.194922049e-14,1.285571964e-13,1.403717998e-13,9.296566799e-14,1.555610616e-13,1.784011070e-13,2.473446045e-13,2.465703463e-13,6.880228604e-13,3.066510255e-13,2.140421063e-13,4.528107878e-13,2.258613813e-13,8.572887071e-14,1.900797798e-13,7.423395284e-13,6.660500530e-13,5.871806588e-14,2.593823583e-13,5.178320553e-13,3.969188380e-13,2.756419785e-13,1.011325254e-13,8.606814750e-15
1.1016,7.924011809e-13,1.301205538e-13,2.600933839e-13,9.616562148e-14,3.688963269e-14,2.793201739e-13,4.537784315e-13,3.005221253e-14,3.253778967e-14,1.258592645e-13,1.535252910e-13,9.022881448e-14,1.467168714e-13,1.700493228e-13,2.286639360e-13,2.069114666e-13,6.396862283e-13,2.846247907e-13,1.994657761e-13,4.198759533e-13,2.060963997e-13,9.534569842e-14,1.805387646e-13,7.003910751e-13,6.326912229e-13,5.345781127e-14,2.386263985e-13,4.877381577e-13,3.980892134e-13,2.806920913e-13,1.011481087e-13,9.153359629e-15
1.1094,7.765406628e-13,1.400996961e-13,2.821045138e-13,1.040077013e-13,3.878758455e-14,2.704059465e-13,4.213486929e-13,3.265245120e-14,3.410938692e-14,1.244203666e-13,1.692905038e-13,8.891866081e-14,1.357304794e-13,1.656349311e-13,2.118936381e-13,1.708984364e-13,5.843208482e-13,2.682455161e-13,1.907826717e-13,3.853214988e-13,1.870472604e-13,1.085531284e-13,1.726846852e-13,6.606350437e-13,5.873571285e-13,4.804710104e-14,2.179677514e-13,4.717147076e-13,3.949021256e-13,2.861253486e-13,1.012029419e-13,9.882605834e-15
1.1172,7.483215540e-13,1.515542609e-13,3.009394729e-13,1.136197157e-13,4.091417609e-14,2.576001965e-13,3.885664640e-13,3.442993784e-14,3.639990445e-14,1.237598121e-13,1.856516262e-13,8.663510944e-14,1.252974120e-13,1.630822147e-13,1.972665278e-13,1.365924223e-13,5.187565718e-13,2.552059973e-13,1.871738740e-13,3.508383786e-13,1.703950783e-13,1.235107395e-13,1.666161755e-13,6.340765231e-13,5.355138464e-13,4.347320334e-14,2.012333613e-13,4.765061431e-13,3.902605501e-13,2.917238494e-13,1.013167943e-13,1.082152437e-14
1.125,7.113082703e-13,1.677795254e-13,3.170929931e-13,1.251170383e-13,4.274775362e-14,2.462461962e-13,3.573449540e-13,3.565384792e-14,3.936642081e-14,1.236511790e-13,2.034386085e-13,8.469935520e-14,1.121362186e-13,1.632443211e-13,1.883305435e-13,1.074525356e-13,4.540903505e-13,2.477045432e-13,1.865912662e-13,3.201470117e-13,1.568315096e-13,1.392527411e-13,1.643975862e-13,6.192309804e-13,4.895925251e-13,4.064425511e-14,1.934208794e-13,5.027977850e-13,3.873689393e-13,2.992233147e-13,1.011500712e-13,1.175901767e-14
1.1328,6.628589080e-13,1.866196483e-13,3.324119365e-13,1.382705326e-13,4.461101093e-14,2.370385415e-13,3.359634336e-13,3.719354699e-14,4.310224296e-14,1.258906597e-13,2.214839542e-13,8.477525465e-14,1.166467552e-13,1.667869904e-13,1.844980799e-13,8.366243782e-14,3.933590375e-13,2.451198946e-13,1.863544341e-13,2.909902591e-13,1.439945436e-13,1.561138605e-13,1.639612530e-13,6.205315179e-13,4.471454601e-13,3.945714845e-14,1.890488884e-13,5.474655373e-13,3.856371396e-13,3.098177154e-13,1.014917447e-13,1.286631196e-14
1.1406,6.093658386e-13,2.102020259e-13,3.465365254e-13,1.535332663e-13,4.684515772e-14,2.314397541e-13,3.277943415e-13,3.837802016e-14,4.706087637e-14,1.299704916e-13,2.365902881e-13,8.513413911e-14,1.590387352e-13,1.734994531e-13,1.848403545e-13,6.527667119e-14,3.361558701e-13,2.433419210e-13,1.850591066e-13,2.636143914e-13,1.325756963e-13,1.738196321e-13,1.635609840e-13,6.427333382e-13,4.072436068e-13,3.905661728e-14,1.888918240e-13,5.964957120e-13,3.869107811e-13,3.236490654e-13,1.027279348e-13,1.397736380e-14
1.1484,5.518817262e-13,2.361978767e-13,3.568752530e-13,1.698177779e-13,4.912685553e-14,2.218974769e-13,3.297315054e-13,3.759603208e-14,5.135945231e-14,1.337869315e-13,2.428358664e-13,8.310801432e-14,2.078896709e-13,1.807885723e-13,1.893728558e-13,5.176972550e-14,2.859174908e-13,2.422024565e-13,1.837033326e-13,2.399420217e-13,1.227409548e-13,1.902535761e-13,1.637327091e-13,6.828699602e-13,3.723655465e-13,3.969070473e-14,1.932491421e-13,6.467468280e-13,3.888803901e-13,3.392033889e-13,1.043866187e-13,1.487415137e-14
1.1562,5.006056897e-13,2.638001391e-13,3.651062079e-13,1.868770127e-13,5.155728723e-14,2.073274438e-13,3.370424359e-13,3.558107213e-14,5.623343627e-14,1.364883132e-13,2.427012950e-13,8.033049703e-14,2.198333394e-13,1.868342261e-13,1.978549317e-13,4.348714703e-14,2.484219454e-13,2.413674012e-13,1.813783804e-13,2.235301312e-13,1.155136367e-13,2.024894176e-13,1.638653820e-13,7.393317932e-13,3.487114559e-13,4.243083498e-14,2.053049231e-13,6.951792518e-13,3.942462046e-13,3.624867634e-13,1.067025227e-13,1.534251707e-14
1.1641,4.544432465e-13,2.879881119e-13,3.713570590e-13,2.024582575e-13,5.397678280e-14,1.892510351e-13,3.405069137e-13,3.334136565e-14,6.155610195e-14,1.386766490e-13,2.403882117e-13,7.908042974e-14,1.953063046e-13,1.912340713e-13,2.107062829e-13,4.074194376e-14,2.259013926e-13,2.389823173e-13,1.778922970e-13,2.137163388e-13,1.110629117e-13,2.098274812e-13,1.622633232e-13,8.147709356e-13,3.349896740e-13,4.655452762e-14,2.213956418e-13,7.436735722e-13,4.023150645e-13,3.945218163e-13,1.095325689e-13,1.519817273e-14
1.1719,4.173095927e-13,3.095556424e-13,3.789463526e-13,2.162422372e-13,5.643600332e-14,1.753097104e-13,3.412500354e-13,3.229041156e-14,6.738148868e-14,1.424209002e-13,2.409026216e-13,8.100351972e-14,1.764948203e-13,1.945534897e-13,2.275460318e-13,4.378114021e-14,2.167089133e-13,2.342148266e-13,1.728553777e-13,2.072168995e-13,1.077943543e-13,2.144571968e-13,1.567481640e-13,9.087508087e-13,3.276244137e-13,5.077382712e-14,2.396910930e-13,7.867304727e-13,4.135530767e-13,4.359932257e-13,1.127582854e-13,1.480751859e-14
1.1797,3.901104727e-13,3.291744977e-13,3.875986721e-13,2.268161807e-13,5.858448422e-14,1.644698387e-13,3.433982304e-13,3.140997773e-14,7.298010866e-14,1.456704135e-13,2.407139825e-13,8.384320978e-14,2.036474093e-13,1.969874375e-13,2.493745132e-13,5.365738044e-14,2.238445281e-13,2.266827618e-13,1.656238911e-13,2.049327642e-13,1.059185040e-13,2.157540142e-13,1.494739397e-13,1.008208601e-12,3.283702612e-13,5.550821319e-14,2.651363414e-13,8.336735431e-13,4.277284435e-13,4.942961880e-13,1.166827611e-13,1.410557874e-14
1.1875,3.729029689e-13,3.468760019e-13,3.991172105e-13,2.349625168e-13,6.053328417e-14,1.558184705e-13,3.467785567e-13,3.082503620e-14,7.800956375e-14,1.459146963e-13,2.356657398e-13,8.515316754e-14,2.650063270e-13,1.971523328e-13,2.735061064e-13,6.937581868e-14,2.472069677e-13,2.162781919e-13,1.590832230e-13,2.106529933e-13,1.065102505e-13,2.143379778e-13,1.423396817e-13,1.115274065e-12,3.349900403e-13,6.299434976e-14,3.046250688e-13,8.956136817e-13,4.454606669e-13,5.674013025e-13,1.223387430e-13,1.333267552e-14
1.1953,3.616738351e-13,3.580147793e-13,4.091643981e-13,2.392149819e-13,6.233484560e-14,1.447462393e-13,3.369082905e-13,3.008737645e-14,8.346753477e-14,1.400220887e-13,2.241294861e-13,8.624237217e-14,3.056264012e-13,1.961278165e-13,3.006656892e-13,9.022910972e-14,2.863120020e-13,2.040051079e-13,1.546735527e-13,2.258357588e-13,1.103243255e-13,2.098910733e-13,1.376026681e-13,1.230886014e-12,3.495315220e-13,7.363090687e-14,3.572817539e-13,9.801101218e-13,4.676341218e-13,6.579159006e-13,1.309026214e-13,1.241935364e-14
1.2031,3.582267304e-13,3.609790257e-13,4.148236878e-13,2.387605954e-13,6.394868860e-14,1.327248979e-13,3.096787949e-13,3.005570667e-14,8.950936847e-14,1.331861081e-13,2.126025175e-13,8.977707278e-14,2.967123499e-13,1.947361083e-13,3.300043087e-13,1.177971674e-13,3.422297607e-13,1.933992187e-13,1.521347856e-13,2.486724349e-13,1.157892450e-13,2.032714131e-13,1.335481384e-13,1.349464780e-12,3.692925265e-13,8.490880189e-14,4.128479659e-13,1.090438947e-12,4.909627393e-13,7.650013168e-13,1.416035096e-13,1.160721976e-14
1.2109,3.579073623e-13,3.562426388e-13,4.129586470e-13,2.334303035e-13,6.497429981e-14,1.183429702e-13,2.775780673e-13,2.985224882e-14,9.555548095e-14,1.271774076e-13,2.023518525e-13,9.484568853e-14,2.638204506e-13,1.915424120e-13,3.545702072e-13,1.466632477e-13,4.080904512e-13,1.824113969e-13,1.511307756e-13,2.791738041e-13,1.251146373e-13,1.958385472e-13,1.327258508e-13,1.482743241e-12,3.943152099e-13,9.522926813e-14,4.667788747e-13,1.229524731e-12,5.125891490e-13,8.887998487e-13,1.535063547e-13,1.104833794e-14
1.2188,3.642947816e-13,3.516036429e-13,4.069685640e-13,2.253052190e-13,6.589086617e-14,1.049904695e-13,2.518589053e-13,3.028461822e-14,1.016057250e-13,1.234565693e-13,1.968764121e-13,1.005407660e-13,2.498385385e-13,1.858795968e-13,3.695273366e-13,1.738136440e-13,4.860779901e-13,1.738365641e-13,1.531787249e-13,3.194225068e-13,1.379645450e-13,1.893915055e-13,1.331133692e-13,1.626064966e-12,4.171772682e-13,1.058334499e-13,5.141610842e-13,1.390370889e-12,5.312073433e-13,1.029748480e-12,1.677489904e-13,1.061973335e-14
1.2266,3.773772873e-13,3.482203839e-13,4.000818383e-13,2.161871566e-13,6.745235220e-14,9.715583191e-14,2.315105265e-13,3.140799563e-14,1.081108360e-13,1.191270383e-13,1.929308080e-13,1.064161622e-13,2.851457725e-13,1.783967964e-13,3.742118478e-13,2.000857209e-13,5.682875441e-13,1.705462982e-13,1.579682805e-13,3.626504575e-13,1.515896233e-13,1.854992955e-13,1.343507883e-13,1.766161905e-12,4.393792850e-13,1.178229161e-13,5.642254715e-13,1.558119597e-12,5.476144167e-13,1.172719221e-12,1.848072982e-13,1.042937030e-14
1.2344,3.951543836e-13,3.426856980e-13,3.847868263e-13,2.047652057e-13,6.953255905e-14,9.283472110e-14,2.057930264e-13,3.217962682e-14,1.154721131e-13,1.153932383e-13,1.883516038e-13,1.140633205e-13,3.506057109e-13,1.723804974e-13,3.707280056e-13,2.257732732e-13,6.490467679e-13,1.731095805e-13,1.644719575e-13,4.055416468e-13,1.669662246e-13,1.833553813e-13,1.368649965e-13,1.903317921e-12,4.665070442e-13,1.318055545e-13,6.251399359e-13,1.706029951e-12,5.623738888e-13,1.304980028e-12,2.041223333e-13,1.059848845e-14
1.2422,4.132402996e-13,3.335540148e-13,3.506876277e-13,1.919438647e-13,7.214306457e-14,8.544676826e-14,1.797956439e-13,3.111515014e-14,1.230902785e-13,1.147766163e-13,1.821243642e-13,1.230766665e-13,3.931025353e-13,1.681450434e-13,3.617206134e-13,2.498389848e-13,7.258489215e-13,1.816288494e-13,1.746197310e-13,4.528604587e-13,1.878144121e-13,1.817538368e-13,1.444761990e-13,2.048491879e-12,4.997242805e-13,1.483017957e-13,6.975701999e-13,1.844117638e-12,5.751751901e-13,1.415512131e-12,2.252308518e-13,1.116296351e-14
1.25,4.321130929e-13,3.243929027e-13,3.012377017e-13,1.801827072e-13,7.531954925e-14,7.523883777e-14,1.627194825e-13,2.881758014e-14,1.307607034e-13,1.176466947e-13,1.792060176e-13,1.328479047e-13,4.065888358e-13,1.633656109e-13,3.448015477e-13,2.660673578e-13,7.939068313e-13,1.942166839e-13,1.897565599e-13,5.068885825e-13,2.134922302e-13,1.811716326e-13,1.548888782e-13,2.190780599e-12,5.372263977e-13,1.651566159e-13,7.600130626e-13,1.970433147e-12,5.794909651e-13,1.507583817e-12,2.476292382e-13,1.202046275e-14
1.2578,4.544709498e-13,3.187103011e-13,2.522697074e-13,1.713742062e-13,7.929276963e-14,6.924210492e-14,1.497787197e-13,2.705914053e-14,1.384289423e-13,1.214931199e-13,1.809285690e-13,1.432796796e-13,4.288831139e-13,1.593370791e-13,3.239398074e-13,2.775565767e-13,8.561892766e-13,2.111968781e-13,2.079565344e-13,5.616598741e-13,2.404279494e-13,1.827601180e-13,1.637326116e-13,2.315594736e-12,5.749361833e-13,1.791884350e-13,7.995294383e-13,2.075832925e-12,5.763284061e-13,1.573932242e-12,2.708066889e-13,1.311090580e-14
1.2656,4.733441138e-13,3.141202624e-13,2.097535590e-13,1.640030975e-13,8.389838497e-14,6.646508334e-14,1.348604861e-13,2.574962275e-14,1.464714748e-13,1.270114935e-13,1.833116571e-13,1.554105731e-13,4.404066023e-13,1.579066747e-13,3.010582790e-13,2.878450554e-13,9.083593715e-13,2.353796906e-13,2.311454346e-13,6.115266889e-13,2.693396797e-13,1.869284246e-13,1.722213643e-13,2.415014588e-12,6.148694400e-13,1.895486012e-13,8.275272326e-13,2.150414452e-12,5.673854930e-13,1.612919569e-12,2.941229962e-13,1.448174436e-14
1.2734,4.912873626e-13,3.109540615e-13,1.709602622e-13,1.589118027e-13,8.875269206e-14,6.441609450e-14,1.233291412e-13,2.390623269e-14,1.542296078e-13,1.353604746e-13,1.862470909e-13,1.684403285e-13,4.112090336e-13,1.592150823e-13,2.812901861e-13,3.016983836e-13,9.568408658e-13,2.677245137e-13,2.572895247e-13,6.578860028e-13,3.014549201e-13,1.913057830e-13,1.821037974e-13,2.491191749e-12,6.544137481e-13,1.998126147e-13,8.711047097e-13,2.185323123e-12,5.579734562e-13,1.627842800e-12,3.165238306e-13,1.625522443e-14
1.2812,5.060442970e-13,3.108960741e-13,1.367658308e-13,1.561673558e-13,9.369463395e-14,6.460833199e-14,1.205780225e-13,2.137395366e-14,1.601249934e-13,1.447656881e-13,1.923237120e-13,1.811368032e-13,3.924369635e-13,1.624573663e-13,2.639386738e-13,3.150911539e-13,9.971442157e-13,3.035133828e-13,2.821717210e-13,7.060037416e-13,3.356525289e-13,1.938834441e-13,1.938180441e-13,2.538576254e-12,6.952755219e-13,2.138448175e-13,9.359017753e-13,2.208513032e-12,5.526415719e-13,1.628104538e-12,3.392603938e-13,1.830815838e-14
1.2891,5.214618781e-13,3.156401634e-13,1.145761390e-13,1.559980681e-13,9.863214340e-14,7.263966190e-14,1.190765731e-13,1.881527769e-14,1.629800248e-13,1.525431924e-13,2.029132187e-13,1.929428783e-13,4.615578548e-13,1.688132056e-13,2.492821792e-13,3.287142051e-13,1.034295324e-12,3.430058491e-13,3.024074867e-13,7.552052563e-13,3.694258058e-13,1.955580830e-13,2.021519780e-13,2.564816691e-12,7.361322956e-13,2.297058658e-13,9.946697747e-13,2.222657596e-12,5.474157923e-13,1.630899496e-12,3.626209343e-13,2.019210749e-14
1.2969,5.368771647e-13,3.217294250e-13,1.048689849e-13,1.567359266e-13,1.031576205e-13,8.689272143e-14,1.093312050e-13,1.711261806e-14,1.632827688e-13,1.574156479e-13,2.140265412e-13,2.050602332e-13,5.874982367e-13,1.791350650e-13,2.368691457e-13,3.409749311e-13,1.062335035e-12,3.824998483e-13,3.155405130e-13,7.956662380e-13,3.971974684e-13,1.955849709e-13,2.056365372e-13,2.558949192e-12,7.766821568e-13,2.447179461e-13,1.039945828e-12,2.238357111e-12,5.423233264e-13,1.640972729e-12,3.853002127e-13,2.186589794e-14
1.3047,5.508521229e-13,3.266955736e-13,1.029366618e-13,1.579167153e-13,1.071838111e-13,1.031474068e-13,9.557765436e-14,1.577362765e-14,1.617091750e-13,1.612583281e-13,2.251458412e-13,2.175636120e-13,6.671260779e-13,1.908229538e-13,2.254523914e-13,3.506293398e-13,1.075010885e-12,4.168740660e-13,3.228279488e-13,8.301370401e-13,4.203498877e-13,1.908474940e-13,2.070039398e-13,2.537638346e-12,8.155353061e-13,2.598427896e-13,1.091103250e-12,2.248494320e-12,5.417162848e-13,1.662593719e-12,4.063974651e-13,2.351152775e-14
1.3125,5.623603941e-13,3.293166842e-13,1.079527311e-13,1.598282457e-13,1.103420066e-13,1.220886710e-13,8.642167227e-14,1.468893550e-14,1.592584518e-13,1.669228480e-13,2.382293806e-13,2.319201993e-13,6.529535239e-13,2.031446188e-13,2.150804191e-13,3.546384072e-13,1.070462725e-12,4.419463803e-13,3.255231993e-13,8.603485216e-13,4.408692540e-13,1.808769174e-13,2.087436083e-13,2.512290741e-12,8.438343010e-13,2.750934645e-13,1.156528037e-12,2.249228698e-12,5.436811326e-13,1.700598246e-12,4.244980805e-13,2.511026210e-14
1.3203,5.718849641e-13,3.287910904e-13,1.217713222e-13,1.608088552e-13,1.121125284e-13,1.447200609e-13,8.078274869e-14,1.420231879e-14,1.559703585e-13,1.748158197e-13,2.523843273e-13,2.483609586e-13,5.980823796e-13,2.171065682e-13,2.054688445e-13,3.536790705e-13,1.048043910e-12,4.568790256e-13,3.191833218e-13,8.769657729e-13,4.543610952e-13,1.674387318e-13,2.043773334e-13,2.481479720e-12,8.423577958e-13,2.846001761e-13,1.203298172e-12,2.211068604e-12,5.449778205e-13,1.741746327e-12,4.383909207e-13,2.608305695e-14
1.3281,5.800530056e-13,3.256274200e-13,1.409686949e-13,1.608578140e-13,1.127677779e-13,1.683176655e-13,7.426593501e-14,1.436335686e-14,1.509893234e-13,1.827398972e-13,2.659158696e-13,2.654267537e-13,5.760679531e-13,2.328973954e-13,1.965316999e-13,3.502470861e-13,1.009033585e-12,4.631003562e-13,3.015711694e-13,8.764767703e-13,4.587131271e-13,1.519844839e-13,1.911207438e-13,2.453375165e-12,8.118385247e-13,2.853040143e-13,1.208181439e-12,2.130955216e-12,5.438814728e-13,1.789995611e-12,4.481662514e-13,2.624838720e-14
1.3359,5.832887030e-13,3.197029817e-13,1.582143529e-13,1.604685552e-13,1.122956413e-13,1.827085970e-13,7.027569578e-14,1.439894755e-14,1.454795501e-13,1.911915004e-13,2.771303328e-13,2.825868706e-13,5.787690209e-13,2.509094400e-13,1.871794493e-13,3.466370463e-13,9.592118633e-13,4.612244003e-13,2.772065907e-13,8.583907026e-13,4.523463740e-13,1.367840908e-13,1.730142022e-13,2.420150107e-12,7.647827314e-13,2.805570839e-13,1.189372829e-12,2.022558356e-12,5.390518627e-13,1.848438348e-12,4.526594155e-13,2.618138802e-14
1.3438,5.841448919e-13,3.147951228e-13,1.707816439e-13,1.592168819e-13,1.105427725e-13,1.892696824e-13,7.223238936e-14,1.394406872e-14,1.400058143e-13,2.001338603e-13,2.883598364e-13,2.994239557e-13,5.691215573e-13,2.701870793e-13,1.762877799e-13,3.411102205e-13,9.020567193e-13,4.527714080e-13,2.526526776e-13,8.329009167e-13,4.417503378e-13,1.220288868e-13,1.566596952e-13,2.381747983e-12,7.180099394e-13,2.771154805e-13,1.186824691e-12,1.909665471e-12,5.381348649e-13,1.922284950e-12,4.523928125e-13,2.612600111e-14
1.3516,5.802139514e-13,3.108705940e-13,1.849141209e-13,1.569381386e-13,1.074860938e-13,1.966469837e-13,7.350085955e-14,1.362455225e-14,1.345061259e-13,2.087189613e-13,2.994083615e-13,3.152427276e-13,5.611660380e-13,2.892488265e-13,1.650800664e-13,3.322852873e-13,8.440526894e-13,4.398802011e-13,2.323370509e-13,8.060468642e-13,4.308923093e-13,1.085945531e-13,1.424119500e-13,2.335708161e-12,6.647517128e-13,2.746693822e-13,1.193094646e-12,1.793801977e-12,5.397574475e-13,2.001888848e-12,4.486760900e-13,2.616309154e-14
1.3594,5.716354994e-13,3.066943455e-13,2.055820158e-13,1.538092986e-13,1.032682120e-13,2.085243589e-13,6.892944790e-14,1.393886391e-14,1.289257826e-13,2.149344258e-13,3.062103286e-13,3.291627970e-13,5.932949701e-13,3.096502155e-13,1.541758431e-13,3.216985079e-13,7.939896416e-13,4.245444531e-13,2.172063157e-13,7.784683797e-13,4.196338098e-13,9.838043481e-14,1.276805423e-13,2.270083827e-12,5.963525530e-13,2.665409941e-13,1.168486375e-12,1.672832009e-12,5.380177434e-13,2.080451917e-12,4.395668696e-13,2.603087140e-14
1.3672,5.587191320e-13,3.012431164e-13,2.274520266e-13,1.495945232e-13,9.832815441e-14,2.123337557e-13,6.456814558e-14,1.459218699e-14,1.231412626e-13,2.194418462e-13,3.081153431e-13,3.404371054e-13,6.529905008e-13,3.312955828e-13,1.434769052e-13,3.151092008e-13,7.569235225e-13,4.102586028e-13,2.063497173e-13,7.508817720e-13,4.069258729e-13,9.134359103e-14,1.123587101e-13,2.193458051e-12,5.180498766e-13,2.510060516e-13,1.105889527e-12,1.550825682e-12,5.325967161e-13,2.143871445e-12,4.258118103e-13,2.587943301e-14
1.375,5.418117034e-13,2.951398797e-13,2.446712318e-13,1.450252364e-13,9.277059838e-14,2.027424027e-13,6.640315525e-14,1.538441734e-14,1.178662758e-13,2.230995986e-13,3.080970027e-13,3.486259637e-13,7.031927135e-13,3.531141549e-13,1.348983513e-13,3.162833066e-13,7.346240258e-13,4.008263389e-13,1.991427549e-13,7.251223017e-13,3.920577912e-13,8.781668922e-14,9.836868891e-14,2.102977112e-12,4.430015757e-13,2.314630474e-13,1.036349029e-12,1.445226105e-12,5.260818946e-13,2.186845342e-12,4.089720670e-13,2.582256760e-14
1.3828,5.215845959e-13,2.895883016e-13,2.560377908e-13,1.405160240e-13,8.692727519e-14,1.885771658e-13,6.945217690e-14,1.662989661e-14,1.136689134e-13,2.255417441e-13,3.069904916e-13,3.556717874e-13,7.134948235e-13,3.749381501e-13,1.297302081e-13,3.267595275e-13,7.308329171e-13,3.990116199e-13,1.980341127e-13,7.094594354e-13,3.796681238e-13,8.826246162e-14,8.799088960e-14,2.009719543e-12,3.741528347e-13,2.117926988e-13,9.707255333e-13,1.335028102e-12,5.175556022e-13,2.223484640e-12,3.915533376e-13,2.558338003e-14
1.3906,4.993685170e-13,2.826950590e-13,2.669319589e-13,1.368773500e-13,8.113860874e-14,1.792158270e-13,6.875683475e-14,1.865203178e-14,1.101196379e-13,2.261061045e-13,2.981970632e-13,3.606685680e-13,6.657399839e-13,3.957931094e-13,1.272558357e-13,3.442649566e-13,7.381981595e-13,4.041990972e-13,2.038208921e-13,7.072923783e-13,3.724352298e-13,9.086964327e-14,8.202718502e-14,1.908468803e-12,3.074541622e-13,1.931512593e-13,8.961965416e-13,1.216746458e-12,5.053689791e-13,2.218226629e-12,3.742211305e-13,2.507219639e-14
1.3984,4.781312542e-13,2.745690125e-13,2.808752860e-13,1.339730984e-13,7.543524753e-14,1.764569933e-13,6.787713932e-14,2.070697593e-14,1.063393098e-13,2.230885485e-13,2.784164751e-13,3.603845818e-13,6.079020553e-13,4.159387502e-13,1.272661470e-13,3.703069006e-13,7.535479711e-13,4.168703775e-13,2.145652897e-13,7.164798475e-13,3.695001941e-13,9.516445531e-14,8.053301196e-14,1.809824685e-12,2.470753696e-13,1.762109612e-13,8.132615567e-13,1.101670148e-12,4.886280197e-13,2.177111607e-12,3.567052108e-13,2.415402761e-14
1.4062,4.542162342e-13,2.671122939e-13,2.965589532e-13,1.307889480e-13,6.969284262e-14,1.736637390e-13,7.237684300e-14,2.225889147e-14,1.021073619e-13,2.174658611e-13,2.500869322e-13,3.534545867e-13,5.905234045e-13,4.359145497e-13,1.284819298e-13,4.026947323e-13,7.713596848e-13,4.357502686e-13,2.262348629e-13,7.290217064e-13,3.682157539e-13,1.013437687e-13,8.205933177e-14,1.715961779e-12,1.973587843e-13,1.614167554e-13,7.436640080e-13,9.924750169e-13,4.691852582e-13,2.085303464e-12,3.388261424e-13,2.275560452e-14
1.4141,4.302951855e-13,2.618116864e-13,3.138771047e-13,1.277696319e-13,6.395849025e-14,1.724101689e-13,7.833792670e-14,2.316356614e-14,9.771029753e-14,2.089022028e-13,2.208894634e-13,3.398876192e-13,5.874777290e-13,4.560360350e-13,1.318943053e-13,4.389058046e-13,7.833307021e-13,4.592832537e-13,2.361129958e-13,7.388050873e-13,3.649887612e-13,1.090328085e-13,8.452254159e-14,1.625603470e-12,1.604787423e-13,1.485283615e-13,6.941661845e-13,8.868844321e-13,4.486511750e-13,1.958572678e-12,3.211389828e-13,2.105229793e-14
1.4219,4.062893192e-13,2.582305026e-13,3.329670558e-13,1.251625066e-13,5.852140882e-14,1.761774816e-13,8.430024798e-14,2.476877128e-14,9.419741171e-14,2.008823213e-13,1.946495512e-13,3.250160277e-13,5.535645879e-13,4.754630444e-13,1.364821428e-13,4.756188824e-13,7.874518459e-13,4.841407237e-13,2.454121457e-13,7.493985246e-13,3.607767709e-13,1.166148762e-13,8.820338779e-14,1.546917809e-12,1.297720299e-13,1.368442428e-13,6.471641102e-13,7.751149015e-13,4.262240317e-13,1.799032651e-12,3.035734094e-13,1.917333945e-14
1.4297,3.812217509e-13,2.555732456e-13,3.484610180e-13,1.223284279e-13,5.361791994e-14,1.825508997e-13,9.035723932e-14,2.721916660e-14,9.195927820e-14,1.934303393e-13,1.681822342e-13,3.096542204e-13,5.290422267e-13,4.936289720e-13,1.423379850e-13,5.108950373e-13,7.782990843e-13,5.046711934e-13,2.527996949e-13,7.545915883e-13,3.531644667e-13,1.229399137e-13,9.295875380e-14,1.466183447e-12,1.042142293e-13,1.274130466e-13,5.973932575e-13,6.720577644e-13,4.020602781e-13,1.599853563e-12,2.869203463e-13,1.734961669e-14
1.4375,3.575109899e-13,2.536669921e-13,3.547741013e-13,1.193141258e-13,4.928512536e-14,1.825136659e-13,9.752881354e-14,2.927389374e-14,8.991921750e-14,1.872934813e-13,1.414266771e-13,2.922992524e-13,5.764121079e-13,5.085370744e-13,1.494512000e-13,5.445277948e-13,7.583203252e-13,5.207546968e-13,2.562762853e-13,7.517265921e-13,3.432898209e-13,1.279500878e-13,9.870379482e-14,1.403422497e-12,8.792023955e-14,1.216895129e-13,5.520035208e-13,5.911144707e-13,3.769295908e-13,1.387862665e-12,2.715254379e-13,1.590747871e-14
1.4453,3.335161974e-13,2.494131645e-13,3.489647868e-13,1.157034468e-13,4.545782746e-14,1.736842940e-13,1.030017583e-13,2.913485810e-14,8.692853253e-14,1.789822273e-13,1.140175551e-13,2.719562668e-13,6.758860450e-13,5.189292734e-13,1.576568315e-13,5.751356195e-13,7.309730559e-13,5.326725604e-13,2.541105229e-13,7.360274288e-13,3.299841209e-13,1.317468009e-13,1.033400173e-13,1.364667912e-12,7.909507786e-14,1.180963552e-13,5.093573603e-13,5.341192414e-13,3.506157039e-13,1.168527124e-12,2.568271185e-13,1.506564668e-14
1.4531,3.140139837e-13,2.442549773e-13,3.371792082e-13,1.125090241e-13,4.239658507e-14,1.620642581e-13,1.057486706e-13,2.755861210e-14,8.380078640e-14,1.692110056e-13,8.958127664e-14,2.515906541e-13,7.391665123e-13,5.259726153e-13,1.680870429e-13,5.987685320e-13,6.996958213e-13,5.394062412e-13,2.499982738e-13,7.098039008e-13,3.157183166e-13,1.353756981e-13,1.082238362e-13,1.348908214e-12,7.610165178e-14,1.135901114e-13,4.646631571e-13,4.968167665e-13,3.240135699e-13,9.695781547e-13,2.424978236e-13,1.508307245e-14
1.4609,3.001134283e-13,2.381597633e-13,3.270883429e-13,1.093289704e-13,4.013746099e-14,1.539337060e-13,1.091155410e-13,2.627257517e-14,8.151369885e-14,1.601521521e-13,6.972304921e-14,2.340018348e-13,6.949014727e-13,5.304473126e-13,1.807896541e-13,6.086179751e-13,6.593274572e-13,5.342141779e-13,2.438368691e-13,6.734839883e-13,2.981690265e-13,1.366205134e-13,1.133964157e-13,1.338361410e-12,7.770505041e-14,1.072900102e-13,4.147844725e-13,4.724706540e-13,2.978052273e-13,8.058968907e-13,2.291324714e-13,1.603032654e-14
1.4688,2.946166328e-13,2.341094065e-13,3.173519128e-13,1.056448888e-13,3.834790940e-14,1.485931462e-13,1.169922156e-13,2.615943368e-14,8.043447285e-14,1.540822591e-13,5.835970020e-14,2.203050768e-13,5.623461192e-13,5.312805280e-13,1.955374770e-13,6.048999579e-13,6.125556394e-13,5.170849622e-13,2.372885944e-13,6.303708642e-13,2.793072029e-13,1.356269680e-13,1.211024276e-13,1.321424628e-12,8.567020161e-14,1.024157165e-13,3.705134230e-13,4.663239517e-13,2.736893145e-13,6.918076131e-13,2.161542063e-13,1.781491630e-14
1.4766,2.962618541e-13,2.304367389e-13,3.061908093e-13,1.008239455e-13,3.673137011e-14,1.409671112e-13,1.271097899e-13,2.596253228e-14,7.929903851e-14,1.496364765e-13,5.583512229e-14,2.088505483e-13,4.459025160e-13,5.267995888e-13,2.103672202e-13,5.922966745e-13,5.639103229e-13,4.924651789e-13,2.287324168e-13,5.824203019e-13,2.601139149e-13,1.336553689e-13,1.295832124e-13,1.303031401e-12,9.759051311e-14,1.014246838e-13,3.359627676e-13,4.699265520e-13,2.488815572e-13,6.369698610e-13,2.037346235e-13,2.022353139e-14
1.4844,3.072093114e-13,2.241412688e-13,2.951651553e-13,9.542347190e-14,3.539868570e-14,1.305632515e-13,1.335647826e-13,2.435471635e-14,7.667364734e-14,1.433903842e-13,5.798857567e-14,1.964270389e-13,4.194513726e-13,5.163903315e-13,2.231043661e-13,5.709705593e-13,5.126035753e-13,4.632828781e-13,2.174874863e-13,5.253575051e-13,2.401528262e-13,1.323027941e-13,1.371769354e-13,1.278038796e-12,1.094552213e-13,1.014096948e-13,3.082098026e-13,4.670825750e-13,2.235105171e-13,6.434307376e-13,1.911214885e-13,2.301617007e-14
1.4922,3.244373020e-13,2.129113108e-13,2.846243317e-13,8.913298261e-14,3.442955956e-14,1.182642994e-13,1.335279106e-13,2.152643869e-14,7.212763066e-14,1.348149507e-13,6.342384101e-14,1.818166421e-13,4.617355269e-13,5.000591143e-13,2.329554982e-13,5.440715175e-13,4.630012681e-13,4.346740880e-13,2.051481677e-13,4.651830666e-13,2.201068737e-13,1.316296962e-13,1.428083265e-13,1.247662407e-12,1.209983220e-13,9.864272349e-14,2.805955830e-13,4.645107234e-13,1.995450570e-13,6.996343555e-13,1.787808803e-13,2.585185441e-14
1.5,3.444775783e-13,1.999806223e-13,2.787480944e-13,8.284251022e-14,3.369409366e-14,1.071514987e-13,1.316484405e-13,1.909541105e-14,6.735824076e-14,1.255959502e-13,7.324514108e-14,1.676111710e-13,4.930731848e-13,4.787513945e-13,2.394891785e-13,5.089844940e-13,4.132184680e-13,4.046398803e-13,1.923575025e-13,4.058308045e-13,1.989855633e-13,1.301218034e-13,1.466782081e-13,1.194600777e-12,1.345740621e-13,9.307480909e-14,2.499653217e-13,4.541615198e-13,1.781304603e-13,7.966183634e-13,1.669862222e-13,2.820447569e-14
1.5078,3.614337772e-13,1.866645003e-13,2.791281227e-13,7.592455584e-14,3.269147036e-14,9.720007518e-14,1.334189439e-13,1.718094978e-14,6.324049393e-14,1.162488363e-13,8.596499055e-14,1.551278327e-13,4.789069329e-13,4.537767617e-13,2.413069636e-13,4.676566914e-13,3.657088200e-13,3.749002824e-13,1.800844417e-13,3.504635038e-13,1.763496687e-13,1.278168771e-13,1.481331758e-13,1.106056871e-12,1.515677221e-13,8.807614806e-14,2.202455218e-13,4.371226945e-13,1.597978509e-13,9.199745877e-13,1.553086620e-13,2.980164002e-14
1.5156,3.696706034e-13,1.744596815e-13,2.857889023e-13,6.915041324e-14,3.139302857e-14,9.042908149e-14,1.360671035e-13,1.529080089e-14,5.947025699e-14,1.066554342e-13,9.630899797e-14,1.435181028e-13,4.468039766e-13,4.271046127e-13,2.397370982e-13,4.270932247e-13,3.252831924e-13,3.510847790e-13,1.702178864e-13,3.037086941e-13,1.564567528e-13,1.259530049e-13,1.473411169e-13,1.007926292e-12,1.705642872e-13,8.546398421e-14,1.989053213e-13,4.136638475e-13,1.457552427e-13,1.050050250e-12,1.439109907e-13,3.043405450e-14
1.5234,3.722809222e-13,1.613910734e-13,2.961926100e-13,6.259561473e-14,2.986743672e-14,8.660397689e-14,1.357737296e-13,1.320331701e-14,5.574146058e-14,9.742225620e-14,1.044419351e-13,1.320059817e-13,4.436956559e-13,3.999947272e-13,2.360913375e-13,3.920720291e-13,2.952297053e-13,3.352552182e-13,1.615159986e-13,2.658548594e-13,1.387708840e-13,1.253218546e-13,1.435802340e-13,9.049930607e-13,1.890925427e-13,8.249208600e-14,1.848516843e-13,3.956857926e-13,1.354309463e-13,1.175948570e-12,1.325786306e-13,3.017897653e-14
1.5312,3.648785133e-13,1.469705786e-13,3.078223258e-13,5.681595756e-14,2.833553933e-14,8.506579020e-14,1.359294686e-13,1.156095405e-14,5.225978563e-14,8.852213537e-14,1.123737790e-13,1.200444184e-13,4.621569414e-13,3.706642134e-13,2.288019964e-13,3.630499485e-13,2.794054155e-13,3.261363000e-13,1.531350970e-13,2.394195594e-13,1.235978471e-13,1.247574802e-13,1.375034041e-13,8.081954066e-13,2.067732378e-13,7.627429692e-14,1.690304455e-13,3.784956947e-13,1.271611705e-13,1.291370554e-12,1.213050095e-13,2.862853009e-14
1.5391,3.481165533e-13,1.322577312e-13,3.198141232e-13,5.269587097e-14,2.693249258e-14,8.632760306e-14,1.395814130e-13,1.066112375e-14,4.956854118e-14,7.971226010e-14,1.234364203e-13,1.082915577e-13,4.557449801e-13,3.407133569e-13,2.204273592e-13,3.383188525e-13,2.735419478e-13,3.192682837e-13,1.440529919e-13,2.218753189e-13,1.093905577e-13,1.225789110e-13,1.295149606e-13,7.091932293e-13,2.246729349e-13,6.840057870e-14,1.469414802e-13,3.643497532e-13,1.203660502e-13,1.376900245e-12,1.107371089e-13,2.624847706e-14
1.5469,3.211368545e-13,1.196452693e-13,3.342569434e-13,4.978581852e-14,2.561395356e-14,9.065591274e-14,1.453774122e-13,1.027441088e-14,4.775962459e-14,7.195605104e-14,1.349980977e-13,9.843036230e-14,4.149353568e-13,3.132019519e-13,2.121680528e-13,3.195786446e-13,2.801978177e-13,3.166011414e-13,1.362269567e-13,2.146545749e-13,9.774106146e-14,1.193624798e-13,1.206034149e-13,6.206358164e-13,2.405593082e-13,6.190896567e-14,1.265049684e-13,3.560359061e-13,1.169079771e-13,1.435410657e-12,1.016196395e-13,2.354796305e-14
1.5547,2.841387073e-13,1.085287353e-13,3.451933021e-13,4.789732436e-14,2.449165899e-14,9.599225241e-14,1.496533629e-13,9.938854794e-15,4.660249642e-14,6.461313297e-14,1.421704609e-13,8.975940213e-14,3.625753121e-13,2.879331045e-13,2.024835491e-13,3.088210115e-13,3.005632010e-13,3.210229629e-13,1.296598396e-13,2.161824446e-13,8.953705678e-14,1.169396753e-13,1.111863656e-13,5.487627449e-13,2.528256940e-13,5.736429077e-14,1.121760296e-13,3.489727240e-13,1.155114341e-13,1.453626223e-12,9.388281465e-14,2.093492239e-14
1.5625,2.453659150e-13,9.933681797e-14,3.470852846e-13,4.787224546e-14,2.375051420e-14,9.605759644e-14,1.545806951e-13,9.826240321e-15,4.612054687e-14,5.837934800e-14,1.478535682e-13,8.142324992e-14,3.145224140e-13,2.632725968e-13,1.926019274e-13,3.070402609e-13,3.340947870e-13,3.329686472e-13,1.235753099e-13,2.257796198e-13,8.410929031e-14,1.154944553e-13,1.019191840e-13,4.951197279e-13,2.597837550e-13,5.357145204e-14,1.028505108e-13,3.495756133e-13,1.159485846e-13,1.450553295e-12,8.825001936e-14,1.833584594e-14
1.5703,2.059090200e-13,9.152255061e-14,3.408084062e-13,5.045092890e-14,2.357659518e-14,9.083954944e-14,1.638729349e-13,1.004638902e-14,4.612020707e-14,5.365814366e-14,1.542047535e-13,7.413450464e-14,2.931405047e-13,2.404370577e-13,1.839779546e-13,3.098320935e-13,3.727932105e-13,3.478503080e-13,1.185076120e-13,2.407915575e-13,8.196140348e-14,1.144786221e-13,9.368360854e-14,4.639858329e-13,2.628191528e-13,5.050246694e-14,9.470172917e-14,3.616369265e-13,1.174779140e-13,1.425317452e-12,8.451222832e-14,1.587505580e-14
1.5781,1.681410322e-13,8.502169673e-14,3.285720245e-13,5.513931883e-14,2.379265730e-14,8.350667973e-14,1.785587408e-13,1.025588459e-14,4.639163246e-14,4.974550828e-14,1.613646381e-13,6.885923048e-14,3.272757956e-13,2.222089690e-13,1.789872429e-13,3.169225574e-13,4.131210466e-13,3.625853532e-13,1.147550907e-13,2.576999353e-13,8.283497837e-14,1.140807501e-13,8.741435343e-14,4.470658100e-13,2.631219711e-13,4.928541466e-14,8.890461680e-14,3.908700061e-13,1.191808178e-13,1.379439071e-12,8.231538701e-14,1.391838989e-14
1.5859,1.346348849e-13,7.928931531e-14,3.150148909e-13,6.143570180e-14,2.442485703e-14,7.708741217e-14,1.971291329e-13,1.010932592e-14,4.684999733e-14,4.637099655e-14,1.682957574e-13,6.520565893e-14,4.002253163e-13,2.072900884e-13,1.768529813e-13,3.258079095e-13,4.507995301e-13,3.771309431e-13,1.122932968e-13,2.743821777e-13,8.667219297e-14,1.142184827e-13,8.282541746e-14,4.434910664e-13,2.636644465e-13,5.046163874e-14,8.834719471e-14,4.422790087e-13,1.211345581e-13,1.326976156e-12,8.216576448e-14,1.266517759e-14
1.5938,1.081171512e-13,7.628221024e-14,3.012824697e-13,6.977629527e-14,2.570177975e-14,6.971126601e-14,2.186679031e-13,9.790172591e-15,4.812748562e-14,4.434142500e-14,1.775073663e-13,6.400298612e-14,4.520203127e-13,1.948175385e-13,1.778142852e-13,3.344864832e-13,4.827642949e-13,3.909374867e-13,1.104071026e-13,2.852317320e-13,9.272951855e-14,1.143489743e-13,8.057778433e-14,4.508080738e-13,2.663389624e-13,5.293302361e-14,9.290504259e-14,5.323427649e-13,1.233917433e-13,1.271992357e-12,8.376814697e-14,1.203881224e-14
1.6016,8.986705049e-14,7.612425893e-14,2.880697866e-13,7.935640850e-14,2.761170749e-14,6.033733071e-14,2.400568572e-13,9.512965656e-15,5.015593190e-14,4.302331675e-14,1.900806074e-13,6.542373080e-14,4.486542846e-13,1.846010323e-13,1.853500330e-13,3.412069628e-13,5.053601428e-13,4.040538762e-13,1.092398399e-13,2.916735855e-13,1.003842392e-13,1.138397698e-13,8.041278217e-14,4.649937292e-13,2.697659181e-13,5.541827217e-14,9.909716296e-14,6.735086182e-13,1.253883909e-13,1.224620449e-12,8.683618834e-14,1.164295044e-14
1.6094,7.970105331e-14,7.816431150e-14,2.767833244e-13,8.957662524e-14,3.008644151e-14,5.143584031e-14,2.589882030e-13,9.365239262e-15,5.230119588e-14,4.110723148e-14,2.037034686e-13,6.823955750e-14,4.022351204e-13,1.773059505e-13,2.007045735e-13,3.424486072e-13,5.109512965e-13,4.121456786e-13,1.082562977e-13,2.916041683e-13,1.092077972e-13,1.121549708e-13,8.202861697e-14,4.851491243e-13,2.729553827e-13,5.832052549e-14,1.052376153e-13,8.615835438e-13,1.269790590e-13,1.183648794e-12,9.103576899e-14,1.132974296e-14
1.6172,7.585441543e-14,8.106716618e-14,2.611455242e-13,1.001018383e-13,3.313884667e-14,4.250161702e-14,2.760253570e-13,9.570946194e-15,5.458227148e-14,3.893891911e-14,2.164690412e-13,7.240262218e-14,3.435327664e-13,1.756613002e-13,2.242734265e-13,3.392145509e-13,5.001757681e-13,4.140071307e-13,1.075481757e-13,2.835849258e-13,1.170664845e-13,1.098855193e-13,8.434827958e-14,4.985350287e-13,2.763687692e-13,6.278455553e-14,1.152860150e-13,1.104322716e-12,1.290552042e-13,1.139097510e-12,9.662735682e-14,1.139881568e-14
1.625,7.722879550e-14,8.475193228e-14,2.447727992e-13,1.112224603e-13,3.660027909e-14,3.489174767e-14,2.953073056e-13,9.872988792e-15,5.690268050e-14,3.608194813e-14,2.283309714e-13,7.744679382e-14,2.988250308e-13,1.790304609e-13,2.536078512e-13,3.345475716e-13,4.773558915e-13,4.114949514e-13,1.068416564e-13,2.684099726e-13,1.229930400e-13,1.073629566e-13,8.686920799e-14,5.078310006e-13,2.817974553e-13,6.844636870e-14,1.289668960e-13,1.391304393e-12,1.316692735e-13,1.098074787e-12,1.031378493e-13,1.161628020e-14
1.6328,8.438814037e-14,8.916619301e-14,2.323735214e-13,1.211770142e-13,4.010519186e-14,2.768648765e-14,3.155386865e-13,1.022598317e-14,5.887363279e-14,3.220173188e-14,2.368650957e-13,8.222464135e-14,2.826185861e-13,1.846942007e-13,2.865979848e-13,3.310379656e-13,4.491633701e-13,4.067081976e-13,1.052762456e-13,2.468139529e-13,1.258509253e-13,1.046830749e-13,8.918862716e-14,5.142523417e-13,2.879025992e-13,7.393279402e-14,1.435398338e-13,1.713659812e-12,1.360772771e-13,1.051533736e-12,1.101017852e-13,1.144935825e-14
1.6406,9.745727390e-14,9.597850894e-14,2.266441614e-13,1.295053555e-13,4.337453627e-14,2.139642297e-14,3.383500631e-13,1.048317425e-14,5.998850483e-14,2.841884695e-14,2.429947907e-13,8.628803048e-14,3.032432682e-13,1.917984658e-13,3.211082402e-13,3.283971008e-13,4.151475502e-13,4.005952467e-13,1.027435716e-13,2.212371760e-13,1.249093763e-13,1.016310881e-13,9.091916622e-14,5.163754582e-13,2.937326003e-13,7.904136666e-14,1.582241375e-13,2.059580355e-12,1.418032005e-13,1.013969292e-12,1.168764364e-13,1.065979163e-14
1.6484,1.155421547e-13,1.050076916e-13,2.280290280e-13,1.357534465e-13,4.619819158e-14,1.736933464e-14,3.608876904e-13,1.085927354e-14,6.064262755e-14,2.530531956e-14,2.483720736e-13,9.087838188e-14,3.475395986e-13,2.029677044e-13,3.582780960e-13,3.263898624e-13,3.803260925e-13,3.925322086e-13,9.969435652e-14,1.939901131e-13,1.205299193e-13,9.757507212e-14,9.248710935e-14,5.086147143e-13,3.004111652e-13,8.487934498e-14,1.740467200e-13,2.405705185e-12,1.491175189e-13,9.834346518e-13,1.234053987e-13,9.637031771e-15
1.6562,1.386147105e-13,1.156826688e-13,2.296766908e-13,1.400905920e-13,4.846551943e-14,1.514202958e-14,3.792500603e-13,1.126809909e-14,6.082251189e-14,2.341687938e-14,2.544040419e-13,9.502299392e-14,3.825286205e-13,2.173871507e-13,3.953395376e-13,3.262197403e-13,3.514552701e-13,3.822692432e-13,9.649322175e-14,1.671998807e-13,1.126026870e-13,9.313157585e-14,9.332706217e-14,4.911957932e-13,3.062023290e-13,9.082403949e-14,1.924573441e-13,2.733757253e-12,1.576536226e-13,9.587310630e-13,1.299848096e-13,8.533404885e-15
1.6641,1.676696375e-13,1.257936138e-13,2.329614042e-13,1.421694307e-13,4.969302199e-14,1.465008616e-14,3.905466381e-13,1.157993224e-14,6.028601595e-14,2.183673013e-14,2.591768810e-13,9.616265616e-14,3.767917753e-13,2.299014713e-13,4.251934415e-13,3.245093319e-13,3.305296441e-13,3.686808742e-13,9.233037011e-14,1.443118252e-13,1.020745180e-13,8.770682591e-14,9.266049000e-14,4.747659915e-13,3.104627412e-13,9.481186734e-14,2.083480881e-13,3.022358244e-12,1.665974729e-13,9.422019284e-13,1.358452914e-13,7.335094307e-15
1.6719,2.033201843e-13,1.348291621e-13,2.411981484e-13,1.415482608e-13,4.954301221e-14,1.570463770e-14,3.904543084e-13,1.164504043e-14,5.879176440e-14,2.042057770e-14,2.617000971e-13,9.394235657e-14,3.388899351e-13,2.394525454e-13,4.481557552e-13,3.229569571e-13,3.232278770e-13,3.532414163e-13,8.732437986e-14,1.269781851e-13,8.975034615e-14,8.137547667e-14,8.936996465e-14,4.581265495e-13,3.100449855e-13,9.489782545e-14,2.175568670e-13,3.242069483e-12,1.757607264e-13,9.316735421e-13,1.397820680e-13,6.214803937e-15
1.6797,2.448726876e-13,1.449978664e-13,2.564068937e-13,1.399661982e-13,4.837981828e-14,1.825371186e-14,3.804190605e-13,1.159568429e-14,5.693924752e-14,1.899244906e-14,2.607691621e-13,9.024981678e-14,2.981263445e-13,2.503617090e-13,4.671658722e-13,3.252102551e-13,3.309522936e-13,3.377732720e-13,8.259997579e-14,1.139884571e-13,7.762864813e-14,7.488422421e-14,8.423829828e-14,4.465931773e-13,3.054162570e-13,9.162679940e-14,2.210103981e-13,3.400078500e-12,1.847024899e-13,9.335863773e-13,1.422327583e-13,5.038499790e-15
1.6875,2.915059328e-13,1.564536231e-13,2.712925470e-13,1.368551367e-13,4.620082996e-14,2.056919906e-14,3.564138923e-13,1.170435047e-14,5.502823443e-14,1.815733881e-14,2.565350949e-13,8.603087396e-14,2.674027239e-13,2.623202156e-13,4.806233202e-13,3.297128553e-13,3.528692993e-13,3.219310992e-13,7.723257643e-14,1.048552469e-13,6.529518860e-14,6.839536440e-14,7.777238363e-14,4.383761360e-13,2.974899646e-13,8.710451740e-14,2.227753955e-13,3.492921178e-12,1.934824267e-13,9.417311930e-13,1.434748300e-13,3.888896240e-15
1.6953,3.398070419e-13,1.683885566e-13,2.855032355e-13,1.320950038e-13,4.318496830e-14,2.288472716e-14,3.219787794e-13,1.194764337e-14,5.257798537e-14,1.785173540e-14,2.495774715e-13,8.046471575e-14,2.472656684e-13,2.734390140e-13,4.883225399e-13,3.368526300e-13,3.926079155e-13,3.061261781e-13,7.066696213e-14,1.003720817e-13,5.388063574e-14,6.137033812e-14,7.127453050e-14,4.311555643e-13,2.872920094e-13,8.269449477e-14,2.243281029e-13,3.514363473e-12,2.026656232e-13,9.537277505e-13,1.438126807e-13,2.905570310e-15
1.7031,3.885907227e-13,1.808854150e-13,3.001562969e-13,1.260854787e-13,3.962033796e-14,2.489593259e-14,2.801522147e-13,1.226352806e-14,4.969176875e-14,1.795347524e-14,2.408178899e-13,7.313013863e-14,2.327121232e-13,2.835336424e-13,4.895218488e-13,3.454974975e-13,4.468056677e-13,2.892594841e-13,6.300455822e-14,9.978177778e-14,4.496554925e-14,5.396987761e-14,6.616830160e-14,4.287921355e-13,2.784450627e-13,7.875696167e-14,2.252693342e-13,3.477173006e-12,2.121562926e-13,9.747124057e-13,1.436082064e-13,2.165917060e-15
1.7109,4.340882667e-13,1.920404173e-13,3.161059198e-13,1.190057317e-13,3.575960172e-14,2.704490346e-14,2.354387024e-13,1.251399615e-14,4.647725116e-14,1.793120263e-14,2.303917340e-13,6.535306277e-14,2.241374915e-13,2.940738247e-13,4.866480744e-13,3.551203082e-13,5.115813545e-13,2.712662496e-13,5.561537295e-14,1.032141781e-13,3.891197085e-14,4.747595503e-14,6.209653952e-14,4.268843670e-13,2.734365059e-13,7.413243787e-14,2.265870603e-13,3.370721019e-12,2.220320609e-13,9.952419326e-13,1.421905057e-13,1.641719428e-15
1.7188,4.696543047e-13,2.008953025e-13,3.278381545e-13,1.112111289e-13,3.215811587e-14,2.928472930e-14,1.914704276e-13,1.262237941e-14,4.319657445e-14,1.885113662e-14,2.225870592e-13,5.965459144e-14,2.237939414e-13,3.080975926e-13,4.812827438e-13,3.641446245e-13,5.834792838e-13,2.533460224e-13,4.890824162e-14,1.103870515e-13,3.387335551e-14,4.196632136e-14,5.782353313e-14,4.239984298e-13,2.709751035e-13,6.878357754e-14,2.287507366e-13,3.226359269e-12,2.319846715e-13,1.015383989e-12,1.402478126e-13,1.249477252e-15
1.7266,4.924674828e-13,2.065853026e-13,3.354375135e-13,1.031989585e-13,2.904421920e-14,3.212470616e-14,1.541808020e-13,1.254686206e-14,3.989622806e-14,2.091142613e-14,2.169734877e-13,5.590690023e-14,2.309029815e-13,3.251473021e-13,4.732636582e-13,3.718749924e-13,6.569092918e-13,2.353473136e-13,4.191747985e-14,1.214746518e-13,2.953593243e-14,3.713648224e-14,5.399702232e-14,4.149290454e-13,2.692412314e-13,6.327199976e-14,2.315016983e-13,3.025272620e-12,2.424870903e-13,1.023870974e-12,1.380962258e-13,9.910332695e-16
1.7344,4.996213449e-13,2.067007646e-13,3.366757830e-13,9.429239535e-14,2.620545109e-14,3.492563099e-14,1.302429399e-13,1.218660818e-14,3.654426477e-14,2.448056175e-14,2.153903967e-13,5.363778023e-14,2.350783874e-13,3.454761495e-13,4.632211904e-13,3.762748289e-13,7.260119364e-13,2.168026926e-13,3.515314912e-14,1.364687223e-13,2.662647912e-14,3.273406837e-14,5.068080923e-14,4.003956798e-13,2.665977255e-13,5.718817235e-14,2.320497689e-13,2.797426425e-12,2.514503430e-13,1.016441482e-12,1.348105956e-13,8.288538348e-16
1.7422,4.871826907e-13,2.012988309e-13,3.346050082e-13,8.476356867e-14,2.375524617e-14,3.763801707e-14,1.177506475e-13,1.161187256e-14,3.320841038e-14,2.875248096e-14,2.170554836e-13,5.221282348e-14,2.273147253e-13,3.680110780e-13,4.531821562e-13,3.774033413e-13,7.879406106e-13,1.984060257e-13,2.986853164e-14,1.547830683e-13,2.533718132e-14,2.956013142e-14,4.885241188e-14,3.793848675e-13,2.640204332e-13,5.123080841e-14,2.307782422e-13,2.540080388e-12,2.586367624e-13,9.883011047e-13,1.304909401e-13,7.450588764e-16
1.75,4.579561033e-13,1.899791601e-13,3.224014386e-13,7.502843514e-14,2.171555103e-14,4.020119920e-14,1.168463718e-13,1.115497173e-14,3.011378785e-14,3.487814055e-14,2.254835006e-13,5.305621377e-14,2.106697537e-13,3.952852676e-13,4.490104530e-13,3.762320040e-13,8.323358433e-13,1.808547244e-13,2.728169982e-14,1.739915720e-13,2.485666275e-14,2.791405627e-14,4.777183059e-14,3.542106632e-13,2.623313457e-13,4.606719604e-14,2.314526126e-13,2.294144525e-12,2.642774543e-13,9.388012041e-13,1.253942382e-13,7.461981306e-16
1.7578,4.162150943e-13,1.731284902e-13,3.065297902e-13,6.637963203e-14,2.007843954e-14,4.184180928e-14,1.277331384e-13,1.070310643e-14,2.748927814e-14,4.219781536e-14,2.384646373e-13,5.553469433e-14,1.909569387e-13,4.253258861e-13,4.486141173e-13,3.748582800e-13,8.621266667e-13,1.659025760e-13,2.750622976e-14,1.949634337e-13,2.482051575e-14,2.743566731e-14,4.669556821e-14,3.308640252e-13,2.570958541e-13,4.191203442e-14,2.318080432e-13,2.075405582e-12,2.676397325e-13,8.717687827e-13,1.197807560e-13,7.761444962e-16
1.7656,3.728236199e-13,1.544206384e-13,2.857154364e-13,5.930632017e-14,1.897490358e-14,4.365386507e-14,1.468059756e-13,1.018726421e-14,2.543229811e-14,4.941635815e-14,2.513901632e-13,5.872027880e-14,1.751903976e-13,4.569042523e-13,4.522129362e-13,3.724582826e-13,8.687556687e-13,1.533149802e-13,3.093675490e-14,2.166956662e-13,2.582883013e-14,2.811854430e-14,4.591744977e-14,3.074587051e-13,2.494686022e-13,3.847304358e-14,2.303629188e-13,1.909739746e-12,2.693717197e-13,7.995130327e-13,1.136170782e-13,8.346738918e-16
1.7734,3.323428108e-13,1.351449481e-13,2.637549989e-13,5.381489378e-14,1.852564972e-14,4.637360437e-14,1.683764708e-13,9.368821860e-15,2.382139326e-14,5.488320428e-14,2.618652139e-13,6.221490074e-14,1.699417368e-13,4.912519260e-13,4.632566421e-13,3.724506561e-13,8.563922116e-13,1.430680214e-13,3.730605549e-14,2.345117702e-13,2.762935912e-14,3.010492004e-14,4.535271318e-14,2.889791169e-13,2.402926210e-13,3.568706978e-14,2.287552061e-13,1.793157608e-12,2.686340426e-13,7.332267857e-13,1.070159071e-13,8.967195456e-16
1.7812,2.986141535e-13,1.166378259e-13,2.430729545e-13,5.024898350e-14,1.856413010e-14,5.130671896e-14,1.928790752e-13,8.499261299e-15,2.278794785e-14,5.970206534e-14,2.716540649e-13,6.619883529e-14,1.750578576e-13,5.277507987e-13,4.820988263e-13,3.777179283e-13,8.322895875e-13,1.381758785e-13,4.861078539e-14,2.473576935e-13,3.107715274e-14,3.404184885e-14,4.525966971e-14,2.767284449e-13,2.307207922e-13,3.358607587e-14,2.297652460e-13,1.724642608e-12,2.657236160e-13,6.760353578e-13,1.000796951e-13,9.351350242e-16
1.7891,2.734922315e-13,9.820175685e-14,2.301315809e-13,4.900720902e-14,1.889482844e-14,5.869059747e-14,2.190327094e-13,7.679164955e-15,2.231715027e-14,6.430303384e-14,2.808219818e-13,7.094796323e-14,1.834414656e-13,5.632298723e-13,5.060083664e-13,3.875564454e-13,7.941182626e-13,1.386494651e-13,6.487438891e-14,2.539818153e-13,3.644114871e-14,3.983424560e-14,4.519104127e-14,2.722414767e-13,2.209239874e-13,3.191047375e-14,2.317308561e-13,1.706439602e-12,2.598323093e-13,6.418992076e-13,9.290883121e-14,9.774835583e-16
