Time,Fp1,AF3,F7,F3,FC1,FC5,T7,C3,CP1,CP5,P7,P3,Pz,PO3,O1,Oz,O2,PO4,P4,P8,CP6,CP2,C4,T8,FC6,FC2,F4,F8,AF4,Fp2,Fz,Cz,
0,1.493508433e-09,1.187094293e-09,9.236456211e-10,3.124492065e-10,4.919169850e-12,4.343444783e-09,1.600553893e-09,6.442568230e-10,1.059156899e-10,1.955533123e-09,2.123937537e-09,9.426317811e-10,1.139592778e-07,4.752772144e-11,5.680113271e-11,2.748689932e-10,6.931696516e-11,5.118274243e-11,2.009585834e-10,2.542601306e-10,6.103701828e-10,5.812547865e-11,9.661292398e-10,3.484946329e-10,1.717622705e-09,3.461054126e-10,3.842450869e-09,2.724452870e-09,5.402941854e-10,9.489263173e-10,5.464849395e-11,7.133443996e-12
0.0078125,1.491622951e-09,1.182099863e-09,9.193443260e-10,3.118997806e-10,4.933819243e-12,4.326820420e-09,1.593184374e-09,6.419702346e-10,1.054370185e-10,1.951435276e-09,2.115851161e-09,9.392474439e-10,1.139276634e-07,4.751548576e-11,5.678256234e-11,2.738224006e-10,6.914041069e-11,5.120792727e-11,1.992067962e-10,2.520683700e-10,6.075517032e-10,5.802714815e-11,9.618908875e-10,3.483615686e-10,1.709265342e-09,3.453037147e-10,3.821998520e-09,2.716114879e-09,5.379554975e-10,9.462632454e-10,5.491293395e-11,7.088282194e-12
0.015625,1.485489033e-09,1.173673205e-09,9.123533718e-10,3.104636251e-10,4.935578285e-12,4.297635136e-09,1.581158732e-09,6.378209771e-10,1.046517520e-10,1.941746702e-09,2.101624367e-09,9.331446869e-10,1.135737116e-07,4.736511998e-11,5.660709927e-11,2.719716659e-10,6.877092311e-11,5.107905171e-11,1.968747593e-10,2.491349705e-10,6.029707041e-10,5.775810776e-11,9.548703741e-10,3.472377822e-10,1.695909827e-09,3.435262765e-10,3.790365508e-09,2.699906037e-09,5.340483510e-10,9.408748980e-10,5.502974528e-11,7.023190290e-12
0.023438,1.475158169e-09,1.161898574e-09,9.027365638e-10,3.081497898e-10,4.923488242e-12,4.256201875e-09,1.564591795e-09,6.318586738e-10,1.035669357e-10,1.926585507e-09,2.081428155e-09,9.243966018e-10,1.128942112e-07,4.708081804e-11,5.627375206e-11,2.693375740e-10,6.820423165e-11,5.079731650e-11,1.939845371e-10,2.454883888e-10,5.966720510e-10,5.732129154e-11,9.451428059e-10,3.451281418e-10,1.677707438e-09,3.407749166e-10,3.747857548e-09,2.676007827e-09,5.286131803e-10,9.328031783e-10,5.500085257e-11,6.938683821e-12
0.03125,1.460721887e-09,1.146887819e-09,8.905733585e-10,3.049750476e-10,4.897223971e-12,4.202921642e-09,1.543634885e-09,6.241420479e-10,1.021943134e-10,1.906104999e-09,2.055485775e-09,9.130975613e-10,1.118905285e-07,4.666884613e-11,5.578066766e-11,2.659452649e-10,6.744031569e-11,5.036344658e-11,1.905727938e-10,2.411739165e-10,5.887323443e-10,5.671877066e-11,9.328259562e-10,3.420414341e-10,1.654861876e-09,3.370629069e-10,3.694891136e-09,2.644712335e-09,5.217013661e-10,9.221428491e-10,5.482609445e-11,6.836526001e-12
0.039062,1.442325340e-09,1.128811900e-09,8.759867838e-10,3.009777900e-10,4.857412077e-12,4.138369265e-09,1.518505556e-09,6.147449129e-10,1.005506322e-10,1.880488648e-09,2.024054092e-09,8.993601309e-10,1.105685376e-07,4.613100955e-11,5.513637755e-11,2.618285824e-10,6.648870326e-11,4.978199829e-11,1.866771692e-10,2.362391187e-10,5.792308651e-10,5.595727548e-11,9.180464135e-10,3.379977500e-10,1.627600391e-09,3.324216136e-10,3.632032403e-09,2.606368234e-09,5.133952030e-10,9.089984083e-10,5.450199940e-11,6.718313128e-12
0.046875,1.420123230e-09,1.107855599e-09,8.591252471e-10,2.961961304e-10,4.804273542e-12,4.063231510e-09,1.489468617e-09,6.037662131e-10,9.865001572e-11,1.849970532e-09,1.987422447e-09,8.833153106e-10,1.089400331e-07,4.546596682e-11,5.435427123e-11,2.570360307e-10,6.535575316e-11,4.906348284e-11,1.823232163e-10,2.307185119e-10,5.682251324e-10,5.505116107e-11,9.009145387e-10,3.330089867e-10,1.596185441e-09,3.268962109e-10,3.559960167e-09,2.561244989e-09,5.037819672e-10,8.934649112e-10,5.402902176e-11,6.583886112e-12
0.054688,1.394329398e-09,1.084226054e-09,8.401833857e-10,2.906699398e-10,4.738006410e-12,3.978303700e-09,1.456855764e-09,5.913314709e-10,9.650945151e-11,1.814884576e-09,1.945971720e-09,8.651281673e-10,1.070220089e-07,4.467660435e-11,5.344337648e-11,2.516290766e-10,6.404518783e-11,4.821762834e-11,1.775528673e-10,2.246612803e-10,5.558186345e-10,5.401204689e-11,8.815992596e-10,3.271136975e-10,1.560978399e-09,3.205449860e-10,3.479449163e-09,2.509765848e-09,4.929573063e-10,8.757222101e-10,5.341186811e-11,6.433890228e-12
0.0625,1.365177939e-09,1.058167985e-09,8.193944859e-10,2.844493352e-10,4.659181583e-12,3.884438648e-09,1.421044602e-09,5.775670777e-10,9.415582732e-11,1.775577921e-09,1.900137501e-09,8.449825890e-10,1.048353175e-07,4.376956435e-11,5.240994152e-11,2.456611888e-10,6.256926576e-11,4.724879978e-11,1.724303034e-10,2.181437110e-10,5.421613038e-10,5.284417668e-11,8.603186427e-10,3.203836929e-10,1.522365794e-09,3.134451465e-10,3.391358036e-09,2.452503325e-09,4.810293105e-10,8.559556729e-10,5.265585558e-11,6.271129848e-12
0.070312,1.332899423e-09,1.029927245e-09,7.969640266e-10,2.775876753e-10,4.568512986e-12,3.782498221e-09,1.382378205e-09,5.625972661e-10,9.161546871e-11,1.732370405e-09,1.850333893e-09,8.230605767e-10,1.024046765e-07,4.275264154e-11,5.126239498e-11,2.391811465e-10,6.094431226e-11,4.616359289e-11,1.670102306e-10,2.112420754e-10,5.273813203e-10,5.155663485e-11,8.372644147e-10,3.128732243e-10,1.480697629e-09,3.056743004e-10,3.296569843e-09,2.389974648e-09,4.680970045e-10,8.343058987e-10,5.176774241e-11,6.097786287e-12
0.078125,1.297747072e-09,9.997233130e-10,7.730866802e-10,2.701373058e-10,4.467022122e-12,3.673306289e-09,1.341176541e-09,5.465472857e-10,8.890884081e-11,1.685592482e-09,1.796953147e-09,7.995320039e-10,9.975751669e-08,4.163598621e-11,5.000865801e-11,2.322485924e-10,5.918579495e-11,4.497682307e-11,1.613305460e-10,2.040107498e-10,5.115787526e-10,5.016410591e-11,8.126039317e-10,3.046329049e-10,1.436309877e-09,2.973045008e-10,3.195900346e-09,2.322645668e-09,4.542579314e-10,8.109382932e-10,5.075372191e-11,5.914892699e-12
0.085938,1.259995455e-09,9.677949435e-10,7.479722224e-10,2.621567428e-10,4.355483105e-12,3.557741507e-09,1.297800004e-09,5.295469809e-10,8.605969981e-11,1.635625867e-09,1.740444776e-09,7.745875313e-10,9.692205878e-08,4.043006688e-11,4.865990525e-11,2.249316924e-10,5.730937762e-11,4.370537738e-11,1.554356191e-10,1.965004223e-10,4.948799155e-10,4.867920633e-11,7.865412436e-10,2.957439542e-10,1.389563711e-09,2.884251274e-10,3.090209155e-09,2.251011143e-09,4.396306843e-10,7.860368190e-10,4.962253373e-11,5.724269778e-12
0.09375,1.219928500e-09,9.343978648e-10,7.218169734e-10,2.537057860e-10,4.234306652e-12,3.436726818e-09,1.252598276e-09,5.117300552e-10,8.309358033e-11,1.582869916e-09,1.681259669e-09,7.484308526e-10,9.392695694e-08,3.914227136e-11,4.723254489e-11,2.172946999e-10,5.532371398e-11,4.236155618e-11,1.493743252e-10,1.887701405e-10,4.774200399e-10,4.711471079e-11,7.592865980e-10,2.862726314e-10,1.340835907e-09,2.791311580e-10,2.980393766e-09,2.175609702e-09,4.243282497e-10,7.597890992e-10,4.838740643e-11,5.527546389e-12
0.10156,1.177841631e-09,8.997505130e-10,6.948087560e-10,2.448438561e-10,4.104907863e-12,3.311050266e-09,1.205863639e-09,4.932175769e-10,8.002969467e-11,1.527687541e-09,1.619767294e-09,7.212294529e-10,9.079957353e-08,3.778200710e-11,4.573539992e-11,2.093824121e-10,5.323918391e-11,4.095196008e-11,1.431857690e-10,1.808674415e-10,4.593109578e-10,4.548080084e-11,7.310117236e-10,2.762859954e-10,1.290446427e-09,2.694935014e-10,2.867149593e-09,2.097015542e-09,4.084465675e-10,7.323977419e-10,4.705772781e-11,5.325267392e-12
0.10938,1.134080801e-09,8.640963141e-10,6.671421892e-10,2.356445174e-10,3.969276245e-12,3.181573790e-09,1.157924948e-09,4.741373753e-10,7.688786188e-11,1.470491608e-09,1.556413115e-09,6.931729132e-10,8.756493559e-08,3.636397421e-11,4.417252298e-11,2.012363766e-10,5.108636801e-11,3.948282197e-11,1.369132782e-10,1.728434605e-10,4.406972442e-10,4.378482998e-11,7.019272791e-10,2.658982289e-10,1.238725948e-09,2.595781234e-10,2.751196790e-09,2.015846665e-09,3.921037399e-10,7.040704716e-10,4.564157456e-11,5.119009168e-12
0.11719,1.088959175e-09,8.276671870e-10,6.389776582e-10,2.261720154e-10,3.828309521e-12,3.049129340e-09,1.109084423e-09,4.546032058e-10,7.368812515e-11,1.411662809e-09,1.491614481e-09,6.644482678e-10,8.424697424e-08,3.489942217e-11,4.255612398e-11,1.929064036e-10,4.889530949e-11,3.796285587e-11,1.305967528e-10,1.647609333e-10,4.217167228e-10,4.203692643e-11,6.722368835e-10,2.551948539e-10,1.186018996e-09,2.494576874e-10,2.633294316e-09,1.932603625e-09,3.754056613e-10,6.749856626e-10,4.415181422e-11,4.911044334e-12
0.125,1.042757533e-09,7.906431783e-10,6.104514293e-10,2.164833441e-10,3.682874213e-12,2.914395411e-09,1.059565165e-09,4.347108267e-10,7.044395219e-11,1.351528548e-09,1.425672343e-09,6.351989325e-10,8.086665591e-08,3.339736173e-11,4.090167854e-11,1.844451774e-10,4.667163547e-11,3.640191560e-11,1.242614997e-10,1.566631331e-10,4.024636734e-10,4.024901384e-11,6.420920269e-10,2.442402404e-10,1.132607699e-09,2.391879272e-10,2.514004049e-09,1.847746523e-09,3.584406854e-10,6.453297153e-10,4.260114023e-11,4.702322016e-12
0.13281,9.958186469e-10,7.532654058e-10,5.817234809e-10,2.066551602e-10,3.534556228e-12,2.778253551e-09,1.009650151e-09,4.145935279e-10,6.717180414e-11,1.290520377e-09,1.359025706e-09,6.056161029e-10,7.744201284e-08,3.187200753e-11,3.921724091e-11,1.759119553e-10,4.441974497e-11,3.481348634e-11,1.179381842e-10,1.485809707e-10,3.830611333e-10,3.843414951e-11,6.116876698e-10,2.331359652e-10,1.078782627e-09,2.288185475e-10,2.393985132e-09,1.761890116e-09,3.413289657e-10,6.153188499e-10,4.100000858e-11,4.493329567e-12
0.14062,9.484233412e-10,7.157531806e-10,5.529186797e-10,1.967462619e-10,3.384264411e-12,2.641450879e-09,9.595856668e-10,3.943656496e-10,6.389110298e-11,1.229000470e-09,1.292085606e-09,5.758784130e-10,7.399024555e-08,3.033628468e-11,3.750475732e-11,1.673406015e-10,4.216201393e-11,3.320702889e-11,1.116575371e-10,1.405492373e-10,3.636232274e-10,3.660137323e-11,5.811991850e-10,2.219471014e-10,1.024809582e-09,2.184022368e-10,2.273857250e-09,1.675533420e-09,3.241647470e-10,5.851127320e-10,3.935910775e-11,4.285034007e-12
0.14844,9.008475305e-10,6.782805753e-10,5.241409889e-10,1.868090039e-10,3.232745875e-12,2.504594802e-09,9.095735651e-10,3.741203117e-10,6.061743413e-11,1.167293296e-09,1.225163854e-09,5.461328900e-10,7.052594247e-08,2.880063929e-11,3.577388633e-11,1.587535510e-10,3.992127802e-11,3.158541904e-11,1.054491136e-10,1.326072433e-10,3.442520201e-10,3.475691708e-11,5.507785372e-10,2.107212982e-10,9.709570077e-10,2.079785484e-10,2.154094457e-09,1.589135936e-09,3.070275870e-10,5.548872119e-10,3.769081560e-11,4.078683399e-12
0.15625,8.534386480e-10,6.410780115e-10,4.955547686e-10,1.769168613e-10,3.081222556e-12,2.368568698e-09,8.599193186e-10,3.539883072e-10,5.736599423e-11,1.105830466e-09,1.158681560e-09,5.165728899e-10,6.706270889e-08,2.727666059e-11,3.403872979e-11,1.502056879e-10,3.771070022e-11,2.995750516e-11,9.934968984e-11,1.248005921e-10,3.250790039e-10,3.291253369e-11,5.206188396e-10,1.995457944e-10,9.175518009e-10,1.975865039e-10,2.035357662e-09,1.503265361e-09,2.900294802e-10,5.248594685e-10,3.600646653e-11,3.875460082e-12
0.16406,8.064326943e-10,6.043238151e-10,4.673096233e-10,1.671194039e-10,2.930291726e-12,2.234038758e-09,8.108616276e-10,3.340636494e-10,5.414995521e-11,1.044908094e-09,1.092962928e-09,4.873454070e-10,6.361463775e-08,2.577245266e-11,3.230390489e-11,1.417353055e-10,3.554283093e-11,2.833050317e-11,9.338662929e-11,1.171668323e-10,3.061977705e-10,3.107621412e-11,4.908616991e-10,1.884869303e-10,8.648331390e-10,1.872670287e-10,1.918178608e-09,1.418307134e-09,2.732490835e-10,4.951470150e-10,3.431472942e-11,3.676101906e-12
0.17188,7.600435555e-10,5.681774389e-10,4.395196612e-10,1.574568621e-10,2.780351240e-12,2.101564662e-09,7.625851363e-10,3.144261813e-10,5.098400387e-11,9.847882146e-10,1.028288603e-09,4.585766003e-10,6.019402114e-08,2.429273305e-11,3.057818146e-11,1.333682729e-10,3.342596120e-11,2.670705580e-11,8.758426189e-11,1.097362517e-10,2.876879017e-10,2.925370779e-11,4.616430757e-10,1.775917471e-10,8.130339939e-10,1.770536321e-10,1.803005889e-09,1.334674304e-09,2.567594141e-10,4.658750085e-10,3.262600697e-11,3.481545643e-12
0.17969,7.144955187e-10,5.328236303e-10,4.123084073e-10,1.479757592e-10,2.632298551e-12,1.971855212e-09,7.153301980e-10,2.951851347e-10,4.788507778e-11,9.257894083e-10,9.650015794e-10,4.304159448e-10,5.681399608e-08,2.284099826e-11,2.887707198e-11,1.251604429e-10,3.135949553e-11,2.509923251e-11,8.196466816e-11,1.025338301e-10,2.696325865e-10,2.745860219e-11,4.331080290e-10,1.669050759e-10,7.624116182e-10,1.669851972e-10,1.690442662e-09,1.252819116e-09,2.406421669e-10,4.372182093e-10,3.094912499e-11,3.292619305e-12
0.1875,6.699321501e-10,4.983799550e-10,3.857703134e-10,1.387079663e-10,2.486836431e-12,1.845371501e-09,6.692583865e-10,2.764146245e-10,4.486483863e-11,8.681200227e-10,9.033160310e-10,4.029622309e-10,5.348856510e-08,2.142173379e-11,2.720663987e-11,1.171499642e-10,2.934904329e-11,2.351743751e-11,7.654022884e-11,9.557648017e-11,2.520872956e-10,2.569993501e-11,4.053431355e-10,1.564615580e-10,7.131318375e-10,1.571019447e-10,1.580879037e-09,1.172997333e-09,2.249450438e-10,4.092850784e-10,2.928999751e-11,3.109601067e-12
0.19531,6.265604451e-10,4.649935233e-10,3.600048997e-10,1.296944651e-10,2.344305891e-12,1.722636181e-09,6.245465763e-10,2.581922032e-10,4.193560917e-11,8.120363354e-10,8.434840036e-10,3.763305601e-10,5.023012054e-08,2.004118595e-11,2.557351982e-11,1.093633493e-10,2.740495767e-11,2.196607147e-11,7.133049987e-11,8.888780755e-11,2.351278191e-10,2.398339381e-11,3.784659248e-10,1.463033145e-10,6.654091871e-10,1.474421458e-10,1.474723918e-09,1.095566715e-09,2.097383846e-10,3.821899544e-10,2.765783861e-11,2.933403545e-12
0.20312,5.845424785e-10,4.327850754e-10,3.351137449e-10,1.209664681e-10,2.205151822e-12,1.604142904e-09,5.813865434e-10,2.405891755e-10,3.910703762e-11,7.577542339e-10,7.857301385e-10,3.506161104e-10,4.705194423e-08,1.870214578e-11,2.398953827e-11,1.018428103e-10,2.552882256e-11,2.045754063e-11,6.634445858e-11,8.248075294e-11,2.188003825e-10,2.231977994e-11,3.525592444e-10,1.364516724e-10,6.194122200e-10,1.380441019e-10,1.372425157e-09,1.020787753e-09,1.950773546e-10,3.560131784e-10,2.605936782e-11,2.764806892e-12
0.21094,5.439571676e-10,4.017985625e-10,3.111599529e-10,1.125413186e-10,2.070051807e-12,1.490115387e-09,5.398760433e-10,2.236393913e-10,3.638317391e-11,7.053787282e-10,7.301393709e-10,3.258602471e-10,4.396661553e-08,1.740901559e-11,2.246047750e-11,9.461595697e-11,2.372787831e-11,1.900425285e-11,6.158117493e-11,7.635883004e-11,2.031248656e-10,2.071599671e-11,3.276538374e-10,1.269314951e-10,5.752059088e-10,1.289354052e-10,1.274166863e-09,9.487509863e-10,1.809809782e-10,3.307880091e-10,2.449764745e-11,2.603741184e-12
0.21875,5.049611351e-10,3.721556416e-10,2.882259696e-10,1.044520001e-10,1.939390570e-12,1.380956074e-09,5.001606010e-10,2.074045628e-10,3.377530644e-11,6.551117551e-10,6.769222574e-10,3.021581616e-10,4.098466185e-08,1.616934768e-11,2.098795922e-11,8.770104186e-11,2.201553512e-11,1.761033587e-11,5.705939706e-11,7.054676924e-11,1.881690309e-10,1.917631941e-11,3.038493210e-10,1.177964209e-10,5.329577009e-10,1.201459432e-10,1.180256134e-09,8.797574627e-10,1.675042748e-10,3.066172986e-10,2.297941240e-11,2.450490151e-12
0.22656,4.676230535e-10,3.439196290e-10,2.663665301e-10,9.671098490e-11,1.813257552e-12,1.276883637e-09,4.623281909e-10,1.919177716e-10,3.129101463e-11,6.070468010e-10,6.262006680e-10,2.795555994e-10,3.811649177e-08,1.498369515e-11,1.957338614e-11,8.110845748e-11,2.038930532e-11,1.627658288e-11,5.278808188e-11,6.505785368e-11,1.739559578e-10,1.770410300e-11,2.811863825e-10,1.090669227e-10,4.927519674e-10,1.117061905e-10,1.090918729e-09,8.139430801e-10,1.546686917e-10,2.835543579e-10,2.150988451e-11,2.305105914e-12
0.23438,4.319716110e-10,3.170741414e-10,2.455857227e-10,8.932554042e-11,1.692175706e-12,1.177893688e-09,4.263658551e-10,1.771760981e-10,2.892842275e-11,5.611949930e-10,5.779503848e-10,2.580418730e-10,3.536972601e-08,1.385229592e-11,1.822075872e-11,7.484341457e-11,1.884412718e-11,1.500474706e-11,4.875961689e-11,5.988160821e-11,1.604744863e-10,1.630013519e-11,2.596557474e-10,1.007475439e-10,4.545688898e-10,1.036308201e-10,1.006120580e-09,7.512821787e-10,1.424705443e-10,2.615944635e-10,2.009047607e-11,2.167334498e-12
0.24219,3.981099839e-10,2.916792723e-10,2.259180028e-10,8.231923332e-11,1.576654425e-12,1.084190392e-09,3.923397714e-10,1.632096224e-10,2.669123597e-11,5.176666752e-10,5.322685179e-10,2.376624205e-10,3.274986492e-08,1.277965209e-11,1.693274212e-11,6.891825226e-11,1.738738937e-11,1.379962232e-11,4.497304027e-11,5.501446431e-11,1.477428513e-10,1.496866793e-11,2.392990756e-10,9.284800726e-11,4.184742281e-10,9.593817344e-11,9.259985044e-10,6.919171797e-10,1.309452151e-10,2.407763369e-10,1.872333419e-11,2.037498289e-12
0.25,3.660438866e-10,2.677372991e-10,2.073743807e-10,7.569012134e-11,1.466834608e-12,9.957576665e-10,3.602594337e-10,1.500201730e-10,2.458111641e-11,4.764636931e-10,4.891582424e-10,2.184188622e-10,3.026186469e-08,1.176558110e-11,1.570788357e-11,6.332962261e-11,1.602071266e-11,1.266343747e-11,4.141860574e-11,5.044877516e-11,1.357438059e-10,1.371215160e-11,2.200971965e-10,8.536694008e-11,3.844544010e-10,8.864346324e-11,8.505631885e-10,6.358425340e-10,1.200883329e-10,2.211089909e-10,1.741182400e-11,1.915603643e-12
0.25781,3.357773752e-10,2.452135895e-10,1.899338624e-10,6.943620676e-11,1.362936610e-12,9.125032905e-10,3.300828304e-10,1.375958531e-10,2.259444214e-11,4.375775171e-10,4.485564888e-10,2.002887835e-10,2.790730493e-08,1.080926197e-11,1.455077554e-11,5.807712771e-11,1.473800328e-11,1.159634316e-11,3.808551416e-11,4.617448549e-11,1.244654467e-10,1.252946499e-11,2.020268472e-10,7.832156110e-11,3.524648713e-10,8.174241785e-11,7.796686130e-10,5.830190843e-10,1.098821167e-10,2.025996593e-10,1.616021220e-11,1.801285837e-12
0.26562,3.073307786e-10,2.241139116e-10,1.735891062e-10,6.356188679e-11,1.264887484e-12,8.344339281e-10,3.018156332e-10,1.259373395e-10,2.073007335e-11,4.010248907e-10,4.104670641e-10,1.832740894e-10,2.568623400e-08,9.912308827e-12,1.346248668e-11,5.316508421e-11,1.353852790e-11,1.059857133e-11,3.496948327e-11,4.218674046e-11,1.139097074e-10,1.142068001e-11,1.850935419e-10,7.171073025e-11,3.225006818e-10,7.523455330e-11,7.132984602e-10,5.334725448e-10,1.003291762e-10,1.852450920e-10,1.497008914e-11,1.694215347e-12
0.27344,2.806395306e-10,2.043842056e-10,1.583008036e-10,5.805259569e-11,1.172488430e-12,7.613194727e-10,2.753784851e-10,1.150130430e-10,1.898419459e-11,3.667088402e-10,3.748052836e-10,1.673384017e-10,2.359798330e-08,9.074821532e-12,1.243394988e-11,4.856950383e-11,1.242316106e-11,9.665308909e-12,3.206026655e-11,3.847353744e-11,1.040437790e-10,1.038270586e-11,1.692483947e-10,6.551246107e-11,2.944748216e-10,6.911980181e-11,6.512995998e-10,4.870788918e-10,9.140154697e-11,1.689916909e-10,1.384164715e-11,1.594010917e-12
0.28125,2.556950916e-10,1.859896407e-10,1.440360123e-10,5.290677463e-11,1.085756224e-12,6.930699329e-10,2.507056580e-10,1.048114136e-10,1.735383842e-11,3.346188476e-10,3.415313926e-10,1.524717856e-10,2.163938571e-08,8.296766550e-12,1.146510487e-11,4.427803759e-11,1.139011572e-11,8.794066149e-12,2.935452094e-11,3.502764568e-11,9.486027879e-11,9.413554544e-12,1.544738056e-10,5.974028060e-11,2.683474282e-10,6.338758849e-11,5.935268416e-10,4.437974604e-10,8.308772486e-11,1.538354231e-10,1.277749407e-11,1.500737944e-12
0.28906,2.324657307e-10,1.689036874e-10,1.307765949e-10,4.811845124e-11,1.004352084e-12,6.296237023e-10,2.277761688e-10,9.532255241e-11,1.583684250e-11,3.047321831e-10,3.106068305e-10,1.386549600e-10,1.980700293e-08,7.575458513e-12,1.055966532e-11,4.029058324e-11,1.043579432e-11,7.985649710e-12,2.684600805e-11,3.183956294e-11,8.634246258e-11,8.513681082e-12,1.407456819e-10,5.438540344e-11,2.440740743e-10,5.802748649e-11,5.398770589e-10,4.035666867e-10,7.537618681e-11,1.397555863e-10,1.177762840e-11,1.414143796e-12
0.29688,2.108568546e-10,1.530402937e-10,1.184681030e-10,4.366477975e-11,9.280493144e-13,5.706697149e-10,2.064907691e-10,8.650028838e-11,1.442604627e-11,2.769101691e-10,2.818740918e-10,1.258141618e-10,1.809667709e-08,6.905986299e-12,9.714453576e-12,3.658766181e-11,9.554165660e-12,7.236416060e-12,2.451652612e-11,2.888771297e-11,7.843758668e-11,7.679570144e-12,1.279896478e-10,4.940897863e-11,2.215228801e-10,5.302317402e-11,4.900762987e-10,3.661862139e-10,6.822208667e-11,1.266827083e-10,1.084025828e-11,1.333501625e-12
0.30469,1.908499813e-10,1.383669007e-10,1.070760898e-10,3.954112313e-11,8.570201453e-13,5.161020751e-10,1.867906440e-10,7.832944823e-11,1.311748500e-11,2.511163052e-10,2.552725424e-10,1.139253091e-10,1.650317857e-08,6.286325046e-12,8.929280920e-12,3.316361863e-11,8.741582799e-12,6.545897206e-12,2.235845840e-11,2.616141639e-11,7.112858086e-11,6.909560962e-12,1.161842602e-10,4.480040777e-11,2.006520993e-10,4.835856626e-11,4.439967189e-10,3.315945410e-10,6.161193306e-11,1.145974873e-10,9.964917976e-12,1.258719010e-12
0.3125,1.723831110e-10,1.248483215e-10,9.657040350e-11,3.573698428e-11,7.910381711e-13,4.657916506e-10,1.686259835e-10,7.079114600e-11,1.190822274e-11,2.272874889e-10,2.307434621e-10,1.029618933e-10,1.502222803e-08,5.715149710e-12,8.203136458e-12,3.001189859e-11,7.996584849e-12,5.914012276e-12,2.036485460e-11,2.365214294e-11,6.439250043e-11,6.202994996e-12,1.052938835e-10,4.054457055e-11,1.814059214e-10,4.402457429e-11,4.015363156e-10,2.996950378e-10,5.553009847e-11,1.034590786e-10,9.149407880e-12,1.189526691e-12
0.32031,1.553548297e-10,1.124011145e-10,8.688619807e-11,3.222980933e-11,7.296908331e-13,4.194248524e-10,1.518795760e-10,6.383926360e-11,1.079181271e-11,2.052900873e-10,2.081411140e-10,9.286030427e-11,1.364860929e-08,5.189941029e-12,7.532085625e-12,2.710839032e-11,7.312555842e-12,5.334790272e-12,1.852114582e-11,2.134208161e-11,5.818660363e-11,5.555105882e-12,9.524757346e-11,3.662059024e-11,1.636571795e-10,4.000313967e-11,3.624087344e-10,2.703051485e-10,4.993375311e-11,9.320562824e-11,8.392168317e-12,1.125325996e-12
0.32812,1.397147053e-10,1.009801999e-10,7.798447206e-11,2.900700941e-11,6.727780828e-13,3.768550386e-10,1.364883053e-10,5.745201688e-11,9.764701842e-12,1.850581658e-10,1.873836670e-10,8.358660170e-11,1.237664451e-08,4.707599429e-12,6.914958967e-12,2.444579570e-11,6.683401803e-12,4.806022571e-12,1.682075286e-11,1.922105688e-11,5.249103531e-11,4.962987332e-12,8.601308091e-11,3.301977109e-11,1.473490775e-10,3.627477017e-11,3.264492334e-10,2.433215633e-10,4.480230322e-11,8.380516417e-11,7.691214543e-12,1.065937447e-12
0.33594,1.253818817e-10,9.053117192e-11,6.983450104e-11,2.605315745e-11,6.202102882e-13,3.378946818e-10,1.223974994e-10,5.160154500e-11,8.822168373e-12,1.664918225e-10,1.683708902e-10,7.509335469e-11,1.120202704e-08,4.265249086e-12,6.348607059e-12,2.201587217e-11,6.110048412e-12,4.326602457e-12,1.525685236e-11,1.728073710e-11,4.727597005e-11,4.425072724e-12,7.754522590e-11,2.971968818e-11,1.324124413e-10,3.282795401e-11,2.935238757e-10,2.185921007e-10,4.011598265e-11,7.519801126e-11,7.041604612e-12,1.010830913e-12
0.34375,1.122896211e-10,8.099405381e-11,6.238885787e-11,2.335590654e-11,5.719215447e-13,3.023119307e-10,1.095220612e-10,4.625383696e-11,7.957769256e-12,1.494971810e-10,1.509907332e-10,6.732892617e-11,1.011969592e-08,3.861547628e-12,5.830477374e-12,1.980054170e-11,5.590688913e-12,3.892346557e-12,1.381872475e-11,1.550740135e-11,4.250847085e-11,3.938501492e-12,6.979675892e-11,2.670055069e-11,1.187597823e-10,2.964919577e-11,2.634312309e-10,1.959935605e-10,3.584753901e-11,6.734099626e-11,6.441236479e-12,9.595554592e-13
0.35156,1.003723624e-10,7.232470262e-11,5.560895473e-11,2.090195419e-11,5.275185327e-13,2.699422505e-10,9.779751475e-11,4.138402613e-11,7.168042439e-12,1.340026881e-10,1.351625551e-10,6.025686202e-11,9.124379040e-09,3.493871942e-12,5.359637204e-12,1.778971182e-11,5.118117374e-12,3.501973858e-12,1.249879799e-11,1.388826754e-11,3.816180097e-11,3.500741360e-12,6.273063397e-11,2.394739205e-11,1.063231991e-10,2.672450683e-11,2.360134012e-10,1.754254356e-10,3.197039728e-11,6.020202364e-11,5.888823189e-12,9.122010127e-13
0.35938,8.952121692e-11,6.444789898e-11,4.944795751e-11,1.866817197e-11,4.866342436e-13,2.405141766e-10,8.713826719e-11,3.695109729e-11,6.447867009e-12,1.198751018e-10,1.207566028e-10,5.381792199e-11,8.211649666e-09,3.158624384e-12,4.930907160e-12,1.596762288e-11,4.688090230e-12,3.154007753e-12,1.128845856e-11,1.241095068e-11,3.419762700e-11,3.108126657e-12,5.628377984e-11,2.143463267e-11,9.499541049e-11,2.404014821e-11,2.110618222e-10,1.566943388e-10,2.844983468e-11,5.371126117e-11,5.380217219e-12,8.683429644e-13
0.36719,7.968601700e-11,5.731410553e-11,4.386547281e-11,1.664387003e-11,4.492779402e-13,2.138413761e-10,7.747665656e-11,3.292864448e-11,5.792501597e-12,1.070397968e-10,1.076893502e-10,4.797598860e-11,7.376631280e-09,2.854564171e-12,4.540266632e-12,1.431990096e-11,4.299083967e-12,2.845476547e-12,1.018237821e-11,1.106824998e-11,3.059663705e-11,2.757310007e-12,5.042201226e-11,1.914940249e-11,8.471253353e-11,2.158224255e-11,1.884183144e-10,1.397011775e-10,2.526859160e-11,4.783315413e-11,4.913213579e-12,8.275510143e-13
0.375,7.080869975e-11,5.088572311e-11,3.883152894e-11,1.481840940e-11,4.151712221e-13,1.897878459e-10,6.876349101e-11,2.929818476e-11,5.199158754e-12,9.543688865e-11,9.589728896e-11,4.270469445e-11,6.614605967e-09,2.580154334e-12,4.185853268e-12,1.283622578e-11,3.949823189e-12,2.573112366e-12,9.176995197e-12,9.855289364e-12,2.734216740e-11,2.445471912e-12,4.511727110e-11,1.708447799e-11,7.542617738e-11,1.933963535e-11,1.679681736e-10,1.243605710e-10,2.240878772e-11,4.253404432e-11,4.486379570e-12,7.897336744e-13
0.38281,6.278188264e-11,4.508535773e-11,3.429703744e-11,1.317009289e-11,3.838936592e-13,1.680788885e-10,6.090612340e-11,2.601806435e-11,4.661728062e-12,8.493462207e-11,8.524146504e-11,3.794261754e-11,5.920947304e-09,2.332408019e-12,3.864340800e-12,1.149770134e-11,3.638054798e-12,2.331319111e-12,8.262049881e-12,8.760759108e-12,2.439582494e-11,2.168624574e-12,4.030647605e-11,1.522120662e-11,6.702480528e-11,1.729716287e-11,1.494865105e-10,1.104881895e-10,1.983259752e-11,3.774573546e-11,4.096681796e-12,7.543620313e-13
0.39062,5.555538420e-11,3.986545343e-11,3.022400878e-11,1.168664143e-11,3.553460356e-13,1.485385995e-10,5.383786034e-11,2.306057820e-11,4.174991924e-12,7.545139763e-11,7.563073242e-11,3.364801210e-11,5.290783392e-09,2.109161647e-12,3.574041321e-12,1.029438748e-11,3.358268247e-12,2.116837492e-12,7.430049598e-12,7.775254518e-12,2.173387890e-11,1.923811317e-12,3.595571089e-11,1.354258130e-11,5.944514310e-11,1.544020139e-11,1.328203031e-10,9.798996617e-11,1.751899593e-11,3.343783367e-11,3.741955503e-12,7.211380383e-13
0.39844,4.908036994e-11,3.519307260e-11,2.658481575e-11,1.035660032e-11,3.293563150e-13,1.310412047e-10,4.750972846e-11,2.040738127e-11,3.736478313e-12,6.692426399e-11,6.700607123e-11,2.979409922e-11,4.719933219e-09,1.908783428e-12,3.312690278e-12,9.220453422e-12,3.106710855e-12,1.928533545e-12,6.678111234e-12,6.893006077e-12,1.934003528e-11,1.708333447e-12,3.204122165e-11,1.203277207e-11,5.265010995e-11,1.376044782e-11,1.178748439e-10,8.678442833e-11,1.545312458e-11,2.958291045e-11,3.420297473e-12,6.901261421e-13
0.40625,4.327554568e-11,3.100744662e-11,2.333430937e-11,9.164233494e-12,3.056915302e-13,1.153661695e-10,4.183912494e-11,1.802674783e-11,3.341787769e-12,5.925714352e-11,5.926500496e-11,2.633693644e-11,4.203999072e-09,1.729385923e-12,3.076895553e-12,8.259247820e-12,2.883301210e-12,1.763434873e-12,5.998839850e-12,6.104101871e-12,1.718665717e-11,1.519382104e-12,2.851441639e-11,1.067472473e-11,4.655349326e-11,1.224449376e-11,1.044598945e-10,7.672236907e-11,1.360746549e-11,2.612747741e-11,3.129495734e-12,6.609761073e-13
0.41406,3.808201397e-11,2.726320038e-11,2.043734014e-11,8.098631023e-12,2.841732449e-13,1.013452156e-10,3.677061329e-11,1.589448060e-11,2.986779142e-12,5.237852203e-11,5.232848383e-11,2.324046153e-11,3.738346521e-09,1.568531203e-12,2.864995268e-12,7.399534489e-12,2.686100592e-12,1.620540653e-12,5.385736810e-12,5.399254736e-12,1.525197729e-11,1.355481720e-12,2.534024773e-11,9.454514689e-12,4.108633558e-11,1.087616360e-11,9.242590975e-11,6.770684780e-11,1.196058304e-11,2.303566600e-11,2.867208612e-12,6.334286663e-13
0.42188,3.344258883e-11,2.392387096e-11,1.786737970e-11,7.147265488e-12,2.645635070e-13,8.883959398e-11,3.226237871e-11,1.399018007e-11,2.668744377e-12,4.621726114e-11,4.613000016e-11,2.047278826e-11,3.319234697e-09,1.424219397e-12,2.674304078e-12,6.635037840e-12,2.512592784e-12,1.500122072e-12,4.835712261e-12,4.772546891e-12,1.351756510e-11,1.214388160e-12,2.249069169e-11,8.359670371e-12,3.619551645e-11,9.645279758e-12,8.167194611e-11,5.964953667e-11,1.049422956e-11,2.027474402e-11,2.630733765e-12,6.074832098e-13
0.42969,2.931096940e-11,2.095078003e-11,1.558990759e-11,6.299861359e-12,2.467687848e-13,7.771201240e-11,2.825354710e-11,1.229238949e-11,2.384418359e-12,4.071067505e-11,4.059932010e-11,1.800362927e-11,2.942863762e-09,1.295876772e-12,2.503243658e-12,5.956530177e-12,2.360980855e-12,1.400028617e-12,4.343593369e-12,4.217413712e-12,1.196564505e-11,1.093621032e-12,1.993607310e-11,7.380796360e-12,3.182644182e-11,8.541137795e-12,7.206989930e-11,5.245428168e-11,9.191049950e-12,1.781336686e-11,2.418479615e-12,5.829423134e-13
0.4375,2.564640804e-11,1.831243666e-11,1.357693647e-11,5.548538435e-12,2.306619204e-13,6.784627493e-11,2.469680808e-11,1.078317355e-11,2.130711108e-12,3.580913007e-11,3.568067298e-11,1.580829134e-11,2.605262987e-09,1.182705426e-12,2.352055189e-12,5.356577516e-12,2.228212014e-12,1.317359645e-12,3.903880115e-12,3.727229406e-12,1.058083541e-11,9.913731408e-13,1.765193573e-11,6.508516956e-12,2.793747701e-11,7.551496506e-12,6.351051529e-11,4.605039090e-11,8.036684192e-12,1.562783336e-11,2.228744819e-12,5.596189098e-13
0.44531,2.238970998e-11,1.597120816e-11,1.180202017e-11,4.881239124e-12,2.160534700e-13,5.908979695e-11,2.154593411e-11,9.440226964e-12,1.904450828e-12,3.143923985e-11,3.130660502e-11,1.385460037e-11,2.303092395e-09,1.083145242e-12,2.217556868e-12,4.826004493e-12,2.113239454e-12,1.249416611e-12,3.511455582e-12,3.295579958e-12,9.343565327e-12,9.050641823e-13,1.560673410e-11,5.731495357e-12,2.447357778e-11,6.666634280e-12,5.588561956e-11,4.034677917e-11,7.013786275e-12,1.368584817e-11,2.058519306e-12,5.373211013e-13
0.45312,1.950940785e-11,1.390021363e-11,1.024108652e-11,4.291629655e-12,2.030384571e-13,5.133911291e-11,1.875921229e-11,8.248115769e-12,1.702724902e-12,2.755229718e-11,2.742568316e-11,1.211914859e-11,2.033170509e-09,9.956891819e-13,2.097112923e-12,4.357030883e-12,2.015891647e-12,1.194320015e-12,3.161584638e-12,2.916929167e-12,8.240348880e-12,8.330005214e-13,1.377817833e-11,5.041834836e-12,2.139222575e-11,5.877182094e-12,4.910486993e-11,3.527251717e-11,6.111335931e-12,1.196489934e-11,1.905730875e-12,5.158497396e-13
0.46094,1.698293960e-11,1.208012327e-11,8.877684814e-12,3.775290452e-12,1.915731591e-13,4.453005148e-11,1.630995619e-11,7.197224804e-12,1.523752243e-12,2.411776293e-11,2.400354776e-11,1.058794970e-11,1.792441021e-09,9.188821493e-13,1.991438978e-12,3.946547234e-12,1.933168060e-12,1.151621535e-12,2.851716478e-12,2.587558152e-12,7.263004085e-12,7.743566202e-13,1.215298843e-11,4.432429815e-12,1.867052081e-11,5.173847053e-12,4.310656446e-11,3.078649873e-11,5.321376688e-12,1.044739602e-11,1.768866792e-12,4.952590777e-13
0.46875,1.475791860e-11,1.047578050e-11,7.687254616e-12,3.321015393e-12,1.813461518e-13,3.853552465e-11,1.415588672e-11,6.268620188e-12,1.365306127e-12,2.107532913e-11,2.097977760e-11,9.235667303e-12,1.578109336e-09,8.518028111e-13,1.899031855e-12,3.587417625e-12,1.863433563e-12,1.120855966e-12,2.578535520e-12,2.302921640e-12,6.396248871e-12,7.273574812e-13,1.070527470e-11,3.894130044e-12,1.626112083e-11,4.547902002e-12,3.779348336e-11,2.681903576e-11,4.628008772e-12,9.104697944e-12,1.645926856e-12,4.754915914e-13
0.47656,1.279773887e-11,9.061525736e-12,6.648001541e-12,2.921329823e-12,1.722786468e-13,3.326070679e-11,1.226074732e-11,5.447660039e-12,1.225018835e-12,1.838032198e-11,1.830633588e-11,8.040761008e-12,1.387488883e-09,7.938269168e-13,1.816898986e-12,3.271454267e-12,1.806767471e-12,1.101195659e-12,2.338866332e-12,2.059189707e-12,5.628421724e-12,6.904234506e-13,9.415574992e-12,3.419307753e-12,1.412544679e-11,3.991424963e-12,3.308035490e-11,2.330950339e-11,4.018430703e-12,7.920062953e-12,1.535819346e-12,4.563294474e-13
0.48438,1.108338627e-11,7.824522228e-12,5.750436529e-12,2.572363396e-12,1.643571297e-13,2.865661633e-11,1.060868454e-11,4.727108031e-12,1.101371625e-12,1.600820646e-11,1.595931503e-11,6.991025494e-12,1.218310229e-09,7.440394369e-13,1.744127385e-12,2.995667480e-12,1.761482216e-12,1.091862038e-12,2.131465932e-12,1.854503297e-12,4.953713432e-12,6.624590189e-13,8.274889615e-12,3.002678353e-12,1.224958196e-11,3.498368632e-12,2.892489453e-11,2.022456397e-11,3.485724846e-12,6.883546494e-12,1.437798946e-12,4.378512148e-13
0.49219,9.585304579e-12,6.742323113e-12,4.978275081e-12,2.267626043e-12,1.575000389e-13,2.463814797e-11,9.168724167e-12,4.094754024e-12,9.924318792e-13,1.392077662e-11,1.389990093e-11,6.069073893e-12,1.068449629e-09,7.018096424e-13,1.680765136e-12,2.757193322e-12,1.727099467e-12,1.091907634e-12,1.953136077e-12,1.684916840e-12,4.361791405e-12,6.424192482e-13,7.265571264e-12,2.640347486e-12,1.060263296e-11,3.062481516e-12,2.526362079e-11,1.751717245e-11,3.021230071e-12,5.975150758e-12,1.350403098e-12,4.200708614e-13
0.5,8.278600130e-12,5.795172318e-12,4.313838396e-12,2.002133242e-12,1.516781341e-13,2.113194119e-11,7.910281825e-12,3.539759005e-12,8.963195106e-13,1.208505835e-11,1.209243046e-11,5.259369713e-12,9.357179028e-10,6.667796376e-13,1.625785843e-12,2.550921381e-12,1.703839003e-12,1.100279261e-12,1.800766749e-12,1.546725623e-12,3.843766104e-12,6.294314958e-13,6.371201230e-12,2.326897309e-12,9.153117924e-12,2.677452792e-12,2.203178689e-11,1.513702377e-11,2.617177156e-12,5.178670700e-12,1.272360275e-12,4.026783081e-13
0.50781,7.142956475e-12,4.970677432e-12,3.748565800e-12,1.771664901e-12,1.467497341e-13,1.808954132e-11,6.820910208e-12,3.055018596e-12,8.120004951e-13,1.047523119e-11,1.051433720e-11,4.551656765e-12,8.183634803e-10,6.384519560e-13,1.577095702e-12,2.372296694e-12,1.689068216e-12,1.116242565e-12,1.673225718e-12,1.438922155e-12,3.393428612e-12,6.222831244e-13,5.581590464e-12,2.054213604e-12,7.885908286e-12,2.339053298e-12,1.919189755e-11,1.304918132e-11,2.267194534e-12,4.482992622e-12,1.202924413e-12,3.855922120e-13
0.51562,6.157386881e-12,4.254702702e-12,3.271927263e-12,1.571847155e-12,1.425862482e-13,1.545860769e-11,5.882336313e-12,2.632881090e-12,7.382023346e-13,9.066309074e-12,9.139107682e-12,3.935002884e-12,7.148406115e-10,6.163150812e-13,1.534031243e-12,2.218629425e-12,1.681002234e-12,1.139277360e-12,1.567896399e-12,1.358936374e-12,3.002932954e-12,6.200717763e-13,4.885877987e-12,1.817643310e-12,6.781214473e-12,2.042721126e-12,1.670171129e-11,1.122494365e-11,1.964580819e-12,3.875460916e-12,1.141282865e-12,3.689664088e-13
0.52344,5.305925201e-12,3.634593468e-12,2.870864200e-12,1.399519082e-12,1.391280748e-13,1.319229301e-11,5.072932370e-12,2.266571516e-12,6.737686045e-13,7.839525992e-12,7.944200424e-12,3.399767957e-12,6.235071815e-10,5.998823955e-13,1.496690372e-12,2.087437747e-12,1.680055886e-12,1.168356601e-12,1.482759167e-12,1.303977021e-12,2.667099060e-12,6.223883153e-13,4.275525861e-12,1.617067329e-12,5.819024647e-12,1.782911262e-12,1.451679984e-11,9.634819508e-12,1.703610806e-12,3.346650978e-12,1.086089122e-12,3.528193154e-13
0.53125,4.570708543e-12,3.098295979e-12,2.535124355e-12,1.250638086e-12,1.362962448e-13,1.123876005e-11,4.377646456e-12,1.948321877e-12,6.180121330e-13,6.770409008e-12,6.909882629e-12,2.935974746e-12,5.429965611e-10,5.887892197e-13,1.463723990e-12,1.975255227e-12,1.685411396e-12,1.202817978e-12,1.416913821e-12,1.273135445e-12,2.380454378e-12,6.284724304e-13,3.740333469e-12,1.449747188e-12,4.983772429e-12,1.555620012e-12,1.260107008e-11,8.247660889e-12,1.478733313e-12,2.888262221e-12,1.035872717e-12,3.370823084e-13
0.53906,3.938053388e-12,2.636212298e-12,2.257317456e-12,1.122683480e-12,1.341926153e-13,9.560759277e-12,3.783809900e-12,1.672149276e-12,5.698672479e-13,5.838545368e-12,6.017729069e-12,2.534912799e-12,4.721714047e-10,5.829000198e-13,1.434834897e-12,1.880016936e-12,1.696580685e-12,1.243208744e-12,1.368170662e-12,1.264695668e-12,2.136303308e-12,6.378272203e-13,3.269946903e-12,1.310799427e-12,4.260282011e-12,1.357588979e-12,1.092396901e-11,7.040474389e-12,1.285608880e-12,2.492115830e-12,9.900274116e-13,3.216444058e-13
0.54688,3.425987708e-12,2.211407016e-12,2.034730813e-12,1.020163654e-12,1.334140216e-13,7.807403775e-12,3.323753832e-12,1.439194273e-12,5.249231228e-13,5.052294811e-12,5.116894155e-12,2.178786859e-12,4.101899164e-10,5.857035011e-13,1.404113607e-12,1.791960103e-12,1.706538899e-12,1.272671321e-12,1.359999602e-12,1.322913652e-12,1.959095420e-12,6.514679671e-13,2.899005829e-12,1.232915360e-12,3.721836966e-12,1.209164612e-12,9.479754072e-12,6.096247256e-12,1.190814829e-12,2.231761761e-12,9.305048939e-13,3.046571440e-13
0.55469,2.995738949e-12,1.887415395e-12,1.845642875e-12,9.336515452e-13,1.328289267e-13,6.543163411e-12,2.921590880e-12,1.241302581e-12,4.874989278e-13,4.389825679e-12,4.442026319e-12,1.889616779e-12,3.562212035e-10,5.902311489e-13,1.378879277e-12,1.726782117e-12,1.729154556e-12,1.319942513e-12,1.342881286e-12,1.366718277e-12,1.792631797e-12,6.718401544e-13,2.568203036e-12,1.147427624e-12,3.239776695e-12,1.087962149e-12,8.316361451e-12,5.279385337e-12,1.084324869e-12,1.992575284e-12,8.899841440e-13,2.906497670e-13
0.5625,2.589620269e-12,1.603581167e-12,1.694119435e-12,8.481798171e-13,1.317709793e-13,5.590445523e-12,2.551410814e-12,1.063995171e-12,4.590754673e-13,3.775717428e-12,3.926913963e-12,1.645991679e-12,3.090001466e-10,5.975689489e-13,1.364436690e-12,1.671272753e-12,1.765868544e-12,1.379206975e-12,1.338237050e-12,1.409732081e-12,1.659713848e-12,6.877449448e-13,2.249767294e-12,1.069788169e-12,2.769178360e-12,9.693426225e-13,7.207472826e-12,4.478092222e-12,9.461204964e-13,1.706621502e-12,8.665246801e-13,2.764240519e-13
0.57031,2.256042089e-12,1.365733980e-12,1.569137650e-12,7.790764154e-13,1.316744844e-13,4.765751077e-12,2.240323651e-12,9.125230529e-13,4.339147538e-13,3.260981700e-12,3.477370148e-12,1.438623382e-12,2.676709973e-10,6.102221434e-13,1.349388553e-12,1.626097037e-12,1.803537392e-12,1.445428570e-12,1.340878564e-12,1.467525597e-12,1.548796863e-12,7.086158436e-13,1.981249808e-12,1.016635493e-12,2.373006874e-12,8.649675372e-13,6.277232756e-12,3.812979802e-12,8.386218114e-13,1.486927314e-12,8.386205295e-13,2.631854477e-13
0.57812,1.974193099e-12,1.168745424e-12,1.464292708e-12,7.223888667e-13,1.324053032e-13,4.076878749e-12,1.972770993e-12,7.805543179e-13,4.109775776e-13,2.820789450e-12,3.087359864e-12,1.257329614e-12,2.318347572e-10,6.261243426e-13,1.335071403e-12,1.593701534e-12,1.841578493e-12,1.521343953e-12,1.343451201e-12,1.530068130e-12,1.447196290e-12,7.345827972e-13,1.746281827e-12,9.777281182e-13,2.028772286e-12,7.745660821e-13,5.509511124e-12,3.238359287e-12,7.488293449e-13,1.312243738e-12,8.085159712e-13,2.514142526e-13
0.58594,1.739291318e-12,9.987200091e-13,1.395256299e-12,6.716228091e-13,1.330852038e-13,3.524617246e-12,1.754410424e-12,6.709385859e-13,3.949891034e-13,2.443626765e-12,2.787424449e-12,1.115886463e-12,2.005581554e-10,6.476747571e-13,1.327692458e-12,1.568089696e-12,1.888473269e-12,1.599138341e-12,1.370807488e-12,1.617449422e-12,1.392149751e-12,7.559439667e-13,1.548213636e-12,9.674573745e-13,1.741547943e-12,6.886774591e-13,4.793451134e-12,2.745682802e-12,6.680583806e-13,1.144894312e-12,7.830596503e-13,2.387216552e-13
0.59375,1.544508554e-12,8.566120600e-13,1.349860417e-12,6.286745008e-13,1.343314508e-13,3.078413218e-12,1.575531905e-12,5.780348952e-13,3.831173552e-13,2.123470590e-12,2.548644400e-12,1.000834465e-12,1.731664566e-10,6.727131348e-13,1.322407690e-12,1.549699923e-12,1.937989952e-12,1.680855573e-12,1.409397888e-12,1.720350831e-12,1.357020888e-12,7.773495303e-13,1.380543175e-12,9.720494280e-13,1.499999351e-12,6.092730851e-13,4.168188598e-12,2.330331700e-12,5.995210537e-13,1.004683366e-12,7.567328033e-13,2.263808939e-13
0.60156,1.375171970e-12,7.398190905e-13,1.323357600e-12,5.919732336e-13,1.362019178e-13,2.748361151e-12,1.426436398e-12,4.977621378e-13,3.737377513e-13,1.846590765e-12,2.363331900e-12,9.041041630e-13,1.493971408e-10,6.992653817e-13,1.319617772e-12,1.540232807e-12,1.987971515e-12,1.768349979e-12,1.449879323e-12,1.828377840e-12,1.326830482e-12,8.003500574e-13,1.230406578e-12,9.799539729e-13,1.284457736e-12,5.355115558e-13,3.632060872e-12,1.957265278e-12,5.335201066e-13,8.796184012e-13,7.296827841e-13,2.150654696e-13
0.60938,1.209679719e-12,6.513099028e-13,1.349559565e-12,5.686156383e-13,1.379288503e-13,2.602771684e-12,1.364681860e-12,4.309990115e-13,3.660632009e-13,1.643587566e-12,2.341032117e-12,8.591589497e-13,1.291880432e-10,7.358845935e-13,1.292765609e-12,1.502423433e-12,2.049478118e-12,1.866322288e-12,1.494796329e-12,1.958048906e-12,1.297476662e-12,8.231373274e-13,1.095383360e-12,9.922062667e-13,1.035703338e-12,4.607608295e-13,3.137336944e-12,1.491160676e-12,4.286793091e-13,7.136348526e-13,6.985460023e-13,2.068986068e-13
0.61719,1.117402778e-12,5.908015295e-13,1.390637955e-12,5.450700414e-13,1.401757328e-13,2.492589257e-12,1.325045194e-12,3.857905116e-13,3.688578708e-13,1.485858382e-12,2.341123069e-12,8.396903555e-13,1.117209486e-10,7.710991385e-13,1.286494857e-12,1.482124031e-12,2.110258966e-12,1.951206150e-12,1.573114922e-12,2.120755412e-12,1.326517339e-12,8.394057078e-13,1.013546535e-12,1.032821720e-12,9.058875911e-13,3.882430896e-13,2.721902370e-12,1.245623804e-12,3.732929483e-13,6.221976051e-13,6.719880784e-13,1.965729671e-13
0.625,1.029488046e-12,5.177272218e-13,1.422518376e-12,5.210381286e-13,1.440448151e-13,2.320578684e-12,1.270923847e-12,3.439738501e-13,3.718744973e-13,1.319423187e-12,2.243502411e-12,7.927349402e-13,9.613470368e-11,7.959480639e-13,1.299677177e-12,1.489454211e-12,2.153890610e-12,2.027609699e-12,1.649826301e-12,2.278059089e-12,1.347502173e-12,8.578636898e-13,9.258597481e-13,1.063194615e-12,8.133964333e-13,3.255172236e-13,2.328064763e-12,1.062257346e-12,3.457842469e-13,5.600887548e-13,6.418942402e-13,1.848183983e-13
0.63281,9.657945102e-13,4.649079115e-13,1.466142076e-12,5.001551498e-13,1.476466599e-13,2.202845502e-12,1.244610008e-12,3.113617307e-13,3.807154453e-13,1.190749640e-12,2.220361257e-12,7.767637476e-13,8.221946829e-11,8.273033655e-13,1.308411798e-12,1.490050095e-12,2.207477938e-12,2.099473022e-12,1.746182624e-12,2.462832805e-12,1.393959667e-12,8.730143873e-13,8.675591012e-13,1.107414835e-12,7.556023271e-13,2.713071905e-13,1.978460671e-12,9.212058818e-13,3.204530239e-13,5.057909802e-13,6.131477584e-13,1.739193974e-13
0.64062,9.214267260e-13,4.287024101e-13,1.513211375e-12,4.792719148e-13,1.510063212e-13,2.105450857e-12,1.233341528e-12,2.844872809e-13,3.954819696e-13,1.084734355e-12,2.251856317e-12,7.839770841e-13,6.986069674e-11,8.633548206e-13,1.314944396e-12,1.484617771e-12,2.267958090e-12,2.165340318e-12,1.861887492e-12,2.674191903e-12,1.464695968e-12,8.838226315e-13,8.364320612e-13,1.163541836e-12,7.369675732e-13,2.275642088e-13,1.675721547e-12,8.283559450e-13,3.012073057e-13,4.654042255e-13,5.865270379e-13,1.636154177e-13
0.64844,8.833870718e-13,3.929850096e-13,1.557098617e-12,4.634353686e-13,1.551204748e-13,2.015445680e-12,1.231410139e-12,2.636041737e-13,4.083388984e-13,1.000312243e-12,2.255226894e-12,7.864374311e-13,5.895487547e-11,8.958803855e-13,1.327336776e-12,1.491788676e-12,2.319925804e-12,2.229698094e-12,1.972614562e-12,2.882671130e-12,1.528080644e-12,8.982410451e-13,8.058918284e-13,1.215233440e-12,7.328828571e-13,1.984080663e-13,1.417037259e-12,7.524559193e-13,2.925406855e-13,4.360215844e-13,5.586145890e-13,1.533950622e-13
0.65625,8.560849875e-13,3.649585664e-13,1.594908354e-12,4.488596963e-13,1.589798177e-13,1.932474261e-12,1.234164205e-12,2.465982955e-13,4.219347978e-13,9.340300838e-13,2.269176215e-12,7.977515080e-13,4.942236536e-11,9.317646142e-13,1.340134612e-12,1.502283521e-12,2.376055588e-12,2.292672652e-12,2.087824556e-12,3.097072551e-12,1.600410808e-12,9.135829333e-13,7.891027910e-13,1.274604884e-12,7.497599147e-13,1.834305605e-13,1.205066789e-12,7.045670769e-13,2.902238428e-13,4.174499538e-13,5.325282742e-13,1.439144403e-13
0.66406,8.366148308e-13,3.435670285e-13,1.619345448e-12,4.319003894e-13,1.623305343e-13,1.840979215e-12,1.227993976e-12,2.299294376e-13,4.368547891e-13,8.721155460e-13,2.292698421e-12,8.153434716e-13,4.120611198e-11,9.716565257e-13,1.354189689e-12,1.515779730e-12,2.438599592e-12,2.354465359e-12,2.208750843e-12,3.316652277e-12,1.684089058e-12,9.280035165e-13,7.862747377e-13,1.342774531e-12,7.880486786e-13,1.817011229e-13,1.037887713e-12,6.878366861e-13,2.932492182e-13,4.091533497e-13,5.096215557e-13,1.353197915e-13
0.67188,8.273691763e-13,3.252389943e-13,1.635519658e-12,4.188964661e-13,1.657112427e-13,1.762585438e-12,1.226770634e-12,2.169391703e-13,4.486436457e-13,8.309792278e-13,2.306648236e-12,8.337619884e-13,3.427076129e-11,1.012588880e-12,1.369859815e-12,1.537257627e-12,2.502037386e-12,2.420046230e-12,2.323520888e-12,3.531383321e-12,1.765057028e-12,9.460541269e-13,7.867579369e-13,1.417004984e-12,8.302931146e-13,1.918484204e-13,9.142460437e-13,6.832672925e-13,3.013812543e-13,4.078583699e-13,4.876441911e-13,1.274375153e-13
0.67969,6.349104946e-13,2.167132980e-13,1.502115229e-12,3.361008580e-13,1.676167744e-13,1.230928040e-12,1.006861454e-12,1.404496749e-13,4.618139845e-13,5.397529168e-13,2.095294577e-12,7.373208941e-13,2.860682943e-11,1.047389320e-12,1.410311107e-12,1.593588998e-12,2.564766104e-12,2.482932951e-12,2.420689192e-12,3.684927916e-12,1.787815913e-12,9.610179176e-13,7.305447711e-13,1.437044432e-12,7.932174297e-13,2.145481010e-13,7.106003628e-13,5.921283768e-13,2.723985804e-13,3.660092375e-13,4.809322265e-13,1.212162461e-13
0.6875,5.921326517e-13,1.741362913e-13,1.419694205e-12,3.086126837e-13,1.702474386e-13,1.048416863e-12,9.008746068e-13,1.114072143e-13,4.669682493e-13,4.510759020e-13,1.999532329e-12,7.106402301e-13,2.424329549e-11,1.087848438e-12,1.441990886e-12,1.657777257e-12,2.628699149e-12,2.559600730e-12,2.507715841e-12,3.844408489e-12,1.842249898e-12,9.875373282e-13,7.137872417e-13,1.517059174e-12,8.066437589e-13,2.436128622e-13,6.374254579e-13,5.956067627e-13,2.766778847e-13,3.669712131e-13,4.639775510e-13,1.149368253e-13
0.69531,6.597990647e-13,1.854478151e-13,1.417131143e-12,3.165850634e-13,1.717948497e-13,1.095019220e-12,9.162457721e-13,1.153278576e-13,4.697368262e-13,5.039971026e-13,2.063925725e-12,7.618183766e-13,2.105715674e-11,1.143987734e-12,1.449724901e-12,1.690043192e-12,2.714150741e-12,2.644384266e-12,2.613472378e-12,4.049469570e-12,1.956910679e-12,1.014140658e-12,7.495680310e-13,1.665786451e-12,8.701763955e-13,2.721425682e-13,6.195444731e-13,6.459693414e-13,2.980100836e-13,3.920990932e-13,4.420931901e-13,1.093810477e-13
0.70312,6.953215830e-13,1.832590563e-13,1.399440627e-12,3.143763306e-13,1.730565272e-13,1.105329799e-12,9.118950520e-13,1.115360991e-13,4.675539822e-13,5.223126288e-13,2.075821900e-12,7.888142643e-13,1.880706665e-11,1.196285447e-12,1.467178228e-12,1.740024885e-12,2.794591397e-12,2.736683617e-12,2.701227354e-12,4.226941433e-12,2.047236852e-12,1.045056035e-12,7.672112451e-13,1.800996350e-12,9.052055563e-13,2.977498371e-13,6.117673564e-13,6.863814329e-13,3.126078029e-13,4.146386914e-13,4.240056943e-13,1.043487570e-13
0.71094,7.038518436e-13,1.658975009e-13,1.371238180e-12,3.074830126e-13,1.743752806e-13,1.109814119e-12,8.996855659e-13,1.042365202e-13,4.589535303e-13,5.213603635e-13,2.030005330e-12,7.917280744e-13,1.750786856e-11,1.243193179e-12,1.495716403e-12,1.814349152e-12,2.867331652e-12,2.840633845e-12,2.765928121e-12,4.372339820e-12,2.107802780e-12,1.082943721e-12,7.594170803e-13,1.923951904e-12,9.041499325e-13,3.175447244e-13,6.068596462e-13,7.076215587e-13,3.210546035e-13,4.287154311e-13,4.070183540e-13,9.928248305e-14
0.71875,7.418136803e-13,1.671095089e-13,1.372564240e-12,3.036154431e-13,1.746317181e-13,1.164056315e-12,9.232498889e-13,1.046943602e-13,4.535221815e-13,5.485757723e-13,2.062884046e-12,8.259950718e-13,1.684314498e-11,1.298777735e-12,1.514483354e-12,1.869993505e-12,2.957888420e-12,2.947071921e-12,2.850334532e-12,4.546650206e-12,2.205360370e-12,1.115687766e-12,7.829646258e-13,2.077582370e-12,9.300506971e-13,3.291436157e-13,6.062995866e-13,7.583348057e-13,3.320099202e-13,4.533255832e-13,3.913049646e-13,9.499856820e-14
0.72656,7.776275273e-13,1.713032115e-13,1.388105477e-12,2.987244460e-13,1.749182254e-13,1.234993722e-12,9.617605089e-13,1.065057565e-13,4.489929601e-13,5.751995291e-13,2.109906540e-12,8.642916071e-13,1.648937401e-11,1.351919215e-12,1.533692089e-12,1.921085959e-12,3.045470867e-12,3.051596858e-12,2.934660261e-12,4.721171004e-12,2.301231184e-12,1.145932864e-12,8.078539244e-13,2.224856651e-12,9.536086932e-13,3.312576443e-13,6.029316667e-13,8.108789932e-13,3.401508703e-13,4.789835826e-13,3.762565278e-13,9.117187457e-14
0.73438,8.051279238e-13,1.729932127e-13,1.419213817e-12,2.971347695e-13,1.756885232e-13,1.338668704e-12,1.026654123e-12,1.123419498e-13,4.423689261e-13,6.107989285e-13,2.143276073e-12,8.989200596e-13,1.641538774e-11,1.396701253e-12,1.557193980e-12,1.976950455e-12,3.116290274e-12,3.153936183e-12,3.005515690e-12,4.880257692e-12,2.374728376e-12,1.178146441e-12,8.180735426e-13,2.353838600e-12,9.591591381e-13,3.235762518e-13,5.998791545e-13,8.517576985e-13,3.455015809e-13,4.989726210e-13,3.593236319e-13,8.722451963e-14
0.74219,8.347497330e-13,1.811981997e-13,1.465221627e-12,2.922943266e-13,1.757405177e-13,1.437954098e-12,1.105399644e-12,1.197954371e-13,4.404929568e-13,6.451436781e-13,2.213201066e-12,9.463050613e-13,1.636905109e-11,1.439930613e-12,1.575821727e-12,2.015596955e-12,3.184918917e-12,3.244854380e-12,3.089744653e-12,5.055807086e-12,2.463836088e-12,1.203460766e-12,8.444928380e-13,2.487507740e-12,9.844299162e-13,3.085408202e-13,5.875434667e-13,9.084506121e-13,3.514358052e-13,5.235836426e-13,3.429538512e-13,8.371842110e-14
0.75,8.595223927e-13,1.920053820e-13,1.518998196e-12,2.844912644e-13,1.756178653e-13,1.526009930e-12,1.189105122e-12,1.271256804e-13,4.427597539e-13,6.732369460e-13,2.302304909e-12,9.993356201e-13,1.608150213e-11,1.477477300e-12,1.592176441e-12,2.040589632e-12,3.243795638e-12,3.319986982e-12,3.181038567e-12,5.240195970e-12,2.557429648e-12,1.221390808e-12,8.778692632e-13,2.613749518e-12,1.023203682e-12,2.887316916e-13,5.652731933e-13,9.722639489e-13,3.573566413e-13,5.499112772e-13,3.267830265e-13,8.049684676e-14
0.75781,8.911058406e-13,2.106380482e-13,1.589563391e-12,2.830436396e-13,1.760371843e-13,1.644083766e-12,1.302002411e-12,1.402995111e-13,4.470325252e-13,7.223700629e-13,2.411225254e-12,1.063967830e-12,1.557044199e-11,1.508799099e-12,1.606812530e-12,2.056006047e-12,3.288757026e-12,3.381249817e-12,3.272501254e-12,5.429135617e-12,2.646505253e-12,1.235523026e-12,9.134782781e-13,2.727843170e-12,1.072038779e-12,2.663967361e-13,5.552533358e-13,1.043677414e-12,3.667111576e-13,5.785413446e-13,3.085297974e-13,7.731309363e-14
0.76562,1.050486997e-12,2.645823555e-13,1.796213902e-12,3.210044997e-13,1.760716353e-13,2.107079332e-12,1.568019522e-12,1.772913407e-13,4.533803309e-13,9.255916776e-13,2.700502777e-12,1.231691505e-12,1.529663191e-11,1.544438883e-12,1.600330601e-12,2.037991484e-12,3.327596326e-12,3.429419118e-12,3.407939674e-12,5.725920989e-12,2.838815246e-12,1.242159786e-12,9.927714522e-13,2.933533680e-12,1.244931113e-12,2.443006227e-13,7.073812271e-13,1.392414800e-12,4.350617976e-13,6.840787950e-13,2.766655226e-13,7.092873066e-14
0.77344,1.124286635e-12,3.123190312e-13,1.953320835e-12,3.286658388e-13,1.762936642e-13,2.356208999e-12,1.758238739e-12,2.063240808e-13,4.673016436e-13,1.028223835e-12,2.911247911e-12,1.344140164e-12,1.502488978e-11,1.569289418e-12,1.603834907e-12,2.017346507e-12,3.358004062e-12,3.457463612e-12,3.536769154e-12,5.984323756e-12,2.979757388e-12,1.241633042e-12,1.070792496e-12,3.048343619e-12,1.402832275e-12,2.286454528e-13,7.971965360e-13,1.598159505e-12,4.772443814e-13,7.533159908e-13,2.595590267e-13,6.719920807e-14
0.78125,1.086098965e-12,3.234874618e-13,2.009646531e-12,3.091323117e-13,1.768546650e-13,2.307096651e-12,1.838054244e-12,2.082261696e-13,4.824544475e-13,1.014094643e-12,2.984184216e-12,1.389013874e-12,1.413908815e-11,1.580139822e-12,1.619905651e-12,2.006022920e-12,3.367164878e-12,3.469186020e-12,3.630871301e-12,6.165426564e-12,3.029347321e-12,1.239352987e-12,1.105191204e-12,3.084682649e-12,1.471059536e-12,2.189947620e-13,7.890419268e-13,1.617291090e-12,4.788635938e-13,7.686052175e-13,2.488624018e-13,6.567938357e-14
0.78906,1.094687665e-12,3.509472986e-13,2.073628475e-12,3.011821166e-13,1.767077223e-13,2.323596942e-12,1.925871881e-12,2.179142832e-13,5.000228463e-13,1.037470917e-12,3.097611669e-12,1.454619336e-12,1.279105308e-11,1.590445819e-12,1.627339031e-12,1.979678413e-12,3.375315148e-12,3.465409283e-12,3.737582598e-12,6.367518958e-12,3.110751949e-12,1.231603150e-12,1.161075706e-12,3.148167860e-12,1.584284321e-12,2.175478819e-13,8.053843602e-13,1.703349269e-12,4.981833753e-13,8.037861119e-13,2.349785236e-13,6.409311662e-14
0.79688,1.119746766e-12,3.812758227e-13,2.133032701e-12,2.969668212e-13,1.759749562e-13,2.353415433e-12,1.999842509e-12,2.308269317e-13,5.178619764e-13,1.067152982e-12,3.206266277e-12,1.516876185e-12,1.124796136e-11,1.597138265e-12,1.629717901e-12,1.944928795e-12,3.376606924e-12,3.447586563e-12,3.844332969e-12,6.569854269e-12,3.201566055e-12,1.219262071e-12,1.222349425e-12,3.215196194e-12,1.720452387e-12,2.258579999e-13,8.184142582e-13,1.813110713e-12,5.267166492e-13,8.464764172e-13,2.207380826e-13,6.258446157e-14
0.80469,1.115781010e-12,3.974034303e-13,2.138679293e-12,2.876227885e-13,1.751249760e-13,2.288255633e-12,2.023087443e-12,2.313228197e-13,5.330258487e-13,1.071753442e-12,3.262758823e-12,1.561792876e-12,9.546996375e-12,1.598381242e-12,1.635168671e-12,1.917837739e-12,3.361362346e-12,3.420162349e-12,3.924431472e-12,6.721743946e-12,3.255801149e-12,1.205958536e-12,1.265751749e-12,3.267047575e-12,1.821334992e-12,2.413204615e-13,8.310396828e-13,1.894114652e-12,5.463741174e-13,8.842431848e-13,2.082085896e-13,6.175663545e-14
0.8125,1.119868812e-12,4.118123055e-13,2.116492372e-12,2.798502967e-13,1.738153461e-13,2.206958082e-12,2.017481627e-12,2.291242252e-13,5.464118199e-13,1.075025500e-12,3.305772215e-12,1.602684093e-12,7.806090247e-12,1.600954188e-12,1.638148339e-12,1.892605705e-12,3.342827539e-12,3.385757351e-12,3.993400053e-12,6.848513070e-12,3.309140704e-12,1.191050703e-12,1.308798085e-12,3.330168038e-12,1.916970138e-12,2.622711550e-13,8.423382002e-13,1.976620295e-12,5.667864836e-13,9.236345020e-13,1.967414847e-13,6.125152600e-14
0.82031,1.130570084e-12,4.227858243e-13,2.073683554e-12,2.742732496e-13,1.719837010e-13,2.119546177e-12,1.985785728e-12,2.275643156e-13,5.564207722e-13,1.071180966e-12,3.316923611e-12,1.628117924e-12,6.215671109e-12,1.604841373e-12,1.639626847e-12,1.873392127e-12,3.324249706e-12,3.348978268e-12,4.049141739e-12,6.950466748e-12,3.357092639e-12,1.177170904e-12,1.346049964e-12,3.397047582e-12,2.001460121e-12,2.871770003e-13,8.300402917e-13,2.040112053e-12,5.860770898e-13,9.572825000e-13,1.861111005e-13,6.095664649e-14
0.82812,1.136864353e-12,4.254340714e-13,1.999285409e-12,2.690315731e-13,1.695106588e-13,2.008178711e-12,1.926782226e-12,2.198689786e-13,5.614974290e-13,1.063676238e-12,3.297406576e-12,1.646477332e-12,4.855162418e-12,1.609104667e-12,1.642474220e-12,1.866178311e-12,3.303009284e-12,3.313147269e-12,4.083822947e-12,7.016167030e-12,3.389271521e-12,1.165852485e-12,1.373457714e-12,3.470086231e-12,2.061093082e-12,3.129260580e-13,8.299314226e-13,2.108054828e-12,6.031220745e-13,9.939045005e-13,1.760752480e-13,6.081146840e-14
0.83594,1.144704094e-12,4.225728407e-13,1.904263992e-12,2.635220850e-13,1.662472177e-13,1.889122244e-12,1.850447704e-12,2.090733295e-13,5.623664688e-13,1.054248465e-12,3.261393627e-12,1.659265921e-12,3.756883012e-12,1.613829595e-12,1.644051693e-12,1.865938815e-12,3.282613797e-12,3.277266717e-12,4.103049059e-12,7.053273112e-12,3.416445034e-12,1.155724153e-12,1.395837382e-12,3.552551330e-12,2.103510548e-12,3.370091996e-13,8.301124506e-13,2.178826493e-12,6.182654011e-13,1.032039968e-12,1.676109131e-13,6.076767568e-14
0.84375,1.153024466e-12,4.172141208e-13,1.795879557e-12,2.587577562e-13,1.624879156e-13,1.761713109e-12,1.763634909e-12,1.985779743e-13,5.588640216e-13,1.035647765e-12,3.199090953e-12,1.657391547e-12,2.976621500e-12,1.617393700e-12,1.643376357e-12,1.870602658e-12,3.260129724e-12,3.241753694e-12,4.103386723e-12,7.055688298e-12,3.429589995e-12,1.147600434e-12,1.408320664e-12,3.632540335e-12,2.120406998e-12,3.573272672e-13,8.029024613e-13,2.214342672e-12,6.271518131e-13,1.061032444e-12,1.605830736e-13,6.102766577e-14
0.85156,1.164767311e-12,4.096471455e-13,1.680469223e-12,2.558831253e-13,1.582886372e-13,1.646074205e-12,1.676962852e-12,1.871818174e-13,5.511835428e-13,1.021683150e-12,3.128671450e-12,1.655527288e-12,2.517606731e-12,1.620788286e-12,1.641213651e-12,1.879746615e-12,3.232800909e-12,3.206754143e-12,4.085410767e-12,7.026675268e-12,3.433951098e-12,1.140626856e-12,1.414936851e-12,3.717736978e-12,2.119879760e-12,3.719958031e-13,7.848359617e-13,2.256070762e-12,6.351480421e-13,1.092537170e-12,1.542160191e-13,6.125129077e-14
0.85938,1.175356727e-12,3.981026137e-13,1.563937787e-12,2.528703694e-13,1.537219153e-13,1.543743323e-12,1.594222491e-12,1.756817214e-13,5.403414441e-13,1.009464017e-12,3.052149404e-12,1.653508756e-12,2.327346723e-12,1.624014623e-12,1.637561391e-12,1.891701910e-12,3.202739902e-12,3.170273258e-12,4.053522155e-12,6.974802701e-12,3.433438179e-12,1.133362871e-12,1.417313766e-12,3.803933974e-12,2.107528368e-12,3.799662476e-13,7.746657311e-13,2.308100566e-12,6.424143454e-13,1.126045729e-12,1.493510867e-13,6.114628116e-14
0.86719,1.181415972e-12,3.870525846e-13,1.447933139e-12,2.496634670e-13,1.490032201e-13,1.437229585e-12,1.516779740e-12,1.647807953e-13,5.274916790e-13,9.893655788e-13,2.964675145e-12,1.644805275e-12,2.355363831e-12,1.625978893e-12,1.631284235e-12,1.903609192e-12,3.168730978e-12,3.131166256e-12,4.007110338e-12,6.898795495e-12,3.418729012e-12,1.126251319e-12,1.412334869e-12,3.879975706e-12,2.076001705e-12,3.806230400e-13,7.527625065e-13,2.333058150e-12,6.440183269e-13,1.151336060e-12,1.459113943e-13,6.098160676e-14
0.875,1.191061425e-12,3.793897614e-13,1.343536661e-12,2.479726530e-13,1.440178004e-13,1.352530974e-12,1.455122037e-12,1.555686428e-13,5.136892833e-13,9.743688568e-13,2.887595543e-12,1.640144241e-12,2.540367734e-12,1.627308841e-12,1.622827649e-12,1.911648644e-12,3.128987550e-12,3.087780651e-12,3.951296125e-12,6.809004654e-12,3.400748231e-12,1.118204180e-12,1.406333964e-12,3.955282741e-12,2.040570916e-12,3.744270838e-13,7.404675396e-13,2.362556624e-12,6.457136515e-13,1.176411499e-12,1.432278306e-13,6.059537490e-14
0.88281,1.199770703e-12,3.726025601e-13,1.254095232e-12,2.466531445e-13,1.388847559e-13,1.290549135e-12,1.409345340e-12,1.486173841e-13,4.991799905e-13,9.617353919e-13,2.814195734e-12,1.636674228e-12,2.810002888e-12,1.625967067e-12,1.614087046e-12,1.915733740e-12,3.083063565e-12,3.038586561e-12,3.888566351e-12,6.710224368e-12,3.380070001e-12,1.108541205e-12,1.399312640e-12,4.023747393e-12,2.006619852e-12,3.630073071e-13,7.407500844e-13,2.402234431e-12,6.490294530e-13,1.204620809e-12,1.416272193e-13,5.984839952e-14
0.89062,1.203514917e-12,3.699351744e-13,1.173976935e-12,2.448471354e-13,1.337848480e-13,1.225493584e-12,1.375200944e-12,1.421829375e-13,4.848703493e-13,9.452301584e-13,2.741984607e-12,1.632500091e-12,3.098798962e-12,1.619620705e-12,1.602112815e-12,1.912964383e-12,3.029799687e-12,2.983009985e-12,3.819202820e-12,6.600442214e-12,3.348947120e-12,1.097087128e-12,1.389801915e-12,4.074806294e-12,1.968487603e-12,3.479604681e-13,7.506363170e-13,2.431776219e-12,6.516871217e-13,1.231393328e-12,1.412214811e-13,5.905285889e-14
0.89844,1.208363799e-12,3.727005161e-13,1.108864146e-12,2.432805691e-13,1.286407929e-13,1.173468360e-12,1.356554272e-12,1.372892924e-13,4.718046542e-13,9.332642236e-13,2.687189957e-12,1.633867461e-12,3.344260407e-12,1.608461134e-12,1.583985952e-12,1.898161302e-12,2.968592015e-12,2.919629247e-12,3.749158822e-12,6.489808817e-12,3.318129003e-12,1.082356666e-12,1.382885563e-12,4.114254871e-12,1.938047349e-12,3.309925002e-13,7.766855725e-13,2.469221635e-12,6.570336367e-13,1.257255424e-12,1.419916941e-13,5.813977790e-14
0.90625,1.210709988e-12,3.773386601e-13,1.059679184e-12,2.420009714e-13,1.237127689e-13,1.139417800e-12,1.349123423e-12,1.346476203e-13,4.597463190e-13,9.213032063e-13,2.637463959e-12,1.634540465e-12,3.510280406e-12,1.592559023e-12,1.563020404e-12,1.874240245e-12,2.897894353e-12,2.848699721e-12,3.677702701e-12,6.377439087e-12,3.285240759e-12,1.064718291e-12,1.375766903e-12,4.138485070e-12,1.916385851e-12,3.140926059e-13,8.118861871e-13,2.507495412e-12,6.640726913e-13,1.282016140e-12,1.437784561e-13,5.700583958e-14
0.91406,1.206847117e-12,3.849251138e-13,1.019548649e-12,2.406830798e-13,1.191473864e-13,1.105799537e-12,1.346767962e-12,1.318493400e-13,4.491857848e-13,9.081883733e-13,2.592543234e-12,1.636267820e-12,3.582560905e-12,1.573671976e-12,1.540995280e-12,1.843337676e-12,2.817542747e-12,2.771380010e-12,3.603354799e-12,6.257626669e-12,3.244383361e-12,1.044630123e-12,1.367793708e-12,4.146287673e-12,1.900184405e-12,2.988976698e-13,8.646841693e-13,2.541736333e-12,6.720665897e-13,1.307570952e-12,1.463449112e-13,5.585985361e-14
0.92188,1.200040252e-12,3.955722231e-13,9.882168029e-13,2.390527788e-13,1.147769311e-13,1.075882501e-12,1.348066557e-12,1.293628570e-13,4.406702206e-13,8.976124573e-13,2.561205999e-12,1.642174793e-12,3.544078565e-12,1.553318147e-12,1.516994448e-12,1.803535114e-12,2.730704931e-12,2.687034565e-12,3.529860127e-12,6.136629881e-12,3.202568837e-12,1.021269831e-12,1.362427657e-12,4.143561115e-12,1.894715544e-12,2.864134522e-13,9.365050368e-13,2.583427445e-12,6.826564825e-13,1.332750510e-12,1.499518897e-13,5.479419477e-14
0.92969,1.191597981e-12,4.072682997e-13,9.637383532e-13,2.372016013e-13,1.106574020e-13,1.052211210e-12,1.348050042e-12,1.281553817e-13,4.333011014e-13,8.835807388e-13,2.531465803e-12,1.644450226e-12,3.399170229e-12,1.530184087e-12,1.491564089e-12,1.757364057e-12,2.638867084e-12,2.596173529e-12,3.454752985e-12,6.013536180e-12,3.156551900e-12,9.955094229e-13,1.355340957e-12,4.126931337e-12,1.893558737e-12,2.769720771e-13,1.007996896e-12,2.614908230e-12,6.928484080e-13,1.352983737e-12,1.544167918e-13,5.383979829e-14
0.9375,1.181373851e-12,4.196026605e-13,9.423786750e-13,2.353935517e-13,1.067717446e-13,1.032892093e-12,1.344870850e-12,1.266768959e-13,4.263764236e-13,8.701806930e-13,2.504182454e-12,1.645890548e-12,3.174126719e-12,1.504063215e-12,1.464546871e-12,1.706174284e-12,2.540732151e-12,2.499776419e-12,3.375591854e-12,5.884116180e-12,3.104656288e-12,9.677100212e-13,1.346013159e-12,4.096465087e-12,1.894572711e-12,2.709423869e-13,1.088734774e-12,2.644375082e-12,7.037911742e-13,1.372761030e-12,1.593190512e-13,5.293357752e-14
0.94531,1.166899905e-12,4.304563521e-13,9.221456094e-13,2.330592988e-13,1.030795767e-13,1.014917410e-12,1.335477595e-12,1.244404394e-13,4.195794761e-13,8.573884387e-13,2.477131068e-12,1.646351471e-12,2.892663978e-12,1.475872409e-12,1.435989796e-12,1.649480786e-12,2.435115151e-12,2.398047015e-12,3.293167439e-12,5.747393696e-12,3.049187537e-12,9.374803997e-13,1.335730983e-12,4.052768901e-12,1.899467925e-12,2.684766354e-13,1.181228142e-12,2.683033049e-12,7.169614297e-13,1.391489061e-12,1.647452331e-13,5.200815868e-14
0.95312,1.149774526e-12,4.401128928e-13,9.006627214e-13,2.303313536e-13,9.966058702e-14,9.919024011e-13,1.317056438e-12,1.218994638e-13,4.129778219e-13,8.397994711e-13,2.446177841e-12,1.641340214e-12,2.575074540e-12,1.447471767e-12,1.406414016e-12,1.590079349e-12,2.325608044e-12,2.294172920e-12,3.207870707e-12,5.603736733e-12,2.987674340e-12,9.061313726e-13,1.321961132e-12,3.997329601e-12,1.901304219e-12,2.683882606e-13,1.262763228e-12,2.707896193e-12,7.279748238e-13,1.403209983e-12,1.706636993e-13,5.114270285e-14
0.96094,1.134445412e-12,4.494867337e-13,8.788163315e-13,2.281440479e-13,9.644307589e-14,9.728297713e-13,1.294587893e-12,1.193547834e-13,4.067252016e-13,8.256274971e-13,2.421873990e-12,1.637451091e-12,2.245470903e-12,1.421498899e-12,1.377210570e-12,1.531807541e-12,2.219410400e-12,2.192962900e-12,3.122983182e-12,5.460841738e-12,2.926539965e-12,8.748343629e-13,1.307670838e-12,3.942396818e-12,1.902905215e-12,2.697311455e-13,1.339587328e-12,2.726960111e-12,7.376284900e-13,1.413854271e-12,1.768395003e-13,5.031673201e-14
0.96875,1.116948734e-12,4.552087174e-13,8.549835319e-13,2.258671641e-13,9.343424648e-14,9.586193290e-13,1.265674749e-12,1.166112236e-13,3.999740716e-13,8.124729499e-13,2.394724623e-12,1.631891954e-12,1.936641841e-12,1.397662781e-12,1.351460708e-12,1.477773626e-12,2.116093475e-12,2.095004579e-12,3.036672010e-12,5.316234508e-12,2.865850643e-12,8.441569131e-13,1.292106447e-12,3.889086281e-12,1.903486570e-12,2.721250320e-13,1.415302284e-12,2.746681723e-12,7.465025641e-13,1.424236976e-12,1.829540144e-13,4.957432139e-14
0.97656,1.098213728e-12,4.588888697e-13,8.272348309e-13,2.233503634e-13,9.059616491e-14,9.369084504e-13,1.227580586e-12,1.132821611e-13,3.925790847e-13,7.951822928e-13,2.360710809e-12,1.620550861e-12,1.662088461e-12,1.375444283e-12,1.327615750e-12,1.425666222e-12,2.011492656e-12,1.997442170e-12,2.945010037e-12,5.161135093e-12,2.798498291e-12,8.140868614e-13,1.272054458e-12,3.831026367e-12,1.894780239e-12,2.740232822e-13,1.474588795e-12,2.754003775e-12,7.514963804e-13,1.428636503e-12,1.887410697e-13,4.895435214e-14
0.98438,1.084523016e-12,4.632302506e-13,7.989966256e-13,2.215105879e-13,8.776155487e-14,9.150326843e-13,1.186274309e-12,1.100790544e-13,3.848133200e-13,7.807704233e-13,2.332096404e-12,1.609253498e-12,1.415662534e-12,1.355564453e-12,1.303024866e-12,1.372991763e-12,1.909082504e-12,1.900768141e-12,2.851371627e-12,5.002593567e-12,2.730501928e-12,7.839512884e-13,1.251345405e-12,3.772913204e-12,1.881258791e-12,2.744091827e-13,1.522741810e-12,2.762831563e-12,7.550502877e-13,1.430916642e-12,1.943365782e-13,4.819262638e-14
0.99219,1.071978588e-12,4.647781049e-13,7.687629062e-13,2.196699979e-13,8.501312703e-14,8.981545952e-13,1.140709692e-12,1.070257560e-13,3.759113297e-13,7.667759425e-13,2.301328327e-12,1.595229869e-12,1.212852106e-12,1.337456926e-12,1.280771203e-12,1.324532520e-12,1.811581457e-12,1.808377149e-12,2.755910586e-12,4.844107430e-12,2.663214661e-12,7.543974780e-13,1.228733313e-12,3.715355138e-12,1.862448928e-12,2.734937920e-13,1.561581445e-12,2.770973093e-12,7.579382657e-13,1.431007120e-12,1.997089665e-13,4.722059160e-14
1,1.058997079e-12,4.648685088e-13,7.345022347e-13,2.173163950e-13,8.238105053e-14,8.760666615e-13,1.089138423e-12,1.031831845e-13,3.662631065e-13,7.514391692e-13,2.267812089e-12,1.578629010e-12,1.058500488e-12,1.322011976e-12,1.261672667e-12,1.280839942e-12,1.716916801e-12,1.720579440e-12,2.657228083e-12,4.681182524e-12,2.592583283e-12,7.260197692e-13,1.202940416e-12,3.656422096e-12,1.835099034e-12,2.711518399e-13,1.588320575e-12,2.767973335e-12,7.588125987e-13,1.427107597e-12,2.045468861e-13,4.626094764e-14
1.0078,1.048881998e-12,4.659362759e-13,6.994209802e-13,2.145168281e-13,7.978449184e-14,8.490667619e-13,1.034487836e-12,9.888017069e-14,3.567807430e-13,7.376513130e-13,2.238907339e-12,1.563839541e-12,9.313960262e-13,1.310345942e-12,1.244005634e-12,1.239050555e-12,1.626478558e-12,1.637117969e-12,2.559165778e-12,4.517852928e-12,2.523356241e-12,6.984427846e-13,1.178599294e-12,3.599449130e-12,1.806391552e-12,2.675772526e-13,1.610551693e-12,2.767398488e-12,7.595535012e-13,1.424532450e-12,2.089942212e-13,4.537651782e-14
1.0156,1.039961305e-12,4.657599460e-13,6.638855654e-13,2.109558336e-13,7.730831790e-14,8.226986491e-13,9.789254420e-13,9.488952652e-14,3.471639445e-13,7.237639500e-13,2.212537209e-12,1.547559287e-12,8.307092409e-13,1.301508634e-12,1.228746972e-12,1.201426899e-12,1.542525692e-12,1.559514695e-12,2.462186969e-12,4.356239095e-12,2.455433556e-12,6.720467597e-13,1.153934566e-12,3.543854475e-12,1.775208062e-12,2.629239406e-13,1.622508860e-12,2.765884241e-12,7.584488655e-13,1.422637062e-12,2.133336902e-13,4.455638632e-14
1.0234,1.031731522e-12,4.661214714e-13,6.283587942e-13,2.073726966e-13,7.495394243e-14,7.965325211e-13,9.255536141e-13,9.091606802e-14,3.375142791e-13,7.130460235e-13,2.192193655e-12,1.531797015e-12,7.550477359e-13,1.294893389e-12,1.215290669e-12,1.167427699e-12,1.462997423e-12,1.487070719e-12,2.364591695e-12,4.193863797e-12,2.385958012e-12,6.468734403e-13,1.127765214e-12,3.489476082e-12,1.738897679e-12,2.571343995e-13,1.628208529e-12,2.760375003e-12,7.553743895e-13,1.419228583e-12,2.174218069e-13,4.382144390e-14
1.0312,1.023263738e-12,4.673817904e-13,5.937643748e-13,2.036927122e-13,7.269334562e-14,7.679324823e-13,8.713060919e-13,8.624293502e-14,3.280300339e-13,7.035303329e-13,2.173678063e-12,1.516832425e-12,6.898465920e-13,1.289228052e-12,1.202749527e-12,1.134667165e-12,1.384750569e-12,1.417809645e-12,2.266548823e-12,4.030683482e-12,2.316315314e-12,6.223583837e-13,1.102052212e-12,3.434926068e-12,1.700972447e-12,2.510062186e-13,1.639205296e-12,2.755673037e-12,7.533132577e-13,1.414340790e-12,2.213135518e-13,4.315203930e-14
1.0391,1.014165748e-12,4.681193340e-13,5.607306498e-13,1.994474269e-13,7.052794925e-14,7.371806379e-13,8.156027466e-13,8.118430266e-14,3.186688996e-13,6.923276227e-13,2.157116573e-12,1.499141297e-12,6.318702140e-13,1.284151714e-12,1.191845997e-12,1.103104731e-12,1.308634801e-12,1.351393901e-12,2.168846411e-12,3.868312671e-12,2.245948990e-12,5.983074652e-13,1.074843914e-12,3.374533757e-12,1.660872994e-12,2.447305924e-13,1.645249093e-12,2.743589254e-12,7.504634047e-13,1.405615710e-12,2.253792212e-13,4.249101086e-14
1.0469,1.005828479e-12,4.705804779e-13,5.325405460e-13,1.954449342e-13,6.836521552e-14,7.108160839e-13,7.657667082e-13,7.635475204e-14,3.097374065e-13,6.860588974e-13,2.152722956e-12,1.483688242e-12,5.762655493e-13,1.281095957e-12,1.182361374e-12,1.072699185e-12,1.237752362e-12,1.289202575e-12,2.074155552e-12,3.711190457e-12,2.176815027e-12,5.747033700e-13,1.047481668e-12,3.310125230e-12,1.621293552e-12,2.381081639e-13,1.651051748e-12,2.733448716e-12,7.472479812e-13,1.395414760e-12,2.294853277e-13,4.177962586e-14
1.0547,9.941441004e-13,4.723819822e-13,5.081054312e-13,1.909735805e-13,6.629522597e-14,6.904769546e-13,7.200160999e-13,7.135009101e-14,3.009031601e-13,6.821733087e-13,2.151881752e-12,1.469542047e-12,5.238062526e-13,1.279152950e-12,1.174741233e-12,1.045229184e-12,1.170840606e-12,1.232435343e-12,1.982577534e-12,3.559805845e-12,2.109834959e-12,5.521516504e-13,1.020175564e-12,3.244804809e-12,1.582757021e-12,2.316249374e-13,1.666912423e-12,2.729036650e-12,7.451847647e-13,1.384635592e-12,2.332915774e-13,4.107402876e-14
1.0625,9.794171265e-13,4.720451727e-13,4.858647416e-13,1.855079699e-13,6.449168394e-14,6.706883111e-13,6.757342361e-13,6.612748682e-14,2.921533764e-13,6.764807505e-13,2.151929791e-12,1.453103776e-12,4.805564252e-13,1.278009759e-12,1.169197954e-12,1.020194060e-12,1.105669066e-12,1.179854818e-12,1.892412136e-12,3.410237965e-12,2.041496804e-12,5.308021674e-13,9.900315306e-13,3.175389113e-12,1.541190484e-12,2.250268073e-13,1.681352563e-12,2.715312433e-12,7.413405375e-13,1.371346865e-12,2.366688317e-13,4.044475535e-14
1.0703,9.656629309e-13,4.725487394e-13,4.692214006e-13,1.801825695e-13,6.292552355e-14,6.544767158e-13,6.371268028e-13,6.129706648e-14,2.839706752e-13,6.732643098e-13,2.160881795e-12,1.438853884e-12,4.416835677e-13,1.278796937e-12,1.165192388e-12,9.957570589e-13,1.044488155e-12,1.130888595e-12,1.805403392e-12,3.264253120e-12,1.973500943e-12,5.099651917e-13,9.599284535e-13,3.101656235e-12,1.500007527e-12,2.180807608e-13,1.696846190e-12,2.701249322e-12,7.360644166e-13,1.358678848e-12,2.394954222e-13,3.981742984e-14
1.0781,9.497628859e-13,4.718537959e-13,4.581118953e-13,1.750004087e-13,6.154085999e-14,6.486004999e-13,6.043429327e-13,5.709577325e-14,2.756821349e-13,6.717725815e-13,2.171886042e-12,1.425095841e-12,4.140682987e-13,1.279853114e-12,1.162852134e-12,9.737748358e-13,9.876530095e-13,1.086155360e-12,1.721091847e-12,3.123383862e-12,1.906351797e-12,4.898064761e-13,9.296474649e-13,3.023380580e-12,1.457991664e-12,2.109852904e-13,1.716785104e-12,2.689637262e-12,7.301379540e-13,1.343729065e-12,2.420487029e-13,3.913532273e-14
1.0859,9.315051149e-13,4.697396824e-13,4.509969425e-13,1.698768022e-13,6.032115329e-14,6.477845204e-13,5.758576908e-13,5.331971318e-14,2.669169434e-13,6.699190718e-13,2.181323279e-12,1.408729109e-12,4.064914109e-13,1.280165877e-12,1.161232659e-12,9.536224025e-13,9.321258170e-13,1.043864465e-12,1.636505695e-12,2.983286951e-12,1.835499037e-12,4.702621428e-13,8.959962550e-13,2.937041623e-12,1.409853510e-12,2.033354042e-13,1.732246588e-12,2.665495735e-12,7.220293419e-13,1.321690665e-12,2.445112607e-13,3.844846053e-14
1.0938,9.127455044e-13,4.679881733e-13,4.482664210e-13,1.649006249e-13,5.923877281e-14,6.466408517e-13,5.504280627e-13,4.965687887e-14,2.581153955e-13,6.677770606e-13,2.189947852e-12,1.391797426e-12,4.143333292e-13,1.280233598e-12,1.159926752e-12,9.340504945e-13,8.781994803e-13,1.003281649e-12,1.553093715e-12,2.843932429e-12,1.763320771e-12,4.507852832e-13,8.618947288e-13,2.844937228e-12,1.359762414e-12,1.953242209e-13,1.748349984e-12,2.634195650e-12,7.132920989e-13,1.297202573e-12,2.465097762e-13,3.777102318e-14
1.1016,8.932327081e-13,4.646265679e-13,4.496571344e-13,1.599276789e-13,5.827534439e-14,6.512035341e-13,5.287811667e-13,4.669883263e-14,2.492086934e-13,6.651351041e-13,2.196483897e-12,1.372936319e-12,4.410282394e-13,1.279411772e-12,1.159525057e-12,9.168071061e-13,8.284169941e-13,9.662239916e-13,1.473656938e-12,2.711260085e-12,1.694409183e-12,4.319981839e-13,8.283815627e-13,2.752924620e-12,1.309965588e-12,1.871694349e-13,1.763678772e-12,2.600090448e-12,7.039809645e-13,1.272660589e-12,2.479550076e-13,3.707531208e-14
1.1094,8.749464722e-13,4.605833660e-13,4.543445516e-13,1.553853451e-13,5.743102580e-14,6.611726396e-13,5.125028441e-13,4.481227198e-14,2.403141233e-13,6.629647223e-13,2.202748860e-12,1.352759484e-12,4.873723159e-13,1.278505431e-12,1.159771083e-12,9.017837250e-13,7.826271581e-13,9.330802979e-13,1.397531986e-12,2.585731087e-12,1.627060414e-12,4.142871374e-13,7.946816829e-13,2.660968012e-12,1.258792472e-12,1.785072569e-13,1.772373879e-12,2.559236557e-12,6.931727406e-13,1.246231559e-12,2.485606766e-13,3.639573731e-14
1.1172,8.556919189e-13,4.560063943e-13,4.592079499e-13,1.508400338e-13,5.674492984e-14,6.689294971e-13,4.972815410e-13,4.323176006e-14,2.315815057e-13,6.593579070e-13,2.204663128e-12,1.333010068e-12,5.475882003e-13,1.278819148e-12,1.161486334e-12,8.893066186e-13,7.393160137e-13,9.033835577e-13,1.323671344e-12,2.463009809e-12,1.560310123e-12,3.972990508e-13,7.622716607e-13,2.566288374e-12,1.207087121e-12,1.698949827e-13,1.780330143e-12,2.515192163e-12,6.821939444e-13,1.217550777e-12,2.480739030e-13,3.575624159e-14
1.125,8.358065666e-13,4.499607519e-13,4.630376620e-13,1.462964846e-13,5.615833655e-14,6.740629791e-13,4.812466118e-13,4.198724437e-14,2.229352250e-13,6.529804354e-13,2.202365108e-12,1.311654555e-12,6.191016048e-13,1.280038232e-12,1.164812688e-12,8.800672566e-13,6.993829511e-13,8.768749042e-13,1.253866207e-12,2.345148080e-12,1.496572606e-12,3.812688172e-13,7.311609309e-13,2.471545999e-12,1.155193218e-12,1.618848852e-13,1.782498532e-12,2.466242740e-12,6.705563947e-13,1.186637190e-12,2.474249943e-13,3.512989601e-14
1.1328,8.200496161e-13,4.455068818e-13,4.672882184e-13,1.427531449e-13,5.554788103e-14,6.765359256e-13,4.666348513e-13,4.125713641e-14,2.147159803e-13,6.460452195e-13,2.200859003e-12,1.290102295e-12,6.900839338e-13,1.281742275e-12,1.168271465e-12,8.730533666e-13,6.646227272e-13,8.532986141e-13,1.189926553e-12,2.236132036e-12,1.437436846e-12,3.664186351e-13,7.027286363e-13,2.380827059e-12,1.105328859e-12,1.546109977e-13,1.778077033e-12,2.413556386e-12,6.590718037e-13,1.156123042e-12,2.470633600e-13,3.453143223e-14
1.1406,8.050354902e-13,4.422529657e-13,4.697511244e-13,1.399573791e-13,5.496177169e-14,6.754450713e-13,4.527486030e-13,4.058640866e-14,2.068620175e-13,6.387790904e-13,2.197621543e-12,1.269341002e-12,7.516801241e-13,1.282700707e-12,1.171742948e-12,8.679891398e-13,6.335786469e-13,8.322261005e-13,1.130409733e-12,2.133605871e-12,1.381719328e-12,3.525618718e-13,6.768807691e-13,2.291794916e-12,1.057972063e-12,1.484148337e-13,1.774639544e-12,2.359895572e-12,6.492326454e-13,1.127284076e-12,2.465391056e-13,3.396408712e-14
1.1484,7.897206298e-13,4.387062286e-13,4.694059838e-13,1.374886527e-13,5.444423477e-14,6.697781595e-13,4.390079579e-13,3.983947189e-14,1.992794322e-13,6.298787617e-13,2.193668522e-12,1.246602026e-12,8.008146253e-13,1.281581626e-12,1.174465403e-12,8.630598571e-13,6.033442430e-13,8.119547086e-13,1.073091107e-12,2.034822272e-12,1.326640299e-12,3.391006432e-13,6.506235769e-13,2.200799155e-12,1.010586958e-12,1.430899840e-13,1.765329074e-12,2.297875030e-12,6.390181638e-13,1.098064187e-12,2.460291811e-13,3.343326539e-14
1.1562,7.775921111e-13,4.366121228e-13,4.681837667e-13,1.354118014e-13,5.390800777e-14,6.567807719e-13,4.252411257e-13,3.876807167e-14,1.924491304e-13,6.200698412e-13,2.192747990e-12,1.223666902e-12,8.245400885e-13,1.279055782e-12,1.175118824e-12,8.565304306e-13,5.739998575e-13,7.914264793e-13,1.018111511e-12,1.940427780e-12,1.272833853e-12,3.252955911e-13,6.260355546e-13,2.109102763e-12,9.661173275e-13,1.386764201e-13,1.752279323e-12,2.232535215e-12,6.289028107e-13,1.069181925e-12,2.454231214e-13,3.298787151e-14
1.1641,7.664557312e-13,4.358951053e-13,4.667090370e-13,1.340684847e-13,5.340114115e-14,6.425487273e-13,4.135181707e-13,3.760068102e-14,1.862133639e-13,6.115025209e-13,2.195873510e-12,1.202925645e-12,8.179995912e-13,1.276189674e-12,1.174791235e-12,8.496060823e-13,5.471645205e-13,7.711472984e-13,9.664775907e-13,1.851985866e-12,1.222539639e-12,3.117065802e-13,6.045989558e-13,2.018671656e-12,9.265389468e-13,1.354482416e-13,1.743205315e-12,2.173428080e-12,6.205355133e-13,1.042440490e-12,2.444621007e-13,3.260014921e-14
1.1719,7.557906645e-13,4.366296077e-13,4.658438476e-13,1.336765613e-13,5.304483180e-14,6.289196169e-13,4.056046740e-13,3.646104809e-14,1.803787943e-13,6.034838224e-13,2.203994605e-12,1.182882906e-12,7.846799184e-13,1.273373580e-12,1.174801778e-12,8.430161507e-13,5.226884922e-13,7.510868066e-13,9.182421970e-13,1.770246671e-12,1.174789787e-12,2.992232487e-13,5.838257544e-13,1.929715211e-12,8.887179641e-13,1.329878924e-13,1.732484060e-12,2.113346687e-12,6.124399711e-13,1.017805820e-12,2.438038107e-13,3.227576719e-14
1.1797,7.465512481e-13,4.389723479e-13,4.660014444e-13,1.335652310e-13,5.281251931e-14,6.104725027e-13,3.992246058e-13,3.459912508e-14,1.751848017e-13,5.947991140e-13,2.215371803e-12,1.164173855e-12,7.219924064e-13,1.270480015e-12,1.174743976e-12,8.368269758e-13,5.002402624e-13,7.312786840e-13,8.737776331e-13,1.695582762e-12,1.130418362e-12,2.875892039e-13,5.648723213e-13,1.842874478e-12,8.539301970e-13,1.312999193e-13,1.723614418e-12,2.054313988e-12,6.052562382e-13,9.956597833e-13,2.434953489e-13,3.203314088e-14
1.1875,7.389184464e-13,4.423094291e-13,4.685242664e-13,1.342114113e-13,5.262807594e-14,5.947593825e-13,3.968523492e-13,3.241985896e-14,1.702693951e-13,5.877511085e-13,2.231442969e-12,1.147741356e-12,6.337707216e-13,1.266214538e-12,1.172934647e-12,8.297644690e-13,4.806414003e-13,7.120724629e-13,8.338393272e-13,1.629719290e-12,1.091618925e-12,2.767709227e-13,5.487948353e-13,1.758624250e-12,8.248997925e-13,1.304072836e-13,1.721115002e-12,2.005096641e-12,6.000159308e-13,9.766210052e-13,2.430149689e-13,3.174581936e-14
1.1953,7.339618691e-13,4.476851335e-13,4.761749832e-13,1.361537506e-13,5.244231653e-14,5.847681108e-13,4.009460429e-13,3.040488416e-14,1.654369401e-13,5.822776964e-13,2.252896886e-12,1.132190371e-12,5.284682926e-13,1.259216721e-12,1.168409897e-12,8.203057653e-13,4.632967720e-13,6.931388304e-13,7.973711798e-13,1.571081098e-12,1.056001375e-12,2.670507022e-13,5.339878338e-13,1.676005005e-12,7.991014016e-13,1.298338881e-13,1.721240778e-12,1.956858536e-12,5.953670986e-13,9.594179818e-13,2.425129995e-13,3.145476487e-14
1.2031,7.276424618e-13,4.539389387e-13,4.886975217e-13,1.384114523e-13,5.227802407e-14,5.765789371e-13,4.088439450e-13,2.819645166e-14,1.607079734e-13,5.767763712e-13,2.274431884e-12,1.117172726e-12,4.142379677e-13,1.249551714e-12,1.162548215e-12,8.103091207e-13,4.466288802e-13,6.741648733e-13,7.622393740e-13,1.514898064e-12,1.021543640e-12,2.581397180e-13,5.199888318e-13,1.594007580e-12,7.736297439e-13,1.296041795e-13,1.727970792e-12,1.904389894e-12,5.915482543e-13,9.412789781e-13,2.419683302e-13,3.130593910e-14
1.2109,7.181650825e-13,4.587828945e-13,5.050406583e-13,1.409722836e-13,5.224060508e-14,5.752819804e-13,4.207085005e-13,2.619519527e-14,1.556777539e-13,5.717371432e-13,2.294774690e-12,1.102646222e-12,3.033509054e-13,1.238142317e-12,1.156156672e-12,8.006047418e-13,4.308133666e-13,6.547695578e-13,7.277329907e-13,1.461182156e-12,9.894523180e-13,2.496439795e-13,5.064842717e-13,1.513402393e-12,7.490498386e-13,1.295361419e-13,1.740158103e-12,1.854802455e-12,5.885190338e-13,9.222411980e-13,2.412785944e-13,3.120455950e-14
1.2188,7.094828468e-13,4.627634238e-13,5.247020764e-13,1.439814408e-13,5.236171363e-14,5.789306050e-13,4.354304205e-13,2.447503246e-14,1.504191255e-13,5.663383166e-13,2.312642482e-12,1.088779307e-12,2.042520092e-13,1.225835491e-12,1.149088620e-12,7.904123315e-13,4.165702738e-13,6.349210424e-13,6.940146717e-13,1.410701115e-12,9.596846550e-13,2.413044499e-13,4.941390197e-13,1.435282046e-12,7.263556288e-13,1.293919125e-13,1.754596556e-12,1.808690190e-12,5.853975248e-13,9.051585923e-13,2.406638232e-13,3.111406024e-14
1.2266,7.005349498e-13,4.657090445e-13,5.452111456e-13,1.471360529e-13,5.263399658e-14,5.855150395e-13,4.506513064e-13,2.300379902e-14,1.449693680e-13,5.596160782e-13,2.323557848e-12,1.075235301e-12,1.256352495e-13,1.212955697e-12,1.142469202e-12,7.813932534e-13,4.039986628e-13,6.158412411e-13,6.610201051e-13,1.361546282e-12,9.315666033e-13,2.334300264e-13,4.835615343e-13,1.359417551e-12,7.044786415e-13,1.296363072e-13,1.776358791e-12,1.762945804e-12,5.830099675e-13,8.892898651e-13,2.400721283e-13,3.109596614e-14
1.2344,6.895165126e-13,4.658205349e-13,5.637479044e-13,1.503781761e-13,5.305045805e-14,5.972548385e-13,4.651011045e-13,2.212465651e-14,1.389664782e-13,5.502364811e-13,2.324847503e-12,1.059437269e-12,7.782954833e-14,1.198751777e-12,1.136044803e-12,7.746650559e-13,3.932865414e-13,5.982229523e-13,6.293569820e-13,1.314420680e-12,9.056773404e-13,2.265300901e-13,4.736909617e-13,1.286644355e-12,6.823636444e-13,1.303762606e-13,1.801441243e-12,1.715204308e-12,5.811339629e-13,8.713965828e-13,2.398034379e-13,3.106442375e-14
1.2422,6.783569964e-13,4.632254896e-13,5.791930043e-13,1.533643787e-13,5.352096176e-14,6.080667867e-13,4.758558217e-13,2.144788580e-14,1.327225821e-13,5.377852495e-13,2.314995643e-12,1.041731640e-12,6.240213184e-14,1.182129812e-12,1.128063903e-12,7.697929552e-13,3.845487480e-13,5.815923654e-13,6.003914670e-13,1.270170575e-12,8.836391949e-13,2.204283748e-13,4.657745841e-13,1.219198108e-12,6.611467156e-13,1.317067505e-13,1.827258061e-12,1.666353419e-12,5.796567681e-13,8.534732619e-13,2.401822955e-13,3.098761317e-14
1.25,6.668350067e-13,4.590839927e-13,5.920459862e-13,1.569992130e-13,5.404125787e-14,6.202984297e-13,4.850104738e-13,2.122291128e-14,1.265386033e-13,5.247610632e-13,2.296992745e-12,1.024009328e-12,7.978754284e-14,1.163291760e-12,1.119084040e-12,7.666073058e-13,3.776987407e-13,5.658616729e-13,5.744501665e-13,1.228236244e-12,8.662917749e-13,2.151851537e-13,4.610196438e-13,1.157292829e-12,6.420476886e-13,1.340638900e-13,1.857704852e-12,1.621615199e-12,5.797229088e-13,8.387006063e-13,2.408457830e-13,3.090348263e-14
1.2578,6.540569737e-13,4.523713682e-13,6.011739958e-13,1.616351873e-13,5.469727756e-14,6.358221876e-13,4.936605830e-13,2.181833011e-14,1.202928591e-13,5.098860278e-13,2.271570886e-12,1.004175380e-12,1.301747314e-13,1.143142541e-12,1.110702738e-12,7.655838386e-13,3.720425716e-13,5.509130527e-13,5.503858468e-13,1.188338803e-12,8.510502394e-13,2.109394622e-13,4.572112920e-13,1.099429446e-12,6.235220267e-13,1.372588804e-13,1.885768615e-12,1.576248818e-12,5.800654412e-13,8.236790299e-13,2.419541849e-13,3.083139209e-14
1.2656,6.408346539e-13,4.424900475e-13,6.037952832e-13,1.661085111e-13,5.547500457e-14,6.474755721e-13,4.976439882e-13,2.265018986e-14,1.141283641e-13,4.913070130e-13,2.235128460e-12,9.817213297e-13,2.084784458e-13,1.122311277e-12,1.103182062e-12,7.680942234e-13,3.672636236e-13,5.362718004e-13,5.277352799e-13,1.149322917e-12,8.363762695e-13,2.071930798e-13,4.534289251e-13,1.045388764e-12,6.039106191e-13,1.411440983e-13,1.908219618e-12,1.524708544e-12,5.798940319e-13,8.064432274e-13,2.437918254e-13,3.083669093e-14
1.2734,6.274256738e-13,4.311727753e-13,6.001674682e-13,1.709311895e-13,5.635717689e-14,6.593074861e-13,4.991646261e-13,2.388034135e-14,1.081865489e-13,4.717052096e-13,2.193280087e-12,9.589698641e-13,3.096819218e-13,1.101763414e-12,1.096450807e-12,7.737366386e-13,3.647344784e-13,5.220987879e-13,5.075131121e-13,1.112569240e-12,8.249707607e-13,2.038222726e-13,4.509239273e-13,9.961745120e-13,5.853155532e-13,1.458722008e-13,1.927654643e-12,1.474294780e-12,5.804339815e-13,7.905161196e-13,2.459681951e-13,3.092133465e-14
1.2812,6.129863414e-13,4.186958956e-13,5.918414801e-13,1.762050415e-13,5.735801755e-14,6.712447244e-13,5.004597985e-13,2.556669250e-14,1.025679879e-13,4.511025505e-13,2.150963262e-12,9.356212981e-13,4.247301306e-13,1.081780668e-12,1.090431845e-12,7.810268204e-13,3.645554764e-13,5.087111004e-13,4.898012349e-13,1.080320811e-12,8.163611972e-13,2.009014610e-13,4.491162365e-13,9.512556733e-13,5.687216930e-13,1.511056347e-13,1.938440169e-12,1.425089423e-12,5.810159719e-13,7.759732489e-13,2.485219842e-13,3.108359932e-14
1.2891,5.970131962e-13,4.049548188e-13,5.790915564e-13,1.811845168e-13,5.847154160e-14,6.788335375e-13,5.005162171e-13,2.731378791e-14,9.731250512e-14,4.282378827e-13,2.105075862e-12,9.105531048e-13,5.449810618e-13,1.061386094e-12,1.084571773e-12,7.901660267e-13,3.647577705e-13,4.958499161e-13,4.733166564e-13,1.050780324e-12,8.071096901e-13,1.983975111e-13,4.463261011e-13,9.091990351e-13,5.515994591e-13,1.564872375e-13,1.938876374e-12,1.372550534e-12,5.808452555e-13,7.620534461e-13,2.516342411e-13,3.136901161e-14
1.2969,5.805729492e-13,3.912577930e-13,5.628306288e-13,1.867587418e-13,5.967828275e-14,6.881467073e-13,5.026028593e-13,2.929564997e-14,9.229676102e-14,4.052229716e-13,2.060231705e-12,8.844032646e-13,6.657188682e-13,1.040439250e-12,1.078675049e-12,8.005359388e-13,3.652982775e-13,4.828724491e-13,4.583787286e-13,1.024016695e-12,7.988917765e-13,1.966067212e-13,4.432149103e-13,8.712759999e-13,5.350789586e-13,1.618785335e-13,1.930742092e-12,1.322941739e-12,5.805805918e-13,7.505975005e-13,2.552062802e-13,3.171180300e-14
1.3047,5.649373319e-13,3.784954684e-13,5.454301908e-13,1.930463841e-13,6.086668146e-14,6.975713509e-13,5.079009811e-13,3.111329372e-14,8.762056402e-14,3.836038534e-13,2.023746992e-12,8.583772341e-13,7.749334687e-13,1.019783079e-12,1.073777734e-12,8.114293275e-13,3.677012145e-13,4.697485259e-13,4.462235595e-13,1.002838074e-12,7.937898734e-13,1.956027470e-13,4.409531737e-13,8.388933506e-13,5.214027414e-13,1.669622820e-13,1.912789159e-12,1.276254388e-12,5.805722427e-13,7.402359688e-13,2.593918583e-13,3.207148865e-14
1.3125,5.490501302e-13,3.673850601e-13,5.295529709e-13,1.993348928e-13,6.199916968e-14,7.054273801e-13,5.165504923e-13,3.263727690e-14,8.334219769e-14,3.629430644e-13,1.994997578e-12,8.326549500e-13,8.638703147e-13,1.000007515e-12,1.071213714e-12,8.239681404e-13,3.721218386e-13,4.575658888e-13,4.363059042e-13,9.869422713e-13,7.898534324e-13,1.955321236e-13,4.384329518e-13,8.107115771e-13,5.087773443e-13,1.712680146e-13,1.886353848e-12,1.227586715e-12,5.806946320e-13,7.303620823e-13,2.641096941e-13,3.251270348e-14
1.3203,5.310901162e-13,3.573086749e-13,5.151420147e-13,2.056062076e-13,6.322893638e-14,7.162364471e-13,5.301506396e-13,3.428856117e-14,7.936776473e-14,3.426233939e-13,1.972494074e-12,8.066429805e-13,9.312718936e-13,9.812510782e-13,1.070699858e-12,8.378042291e-13,3.777538310e-13,4.465382845e-13,4.278018335e-13,9.752905390e-13,7.867978245e-13,1.965283779e-13,4.349234559e-13,7.858863768e-13,4.968226831e-13,1.742740164e-13,1.850368305e-12,1.181207276e-12,5.800820701e-13,7.230751954e-13,2.693072528e-13,3.303024273e-14
1.3281,5.118164833e-13,3.480274303e-13,5.018152593e-13,2.120215132e-13,6.459664359e-14,7.271809257e-13,5.466791898e-13,3.555293620e-14,7.573310632e-14,3.231805571e-13,1.956405500e-12,7.812471198e-13,9.703993672e-13,9.631484631e-13,1.070734897e-12,8.513905869e-13,3.842725755e-13,4.361922806e-13,4.202248247e-13,9.676731318e-13,7.848711548e-13,1.978292848e-13,4.305755564e-13,7.642552136e-13,4.863937988e-13,1.756814000e-13,1.805207476e-12,1.137411249e-12,5.788256743e-13,7.164249512e-13,2.750944904e-13,3.358192116e-14
1.3359,4.921444131e-13,3.408018912e-13,4.917547711e-13,2.188730758e-13,6.598817258e-14,7.398961841e-13,5.664142237e-13,3.638242375e-14,7.249618464e-14,3.058284976e-13,1.947979761e-12,7.581338296e-13,9.774263809e-13,9.458923269e-13,1.070982089e-12,8.645010937e-13,3.920667938e-13,4.273301493e-13,4.127701359e-13,9.631218247e-13,7.832041256e-13,1.990849923e-13,4.253709191e-13,7.458508165e-13,4.772138572e-13,1.755606112e-13,1.756380483e-12,1.093296628e-12,5.781281446e-13,7.080660512e-13,2.810324030e-13,3.416473198e-14
1.3438,4.710724983e-13,3.342049048e-13,4.847209105e-13,2.255458477e-13,6.738684300e-14,7.548436986e-13,5.906817088e-13,3.709070157e-14,6.975378597e-14,2.900984537e-13,1.947093389e-12,7.370518439e-13,9.540551743e-13,9.299674398e-13,1.072580950e-12,8.779691644e-13,4.009027118e-13,4.205370327e-13,4.057285499e-13,9.609496818e-13,7.823115387e-13,2.010165064e-13,4.200790655e-13,7.316923736e-13,4.691040073e-13,1.741518536e-13,1.704292232e-12,1.051248088e-12,5.772285125e-13,7.001099429e-13,2.871301696e-13,3.480008714e-14
1.3516,4.494471587e-13,3.278531045e-13,4.796507568e-13,2.319064163e-13,6.886193205e-14,7.669824382e-13,6.167685355e-13,3.729129233e-14,6.745954652e-14,2.752202546e-13,1.951061464e-12,7.171450957e-13,9.027217307e-13,9.152169628e-13,1.077168037e-12,8.939028559e-13,4.107994524e-13,4.165849937e-13,3.997279027e-13,9.609913800e-13,7.819172910e-13,2.037880243e-13,4.146975610e-13,7.221029283e-13,4.611703365e-13,1.717057769e-13,1.650634899e-12,1.011146391e-12,5.754797979e-13,6.951386053e-13,2.938510470e-13,3.551171287e-14
1.3594,4.290008946e-13,3.234546592e-13,4.774730018e-13,2.389727253e-13,7.042301360e-14,7.810895674e-13,6.442177255e-13,3.719478527e-14,6.553585041e-14,2.629171849e-13,1.962600864e-12,6.999926741e-13,8.291649536e-13,9.028808728e-13,1.086702092e-12,9.143785880e-13,4.241051630e-13,4.170570653e-13,3.950214426e-13,9.642988590e-13,7.826054049e-13,2.066165087e-13,4.095302535e-13,7.185881583e-13,4.553546920e-13,1.684763294e-13,1.601896374e-12,9.752600028e-13,5.740797356e-13,6.937810619e-13,3.008031435e-13,3.628042655e-14
1.3672,4.091769503e-13,3.192202344e-13,4.764594278e-13,2.460541849e-13,7.203068891e-14,7.964082602e-13,6.722949448e-13,3.695551581e-14,6.412802671e-14,2.537355105e-13,1.981745355e-12,6.866687716e-13,7.372589522e-13,8.942284347e-13,1.101796062e-12,9.399540009e-13,4.414821037e-13,4.216610768e-13,3.918287907e-13,9.712154415e-13,7.856920211e-13,2.090552282e-13,4.056357425e-13,7.221987172e-13,4.530939315e-13,1.649695983e-13,1.559079226e-12,9.453029269e-13,5.730082061e-13,6.945281322e-13,3.076767661e-13,3.709008414e-14
1.375,3.890737241e-13,3.140229280e-13,4.751678149e-13,2.525050427e-13,7.369840869e-14,8.074174751e-13,6.984554369e-13,3.642468448e-14,6.313452729e-14,2.450036718e-13,1.999112294e-12,6.748055491e-13,6.359544571e-13,8.877806115e-13,1.120256323e-12,9.701157622e-13,4.599438293e-13,4.297996607e-13,3.895043536e-13,9.790826814e-13,7.896464275e-13,2.113216517e-13,4.019657210e-13,7.302910241e-13,4.506028959e-13,1.617853481e-13,1.522580917e-12,9.135499910e-13,5.716293321e-13,6.946516828e-13,3.146532215e-13,3.794744872e-14
1.3828,3.692362724e-13,3.088459626e-13,4.746933258e-13,2.592393620e-13,7.545018367e-14,8.192365306e-13,7.239822474e-13,3.604574035e-14,6.243555682e-14,2.369637936e-13,2.014649587e-12,6.641876316e-13,5.390819697e-13,8.830480547e-13,1.140622548e-12,1.003696647e-12,4.786844094e-13,4.419163574e-13,3.882628523e-13,9.870471913e-13,7.950439399e-13,2.132080252e-13,3.987170790e-13,7.425277001e-13,4.489531656e-13,1.592822783e-13,1.495616533e-12,8.815350784e-13,5.704336909e-13,6.940461767e-13,3.213994931e-13,3.884480485e-14
1.3906,3.514282438e-13,3.034274446e-13,4.744006036e-13,2.662859511e-13,7.725689140e-14,8.314454375e-13,7.495065837e-13,3.568902134e-14,6.216183093e-14,2.315774517e-13,2.034172233e-12,6.567358084e-13,4.522055632e-13,8.815340116e-13,1.164719410e-12,1.041463007e-12,4.999272366e-13,4.579223591e-13,3.891530011e-13,9.962382372e-13,8.031969884e-13,2.143910684e-13,3.972676365e-13,7.605171635e-13,4.513748278e-13,1.579241186e-13,1.478450503e-12,8.578154066e-13,5.696739113e-13,6.954186249e-13,3.278494103e-13,3.978931453e-14
1.3984,3.355527401e-13,2.982326679e-13,4.734028277e-13,2.732762461e-13,7.913096923e-14,8.405366632e-13,7.740651268e-13,3.526737490e-14,6.222098308e-14,2.272709749e-13,2.054485782e-12,6.513747073e-13,3.850622512e-13,8.833859841e-13,1.193628966e-12,1.085334267e-12,5.245106724e-13,4.784672440e-13,3.919310956e-13,1.006121893e-12,8.122273402e-13,2.153009861e-13,3.964546447e-13,7.835665407e-13,4.551004300e-13,1.581792035e-13,1.470031893e-12,8.381975162e-13,5.690587657e-13,6.990959227e-13,3.345694114e-13,4.076226120e-14
1.4062,3.194587798e-13,2.934085224e-13,4.712909425e-13,2.802382967e-13,8.107154152e-14,8.504495080e-13,7.981151080e-13,3.530631919e-14,6.248119868e-14,2.236391109e-13,2.074904521e-12,6.476055718e-13,3.498451755e-13,8.887575722e-13,1.227037979e-12,1.134759502e-12,5.519945509e-13,5.040462537e-13,3.967110130e-13,1.017412697e-12,8.225094007e-13,2.161214094e-13,3.961028257e-13,8.115538080e-13,4.601042430e-13,1.600858361e-13,1.468898664e-12,8.190982805e-13,5.684592092e-13,7.024001710e-13,3.413623472e-13,4.174010095e-14
1.4141,3.034769115e-13,2.886188121e-13,4.677314961e-13,2.870049203e-13,8.294731792e-14,8.617855337e-13,8.213339149e-13,3.563307984e-14,6.289883898e-14,2.218402253e-13,2.098513604e-12,6.461287604e-13,3.482905232e-13,8.987713415e-13,1.265995852e-12,1.189324718e-12,5.821934480e-13,5.342899112e-13,4.039796974e-13,1.030923088e-12,8.349298555e-13,2.168614770e-13,3.970900460e-13,8.436227300e-13,4.679439227e-13,1.636331726e-13,1.474007302e-12,8.036992476e-13,5.680716739e-13,7.049567534e-13,3.475299546e-13,4.278311419e-14
1.4219,2.884456621e-13,2.845520788e-13,4.643019108e-13,2.934470317e-13,8.465926316e-14,8.742775937e-13,8.456474031e-13,3.624644612e-14,6.340617219e-14,2.213919263e-13,2.125632675e-12,6.464202702e-13,3.833122483e-13,9.135048865e-13,1.309454541e-12,1.248501351e-12,6.147213858e-13,5.696116529e-13,4.138865284e-13,1.045764827e-12,8.494046234e-13,2.180136139e-13,3.993749013e-13,8.791477175e-13,4.775137055e-13,1.687822350e-13,1.485209339e-12,7.915765297e-13,5.682156004e-13,7.087468796e-13,3.532333854e-13,4.391044571e-14
1.4297,2.738335756e-13,2.813902208e-13,4.619647488e-13,2.996172344e-13,8.624852914e-14,8.903774886e-13,8.734934143e-13,3.745036618e-14,6.388584506e-14,2.221554271e-13,2.157158165e-12,6.478886877e-13,4.545783436e-13,9.320111503e-13,1.355049328e-12,1.310166123e-12,6.487172944e-13,6.097108580e-13,4.265912949e-13,1.062986017e-12,8.667017042e-13,2.195332850e-13,4.025511723e-13,9.188230996e-13,4.896990953e-13,1.749653719e-13,1.497474275e-12,7.826520942e-13,5.683936100e-13,7.133400892e-13,3.588963306e-13,4.502974996e-14
1.4375,2.599576249e-13,2.797202077e-13,4.605824656e-13,3.057509539e-13,8.776771766e-14,9.111872635e-13,9.038024452e-13,3.909424785e-14,6.403476777e-14,2.234098175e-13,2.193080060e-12,6.488351333e-13,5.552875672e-13,9.540102660e-13,1.405250573e-12,1.375862671e-12,6.845899868e-13,6.546715330e-13,4.408814649e-13,1.083911023e-12,8.848105203e-13,2.210984545e-13,4.047822989e-13,9.603503394e-13,5.040059838e-13,1.814591137e-13,1.505601404e-12,7.764499623e-13,5.678520477e-13,7.165350202e-13,3.643415987e-13,4.607835588e-14
1.4453,2.465029251e-13,2.798624598e-13,4.608966709e-13,3.116605067e-13,8.924404387e-14,9.369452135e-13,9.383080701e-13,4.129733631e-14,6.391914343e-14,2.256800032e-13,2.237397245e-12,6.498142726e-13,6.805328285e-13,9.807399319e-13,1.462321290e-12,1.446911049e-12,7.244576742e-13,7.057402711e-13,4.565516936e-13,1.108881389e-12,9.037860266e-13,2.230004786e-13,4.064068164e-13,1.004432334e-12,5.199411677e-13,1.878409830e-13,1.510065929e-12,7.720477394e-13,5.669205627e-13,7.183880593e-13,3.694823896e-13,4.706835377e-14
1.4531,2.331769783e-13,2.809856132e-13,4.627736454e-13,3.169519214e-13,9.070074909e-14,9.647605062e-13,9.785268856e-13,4.390231295e-14,6.380671394e-14,2.303043123e-13,2.293380040e-12,6.528900708e-13,8.163989784e-13,1.012229624e-12,1.523581436e-12,1.519859076e-12,7.680695751e-13,7.623670975e-13,4.747274560e-13,1.138196508e-12,9.258255527e-13,2.256779579e-13,4.089682786e-13,1.053746421e-12,5.390725322e-13,1.935514595e-13,1.508100793e-12,7.706314724e-13,5.653167410e-13,7.199465154e-13,3.744554328e-13,4.800473009e-14
1.4609,2.198582761e-13,2.828957826e-13,4.655404109e-13,3.217431037e-13,9.210166880e-14,9.930872950e-13,1.021177861e-12,4.663590779e-14,6.347474559e-14,2.349883093e-13,2.354151314e-12,6.554667815e-13,9.481555687e-13,1.046411698e-12,1.587950465e-12,1.594434770e-12,8.131511343e-13,8.239738839e-13,4.941924963e-13,1.170390623e-12,9.480064294e-13,2.293018145e-13,4.104176340e-13,1.103337486e-12,5.595829045e-13,1.978341022e-13,1.495807071e-12,7.697776493e-13,5.618154498e-13,7.205311360e-13,3.790703474e-13,4.886908711e-14
1.4688,2.061399576e-13,2.855728775e-13,4.697733128e-13,3.263347495e-13,9.343031039e-14,1.024647511e-12,1.066316186e-12,4.977951713e-14,6.294935592e-14,2.398981990e-13,2.419745569e-12,6.573426668e-13,1.068628960e-12,1.083341246e-12,1.656756928e-12,1.672120638e-12,8.600678517e-13,8.907502386e-13,5.143462474e-13,1.205265056e-12,9.698389310e-13,2.336132447e-13,4.107935410e-13,1.150616125e-12,5.810840562e-13,2.003695629e-13,1.475418513e-12,7.695687834e-13,5.568788041e-13,7.202557387e-13,3.832159340e-13,4.967312530e-14
1.4766,1.937022778e-13,2.896389880e-13,4.763511813e-13,3.311517571e-13,9.473258077e-14,1.057897922e-12,1.115644987e-12,5.306528204e-14,6.249793463e-14,2.474326150e-13,2.495519875e-12,6.616488981e-13,1.162905269e-12,1.124048912e-12,1.729458534e-12,1.751136396e-12,9.093840640e-13,9.625383054e-13,5.364465467e-13,1.244070220e-12,9.943678699e-13,2.385231670e-13,4.120237584e-13,1.200229915e-12,6.051995132e-13,2.010857177e-13,1.446663994e-12,7.732051193e-13,5.509563248e-13,7.203792648e-13,3.870522742e-13,5.040955842e-14
1.4844,1.827450871e-13,2.949608644e-13,4.849040388e-13,3.358580897e-13,9.596736861e-14,1.088533505e-12,1.167853910e-12,5.617313140e-14,6.197846868e-14,2.560272262e-13,2.577370755e-12,6.668686877e-13,1.220414641e-12,1.167589613e-12,1.806010691e-12,1.832314009e-12,9.603902300e-13,1.040582520e-12,5.606109356e-13,1.286380271e-12,1.021017173e-12,2.444031892e-13,4.129814922e-13,1.252836918e-12,6.304508547e-13,1.997121712e-13,1.407235528e-12,7.776450958e-13,5.430303199e-13,7.202415524e-13,3.904639965e-13,5.101882633e-14
1.4922,1.718728942e-13,2.996070436e-13,4.937001073e-13,3.400164057e-13,9.715958215e-14,1.115997146e-12,1.221799396e-12,5.922956640e-14,6.145915240e-14,2.653352596e-13,2.664010440e-12,6.724712695e-13,1.241128625e-12,1.214141305e-12,1.888634040e-12,1.918719073e-12,1.014786216e-12,1.125495206e-12,5.869435840e-13,1.333198648e-12,1.049713335e-12,2.511420776e-13,4.139355565e-13,1.306615523e-12,6.567189061e-13,1.961991944e-13,1.359788743e-12,7.822911598e-13,5.333763410e-13,7.187586204e-13,3.932090580e-13,5.152314759e-14
1.5,1.623643969e-13,3.040567570e-13,5.020849542e-13,3.447327666e-13,9.851943113e-14,1.140798721e-12,1.274730250e-12,6.206564758e-14,6.119781321e-14,2.760155658e-13,2.755376627e-12,6.802752148e-13,1.221554698e-12,1.264442698e-12,1.977852038e-12,2.010624489e-12,1.073498544e-12,1.216714984e-12,6.151411898e-13,1.384306875e-12,1.080025378e-12,2.587001196e-13,4.157919393e-13,1.361804562e-12,6.835898914e-13,1.907848446e-13,1.306811874e-12,7.891554223e-13,5.224000629e-13,7.157098395e-13,3.953064774e-13,5.199285290e-14
1.5078,1.542870514e-13,3.091225787e-13,5.104951402e-13,3.499652123e-13,1.001089991e-13,1.161037700e-12,1.324611155e-12,6.462913651e-14,6.120260582e-14,2.872646596e-13,2.847606458e-12,6.899606682e-13,1.164528149e-12,1.317705721e-12,2.070643679e-12,2.105796856e-12,1.133631056e-12,1.314557048e-12,6.446350774e-13,1.435946968e-12,1.110183022e-12,2.675722886e-13,4.178785080e-13,1.418073547e-12,7.089839330e-13,1.836640903e-13,1.249532282e-12,7.948514241e-13,5.093380195e-13,7.112813991e-13,3.967676107e-13,5.241958036e-14
1.5156,1.469823009e-13,3.137968780e-13,5.177194475e-13,3.548341323e-13,1.019353661e-13,1.174459865e-12,1.372530688e-12,6.685027224e-14,6.149804635e-14,2.998152911e-13,2.941966605e-12,7.019982965e-13,1.079853586e-12,1.374369445e-12,2.166315650e-12,2.203584262e-12,1.194304119e-12,1.418758517e-12,6.764290336e-13,1.487975697e-12,1.141659045e-12,2.777245397e-13,4.209567383e-13,1.474422212e-12,7.337990010e-13,1.751911499e-13,1.189219472e-12,8.002040453e-13,4.944562493e-13,7.065180576e-13,3.975245469e-13,5.279892115e-14
1.5234,1.414179313e-13,3.189823595e-13,5.224713914e-13,3.603711423e-13,1.041283826e-13,1.181406413e-12,1.417175053e-12,6.863777808e-14,6.205129240e-14,3.131098644e-13,3.036206560e-12,7.163798890e-13,9.776947665e-13,1.435515751e-12,2.268659918e-12,2.308712396e-12,1.259319085e-12,1.530197267e-12,7.105606072e-13,1.542488858e-12,1.174523513e-12,2.890417794e-13,4.250848767e-13,1.530132429e-12,7.576628274e-13,1.659823362e-13,1.127201678e-12,8.083925595e-13,4.784578922e-13,7.013063726e-13,3.977318662e-13,5.315880162e-14
1.5312,1.367775329e-13,3.249383381e-13,5.250945958e-13,3.663414325e-13,1.065418448e-13,1.182693657e-12,1.457050199e-12,7.021351565e-14,6.281714899e-14,3.264583665e-13,3.127524846e-12,7.326394127e-13,8.739565682e-13,1.500770845e-12,2.377480486e-12,2.422812914e-12,1.330878008e-12,1.649981540e-12,7.462018638e-13,1.599219137e-12,1.207535760e-12,3.015216756e-13,4.300037093e-13,1.586614066e-12,7.791024600e-13,1.566637344e-13,1.067597256e-12,8.170432791e-13,4.618833733e-13,6.951401138e-13,3.976766847e-13,5.351451014e-14
1.5391,1.330663615e-13,3.307971932e-13,5.258420923e-13,3.718630032e-13,1.090211455e-13,1.178663117e-12,1.492096966e-12,7.147102723e-14,6.382920162e-14,3.407679880e-13,3.219455067e-12,7.515893655e-13,7.809212032e-13,1.569505414e-12,2.489338844e-12,2.541102117e-12,1.406221527e-12,1.776139907e-12,7.835302546e-13,1.658046805e-12,1.242015530e-12,3.149253540e-13,4.365169218e-13,1.645699711e-12,7.991903122e-13,1.475813914e-13,1.011720650e-12,8.249554158e-13,4.452238142e-13,6.886764868e-13,3.975913407e-13,5.387577387e-14
1.5469,1.313482423e-13,3.381333434e-13,5.246446037e-13,3.785522873e-13,1.118908187e-13,1.169968558e-12,1.521241374e-12,7.242323537e-14,6.498113787e-14,3.545455450e-13,3.308698573e-12,7.720196537e-13,7.099660419e-13,1.641510812e-12,2.605820427e-12,2.664571039e-12,1.483982499e-12,1.909061503e-12,8.228480778e-13,1.719023451e-12,1.277746948e-12,3.299654600e-13,4.437995553e-13,1.705896568e-12,8.172904341e-13,1.388671623e-13,9.581658163e-13,8.320514558e-13,4.283137173e-13,6.816327741e-13,3.977863034e-13,5.423008500e-14
1.5547,1.305901178e-13,3.476677396e-13,5.218671326e-13,3.868021749e-13,1.153567024e-13,1.156811862e-12,1.546283587e-12,7.341913111e-14,6.632777097e-14,3.676462366e-13,3.394104810e-12,7.940286680e-13,6.769880638e-13,1.717363168e-12,2.728112321e-12,2.795883730e-12,1.566886366e-12,2.051271014e-12,8.653037334e-13,1.782455091e-12,1.314815747e-12,3.473289377e-13,4.522841030e-13,1.766160742e-12,8.328822651e-13,1.307655896e-13,9.093029530e-13,8.384103742e-13,4.115676920e-13,6.744645179e-13,3.986183356e-13,5.455913516e-14
1.5625,1.306382188e-13,3.583358706e-13,5.179684328e-13,3.954243200e-13,1.192742117e-13,1.140773839e-12,1.568102490e-12,7.449992865e-14,6.802076135e-14,3.817113805e-13,3.480342474e-12,8.193260844e-13,6.855875774e-13,1.797270796e-12,2.853515738e-12,2.931980489e-12,1.655320874e-12,2.201496542e-12,9.112115938e-13,1.848691058e-12,1.354333948e-12,3.663772729e-13,4.632110657e-13,1.826855282e-12,8.471516943e-13,1.233801602e-13,8.654985653e-13,8.457549974e-13,3.951293188e-13,6.675152381e-13,4.001220521e-13,5.486442198e-14
1.5703,1.314539494e-13,3.698816901e-13,5.129854233e-13,4.046052791e-13,1.236445779e-13,1.122756932e-12,1.584183175e-12,7.566614315e-14,6.987648927e-14,3.954986205e-13,3.563037911e-12,8.461157095e-13,7.354933035e-13,1.879849351e-12,2.981695569e-12,3.072852575e-12,1.747808741e-12,2.358321208e-12,9.591218319e-13,1.916747186e-12,1.394358320e-12,3.870183699e-13,4.748847314e-13,1.885468274e-12,8.593256309e-13,1.166124979e-13,8.248121291e-13,8.517104538e-13,3.782878416e-13,6.585868113e-13,4.021643027e-13,5.518533075e-14
1.5781,1.322693060e-13,3.823212851e-13,5.070187489e-13,4.145252249e-13,1.285190463e-13,1.101927642e-12,1.597161220e-12,7.688772494e-14,7.180696993e-14,4.089142052e-13,3.641873825e-12,8.740039547e-13,8.298825605e-13,1.964601395e-12,3.112860230e-12,3.218840441e-12,1.844616499e-12,2.521510469e-12,1.009274911e-12,1.987074668e-12,1.434568842e-12,4.094609018e-13,4.871275265e-13,1.939891579e-12,8.699909894e-13,1.105389226e-13,7.883175827e-13,8.550527489e-13,3.618231528e-13,6.481921760e-13,4.050228127e-13,5.551045030e-14
1.5859,1.340717432e-13,3.960902668e-13,5.010337506e-13,4.254037351e-13,1.338888769e-13,1.080017411e-12,1.610365215e-12,7.825484048e-14,7.398747524e-14,4.231343439e-13,3.722246086e-12,9.047103143e-13,9.599470910e-13,2.052073001e-12,3.246572156e-12,3.366955227e-12,1.944660812e-12,2.689645232e-12,1.062110501e-12,2.060932361e-12,1.476458146e-12,4.331802949e-13,5.011402294e-13,1.992424323e-12,8.806041624e-13,1.051123511e-13,7.563740636e-13,8.590782981e-13,3.463220639e-13,6.380748496e-13,4.089906945e-13,5.570836279e-14
1.5938,1.368636201e-13,4.110495086e-13,4.958494887e-13,4.375931384e-13,1.398155431e-13,1.057617248e-12,1.622672243e-12,7.990494196e-14,7.649211530e-14,4.375939445e-13,3.802222967e-12,9.374556234e-13,1.115259334e-12,2.141746431e-12,3.383844442e-12,3.517552595e-12,2.048028856e-12,2.862680503e-12,1.117251871e-12,2.139201094e-12,1.519367334e-12,4.585033805e-13,5.162095882e-13,2.045513200e-12,8.903937628e-13,1.001142071e-13,7.278187988e-13,8.623319164e-13,3.308568324e-13,6.265279733e-13,4.139836697e-13,5.578883756e-14
1.6016,1.397455881e-13,4.259845352e-13,4.913418780e-13,4.501206232e-13,1.462059301e-13,1.033456574e-12,1.634835145e-12,8.156199549e-14,7.935446618e-14,4.525204927e-13,3.882413376e-12,9.720303493e-13,1.287098473e-12,2.232435542e-12,3.522895576e-12,3.669794033e-12,2.157075439e-12,3.040369111e-12,1.175404066e-12,2.223175777e-12,1.563769210e-12,4.858670632e-13,5.326270403e-13,2.097379825e-12,9.002635851e-13,9.552715563e-14,7.017549986e-13,8.638354296e-13,3.156374665e-13,6.135615693e-13,4.200832684e-13,5.585244310e-14
1.6094,1.432796341e-13,4.410485702e-13,4.871413994e-13,4.627031225e-13,1.529263347e-13,1.008200959e-12,1.646585504e-12,8.326554292e-14,8.251085052e-14,4.675106149e-13,3.962641963e-12,1.008475967e-12,1.459173780e-12,2.322731268e-12,3.661871950e-12,3.820533000e-12,2.269394605e-12,3.219845584e-12,1.235942629e-12,2.311223621e-12,1.609931218e-12,5.147420759e-13,5.506381814e-13,2.145540407e-12,9.108584577e-13,9.130014183e-14,6.783560059e-13,8.670188256e-13,3.013512072e-13,6.005433812e-13,4.272530209e-13,5.580403536e-14
1.6172,1.472667454e-13,4.565585712e-13,4.830059988e-13,4.763474070e-13,1.601294732e-13,9.812489750e-13,1.655901300e-12,8.515113198e-14,8.593572950e-14,4.820239805e-13,4.039941812e-12,1.046467616e-12,1.620225426e-12,2.412486326e-12,3.802728445e-12,3.970369857e-12,2.382540459e-12,3.399360464e-12,1.298435483e-12,2.402028091e-12,1.657100399e-12,5.451610937e-13,5.700634909e-13,2.190606400e-12,9.213040339e-13,8.727638484e-14,6.581248162e-13,8.706440884e-13,2.875064254e-13,5.864679399e-13,4.352481675e-13,5.567409534e-14
1.625,1.514950729e-13,4.719433413e-13,4.786049164e-13,4.912550468e-13,1.679533691e-13,9.526372307e-13,1.663999261e-12,8.694485201e-14,8.985450306e-14,4.976724794e-13,4.118522490e-12,1.087359502e-12,1.760768308e-12,2.502762297e-12,3.945312203e-12,4.119967132e-12,2.499665521e-12,3.579641144e-12,1.364247199e-12,2.497423365e-12,1.706186555e-12,5.773586398e-13,5.919877978e-13,2.231961070e-12,9.328239974e-13,8.344021090e-14,6.389311681e-13,8.724891543e-13,2.739634761e-13,5.717655080e-13,4.444687909e-13,5.562091535e-14
1.6328,1.570032405e-13,4.879774785e-13,4.733126823e-13,5.072689598e-13,1.763170173e-13,9.232878148e-13,1.671355615e-12,8.867518297e-14,9.420525010e-14,5.136769579e-13,4.197442163e-12,1.130217209e-12,1.869970413e-12,2.593329585e-12,4.089359502e-12,4.269470360e-12,2.621085632e-12,3.761027707e-12,1.432465042e-12,2.596433036e-12,1.756351367e-12,6.109908214e-13,6.151001928e-13,2.268564823e-12,9.443919154e-13,7.987585740e-14,6.202619085e-13,8.738950098e-13,2.616141096e-13,5.580282104e-13,4.553692333e-13,5.551937252e-14
1.6406,1.639731063e-13,5.053166446e-13,4.676489503e-13,5.246133922e-13,1.852523884e-13,8.915178382e-13,1.678110577e-12,9.031178593e-14,9.888274058e-14,5.289341421e-13,4.274285254e-12,1.174305311e-12,1.948177774e-12,2.684958257e-12,4.237996455e-12,4.420116519e-12,2.744302863e-12,3.942693366e-12,1.502394951e-12,2.698175061e-12,1.806949412e-12,6.459719400e-13,6.382464501e-13,2.303764724e-12,9.543108510e-13,7.656661278e-14,6.036396194e-13,8.750636849e-13,2.506479255e-13,5.451780436e-13,4.679373190e-13,5.528447723e-14
1.6484,1.718498222e-13,5.231721297e-13,4.624379592e-13,5.433884237e-13,1.949127734e-13,8.580760441e-13,1.683242720e-12,9.169058840e-14,1.041727376e-13,5.449787099e-13,4.352531037e-12,1.221883000e-12,1.996133133e-12,2.778686302e-12,4.390203436e-12,4.570686046e-12,2.870294584e-12,4.124340849e-12,1.574955584e-12,2.803927610e-12,1.859097953e-12,6.824098747e-13,6.630910581e-13,2.337705658e-12,9.644406015e-13,7.337657699e-14,5.876811877e-13,8.748354044e-13,2.401079297e-13,5.326139437e-13,4.822718771e-13,5.506279121e-14
1.6562,1.803454433e-13,5.415790944e-13,4.556718364e-13,5.633474843e-13,2.052570471e-13,8.246812450e-13,1.681215867e-12,9.286702243e-14,1.099267670e-13,5.603567102e-13,4.425616075e-12,1.270990946e-12,2.013994987e-12,2.871328684e-12,4.541060722e-12,4.718543648e-12,2.999168644e-12,4.305129067e-12,1.648555811e-12,2.911817821e-12,1.910811547e-12,7.203402216e-13,6.885212189e-13,2.366730891e-12,9.734141683e-13,7.038326491e-14,5.718626071e-13,8.723448294e-13,2.298870174e-13,5.197755447e-13,4.984023365e-13,5.488158469e-14
1.6641,1.895190208e-13,5.613311516e-13,4.461110763e-13,5.845479388e-13,2.162390306e-13,7.907206291e-13,1.672933286e-12,9.379058536e-14,1.158727713e-13,5.739547248e-13,4.491012439e-12,1.319256229e-12,2.011159295e-12,2.961135203e-12,4.690065036e-12,4.862597654e-12,3.129051604e-12,4.482444418e-12,1.722406291e-12,3.020771973e-12,1.961957012e-12,7.596125102e-13,7.135086874e-13,2.392825671e-12,9.797027320e-13,6.775884163e-14,5.571436101e-13,8.694005060e-13,2.207931867e-13,5.077037602e-13,5.164090714e-13,5.469172078e-14
1.6719,1.996128221e-13,5.826595641e-13,4.355302935e-13,6.076821146e-13,2.279983570e-13,7.566326725e-13,1.663911035e-12,9.463918206e-14,1.222769734e-13,5.879460302e-13,4.557032334e-12,1.368954991e-12,1.995290647e-12,3.050854213e-12,4.840631812e-12,5.004838281e-12,3.260658601e-12,4.655562138e-12,1.797431841e-12,3.131519639e-12,2.014888345e-12,7.998880350e-13,7.398729191e-13,2.417399758e-12,9.856287469e-13,6.542216068e-14,5.440498081e-13,8.668833188e-13,2.128457689e-13,4.982071340e-13,5.364255738e-13,5.451209988e-14
1.6797,2.102578282e-13,6.049856241e-13,4.241267815e-13,6.322370788e-13,2.404912240e-13,7.218679250e-13,1.653107732e-12,9.545825215e-14,1.291073400e-13,6.022295172e-13,4.621813193e-12,1.419784778e-12,1.974546153e-12,3.141008738e-12,4.993691125e-12,5.147733355e-12,3.395752721e-12,4.825825096e-12,1.872712618e-12,3.243144048e-12,2.068143818e-12,8.411740004e-13,7.664476458e-13,2.439453281e-12,9.896413728e-13,6.336036890e-14,5.334025685e-13,8.602310372e-13,2.055708689e-13,4.898407218e-13,5.582852697e-13,5.436810268e-14
1.6875,2.212509907e-13,6.275106861e-13,4.118185452e-13,6.570509090e-13,2.536208991e-13,6.865035453e-13,1.640840006e-12,9.602516026e-14,1.361697695e-13,6.168018763e-13,4.684122716e-12,1.470612297e-12,1.960522055e-12,3.230855687e-12,5.146969254e-12,5.290092848e-12,3.534723956e-12,4.993774753e-12,1.948566011e-12,3.356652010e-12,2.121959152e-12,8.835151123e-13,7.918691523e-13,2.463040942e-12,9.907135154e-13,6.170782268e-14,5.242687605e-13,8.504265657e-13,1.989643204e-13,4.811512361e-13,5.822599780e-13,5.425515457e-14
1.6953,2.329476340e-13,6.509276097e-13,3.996010140e-13,6.829629004e-13,2.675389770e-13,6.531297792e-13,1.628071888e-12,9.670238444e-14,1.435717562e-13,6.321915492e-13,4.747126660e-12,1.522675659e-12,1.959847811e-12,3.321687242e-12,5.301183438e-12,5.432118075e-12,3.677240832e-12,5.160896670e-12,2.026361686e-12,3.473189451e-12,2.178337845e-12,9.270732838e-13,8.177541985e-13,2.488790138e-12,9.917826673e-13,6.053640070e-14,5.173593107e-13,8.430952434e-13,1.934916627e-13,4.740029342e-13,6.085080730e-13,5.414658492e-14
1.7031,2.448832371e-13,6.755727512e-13,3.867702246e-13,7.103081479e-13,2.821423506e-13,6.210233218e-13,1.611932747e-12,9.753694036e-14,1.513077530e-13,6.473886085e-13,4.808667035e-12,1.575668938e-12,1.979445349e-12,3.414041053e-12,5.459169245e-12,5.575777510e-12,3.823603286e-12,5.328132202e-12,2.105810596e-12,3.592173703e-12,2.236302197e-12,9.724126289e-13,8.445000456e-13,2.513752240e-12,9.926441338e-13,5.986356868e-14,5.143336866e-13,8.360711562e-13,1.890226004e-13,4.686513316e-13,6.363509373e-13,5.408434575e-14
1.7109,2.564951526e-13,6.996035328e-13,3.733508370e-13,7.375721075e-13,2.972127553e-13,5.880487229e-13,1.594386339e-12,9.803050128e-14,1.594434162e-13,6.636768320e-13,4.871393442e-12,1.629733291e-12,2.021060889e-12,3.507232263e-12,5.618599107e-12,5.718290840e-12,3.974138340e-12,5.492579921e-12,2.186505105e-12,3.713566245e-12,2.296028330e-12,1.019130029e-12,8.716370404e-13,2.540312526e-12,9.931019550e-13,5.960800532e-14,5.131409771e-13,8.278148064e-13,1.849024883e-13,4.633511663e-13,6.656341513e-13,5.409772886e-14
1.7188,2.679703755e-13,7.226661085e-13,3.600656917e-13,7.644207132e-13,3.128617334e-13,5.550560380e-13,1.576901952e-12,9.830310532e-14,1.678305132e-13,6.811784395e-13,4.934867228e-12,1.684305791e-12,2.077800402e-12,3.599425066e-12,5.775118208e-12,5.855755914e-12,4.125853814e-12,5.649800180e-12,2.266385503e-12,3.834371614e-12,2.356456032e-12,1.065852834e-12,8.982426342e-13,2.567402081e-12,9.935492893e-13,5.985953242e-14,5.139475565e-13,8.205203877e-13,1.817015153e-13,4.582228028e-13,6.965624059e-13,5.406844596e-14
1.7266,2.791411437e-13,7.454294693e-13,3.457548766e-13,7.906972408e-13,3.288633266e-13,5.229033158e-13,1.557868151e-12,9.852021557e-14,1.760936824e-13,6.985179761e-13,4.995012413e-12,1.737432448e-12,2.146434946e-12,3.688737343e-12,5.927866221e-12,5.986731728e-12,4.276124884e-12,5.796889678e-12,2.343607107e-12,3.952444486e-12,2.415381864e-12,1.111944713e-12,9.233846512e-13,2.592204584e-12,9.924726397e-13,6.073595375e-14,5.175339883e-13,8.124065719e-13,1.797135572e-13,4.533964918e-13,7.288854650e-13,5.393536640e-14
1.7344,2.901464764e-13,7.669363291e-13,3.299471451e-13,8.161415872e-13,3.448983350e-13,4.900138959e-13,1.540381413e-12,9.841660063e-14,1.846107574e-13,7.175885142e-13,5.057724829e-12,1.791279133e-12,2.220295582e-12,3.776767189e-12,6.078221782e-12,6.112273596e-12,4.428422424e-12,5.936130982e-12,2.420921979e-12,4.071763858e-12,2.475596230e-12,1.157847936e-12,9.488815574e-13,2.619186018e-12,9.914403211e-13,6.199091772e-14,5.211756429e-13,8.034878523e-13,1.778827072e-13,4.484599790e-13,7.624920845e-13,5.381191072e-14
1.7422,3.013386834e-13,7.871602270e-13,3.135330490e-13,8.419846590e-13,3.613435653e-13,4.554623139e-13,1.525578569e-12,9.787263572e-14,1.937902700e-13,7.384035616e-13,5.123997410e-12,1.847592883e-12,2.288480066e-12,3.865580335e-12,6.228193462e-12,6.234569283e-12,4.583337483e-12,6.072255167e-12,2.500511830e-12,4.193956644e-12,2.538613005e-12,1.204357242e-12,9.754999864e-13,2.649230972e-12,9.915276545e-13,6.357687534e-14,5.245890562e-13,7.951185512e-13,1.763194298e-13,4.443344694e-13,7.973049688e-13,5.377554493e-14
1.75,3.119746384e-13,8.063072637e-13,2.975486053e-13,8.677076509e-13,3.783491327e-13,4.216069672e-13,1.511570255e-12,9.698952079e-14,2.033809448e-13,7.596885630e-13,5.189799296e-12,1.904712085e-12,2.345860218e-12,3.953952401e-12,6.377465102e-12,6.350782273e-12,4.734803399e-12,6.203420902e-12,2.581381962e-12,4.316367232e-12,2.602700466e-12,1.251515707e-12,1.001884820e-12,2.678827533e-12,9.914004024e-13,6.563926730e-14,5.280839687e-13,7.857715819e-13,1.755986469e-13,4.409261476e-13,8.333252371e-13,5.376865123e-14
1.7578,3.219476380e-13,8.237909181e-13,2.823609704e-13,8.917253922e-13,3.955573121e-13,3.888868266e-13,1.498788630e-12,9.586606054e-14,2.132997000e-13,7.824970314e-13,5.257708097e-12,1.962853778e-12,2.384972687e-12,4.040820646e-12,6.524753436e-12,6.459052140e-12,4.883447447e-12,6.326491982e-12,2.663316913e-12,4.438324479e-12,2.668390492e-12,1.298492681e-12,1.028841100e-12,2.708510432e-12,9.923970842e-13,6.804808189e-14,5.311139458e-13,7.761160932e-13,1.755087528e-13,4.369338343e-13,8.705010301e-13,5.374480887e-14
1.7656,3.318188411e-13,8.403799875e-13,2.670397484e-13,9.149203070e-13,4.129697965e-13,3.557708552e-13,1.487178002e-12,9.447020654e-14,2.235513870e-13,8.063310111e-13,5.327496757e-12,2.021906081e-12,2.399208279e-12,4.126108609e-12,6.670274894e-12,6.562284872e-12,5.032667791e-12,6.442417385e-12,2.745287128e-12,4.558600420e-12,2.734810222e-12,1.344651655e-12,1.056599887e-12,2.737557910e-12,9.946261391e-13,7.081018585e-14,5.343379870e-13,7.669835145e-13,1.761846598e-13,4.332765283e-13,9.082481970e-13,5.374397522e-14
1.7734,3.412503471e-13,8.559155909e-13,2.520157874e-13,9.374787313e-13,4.305666975e-13,3.238954068e-13,1.477685807e-12,9.286855340e-14,2.340564389e-13,8.307211721e-13,5.397328924e-12,2.080124313e-12,2.388647223e-12,4.207334387e-12,6.809887016e-12,6.656066080e-12,5.175974977e-12,6.546854300e-12,2.824715601e-12,4.673455148e-12,2.799498790e-12,1.389406522e-12,1.083602198e-12,2.764834082e-12,9.963140864e-13,7.397924581e-14,5.364004925e-13,7.575526335e-13,1.774712995e-13,4.317945466e-13,9.465137520e-13,5.375441814e-14
1.7812,3.504944656e-13,8.699054191e-13,2.384038231e-13,9.586501921e-13,4.481132258e-13,2.939759235e-13,1.470667405e-12,9.132015078e-14,2.448640227e-13,8.554382143e-13,5.465188919e-12,2.136565335e-12,2.353288677e-12,4.281511053e-12,6.939127879e-12,6.735942925e-12,5.309817268e-12,6.635327100e-12,2.900841577e-12,4.781163668e-12,2.862055733e-12,1.432258089e-12,1.109621439e-12,2.791694456e-12,9.973569798e-13,7.743785441e-14,5.378969407e-13,7.480651275e-13,1.794076275e-13,4.320919151e-13,9.854267787e-13,5.369878784e-14
1.7891,3.596506477e-13,8.838595545e-13,2.254353673e-13,9.792286436e-13,4.656820931e-13,2.650854358e-13,1.463610943e-12,8.985213733e-14,2.558656337e-13,8.787797429e-13,5.527168193e-12,2.190333730e-12,2.300176618e-12,4.349329487e-12,7.060987200e-12,6.806796667e-12,5.438540058e-12,6.711990382e-12,2.973601370e-12,4.881981578e-12,2.921860940e-12,1.473374585e-12,1.134245249e-12,2.816190443e-12,9.973085451e-13,8.125288537e-14,5.415698750e-13,7.381972871e-13,1.825926881e-13,4.330994742e-13,1.024327839e-12,5.357272738e-14
