Time,Fp1,AF3,F7,F3,FC1,FC5,T7,C3,CP1,CP5,P7,P3,Pz,PO3,O1,Oz,O2,PO4,P4,P8,CP6,CP2,C4,T8,FC6,FC2,F4,F8,AF4,Fp2,Fz,Cz,
0,9.027783567e-09,5.259667460e-09,2.301569975e-09,5.257340143e-10,9.353242695e-10,2.876662598e-09,1.291357255e-09,1.106917907e-09,2.003339502e-10,7.989483718e-10,2.212097990e-09,1.329797063e-09,1.681169148e-09,3.985458838e-10,2.536624828e-09,1.760291459e-10,3.459559923e-09,1.536576611e-09,2.348256026e-09,3.931384828e-09,1.590266377e-09,1.331574748e-09,2.469988726e-09,3.458418720e-09,5.422798105e-09,8.975132567e-10,3.013599461e-09,7.527172837e-09,1.165883166e-09,5.486735176e-09,6.040156133e-11,6.212445841e-11
0.0078125,9.024439460e-09,5.259072837e-09,2.299619574e-09,5.249372783e-10,9.354598271e-10,2.871775746e-09,1.289854564e-09,1.105440620e-09,2.000316675e-10,7.999233527e-10,2.209798246e-09,1.327715519e-09,1.680292142e-09,3.996163792e-10,2.538336750e-09,1.760658710e-10,3.461129696e-09,1.536223277e-09,2.346909723e-09,3.938293571e-09,1.588773043e-09,1.329584454e-09,2.470409207e-09,3.460403378e-09,5.427828664e-09,8.990241766e-10,3.015750950e-09,7.518262188e-09,1.168254692e-09,5.487968757e-09,6.038575685e-11,6.207188564e-11
0.015625,9.014097642e-09,5.254393422e-09,2.295877774e-09,5.237427895e-10,9.348650434e-10,2.864704665e-09,1.287351396e-09,1.103118427e-09,1.995799305e-10,8.002794127e-10,2.205806993e-09,1.324640596e-09,1.678110655e-09,4.003896671e-10,2.538067345e-09,1.759688207e-10,3.460013037e-09,1.534686108e-09,2.343756991e-09,3.942197278e-09,1.586087181e-09,1.326613238e-09,2.468915257e-09,3.459722176e-09,5.428670128e-09,8.998431299e-10,3.015593602e-09,7.503762473e-09,1.169849496e-09,5.484971330e-09,6.032962021e-11,6.197831624e-11
0.023438,8.996657461e-09,5.245582289e-09,2.290306584e-09,5.221533875e-10,9.335301721e-10,2.855470158e-09,1.283842586e-09,1.099954491e-09,1.989795313e-10,8.000003919e-10,2.200107653e-09,1.320573642e-09,1.674609379e-09,4.008489902e-10,2.535756081e-09,1.757307498e-10,3.456140803e-09,1.531945042e-09,2.338779532e-09,3.942983456e-09,1.582199061e-09,1.322665327e-09,2.465477404e-09,3.456288450e-09,5.425234361e-09,8.999507114e-10,3.013067168e-09,7.483687717e-09,1.170646226e-09,5.477687003e-09,6.023244716e-11,6.184509039e-11
0.03125,8.972002592e-09,5.232552962e-09,2.282876812e-09,5.201545462e-10,9.314357604e-10,2.844048099e-09,1.279315231e-09,1.095938367e-09,1.982294608e-10,7.990758506e-10,2.192679370e-09,1.315507396e-09,1.669766788e-09,4.009920765e-10,2.531368313e-09,1.753475271e-10,3.449447569e-09,1.527978159e-09,2.331952085e-09,3.940612557e-09,1.577095040e-09,1.317729688e-09,2.460066338e-09,3.450065936e-09,5.417413673e-09,8.993410612e-10,3.008118276e-09,7.457964294e-09,1.170652577e-09,5.466021074e-09,6.009433135e-11,6.167284406e-11
0.039062,8.940512655e-09,5.215501283e-09,2.273699202e-09,5.177629771e-10,9.286123131e-10,2.830513811e-09,1.273815118e-09,1.091103807e-09,1.973358368e-10,7.975286139e-10,2.183608876e-09,1.309489292e-09,1.663646761e-09,4.008338835e-10,2.525015871e-09,1.748295836e-10,3.440064270e-09,1.522845178e-09,2.323364320e-09,3.935222269e-09,1.570832671e-09,1.311848743e-09,2.452774273e-09,3.441207276e-09,5.405407362e-09,8.980438854e-10,3.000873038e-09,7.426850942e-09,1.169881677e-09,5.450186514e-09,5.991602836e-11,6.146146369e-11
0.046875,8.902150116e-09,5.194425225e-09,2.262740863e-09,5.149872171e-10,9.250635630e-10,2.814887982e-09,1.267339340e-09,1.085458118e-09,1.963000409e-10,7.953500831e-10,2.172913417e-09,1.302532416e-09,1.656258639e-09,4.003719524e-10,2.516697124e-09,1.741784354e-10,3.427990551e-09,1.516553968e-09,2.313024238e-09,3.926738431e-09,1.563415728e-09,1.305040399e-09,2.443597487e-09,3.429685016e-09,5.389242429e-09,8.960460023e-10,2.991324738e-09,7.390441336e-09,1.168322362e-09,5.430197445e-09,5.969782909e-11,6.121149726e-11
0.054688,8.856721865e-09,5.169222264e-09,2.249926734e-09,5.118145179e-10,9.207801956e-10,2.797144241e-09,1.259866173e-09,1.078990454e-09,1.951204479e-10,7.925311328e-10,2.160549446e-09,1.294616758e-09,1.647583929e-09,3.996017901e-10,2.506357878e-09,1.733882474e-10,3.413178979e-09,1.509083545e-09,2.300901001e-09,3.915108864e-09,1.554825244e-09,1.297293653e-09,2.432500188e-09,3.415420821e-09,5.368819161e-09,8.933371722e-10,2.979412062e-09,7.348614297e-09,1.165982290e-09,5.405954033e-09,5.944055747e-11,6.092353400e-11
0.0625,8.804673746e-09,5.140116870e-09,2.235396807e-09,5.082629637e-10,9.157983154e-10,2.777386943e-09,1.251448783e-09,1.071741685e-09,1.938047679e-10,7.890963989e-10,2.146576935e-09,1.285784080e-09,1.637688379e-09,3.985296597e-10,2.494078775e-09,1.724642985e-10,3.395767550e-09,1.500492895e-09,2.287092147e-09,3.900498247e-09,1.545134213e-09,1.288656531e-09,2.419582104e-09,3.398547407e-09,5.344293688e-09,8.899539561e-10,2.965254192e-09,7.301615075e-09,1.162877952e-09,5.377690912e-09,5.914488570e-11,6.059815043e-11
0.070312,8.746191124e-09,5.107206976e-09,2.219221878e-09,5.043522191e-10,9.101267062e-10,2.755671701e-09,1.242102461e-09,1.063726965e-09,1.923552822e-10,7.850469140e-10,2.131029948e-09,1.276057235e-09,1.626582310e-09,3.971542157e-10,2.479885784e-09,1.714091127e-10,3.375779271e-09,1.490795435e-09,2.271615952e-09,3.882899054e-09,1.534356095e-09,1.279149851e-09,2.404858302e-09,3.379109024e-09,5.315722648e-09,8.859001356e-10,2.948884580e-09,7.249595684e-09,1.159011783e-09,5.345502180e-09,5.881067550e-11,6.023627094e-11
0.078125,8.681206180e-09,5.070479926e-09,2.201380964e-09,5.000876823e-10,9.037669333e-10,2.732017833e-09,1.231833827e-09,1.054949588e-09,1.907700437e-10,7.803956127e-10,2.113930158e-09,1.265436822e-09,1.614252098e-09,3.954801773e-10,2.463786968e-09,1.702201245e-10,3.353194702e-09,1.479976137e-09,2.254446435e-09,3.862299807e-09,1.522465267e-09,1.268761212e-09,2.388315446e-09,3.357120893e-09,5.283127522e-09,8.811740807e-10,2.930292747e-09,7.192534738e-09,1.154400487e-09,5.309345294e-09,5.843888112e-11,5.983903692e-11
0.085938,8.610022952e-09,5.030119921e-09,2.181964860e-09,4.954877120e-10,8.967551169e-10,2.706552121e-09,1.220721366e-09,1.045462206e-09,1.890575227e-10,7.751831367e-10,2.095389078e-09,1.253979670e-09,1.600768978e-09,3.935197369e-10,2.445880627e-09,1.689039299e-10,3.328153230e-09,1.468092342e-09,2.235687167e-09,3.838859700e-09,1.509540803e-09,1.257536731e-09,2.370061172e-09,3.332714594e-09,5.246702373e-09,8.758021198e-10,2.909585807e-09,7.130717069e-09,1.149056817e-09,5.269388941e-09,5.803116343e-11,5.940821464e-11
0.09375,8.532754892e-09,4.986184089e-09,2.161016714e-09,4.905571565e-10,8.890967709e-10,2.679312321e-09,1.208789705e-09,1.035281378e-09,1.872234255e-10,7.694114167e-10,2.075451827e-09,1.241718081e-09,1.586169239e-09,3.912773167e-10,2.426205400e-09,1.674710770e-10,3.300724771e-09,1.455182217e-09,2.215395103e-09,3.812617009e-09,1.495629145e-09,1.245507946e-09,2.350129540e-09,3.305902661e-09,5.206490386e-09,8.697888399e-10,2.886791972e-09,7.064300673e-09,1.142984321e-09,5.225699522e-09,5.758826442e-11,5.894506300e-11
0.10156,8.449562687e-09,4.938759423e-09,2.138571677e-09,4.852994470e-10,8.808073656e-10,2.650317037e-09,1.196037102e-09,1.024411704e-09,1.852702905e-10,7.630887276e-10,2.054137661e-09,1.228668595e-09,1.570489401e-09,3.887643945e-10,2.404823483e-09,1.659318478e-10,3.270993920e-09,1.441289522e-09,2.193606591e-09,3.783650512e-09,1.480732522e-09,1.232692712e-09,2.328554218e-09,3.276745916e-09,5.162591013e-09,8.631558797e-10,2.861966948e-09,6.993334117e-09,1.136212037e-09,5.178370572e-09,5.711122503e-11,5.844943387e-11
0.10938,8.360862323e-09,4.888075736e-09,2.114728213e-09,4.797383953e-10,8.719291056e-10,2.619697008e-09,1.182509968e-09,1.012900495e-09,1.832063267e-10,7.562468313e-10,2.031526065e-09,1.214886123e-09,1.553805193e-09,3.859900355e-10,2.381831278e-09,1.642897729e-10,3.239090170e-09,1.426479042e-09,2.170420373e-09,3.752101344e-09,1.464911446e-09,1.219148085e-09,2.305444231e-09,3.245405336e-09,5.115227344e-09,8.559354773e-10,2.835237520e-09,6.918093896e-09,1.128759545e-09,5.127630186e-09,5.660128397e-11,5.792190829e-11
0.11719,8.266694453e-09,4.834152445e-09,2.089487684e-09,4.738814899e-10,8.624625507e-10,2.587487738e-09,1.168221291e-09,1.000763160e-09,1.810339880e-10,7.488876638e-10,2.007633892e-09,1.200384868e-09,1.536113437e-09,3.829508738e-10,2.357212998e-09,1.625372186e-10,3.204988245e-09,1.410738477e-09,2.145846031e-09,3.717949356e-09,1.448192547e-09,1.204890078e-09,2.280806482e-09,3.211881012e-09,5.064397447e-09,8.481234312e-10,2.806603621e-09,6.838694336e-09,1.120626730e-09,5.073502119e-09,5.605862722e-11,5.736439059e-11
0.125,8.167297295e-09,4.777134326e-09,2.062915843e-09,4.677400008e-10,8.524337823e-10,2.553739960e-09,1.153210831e-09,9.880251683e-10,1.787564009e-10,7.410349007e-10,1.982517899e-09,1.185184762e-09,1.517446482e-09,3.796591922e-10,2.331038411e-09,1.606768523e-10,3.168783681e-09,1.394097616e-09,2.119931562e-09,3.681319221e-09,1.430603641e-09,1.189936427e-09,2.254700721e-09,3.176268640e-09,5.010239434e-09,8.397507672e-10,2.776155440e-09,6.755313323e-09,1.111843926e-09,5.016142888e-09,5.548468056e-11,5.677833178e-11
0.13281,8.063161893e-09,4.717307582e-09,2.035159670e-09,4.613409220e-10,8.418955624e-10,2.518606371e-09,1.137553063e-09,9.747449330e-10,1.763832002e-10,7.327293165e-10,1.956298949e-09,1.169351102e-09,1.497904599e-09,3.761311650e-10,2.303452158e-09,1.587217785e-10,3.130682225e-09,1.376650776e-09,2.092807184e-09,3.642413693e-09,1.412219708e-09,1.174354026e-09,2.227267995e-09,3.138754003e-09,4.953033086e-09,8.308629066e-10,2.744056493e-09,6.668311105e-09,1.102448043e-09,4.955840138e-09,5.488269691e-11,5.616451936e-11
0.14062,7.954270750e-09,4.654667182e-09,2.006209818e-09,4.546858731e-10,8.308471511e-10,2.482110341e-09,1.121244254e-09,9.609269601e-10,1.739159625e-10,7.239716677e-10,1.928985984e-09,1.152896790e-09,1.477498910e-09,3.723681198e-10,2.274460215e-09,1.566744537e-10,3.090688087e-09,1.358407487e-09,2.064486400e-09,3.601221765e-09,1.393056939e-09,1.158161115e-09,2.198513393e-09,3.099318419e-09,4.892796528e-09,8.214568215e-10,2.710292621e-09,6.577706016e-09,1.092451647e-09,4.892580107e-09,5.425403718e-11,5.552371823e-11
0.14844,7.840900843e-09,4.589377160e-09,1.976120796e-09,4.477887122e-10,8.193184373e-10,2.444316406e-09,1.104319405e-09,9.465970248e-10,1.713587986e-10,7.147853831e-10,1.900627292e-09,1.135849406e-09,1.456268357e-09,3.683790196e-10,2.244127317e-09,1.545369021e-10,3.048887464e-09,1.339400383e-09,2.035029139e-09,3.557870854e-09,1.373160233e-09,1.141384060e-09,2.168501636e-09,3.058079623e-09,4.829714391e-09,8.115617353e-10,2.674958186e-09,6.483697393e-09,1.081865498e-09,4.826534582e-09,5.359791945e-11,5.485717519e-11
0.15625,7.723690909e-09,4.521792435e-09,1.945069467e-09,4.406876475e-10,8.073700466e-10,2.405413472e-09,1.086876036e-09,9.318286047e-10,1.687240722e-10,7.052131914e-10,1.871359217e-09,1.118287221e-09,1.434314449e-09,3.641763206e-10,2.212591594e-09,1.523163919e-10,3.005473832e-09,1.319717940e-09,2.004580554e-09,3.512569317e-09,1.352627118e-09,1.124097376e-09,2.137388544e-09,3.015275473e-09,4.764089742e-09,8.012232604e-10,2.638250059e-09,6.386807154e-09,1.070699753e-09,4.758079171e-09,5.291438525e-11,5.416645177e-11
0.16406,7.602690399e-09,4.451937973e-09,1.913080020e-09,4.333892495e-10,7.950034391e-10,2.365436590e-09,1.068921290e-09,9.166342890e-10,1.660139977e-10,6.952611397e-10,1.841208848e-09,1.100223619e-09,1.411650492e-09,3.597696823e-10,2.179878173e-09,1.500154222e-10,2.960472229e-09,1.299374023e-09,1.973153104e-09,3.465313167e-09,1.331463962e-09,1.106314156e-09,2.105186251e-09,2.970889357e-09,4.695905523e-09,7.904417258e-10,2.600167620e-09,6.287080187e-09,1.058973695e-09,4.687241485e-09,5.220441776e-11,5.345243853e-11
0.17188,7.478081458e-09,4.379935927e-09,1.880192366e-09,4.259019791e-10,7.822426397e-10,2.324427178e-09,1.050471265e-09,9.010322350e-10,1.632309454e-10,6.849530079e-10,1.810220061e-09,1.081678053e-09,1.388314828e-09,3.551763033e-10,2.146063081e-09,1.476406223e-10,2.913995024e-09,1.278410123e-09,1.940796764e-09,3.416222117e-09,1.309697816e-09,1.088053997e-09,2.071946944e-09,2.924987019e-09,4.625307221e-09,7.792462132e-10,2.560778859e-09,6.184595411e-09,1.046720645e-09,4.614134786e-09,5.146904098e-11,5.271638620e-11
0.17969,7.350444271e-09,4.306116316e-09,1.846558399e-09,4.182588016e-10,7.691471888e-10,2.282561373e-09,1.031614374e-09,8.850899664e-10,1.603869332e-10,6.743297563e-10,1.778518464e-09,1.062730729e-09,1.364406418e-09,3.504032953e-10,2.111275305e-09,1.452006878e-10,2.866236190e-09,1.256914061e-09,1.907657255e-09,3.365504592e-09,1.287428763e-09,1.069395830e-09,2.037818098e-09,2.877797028e-09,4.552639529e-09,7.676827409e-10,2.520274495e-09,6.079846264e-09,1.033959244e-09,4.539097530e-09,5.070961867e-11,5.196062895e-11
0.1875,7.219961463e-09,4.230569795e-09,1.812230928e-09,4.104686197e-10,7.557315651e-10,2.239913132e-09,1.012384830e-09,8.688334908e-10,1.574875816e-10,6.634075424e-10,1.746153238e-09,1.043414733e-09,1.339954452e-09,3.454539303e-10,2.075562158e-09,1.426970053e-10,2.817232035e-09,1.234904130e-09,1.873771709e-09,3.313198679e-09,1.264678514e-09,1.050368373e-09,2.002844003e-09,2.829369616e-09,4.477996474e-09,7.557621087e-10,2.478701265e-09,5.972981022e-09,1.020713751e-09,4.462232151e-09,4.992832569e-11,5.118635525e-11
0.19531,7.086801777e-09,4.153410938e-09,1.777254429e-09,4.025374752e-10,7.420172348e-10,2.196538143e-09,9.928050684e-10,8.522845836e-10,1.545364860e-10,6.522095803e-10,1.713174799e-09,1.023753088e-09,1.315003071e-09,3.403446328e-10,2.039003007e-09,1.401340473e-10,2.767080824e-09,1.212420002e-09,1.839192117e-09,3.259416614e-09,1.241472672e-09,1.030993985e-09,1.967086442e-09,2.779784956e-09,4.401500065e-09,7.435115731e-10,2.436115590e-09,5.864049911e-09,1.007028817e-09,4.383634249e-09,4.912833657e-11,5.039394488e-11
0.20312,6.951354306e-09,4.074883622e-09,1.741737422e-09,3.944940299e-10,7.280474239e-10,2.152571659e-09,9.729377285e-10,8.354954001e-10,1.515421475e-10,6.407600790e-10,1.679677647e-09,1.003806987e-09,1.289638128e-09,3.350837420e-10,2.001686663e-09,1.375197012e-10,2.715951238e-09,1.189542908e-09,1.804046841e-09,3.204328978e-09,1.217911843e-09,1.011343244e-09,1.930665308e-09,2.729243588e-09,4.323373537e-09,7.309656553e-10,2.392651495e-09,5.753436290e-09,9.929296795e-10,4.303524778e-09,4.831198134e-11,4.958526862e-11
0.21094,6.813905447e-09,3.995147080e-09,1.705755445e-09,3.863608046e-10,7.138501424e-10,2.108097390e-09,9.528267335e-10,8.184991007e-10,1.485099475e-10,6.290806882e-10,1.645728043e-09,9.836162505e-10,1.263907510e-09,3.296821966e-10,1.963686099e-09,1.348620011e-10,2.663946551e-09,1.166318684e-09,1.768407896e-09,3.148041537e-09,1.194054398e-09,9.914586580e-10,1.893653664e-09,2.677847402e-09,4.243766150e-09,7.181487501e-10,2.348407707e-09,5.641419863e-09,9.784371056e-10,4.222080961e-09,4.747939678e-11,4.876252582e-11
0.21875,6.674794811e-09,3.914393975e-09,1.669388588e-09,3.781544500e-10,6.994620166e-10,2.063199956e-09,9.325093183e-10,8.013288398e-10,1.454460812e-10,6.172097469e-10,1.611412737e-09,9.632193049e-10,1.237868395e-09,3.241639092e-10,1.925131664e-09,1.321719274e-10,2.611209369e-09,1.142805105e-09,1.732347699e-09,3.090714393e-09,1.169932417e-09,9.713693132e-10,1.856140994e-09,2.625674950e-09,4.162892707e-09,7.051010884e-10,2.303499082e-09,5.528180951e-09,9.635896263e-10,4.139512876e-09,4.663151376e-11,4.792725652e-11
0.22656,6.534266154e-09,3.832768806e-09,1.632706500e-09,3.698901650e-10,6.849066174e-10,2.017981096e-09,9.120196374e-10,7.840190400e-10,1.423576690e-10,6.051622799e-10,1.576797987e-09,9.426589067e-10,1.211568771e-09,3.185318315e-10,1.886073812e-09,1.294514822e-10,2.557818832e-09,1.119045390e-09,1.695935056e-09,3.032432996e-09,1.145589965e-09,9.511163058e-10,1.818191496e-09,2.572810262e-09,4.080901221e-09,6.918396471e-10,2.257995667e-09,5.413949506e-09,9.484103292e-10,4.055946682e-09,4.577108260e-11,4.708135138e-11
0.23438,6.392548990e-09,3.750397694e-09,1.595776796e-09,3.615825805e-10,6.702043288e-10,1.972517239e-09,8.913966727e-10,7.665978659e-10,1.392485782e-10,5.929509883e-10,1.541924432e-09,9.219637018e-10,1.185040285e-09,3.127865532e-10,1.846538677e-09,1.266986872e-10,2.503822597e-09,1.095057529e-09,1.659212264e-09,2.973261938e-09,1.121062691e-09,9.307302065e-10,1.779847521e-09,2.519350622e-09,3.997906174e-09,6.783786670e-10,2.211961019e-09,5.298931460e-09,9.329210581e-10,3.971516052e-09,4.489953466e-11,4.622661532e-11
0.24219,6.250102740e-09,3.667539878e-09,1.558703700e-09,3.532533293e-10,6.554081232e-10,1.926914100e-09,8.707019061e-10,7.491114124e-10,1.361259710e-10,5.806207864e-10,1.506889228e-09,9.011842550e-10,1.158360285e-09,3.069509457e-10,1.806671059e-09,1.239234000e-10,2.449398191e-09,1.070907192e-09,1.622275154e-09,2.913405770e-09,1.096406075e-09,9.102544457e-10,1.741226192e-09,2.465464026e-09,3.914163021e-09,6.647694631e-10,2.165547987e-09,5.183388706e-09,9.171678698e-10,3.886516999e-09,4.401797421e-11,4.536436957e-11
0.25,6.107081480e-09,3.584287851e-09,1.521514069e-09,3.449103527e-10,6.405374820e-10,1.881230977e-09,8.499531306e-10,7.315830423e-10,1.329964012e-10,5.681869600e-10,1.471743692e-09,8.803580352e-10,1.131572084e-09,3.010350388e-10,1.766535748e-09,1.211329428e-10,2.394628841e-09,1.046636672e-09,1.585183525e-09,2.852946919e-09,1.071659857e-09,8.897247297e-10,1.702387673e-09,2.411213602e-09,3.829758579e-09,6.510308390e-10,2.118810514e-09,5.067469669e-09,9.011869382e-10,3.801038974e-09,4.312931952e-11,4.449592114e-11
0.25781,5.963582784e-09,3.500701649e-09,1.484245026e-09,3.365599019e-10,6.255956119e-10,1.835513413e-09,8.291650328e-10,7.140272525e-10,1.298627273e-10,5.556569475e-10,1.436512230e-09,8.595018751e-10,1.104693885e-09,2.950433761e-10,1.726153133e-09,1.183284779e-10,2.339548122e-09,1.022262880e-09,1.547967553e-09,2.791923101e-09,1.046850965e-09,8.691639095e-10,1.663358404e-09,2.356640599e-09,3.744759066e-09,6.371683091e-10,2.071776112e-09,4.951299880e-09,8.849986229e-10,3.715132564e-09,4.223519086e-11,4.362250449e-11
0.26562,5.820142608e-09,3.417091684e-09,1.447043841e-09,3.282309706e-10,6.106348543e-10,1.789901956e-09,8.084169522e-10,6.964990812e-10,1.267314046e-10,5.430796455e-10,1.401305285e-09,8.386669551e-10,1.077804589e-09,2.889958203e-10,1.685659514e-09,1.155166016e-10,2.284344938e-09,9.978595907e-10,1.510740032e-09,2.730561802e-09,1.022051031e-09,8.486217051e-10,1.624270364e-09,2.301942200e-09,3.659501840e-09,6.232327603e-10,2.024621055e-09,4.835238284e-09,8.686335312e-10,3.629136435e-09,4.133553881e-11,4.274561712e-11
0.27344,5.676957025e-09,3.333575219e-09,1.409948387e-09,3.199366266e-10,5.956806526e-10,1.744459122e-09,7.877406980e-10,6.790243535e-10,1.236066355e-10,5.304765787e-10,1.366171166e-09,8.178840447e-10,1.050940042e-09,2.828999704e-10,1.645104160e-09,1.126992683e-10,2.229096061e-09,9.734621091e-10,1.473556320e-09,2.668974268e-09,9.972978296e-10,8.281246516e-10,1.585187676e-09,2.247208786e-09,3.574126613e-09,6.092493784e-10,1.977421795e-09,4.719439467e-09,8.521267185e-10,3.543175503e-09,4.043207233e-11,4.186689424e-11
0.28125,5.533972884e-09,3.250128078e-09,1.372936470e-09,3.116737551e-10,5.807300985e-10,1.699181530e-09,7.671244068e-10,6.616018986e-10,1.204903924e-10,5.178471389e-10,1.331107178e-09,7.971603407e-10,1.024108599e-09,2.767623251e-10,1.604491408e-09,1.098791115e-10,2.173805321e-09,9.490764961e-10,1.436422051e-09,2.607165160e-09,9.725956898e-10,8.076812851e-10,1.546108820e-09,2.192434175e-09,3.488612562e-09,5.952188497e-10,1.930164622e-09,4.603890535e-09,8.355034682e-10,3.457210590e-09,3.952650249e-11,4.098736009e-11
0.28906,5.391625696e-09,3.166999783e-09,1.336122370e-09,3.034612359e-10,5.658267740e-10,1.654185855e-09,7.466207814e-10,6.442769323e-10,1.173917009e-10,5.052274779e-10,1.296217870e-09,7.765537411e-10,9.974020211e-10,2.706081338e-10,1.563970323e-09,1.070710838e-10,2.118665149e-09,9.247884621e-10,1.399453453e-09,2.545317248e-09,9.480125778e-10,7.873512100e-10,1.507149077e-09,2.137772170e-09,3.403212346e-09,5.811805789e-10,1.882984645e-09,4.488916346e-09,8.187812386e-10,3.371509700e-09,3.861879312e-11,4.010780426e-11
0.29688,5.250216341e-09,3.084356664e-09,1.299577402e-09,2.953130721e-10,5.510017156e-10,1.609545404e-09,7.262702209e-10,6.270798460e-10,1.143163055e-10,4.926433721e-10,1.261570985e-09,7.561039495e-10,9.708724144e-10,2.644502832e-10,1.523627649e-09,1.042807383e-10,2.063791606e-09,9.006493560e-10,1.362726789e-09,2.483568174e-09,9.235976671e-10,7.671736838e-10,1.468390629e-09,2.083344962e-09,3.318113348e-09,5.671654071e-10,1.835993469e-09,4.374746619e-09,8.019846030e-10,3.286261603e-09,3.771063774e-11,3.922914185e-11
0.30469,5.109698753e-09,3.002182761e-09,1.263288447e-09,2.872298681e-10,5.362525154e-10,1.565242534e-09,7.060674404e-10,6.100064666e-10,1.112628662e-10,4.800970626e-10,1.227151708e-09,7.358013077e-10,9.444987017e-10,2.582881077e-10,1.483445797e-09,1.015015688e-10,2.009156327e-09,8.766374395e-10,1.326219398e-09,2.421919128e-09,8.993403038e-10,7.471368150e-10,1.429820676e-09,2.029149612e-09,3.233307051e-09,5.531788691e-10,1.789197223e-09,4.261321521e-09,7.851472496e-10,3.201441470e-09,3.680493039e-11,3.835275611e-11
0.3125,4.970309069e-09,2.920635447e-09,1.227329748e-09,2.792287408e-10,5.216053510e-10,1.521365099e-09,6.860468989e-10,5.930891758e-10,1.082357508e-10,4.676116929e-10,1.193023089e-09,7.156757618e-10,9.183215054e-10,2.521320570e-10,1.443498959e-09,9.873809925e-11,1.954857837e-09,8.527891377e-10,1.289986300e-09,2.360468218e-09,8.752733727e-10,7.272674026e-10,1.391500092e-09,1.975257548e-09,3.148928895e-09,5.392435370e-10,1.742662974e-09,4.148819643e-09,7.682926384e-10,3.117198532e-09,3.590210190e-11,3.748083160e-11
0.32031,4.832354595e-09,2.839888529e-09,1.191782772e-09,2.713231329e-10,5.070899173e-10,1.478010269e-09,6.662541189e-10,5.763634166e-10,1.052409009e-10,4.552158051e-10,1.159263035e-09,6.957711818e-10,8.924043972e-10,2.459964474e-10,1.403883205e-09,9.600026764e-11,1.901030648e-09,8.291666040e-10,1.254114535e-09,2.299370752e-09,8.514496705e-10,7.076091053e-10,1.353517079e-09,1.921790593e-09,3.065160131e-09,5.253865454e-10,1.696480439e-09,4.037493550e-09,7.514454777e-10,3.033720241e-09,3.500248613e-11,3.661448045e-11
0.32812,4.695936985e-09,2.759986628e-09,1.156661262e-09,2.635117263e-10,4.927149039e-10,1.435175307e-09,6.467024857e-10,5.598303117e-10,1.022787674e-10,4.429223514e-10,1.125882483e-09,6.760921834e-10,8.667649113e-10,2.398896471e-10,1.364628522e-09,9.329064969e-11,1.847716020e-09,8.057868824e-10,1.218627831e-09,2.238716598e-09,8.278859062e-10,6.881701281e-10,1.315902984e-09,1.868835389e-09,2.982091781e-09,5.116276937e-10,1.650706954e-09,3.927390592e-09,7.346467948e-10,2.951081258e-09,3.410868193e-11,3.575318722e-11
0.33594,4.561165462e-09,2.681003162e-09,1.121982995e-09,2.558036332e-10,4.784960812e-10,1.392883017e-09,6.274007467e-10,5.434994791e-10,9.935131612e-11,4.307374582e-10,1.092898760e-09,6.566485460e-10,8.414217212e-10,2.338156209e-10,1.325757242e-09,9.060928716e-11,1.794950643e-09,7.826659823e-10,1.183552736e-09,2.178550337e-09,8.046046058e-10,6.689652197e-10,1.278693551e-09,1.816444045e-09,2.899823480e-09,4.979849839e-10,1.605403452e-09,3.818617705e-09,7.179214813e-10,2.869381191e-09,3.322231617e-11,3.489758109e-11
0.34375,4.428214619e-09,2.603052398e-09,1.087785055e-09,2.482130176e-10,4.644566819e-10,1.351201421e-09,6.083657488e-10,5.273971407e-10,9.646344053e-11,4.186758765e-10,1.060357073e-09,6.374698992e-10,8.164116602e-10,2.277821146e-10,1.287321959e-09,8.795817762e-11,1.742804982e-09,7.598367226e-10,1.148941114e-09,2.118940585e-09,7.816403955e-10,6.500249018e-10,1.241949254e-09,1.764651868e-09,2.818474841e-09,4.844757414e-10,1.560630654e-09,3.711341719e-09,7.012758712e-10,2.788734324e-09,3.234315298e-11,3.404932792e-11
0.35156,4.297268842e-09,2.526236641e-09,1.054115729e-09,2.407446745e-10,4.506156768e-10,1.310168661e-09,5.896234794e-10,5.115413523e-10,9.361807297e-11,4.067639746e-10,1.028302928e-09,6.185760946e-10,7.917668564e-10,2.218048229e-10,1.249400785e-09,8.534267689e-11,1.691365861e-09,7.373301099e-10,1.114834031e-09,2.060003423e-09,7.590113636e-10,6.313638226e-10,1.205719144e-09,1.713531413e-09,2.738157273e-09,4.711230154e-10,1.516448828e-09,3.605629897e-09,6.847309045e-10,2.709237288e-09,3.147155521e-11,3.320897720e-11
0.35938,4.168380861e-09,2.450590074e-09,1.021000722e-09,2.333994383e-10,4.369789910e-10,1.269792903e-09,5.711898698e-10,4.959357628e-10,9.081555590e-11,3.950101007e-10,9.967486839e-10,5.999702802e-10,7.674959837e-10,2.158892447e-10,1.212018495e-09,8.276659128e-11,1.640670629e-09,7.151592195e-10,1.081242524e-09,2.001789057e-09,7.367200260e-10,6.129832920e-10,1.170011609e-09,1.663135885e-09,2.658917724e-09,4.579379387e-10,1.472881226e-09,3.501511873e-09,6.683064891e-10,2.630927528e-09,3.060831811e-11,3.237705399e-11
0.36719,4.041576906e-09,2.376140192e-09,9.884515742e-10,2.261825280e-10,4.235530313e-10,1.230107226e-09,5.530737324e-10,4.805912767e-10,8.805741396e-11,3.834154897e-10,9.656978678e-10,5.816625850e-10,7.436097606e-10,2.100324091e-10,1.175169469e-09,8.022877104e-11,1.590729252e-09,6.933315339e-10,1.048182201e-09,1.944308520e-09,7.147815978e-10,5.948955507e-10,1.134842995e-09,1.613484446e-09,2.580806431e-09,4.449234539e-10,1.429943789e-09,3.399069855e-09,6.520062172e-10,2.553820322e-09,2.975397245e-11,3.155453031e-11
0.375,3.917076125e-09,2.303012824e-09,9.565204711e-10,2.191037350e-10,4.103628879e-10,1.191174475e-09,5.353022443e-10,4.655348558e-10,8.534788439e-11,3.720064724e-10,9.352048459e-10,5.636815308e-10,7.201482099e-10,2.042436724e-10,1.138923649e-09,7.773117944e-11,1.541621099e-09,6.718764780e-10,1.015704735e-09,1.887661696e-09,6.932311520e-10,5.771246486e-10,1.100276770e-09,1.564652963e-09,2.503962769e-09,4.321004864e-10,1.387709849e-09,3.298432023e-09,6.358432171e-10,2.478026859e-09,2.890937380e-11,3.074137604e-11
0.38281,3.794948738e-09,2.231249459e-09,9.252268810e-10,2.121642145e-10,3.974172322e-10,1.152994517e-09,5.178805754e-10,4.507691360e-10,8.268809881e-11,3.607945912e-10,9.052965818e-10,5.460349603e-10,6.971239667e-10,1.985311757e-10,1.103322449e-09,7.527734756e-11,1.493391233e-09,6.508096348e-10,9.838273831e-10,1.831910407e-09,6.720755594e-10,5.596745078e-10,1.066330663e-09,1.516681215e-09,2.428425274e-09,4.194811659e-10,1.346204873e-09,3.199624125e-09,6.198398545e-10,2.403595767e-09,2.807528102e-11,2.993782113e-11
0.39062,3.675105753e-09,2.160810829e-09,8.945561544e-10,2.053599584e-10,3.847074456e-10,1.115541751e-09,5.007984492e-10,4.362832421e-10,8.007733378e-11,3.497707294e-10,8.759513480e-10,5.287167888e-10,6.745309482e-10,1.928962714e-10,1.068344730e-09,7.286756571e-11,1.446026950e-09,6.301301128e-10,9.525427415e-10,1.777049145e-09,6.513072346e-10,5.425431745e-10,1.032993650e-09,1.469555759e-09,2.354169053e-09,4.070640188e-10,1.305411609e-09,3.102625656e-09,6.040092784e-10,2.330492815e-09,2.725244326e-11,2.914537988e-11
0.39844,3.557739898e-09,2.091812703e-09,8.645616871e-10,1.986999679e-10,3.722523953e-10,1.078880684e-09,4.840874517e-10,4.221012977e-10,7.752008316e-11,3.389532976e-10,8.472128216e-10,5.117541794e-10,6.524104523e-10,1.873513745e-10,1.034050324e-09,7.050632934e-11,1.399600968e-09,6.098699685e-10,9.219020244e-10,1.723155272e-09,6.309581317e-10,5.257572170e-10,1.000326220e-09,1.423348778e-09,2.281321797e-09,3.948680617e-10,1.265399887e-09,3.007566775e-09,5.883616130e-10,2.258829781e-09,2.644210230e-11,2.836466467e-11
0.40625,3.442997353e-09,2.024339539e-09,8.352638072e-10,1.921939164e-10,3.600695017e-10,1.043056141e-09,4.677618002e-10,4.082404665e-10,7.501904565e-11,3.283577537e-10,8.191224655e-10,4.951644085e-10,6.307836951e-10,1.819033564e-10,1.000492119e-09,6.819782302e-11,1.354167821e-09,5.900486329e-10,8.919346463e-10,1.670287943e-09,6.110474446e-10,5.093286015e-10,9.683643640e-10,1.378110235e-09,2.209963158e-09,3.829078317e-10,1.226220055e-09,2.914524779e-09,5.729095804e-10,2.188692316e-09,2.564497757e-11,2.759514130e-11
0.41406,3.330759654e-09,1.958326485e-09,8.066120443e-10,1.858392990e-10,3.481503266e-10,1.008030324e-09,4.517983021e-10,3.946862793e-10,7.257127908e-11,3.179715336e-10,7.916470247e-10,4.789314900e-10,6.096253684e-10,1.765429215e-10,9.676299358e-10,6.593848572e-11,1.309689941e-09,5.706492548e-10,8.626147887e-10,1.618427721e-09,5.915623638e-10,4.932434999e-10,9.370810576e-10,1.333807035e-09,2.140056023e-09,3.711784640e-10,1.187845288e-09,2.823445179e-09,5.576640780e-10,2.120016280e-09,2.486132849e-11,2.683722089e-11
0.42188,3.221106173e-09,1.893813863e-09,7.786482477e-10,1.796349168e-10,3.365002935e-10,9.738176566e-10,4.362184318e-10,3.814445183e-10,7.017781022e-11,3.077988730e-10,7.647978468e-10,4.630645491e-10,5.889505225e-10,1.712715437e-10,9.354751430e-10,6.372796427e-11,1.266195011e-09,5.516839929e-10,8.339642151e-10,1.567615900e-09,5.725208497e-10,4.775148990e-10,9.064991913e-10,1.290482065e-09,2.071667080e-09,3.596890792e-10,1.150302630e-09,2.734408304e-09,5.426350198e-10,2.052851985e-09,2.409164503e-11,2.609171274e-11
0.42969,3.114203429e-09,1.830892254e-09,7.514424781e-10,1.735844343e-10,3.251336788e-10,9.404594042e-10,4.210480427e-10,3.685307812e-10,6.784150854e-11,2.978560141e-10,7.386130270e-10,4.475791245e-10,5.687857143e-10,1.661003172e-10,9.040785578e-10,6.157010872e-11,1.223740971e-09,5.331734143e-10,8.060121699e-10,1.517908342e-09,5.539384935e-10,4.621586764e-10,8.766516857e-10,1.248198621e-09,2.004855187e-09,3.484527215e-10,1.113634624e-09,2.647498009e-09,5.278311914e-10,1.987305964e-09,2.333565180e-11,2.535847390e-11
0.4375,3.009985633e-09,1.769535301e-09,7.249490778e-10,1.676914642e-10,3.140482783e-10,9.079391411e-10,4.062617907e-10,3.559400385e-10,6.556094852e-11,2.881401334e-10,7.130674641e-10,4.324618385e-10,5.491174725e-10,1.610282366e-10,8.734269966e-10,5.946352316e-11,1.182307873e-09,5.151061254e-10,7.787384466e-10,1.469289008e-09,5.357970865e-10,4.471639536e-10,8.475207786e-10,1.206930690e-09,1.939575629e-09,3.374652013e-10,1.077825371e-09,2.562647425e-09,5.132568828e-10,1.923342123e-09,2.259311014e-11,2.463763959e-11
0.44531,2.908388030e-09,1.709716757e-09,6.991247655e-10,1.619571327e-10,3.032400972e-10,8.762508003e-10,3.918535211e-10,3.436707837e-10,6.333595539e-11,2.786463743e-10,6.881521289e-10,4.177126021e-10,5.299414039e-10,1.560510580e-10,8.435063182e-10,5.740696133e-11,1.141876458e-09,4.974799956e-10,7.521433224e-10,1.421743929e-09,5.181017210e-10,4.325316036e-10,8.191040470e-10,1.166654373e-09,1.875835822e-09,3.267228282e-10,1.042865823e-09,2.479864078e-09,4.989155062e-10,1.860923749e-09,2.186525269e-11,2.393014775e-11
0.45312,2.809480714e-09,1.651472702e-09,6.740186072e-10,1.563785348e-10,2.927132500e-10,8.454175291e-10,3.778495804e-10,3.317295675e-10,6.116809578e-11,2.693824713e-10,6.639009400e-10,4.033460403e-10,5.112714370e-10,1.511747509e-10,8.143411336e-10,5.540279363e-11,1.102473246e-09,4.803100953e-10,7.262504922e-10,1.375308467e-09,5.008740995e-10,4.182728526e-10,7.914266262e-10,1.127396024e-09,1.813690544e-09,3.162337923e-10,1.008777828e-09,2.399213034e-09,4.848156349e-10,1.800104817e-09,2.115243840e-11,2.323620939e-11
0.46094,2.713317772e-09,1.594830851e-09,6.496598531e-10,1.509567556e-10,2.824738445e-10,8.154427008e-10,3.642505402e-10,3.201175441e-10,5.905655624e-11,2.603558005e-10,6.403142702e-10,3.893598284e-10,4.931100666e-10,1.464062203e-10,7.859450697e-10,5.345112477e-11,1.064120650e-09,4.636001790e-10,7.010606483e-10,1.330022889e-09,4.841092891e-10,4.043843865e-10,7.644979544e-10,1.089185571e-09,1.753161526e-09,3.060062863e-10,9.755832285e-10,2.320671229e-09,4.709644315e-10,1.740916782e-09,2.045338859e-11,2.255536167e-11
0.46875,2.619829581e-09,1.539758910e-09,6.260006624e-10,1.456933965e-10,2.725183778e-10,7.863086951e-10,3.510350748e-10,3.088299517e-10,5.700049081e-11,2.515595400e-10,6.173661234e-10,3.757469334e-10,4.754481507e-10,1.417437306e-10,7.583023460e-10,5.155158327e-11,1.026801630e-09,4.473427752e-10,6.765584796e-10,1.285866034e-09,4.677920291e-10,3.908602168e-10,7.382983333e-10,1.052009811e-09,1.694219787e-09,2.960350896e-10,9.432709196e-10,2.244207092e-09,4.573637622e-10,1.683314128e-09,1.976836326e-11,2.188768270e-11
0.47656,2.528943629e-09,1.486221241e-09,6.030153240e-10,1.405826393e-10,2.628384712e-10,7.580051608e-10,3.381967631e-10,2.978614345e-10,5.500068759e-11,2.429850802e-10,5.950560735e-10,3.625092951e-10,4.582816989e-10,1.371850742e-10,7.314041510e-10,4.970605521e-11,9.904977020e-10,4.315363079e-10,6.527395706e-10,1.242809867e-09,4.519243344e-10,3.777017242e-10,7.128160520e-10,1.015839120e-09,1.636839158e-09,2.863157703e-10,9.118199635e-10,2.169827590e-09,4.440237310e-10,1.627272917e-09,1.909912894e-11,2.123361409e-11
0.48438,2.440746518e-09,1.434259707e-09,5.807398032e-10,1.356234941e-10,2.534398122e-10,7.305438039e-10,3.257469034e-10,2.872164451e-10,5.305795977e-11,2.346413428e-10,5.734046009e-10,3.496524545e-10,4.416235906e-10,1.327344553e-10,7.052736660e-10,4.791479939e-11,9.552359560e-10,4.161910880e-10,6.296201361e-10,1.200898601e-09,4.365206387e-10,3.649144474e-10,6.880769808e-10,9.807038601e-10,1.581074706e-09,2.768584014e-10,8.812545087e-10,2.097553763e-09,4.309582018e-10,1.572849520e-09,1.844628880e-11,2.059346295e-11
0.49219,2.355237646e-09,1.383861766e-09,5.591655699e-10,1.308163391e-10,2.443219080e-10,7.039061022e-10,3.136819569e-10,2.768921291e-10,5.117118539e-11,2.265323853e-10,5.524023315e-10,3.371699505e-10,4.254674333e-10,1.283922881e-10,6.799039089e-10,4.617538215e-11,9.210069903e-10,4.012985234e-10,6.071897193e-10,1.160127294e-09,4.215711320e-10,3.524925308e-10,6.640714370e-10,9.466123319e-10,1.526919173e-09,2.676592350e-10,8.515690821e-10,2.027358153e-09,4.181652629e-10,1.520029578e-09,1.780947417e-11,1.996708203e-11
0.5,2.272266073e-09,1.334943599e-09,5.382466653e-10,1.261535444e-10,2.354699684e-10,6.780478003e-10,3.019841009e-10,2.668724218e-10,4.933826793e-11,2.186467077e-10,5.320185325e-10,3.250469132e-10,4.097857165e-10,1.241546040e-10,6.552550657e-10,4.448686890e-11,8.877610439e-10,3.868366368e-10,5.854139596e-10,1.120432542e-09,4.070500704e-10,3.404210614e-10,6.407550126e-10,9.134966826e-10,1.474269380e-09,2.587036561e-10,8.227129215e-10,1.959164063e-09,4.056434301e-10,1.468737121e-09,1.718886047e-11,1.935384287e-11
0.50781,2.191885333e-09,1.287548352e-09,5.180026627e-10,1.216364737e-10,2.268889181e-10,6.529881431e-10,2.906573276e-10,2.571613230e-10,4.755985251e-11,2.109864831e-10,5.122617323e-10,3.132882479e-10,3.945879301e-10,1.200248798e-10,6.313437153e-10,4.285140507e-11,8.555255689e-10,3.728170097e-10,5.643072260e-10,1.081848414e-09,3.929668261e-10,3.287050174e-10,6.181488348e-10,8.813571136e-10,1.423158828e-09,2.500020031e-10,7.947113084e-10,1.892987371e-09,3.934109402e-10,1.419024244e-09,1.658544747e-11,1.875394179e-11
0.51562,2.114154938e-09,1.241710673e-09,4.984425049e-10,1.172703354e-10,2.185843549e-10,6.287430719e-10,2.797014396e-10,2.477634769e-10,4.583621529e-11,2.035552782e-10,4.931361306e-10,3.018966994e-10,3.798816386e-10,1.160055302e-10,6.081836314e-10,4.126878177e-11,8.243106430e-10,3.592438880e-10,5.438762032e-10,1.044395318e-09,3.793270309e-10,3.173469213e-10,5.962667864e-10,8.502265153e-10,1.373644856e-09,2.415626716e-10,7.675924339e-10,1.828853306e-09,3.814810047e-10,1.370928127e-09,1.599991534e-11,1.816839020e-11
0.52344,2.038906906e-09,1.197324025e-09,4.795129565e-10,1.130470021e-10,2.105396632e-10,6.052563262e-10,2.690908536e-10,2.386582069e-10,4.416432292e-11,1.963381771e-10,4.745997125e-10,2.908502576e-10,3.656320568e-10,1.120890200e-10,5.857211591e-10,3.973445784e-11,7.940371107e-10,3.460829693e-10,5.240718575e-10,1.007994203e-09,3.660982272e-10,3.063249271e-10,5.750542411e-10,8.200478016e-10,1.325629880e-09,2.333700340e-10,7.412988527e-10,1.766667705e-09,3.698440317e-10,1.324357560e-09,1.543146027e-11,1.759695378e-11
0.53125,1.966118778e-09,1.154368256e-09,4.612067938e-10,1.089613638e-10,2.027523558e-10,5.825125451e-10,2.588219455e-10,2.298405146e-10,4.254392262e-11,1.893299465e-10,4.566436468e-10,2.801454901e-10,3.518343996e-10,1.082725349e-10,5.639428876e-10,3.824704506e-11,7.646964839e-10,3.333302828e-10,5.048892461e-10,9.726410255e-10,3.532768702e-10,2.956368095e-10,5.545043221e-10,7.907902824e-10,1.279073882e-09,2.254185999e-10,7.158133668e-10,1.706402574e-09,3.584874847e-10,1.279303239e-09,1.487908398e-11,1.703866610e-11
0.53906,1.895846876e-09,1.112873516e-09,4.435360786e-10,1.050138263e-10,1.952267575e-10,5.605258812e-10,2.489008767e-10,2.213160765e-10,4.097630810e-11,1.825363862e-10,4.392857331e-10,2.697906003e-10,3.385029335e-10,1.045616851e-10,5.428769951e-10,3.680942311e-11,7.363222654e-10,3.210014101e-10,4.863475995e-10,9.383721519e-10,3.408766847e-10,2.852911256e-10,5.346368628e-10,7.624809905e-10,1.234010396e-09,2.177112304e-10,6.911570883e-10,1.648086436e-09,3.474090758e-10,1.235790132e-09,1.434262344e-11,1.649376352e-11
0.54688,1.827949116e-09,1.072761336e-09,4.264647111e-10,1.011979653e-10,1.879479561e-10,5.392563257e-10,2.393086276e-10,2.130683096e-10,3.945828957e-11,1.759531131e-10,4.225005080e-10,2.597655212e-10,3.256113892e-10,1.009565343e-10,5.224998583e-10,3.542097297e-11,7.088685632e-10,3.090745158e-10,4.684097844e-10,9.051415062e-10,3.288725389e-10,2.752677644e-10,5.154168963e-10,7.350937367e-10,1.190389306e-09,2.102412182e-10,6.672981845e-10,1.591636080e-09,3.366059765e-10,1.193738664e-09,1.382128992e-11,1.596275568e-11
0.55469,1.762346592e-09,1.033991585e-09,4.099773373e-10,9.751225312e-11,1.809090907e-10,5.186891086e-10,2.300378387e-10,2.050901414e-10,3.798736997e-11,1.695753733e-10,4.062640706e-10,2.500569361e-10,3.131422138e-10,9.745157805e-11,5.027782794e-10,3.407819395e-11,6.823042296e-10,2.975320829e-10,4.510532154e-10,8.729174824e-10,3.172490138e-10,2.655539406e-10,4.968242486e-10,7.085918479e-10,1.148171611e-09,2.030044280e-10,6.442091789e-10,1.536994747e-09,3.260691235e-10,1.153103084e-09,1.331418788e-11,1.544543174e-11
0.5625,1.699038759e-09,9.965650885e-10,3.940763960e-10,9.395779164e-11,1.741125943e-10,4.988334492e-10,2.210919929e-10,1.973871172e-10,3.656428838e-11,1.634018573e-10,3.905764926e-10,2.406703386e-10,3.011012348e-10,9.404637911e-11,4.837098820e-10,3.278083212e-11,6.566385256e-10,2.863788222e-10,4.342880475e-10,8.417121976e-10,3.060147578e-10,2.561546971e-10,4.788608584e-10,6.829738965e-10,1.107351478e-09,1.959974915e-10,6.218824854e-10,1.484166366e-09,3.157944563e-10,1.113870116e-09,1.282169784e-11,1.494157312e-11
0.57031,1.637910970e-09,9.604176017e-10,3.787370422e-10,9.052604526e-11,1.675498921e-10,4.796489146e-10,2.124549824e-10,1.899471240e-10,3.518801025e-11,1.574283367e-10,3.754229638e-10,2.315959357e-10,2.894761192e-10,9.074402225e-11,4.652886753e-10,3.152974825e-11,6.318453108e-10,2.756061526e-10,4.180970966e-10,8.115155505e-10,2.951578912e-10,2.470600363e-10,4.615061526e-10,6.582292892e-10,1.067890516e-09,1.892145957e-10,6.002959760e-10,1.433085051e-09,3.057818419e-10,1.075971514e-09,1.234351202e-11,1.445077574e-11
0.57812,1.578880513e-09,9.255043609e-10,3.639400264e-10,8.721094473e-11,1.612120582e-10,4.611076897e-10,2.041156160e-10,1.827582890e-10,3.385684461e-11,1.516502683e-10,3.607882705e-10,2.228223684e-10,2.782516869e-10,8.754126301e-11,4.474954552e-10,3.032239325e-11,6.078893647e-10,2.652003639e-10,4.024584951e-10,7.822925733e-10,2.846616287e-10,2.382595460e-10,4.447443660e-10,6.343282278e-10,1.029751523e-09,1.826503469e-10,5.794279016e-10,1.383687449e-09,2.960193038e-10,1.039356888e-09,1.187818317e-11,1.397236467e-11
0.58594,1.521913097e-09,8.918027365e-10,3.496723478e-10,8.401143298e-11,1.550917029e-10,4.432112264e-10,1.960736282e-10,1.758181542e-10,3.257033613e-11,1.460625004e-10,3.466649257e-10,2.143478704e-10,2.674194393e-10,8.443300084e-11,4.303089316e-10,2.915658558e-11,5.847517078e-10,2.551527904e-10,3.873592030e-10,7.539980586e-10,2.745170796e-10,2.297501563e-10,4.285569112e-10,6.112309071e-10,9.928832820e-10,1.762938452e-10,5.592478775e-10,1.335937034e-09,2.864944606e-10,1.003991888e-09,1.142560545e-11,1.350624544e-11
0.59375,1.466945572e-09,8.592765591e-10,3.359215918e-10,8.092279732e-11,1.491829767e-10,4.259396677e-10,1.883212624e-10,1.691204984e-10,3.132764921e-11,1.406636870e-10,3.330428294e-10,2.061657840e-10,2.569719013e-10,8.142264575e-11,4.137278881e-10,2.803452495e-11,5.624289660e-10,2.454580762e-10,3.727851755e-10,7.266279513e-10,2.647150846e-10,2.215227457e-10,4.129251758e-10,5.889226040e-10,9.572578838e-10,1.701413248e-10,5.397399016e-10,1.289774009e-09,2.772118340e-10,9.698379473e-10,1.098650108e-11,1.305266547e-11
0.60156,1.413921347e-09,8.279050072e-10,3.226786058e-10,7.794163336e-11,1.434850178e-10,4.092730545e-10,1.808483021e-10,1.626588943e-10,3.012766385e-11,1.354511309e-10,3.199102321e-10,1.982684624e-10,2.469047191e-10,7.851111052e-11,3.977488472e-10,2.695655986e-11,5.409116504e-10,2.361116992e-10,3.587292663e-10,7.001928380e-10,2.552529799e-10,2.135706503e-10,3.978469098e-10,5.674052739e-10,9.228844797e-10,1.641949543e-10,5.209044340e-10,1.245157329e-09,2.681742985e-10,9.368662197e-10,1.056072931e-11,1.261158448e-11
0.60938,1.362743701e-09,7.976416200e-10,3.099143893e-10,7.506656723e-11,1.379890454e-10,3.931956241e-10,1.736438266e-10,1.564244240e-10,2.896875316e-11,1.304119725e-10,3.072418945e-10,1.906449226e-10,2.371986143e-10,7.568904231e-11,3.823289444e-10,2.591784145e-11,5.201478385e-10,2.270950958e-10,3.451700814e-10,6.746372658e-10,2.461193127e-10,2.058850574e-10,3.832962197e-10,5.466383938e-10,8.896961970e-10,1.584436295e-10,5.027037627e-10,1.202040049e-09,2.593751314e-10,9.050170351e-10,1.014814205e-11,1.218276760e-11
0.61719,1.313362327e-09,7.684525229e-10,2.976191752e-10,7.229571319e-11,1.326881596e-10,3.776921391e-10,1.667037283e-10,1.504104469e-10,2.784968234e-11,1.255427622e-10,2.950223188e-10,1.832843109e-10,2.278376854e-10,7.295270698e-11,3.674475475e-10,2.491605025e-11,5.001124242e-10,2.183960378e-10,3.320882788e-10,6.499305140e-10,2.372989709e-10,1.984547646e-10,3.692529908e-10,5.265949773e-10,8.576335866e-10,1.528821451e-10,4.851182202e-10,1.160374933e-09,2.508141133e-10,8.742602444e-10,9.748931129e-12,1.176579967e-11
0.625,1.265785023e-09,7.403335503e-10,2.858024208e-10,6.962685652e-11,1.275843694e-10,3.627559693e-10,1.600270501e-10,1.446162241e-10,2.677017769e-11,1.208475519e-10,2.832532170e-10,1.761849146e-10,2.188242658e-10,7.030434466e-11,3.531144172e-10,2.395170710e-11,4.808175733e-10,2.100166883e-10,3.194830546e-10,6.260878726e-10,2.287890422e-10,1.912772917e-10,3.557239334e-10,5.072822509e-10,8.267113689e-10,1.475135044e-10,4.681589976e-10,1.120133231e-09,2.424895183e-10,8.445903674e-10,9.362956371e-12,1.136032179e-11
0.63281,1.219880407e-09,7.132103090e-10,2.744253660e-10,6.705363993e-11,1.226662559e-10,3.483563628e-10,1.535944935e-10,1.390293597e-10,2.572823486e-11,1.163140442e-10,2.719103610e-10,1.693367757e-10,2.101410801e-10,6.774035787e-11,3.392965588e-10,2.302264889e-11,4.622198152e-10,2.019393463e-10,3.073284698e-10,6.030560271e-10,2.205734032e-10,1.843428490e-10,3.426743718e-10,4.886558288e-10,7.968670599e-10,1.423231314e-10,4.517758539e-10,1.081227853e-09,2.343914314e-10,8.159167745e-10,8.989961566e-12,1.096630668e-11
0.64062,1.175548408e-09,6.870312599e-10,2.634621445e-10,6.457104978e-11,1.179220918e-10,3.344662240e-10,1.473949982e-10,1.336392923e-10,2.472240116e-11,1.119347515e-10,2.609762620e-10,1.627294761e-10,2.017724660e-10,6.525967525e-11,3.259732469e-10,2.212889104e-11,4.442886041e-10,1.941518339e-10,2.956047989e-10,5.808004309e-10,2.126392556e-10,1.776413940e-10,3.300764179e-10,4.706840236e-10,7.680427394e-10,1.373031004e-10,4.359340440e-10,1.043608886e-09,2.265173776e-10,7.881911168e-10,8.629726555e-12,1.058359905e-11
0.64844,1.132841220e-09,6.618233930e-10,2.529350015e-10,6.217814174e-11,1.133547426e-10,3.210921644e-10,1.414381217e-10,1.284503999e-10,2.375386482e-11,1.077157362e-10,2.504632683e-10,1.563668780e-10,1.937286242e-10,6.286437366e-11,3.131634695e-10,2.127267956e-11,4.270462307e-10,1.866648718e-10,2.843273099e-10,5.593522032e-10,2.049991689e-10,1.711784883e-10,3.179544613e-10,4.533903357e-10,7.402774517e-10,1.324618359e-10,4.206644034e-10,1.007312612e-09,2.188692212e-10,7.614543502e-10,8.282136432e-12,1.021178518e-11
0.65625,1.091674212e-09,6.375325042e-10,2.428161220e-10,5.987017472e-11,1.089567664e-10,3.082135184e-10,1.357098255e-10,1.234537026e-10,2.282079740e-11,1.036471803e-10,2.403460704e-10,1.502373656e-10,1.859921357e-10,6.054852729e-11,3.008344392e-10,2.045040119e-11,4.104491554e-10,1.794592863e-10,2.734726831e-10,5.386666604e-10,1.976403690e-10,1.649440252e-10,3.062861659e-10,4.367347496e-10,7.135213745e-10,1.277893485e-10,4.059379022e-10,9.722659717e-10,2.114435169e-10,7.356463858e-10,7.947272453e-12,9.850687899e-12
0.66406,1.051924162e-09,6.140926150e-10,2.330609245e-10,5.764602098e-11,1.047179990e-10,2.958009923e-10,1.301884069e-10,1.186350694e-10,2.191952015e-11,9.971708445e-11,2.305885570e-10,1.443211269e-10,1.785332866e-10,5.830686580e-11,2.889433551e-10,1.965772579e-11,3.944402849e-10,1.725068980e-10,2.630005822e-10,5.186803316e-10,1.905316897e-10,1.589168497e-10,2.950246923e-10,4.206585999e-10,6.876850805e-10,1.232723907e-10,3.917067373e-10,9.383694283e-10,2.042374522e-10,7.106950802e-10,7.624803791e-12,9.500333351e-12
0.67188,1.013636427e-09,5.915313252e-10,2.236814200e-10,5.550928040e-11,1.006408527e-10,2.838596974e-10,1.248791955e-10,1.139965216e-10,2.105030631e-11,9.592902148e-11,2.212000751e-10,1.386210031e-10,1.713574109e-10,5.614030489e-11,2.775004210e-10,1.889561587e-11,3.790332766e-10,1.658152032e-10,2.529176106e-10,4.994031332e-10,1.836745098e-10,1.530992632e-10,2.841788832e-10,4.051776901e-10,6.627867881e-10,1.189152285e-10,3.779906623e-10,9.056601774e-10,1.972473893e-10,6.866414920e-10,7.314034653e-12,9.160509057e-12
0.67969,9.767801447e-10,5.698206853e-10,2.146749437e-10,5.345225315e-11,9.671790863e-11,2.723664777e-10,1.197785321e-10,1.095311364e-10,2.021332207e-11,9.227871095e-11,2.121741668e-10,1.331342791e-10,1.644607373e-10,5.404639588e-11,2.664944082e-10,1.816362435e-11,3.642125220e-10,1.593811653e-10,2.432175640e-10,4.808168656e-10,1.770683196e-10,1.474908878e-10,2.737426971e-10,3.902849174e-10,6.388099464e-10,1.147138565e-10,3.647793411e-10,8.741171495e-10,1.904670166e-10,6.634718348e-10,7.014614843e-12,8.830693110e-12
0.6875,9.412401191e-10,5.488923377e-10,2.060114989e-10,5.146578042e-11,9.293741731e-11,2.612849229e-10,1.148680500e-10,1.052257843e-10,1.940641275e-11,8.875618519e-11,2.034817698e-10,1.278447029e-10,1.578206104e-10,5.202173837e-11,2.558934644e-10,1.745951649e-11,3.499337283e-10,1.531825842e-10,2.338688448e-10,4.628793782e-10,1.706923529e-10,1.420751796e-10,2.636809074e-10,3.759303838e-10,6.156816535e-10,1.106574610e-10,3.520285271e-10,8.436376256e-10,1.838926877e-10,6.411164113e-10,6.726393447e-12,8.510495716e-12
0.69531,9.070046796e-10,5.287464271e-10,1.976825874e-10,4.955289320e-11,8.930021078e-11,2.506224015e-10,1.101447906e-10,1.010824508e-10,1.862908134e-11,8.536032759e-11,1.951218762e-10,1.227510598e-10,1.514339486e-10,5.006573381e-11,2.456945414e-10,1.678353231e-11,3.361941760e-10,1.472166817e-10,2.248674187e-10,4.455854214e-10,1.645421604e-10,1.368480097e-10,2.539894840e-10,3.620988410e-10,5.933889161e-10,1.067441516e-10,3.397346062e-10,8.142120653e-10,1.775206434e-10,6.195670552e-10,6.449276822e-12,8.199951867e-12
0.70312,8.740442762e-10,5.093633276e-10,1.896764094e-10,4.771339642e-11,8.580281339e-11,2.403720475e-10,1.056059893e-10,9.709718583e-11,1.788081252e-11,8.208720060e-11,1.870869652e-10,1.178506464e-10,1.452961049e-10,4.817582633e-11,2.358853668e-10,1.613467330e-11,3.229800121e-10,1.414799597e-10,2.162080984e-10,4.289138573e-10,1.586172475e-10,1.318077758e-10,2.446623089e-10,3.487818128e-10,5.719170388e-10,1.029699704e-10,3.278891718e-10,7.858270931e-10,1.713465114e-10,5.988044963e-10,6.183175079e-12,7.898976897e-12
0.71094,8.422864551e-10,4.906939953e-10,1.819781230e-10,4.594075340e-11,8.243633832e-11,2.305005231e-10,1.012410543e-10,9.325723698e-11,1.715977036e-11,7.893071065e-11,1.793516846e-10,1.131287351e-10,1.393909887e-10,4.634988964e-11,2.264437243e-10,1.551042391e-11,3.102598101e-10,1.359576491e-10,2.078696986e-10,4.128330583e-10,1.529054895e-10,1.269435041e-10,2.356769059e-10,3.359562832e-10,5.512223214e-10,9.932879562e-11,3.164666437e-10,7.584135970e-10,1.653662019e-10,5.787867082e-10,5.927415705e-12,7.607021986e-12
0.71875,8.117073601e-10,4.727229662e-10,1.745844718e-10,4.423367664e-11,7.919743439e-11,2.209994490e-10,9.704494539e-11,8.956044695e-11,1.646540424e-11,7.588916795e-11,1.719092465e-10,1.085803216e-10,1.337128670e-10,4.458773243e-11,2.173637601e-10,1.491054102e-11,2.980225153e-10,1.306440836e-10,1.998439447e-10,3.973299850e-10,1.473998456e-10,1.222505790e-10,2.270244769e-10,3.236068206e-10,5.312794263e-10,9.581666101e-11,3.054563788e-10,7.319530829e-10,1.595714202e-10,5.594987518e-10,5.681278484e-12,7.323786380e-12
0.72656,7.822676214e-10,4.554274579e-10,1.674811847e-10,4.259142838e-11,7.608150097e-11,2.118627271e-10,9.301178082e-11,8.600466842e-11,1.579714785e-11,7.295889579e-11,1.647554458e-10,1.042035743e-10,1.282557664e-10,4.288743015e-11,2.086335119e-10,1.433502359e-11,2.862520703e-10,1.255336758e-10,1.921222201e-10,3.823846806e-10,1.420938536e-10,1.177251647e-10,2.186950488e-10,3.117171202e-10,5.120620011e-10,9.242794704e-11,2.948434449e-10,7.064289964e-10,1.539570121e-10,5.409153099e-10,5.444955364e-12,7.049485960e-12
0.73438,7.539204433e-10,4.387805457e-10,1.606554432e-10,4.101064750e-11,7.308396021e-11,2.030725970e-10,8.913469914e-11,8.258243213e-11,1.515349579e-11,7.013538869e-11,1.578773549e-10,9.999057504e-11,1.230094686e-10,4.124650227e-11,2.002368836e-10,1.378240780e-11,2.749291779e-10,1.206171415e-10,1.846905001e-10,3.679803344e-10,1.369785101e-10,1.133587439e-10,2.106755488e-10,3.002718363e-10,4.935476987e-10,8.916012590e-11,2.846140480e-10,6.817937962e-10,1.485236782e-10,5.230106621e-10,5.218659745e-12,6.784106709e-12
0.74219,7.266325214e-10,4.227627575e-10,1.540999068e-10,3.948946019e-11,7.020192033e-11,1.946191233e-10,8.540853178e-11,7.928940666e-11,1.453369894e-11,6.741358289e-11,1.512655916e-10,9.593616939e-11,1.179673839e-10,3.966259935e-11,1.921624973e-10,1.325158319e-11,2.640394677e-10,1.158882873e-10,1.775390295e-10,3.540969655e-10,1.320478948e-10,1.091470568e-10,2.029543537e-10,2.892504807e-10,4.757105545e-10,8.600952448e-11,2.747566219e-10,6.580218385e-10,1.432644073e-10,5.057636576e-10,5.001838239e-12,6.527191857e-12
0.75,7.003472768e-10,4.073396451e-10,1.477976836e-10,3.802558552e-11,6.742950972e-11,1.864898112e-10,8.182533530e-11,7.612072492e-11,1.393714301e-11,6.478808759e-11,1.449093983e-10,9.203533225e-11,1.131210096e-10,3.813384814e-11,1.843971595e-10,1.274230410e-11,2.535627177e-10,1.113391869e-10,1.706552862e-10,3.407048757e-10,1.272938904e-10,1.050856195e-10,1.955140106e-10,2.786268970e-10,4.585096789e-10,8.296828461e-11,2.652481044e-10,6.350858057e-10,1.381693299e-10,4.891364086e-10,4.793995437e-12,6.278390581e-12
0.75781,6.750425835e-10,3.924975748e-10,1.417442368e-10,3.661696254e-11,6.476369796e-11,1.786726967e-10,7.838210260e-11,7.307220202e-11,1.336298819e-11,6.225963439e-11,1.388014988e-10,8.828225911e-11,1.084645285e-10,3.665973862e-11,1.769352052e-10,1.225393898e-11,2.434890530e-10,1.069641920e-10,1.640317152e-10,3.277986552e-10,1.227109215e-10,1.011684153e-10,1.883501467e-10,2.683964415e-10,4.419374653e-10,8.003500877e-11,2.560813082e-10,6.129553085e-10,1.332375438e-10,4.731166059e-10,4.594974050e-12,6.037595020e-12
0.76562,6.507005629e-10,3.782240505e-10,1.359369171e-10,3.526234152e-11,6.220149333e-11,1.711589651e-10,7.507674023e-11,7.014061444e-11,1.281054901e-11,5.982661137e-11,1.329345885e-10,8.467210055e-11,1.039918828e-10,3.523717856e-11,1.697637718e-10,1.178440757e-11,2.338032590e-10,1.027569988e-10,1.576609715e-10,3.153653570e-10,1.182944665e-10,9.739100447e-11,1.814588196e-10,2.585513959e-10,4.259837768e-10,7.720757645e-11,2.472514932e-10,5.916059293e-10,1.284673987e-10,4.576931578e-10,4.404511969e-12,5.804601172e-12
0.77344,6.272527792e-10,3.644772899e-10,1.303563716e-10,3.395876714e-11,5.973528788e-11,1.639332228e-10,7.190006536e-11,6.731941904e-11,1.227882046e-11,5.748172638e-11,1.272937295e-10,8.119775180e-11,9.969115046e-11,3.386301852e-11,1.628626292e-10,1.133263356e-11,2.244808241e-10,9.870764808e-11,1.515269755e-10,3.033738919e-10,1.140345117e-10,9.374699714e-11,1.748182057e-10,2.490672395e-10,4.106012863e-10,7.447783386e-11,2.387341932e-10,5.709985639e-10,1.238532825e-10,4.428229411e-10,4.222402506e-12,5.579091513e-12
0.78125,6.046765947e-10,3.512472556e-10,1.249977932e-10,3.270436457e-11,5.736287944e-11,1.569893124e-10,6.884818099e-11,6.460586479e-11,1.176726662e-11,5.522400121e-11,1.218748349e-10,7.785590929e-11,9.555962078e-11,3.253912496e-11,1.562340896e-10,1.090002197e-11,2.155246190e-10,9.481620636e-11,1.456260726e-10,2.918283925e-10,1.099286242e-10,9.023287581e-11,1.684226560e-10,2.399412339e-10,3.957780749e-10,7.184491532e-11,2.305225701e-10,5.511159809e-10,1.193921966e-10,4.284941450e-10,4.048523612e-12,5.360899915e-12
0.78906,5.829635874e-10,3.385293003e-10,1.198591339e-10,3.149819945e-11,5.508369183e-11,1.503215176e-10,6.591861686e-11,6.199814172e-11,1.127544845e-11,5.305139235e-11,1.166742696e-10,7.464397117e-11,9.159547357e-11,3.126446914e-11,1.498721475e-10,1.048549211e-11,2.069269468e-10,9.108035249e-11,1.399557863e-10,2.807222350e-10,1.059756899e-10,8.684647843e-11,1.622725225e-10,2.311653559e-10,3.815103215e-10,6.930784889e-11,2.226129042e-10,5.319469403e-10,1.150782774e-10,4.146993422e-10,3.882515790e-12,5.149928541e-12
0.79688,5.620469850e-10,3.262787974e-10,1.149204648e-10,3.033752038e-11,5.289156615e-11,1.439094059e-10,6.310204160e-11,5.948850569e-11,1.080204864e-11,5.095600930e-11,1.116731607e-10,7.155258400e-11,8.778454879e-11,3.003353665e-11,1.437475990e-10,1.008544464e-11,1.986492675e-10,8.748376996e-11,1.344962029e-10,2.700101987e-10,1.021624006e-10,8.357964404e-11,1.563459717e-10,2.227069895e-10,3.677545234e-10,6.685788805e-11,2.149795861e-10,5.134428856e-10,1.109039937e-10,4.013929325e-10,3.723983623e-12,4.945952078e-12
0.80469,5.419068961e-10,3.144831480e-10,1.101797496e-10,2.922099471e-11,5.078425622e-11,1.377470708e-10,6.039706953e-11,5.707440258e-11,1.034670888e-11,4.893826613e-11,1.068667968e-10,6.857827741e-11,8.412182396e-11,2.884599946e-11,1.378583308e-10,9.699994833e-12,1.906854560e-10,8.402162760e-11,1.292404266e-10,2.596854075e-10,9.848374758e-11,8.042851459e-11,1.506361656e-10,2.145614251e-10,3.545015737e-10,6.449392783e-11,2.076190957e-10,4.955829815e-10,1.068682650e-10,3.885647434e-10,3.572750354e-12,4.748745277e-12
0.8125,5.225489207e-10,3.031471994e-10,1.056409809e-10,2.814780536e-11,4.876049160e-11,1.318358148e-10,5.780519686e-11,5.475642410e-11,9.909542965e-12,4.699926756e-11,1.022577448e-10,6.572186429e-11,8.060814991e-11,2.770262094e-11,1.322088295e-10,9.330296453e-12,1.830388302e-10,8.069653869e-11,1.241903385e-10,2.497535282e-10,9.494248180e-11,7.739337795e-11,1.451478980e-10,2.067318883e-10,3.417556507e-10,6.221769490e-11,2.005356278e-10,4.783711822e-10,1.029697287e-10,3.762195877e-10,3.428606883e-12,4.558123155e-12
0.82031,5.039126977e-10,2.922341068e-10,1.012848937e-10,2.711518983e-11,4.681361519e-11,1.261571645e-10,5.531717717e-11,5.252740885e-11,9.488947528e-12,4.513047942e-11,9.782694740e-11,6.297419029e-11,7.723091905e-11,2.659913828e-11,1.267725642e-10,8.974123518e-12,1.756773197e-10,7.749652967e-11,1.193280462e-10,2.401761876e-10,9.152711795e-11,7.446586374e-11,1.398598377e-10,1.991886932e-10,3.294697962e-10,6.002082018e-11,1.937015809e-10,4.617655728e-10,9.920150333e-11,3.643172272e-10,3.291159636e-12,4.373882360e-12
0.82812,4.859622612e-10,2.817243640e-10,9.710199020e-11,2.612236647e-11,4.494129572e-11,1.207002162e-10,5.292634170e-11,5.038272489e-11,9.083927310e-12,4.332819951e-11,9.356292322e-11,6.032879248e-11,7.398334024e-11,2.553377660e-11,1.215375928e-10,8.630721729e-12,1.685882479e-10,7.441457722e-11,1.146428323e-10,2.309316779e-10,8.822864011e-11,7.163970891e-11,1.347571200e-10,1.919145692e-10,3.176161765e-10,5.789766390e-11,1.871000840e-10,4.457305059e-10,9.555773676e-11,3.528368461e-10,3.160040666e-12,4.195904719e-12
0.83594,4.686959010e-10,2.716192784e-10,9.309296966e-11,2.516868250e-11,4.314340751e-11,1.154645984e-10,5.063105473e-11,4.832258454e-11,8.695072300e-12,4.159446815e-11,8.947248851e-11,5.778784902e-11,7.086881644e-11,2.450807117e-11,1.165134638e-10,8.301777753e-12,1.617816548e-10,7.145490336e-11,1.101402660e-10,2.220289631e-10,8.505113681e-11,6.891724503e-11,1.298468743e-10,1.849156813e-10,3.062018000e-10,5.584959125e-11,1.807354894e-10,4.302635041e-10,9.203554650e-11,3.417803168e-10,3.035049776e-12,4.024036095e-12
0.84375,4.520667374e-10,2.618889251e-10,8.924378018e-11,2.425034481e-11,4.141435561e-11,1.104358519e-10,4.842631865e-11,4.634214533e-11,8.321671697e-12,3.992628199e-11,8.554949066e-11,5.534694831e-11,6.787943448e-11,2.352047940e-11,1.116903608e-10,7.986358448e-12,1.552406679e-10,6.861128773e-11,1.058115268e-10,2.134568205e-10,8.199036424e-11,6.629459743e-11,1.251212978e-10,1.781815589e-10,2.952043472e-10,5.387374270e-11,1.745961378e-10,4.153374266e-10,8.863230649e-11,3.311160621e-10,2.916042031e-12,3.858025600e-12
0.85156,4.360402906e-10,2.525121812e-10,8.554829306e-11,2.336582918e-11,3.975050986e-11,1.056055654e-10,4.631115377e-11,4.443773867e-11,7.962374319e-12,3.832056752e-11,8.178286586e-11,5.299943615e-11,6.500517400e-11,2.256843729e-11,1.070535789e-10,7.682206218e-12,1.489455851e-10,6.587422234e-11,1.016425682e-10,2.051957608e-10,7.903658335e-11,6.376423207e-11,1.205651476e-10,1.716920770e-10,2.845963587e-10,5.196570989e-11,1.686683735e-10,4.009233744e-10,8.534433033e-11,3.208203745e-10,2.802794344e-12,3.697810692e-12
0.85938,4.206150835e-10,2.434900093e-10,8.200885459e-11,2.251591833e-11,3.815134585e-11,1.009753919e-10,4.428535258e-11,4.260928949e-11,7.617049158e-12,3.677592839e-11,7.817077315e-11,5.074443048e-11,6.224534966e-11,2.165118727e-11,1.025998538e-10,7.389285228e-12,1.428946739e-10,6.324262405e-11,9.763144918e-11,1.972370974e-10,7.618886723e-11,6.132503556e-11,1.161765328e-10,1.654380776e-10,2.743716962e-10,5.012452705e-11,1.629493686e-10,3.870163335e-10,8.216710420e-11,3.108944658e-10,2.695092593e-12,3.543321815e-12
0.86719,4.057649505e-10,2.348073188e-10,7.861387004e-11,2.169881975e-11,3.661407289e-11,9.653320651e-11,4.234152460e-11,4.085228788e-11,7.285401029e-12,3.528856168e-11,7.470551106e-11,4.857835860e-11,5.959684362e-11,2.076806399e-11,9.832214887e-11,7.108362638e-12,1.370815095e-10,6.071421907e-11,9.377472084e-11,1.895733538e-10,7.344600209e-11,5.897503411e-11,1.119516532e-10,1.594169360e-10,2.645181355e-10,4.834877967e-11,1.574312123e-10,3.735965981e-10,7.909804014e-11,3.013230167e-10,2.592896929e-12,3.394211577e-12
0.875,3.914618199e-10,2.264475186e-10,7.535401389e-11,2.091286795e-11,3.513645015e-11,9.226669730e-11,4.047485326e-11,3.916201221e-11,6.966602954e-12,3.385579826e-11,7.137662687e-11,4.649595802e-11,5.705322699e-11,1.991782569e-11,9.421172363e-11,6.838965132e-12,1.314943095e-10,5.828365041e-11,9.006392854e-11,1.821955284e-10,7.080119632e-11,5.670881170e-11,1.078803793e-10,1.536214396e-10,2.550184344e-10,4.663555579e-11,1.521051798e-10,3.606358109e-10,7.613581086e-11,2.920847327e-10,2.496264524e-12,3.250305044e-12
0.88281,3.776918304e-10,2.184009121e-10,7.222945979e-11,2.015790570e-11,3.371665012e-11,8.817414237e-11,3.868470529e-11,3.753752896e-11,6.660255754e-12,3.247640949e-11,6.818098299e-11,4.449546744e-11,5.461050218e-11,1.909890074e-11,9.026244407e-11,6.579751604e-12,1.261216686e-10,5.594603736e-11,8.649224667e-11,1.750893561e-10,6.824929033e-11,5.452342762e-11,1.039559085e-10,1.480363981e-10,2.458589554e-10,4.498189322e-11,1.469650962e-10,3.481203841e-10,7.327717351e-11,2.831682753e-10,2.405096769e-12,3.111616738e-12
0.89062,3.644326793e-10,2.106519997e-10,6.923468930e-11,1.943200978e-11,3.235134616e-11,8.424928768e-11,3.696736934e-11,3.597686025e-11,6.366018726e-12,3.114870180e-11,6.511531666e-11,4.257400258e-11,5.226488979e-11,1.831038863e-11,8.646792506e-11,6.329956605e-12,1.209537932e-10,5.369647834e-11,8.305378811e-11,1.682432357e-10,6.578761382e-11,5.241675132e-11,1.001738118e-10,1.426528135e-10,2.370256394e-10,4.338529743e-11,1.420024162e-10,3.360389217e-10,7.051820405e-11,2.745644242e-10,2.319022153e-12,2.977882306e-12
0.89844,3.516621594e-10,2.031894228e-10,6.636199083e-11,1.873289449e-11,3.103848503e-11,8.048437361e-11,3.531958322e-11,3.447733485e-11,6.083476960e-12,2.987171609e-11,6.217467320e-11,4.072785278e-11,5.001293156e-11,1.755194479e-11,8.282404593e-11,6.089711483e-12,1.159867217e-10,5.153228707e-11,7.974433851e-11,1.616523976e-10,6.341300293e-11,5.038562299e-11,9.652881160e-11,1.374677776e-10,2.285059849e-10,4.184362853e-11,1.372098580e-10,3.243742314e-10,6.785466256e-11,2.662643198e-10,2.237549848e-12,2.848875677e-12
0.90625,3.393584906e-10,1.960029660e-10,6.360672833e-11,1.806012220e-11,2.977658985e-11,7.687588477e-11,3.374001765e-11,3.303698614e-11,5.812343581e-12,2.864334672e-11,5.935539960e-11,3.895546488e-11,4.785168728e-11,1.682191736e-11,7.932494898e-11,5.858963753e-12,1.112142456e-10,4.945204047e-11,7.656072478e-11,1.553047163e-10,6.112262231e-11,4.842800137e-11,9.301469557e-11,1.324702005e-10,2.202874863e-10,4.035461341e-11,1.325805522e-10,3.131067527e-10,6.528259520e-11,2.582511835e-10,2.160440768e-12,2.724614311e-12
0.91406,3.275039018e-10,1.890812663e-10,6.096501008e-11,1.741347185e-11,2.856366876e-11,7.341781503e-11,3.222607058e-11,3.165323748e-11,5.552113164e-12,2.746119586e-11,5.665304131e-11,3.725452979e-11,4.577788656e-11,1.611904013e-11,7.596390393e-11,5.637393422e-12,1.066284828e-10,4.745337074e-11,7.349927968e-11,1.491908423e-10,5.891518748e-11,4.654203770e-11,8.962750054e-11,1.276533355e-10,2.123616733e-10,3.891721530e-11,1.281098148e-10,3.022240847e-10,6.280257946e-11,2.505116610e-10,2.087877931e-12,2.604893353e-12
0.92188,3.160921856e-10,1.824190463e-10,5.843320690e-11,1.679183496e-11,2.739828933e-11,7.010307331e-11,3.077482993e-11,3.032391035e-11,5.302195119e-12,2.632486952e-11,5.406251878e-11,3.562125527e-11,4.378815578e-11,1.544377012e-11,7.273813638e-11,5.424617244e-12,1.022245101e-10,4.553296530e-11,7.055522200e-11,1.433094125e-10,5.678763629e-11,4.472439860e-11,8.636447371e-11,1.230164987e-10,2.047216265e-10,3.753065596e-11,1.237959367e-10,2.917205544e-10,6.041563508e-11,2.430472252e-10,2.020036309e-12,2.489450315e-12
0.92969,3.051040882e-10,1.760041152e-10,5.600493035e-11,1.619389751e-11,2.627825686e-11,6.692610812e-11,2.938352840e-11,2.904706466e-11,5.062258712e-12,2.523240271e-11,5.157835834e-11,3.405259674e-11,4.187766999e-11,1.479519185e-11,6.964147129e-11,5.219867609e-12,9.799110386e-11,4.368539671e-11,6.772119480e-11,1.376466100e-10,5.473412030e-11,4.297179989e-11,8.321852496e-11,1.185471485e-10,1.973507936e-10,3.619188081e-11,1.196308770e-10,2.815801737e-10,5.811681484e-11,2.358474201e-10,1.956721328e-12,2.378282234e-12
0.9375,2.945150410e-10,1.698224424e-10,5.367495328e-11,1.561898400e-11,2.520167512e-11,6.388153485e-11,2.805010922e-11,2.782059656e-11,4.832138016e-12,2.418101595e-11,4.919588946e-11,3.254692536e-11,4.004304386e-11,1.417136679e-11,6.666655093e-11,5.022955471e-12,9.391861721e-11,4.190707038e-11,6.499251345e-11,1.321893729e-10,5.275206023e-11,4.128278834e-11,8.018378564e-11,1.142360332e-10,1.902373720e-10,3.489873333e-11,1.156061011e-10,2.717842548e-10,5.590243388e-11,2.288923454e-10,1.897777402e-12,2.271276235e-12
0.94531,2.843162332e-10,1.638704245e-10,5.144214321e-11,1.506639403e-11,2.416786418e-11,6.096439863e-11,2.677328067e-11,2.664307759e-11,4.611621097e-12,2.317070732e-11,4.691338917e-11,3.110295252e-11,3.828402810e-11,1.357183100e-11,6.381235488e-11,4.834341720e-12,9.000739577e-11,4.019829336e-11,6.236866526e-11,1.269391071e-10,5.084121297e-11,3.965597250e-11,7.725914632e-11,1.100853261e-10,1.833794735e-10,3.365127582e-11,1.117201527e-10,2.623215099e-10,5.377408670e-11,2.221763246e-10,1.843296915e-12,2.168248790e-12
0.95312,2.744882327e-10,1.581363478e-10,4.930178988e-11,1.453424368e-11,2.317431567e-11,5.816909287e-11,2.555049751e-11,2.551252413e-11,4.400272486e-12,2.220068069e-11,4.472844849e-11,2.971802506e-11,3.659767250e-11,1.299593728e-11,6.107507599e-11,4.653582817e-12,8.625196854e-11,3.855665563e-11,5.984532711e-11,1.218892155e-10,4.899770045e-11,3.808820518e-11,7.443977325e-11,1.060872552e-10,1.767649975e-10,3.244752256e-11,1.079673019e-10,2.531740875e-10,5.172979192e-11,2.156891823e-10,1.793025405e-12,2.069258038e-12
0.96094,2.649037803e-10,1.523747943e-10,4.712680010e-11,1.408274348e-11,2.223088944e-11,5.543097152e-11,2.427158339e-11,2.441319844e-11,4.170952219e-12,2.118029160e-11,4.243625264e-11,2.823880785e-11,3.484257493e-11,1.235539930e-11,5.813931819e-11,4.414738702e-12,8.237202968e-11,3.679806456e-11,5.730346166e-11,1.165823850e-10,4.712442859e-11,3.654036515e-11,7.166925058e-11,1.020863670e-10,1.701288382e-10,3.132805035e-11,1.042415577e-10,2.440280128e-10,4.977441578e-11,2.090771229e-10,1.743497421e-12,1.974039140e-12
0.96875,2.558957183e-10,1.470691607e-10,4.518222748e-11,1.361971904e-11,2.133371848e-11,5.290669726e-11,2.314992406e-11,2.338510639e-11,3.969254857e-12,2.027603796e-11,4.040669004e-11,2.692411980e-11,3.326855273e-11,1.180974891e-11,5.557260802e-11,4.230638545e-12,7.889520527e-11,3.524716547e-11,5.496626912e-11,1.118719073e-10,4.540584423e-11,3.508654281e-11,6.907319715e-11,9.840860201e-11,1.640019217e-10,3.022545386e-11,1.007626925e-10,2.354664538e-10,4.788756389e-11,2.029896762e-10,1.696353857e-12,1.882818580e-12
0.97656,2.469743000e-10,1.419607274e-10,4.329511319e-11,1.312017157e-11,2.043583593e-11,5.044155587e-11,2.209128863e-11,2.238173226e-11,3.789599930e-12,1.943907935e-11,3.853553343e-11,2.574243201e-11,3.182786497e-11,1.134208439e-11,5.325944881e-11,4.095364352e-12,7.563932463e-11,3.384970743e-11,5.275326385e-11,1.074877973e-10,4.377408416e-11,3.369374398e-11,6.654760349e-11,9.483564782e-11,1.581005181e-10,2.912282827e-11,9.739195164e-11,2.272874498e-10,4.607585927e-11,1.972143634e-10,1.654965702e-12,1.795049416e-12
0.98438,2.384685134e-10,1.370365601e-10,4.149844873e-11,1.265766164e-11,1.958680824e-11,4.810083832e-11,2.107445302e-11,2.142375858e-11,3.613096732e-12,1.861988105e-11,3.672119124e-11,2.458262235e-11,3.041862386e-11,1.086715141e-11,5.097876028e-11,3.949830997e-12,7.247471645e-11,3.247024015e-11,5.060862371e-11,1.032049066e-10,4.219137713e-11,3.234855545e-11,6.411973356e-11,9.140147847e-11,1.524019887e-10,2.807339424e-11,9.413803314e-11,2.193359092e-10,4.434602691e-11,1.915909158e-10,1.618065491e-12,1.710826125e-12
0.99219,2.303572812e-10,1.322959684e-10,3.979909574e-11,1.222638471e-11,1.878122507e-11,4.588595560e-11,2.010842082e-11,2.050892962e-11,3.440846298e-12,1.782491796e-11,3.497133937e-11,2.344939515e-11,2.904145841e-11,1.039419819e-11,4.874552434e-11,3.798989511e-12,6.941272954e-11,3.111583914e-11,4.853060609e-11,9.905834883e-11,4.066158118e-11,3.104847876e-11,6.178177647e-11,8.811094238e-11,1.469074326e-10,2.706592613e-11,9.099554016e-11,2.116093726e-10,4.269052218e-11,1.861230338e-10,1.584631452e-12,1.630148880e-12
1,2.224322148e-10,1.277223055e-10,3.813754666e-11,1.179403188e-11,1.799382418e-11,4.373458128e-11,1.917419521e-11,1.962573894e-11,3.279869177e-12,1.706866650e-11,3.331178564e-11,2.239079031e-11,2.775439855e-11,9.962323253e-12,4.665738189e-11,3.669190561e-12,6.649502114e-11,2.984935904e-11,4.655146897e-11,9.508130904e-11,3.918969533e-11,2.980209324e-11,5.952143987e-11,8.490430282e-11,1.415932487e-10,2.608933787e-11,8.795713238e-11,2.041962910e-10,4.110936837e-11,1.808945367e-10,1.555334326e-12,1.552618416e-12
1.0078,2.148208732e-10,1.233188350e-10,3.654915549e-11,1.137961284e-11,1.723939986e-11,4.167792106e-11,1.828034715e-11,1.877866108e-11,3.125374974e-12,1.634006553e-11,3.172161411e-11,2.137379066e-11,2.651612125e-11,9.542792156e-12,4.464494324e-11,3.542849569e-12,6.368812619e-11,2.862780955e-11,4.464570678e-11,9.124626813e-11,3.777006353e-11,2.860138972e-11,5.734374192e-11,8.181912703e-11,1.364711121e-10,2.515007005e-11,8.502606929e-11,1.970292361e-10,3.960160112e-11,1.758464096e-10,1.529994744e-12,1.478237294e-12
1.0156,2.075797407e-10,1.190932718e-10,3.505750521e-11,1.098920108e-11,1.652277263e-11,3.973470829e-11,1.743770105e-11,1.796889561e-11,2.976081939e-12,1.563663798e-11,3.019556972e-11,2.038602610e-11,2.530660879e-11,9.125992978e-12,4.268118526e-11,3.413353093e-12,6.097966454e-11,2.743338646e-11,4.279917245e-11,8.755794361e-11,3.640248378e-11,2.744133760e-11,5.524679490e-11,7.887323756e-11,1.315446436e-10,2.424433227e-11,8.219910956e-11,1.900761141e-10,3.816181476e-11,1.709567609e-10,1.508185716e-12,1.406981503e-12
1.0234,2.005562926e-10,1.150201487e-10,3.360650160e-11,1.060854392e-11,1.583026615e-11,3.785830474e-11,1.662110700e-11,1.719017273e-11,2.834299053e-12,1.496077745e-11,2.873677160e-11,1.945017546e-11,2.416367237e-11,8.733347033e-12,4.081739144e-11,3.294127049e-12,5.838192415e-11,2.629776377e-11,4.103273280e-11,8.398959023e-11,3.508143492e-11,2.632783961e-11,5.322316764e-11,7.600739762e-11,1.267792738e-10,2.337402492e-11,7.946869445e-11,1.833903545e-10,3.678923205e-11,1.662688910e-10,1.489896897e-12,1.338451228e-12
1.0312,1.937948577e-10,1.110995383e-10,3.221263121e-11,1.024225186e-11,1.516559809e-11,3.605847284e-11,1.583634392e-11,1.644275130e-11,2.698719010e-12,1.431020604e-11,2.733983908e-11,1.855584955e-11,2.307181391e-11,8.356179607e-12,3.903141630e-11,3.180915412e-12,5.588647562e-11,2.520798594e-11,3.933593487e-11,8.054853770e-11,3.380624550e-11,2.525659364e-11,5.127229374e-11,7.324075742e-11,1.221826452e-10,2.253738584e-11,7.683533181e-11,1.769422356e-10,3.548117025e-11,1.617583494e-10,1.474815191e-12,1.272653620e-12
1.0391,1.873602180e-10,1.073428532e-10,3.090431886e-11,9.892434527e-12,1.453142340e-11,3.435382402e-11,1.509838096e-11,1.572696092e-11,2.569127109e-12,1.368558509e-11,2.600515218e-11,1.769465719e-11,2.201145041e-11,7.987223373e-12,3.730150307e-11,3.069243840e-12,5.348750451e-11,2.415165248e-11,3.769463729e-11,7.726085830e-11,3.257945635e-11,2.422238478e-11,4.939128110e-11,7.059724065e-11,1.177639257e-10,2.172582700e-11,7.429591838e-11,1.706993202e-10,3.423241856e-11,1.574049690e-10,1.462599046e-12,1.209722268e-12
1.0469,1.811575986e-10,1.037257914e-10,2.964251412e-11,9.555350021e-12,1.392160753e-11,3.271754824e-11,1.438759167e-11,1.504018970e-11,2.445209496e-12,1.308596719e-11,2.472982150e-11,1.687308474e-11,2.100157602e-11,7.635382529e-12,3.564992968e-11,2.963884316e-12,5.118387325e-11,2.313983509e-11,3.611911730e-11,7.408093043e-11,3.139326935e-11,2.322815315e-11,4.757770580e-11,6.803719259e-11,1.134961495e-10,2.094597029e-11,7.184665542e-11,1.646879117e-10,3.304250845e-11,1.532227056e-10,1.453003290e-12,1.149347507e-12
1.0547,1.751889079e-10,1.002456533e-10,2.842835295e-11,9.232655217e-12,1.333664482e-11,3.114899843e-11,1.370285093e-11,1.438184467e-11,2.326235051e-12,1.251015414e-11,2.350942359e-11,1.608673976e-11,2.003742428e-11,7.297764961e-12,3.406912464e-11,2.863416625e-12,4.896795497e-11,2.216734765e-11,3.460611565e-11,7.100604814e-11,3.024663336e-11,2.227200618e-11,4.583159193e-11,6.556601502e-11,1.093795896e-10,2.019855356e-11,6.948694155e-11,1.588983233e-10,3.190980587e-11,1.492065894e-10,1.445900223e-12,1.091370846e-12
1.0625,1.694961420e-10,9.691411312e-11,2.728138031e-11,8.921133514e-12,1.277593584e-11,2.965646083e-11,1.305541896e-11,1.375050303e-11,2.213295689e-12,1.195853759e-11,2.234342898e-11,1.533391743e-11,1.910700444e-11,6.971286376e-12,3.254570164e-11,2.766306888e-12,4.683679647e-11,2.123044539e-11,3.314684619e-11,6.807369293e-11,2.914420891e-11,2.135048121e-11,4.414845649e-11,6.319996228e-11,1.054219435e-10,1.947368576e-11,6.721141668e-11,1.533094686e-10,3.083068706e-11,1.453530855e-10,1.441400740e-12,1.035873395e-12
1.0703,1.640276598e-10,9.371037742e-11,2.618142164e-11,8.621660443e-12,1.223828724e-11,2.822793598e-11,1.243490595e-11,1.314537263e-11,2.105233783e-12,1.142834386e-11,2.122740563e-11,1.461342371e-11,1.821720590e-11,6.657426471e-12,3.108445129e-11,2.673499191e-12,4.479214084e-11,2.033125008e-11,3.174620351e-11,6.525443067e-11,2.808231597e-11,2.046487062e-11,4.252886924e-11,6.092135295e-11,1.016124934e-10,1.877726671e-11,6.502095825e-11,1.479301630e-10,2.980490637e-11,1.416533237e-10,1.439235480e-12,9.827148726e-13
1.0781,1.587712157e-10,9.062739393e-11,2.512621383e-11,8.337798126e-12,1.172479327e-11,2.686307555e-11,1.183901734e-11,1.256638315e-11,2.000769037e-12,1.091827731e-11,2.015818454e-11,1.392062803e-11,1.736614041e-11,6.354386684e-12,2.968193618e-11,2.583781349e-12,4.283101194e-11,1.946516530e-11,3.040257474e-11,6.253529188e-11,2.705855417e-11,1.961384806e-11,4.097327996e-11,5.872897938e-11,9.794855302e-11,1.811158221e-11,6.291615417e-11,1.427553441e-10,2.882985817e-11,1.380969946e-10,1.439111653e-12,9.317455185e-13
1.0859,1.537364137e-10,8.767213567e-11,2.412128389e-11,8.063505592e-12,1.123154664e-11,2.556000752e-11,1.127160037e-11,1.201069574e-11,1.901440570e-12,1.042893756e-11,1.913502605e-11,1.325901746e-11,1.655007890e-11,6.064392274e-12,2.833624117e-11,2.497941849e-12,4.094717049e-11,1.863360895e-11,2.910896567e-11,5.993608464e-11,2.607170421e-11,1.879426442e-11,3.947162490e-11,5.661685161e-11,9.441978513e-11,1.746612631e-11,6.088492080e-11,1.377702144e-10,2.790065042e-11,1.346911452e-10,1.441305109e-12,8.829285839e-13
1.0938,1.489050233e-10,8.483298581e-11,2.316049033e-11,7.799718272e-12,1.075856611e-11,2.431521940e-11,1.072858315e-11,1.147807657e-11,1.806608640e-12,9.959171563e-12,1.815518673e-11,1.262637671e-11,1.576847890e-11,5.786819809e-12,2.704534452e-11,2.415855523e-12,3.913779156e-11,1.783434835e-11,2.786464747e-11,5.743873390e-11,2.511913248e-11,1.800548041e-11,3.802309306e-11,5.458124598e-11,9.101791655e-11,1.684309703e-11,5.892634758e-11,1.329697351e-10,2.701691325e-11,1.314212470e-10,1.445548575e-12,8.361756537e-13
1.1016,1.442761707e-10,8.210397995e-11,2.224741197e-11,7.550837363e-12,1.030820583e-11,2.313311363e-11,1.021107118e-11,1.096956650e-11,1.715104810e-12,9.509239383e-12,1.721959994e-11,1.201749620e-11,1.501744473e-11,5.518729979e-12,2.580456873e-11,2.336238978e-12,3.740119717e-11,1.706132492e-11,2.666808102e-11,5.503355328e-11,2.420040647e-11,1.724657457e-11,3.663102877e-11,5.263079714e-11,8.774432521e-11,1.624556005e-11,5.704303625e-11,1.283433743e-10,2.617725830e-11,1.282692154e-10,1.451047530e-12,7.914334993e-13
1.1094,1.398203858e-10,7.947848340e-11,2.137179072e-11,7.309283604e-12,9.874502521e-12,2.200259520e-11,9.716459230e-12,1.048172671e-11,1.628165644e-12,9.078850437e-12,1.632905593e-11,1.143804453e-11,1.430088981e-11,5.264808782e-12,2.462042997e-11,2.261379743e-12,3.573223441e-11,1.632019095e-11,2.551660290e-11,5.272545231e-11,2.331108169e-11,1.651591267e-11,3.528475124e-11,5.074252564e-11,8.458133211e-11,1.566635368e-11,5.522023462e-11,1.238785538e-10,2.537675861e-11,1.252422167e-10,1.457761666e-12,7.486747305e-13
1.1172,1.355240259e-10,7.694820798e-11,2.052938484e-11,7.074500154e-12,9.456954494e-12,2.091991489e-11,9.242575244e-12,1.001373511e-11,1.545262279e-12,8.666122181e-12,1.547953871e-11,1.088569819e-11,1.361684250e-11,5.023798452e-12,2.348892353e-11,2.190569293e-12,3.412984403e-11,1.561001405e-11,2.440894323e-11,5.050917107e-11,2.245108894e-11,1.581254247e-11,3.398339578e-11,4.891479780e-11,8.152764900e-11,1.510609294e-11,5.345575995e-11,1.195697385e-10,2.461430976e-11,1.223299267e-10,1.465796888e-12,7.078335279e-13
1.125,1.314164711e-10,7.451955384e-11,1.973523439e-11,6.852553061e-12,9.060099854e-12,1.989552930e-11,8.794895509e-12,9.567534460e-12,1.465318671e-12,8.271035879e-12,1.466890762e-11,1.035296688e-11,1.295671717e-11,4.790291143e-12,2.239848787e-11,2.121206848e-12,3.259609015e-11,1.492352346e-11,2.334398769e-11,4.839086745e-11,2.162655835e-11,1.513584688e-11,3.273483921e-11,4.717472531e-11,7.859693125e-11,1.456736745e-11,5.175730356e-11,1.154135313e-10,2.389044079e-11,1.195167996e-10,1.474824546e-12,6.688517148e-13
1.1328,1.274582585e-10,7.218240813e-11,1.897533533e-11,6.638770281e-12,8.678959195e-12,1.891810328e-11,8.367012558e-12,9.140592707e-12,1.389181097e-12,7.892754372e-12,1.389639608e-11,9.845116474e-12,1.232776568e-11,4.569494443e-12,2.135809959e-11,2.056404290e-12,3.112626743e-11,1.426634172e-11,2.232263707e-11,4.636076973e-11,2.083223627e-11,1.448550181e-11,3.153072299e-11,4.549831454e-11,7.576743712e-11,1.404678290e-11,5.011547677e-11,1.114074883e-10,2.320304830e-11,1.168079484e-10,1.484904391e-12,6.316319515e-13
1.1406,1.236249505e-10,6.992630943e-11,1.824019402e-11,6.431654248e-12,8.311419793e-12,1.798156659e-11,7.954839206e-12,8.731194516e-12,1.316642909e-12,7.529782078e-12,1.315881605e-11,9.362264315e-12,1.173106314e-11,4.362263569e-12,2.036781749e-11,1.996765501e-12,2.971513513e-11,1.363855252e-11,2.134300039e-11,4.440446498e-11,2.006395060e-11,1.386065252e-11,3.036701054e-11,4.386958955e-11,7.303089506e-11,1.354448472e-11,4.852811321e-11,1.075460096e-10,2.255111740e-11,1.141995526e-10,1.496238197e-12,5.961089457e-13
1.1484,1.186719124e-10,6.710129748e-11,1.746575166e-11,6.109426950e-12,7.845793317e-12,1.703250876e-11,7.648966225e-12,8.295714546e-12,1.252918963e-12,7.241739226e-12,1.269097307e-11,9.053774677e-12,1.130790783e-11,4.262211119e-12,1.974019187e-11,2.030848734e-12,2.847311940e-11,1.311873850e-11,2.041516934e-11,4.234875205e-11,1.931289099e-11,1.325085539e-11,2.903314593e-11,4.214025876e-11,7.006620274e-11,1.297727574e-11,4.671352664e-11,1.033425168e-10,2.186146280e-11,1.109448966e-10,1.513808615e-12,5.612776713e-13
1.1562,1.148830745e-10,6.490956568e-11,1.681898734e-11,5.889186133e-12,7.492610567e-12,1.620831017e-11,7.327817181e-12,7.922384328e-12,1.190268527e-12,6.934519109e-12,1.212743515e-11,8.681169339e-12,1.082801276e-11,4.092928996e-12,1.894770922e-11,2.006864160e-12,2.725733249e-11,1.258418214e-11,1.955504944e-11,4.055950309e-11,1.863223834e-11,1.269027629e-11,2.794034547e-11,4.066564246e-11,6.753366777e-11,1.250619301e-11,4.521342006e-11,9.970266151e-11,2.129107346e-11,1.083844722e-10,1.533705650e-12,5.281526217e-13
1.1641,1.118099214e-10,6.303901513e-11,1.618062044e-11,5.731241687e-12,7.194909003e-12,1.540176188e-11,6.939515386e-12,7.567827014e-12,1.125745594e-12,6.585890704e-12,1.142198636e-11,8.220939187e-12,1.025636064e-11,3.875422959e-12,1.796266288e-11,1.931318641e-12,2.595531706e-11,1.199786289e-11,1.866317228e-11,3.884687477e-11,1.792833918e-11,1.213324464e-11,2.693550329e-11,3.919965740e-11,6.512168663e-11,1.207351341e-11,4.383077486e-11,9.629487651e-11,2.078634888e-11,1.062486108e-10,1.551143636e-12,4.970597190e-13
1.1719,1.086632314e-10,6.116654517e-11,1.558359934e-11,5.563632528e-12,6.896803977e-12,1.464514222e-11,6.599784120e-12,7.228604450e-12,1.065451159e-12,6.272936086e-12,1.080394184e-11,7.811747289e-12,9.746447540e-12,3.691625547e-12,1.710063110e-11,1.877335984e-12,2.475579535e-11,1.145916379e-11,1.783067055e-11,3.720520585e-11,1.727101385e-11,1.160514362e-11,2.595413104e-11,3.781087208e-11,6.279419476e-11,1.164860964e-11,4.247712754e-11,9.298800574e-11,2.029008369e-11,1.040805436e-10,1.568249014e-12,4.673335456e-13
1.1797,1.055075351e-10,5.932738213e-11,1.502432615e-11,5.395253441e-12,6.604672384e-12,1.393503297e-11,6.298645147e-12,6.905183778e-12,1.008209863e-12,5.986030131e-12,1.024854298e-11,7.440249234e-12,9.280499519e-12,3.529027470e-12,1.632066323e-11,1.836748931e-12,2.363405829e-11,1.095559829e-11,1.705208616e-11,3.563359297e-11,1.666318693e-11,1.110527803e-11,2.500855575e-11,3.650817804e-11,6.056398729e-11,1.123703657e-11,4.116924916e-11,8.980909749e-11,1.981431661e-11,1.019195768e-10,1.585879810e-12,4.388591535e-13
1.1875,1.026277076e-10,5.759253102e-11,1.447441127e-11,5.242804817e-12,6.330941318e-12,1.324915480e-11,5.985781262e-12,6.594858606e-12,9.531202428e-13,5.696393706e-12,9.682013019e-12,7.060770090e-12,8.811271554e-12,3.367858898e-12,1.552996131e-11,1.787032551e-12,2.252663049e-11,1.045676811e-11,1.627722368e-11,3.410771722e-11,1.604539775e-11,1.061488783e-11,2.409140614e-11,3.519329945e-11,5.838398238e-11,1.084032738e-11,3.990102814e-11,8.673192282e-11,1.937103734e-11,9.993193576e-11,1.603041799e-12,4.120552136e-13
1.1953,9.984050492e-11,5.591839013e-11,1.395383230e-11,5.094828756e-12,6.067173909e-12,1.259963474e-11,5.692378446e-12,6.298289441e-12,9.006328716e-13,5.422414144e-12,9.147325766e-12,6.699558671e-12,8.365987068e-12,3.219949238e-12,1.478414517e-11,1.741709506e-12,2.147220085e-11,9.980471921e-12,1.553579746e-11,3.264655816e-11,1.545395415e-11,1.014376768e-11,2.320659967e-11,3.393378441e-11,5.628440642e-11,1.045677811e-11,3.867597775e-11,8.376574531e-11,1.894970232e-11,9.800927934e-11,1.619886827e-12,3.867185748e-13
1.2031,9.709265273e-11,5.430631931e-11,1.346916212e-11,4.951900248e-12,5.813716907e-12,1.199056410e-11,5.426735184e-12,6.016663605e-12,8.501952115e-13,5.167120412e-12,8.649017777e-12,6.360905625e-12,7.947986420e-12,3.083447275e-12,1.408622129e-11,1.702833855e-12,2.047491293e-11,9.528782067e-12,1.484167946e-11,3.125412425e-11,1.491032673e-11,9.698599689e-12,2.236466555e-11,3.276662791e-11,5.428884467e-11,1.008947972e-11,3.750619250e-11,8.093800615e-11,1.855078207e-11,9.612052051e-11,1.636538600e-12,3.625652192e-13
1.2109,9.449795985e-11,5.274948455e-11,1.299692081e-11,4.814583462e-12,5.570485842e-12,1.140686929e-11,5.164318535e-12,5.746418073e-12,8.025580412e-13,4.919345792e-12,8.169322382e-12,6.032646810e-12,7.546364414e-12,2.957191226e-12,1.341870832e-11,1.666095262e-12,1.951648698e-11,9.094758398e-12,1.416395959e-11,2.990013717e-11,1.436737628e-11,9.266767084e-12,2.154284620e-11,3.159920663e-11,5.233892023e-11,9.733868870e-12,3.636417862e-11,7.818880219e-11,1.817676143e-11,9.433318298e-11,1.653102428e-12,3.397639662e-13
1.2188,9.201028467e-11,5.124723300e-11,1.254386421e-11,4.681337101e-12,5.336067541e-12,1.085081516e-11,4.913735844e-12,5.487471655e-12,7.575612343e-13,4.683279216e-12,7.714670425e-12,5.719415423e-12,7.164077773e-12,2.841717435e-12,1.278776878e-11,1.633119757e-12,1.860093540e-11,8.679781170e-12,1.351031824e-11,2.859736138e-11,1.383769839e-11,8.849984299e-12,2.074651892e-11,3.046234235e-11,5.045153860e-11,9.390497445e-12,3.525736266e-11,7.552768555e-11,1.782617592e-11,9.262195921e-11,1.669960051e-12,3.184031015e-13
1.2266,8.960290744e-11,4.982373507e-11,1.212054432e-11,4.557148684e-12,5.114171608e-12,1.032767645e-11,4.681110710e-12,5.241982879e-12,7.140078957e-13,4.459185172e-12,7.277613431e-12,5.418296131e-12,6.796045684e-12,2.730478396e-12,1.217833417e-11,1.600806160e-12,1.772272746e-11,8.280031529e-12,1.289376603e-11,2.736028349e-11,1.334638775e-11,8.454191250e-12,1.999386408e-11,2.940902975e-11,4.866379214e-11,9.064321268e-12,3.420912759e-11,7.300163968e-11,1.750035288e-11,9.097051580e-11,1.686842507e-12,2.983612654e-13
1.2344,8.730242552e-11,4.844484554e-11,1.171569083e-11,4.435987727e-12,4.900584153e-12,9.830303511e-12,4.459093622e-12,5.006963349e-12,6.729873313e-13,4.245570730e-12,6.866250627e-12,5.131993319e-12,6.447238741e-12,2.629100603e-12,1.160444239e-11,1.572280946e-12,1.688773123e-11,7.898695518e-12,1.229824348e-11,2.616748050e-11,1.286464142e-11,8.072329678e-12,1.926279236e-11,2.837678170e-11,4.693102871e-11,8.749504319e-12,3.319142178e-11,7.055256641e-11,1.719669340e-11,8.939025262e-11,1.703876927e-12,2.794942957e-13
1.2422,8.509237342e-11,4.710410996e-11,1.132631275e-11,4.315599747e-12,4.693524574e-12,9.355570625e-12,4.247858812e-12,4.781185440e-12,6.346361407e-13,4.043188774e-12,6.482560133e-12,4.862649812e-12,6.119586189e-12,2.538626402e-12,1.107033053e-11,1.549147977e-12,1.609547483e-11,7.536873469e-12,1.172325162e-11,2.501582404e-11,1.239119443e-11,7.703616308e-12,1.855011619e-11,2.736262855e-11,4.524882771e-11,8.444944864e-12,3.220073713e-11,6.817006243e-11,1.691511531e-11,8.787503818e-11,1.721727391e-12,2.616953547e-13
1.25,8.298686190e-11,4.584365039e-11,1.095757761e-11,4.205384101e-12,4.499286135e-12,8.906120511e-12,4.045284650e-12,4.567065000e-12,5.974493256e-13,3.848108928e-12,6.104836401e-12,4.599368157e-12,5.800029690e-12,2.449079983e-12,1.054517475e-11,1.524554608e-12,1.532674409e-11,7.185583565e-12,1.117615581e-11,2.391416313e-11,1.194474595e-11,7.352101188e-12,1.787552394e-11,2.640946740e-11,4.365068796e-11,8.156682172e-12,3.126406851e-11,6.590893604e-11,1.665967197e-11,8.643740571e-11,1.740211897e-12,2.449681371e-13
1.2578,8.097642305e-11,4.463191605e-11,1.060872328e-11,4.099369479e-12,4.313563527e-12,8.480906253e-12,3.854363008e-12,4.362680045e-12,5.622687184e-13,3.663287651e-12,5.748042940e-12,4.348558820e-12,5.495947771e-12,2.366280961e-12,1.004773549e-11,1.502462595e-12,1.459278283e-11,6.848509021e-12,1.065019174e-11,2.285590309e-11,1.151257373e-11,7.014159795e-12,1.722499866e-11,2.548947749e-11,4.211210580e-11,7.880106272e-12,3.036152830e-11,6.372908543e-11,1.642586668e-11,8.506429372e-11,1.759288422e-12,2.292867660e-13
1.2656,7.903406247e-11,4.344691721e-11,1.027559836e-11,3.992249944e-12,4.132479222e-12,8.076207982e-12,3.676778855e-12,4.166119228e-12,5.296305843e-13,3.490424511e-12,5.422728852e-12,4.116586595e-12,5.214354879e-12,2.294310384e-12,9.592810440e-12,1.486833612e-12,1.390242333e-11,6.530592165e-12,1.014441393e-11,2.183893860e-11,1.108974503e-11,6.688264707e-12,1.659020895e-11,2.459050977e-11,4.061986619e-11,7.612385006e-12,2.948102481e-11,6.160446888e-11,1.621146035e-11,8.374110675e-11,1.779563259e-12,2.145749008e-13
1.2734,7.720084678e-11,4.233225463e-11,9.955920508e-12,3.894134525e-12,3.962497720e-12,7.690963824e-12,3.502816094e-12,3.979464590e-12,4.982446180e-13,3.322634330e-12,5.103396619e-12,3.890414316e-12,4.941247141e-12,2.223512212e-12,9.148296544e-12,1.470757778e-12,1.323708154e-11,6.224889530e-12,9.661838535e-12,2.086797829e-11,1.068537854e-11,6.376448955e-12,1.598765305e-11,2.373681182e-11,3.919726007e-11,7.358925007e-12,2.864759409e-11,5.958628254e-11,1.602221683e-11,8.250146425e-11,1.801010041e-12,2.008240270e-13
1.2812,7.546456049e-11,4.127099231e-11,9.653479605e-12,3.801214220e-12,3.800942288e-12,7.326458369e-12,3.337736277e-12,3.801820929e-12,4.685077729e-13,3.163341363e-12,4.799704217e-12,3.674034789e-12,4.679922119e-12,2.156677087e-12,8.723694069e-12,1.456200244e-12,1.260262917e-11,5.932542629e-12,9.200151025e-12,1.994341140e-11,1.029679768e-11,6.077491144e-12,1.541098805e-11,2.292215134e-11,3.783533899e-11,7.116437224e-12,2.785115706e-11,5.765388614e-11,1.585507052e-11,8.132987130e-11,1.823536203e-12,1.879095524e-13
1.2891,7.377746695e-11,4.023183001e-11,9.368570092e-12,3.706194442e-12,3.642943415e-12,6.981556164e-12,3.188931868e-12,3.631288301e-12,4.409815365e-13,3.016763504e-12,4.527211040e-12,3.476545918e-12,4.438869483e-12,2.098416108e-12,8.336386851e-12,1.447592877e-12,1.200748528e-11,5.657005292e-12,8.758881392e-12,1.906049371e-11,9.921512081e-12,5.790517121e-12,1.484974967e-11,2.213586935e-11,3.652024108e-11,6.881125753e-12,2.707474050e-11,5.577126919e-11,1.570549609e-11,8.019404647e-11,1.847419719e-12,1.756682990e-13
1.2969,7.218771457e-11,3.924890454e-11,9.095192202e-12,3.618311360e-12,3.494258568e-12,6.653896052e-12,3.044149762e-12,3.469346508e-12,4.147670424e-13,2.875307344e-12,4.263144299e-12,3.286702012e-12,4.206589236e-12,2.040808015e-12,7.959403486e-12,1.439436844e-12,1.143424482e-11,5.392122051e-12,8.335884339e-12,1.821311672e-11,9.558833620e-12,5.515439294e-12,1.431372294e-11,2.138015146e-11,3.526136849e-11,6.657655804e-12,2.633666884e-11,5.397697320e-11,1.557817060e-11,7.913581354e-11,1.872426088e-12,1.641645165e-13
1.3047,7.070092924e-11,3.832198452e-11,8.835359649e-12,3.537127360e-12,3.354579970e-12,6.343464626e-12,2.903818585e-12,3.315375374e-12,3.898754346e-13,2.738778882e-12,4.007556249e-12,3.103807146e-12,3.982208691e-12,1.983573939e-12,7.591786536e-12,1.431331912e-12,1.088182736e-11,5.136620646e-12,7.929176650e-12,1.740268569e-11,9.208056362e-12,5.251444706e-12,1.380103689e-11,2.065561440e-11,3.405559237e-11,6.444814976e-12,2.563494636e-11,5.226650228e-11,1.547203203e-11,7.815361402e-11,1.898537218e-12,1.534104962e-13
1.3125,6.925947611e-11,3.742161376e-11,8.592485608e-12,3.454864432e-12,3.219053613e-12,6.050297465e-12,2.777807663e-12,3.167603130e-12,3.666101187e-13,2.611858554e-12,3.775814660e-12,2.936036265e-12,3.773723697e-12,1.931113744e-12,7.250403104e-12,1.426712362e-12,1.035914966e-11,4.893481279e-12,7.541504927e-12,1.663118397e-11,8.873117115e-12,4.998834295e-12,1.330396699e-11,1.996538464e-11,3.289606846e-11,6.239013227e-12,2.495440005e-11,5.060499556e-11,1.538277591e-11,7.720266714e-11,1.926093046e-12,1.432585177e-13
1.3203,6.789834102e-11,3.656513724e-11,8.361246515e-12,3.376967247e-12,3.090669632e-12,5.772714909e-12,2.657633126e-12,3.027178228e-12,3.446441502e-13,2.490532400e-12,3.555964613e-12,2.777038430e-12,3.575183528e-12,1.880229894e-12,6.923286206e-12,1.422801268e-12,9.859515449e-12,4.660995373e-12,7.170616823e-12,1.589286324e-11,8.550565542e-12,4.756868928e-12,1.282840095e-11,1.930264199e-11,3.178641639e-11,6.043165757e-12,2.430669143e-11,4.901868742e-11,1.531345086e-11,7.631711995e-11,1.954491200e-12,1.336999572e-13
1.3281,6.663274871e-11,3.575665963e-11,8.139985870e-12,3.304283775e-12,2.969539267e-12,5.509355738e-12,2.540294597e-12,2.894084991e-12,3.240186627e-13,2.373528907e-12,3.344564747e-12,2.624534819e-12,3.383838043e-12,1.830207570e-12,6.606054434e-12,1.418622442e-12,9.379673184e-12,4.438250618e-12,6.813396334e-12,1.518618201e-11,8.236316308e-12,4.524379406e-12,1.237333274e-11,1.866017687e-11,3.072186860e-11,5.856408911e-12,2.369104537e-11,4.751090106e-11,1.526249152e-11,7.550816074e-11,1.983280385e-12,1.247475773e-13
1.3359,6.540529732e-11,3.497583229e-11,7.931973135e-12,3.231584808e-12,2.852507566e-12,5.260643188e-12,2.434021430e-12,2.767105020e-12,3.045817143e-13,2.263706458e-12,3.150481066e-12,2.483282935e-12,3.203592324e-12,1.782768559e-12,6.305505450e-12,1.415849528e-12,8.921706633e-12,4.225436721e-12,6.473250360e-12,1.451399636e-11,7.936248844e-12,4.302336591e-12,1.193306499e-11,1.804805653e-11,2.969870539e-11,5.675823569e-12,2.309394788e-11,4.605049860e-11,1.522553483e-11,7.472776406e-11,2.013233100e-12,1.162923780e-13
1.3438,6.424045712e-11,3.423261565e-11,7.735527788e-12,3.162927500e-12,2.741681316e-12,5.026583924e-12,2.334737517e-12,2.646479296e-12,2.862213161e-13,2.159301344e-12,2.968921626e-12,2.350516765e-12,3.032374715e-12,1.737124180e-12,6.018110966e-12,1.414137652e-12,8.485074410e-12,4.022087316e-12,6.148947700e-12,1.387347849e-11,7.648776246e-12,4.090325110e-12,1.151152244e-11,1.746387713e-11,2.872025542e-11,5.503672482e-12,2.252407912e-11,4.465303164e-11,1.520608026e-11,7.399878754e-11,2.044606971e-12,1.083056446e-13
1.3516,6.316673287e-11,3.353170106e-11,7.548000874e-12,3.099359272e-12,2.637222450e-12,4.805107789e-12,2.238366968e-12,2.531668772e-12,2.691660695e-13,2.058757558e-12,2.796498003e-12,2.224471909e-12,2.869021723e-12,1.693569896e-12,5.742724481e-12,1.413436484e-12,8.068724959e-12,3.828284746e-12,5.836802667e-12,1.326079993e-11,7.368652080e-12,3.886880393e-12,1.110854813e-11,1.689453348e-11,2.778205278e-11,5.339758874e-12,2.198420739e-11,4.332656506e-11,1.520418247e-11,7.334473524e-11,2.076838211e-12,1.008083011e-13
1.3594,6.213790685e-11,3.285962704e-11,7.370555927e-12,3.037077796e-12,2.537120106e-12,4.595883579e-12,2.149566759e-12,2.422160432e-12,2.529408022e-13,1.962669757e-12,2.634237387e-12,2.105990522e-12,2.713751314e-12,1.651587736e-12,5.477910088e-12,1.413103808e-12,7.668049453e-12,3.642316837e-12,5.539389858e-12,1.267561754e-11,7.101172684e-12,3.692693812e-12,1.072042703e-11,1.634748653e-11,2.688103448e-11,5.181878469e-12,2.146475250e-11,4.204812571e-11,1.521571681e-11,7.272390073e-11,2.109963542e-12,9.375577878e-14
1.3672,6.115964683e-11,3.221928562e-11,7.203807700e-12,2.977704489e-12,2.442142848e-12,4.399559706e-12,2.067519119e-12,2.318248139e-12,2.374642634e-13,1.871125187e-12,2.481773767e-12,1.994156274e-12,2.565584590e-12,1.611409784e-12,5.223458518e-12,1.413118733e-12,7.284284556e-12,3.463811102e-12,5.256068974e-12,1.211797493e-11,6.846331671e-12,3.507489173e-12,1.034833333e-11,1.582716188e-11,2.601730136e-11,5.030938092e-12,2.096820729e-11,4.082328623e-11,1.524282840e-11,7.214313791e-11,2.144193617e-12,8.712398247e-14
1.375,6.025545109e-11,3.161162114e-11,7.045569736e-12,2.921276262e-12,2.351480336e-12,4.213713033e-12,1.989150183e-12,2.219096062e-12,2.232762874e-13,1.784196045e-12,2.341251611e-12,1.889848680e-12,2.426125077e-12,1.575197939e-12,4.984881316e-12,1.415146997e-12,6.922079032e-12,3.294687595e-12,4.983339276e-12,1.158533022e-11,6.598095808e-12,3.329892165e-12,9.990692200e-12,1.532203171e-11,2.518460206e-11,4.886441235e-12,2.049428915e-11,3.965789250e-11,1.528580437e-11,7.162836720e-11,2.179279046e-12,8.090674209e-14
1.3828,5.939914186e-11,3.103313617e-11,6.895474112e-12,2.867071651e-12,2.264690675e-12,4.037912482e-12,1.915226644e-12,2.124725843e-12,2.098807025e-13,1.700883491e-12,2.208319102e-12,1.791365442e-12,2.293892260e-12,1.540925633e-12,4.756390228e-12,1.417889893e-12,6.575110686e-12,3.133566649e-12,4.723666514e-12,1.107520469e-11,6.360190013e-12,3.160654319e-12,9.647409994e-12,1.483429405e-11,2.438520716e-11,4.747709980e-12,2.004021815e-11,3.854200015e-11,1.534164401e-11,7.115564970e-11,2.215235888e-12,7.507770181e-14
1.3906,5.859449309e-11,3.048827247e-11,6.755620207e-12,2.816843632e-12,2.182841396e-12,3.873803939e-12,1.846564080e-12,2.035605148e-12,1.970292941e-13,1.621103143e-12,2.080641730e-12,1.696967082e-12,2.166848486e-12,1.507632761e-12,4.534381040e-12,1.420200896e-12,6.241635981e-12,2.979148245e-12,4.477538208e-12,1.058904218e-11,6.134806794e-12,2.999853187e-12,9.320509749e-12,1.436954991e-11,2.362396399e-11,4.615729528e-12,1.960997826e-11,3.747818385e-11,1.541229245e-11,7.072527971e-11,2.252422782e-12,6.962038817e-14
1.3984,5.785190498e-11,2.997025387e-11,6.624136096e-12,2.768424275e-12,2.104105370e-12,3.719013568e-12,1.783214958e-12,1.950550397e-12,1.852815214e-13,1.546174313e-12,1.964979572e-12,1.609691462e-12,2.048256314e-12,1.478630849e-12,4.328064446e-12,1.424007400e-12,5.928112390e-12,2.833055565e-12,4.241276726e-12,1.012560953e-11,5.916232285e-12,2.845830911e-12,9.005175425e-12,1.391818994e-11,2.289151879e-11,4.489307390e-12,1.919901305e-11,3.646133620e-11,1.549837688e-11,7.035214541e-11,2.290902705e-12,6.453196404e-14
1.4062,5.715645194e-11,2.947717423e-11,6.498261520e-12,2.722003700e-12,2.028712239e-12,3.572550477e-12,1.723043374e-12,1.869769520e-12,1.742380609e-13,1.474697374e-12,1.856560991e-12,1.527545399e-12,1.936746125e-12,1.452545306e-12,4.133068102e-12,1.428736760e-12,5.630009337e-12,2.694579105e-12,4.015607736e-12,9.680418018e-12,5.704640888e-12,2.698650587e-12,8.701173063e-12,1.347870715e-11,2.218643045e-11,4.368324880e-12,1.880650938e-11,3.548984933e-11,1.559784463e-11,7.002340375e-11,2.330427887e-12,5.982511212e-14
1.4141,5.651492824e-11,2.901658675e-11,6.379690665e-12,2.680165107e-12,1.958376542e-12,3.435804156e-12,1.665184822e-12,1.793837951e-12,1.635691096e-13,1.405775996e-12,1.750014070e-12,1.447416288e-12,1.828975295e-12,1.427896624e-12,3.943082231e-12,1.433519090e-12,5.343058946e-12,2.562295401e-12,3.801320140e-12,9.254258945e-12,5.502336685e-12,2.558677051e-12,8.411893748e-12,1.305731017e-11,2.151362536e-11,4.253574821e-12,1.843699050e-11,3.457005693e-11,1.571085051e-11,6.973840114e-11,2.370910367e-12,5.549506694e-14
1.4219,5.592132353e-11,2.857620570e-11,6.268200875e-12,2.639210985e-12,1.890354961e-12,3.306322435e-12,1.612625163e-12,1.721136655e-12,1.537651563e-13,1.341365420e-12,1.654354643e-12,1.373296605e-12,1.728569289e-12,1.408128523e-12,3.767609731e-12,1.440189169e-12,5.072440225e-12,2.437179805e-12,3.595979491e-12,8.847667796e-12,5.306421368e-12,2.424746096e-12,8.131458627e-12,1.264923530e-11,2.086347767e-11,4.142827668e-12,1.808077683e-11,3.368350510e-11,1.583599694e-11,6.949503838e-11,2.412491406e-12,5.150734480e-14
1.4297,5.536795704e-11,2.815466418e-11,6.161907572e-12,2.599362966e-12,1.824646103e-12,3.183413375e-12,1.563824676e-12,1.651802015e-12,1.446553663e-13,1.280930179e-12,1.567492021e-12,1.304590223e-12,1.635317177e-12,1.392159934e-12,3.605024947e-12,1.447782281e-12,4.817037875e-12,2.319157289e-12,3.399878038e-12,8.458038566e-12,5.117042533e-12,2.296741906e-12,7.860251466e-12,1.225301172e-11,2.023558398e-11,4.036639422e-12,1.773934906e-11,3.283183743e-11,1.597319121e-11,6.928980041e-11,2.455119444e-12,4.786889830e-14
1.4375,5.472403832e-11,2.728164084e-11,5.864099914e-12,2.465424411e-12,1.697804880e-12,2.890486109e-12,1.343388787e-12,1.483432602e-12,1.259005675e-13,1.138538150e-12,1.357340683e-12,1.164461195e-12,1.471988328e-12,1.338549920e-12,3.247575066e-12,1.402510364e-12,4.204032559e-12,2.027227066e-12,2.998716356e-12,7.727729390e-12,4.727014893e-12,2.114577326e-12,7.353640892e-12,1.129637510e-11,1.903347924e-11,3.891709153e-12,1.711233247e-11,3.126764382e-11,1.609233836e-11,6.899265528e-11,2.501063770e-12,4.315070025e-14
1.4453,5.436333842e-11,2.682136543e-11,5.738916655e-12,2.400795134e-12,1.627679973e-12,2.748489858e-12,1.256170746e-12,1.394533895e-12,1.152788623e-13,1.069585024e-12,1.258004576e-12,1.085911746e-12,1.380392962e-12,1.320672833e-12,3.066330883e-12,1.393996578e-12,3.894706858e-12,1.876429898e-12,2.771418782e-12,7.310607074e-12,4.493861633e-12,1.985809844e-12,7.049246935e-12,1.079149292e-11,1.832479037e-11,3.789470639e-12,1.674612245e-11,3.027701412e-11,1.626242654e-11,6.889504607e-11,2.549838356e-12,3.903992737e-14
1.4531,5.393055550e-11,2.659525079e-11,5.686030546e-12,2.393158437e-12,1.588355280e-12,2.674643991e-12,1.256194170e-12,1.356915911e-12,1.095328601e-13,1.041780548e-12,1.208656365e-12,1.039755288e-12,1.313208180e-12,1.327887161e-12,2.980704127e-12,1.417554886e-12,3.774564294e-12,1.818731798e-12,2.648903822e-12,7.082759754e-12,4.367120186e-12,1.882890345e-12,6.872660502e-12,1.059325458e-11,1.795233398e-11,3.713280585e-12,1.654626769e-11,2.970456715e-11,1.646786544e-11,6.886608897e-11,2.598482958e-12,3.602249168e-14
1.4609,5.360716207e-11,2.632042051e-11,5.617627321e-12,2.370405933e-12,1.542220973e-12,2.588824710e-12,1.228505102e-12,1.306827882e-12,1.028490246e-13,1.002960797e-12,1.149102105e-12,9.873520795e-13,1.244221480e-12,1.328463629e-12,2.872204819e-12,1.431072214e-12,3.604566835e-12,1.737570773e-12,2.502331985e-12,6.804700071e-12,4.214290287e-12,1.779144111e-12,6.666955458e-12,1.030206421e-11,1.748980176e-11,3.634698183e-12,1.631321663e-11,2.905872211e-11,1.667465112e-11,6.887655419e-11,2.647499143e-12,3.320867591e-14
1.4688,5.337765834e-11,2.600898954e-11,5.543004043e-12,2.334110361e-12,1.489161860e-12,2.496822241e-12,1.183969390e-12,1.247266895e-12,9.537339393e-14,9.581365936e-13,1.086189450e-12,9.326649851e-13,1.175517140e-12,1.325292199e-12,2.750094466e-12,1.437542605e-12,3.400561700e-12,1.640608991e-12,2.340111512e-12,6.492459303e-12,4.046117626e-12,1.676035332e-12,6.437147710e-12,9.951246558e-12,1.695800862e-11,3.551220231e-12,1.605112337e-11,2.835222558e-11,1.688609378e-11,6.890846757e-11,2.698019010e-12,3.049091375e-14
1.4766,5.310031794e-11,2.577595663e-11,5.482748681e-12,2.317113650e-12,1.448528598e-12,2.423203645e-12,1.167414420e-12,1.205451160e-12,8.994266319e-14,9.259774555e-13,1.040356902e-12,8.894671657e-13,1.117021254e-12,1.332022043e-12,2.663065374e-12,1.455051778e-12,3.262428154e-12,1.574237244e-12,2.213937188e-12,6.251584442e-12,3.909670836e-12,1.583226650e-12,6.252265275e-12,9.695738819e-12,1.655540767e-11,3.482176226e-12,1.584759403e-11,2.778823933e-11,1.711589424e-11,6.899265738e-11,2.749283482e-12,2.829848069e-14
1.4844,5.289895052e-11,2.556089769e-11,5.426073085e-12,2.301875596e-12,1.409566693e-12,2.353924445e-12,1.148702762e-12,1.164891782e-12,8.497282795e-14,8.945394519e-13,9.974086190e-13,8.484433516e-13,1.061877259e-12,1.338954121e-12,2.579620442e-12,1.472463311e-12,3.127515013e-12,1.510070341e-12,2.091338425e-12,6.013593371e-12,3.775642000e-12,1.494811279e-12,6.073330854e-12,9.437197042e-12,1.615885572e-11,3.416690132e-12,1.565684409e-11,2.726398953e-11,1.735412266e-11,6.913407740e-11,2.801054643e-12,2.639090957e-14
1.4922,5.280864069e-11,2.533156458e-11,5.372809836e-12,2.278450601e-12,1.365502813e-12,2.285581534e-12,1.119440173e-12,1.118806933e-12,7.954988017e-14,8.606119596e-13,9.553204551e-13,8.075970106e-13,1.008467083e-12,1.342653321e-12,2.488708188e-12,1.484670317e-12,2.971093931e-12,1.437492120e-12,1.960875510e-12,5.751002947e-12,3.635570652e-12,1.408544556e-12,5.879860839e-12,9.142686633e-12,1.571215026e-11,3.346110748e-12,1.545068314e-11,2.672206043e-11,1.759573021e-11,6.930430057e-11,2.853910264e-12,2.465248465e-14
1.5,5.268225971e-11,2.513628232e-11,5.321945271e-12,2.263747131e-12,1.328060533e-12,2.223941653e-12,1.102744335e-12,1.081202572e-12,7.513072290e-14,8.317227034e-13,9.207205959e-13,7.718657145e-13,9.604032011e-13,1.350459061e-12,2.413018064e-12,1.500151973e-12,2.843884174e-12,1.377700890e-12,1.847622851e-12,5.525776855e-12,3.508495550e-12,1.327980307e-12,5.707925553e-12,8.888119079e-12,1.533305164e-11,3.284802842e-12,1.527098794e-11,2.624412786e-11,1.784874309e-11,6.950832804e-11,2.907619310e-12,2.332259873e-14
1.5078,5.259931205e-11,2.496848566e-11,5.272928114e-12,2.253805578e-12,1.294132657e-12,2.166058641e-12,1.089050819e-12,1.047162480e-12,7.146864914e-14,8.048855028e-13,8.902698668e-13,7.392312563e-13,9.162074490e-13,1.359744996e-12,2.344664466e-12,1.516964622e-12,2.730165334e-12,1.324085002e-12,1.742466541e-12,5.316353046e-12,3.387531344e-12,1.251929743e-12,5.548470526e-12,8.647880708e-12,1.498273191e-11,3.229161335e-12,1.511097351e-11,2.581838895e-11,1.811139243e-11,6.977230384e-11,2.961968900e-12,2.228032797e-14
1.5156,5.263228065e-11,2.480624269e-11,5.231712153e-12,2.240476267e-12,1.257072478e-12,2.113365220e-12,1.069782573e-12,1.011160574e-12,6.780071883e-14,7.782695473e-13,8.643687562e-13,7.094040984e-13,8.755671160e-13,1.367454888e-12,2.276044389e-12,1.532116272e-12,2.609214794e-12,1.269549100e-12,1.636648734e-12,5.091917143e-12,3.268258550e-12,1.179576173e-12,5.383319389e-12,8.394233965e-12,1.460221762e-11,3.169262900e-12,1.494867188e-11,2.541095291e-11,1.837780753e-11,7.007722714e-11,3.017336736e-12,2.138285695e-14
1.5234,5.265482356e-11,2.466035316e-11,5.192272659e-12,2.231346227e-12,1.223616697e-12,2.064612508e-12,1.055351514e-12,9.794307334e-13,6.459408420e-14,7.535348043e-13,8.418403786e-13,6.821771206e-13,8.374294541e-13,1.376079521e-12,2.213224576e-12,1.548052923e-12,2.499500787e-12,1.219967146e-12,1.539267909e-12,4.884644577e-12,3.154753158e-12,1.111238041e-12,5.227832394e-12,8.155403840e-12,1.425490654e-11,3.114653385e-12,1.479899002e-11,2.503525202e-11,1.865144172e-11,7.040826238e-11,3.073794003e-12,2.072024647e-14
1.5312,5.269454569e-11,2.453602139e-11,5.153456380e-12,2.226237637e-12,1.193563100e-12,2.017173781e-12,1.044745425e-12,9.507054437e-13,6.200326370e-14,7.303103857e-13,8.222119438e-13,6.568526451e-13,8.013865201e-13,1.385110695e-12,2.155017727e-12,1.564165469e-12,2.399640989e-12,1.173851791e-12,1.447828127e-12,4.694089364e-12,3.044474830e-12,1.046228617e-12,5.082541897e-12,7.926706496e-12,1.393702957e-11,3.065878680e-12,1.466526874e-11,2.469513831e-11,1.893508995e-11,7.079370912e-11,3.131396023e-12,2.026735689e-14
1.5391,5.283625420e-11,2.442981045e-11,5.124623486e-12,2.221015938e-12,1.162115354e-12,1.976697134e-12,1.034712694e-12,9.227528201e-13,5.972771193e-14,7.098701847e-13,8.103454353e-13,6.356550291e-13,7.701048216e-13,1.393370781e-12,2.101658571e-12,1.579767435e-12,2.303143271e-12,1.131360433e-12,1.360923245e-12,4.500594684e-12,2.940688807e-12,9.855030985e-13,4.939527261e-12,7.702112160e-12,1.361005276e-11,3.014746106e-12,1.453979187e-11,2.439462043e-11,1.922659077e-11,7.122950696e-11,3.190542970e-12,1.998748569e-14
1.5469,5.300146004e-11,2.433833855e-11,5.098888272e-12,2.218638092e-12,1.133076167e-12,1.940122360e-12,1.027073862e-12,8.972560024e-13,5.768600212e-14,6.903812218e-13,8.002804301e-13,6.160364381e-13,7.405984507e-13,1.401022427e-12,2.050025805e-12,1.594857209e-12,2.211269346e-12,1.091513514e-12,1.280039407e-12,4.316170417e-12,2.842691850e-12,9.284475196e-13,4.804137536e-12,7.488498291e-12,1.330276752e-11,2.967256282e-12,1.442632436e-11,2.412204892e-11,1.952689182e-11,7.169693701e-11,3.251327625e-12,1.988189460e-14
1.5547,5.317910699e-11,2.426114771e-11,5.070570676e-12,2.218741222e-12,1.106830856e-12,1.901840695e-12,1.020842217e-12,8.728396539e-13,5.592665615e-14,6.700104939e-13,7.894133913e-13,5.963648023e-13,7.112044404e-13,1.408335972e-12,1.997604175e-12,1.608831482e-12,2.121818510e-12,1.051264514e-12,1.201555015e-12,4.142989535e-12,2.745144091e-12,8.734532059e-13,4.674794859e-12,7.277424746e-12,1.301625676e-11,2.925128840e-12,1.432324842e-11,2.386225120e-11,1.983788241e-11,7.221304290e-11,3.313819264e-12,1.990617193e-14
1.5625,5.343047579e-11,2.420527450e-11,5.050102790e-12,2.220550709e-12,1.080266068e-12,1.869644328e-12,1.018028871e-12,8.505866989e-13,5.458879664e-14,6.528547011e-13,7.871273278e-13,5.810029168e-13,6.866408088e-13,1.416257826e-12,1.952371724e-12,1.623124382e-12,2.041965265e-12,1.016329423e-12,1.129408938e-12,3.973677402e-12,2.654624533e-12,8.223351165e-13,4.550385848e-12,7.076579127e-12,1.273279390e-11,2.881877962e-12,1.423030630e-11,2.364113870e-11,2.015978018e-11,7.277832788e-11,3.378508007e-12,2.009885039e-14
1.5703,5.373010324e-11,2.416884376e-11,5.035320627e-12,2.225405238e-12,1.055773984e-12,1.842678537e-12,1.017148198e-12,8.306634358e-13,5.349497053e-14,6.374247794e-13,7.875777274e-13,5.673517262e-13,6.640365426e-13,1.423637381e-12,1.909527361e-12,1.637015928e-12,1.967465715e-12,9.845253313e-13,1.063010395e-12,3.811639622e-12,2.570444694e-12,7.748925492e-13,4.433840446e-12,6.888181282e-12,1.246541180e-11,2.840990772e-12,1.415196429e-11,2.345908248e-11,2.049450326e-11,7.338952548e-11,3.445468154e-12,2.042678152e-14
1.5781,5.405872719e-11,2.414255345e-11,5.018184627e-12,2.230875167e-12,1.033453826e-12,1.813105771e-12,1.014888590e-12,8.101469080e-13,5.242172343e-14,6.202509115e-13,7.850371229e-13,5.521837589e-13,6.402120796e-13,1.430063325e-12,1.862882656e-12,1.649183145e-12,1.888408682e-12,9.495831298e-13,9.956251810e-13,3.654476857e-12,2.484090719e-12,7.286232903e-13,4.318834588e-12,6.696009158e-12,1.220766681e-11,2.803787759e-12,1.408047780e-11,2.328260013e-11,2.084156188e-11,7.405669184e-11,3.514316356e-12,2.079959239e-14
1.5859,5.442925471e-11,2.413171617e-11,5.005904059e-12,2.237767013e-12,1.011179939e-12,1.787655600e-12,1.017537126e-12,7.921148107e-13,5.169183423e-14,6.062894029e-13,7.905424713e-13,5.405819166e-13,6.205941405e-13,1.437886486e-12,1.824136410e-12,1.662129210e-12,1.819777827e-12,9.199107658e-13,9.341078147e-13,3.503788976e-12,2.403193453e-12,6.853651775e-13,4.207477556e-12,6.513995279e-12,1.195609845e-11,2.765575206e-12,1.401524058e-11,2.312804751e-11,2.119966091e-11,7.476165996e-11,3.585289688e-12,2.131483039e-14
1.5938,5.485245241e-11,2.414493559e-11,5.000417513e-12,2.248306662e-12,9.906185718e-13,1.767452126e-12,1.023593267e-12,7.769238456e-13,5.125338492e-14,5.949475117e-13,7.996610032e-13,5.309978624e-13,6.032191042e-13,1.445449585e-12,1.789572936e-12,1.674654473e-12,1.760507435e-12,8.951978385e-13,8.795179919e-13,3.362571552e-12,2.329809307e-12,6.458671178e-13,4.106277409e-12,6.346984701e-12,1.172258972e-11,2.729966914e-12,1.396863587e-11,2.301182044e-11,2.157401071e-11,7.551591841e-11,3.659069940e-12,2.196544423e-14
1.6016,5.533944204e-11,2.417410068e-11,4.994295811e-12,2.258816124e-12,9.716197488e-13,1.744089706e-12,1.025470537e-12,7.598566217e-13,5.064020442e-14,5.811324034e-13,8.031282983e-13,5.188171962e-13,5.834381425e-13,1.450951161e-12,1.748512231e-12,1.684118815e-12,1.692870498e-12,8.659192710e-13,8.222971271e-13,3.221904412e-12,2.252858966e-12,6.070458469e-13,4.006375366e-12,6.170758177e-12,1.149265241e-11,2.698692527e-12,1.393464233e-11,2.290268634e-11,2.196657853e-11,7.634466050e-11,3.735944003e-12,2.262492964e-14
1.6094,5.585760713e-11,2.421367608e-11,4.989474298e-12,2.270068587e-12,9.530812228e-13,1.723000813e-12,1.030998158e-12,7.446624301e-13,5.016730154e-14,5.697346352e-13,8.124613284e-13,5.088246093e-13,5.664315335e-13,1.458137189e-12,1.713525344e-12,1.694539426e-12,1.632320884e-12,8.398526338e-13,7.691066271e-13,3.086954292e-12,2.178224595e-12,5.699650476e-13,3.907649144e-12,6.000089544e-12,1.126831030e-11,2.667241443e-12,1.390397332e-11,2.280225377e-11,2.237304392e-11,7.720705695e-11,3.815965453e-12,2.341454767e-14
1.6172,5.641530719e-11,2.427615240e-11,4.988581808e-12,2.285878467e-12,9.365935306e-13,1.707269743e-12,1.042045941e-12,7.331073386e-13,5.006088284e-14,5.622059165e-13,8.283382816e-13,5.015032203e-13,5.525346792e-13,1.467225880e-12,1.686048912e-12,1.707000299e-12,1.585830043e-12,8.205007868e-13,7.241986142e-13,2.965240894e-12,2.112283483e-12,5.364472064e-13,3.818719504e-12,5.849531374e-12,1.106451937e-11,2.637558759e-12,1.388742743e-11,2.273554274e-11,2.279692941e-11,7.811076816e-11,3.899291538e-12,2.437313696e-14
1.625,5.706578237e-11,2.436356593e-11,4.989041201e-12,2.302426939e-12,9.215222511e-13,1.688818464e-12,1.048212522e-12,7.191659159e-13,4.980568707e-14,5.526539944e-13,8.394125853e-13,4.917873615e-13,5.370755813e-13,1.475126419e-12,1.653226717e-12,1.717688819e-12,1.533210825e-12,7.979359178e-13,6.774310203e-13,2.843771698e-12,2.045225484e-12,5.040222193e-13,3.732235722e-12,5.693288955e-12,1.086207518e-11,2.611692721e-12,1.388648422e-11,2.268633389e-11,2.324304913e-11,7.910920384e-11,3.986100964e-12,2.532617831e-14
1.6328,5.775528025e-11,2.446163337e-11,4.993042051e-12,2.318380610e-12,9.068469590e-13,1.670793223e-12,1.055435774e-12,7.056014500e-13,4.951785362e-14,5.440354497e-13,8.523867837e-13,4.826652931e-13,5.232561795e-13,1.484012073e-12,1.623421874e-12,1.728406624e-12,1.483561638e-12,7.767876984e-13,6.329479520e-13,2.725995406e-12,1.979356308e-12,4.729352378e-13,3.646985798e-12,5.540030865e-12,1.066520683e-11,2.586944789e-12,1.389130743e-11,2.264411911e-11,2.370762746e-11,8.015625168e-11,4.076546822e-12,2.634378571e-14
1.6406,5.846317967e-11,2.457685248e-11,5.001225554e-12,2.337870022e-12,8.940316392e-13,1.657438649e-12,1.069044604e-12,6.959889576e-13,4.958584651e-14,5.393542280e-13,8.717953497e-13,4.762472547e-13,5.124718403e-13,1.495423457e-12,1.602454652e-12,1.740827256e-12,1.448364927e-12,7.626329579e-13,5.966575883e-13,2.623243576e-12,1.921065082e-12,4.449462065e-13,3.571481058e-12,5.408368089e-12,1.049398886e-11,2.564334693e-12,1.390883431e-11,2.262799889e-11,2.419196039e-11,8.123900888e-11,4.170779753e-12,2.752650769e-14
1.6484,5.927799680e-11,2.472278687e-11,5.009920993e-12,2.359717286e-12,8.826310258e-13,1.642735760e-12,1.078433088e-12,6.847815036e-13,4.962360665e-14,5.340545928e-13,8.894355305e-13,4.687354528e-13,5.012087291e-13,1.506972029e-12,1.579890439e-12,1.751944680e-12,1.409974487e-12,7.469987244e-13,5.590668696e-13,2.520993343e-12,1.861451104e-12,4.178287333e-13,3.498703804e-12,5.272435938e-12,1.032466819e-11,2.544901712e-12,1.394515849e-11,2.263657225e-11,2.470097634e-11,8.242771642e-11,4.269080545e-12,2.873957543e-14
1.6562,6.015640073e-11,2.488506723e-11,5.020427763e-12,2.382279158e-12,8.719329589e-13,1.627997570e-12,1.086500394e-12,6.730125624e-13,4.955670810e-14,5.293487466e-13,9.077292327e-13,4.611282518e-13,4.907955516e-13,1.519280922e-12,1.558385028e-12,1.762820044e-12,1.371244125e-12,7.311747070e-13,5.215258892e-13,2.419229721e-12,1.800640911e-12,3.913285192e-13,3.426000315e-12,5.133077217e-12,1.015593026e-11,2.526969868e-12,1.399086204e-11,2.265576673e-11,2.523056197e-11,8.368409846e-11,4.371667044e-12,2.998648166e-14
1.6641,6.103594311e-11,2.505791599e-11,5.034378098e-12,2.407336206e-12,8.627938965e-13,1.616753152e-12,1.101172798e-12,6.649318061e-13,4.976446601e-14,5.281652023e-13,9.315191779e-13,4.556146598e-13,4.827984546e-13,1.534069357e-12,1.544360700e-12,1.775821409e-12,1.345620287e-12,7.214370047e-13,4.910745634e-13,2.332584282e-12,1.745594868e-12,3.672432115e-13,3.361060404e-12,5.012081097e-12,1.001152807e-11,2.510865957e-12,1.404452028e-11,2.269126167e-11,2.577827070e-11,8.496714370e-11,4.478096345e-12,3.136185233e-14
1.6719,6.201279665e-11,2.525896111e-11,5.050073968e-12,2.434130874e-12,8.544931532e-13,1.604879200e-12,1.113689841e-12,6.563412283e-13,5.003822589e-14,5.273390225e-13,9.559832543e-13,4.501675364e-13,4.757203865e-13,1.549935966e-12,1.532342981e-12,1.789034997e-12,1.321756549e-12,7.125247438e-13,4.611250405e-13,2.248955212e-12,1.690417868e-12,3.440314793e-13,3.298370605e-12,4.891128990e-12,9.870256939e-12,2.496296033e-12,1.411292351e-11,2.275270660e-11,2.634732282e-11,8.634741437e-11,4.587757597e-12,3.277595812e-14
1.6797,6.308053157e-11,2.548217838e-11,5.067926393e-12,2.462358752e-12,8.468895025e-13,1.592858196e-12,1.123024125e-12,6.465135325e-13,5.020466583e-14,5.265844980e-13,9.797376409e-13,4.445226342e-13,4.694385734e-13,1.565778276e-12,1.520751149e-12,1.801859798e-12,1.296830261e-12,7.030356157e-13,4.310255603e-13,2.164736360e-12,1.634621221e-12,3.215889798e-13,3.236096014e-12,4.766990878e-12,9.726598523e-12,2.483007650e-12,1.419371804e-11,2.283502572e-11,2.693568177e-11,8.781185752e-11,4.700952481e-12,3.416992113e-14
1.6875,6.414865563e-11,2.571386548e-11,5.087668675e-12,2.493331985e-12,8.408863034e-13,1.583106940e-12,1.137337937e-12,6.392383967e-13,5.052856094e-14,5.279277298e-13,1.006113317e-12,4.400653609e-13,4.641083294e-13,1.582304655e-12,1.512798148e-12,1.815256485e-12,1.280403816e-12,6.972487719e-13,4.066479950e-13,2.094476261e-12,1.583986328e-12,3.015788914e-13,3.181325149e-12,4.658887737e-12,9.605668446e-12,2.472431774e-12,1.428279206e-11,2.293104694e-11,2.754221698e-11,8.930555815e-11,4.818249767e-12,3.560206945e-14
1.6953,6.528895530e-11,2.596934542e-11,5.108628108e-12,2.526225105e-12,8.355663978e-13,1.573324669e-12,1.151526118e-12,6.324486540e-13,5.097654018e-14,5.303331352e-13,1.035714820e-12,4.366384015e-13,4.602529719e-13,1.599978677e-12,1.508149187e-12,1.828431587e-12,1.268116430e-12,6.931249069e-13,3.840081042e-13,2.029346012e-12,1.534312394e-12,2.826183687e-13,3.129127305e-12,4.554342184e-12,9.491541655e-12,2.463178181e-12,1.438427875e-11,2.305158627e-11,2.817092315e-11,9.088537060e-11,4.939440172e-12,3.705786048e-14
1.7031,6.653762808e-11,2.625364764e-11,5.133065938e-12,2.561199579e-12,8.309575370e-13,1.563890619e-12,1.162166838e-12,6.247109437e-13,5.141479723e-14,5.334344975e-13,1.066543382e-12,4.337000991e-13,4.581420442e-13,1.618171965e-12,1.504877953e-12,1.841256727e-12,1.256815945e-12,6.893682184e-13,3.617621982e-13,1.962954845e-12,1.485100396e-12,2.645093751e-13,3.077997653e-12,4.448026427e-12,9.374697948e-12,2.454656389e-12,1.450114115e-11,2.320583759e-11,2.882041149e-11,9.256776174e-11,5.064208423e-12,3.846651852e-14
1.7109,6.780706493e-11,2.654972635e-11,5.160204772e-12,2.598944562e-12,8.279455593e-13,1.555433697e-12,1.175653851e-12,6.182149839e-13,5.193815689e-14,5.373275740e-13,1.097161230e-12,4.310285841e-13,4.562215223e-13,1.636380086e-12,1.501951725e-12,1.854223423e-12,1.250194357e-12,6.878779522e-13,3.435344560e-13,1.907178652e-12,1.440110503e-12,2.485486624e-13,3.033610050e-12,4.353050964e-12,9.276733717e-12,2.448867923e-12,1.462744296e-11,2.337776987e-11,2.948654830e-11,9.429719900e-11,5.192710433e-12,3.981721162e-14
1.7188,6.912221637e-11,2.686159578e-11,5.187874644e-12,2.638417593e-12,8.255340428e-13,1.546727512e-12,1.190907479e-12,6.124997351e-13,5.256411243e-14,5.418692877e-13,1.130442754e-12,4.294969696e-13,4.553594102e-13,1.655255288e-12,1.502103868e-12,1.866942250e-12,1.247056352e-12,6.878394280e-13,3.268612438e-13,1.857373561e-12,1.395350082e-12,2.333849837e-13,2.990583897e-12,4.260980650e-12,9.187111933e-12,2.444118677e-12,1.476042246e-11,2.356563032e-11,3.017063259e-11,9.609374564e-11,5.325113920e-12,4.115156082e-14
1.7266,7.054038139e-11,2.720200760e-11,5.217897487e-12,2.680415188e-12,8.237455474e-13,1.539205635e-12,1.204146218e-12,6.066956932e-13,5.326924492e-14,5.476420555e-13,1.167259404e-12,4.293994934e-13,4.565559671e-13,1.674454696e-12,1.505666341e-12,1.879121707e-12,1.246117105e-12,6.886561033e-13,3.109758573e-13,1.807483316e-12,1.350842743e-12,2.189928196e-13,2.947896264e-12,4.168794195e-12,9.094935661e-12,2.439591165e-12,1.490714305e-11,2.379029003e-11,3.087434488e-11,9.798791211e-11,5.461500654e-12,4.246678251e-14
1.7344,7.200868999e-11,2.756087576e-11,5.249934892e-12,2.725405817e-12,8.233939089e-13,1.532443899e-12,1.217686843e-12,6.012690538e-13,5.404223698e-14,5.533924036e-13,1.203353375e-12,4.292671343e-13,4.574013158e-13,1.692786359e-12,1.507772877e-12,1.890709352e-12,1.246154605e-12,6.905324470e-13,2.977065542e-13,1.764456245e-12,1.309538717e-12,2.066423263e-13,2.911179365e-12,4.083832768e-12,9.016565997e-12,2.437933468e-12,1.506700000e-11,2.404118589e-11,3.159497158e-11,9.994914244e-11,5.601698597e-12,4.371857830e-14
1.7422,7.350792464e-11,2.792980180e-11,5.282885158e-12,2.771645392e-12,8.235657603e-13,1.525356292e-12,1.232451679e-12,5.961969663e-13,5.489892395e-14,5.590253941e-13,1.240888683e-12,4.298900882e-13,4.589326495e-13,1.711460046e-12,1.511338121e-12,1.902778592e-12,1.248353093e-12,6.938882556e-13,2.858395983e-13,1.725411691e-12,1.268617850e-12,1.952442620e-13,2.875904917e-12,3.999123849e-12,8.947264173e-12,2.437508946e-12,1.523142678e-11,2.430231901e-11,3.232913069e-11,1.019635039e-10,5.745099057e-12,4.492228397e-14
1.75,7.508059751e-11,2.831974765e-11,5.320427559e-12,2.819923246e-12,8.242580571e-13,1.519969857e-12,1.247249707e-12,5.917734328e-13,5.596867033e-14,5.665126214e-13,1.283983846e-12,4.327579531e-13,4.635065171e-13,1.731531891e-12,1.521037643e-12,1.916672984e-12,1.257469109e-12,7.005540423e-13,2.764470090e-13,1.688122131e-12,1.229606682e-12,1.849039259e-13,2.841524115e-12,3.917239627e-12,8.878296166e-12,2.436587919e-12,1.540448787e-11,2.459454821e-11,3.307798040e-11,1.040495764e-10,5.891609116e-12,4.608946978e-14
1.7578,7.672826737e-11,2.873493622e-11,5.362461284e-12,2.871104703e-12,8.262073468e-13,1.514781362e-12,1.261699069e-12,5.874518047e-13,5.719005056e-14,5.742103686e-13,1.327992028e-12,4.360945495e-13,4.682869917e-13,1.751377791e-12,1.530880050e-12,1.931088264e-12,1.268635165e-12,7.091305395e-13,2.695932862e-13,1.657165636e-12,1.194128331e-12,1.764614373e-13,2.812761823e-12,3.843130497e-12,8.818955640e-12,2.438015307e-12,1.559214280e-11,2.491998495e-11,3.384465678e-11,1.062187346e-10,6.041870452e-12,4.717437464e-14
1.7656,7.842479100e-11,2.916408784e-11,5.404296158e-12,2.923684699e-12,8.287742360e-13,1.508597461e-12,1.276634166e-12,5.829114900e-13,5.843073591e-14,5.813030253e-13,1.372237657e-12,4.397113829e-13,4.727828880e-13,1.770842282e-12,1.539720061e-12,1.944937798e-12,1.277746683e-12,7.175199787e-13,2.628717192e-13,1.629005223e-12,1.158414720e-12,1.687703565e-13,2.785331800e-12,3.767892252e-12,8.767473460e-12,2.441291992e-12,1.578633260e-11,2.525543437e-11,3.462686990e-11,1.084542351e-10,6.196019659e-12,4.819814255e-14
1.7734,8.016621429e-11,2.960649226e-11,5.446427383e-12,2.978494015e-12,8.318883096e-13,1.505020712e-12,1.293984497e-12,5.796941034e-13,5.984490734e-14,5.904579856e-13,1.422238366e-12,4.456424073e-13,4.799321353e-13,1.791305495e-12,1.553612616e-12,1.959574877e-12,1.292454318e-12,7.283743386e-13,2.584834165e-13,1.602769613e-12,1.124290019e-12,1.620601287e-13,2.758146135e-12,3.695351130e-12,8.719368376e-12,2.443961219e-12,1.598461372e-11,2.560948994e-11,3.542265343e-11,1.107412836e-10,6.353795803e-12,4.920774714e-14
1.7812,8.198434441e-11,3.007499801e-11,5.492354399e-12,3.036495047e-12,8.360241234e-13,1.502774753e-12,1.311827301e-12,5.769616652e-13,6.138932943e-14,6.000626022e-13,1.474740386e-12,4.526398058e-13,4.880827095e-13,1.811945885e-12,1.568998899e-12,1.974693784e-12,1.310173510e-12,7.411905221e-13,2.562244749e-13,1.580166355e-12,1.092872232e-12,1.567732834e-13,2.734254363e-12,3.628375556e-12,8.676868478e-12,2.447813779e-12,1.619562017e-11,2.599632301e-11,3.623736411e-11,1.131148484e-10,6.515350974e-12,5.017466600e-14
1.7891,8.388443731e-11,3.056555357e-11,5.542493788e-12,3.095856259e-12,8.408234535e-13,1.499094349e-12,1.328275399e-12,5.732017537e-13,6.286590581e-14,6.082298766e-13,1.525874278e-12,4.595881376e-13,4.956828014e-13,1.832157194e-12,1.582283844e-12,1.989478670e-12,1.323989609e-12,7.528421287e-13,2.530683436e-13,1.557499344e-12,1.061096596e-12,1.519533367e-13,2.711021600e-12,3.558907018e-12,8.637662201e-12,2.453504725e-12,1.641709378e-11,2.640303117e-11,3.707217603e-11,1.155830948e-10,6.680761062e-12,5.110353057e-14
