Time,Fp1,AF3,F7,F3,FC1,FC5,T7,C3,CP1,CP5,P7,P3,Pz,PO3,O1,Oz,O2,PO4,P4,P8,CP6,CP2,C4,T8,FC6,FC2,F4,F8,AF4,Fp2,Fz,Cz,
0,3.134565318e-08,1.826778906e-08,8.428747555e-09,1.712358480e-09,3.218678189e-09,8.391666057e-09,4.252160537e-09,3.333369767e-09,4.968858253e-10,2.653983809e-09,6.516653879e-09,3.337796459e-09,5.398845236e-09,1.014802729e-09,8.503663130e-09,5.241302660e-10,1.161166754e-08,4.818143573e-09,7.216939609e-09,1.219946820e-08,4.331352027e-09,3.188532466e-09,8.086072761e-09,1.119768863e-08,1.724071201e-08,2.823500504e-09,1.001855336e-08,1.939927259e-08,8.625053018e-10,1.852509698e-08,2.189779550e-11,3.110421822e-11
0.0078125,3.124856211e-08,1.821227537e-08,8.401061267e-09,1.705331583e-09,3.209426985e-09,8.351293334e-09,4.234650199e-09,3.318160553e-09,4.941774715e-10,2.648718152e-09,6.488763841e-09,3.319946675e-09,5.378781387e-09,1.014896590e-09,8.483131967e-09,5.223583150e-10,1.157903844e-08,4.800450354e-09,7.187641074e-09,1.217939810e-08,4.309992170e-09,3.170481485e-09,8.059856942e-09,1.116454194e-08,1.719433650e-08,2.819467151e-09,9.994021923e-09,1.929975574e-08,8.671291581e-10,1.847408920e-08,2.179158905e-11,3.080072962e-11
0.015625,3.090293305e-08,1.801157067e-08,8.306602623e-09,1.684753953e-09,3.174546704e-09,8.244755338e-09,4.183512501e-09,3.276601685e-09,4.875575283e-10,2.622294214e-09,6.409345015e-09,3.275807789e-09,5.315843606e-09,1.006878288e-09,8.394874474e-09,5.164339509e-10,1.145393187e-08,4.744500105e-09,7.101036027e-09,1.206182603e-08,4.254315270e-09,3.127287234e-09,7.969199991e-09,1.104203433e-08,1.701034465e-08,2.792834613e-09,9.889610703e-09,1.904658700e-08,8.649794390e-10,1.827566113e-08,2.153275820e-11,3.027041770e-11
0.023438,3.031980016e-08,1.767207448e-08,8.148339621e-09,1.651253902e-09,3.115193027e-09,8.075215633e-09,4.100264380e-09,3.209935610e-09,4.772123622e-10,2.575583066e-09,6.280737979e-09,3.206643747e-09,5.211973589e-09,9.910305087e-10,8.241730971e-09,5.065336617e-10,1.124038578e-08,4.652004577e-09,6.959795588e-09,1.185078299e-08,4.165985603e-09,3.060195494e-09,7.817025198e-09,1.083414479e-08,1.669484161e-08,2.744548813e-09,9.708772653e-09,1.864738624e-08,8.561925399e-10,1.793628905e-08,2.112573887e-11,2.952426001e-11
0.03125,2.950836184e-08,1.719928605e-08,7.928762485e-09,1.605353246e-09,3.032332436e-09,7.845281843e-09,3.986254192e-09,3.119219673e-09,4.633086674e-10,2.509378980e-09,6.105090376e-09,3.113559498e-09,5.068889350e-09,9.676636234e-10,8.026345635e-09,4.928214927e-10,1.094196098e-08,4.524479867e-09,6.766228358e-09,1.154985923e-08,4.046421814e-09,2.970286162e-09,7.605837987e-09,1.054430381e-08,1.625311094e-08,2.675433499e-09,9.454429820e-09,1.810835356e-08,8.409446290e-10,1.746147045e-08,2.057688915e-11,2.857270582e-11
0.039062,2.849309474e-08,1.660759166e-08,7.654545558e-09,1.548429393e-09,2.928480851e-09,7.561799957e-09,3.844990865e-09,3.007176519e-09,4.462637718e-10,2.425761796e-09,5.887827476e-09,2.999353527e-09,4.890962557e-09,9.375370533e-10,7.755488974e-09,4.757499173e-10,1.056795945e-08,4.365843547e-09,6.526190637e-09,1.116836865e-08,3.899201835e-09,2.860212860e-09,7.342085104e-09,1.018138540e-08,1.569880941e-08,2.587620040e-09,9.134466590e-09,1.744576376e-08,8.196635075e-10,1.686576292e-08,1.989577234e-11,2.743915222e-11
0.046875,2.730095790e-08,1.591261409e-08,7.333046984e-09,1.482004748e-09,2.806384252e-09,7.232412824e-09,3.680231705e-09,2.876806675e-09,4.265360530e-10,2.326899795e-09,5.634682569e-09,2.867107472e-09,4.682932219e-09,9.014053528e-10,7.436246318e-09,4.557856655e-10,1.012827502e-08,4.180323960e-09,6.246090185e-09,1.071618643e-08,3.728279351e-09,2.732952600e-09,7.032758700e-09,9.754955556e-09,1.504653176e-08,2.483387921e-09,8.757322615e-09,1.667776198e-08,7.927872878e-10,1.616488004e-08,1.909740833e-11,2.615198042e-11
0.054688,2.595910564e-08,1.513023393e-08,6.971590939e-09,1.407590106e-09,2.668838620e-09,6.864587508e-09,3.495702147e-09,2.731071985e-09,4.045674837e-10,2.215062185e-09,5.351332004e-09,2.719788043e-09,4.449532894e-09,8.601043711e-10,7.075877525e-09,4.333539677e-10,9.632888039e-09,3.972131193e-09,5.932289037e-09,1.020374165e-08,3.537496085e-09,2.591363433e-09,6.684895083e-09,9.274751528e-09,1.431107569e-08,2.365122935e-09,8.331543998e-09,1.582146868e-08,7.609257467e-10,1.537468199e-08,1.819971411e-11,2.473674760e-11
0.0625,2.449601141e-08,1.427709284e-08,6.577904103e-09,1.326788583e-09,2.518764680e-09,6.466274817e-09,3.295391916e-09,2.573095503e-09,3.808339915e-10,2.092632485e-09,5.043912375e-09,2.560565844e-09,4.195707217e-09,8.144952763e-10,6.682021729e-09,4.089295793e-10,9.092312161e-09,3.745689577e-09,5.591452096e-09,9.641894362e-09,3.330934076e-09,2.438470960e-09,6.305850152e-09,8.751047162e-09,1.350782932e-08,2.235291744e-09,7.866106565e-09,1.489500012e-08,7.247270627e-10,1.451188218e-08,1.722413239e-11,2.322710053e-11
0.070312,2.294010762e-08,1.336966681e-08,6.159688494e-09,1.241179252e-09,2.359048423e-09,6.045274696e-09,3.083164095e-09,2.405946006e-09,3.558007981e-10,1.961924301e-09,4.718333700e-09,2.392528931e-09,3.926322108e-09,7.654234811e-10,6.262164002e-09,3.829907713e-10,8.516890216e-09,3.505356325e-09,5.230153846e-09,9.041319765e-09,3.112630653e-09,2.277281310e-09,5.902914172e-09,8.193731800e-09,1.265214551e-08,2.096380715e-09,7.369917429e-09,1.391624480e-08,6.849140989e-10,1.359306638e-08,1.619336324e-11,2.165719731e-11
0.078125,2.132519585e-08,1.242759743e-08,5.725959642e-09,1.152592689e-09,2.193143411e-09,5.610482326e-09,2.863526724e-09,2.233175404e-09,3.299837561e-10,1.825784014e-09,4.381442862e-09,2.219169247e-09,3.647130361e-09,7.139799367e-10,5.825383908e-09,3.560830991e-10,7.919016097e-09,3.256247036e-09,4.856074229e-09,8.415089046e-09,2.887120547e-09,2.111140590e-09,5.484700942e-09,7.614591914e-09,1.176255069e-08,1.951441870e-09,6.853701263e-09,1.290543298e-08,6.424619170e-10,1.263810655e-08,1.512923777e-11,2.005805966e-11
0.085938,1.968264458e-08,1.146920197e-08,5.284999576e-09,1.062711173e-09,2.024296331e-09,5.170066659e-09,2.640683135e-09,2.058057044e-09,3.038665244e-10,1.686911878e-09,4.039677994e-09,2.043739041e-09,3.363502398e-09,6.612080170e-10,5.380251282e-09,3.287207126e-10,7.310370295e-09,3.003140949e-09,4.476381496e-09,7.775698907e-09,2.658646538e-09,1.943137993e-09,5.059329688e-09,7.025139099e-09,1.085647797e-08,1.803374204e-09,6.327655992e-09,1.188172227e-08,5.983377242e-10,1.166581179e-08,1.405235678e-11,1.845750804e-11
0.09375,1.803597896e-08,1.050827796e-08,4.842971196e-09,9.727638452e-10,1.854949119e-09,4.729972138e-09,2.417691369e-09,1.882996690e-09,2.778039806e-10,1.547364564e-09,3.697759682e-09,1.868599317e-09,3.079469963e-09,6.079382844e-10,4.933291496e-09,3.012919179e-10,6.699799060e-09,2.749651295e-09,4.096450908e-09,7.132921495e-09,2.430439138e-09,1.775562562e-09,4.633032378e-09,6.434130299e-09,9.947401026e-09,1.654456854e-09,5.799615531e-09,1.085939477e-08,5.533871955e-10,1.069050215e-08,1.297810571e-11,1.687414437e-11
0.10156,1.641062048e-08,9.559715139e-09,4.406633266e-09,8.841038779e-10,1.687720813e-09,4.296701470e-09,2.197891555e-09,1.710614124e-09,2.521729420e-10,1.409358623e-09,3.360800243e-09,1.696301386e-09,2.799379718e-09,5.550530982e-10,4.491519210e-09,2.742167633e-10,6.096851573e-09,2.499681630e-09,3.722089883e-09,6.497136793e-09,2.205940745e-09,1.610870750e-09,4.212447120e-09,5.850803257e-09,9.049740981e-09,1.507098403e-09,5.277938203e-09,9.853748146e-09,5.084018407e-10,9.727457276e-09,1.191776757e-11,1.532652073e-11
0.10938,1.483077549e-08,8.637685899e-09,3.982453821e-09,7.980454730e-10,1.525134193e-09,3.876552028e-09,1.984519496e-09,1.543433916e-09,2.273481655e-10,1.274976771e-09,3.033766230e-09,1.529360014e-09,2.527396242e-09,5.033668389e-10,4.061576016e-09,2.479007783e-10,5.510598261e-09,2.256953914e-09,3.358859417e-09,5.878024757e-09,1.988451044e-09,1.451457953e-09,3.803885182e-09,5.283984095e-09,8.177049840e-09,1.363556299e-09,4.770535060e-09,8.879674537e-09,4.640455344e-10,8.791091304e-09,1.088254925e-11,1.383270788e-11
0.11719,1.331557547e-08,7.753468793e-09,3.575591233e-09,7.156166211e-10,1.369207381e-09,3.474402984e-09,1.780109891e-09,1.383411799e-09,2.036107781e-10,1.145906550e-09,2.720491377e-09,1.369682282e-09,2.266791910e-09,4.535607374e-10,3.648798467e-09,2.226583361e-10,4.948228855e-09,2.024377263e-09,3.011052128e-09,5.283341790e-09,1.780468989e-09,1.299119794e-09,3.412338317e-09,4.740515210e-09,7.340112014e-09,1.225663510e-09,4.283644392e-09,7.948294918e-09,4.209141626e-10,7.892813904e-09,9.880307417e-12,1.240352500e-11
0.125,1.188045292e-08,6.916089969e-09,3.190275741e-09,6.376527837e-10,1.221529451e-09,3.094307680e-09,1.586750538e-09,1.232149092e-09,1.811917610e-10,1.023500582e-09,2.424150928e-09,1.218844987e-09,2.020206413e-09,4.061611212e-10,3.257475044e-09,1.987454963e-10,4.415528618e-09,1.804308800e-09,2.682161861e-09,4.719211548e-09,1.584016589e-09,1.155335905e-09,3.041737818e-09,4.225955939e-09,6.547300903e-09,1.094827633e-09,3.822178267e-09,7.068749364e-09,3.794327274e-10,7.041748658e-09,8.917035945e-12,1.105074460e-11
0.13281,1.053347461e-08,6.130186964e-09,2.828678278e-09,5.645841576e-10,1.082924739e-09,2.738385360e-09,1.405511654e-09,1.090488263e-09,1.602224447e-10,9.084454482e-10,2.146448158e-09,1.077707315e-09,1.789026522e-09,3.614431881e-10,2.889833271e-09,1.762969168e-10,3.915499005e-09,1.597992203e-09,2.374042107e-09,4.188894835e-09,1.400199339e-09,1.020916706e-09,2.694142608e-09,3.743234954e-09,5.802979254e-09,9.717856082e-10,3.388760546e-09,6.245949014e-09,3.398620077e-10,6.242618312e-09,8.000766734e-12,9.783418048e-12
0.14062,9.283839316e-09,5.401163249e-09,2.493286584e-09,4.969119383e-10,9.543540469e-10,2.409006732e-09,1.237606939e-09,9.593680760e-10,1.408332224e-10,8.015338225e-10,1.889199628e-09,9.471659545e-10,1.574778903e-09,3.197248815e-10,2.548361827e-09,1.554490902e-10,3.451456841e-09,1.406766026e-09,2.088687033e-09,3.696034966e-09,1.230192136e-09,8.966923242e-10,2.371915129e-09,3.295535038e-09,5.112354924e-09,8.574101960e-10,2.986428335e-09,5.485101415e-09,3.025358397e-10,5.500964504e-09,7.138481410e-12,8.608892729e-12
0.14844,8.137630980e-09,4.732599002e-09,2.185780743e-09,4.349683625e-10,8.364274904e-10,2.107751351e-09,1.083866954e-09,8.394021648e-10,1.231111345e-10,7.033028793e-10,1.653655182e-09,8.278316555e-10,1.378475754e-09,2.812251715e-10,2.234769374e-09,1.363079123e-10,3.025605538e-09,1.231517666e-09,1.827417173e-09,3.243004634e-09,1.074764642e-09,7.832172281e-10,2.076562698e-09,2.885080913e-09,4.478694726e-09,7.522528970e-10,2.617136325e-09,4.789776860e-09,2.676865138e-10,4.820467698e-09,6.335514468e-12,7.534363439e-12
0.15625,7.093923803e-09,4.123952824e-09,1.905881595e-09,3.786731622e-10,7.290466739e-10,1.834159115e-09,9.440948269e-10,7.304213155e-10,1.070317269e-10,6.137194253e-10,1.439549309e-09,7.195290660e-10,1.199948494e-09,2.459770696e-10,1.948945719e-09,1.188777016e-10,2.637730384e-09,1.072121139e-09,1.589973718e-09,2.829800324e-09,9.337303732e-10,6.803220041e-10,1.807843867e-09,2.511598240e-09,3.901628874e-09,6.563101370e-10,2.280695509e-09,4.158892560e-09,2.354546759e-10,4.200606229e-09,5.595033186e-12,6.558753394e-12
0.16406,6.151916667e-09,3.574754402e-09,1.653320756e-09,3.279632881e-10,6.321452734e-10,1.587871965e-09,8.181069270e-10,6.322861840e-10,9.256862928e-11,5.327271468e-10,1.246592000e-09,6.220875296e-10,1.039016708e-09,2.139801469e-10,1.690662922e-09,1.031339756e-10,2.287550121e-09,9.284284337e-10,1.376095858e-09,2.456256079e-09,8.068961007e-10,5.878487943e-10,1.565547369e-09,2.174755001e-09,3.380812336e-09,5.695684828e-10,1.976924090e-09,3.591505508e-09,2.059314216e-10,3.640972792e-09,4.918275304e-12,5.680145559e-12
0.17188,5.307606811e-09,3.082655322e-09,1.426968008e-09,2.825971223e-10,5.453090240e-10,1.367703979e-09,7.053227100e-10,5.445369597e-10,7.965186737e-11,4.600077096e-10,1.073913727e-09,5.350404680e-10,8.949459740e-10,1.851337950e-10,1.458876026e-09,8.899790054e-11,1.973532237e-09,7.997784260e-10,1.184787782e-09,2.120888867e-09,6.936329767e-10,5.053329894e-10,1.348601001e-09,1.873122633e-09,2.913992365e-09,4.916902813e-10,1.704584514e-09,3.084976508e-09,1.791087653e-10,3.139334055e-09,4.305567036e-12,4.896415592e-12
0.17969,4.557390973e-09,2.645554727e-09,1.225825347e-09,2.423519033e-10,4.681635288e-10,1.172490770e-09,6.052069591e-10,4.667347264e-10,6.821132194e-11,3.953098145e-10,9.207161442e-10,4.579236257e-10,7.670838687e-10,1.593823996e-10,1.252743807e-09,7.641996779e-11,1.694401837e-09,6.855898627e-10,1.015125081e-09,1.822535427e-09,5.933363888e-10,4.322979373e-10,1.156057274e-09,1.605371358e-09,2.499357768e-09,4.224139753e-10,1.462616505e-09,2.636575562e-09,1.550007823e-10,2.693660398e-09,3.754663273e-12,4.202084452e-12
0.1875,3.895979074e-09,2.260335479e-09,1.048458659e-09,2.069310851e-10,4.001652127e-10,1.000743334e-09,5.170151884e-10,3.982828246e-10,5.815546757e-11,3.381929220e-10,7.858551200e-10,3.901364512e-10,6.544973644e-10,1.365754846e-10,1.070850805e-09,6.532119423e-11,1.448239605e-09,5.850383890e-10,8.658403799e-10,1.559181468e-09,5.052243230e-10,3.681605023e-10,9.865272600e-10,1.369594882e-09,2.134006758e-09,3.612818572e-10,1.249329223e-09,2.242790354e-09,1.335092354e-10,2.300814622e-09,3.262393545e-12,3.590843962e-12
0.19531,3.315307019e-09,1.922282424e-09,8.926951499e-10,1.758833781e-10,3.404912025e-10,8.502286835e-10,4.396373419e-10,3.382949742e-10,4.935221576e-11,2.879830978e-10,6.676133957e-10,3.307898707e-10,5.557738577e-10,1.164681019e-10,9.110263906e-10,5.556497145e-11,1.232061659e-09,4.968637925e-10,7.350415283e-10,1.327755733e-09,4.281509083e-10,3.120712950e-10,8.379088993e-10,1.162923123e-09,1.813465348e-09,3.075846079e-10,1.062152019e-09,1.898486563e-09,1.144667410e-10,1.956054032e-09,2.824827346e-12,3.055133610e-12
0.20312,2.809527605e-09,1.627973681e-09,7.569723340e-10,1.488838884e-10,2.885380837e-10,7.193532249e-10,3.722845673e-10,2.861403762e-10,4.170668240e-11,2.441964266e-10,5.647704454e-10,2.792439718e-10,4.699037639e-10,9.888304372e-11,7.717087389e-10,4.705432999e-11,1.043702445e-09,4.201508559e-10,6.213429218e-10,1.125985064e-09,3.612628589e-10,2.634060285e-10,7.086653887e-10,9.831961708e-10,1.534499911e-09,2.607948574e-10,8.991959504e-10,1.599844477e-09,9.771537785e-11,1.655891385e-09,2.437342747e-12,2.588933495e-12
0.21094,2.371376878e-09,1.373139147e-09,6.393360797e-10,1.255314157e-10,2.435486195e-10,6.061769572e-10,3.139692002e-10,2.410455150e-10,3.510347342e-11,2.062152586e-10,4.758090077e-10,2.347267771e-10,3.956301866e-10,8.358863337e-11,6.509364565e-10,3.967095852e-11,8.804785977e-10,3.537765754e-10,5.230531419e-10,9.510071749e-10,3.035341909e-10,2.214183586e-10,5.968855424e-10,8.277530517e-10,1.293024483e-09,2.202368671e-10,7.580875933e-10,1.342269733e-09,8.305670249e-11,1.395957601e-09,2.096587907e-12,2.185745386e-12
0.21875,1.993912621e-09,1.153712634e-09,5.379504733e-10,1.054461442e-10,2.048062485e-10,5.088257391e-10,2.637631090e-10,2.022663087e-10,2.942989335e-11,1.734655209e-10,3.992888682e-10,1.964890152e-10,3.317364913e-10,7.037293730e-11,5.468608801e-10,3.330265311e-11,7.398205502e-10,2.966627637e-10,4.385427004e-10,8.001337254e-10,2.539760891e-10,1.853744313e-10,5.007404923e-10,6.940703721e-10,1.085203669e-09,1.852848900e-10,6.365938368e-10,1.121346546e-09,7.031629198e-11,1.172137830e-09,1.798735806e-12,1.838733079e-12
0.22656,1.670465273e-09,9.657858197e-10,4.510490705e-10,8.826732726e-11,1.716252111e-10,4.255705075e-10,2.207928019e-10,1.691050073e-10,2.458377050e-11,1.453826279e-10,3.338603837e-10,1.638428577e-10,2.770885945e-10,5.902102672e-11,4.576809111e-10,2.784791282e-11,6.192808942e-10,2.478033497e-10,3.662861372e-10,6.707403922e-10,2.116744858e-10,1.546113839e-10,4.184973651e-10,5.797591742e-10,9.073301574e-10,1.553261682e-10,5.325501816e-10,9.329579924e-10,5.929183978e-11,9.804334775e-10,1.539082938e-12,1.541881862e-12
0.23438,1.394208390e-09,8.053770652e-10,3.767961053e-10,7.361717358e-11,1.433019050e-10,3.545915296e-10,1.841232733e-10,1.408357896e-10,2.045814266e-11,1.213810354e-10,2.780898449e-10,1.360630937e-10,2.305175377e-10,4.930627570e-11,3.815314653e-10,2.319502061e-11,5.163579727e-10,2.061617362e-10,3.047329082e-10,5.601809791e-10,1.757039776e-10,1.284507392e-10,3.483999076e-10,4.823727078e-10,7.556131138e-10,1.297347046e-10,4.437585080e-10,7.728778956e-10,4.979155895e-11,8.167742646e-10,1.313659819e-12,1.288403333e-12
0.24219,1.159758225e-09,6.693420400e-10,3.137649187e-10,6.120347414e-11,1.192781075e-10,2.944581044e-10,1.530310429e-10,1.168913330e-10,1.696786880e-11,1.010054959e-10,2.308657481e-10,1.125786738e-10,1.910862915e-10,4.105056800e-11,3.169438604e-10,1.925300844e-11,4.290488668e-10,1.709022077e-10,2.526341717e-10,4.663158487e-10,1.453100990e-10,1.063396923e-10,2.890355463e-10,3.999398671e-10,6.270645274e-10,1.080130578e-10,3.684858115e-10,6.377647038e-10,4.166004729e-11,6.779923152e-10,1.119264607e-12,1.073138121e-12
0.25,9.613111490e-10,5.542987720e-10,2.603980663e-10,5.071412888e-11,9.895862241e-11,2.436572403e-10,1.267404385e-10,9.666496415e-11,1.402361905e-11,8.375745364e-11,1.909904240e-10,9.278630123e-11,1.577973119e-10,3.405720219e-11,2.623210113e-10,1.592516916e-11,3.551852598e-10,1.411325053e-10,2.086591292e-10,3.868336950e-10,1.197025945e-10,8.770250538e-11,2.389070738e-10,3.303744671e-10,5.184599546e-10,8.963239869e-11,3.048722335e-10,5.240835020e-10,3.472872139e-11,5.606568864e-10,9.522132501e-13,8.911272507e-13
0.25781,7.940195844e-10,4.574162121e-10,2.153880628e-10,4.188513768e-11,8.184055111e-11,2.009035026e-10,1.045956503e-10,7.964717082e-11,1.154971833e-11,6.921678208e-11,1.574555539e-10,7.617579189e-11,1.298167173e-10,2.815918669e-11,2.163250362e-10,1.312987896e-11,2.929482946e-10,1.161045378e-10,1.716986344e-10,3.198005862e-10,9.822576311e-11,7.206001509e-11,1.967638217e-10,2.719140869e-10,4.270993268e-10,7.414447255e-11,2.513420692e-10,4.288711484e-10,2.884645176e-11,4.618824591e-10,8.085365792e-13,7.376034013e-13
0.26562,6.536931284e-10,3.762228931e-10,1.776169779e-10,3.449147291e-11,6.748710632e-11,1.651142710e-10,8.604429624e-11,6.540671477e-11,9.482602118e-12,5.701965381e-11,1.294053325e-10,6.231514603e-11,1.064240939e-10,2.321041375e-11,1.777925067e-10,1.079821639e-11,2.407860711e-10,9.517899957e-11,1.407976197e-10,2.635409787e-10,8.031015114e-11,5.900316827e-11,1.615083439e-10,2.230397554e-10,3.506337672e-10,6.115250640e-11,2.065091651e-10,3.495869283e-10,2.387197655e-11,3.791558526e-10,6.855555105e-13,6.091111949e-13
0.27344,5.363474741e-10,3.083917072e-10,1.460070832e-10,2.831847253e-11,5.549017815e-11,1.352428978e-10,7.054312539e-11,5.352378544e-11,7.760220229e-12,4.681489816e-11,1.060000053e-10,5.078237698e-11,8.692831791e-11,1.906984852e-11,1.456047069e-10,8.859881923e-12,1.972078430e-10,7.774183889e-11,1.150450229e-10,2.164792366e-10,6.541869156e-11,4.813921319e-11,1.321144396e-10,1.823290933e-10,2.868431901e-10,5.029163834e-11,1.690850267e-10,2.838031628e-10,1.968435877e-11,3.100993830e-10,5.810163044e-13,5.020111392e-13
0.28125,4.386480213e-10,2.519667964e-10,1.196621491e-10,2.318507496e-11,4.549826735e-11,1.104080598e-10,5.764503013e-11,4.364928027e-11,6.331360701e-12,3.831009651e-11,8.656602342e-11,4.123646929e-11,7.075373633e-11,1.562274336e-11,1.188469936e-10,7.259080776e-12,1.609498912e-10,6.327492029e-11,9.367028794e-11,1.772516093e-10,5.309676601e-11,3.913835245e-11,1.077089639e-10,1.485654311e-10,2.338447184e-10,4.124443443e-11,1.379726579e-10,2.295147448e-10,1.617445310e-11,2.527192718e-10,4.925981226e-13,4.133896599e-13
0.28906,3.574320465e-10,2.050970224e-10,9.774469217e-11,1.892519703e-11,3.718712411e-11,8.980376238e-11,4.693765460e-11,3.546090991e-11,5.148772527e-12,3.123334183e-11,7.046351526e-11,3.335486323e-11,5.735790582e-11,1.275824332e-11,9.664380939e-11,5.942562362e-12,1.308360388e-10,5.129441992e-11,7.595888912e-11,1.446016276e-10,4.292018548e-11,3.169531646e-11,8.747331441e-11,1.206140719e-10,1.898754144e-10,3.371594029e-11,1.121439569e-10,1.848155890e-10,1.323763553e-11,2.051137404e-10,4.183769869e-13,3.406563826e-13
0.29688,2.903380890e-10,1.664089304e-10,7.962264312e-11,1.541388673e-11,3.031829707e-11,7.282606859e-11,3.810636069e-11,2.871603868e-11,4.176332278e-12,2.538025993e-11,5.720127326e-11,2.689036605e-11,4.633690118e-11,1.039080652e-11,7.832850312e-11,4.867009758e-12,1.059843537e-10,4.143960451e-11,6.138181661e-11,1.175866577e-10,3.457478226e-11,2.558359953e-11,7.080487756e-11,9.761973171e-11,1.536317046e-10,2.748925338e-11,9.083936823e-11,1.482779780e-10,1.079393386e-11,1.658661325e-10,3.565605923e-13,2.813259169e-13
0.30469,2.351053376e-10,1.345794091e-10,6.468117722e-11,1.252545190e-11,2.465574271e-11,5.888081059e-11,3.084672177e-11,2.317870758e-11,3.379484285e-12,2.055612687e-11,4.631630182e-11,2.160973245e-11,3.730488761e-11,8.443140381e-12,6.327926924e-11,3.994205181e-12,8.555563245e-11,3.336681870e-11,4.942778419e-11,9.531198181e-11,2.776074305e-11,2.058363490e-11,5.712398119e-11,7.878534057e-11,1.238762345e-10,2.235345006e-11,7.332851397e-11,1.185736109e-10,8.773528367e-12,1.336463328e-10,3.057326336e-13,2.331234657e-13
0.3125,1.896694632e-10,1.084165645e-10,5.236639102e-11,1.015076127e-11,1.999260640e-11,4.742961919e-11,2.487809753e-11,1.863383693e-11,2.726372310e-12,1.658407539e-11,3.737815867e-11,1.729526600e-11,2.990861487e-11,6.843724076e-12,5.092604200e-11,3.288314174e-12,6.878382906e-11,2.675998775e-11,3.963448612e-11,7.697657174e-11,2.220584760e-11,1.649523137e-11,4.590934619e-11,6.338913799e-11,9.948291078e-11,1.812334668e-11,5.895768738e-11,9.445536490e-11,7.113597918e-12,1.072332611e-10,2.644531909e-13,1.937953996e-13
0.32031,1.516031862e-10,8.656772294e-11,4.222239732e-11,8.242868487e-12,1.615146906e-11,3.794168464e-11,1.984700822e-11,1.479952437e-11,2.161542915e-12,1.319224163e-11,2.969412913e-11,1.359220099e-11,2.362963470e-11,5.408448486e-12,4.031293462e-11,2.671101648e-12,5.452416287e-11,2.115063860e-11,3.148010228e-11,6.169583391e-11,1.767320957e-11,1.309017239e-11,3.655787528e-11,5.062802071e-11,7.895237225e-11,1.460149156e-11,4.691960229e-11,7.411996895e-11,5.736921390e-12,8.497177360e-11,2.289601722e-13,1.588468640e-13
0.32812,1.216097815e-10,6.931660535e-11,3.409396435e-11,6.687066048e-12,1.306220276e-11,3.041919761e-11,1.593751960e-11,1.181812815e-11,1.734647784e-12,1.057706273e-11,2.387877079e-11,1.080240327e-11,1.881320941e-11,4.368627597e-12,3.222616013e-11,2.222126616e-12,4.347681869e-11,1.681729345e-11,2.505902291e-11,4.948876437e-11,1.405126936e-11,1.043052226e-11,2.917930128e-11,4.052231063e-11,6.290337136e-11,1.178410535e-11,3.744057812e-11,5.848974485e-11,4.648242103e-12,6.759251672e-11,2.021117446e-13,1.323878337e-13
0.33594,9.713773495e-11,5.530902958e-11,2.735663335e-11,5.395025219e-12,1.052888662e-11,2.428259168e-11,1.272127033e-11,9.395388237e-12,1.389858031e-12,8.437758114e-12,1.909063491e-11,8.547728219e-12,1.491512787e-11,3.541004350e-12,2.569705835e-11,1.877864041e-12,3.463068398e-11,1.337885558e-11,1.989224098e-11,3.972389059e-11,1.119323011e-11,8.280721266e-12,2.328614751e-11,3.258871828e-11,5.017161973e-11,9.513396970e-12,2.988368150e-11,4.644985657e-11,3.809272295e-12,5.378219782e-11,1.832646919e-13,1.118623011e-13
0.34375,7.730860047e-11,4.394561804e-11,2.191018059e-11,4.348688365e-12,8.465068009e-12,1.931487644e-11,1.013746610e-11,7.440519406e-12,1.112926785e-12,6.715349054e-12,1.526104550e-11,6.752610380e-12,1.178973028e-11,2.872737458e-12,2.044070268e-11,1.608597651e-12,2.747172343e-11,1.060141678e-11,1.571426614e-11,3.174761661e-11,8.877554103e-12,6.550215760e-12,1.849343913e-11,2.613208602e-11,3.982105551e-11,7.653331790e-12,2.372816626e-11,3.674369218e-11,3.133734577e-12,4.258119335e-11,1.704033462e-13,9.589337593e-14
0.35156,6.121157210e-11,3.470457203e-11,1.747053805e-11,3.486176106e-12,6.769727194e-12,1.527341565e-11,8.056242249e-12,5.864946604e-12,8.923278115e-13,5.331588130e-12,1.220315850e-11,5.333362454e-12,9.294030090e-12,2.346115968e-12,1.624157281e-11,1.402586477e-12,2.170911170e-11,8.373183912e-12,1.232984331e-11,2.521962236e-11,6.988247683e-12,5.154645244e-12,1.458938072e-11,2.086512991e-11,3.142207782e-11,6.124681580e-12,1.871411570e-11,2.898796408e-11,2.592936093e-12,3.352540246e-11,1.624480506e-13,8.389359052e-14
0.35938,4.758323035e-11,2.676846148e-11,1.354792573e-11,2.691189847e-12,5.244895916e-12,1.180353090e-11,6.347992954e-12,4.547258054e-12,7.069900169e-13,4.212563776e-12,9.752170760e-12,4.180276048e-12,7.164644661e-12,1.949675998e-12,1.282904278e-11,1.269300647e-12,1.699329642e-11,6.543997075e-12,9.413747867e-12,1.972575083e-11,5.431067936e-12,3.934173387e-12,1.126220868e-11,1.663665712e-11,2.461531477e-11,4.801155461e-12,1.454533682e-11,2.331297779e-11,2.192128391e-12,2.641886953e-11,1.550327390e-13,7.662698310e-14
0.36719,3.759188911e-11,2.109335332e-11,1.073340389e-11,2.157729875e-12,4.185931688e-12,9.314636292e-12,5.050829852e-12,3.574631477e-12,5.666587230e-13,3.347693064e-12,7.835788390e-12,3.300841148e-12,5.610540178e-12,1.612772287e-12,1.022846127e-11,1.151761144e-12,1.348099400e-11,5.197380508e-12,7.365752797e-12,1.577208893e-11,4.384379610e-12,3.079198998e-12,8.938341153e-12,1.367470805e-11,1.969396878e-11,3.861240498e-12,1.157378433e-11,1.926768684e-11,1.844407307e-12,2.111097264e-11,1.457616500e-13,6.941508278e-14
0.375,2.950234580e-11,1.649339753e-11,8.546816709e-12,1.739012060e-12,3.347386492e-12,7.312192749e-12,3.971460454e-12,2.779871827e-12,4.511905235e-13,2.630404123e-12,6.180408948e-12,2.568285671e-12,4.392561037e-12,1.334620842e-12,8.090178053e-12,1.043534080e-12,1.058431805e-11,4.106564246e-12,5.729894259e-12,1.245458349e-11,3.493535837e-12,2.403518340e-12,7.002467636e-12,1.100711913e-11,1.539727978e-11,3.083842803e-12,9.037993636e-12,1.551456480e-11,1.526244041e-12,1.651848926e-11,1.367929957e-13,6.144516783e-14
0.38281,2.305924051e-11,1.284188948e-11,6.770156721e-12,1.404876127e-12,2.667372803e-12,5.719477085e-12,3.121646096e-12,2.151125711e-12,3.584782372e-13,2.068094168e-12,4.891864475e-12,1.990935162e-12,3.421652737e-12,1.120123655e-12,6.410864806e-12,9.602904907e-13,8.309700594e-12,3.239848943e-12,4.434366014e-12,9.830747792e-12,2.816610854e-12,1.868208075e-12,5.489377140e-12,8.992727370e-12,1.211175757e-11,2.460463692e-12,7.074394777e-12,1.275790539e-11,1.289825386e-12,1.299650579e-11,1.288613132e-13,5.400396244e-14
0.39062,1.789218895e-11,9.952484782e-12,5.335084021e-12,1.146347029e-12,2.125026738e-12,4.455611754e-12,2.437790367e-12,1.648201501e-12,2.826715286e-13,1.613017058e-12,3.851656679e-12,1.523616443e-12,2.637003965e-12,9.411898220e-13,5.049380337e-12,8.893258649e-13,6.493322095e-12,2.539800535e-12,3.414616967e-12,7.779588600e-12,2.309350682e-12,1.447988371e-12,4.321806172e-12,7.491678840e-12,9.608222216e-12,1.968384106e-12,5.566517280e-12,1.067933606e-11,1.124598526e-12,1.025842202e-11,1.238499726e-13,4.696371397e-14
0.39844,1.389228458e-11,7.696077764e-12,4.212426538e-12,9.364190932e-13,1.691140129e-12,3.469191969e-12,1.909504598e-12,1.259962751e-12,2.235206900e-13,1.262043479e-12,3.045731345e-12,1.167358329e-12,2.035861238e-12,8.023397600e-13,4.003203877e-12,8.385462357e-13,5.098714101e-12,2.006882961e-12,2.621439378e-12,6.181726681e-12,1.910876551e-12,1.119785562e-12,3.402464696e-12,6.323035953e-12,7.668619505e-12,1.581515589e-12,4.393817946e-12,9.071004298e-12,1.029916467e-12,8.208996663e-12,1.234966353e-13,4.112814344e-14
0.40625,1.073342718e-11,5.922701344e-12,3.310174558e-12,7.657805961e-13,1.341838372e-12,2.686067163e-12,1.494926074e-12,9.569474012e-13,1.776241406e-13,9.851397187e-13,2.421796419e-12,8.973144907e-13,1.569227981e-12,6.874320723e-13,3.187354502e-12,8.023000450e-13,4.022362890e-12,1.594694436e-12,2.002899297e-12,4.953801463e-12,1.599113023e-12,8.632293771e-13,2.688929820e-12,5.443733597e-12,6.202119547e-12,1.278301167e-12,3.498132621e-12,7.841457924e-12,9.877705861e-13,6.660410053e-12,1.275638396e-13,3.694195980e-14
0.41406,7.113283056e-12,4.013336511e-12,2.363084674e-12,6.140260728e-13,1.046577565e-12,1.801463641e-12,9.151189884e-13,6.007452925e-13,1.261270571e-13,6.033435995e-13,1.440163097e-12,4.893526158e-13,9.728819653e-13,4.670340014e-13,1.871270593e-12,6.316306328e-13,2.299240134e-12,9.387756353e-13,1.234015661e-12,3.323705960e-12,1.074964868e-12,5.981849225e-13,1.826721640e-12,3.950531126e-12,4.085300961e-12,9.870528805e-13,2.345325178e-12,5.022948995e-12,8.892885896e-13,4.137696813e-12,1.369037420e-13,3.064589987e-14
0.42188,5.384248875e-12,3.049507209e-12,1.865570309e-12,5.108703857e-13,8.590414952e-13,1.352684441e-12,6.629681246e-13,4.347317802e-13,1.029176368e-13,4.396078032e-13,1.050589371e-12,3.356376606e-13,7.303346264e-13,3.816356217e-13,1.386806775e-12,5.988896148e-13,1.663362799e-12,7.022691324e-13,8.966381006e-13,2.629011563e-12,8.541784408e-13,4.687665350e-13,1.418109981e-12,3.372693423e-12,3.205444371e-12,8.231094807e-13,1.832500230e-12,4.008477828e-12,9.173739150e-13,3.227867923e-12,1.484236188e-13,2.746560596e-14
0.42969,4.131774836e-12,2.368748952e-12,1.465725404e-12,4.342783296e-13,6.838978504e-13,1.044207509e-12,5.407284547e-13,3.251169457e-13,8.328403920e-14,3.504445749e-13,8.958621001e-13,2.681401611e-13,5.566016956e-13,3.356215373e-13,1.158933563e-12,6.247386258e-13,1.406495024e-12,5.788426511e-13,6.866375384e-13,2.332085591e-12,8.054598691e-13,3.637991968e-13,1.202835632e-12,3.340188971e-12,2.984252801e-12,6.903884634e-13,1.620647539e-12,4.060431287e-12,9.674109698e-13,2.964565377e-12,1.565748965e-13,2.708381840e-14
0.4375,3.171526345e-12,1.827695084e-12,1.161716196e-12,3.651926680e-13,5.538919804e-13,7.971719623e-13,4.271323049e-13,2.394193200e-13,6.859250068e-14,2.680145329e-13,7.415853838e-13,2.082159842e-13,4.266116734e-13,2.839542574e-13,9.459709301e-13,6.381194356e-13,1.148358728e-12,4.769909300e-13,5.163747210e-13,1.996331631e-12,7.326954211e-13,2.836476557e-13,9.967446225e-13,3.146676613e-12,2.628514704e-12,5.831336185e-13,1.385780943e-12,3.912138027e-12,9.553689725e-13,2.641299238e-12,1.599265631e-13,2.714481489e-14
0.44531,2.443017630e-12,1.383881118e-12,9.222643861e-13,2.980738369e-13,4.443120838e-13,6.030723514e-13,3.415581950e-13,1.746647372e-13,5.819914260e-14,2.035893530e-13,6.445248887e-13,1.699025786e-13,3.388227107e-13,2.453871603e-13,8.144261255e-13,6.626902668e-13,9.812666934e-13,4.201074640e-13,3.919359589e-13,1.689637385e-12,6.729166060e-13,2.210412656e-13,8.157869681e-13,2.922803666e-12,2.264863062e-12,4.882427743e-13,1.165302531e-12,3.843621594e-12,9.010482977e-13,2.389196197e-12,1.579160950e-13,2.762662472e-14
0.45312,1.816373092e-12,1.051677665e-12,7.280047023e-13,2.580549414e-13,3.617117916e-13,4.591706113e-13,2.696199790e-13,1.238432105e-13,4.724318193e-14,1.457440396e-13,5.504628540e-13,1.296313141e-13,2.520359471e-13,2.028613189e-13,6.516146669e-13,6.700184686e-13,7.864381508e-13,3.386520183e-13,2.897024664e-13,1.408308075e-12,6.370222533e-13,1.741425324e-13,6.830763334e-13,2.733391710e-12,1.987570185e-12,4.075615739e-13,9.960469238e-13,3.792122112e-12,8.118766022e-13,2.107551162e-12,1.515440374e-13,2.746705256e-14
0.46094,1.372616870e-12,7.999021468e-13,5.784516828e-13,2.230769267e-13,2.937345560e-13,3.524448705e-13,2.229240190e-13,8.771478730e-14,3.897068026e-14,1.070848346e-13,5.116105654e-13,1.054943290e-13,1.938816662e-13,1.769290504e-13,5.593782354e-13,6.873312356e-13,6.704204602e-13,2.883243725e-13,2.186975897e-13,1.167038748e-12,6.111178688e-13,1.391593116e-13,5.750296827e-13,2.547243928e-12,1.740841177e-12,3.400179476e-13,8.538757512e-13,3.778907847e-12,7.197525226e-13,1.914539825e-12,1.432600081e-13,2.675781580e-14
0.46875,1.066429526e-12,6.144153217e-13,4.656009165e-13,1.946151949e-13,2.335820574e-13,2.839106555e-13,2.047478931e-13,6.391333292e-14,3.186457801e-14,8.425029621e-14,5.251197523e-13,9.804064435e-14,1.548085281e-13,1.648769014e-13,5.366503010e-13,7.214746848e-13,6.502516387e-13,2.721446221e-13,1.801767166e-13,1.013486957e-12,6.166729760e-13,1.112386503e-13,5.049221110e-13,2.448346006e-12,1.599656332e-12,2.862735214e-13,7.669544878e-13,3.923734469e-12,6.481498673e-13,1.864841382e-12,1.348671065e-13,2.598520800e-14
0.47656,8.187901607e-13,4.689622476e-13,3.759200291e-13,1.718716995e-13,1.903929971e-13,2.231367113e-13,1.766661702e-13,4.388360344e-14,2.576556234e-14,6.035043810e-14,5.099675920e-13,8.321683706e-14,1.193511233e-13,1.493203789e-13,4.828018575e-13,7.408342848e-13,5.826582378e-13,2.407273166e-13,1.389407427e-13,8.410247229e-13,5.903601938e-13,9.079825219e-14,4.285311893e-13,2.267672850e-12,1.400337281e-12,2.465711543e-13,6.668075696e-13,3.809961644e-12,5.953131232e-13,1.744167210e-12,1.289665553e-13,2.459405239e-14
0.48438,1.914652401e-13,1.251202493e-13,1.012749479e-13,1.095374508e-13,5.224958319e-14,5.198337816e-14,1.106540513e-13,1.653583421e-14,1.003675639e-14,3.292975046e-14,5.021990015e-13,1.116873618e-13,6.703108469e-14,1.710511138e-13,4.683827408e-13,8.080078139e-13,5.845453774e-13,1.983636932e-13,6.664129739e-14,6.001483737e-13,5.684967590e-13,1.536291462e-14,2.701586267e-13,2.145503295e-12,1.370440935e-12,1.193709902e-13,5.983246995e-13,4.201067958e-12,6.135328456e-13,1.806972047e-12,1.270064880e-13,2.575072176e-14
0.49219,2.369233962e-13,1.931461672e-13,6.795286895e-14,1.083080926e-13,3.512006393e-14,6.731723345e-14,1.215031827e-13,3.634897011e-14,7.154514056e-15,4.327958598e-14,5.576015356e-13,1.453229194e-13,8.197664188e-14,1.697094157e-13,5.059224257e-13,8.370424036e-13,6.614903965e-13,2.052180502e-13,1.075892994e-13,6.353894446e-13,5.945045800e-13,2.683521794e-14,3.012220565e-13,2.186146404e-12,1.516167987e-12,1.129097670e-13,6.790268605e-13,4.383401919e-12,6.221098243e-13,1.981356178e-12,1.282361052e-13,2.590227385e-14
0.5,2.165769121e-13,1.279730486e-13,9.911159505e-14,9.872847103e-14,3.680041606e-14,5.392753233e-14,1.277417467e-13,2.587623098e-14,7.470958079e-15,3.301140043e-14,5.859869546e-13,1.299973303e-13,6.341405915e-14,1.555542924e-13,5.284898731e-13,8.569502222e-13,6.589460589e-13,1.965372145e-13,7.943535807e-14,6.191858379e-13,5.285001392e-13,2.022128977e-14,2.492817669e-13,1.998113922e-12,1.265855077e-12,1.224444189e-13,5.711691100e-13,3.851549813e-12,6.171338735e-13,1.787273996e-12,1.314346699e-13,2.462962982e-14
0.50781,2.512551678e-13,1.290550232e-13,1.086691763e-13,9.002507702e-14,3.561845778e-14,4.975101356e-14,1.339226233e-13,2.533282272e-14,7.163500095e-15,3.532752791e-14,6.150577757e-13,1.240411297e-13,5.806324733e-14,1.516711583e-13,5.742429848e-13,8.830755173e-13,7.109217214e-13,2.029167782e-13,8.131189562e-14,6.735465607e-13,4.945523809e-13,2.242417768e-14,2.422927515e-13,1.934347911e-12,1.207103668e-12,1.317194517e-13,5.571567293e-13,3.551214047e-12,6.407307276e-13,1.781958248e-12,1.338820156e-13,2.315032572e-14
0.51562,2.519240769e-13,1.548433599e-13,9.055769277e-14,8.506043570e-14,3.707344275e-14,3.961471771e-14,1.185524594e-13,2.528030543e-14,6.176267185e-15,3.490893922e-14,5.974173511e-13,1.071232775e-13,4.725279213e-14,1.427537727e-13,5.602363529e-13,8.896609937e-13,6.962876942e-13,1.837847078e-13,8.151040148e-14,6.928936053e-13,4.563415137e-13,3.563542923e-14,2.457031350e-13,1.858731687e-12,1.179267867e-12,1.372849117e-13,5.630679097e-13,3.220997337e-12,6.533045538e-13,1.761855237e-12,1.340730809e-13,2.091315143e-14
0.52344,2.539800487e-13,1.370484767e-13,1.050096357e-13,7.495427414e-14,3.224219580e-14,3.376444503e-14,1.231694917e-13,2.565254596e-14,6.397054791e-15,3.754572061e-14,6.218755282e-13,9.952796836e-14,4.423560553e-14,1.483070733e-13,6.087179851e-13,9.110185681e-13,7.389611809e-13,1.854170138e-13,7.887062077e-14,7.234418244e-13,4.119970383e-13,3.496372422e-14,2.235390089e-13,1.754016496e-12,1.090121454e-12,1.282669482e-13,5.252966089e-13,2.883002327e-12,6.450130704e-13,1.682233821e-12,1.314008481e-13,1.878483423e-14
0.53125,2.555719998e-13,1.289612912e-13,1.211969845e-13,6.871492915e-14,2.726294169e-14,3.487340479e-14,1.349581643e-13,2.696417568e-14,6.472994441e-15,4.283353489e-14,6.615925538e-13,9.634291546e-14,4.386010080e-14,1.563843787e-13,6.613486045e-13,9.334348169e-13,7.905171086e-13,1.899823093e-13,8.310985599e-14,7.549421292e-13,3.833478461e-13,3.400111268e-14,2.133198522e-13,1.679565328e-12,1.039563669e-12,1.157224535e-13,5.039613910e-13,2.641699216e-12,6.203691255e-13,1.622858504e-12,1.254115569e-13,1.679126604e-14
0.53906,2.479397190e-13,1.199636655e-13,1.221732397e-13,6.051301895e-14,2.809140849e-14,2.654486351e-14,1.306572167e-13,2.215183750e-14,7.441344838e-15,4.134623704e-14,6.735580283e-13,8.065061925e-14,3.707801398e-14,1.549810194e-13,6.635307385e-13,9.398170294e-13,7.778846381e-13,1.854453636e-13,7.995245100e-14,7.265493289e-13,3.451645366e-13,3.995269912e-14,1.994626304e-13,1.549620437e-12,9.285599677e-13,1.100898219e-13,4.664881312e-13,2.332221677e-12,5.772739720e-13,1.536696695e-12,1.167086939e-13,1.453919335e-14
0.54688,2.519137263e-13,1.174127293e-13,1.303406352e-13,5.413283287e-14,2.598487576e-14,2.770267535e-14,1.348323261e-13,2.223789420e-14,8.116771909e-15,4.077158261e-14,7.003502630e-13,7.667574068e-14,3.463917226e-14,1.567395748e-13,6.726886818e-13,9.474532998e-13,7.811193213e-13,1.871910217e-13,8.302539319e-14,6.930395834e-13,3.180750931e-13,4.036854104e-14,1.833243320e-13,1.431101026e-12,8.440847795e-13,9.930006324e-14,4.384504942e-13,2.120065646e-12,5.305675202e-13,1.472108366e-12,1.065896466e-13,1.311625663e-14
0.55469,2.404963364e-13,1.195455920e-13,1.371883308e-13,5.146590311e-14,2.332738098e-14,3.064979628e-14,1.387738743e-13,2.486913657e-14,8.521049991e-15,3.904300755e-14,7.235960099e-13,8.013849704e-14,3.375459679e-14,1.563273101e-13,6.603541959e-13,9.462791826e-13,7.596748730e-13,1.804372085e-13,8.524986104e-14,6.343446179e-13,2.915521973e-13,3.976690385e-14,1.655453607e-13,1.302520666e-12,7.700055924e-13,8.772501477e-14,4.146278160e-13,1.929643879e-12,4.870388639e-13,1.393018917e-12,9.722771219e-14,1.262254436e-14
0.5625,2.334286734e-13,1.060963245e-13,1.564549521e-13,4.813278153e-14,2.301664621e-14,3.472796937e-14,1.496341899e-13,2.309370106e-14,1.001915459e-14,3.548324375e-14,7.568056757e-13,8.353456272e-14,3.218292555e-14,1.520011457e-13,6.547462021e-13,9.437916771e-13,7.435481422e-13,1.844682740e-13,8.677414023e-14,5.844236498e-13,2.694649437e-13,3.946020627e-14,1.496418061e-13,1.181404726e-12,6.654533077e-13,8.649233668e-14,3.794632305e-13,1.737822211e-12,4.568503329e-13,1.321954170e-12,8.984668786e-14,1.295363497e-14
0.57031,2.394033715e-13,1.043336481e-13,1.724321153e-13,4.746329400e-14,2.346876463e-14,4.248861729e-14,1.613341667e-13,2.370370161e-14,1.128075305e-14,3.411606779e-14,7.934947359e-13,9.303990761e-14,3.205427697e-14,1.468181335e-13,6.520472981e-13,9.385173222e-13,7.367157854e-13,1.897174183e-13,9.323862201e-14,5.491541286e-13,2.543346804e-13,3.850716656e-14,1.416846166e-13,1.093087892e-12,6.001204914e-13,8.937059569e-14,3.668097741e-13,1.603424125e-12,4.486293814e-13,1.297097384e-12,8.472367971e-14,1.424896129e-14
0.57812,2.548581969e-13,1.178846526e-13,1.711508557e-13,4.623964518e-14,2.655086047e-14,4.390880905e-14,1.579420082e-13,2.564053859e-14,1.228989579e-14,3.200357715e-14,8.008120396e-13,9.913122750e-14,2.888376546e-14,1.383867873e-13,6.250470626e-13,9.219802238e-13,7.038915082e-13,1.870637175e-13,9.834671083e-14,5.080901802e-13,2.315953143e-13,4.002706582e-14,1.353218604e-13,9.985440285e-13,5.459651706e-13,9.866834025e-14,3.695933070e-13,1.446717426e-12,4.598791169e-13,1.299798032e-12,8.201425778e-14,1.599010085e-14
0.58594,2.682900237e-13,1.180522688e-13,1.893519374e-13,4.779372050e-14,2.836203613e-14,5.544466539e-14,1.676015104e-13,2.938574721e-14,1.317038225e-14,3.168684613e-14,8.181661605e-13,1.103462362e-13,2.722791928e-14,1.346873647e-13,6.251579998e-13,9.105271439e-13,7.016712680e-13,1.926218109e-13,1.032486540e-13,5.015668815e-13,2.146811912e-13,3.720186994e-14,1.283126334e-13,9.294710212e-13,4.932916795e-13,1.068571954e-13,3.642870225e-13,1.308340937e-12,4.817059654e-13,1.292332756e-12,8.122695416e-14,1.821780136e-14
0.59375,2.692116816e-13,1.140692899e-13,2.073049390e-13,5.086187039e-14,2.868702674e-14,6.750246289e-14,1.768539343e-13,3.440129777e-14,1.404651179e-14,3.311049016e-14,8.317814554e-13,1.242062693e-13,2.812683100e-14,1.352968882e-13,6.332070932e-13,8.970734027e-13,7.078454031e-13,1.977501686e-13,1.099260019e-13,5.119864026e-13,1.986369600e-13,3.496330860e-14,1.242908574e-13,8.762917039e-13,4.567979683e-13,1.129421258e-13,3.643767310e-13,1.184891224e-12,5.094128310e-13,1.285249785e-12,8.160656650e-14,2.044545274e-14
0.60156,2.793075272e-13,1.152211556e-13,2.126610704e-13,5.104312830e-14,3.171951946e-14,7.060253586e-14,1.755746859e-13,3.529811330e-14,1.540549107e-14,3.455482070e-14,8.314766288e-13,1.285825964e-13,2.675460923e-14,1.357986050e-13,6.403819248e-13,8.796947928e-13,7.188627125e-13,2.073721430e-13,1.216528617e-13,5.442605018e-13,1.853126085e-13,3.808319932e-14,1.309489542e-13,8.440370777e-13,4.309335867e-13,1.258509138e-13,3.789492920e-13,1.072235827e-12,5.380262654e-13,1.324569912e-12,8.195747722e-14,2.182350012e-14
0.60938,2.873091692e-13,1.114777119e-13,2.212972570e-13,5.250655999e-14,3.238793038e-14,7.614549741e-14,1.768920484e-13,3.886721548e-14,1.692931511e-14,3.749853857e-14,8.383819594e-13,1.379845423e-13,2.785083159e-14,1.431520907e-13,6.599690825e-13,8.618109922e-13,7.419123596e-13,2.183643619e-13,1.342098830e-13,5.817142106e-13,1.733640553e-13,3.946507319e-14,1.319174289e-13,8.147521827e-13,4.079194326e-13,1.300578800e-13,3.857281153e-13,9.754661311e-13,5.522714127e-13,1.341688720e-12,8.158733629e-14,2.251963602e-14
0.61719,2.886885760e-13,1.099907892e-13,2.250028756e-13,5.406989927e-14,3.221597771e-14,8.000661993e-14,1.729381479e-13,4.428652662e-14,1.861589310e-14,3.903684676e-14,8.319349790e-13,1.470893681e-13,2.848030312e-14,1.529011772e-13,6.627606679e-13,8.361259058e-13,7.453747887e-13,2.237119357e-13,1.442528600e-13,5.997369577e-13,1.584667204e-13,4.225236881e-14,1.270752106e-13,7.679516706e-13,3.792640172e-13,1.284707879e-13,3.855375983e-13,8.716769778e-13,5.497009009e-13,1.332098271e-12,8.018193883e-14,2.237345238e-14
0.625,2.752121878e-13,9.824590465e-14,2.377235751e-13,5.646786086e-14,3.337938553e-14,8.475216545e-14,1.755655196e-13,4.507636496e-14,2.052621541e-14,3.932218421e-14,8.270557108e-13,1.507949278e-13,2.823588708e-14,1.628473221e-13,6.667704050e-13,8.114713176e-13,7.546221250e-13,2.329305262e-13,1.538536912e-13,6.234286990e-13,1.516906200e-13,4.677129178e-14,1.278430699e-13,7.359077043e-13,3.467164831e-13,1.277747127e-13,3.778351655e-13,7.916097393e-13,5.321658964e-13,1.312994410e-12,7.748341413e-14,2.137008967e-14
0.63281,2.593797217e-13,8.839209030e-14,2.475074860e-13,5.891672633e-14,3.346316397e-14,8.738552087e-14,1.763742432e-13,4.571437140e-14,2.287875531e-14,3.968188147e-14,8.231584120e-13,1.564930688e-13,3.002301699e-14,1.761385239e-13,6.655817689e-13,7.838132970e-13,7.598371979e-13,2.417854216e-13,1.654767025e-13,6.323819466e-13,1.466428467e-13,5.296058515e-14,1.256701563e-13,6.980679742e-13,3.188818675e-13,1.226681918e-13,3.705794337e-13,7.295155407e-13,5.034180022e-13,1.285985916e-12,7.405479794e-14,1.986827081e-14
0.64062,2.644173320e-13,9.274462071e-14,2.422316096e-13,5.931161469e-14,3.532557273e-14,8.446780901e-14,1.676867246e-13,4.539612638e-14,2.570025771e-14,3.981132132e-14,8.124798363e-13,1.590169879e-13,2.944404484e-14,1.894048174e-13,6.492909140e-13,7.509089356e-13,7.531820809e-13,2.503065061e-13,1.798380206e-13,6.264693397e-13,1.425737115e-13,6.241028249e-14,1.238003232e-13,6.563066956e-13,2.971317119e-13,1.188571359e-13,3.739835377e-13,6.782820233e-13,4.718474392e-13,1.285979263e-12,7.023164136e-14,1.801617542e-14
0.64844,2.590706605e-13,8.493050332e-14,2.475844265e-13,6.210300417e-14,3.651334499e-14,8.737223699e-14,1.683245685e-13,4.526259598e-14,2.854121767e-14,4.101619417e-14,8.120840778e-13,1.657446690e-13,3.012203595e-14,2.074048933e-13,6.384265982e-13,7.201815074e-13,7.451553357e-13,2.584527517e-13,1.877570900e-13,6.113583159e-13,1.396954710e-13,6.819205318e-14,1.161113644e-13,6.096692806e-13,2.626494791e-13,1.104017769e-13,3.592996194e-13,6.245115190e-13,4.364625756e-13,1.243463230e-12,6.641610060e-14,1.641464718e-14
0.65625,2.542935975e-13,8.175595085e-14,2.520473842e-13,6.591284205e-14,3.822513172e-14,9.371453170e-14,1.686439999e-13,4.604498606e-14,3.112241664e-14,4.253459541e-14,8.061944497e-13,1.730370461e-13,3.054692328e-14,2.266086946e-13,6.181209774e-13,6.860596061e-13,7.269917155e-13,2.632082423e-13,1.928424484e-13,5.860263897e-13,1.357838200e-13,7.270861145e-14,1.070001544e-13,5.562370471e-13,2.333529115e-13,1.019644501e-13,3.476823260e-13,5.699853505e-13,4.090226930e-13,1.197484025e-12,6.319384195e-14,1.523376310e-14
0.66406,2.547887985e-13,8.442894252e-14,2.506570035e-13,6.917679294e-14,4.243838059e-14,9.969559586e-14,1.664917889e-13,4.289049339e-14,3.357276400e-14,4.406382618e-14,7.987523095e-13,1.746337871e-13,2.956883105e-14,2.432660601e-13,5.986543657e-13,6.520109287e-13,7.189439699e-13,2.711418067e-13,2.024831540e-13,5.772352119e-13,1.368391662e-13,7.903241594e-14,1.083069472e-13,5.254276925e-13,2.241516329e-13,1.011534686e-13,3.563917121e-13,5.416601629e-13,3.983902876e-13,1.200867776e-12,6.083711454e-14,1.445434875e-14
0.67188,2.595942097e-13,8.559798474e-14,2.498157015e-13,7.236744239e-14,4.413945118e-14,1.068861947e-13,1.660847046e-13,4.221668221e-14,3.638470730e-14,4.782926986e-14,8.021265175e-13,1.842194746e-13,3.170775978e-14,2.650522230e-13,5.914583384e-13,6.204652442e-13,7.209906442e-13,2.821945929e-13,2.123242076e-13,5.766097618e-13,1.366503220e-13,8.268923149e-14,1.042225907e-13,4.948004255e-13,2.160616710e-13,9.781399567e-14,3.633899512e-13,5.068142658e-13,3.997753192e-13,1.194848663e-12,5.992214016e-14,1.432167283e-14
0.67969,2.790242894e-13,9.449853777e-14,2.406309799e-13,7.424817434e-14,4.582881202e-14,1.121745819e-13,1.615566387e-13,4.351623042e-14,3.937893660e-14,5.282313142e-14,8.080150150e-13,1.976895827e-13,3.372674366e-14,2.871358218e-13,5.851025476e-13,5.893292899e-13,7.260359651e-13,2.939626415e-13,2.230558609e-13,5.844547505e-13,1.350268888e-13,8.527954549e-14,9.995141237e-14,4.673495334e-13,2.166643700e-13,9.669801127e-14,3.786564678e-13,4.684133906e-13,4.151466409e-13,1.204324389e-12,6.058682503e-14,1.453887383e-14
0.6875,2.753998135e-13,9.223879760e-14,2.381373008e-13,7.772316125e-14,4.900658562e-14,1.205960307e-13,1.620113626e-13,4.258833319e-14,4.201398964e-14,5.607977769e-14,8.139550565e-13,2.105583351e-13,3.635103613e-14,3.060711096e-13,5.794942856e-13,5.609842665e-13,7.327371427e-13,3.034570090e-13,2.293448871e-13,6.001695114e-13,1.348211709e-13,8.627301539e-14,1.017697920e-13,4.504682255e-13,2.191830602e-13,1.002665637e-13,3.915072900e-13,4.372524209e-13,4.385935431e-13,1.204162879e-12,6.265794357e-14,1.497884976e-14
0.69531,2.732735089e-13,9.559325519e-14,2.346868549e-13,8.116749192e-14,5.226112657e-14,1.299416519e-13,1.616575942e-13,4.330001930e-14,4.465992296e-14,5.861363264e-14,8.195286925e-13,2.258534264e-13,3.912924247e-14,3.234190184e-13,5.724915134e-13,5.339100995e-13,7.435663769e-13,3.129723212e-13,2.359942200e-13,6.205669848e-13,1.345012977e-13,8.626560697e-14,1.027115077e-13,4.362950861e-13,2.293061905e-13,1.055582148e-13,4.097242549e-13,4.058311926e-13,4.668429918e-13,1.206179543e-12,6.593347733e-14,1.548271990e-14
0.70312,2.791458857e-13,1.076520033e-13,2.231346547e-13,8.285669447e-14,5.661850547e-14,1.339891035e-13,1.558493591e-13,4.271292499e-14,4.765109672e-14,6.047623839e-14,8.265180543e-13,2.393370217e-13,4.117445307e-14,3.370338462e-13,5.664605722e-13,5.088265875e-13,7.651779051e-13,3.262104703e-13,2.489799907e-13,6.528717972e-13,1.373134716e-13,8.868903059e-14,1.079362911e-13,4.360323402e-13,2.526175367e-13,1.155260782e-13,4.415640799e-13,3.868450774e-13,4.961340611e-13,1.237512521e-12,6.986309861e-14,1.572207904e-14
0.71094,2.691827190e-13,1.071824720e-13,2.175325809e-13,8.488600430e-14,5.978014770e-14,1.379261274e-13,1.550200782e-13,4.355708940e-14,5.072942554e-14,6.177666211e-14,8.362816723e-13,2.567701338e-13,4.471099990e-14,3.504339456e-13,5.575202566e-13,4.840218177e-13,7.724919884e-13,3.343391009e-13,2.535318992e-13,6.679987763e-13,1.379408579e-13,8.942239024e-14,1.085024537e-13,4.229032496e-13,2.553119342e-13,1.225086881e-13,4.510631748e-13,3.533268181e-13,5.140096800e-13,1.218909616e-12,7.435890123e-14,1.583325667e-14
0.71875,2.638725362e-13,1.098715483e-13,2.082299813e-13,8.654696611e-14,6.414151398e-14,1.415173873e-13,1.525407802e-13,4.530803440e-14,5.344649956e-14,6.239203694e-14,8.419414769e-13,2.729583636e-13,4.710138735e-14,3.616995188e-13,5.396895667e-13,4.572907065e-13,7.660346592e-13,3.364860143e-13,2.537184866e-13,6.689979693e-13,1.367875641e-13,8.928561023e-14,1.080672826e-13,4.044219742e-13,2.557093588e-13,1.295211374e-13,4.566810342e-13,3.181640067e-13,5.229274259e-13,1.189423500e-12,7.902577054e-14,1.570349146e-14
0.72656,2.450412937e-13,1.115647831e-13,2.000626025e-13,8.941946392e-14,7.179082824e-14,1.468232721e-13,1.487597687e-13,4.324843765e-14,5.527662910e-14,6.084211599e-14,8.376860173e-13,2.801214225e-13,4.827182751e-14,3.694966338e-13,5.143698704e-13,4.300839948e-13,7.516966511e-13,3.332682352e-13,2.512745252e-13,6.623543311e-13,1.366376673e-13,8.941327268e-14,1.135625036e-13,3.920817006e-13,2.611138514e-13,1.402556987e-13,4.659228371e-13,2.976297717e-13,5.225274022e-13,1.163583151e-12,8.313684322e-14,1.529026966e-14
0.73438,2.352767727e-13,1.138963096e-13,1.932609305e-13,9.208085970e-14,7.743219854e-14,1.530867198e-13,1.471300249e-13,4.350622552e-14,5.691722585e-14,6.107246058e-14,8.367983097e-13,2.888047905e-13,4.973200336e-14,3.810371027e-13,4.918216891e-13,4.036871103e-13,7.317403346e-13,3.279775713e-13,2.451015251e-13,6.470282503e-13,1.361049902e-13,8.802186902e-14,1.120067054e-13,3.720069847e-13,2.538645104e-13,1.450788702e-13,4.617273011e-13,2.700348779e-13,5.101080897e-13,1.114584019e-12,8.679162329e-14,1.480939615e-14
0.74219,2.366576998e-13,1.198838212e-13,1.808180552e-13,9.313285056e-14,8.159658656e-14,1.549285887e-13,1.423468975e-13,4.356635982e-14,5.867938168e-14,6.299634502e-14,8.400685093e-13,2.968463688e-13,5.220625469e-14,3.955494942e-13,4.750265770e-13,3.790598751e-13,7.147121034e-13,3.244058821e-13,2.416446419e-13,6.347390721e-13,1.366196225e-13,8.786944247e-14,1.096499609e-13,3.556592942e-13,2.462965355e-13,1.475031698e-13,4.579341385e-13,2.481024795e-13,4.910199537e-13,1.072916307e-12,9.005789641e-14,1.419099254e-14
0.75,2.185997421e-13,1.139454677e-13,1.735890494e-13,9.512551211e-14,8.598906385e-14,1.568425076e-13,1.401162904e-13,4.204800174e-14,5.997297420e-14,6.514681512e-14,8.423220727e-13,3.028080568e-13,5.669289016e-14,4.116356511e-13,4.560114337e-13,3.549019117e-13,6.816902325e-13,3.139340943e-13,2.294871271e-13,6.090439531e-13,1.338268732e-13,8.663664992e-14,1.096962742e-13,3.320276251e-13,2.280736792e-13,1.483995527e-13,4.432072237e-13,2.287768416e-13,4.655404950e-13,1.005536384e-12,9.296367330e-14,1.349553677e-14
0.75781,2.157846608e-13,1.153952648e-13,1.655183237e-13,9.720844399e-14,8.947082196e-14,1.590388217e-13,1.379562373e-13,4.138667266e-14,6.112626005e-14,6.872969187e-14,8.486864567e-13,3.087882892e-13,6.163791433e-14,4.294458757e-13,4.435845132e-13,3.336059679e-13,6.551067046e-13,3.047021588e-13,2.187944275e-13,5.933584699e-13,1.326038227e-13,8.510533879e-14,1.081170676e-13,3.143465660e-13,2.146423483e-13,1.466648091e-13,4.306283170e-13,2.168121457e-13,4.409452318e-13,9.477015020e-13,9.575250076e-14,1.279252882e-14
0.76562,2.157041774e-13,1.239230639e-13,1.583843335e-13,9.953329607e-14,9.322221224e-14,1.613746577e-13,1.351851531e-13,3.898240730e-14,6.193928144e-14,7.171471144e-14,8.511261106e-13,3.094548661e-13,6.594908005e-14,4.452278295e-13,4.344760832e-13,3.152073534e-13,6.416577390e-13,2.984960237e-13,2.132309906e-13,5.948853738e-13,1.350065667e-13,8.487978102e-14,1.086874641e-13,3.111127874e-13,2.134488180e-13,1.464677196e-13,4.288632071e-13,2.162913254e-13,4.206129512e-13,9.150562279e-13,9.865241519e-14,1.209422540e-14
0.77344,2.144456314e-13,1.262302939e-13,1.566785569e-13,1.008368028e-13,9.391220267e-14,1.614064877e-13,1.382581606e-13,3.876524815e-14,6.287408643e-14,7.657668489e-14,8.598323070e-13,3.129527717e-13,7.099317401e-14,4.607886231e-13,4.272602396e-13,2.977300082e-13,6.232155290e-13,2.904191373e-13,2.031366063e-13,5.985663515e-13,1.371988186e-13,8.419881730e-14,1.063937925e-13,3.047947739e-13,2.017606825e-13,1.421097650e-13,4.146437824e-13,2.083821251e-13,4.018396131e-13,8.620385882e-13,1.022893234e-13,1.143231854e-14
0.78125,2.216010191e-13,1.334836284e-13,1.546157603e-13,1.013271134e-13,9.371584047e-14,1.585919610e-13,1.414063239e-13,3.874414708e-14,6.382953093e-14,8.165091549e-14,8.716345468e-13,3.158638089e-13,7.629839272e-14,4.737217518e-13,4.240260300e-13,2.824888336e-13,6.128124554e-13,2.846504003e-13,1.967209443e-13,6.141899489e-13,1.414434618e-13,8.461623766e-14,1.048960992e-13,3.069282788e-13,1.981230064e-13,1.385744699e-13,4.083179478e-13,2.060480106e-13,3.911344051e-13,8.247923824e-13,1.069143656e-13,1.073511281e-14
0.78906,2.194112460e-13,1.411356783e-13,1.590557254e-13,1.037807348e-13,9.691862040e-14,1.598052199e-13,1.465223582e-13,3.682357016e-14,6.366520407e-14,8.406192021e-14,8.722904980e-13,3.118557435e-13,8.047575368e-14,4.809047532e-13,4.134583945e-13,2.678571511e-13,5.964792511e-13,2.733923043e-13,1.871066781e-13,6.263389200e-13,1.444803139e-13,8.384574173e-14,1.081642861e-13,3.129653765e-13,2.039725736e-13,1.403575094e-13,4.118312461e-13,2.119529081e-13,3.883271199e-13,7.961738979e-13,1.123523728e-13,1.007910058e-14
0.79688,2.303231008e-13,1.537494214e-13,1.668769227e-13,1.059377662e-13,9.861403791e-14,1.626463755e-13,1.557403013e-13,3.716834578e-14,6.294527206e-14,8.666797373e-14,8.715513969e-13,3.071459530e-13,8.255298765e-14,4.851259452e-13,4.049314910e-13,2.553469973e-13,5.851129757e-13,2.627764411e-13,1.786354767e-13,6.504481544e-13,1.508544273e-13,8.176780206e-14,1.086010803e-13,3.277231621e-13,2.126733651e-13,1.408516862e-13,4.150009643e-13,2.159857341e-13,3.917515675e-13,7.716273986e-13,1.185988332e-13,9.584768483e-15
0.80469,2.449559535e-13,1.710710422e-13,1.767927434e-13,1.079450462e-13,1.003371287e-13,1.668499237e-13,1.658405015e-13,3.733324847e-14,6.143368668e-14,8.773082565e-14,8.624762158e-13,2.976246989e-13,8.246198372e-14,4.846916869e-13,3.943053276e-13,2.437719196e-13,5.774887746e-13,2.518300164e-13,1.725803086e-13,6.796738660e-13,1.598304910e-13,7.952931968e-14,1.105370131e-13,3.502197924e-13,2.291882272e-13,1.435644459e-13,4.267436705e-13,2.243868175e-13,4.021346784e-13,7.633771798e-13,1.253842284e-13,9.242857747e-15
0.8125,2.537760598e-13,1.802190098e-13,1.925085598e-13,1.096978275e-13,1.024932551e-13,1.699359295e-13,1.794710014e-13,3.740884899e-14,5.952515143e-14,8.879643564e-14,8.520235510e-13,2.877298363e-13,8.394427519e-14,4.825638026e-13,3.779680410e-13,2.306488881e-13,5.504264369e-13,2.332842706e-13,1.595290413e-13,6.896585675e-13,1.654414554e-13,7.665098192e-14,1.176151237e-13,3.628672603e-13,2.405599803e-13,1.473557902e-13,4.353161438e-13,2.370228731e-13,4.153729669e-13,7.418019764e-13,1.326451109e-13,8.970163827e-15
0.82031,2.724928850e-13,1.944433462e-13,2.091264225e-13,1.115389924e-13,1.044488333e-13,1.721117615e-13,1.926844645e-13,3.746011073e-14,5.754705123e-14,8.979916214e-14,8.419085876e-13,2.780439778e-13,8.609153559e-14,4.802914182e-13,3.666212974e-13,2.196465114e-13,5.282684453e-13,2.172698969e-13,1.496784002e-13,7.037400369e-13,1.726716042e-13,7.360146216e-14,1.249480318e-13,3.814605003e-13,2.570111295e-13,1.516963625e-13,4.502068756e-13,2.541616953e-13,4.329292073e-13,7.310986127e-13,1.403224815e-13,8.806066421e-15
0.82812,2.918708091e-13,2.125747416e-13,2.296627920e-13,1.153355613e-13,1.088934364e-13,1.776170117e-13,2.052154284e-13,3.597616511e-14,5.485158004e-14,8.910573542e-14,8.240579030e-13,2.645656112e-13,8.755036086e-14,4.755292944e-13,3.532589413e-13,2.098220492e-13,5.046606008e-13,1.997792610e-13,1.399117051e-13,7.156812344e-13,1.802916711e-13,6.948040019e-14,1.353025401e-13,4.041599700e-13,2.808390141e-13,1.588561538e-13,4.730625017e-13,2.791416903e-13,4.529148604e-13,7.309919668e-13,1.479099462e-13,8.741706019e-15
0.83594,3.143998074e-13,2.244511629e-13,2.534867132e-13,1.173725652e-13,1.099007522e-13,1.784422253e-13,2.216374431e-13,3.594785808e-14,5.255476517e-14,9.054889717e-14,8.150027563e-13,2.550664599e-13,8.962263459e-14,4.708259221e-13,3.416556238e-13,2.010513554e-13,4.748060841e-13,1.818541754e-13,1.290992491e-13,7.276074383e-13,1.890337690e-13,6.622577715e-14,1.464212782e-13,4.232473472e-13,2.951875212e-13,1.614737596e-13,4.839511171e-13,3.043967140e-13,4.703650974e-13,7.183820574e-13,1.555223967e-13,8.665171045e-15
0.84375,3.446981596e-13,2.397970320e-13,2.838139233e-13,1.195984173e-13,1.102628418e-13,1.789466982e-13,2.408729143e-13,3.594582898e-14,5.045076639e-14,9.271321252e-14,8.102732528e-13,2.458681351e-13,9.214697957e-14,4.650896416e-13,3.334902816e-13,1.946745367e-13,4.497060606e-13,1.665871756e-13,1.212671008e-13,7.431105091e-13,1.988585022e-13,6.432892234e-14,1.592570146e-13,4.451363616e-13,3.122766298e-13,1.635127963e-13,4.982996759e-13,3.371454863e-13,4.882027547e-13,7.154393803e-13,1.632827424e-13,8.660971693e-15
0.85156,3.793376501e-13,2.551682007e-13,3.241706228e-13,1.233233284e-13,1.123261865e-13,1.812099962e-13,2.637640033e-13,3.515534092e-14,4.844287283e-14,9.552048126e-14,8.104893054e-13,2.369948399e-13,9.739999521e-14,4.588470476e-13,3.261969711e-13,1.893464081e-13,4.195062341e-13,1.502318888e-13,1.125966447e-13,7.512165587e-13,2.071700450e-13,6.361701480e-14,1.782632591e-13,4.635386720e-13,3.319429732e-13,1.668128073e-13,5.167722356e-13,3.846948809e-13,5.049673908e-13,7.138962581e-13,1.709744074e-13,8.684718923e-15
0.85938,4.166044130e-13,2.704705883e-13,3.659276069e-13,1.263431842e-13,1.117762529e-13,1.822284039e-13,2.891841954e-13,3.555816012e-14,4.653286855e-14,9.900987461e-14,8.147156403e-13,2.293733158e-13,1.007869070e-13,4.523733082e-13,3.228808503e-13,1.864716294e-13,3.959737706e-13,1.378077370e-13,1.074529507e-13,7.702437201e-13,2.189019420e-13,6.335268128e-14,1.931174953e-13,4.855620193e-13,3.458259133e-13,1.660794037e-13,5.283547684e-13,4.297016455e-13,5.190240463e-13,7.100662407e-13,1.789269170e-13,8.712596971e-15
0.86719,4.593351515e-13,2.902801910e-13,4.137315289e-13,1.309000534e-13,1.121333029e-13,1.883130282e-13,3.182539728e-13,3.603093605e-14,4.405031121e-14,1.019917565e-13,8.138465634e-13,2.182719023e-13,1.016858488e-13,4.438928235e-13,3.186442934e-13,1.857412245e-13,3.769120670e-13,1.266274416e-13,1.047440725e-13,7.938678234e-13,2.333008976e-13,6.292365456e-14,2.085727408e-13,5.126755122e-13,3.639142282e-13,1.654509294e-13,5.427588202e-13,4.808521264e-13,5.326949596e-13,7.142200971e-13,1.870708080e-13,8.804955645e-15
0.875,5.088031295e-13,3.066216339e-13,4.698303009e-13,1.348844375e-13,1.108122392e-13,1.949157548e-13,3.536207533e-13,3.729910158e-14,4.173823258e-14,1.065749781e-13,8.163555528e-13,2.073248351e-13,1.032616356e-13,4.346027150e-13,3.133518423e-13,1.857311183e-13,3.548731075e-13,1.155994225e-13,1.027829748e-13,8.157959225e-13,2.495011082e-13,6.444856238e-14,2.292188929e-13,5.361496691e-13,3.792729812e-13,1.625730158e-13,5.529550556e-13,5.425138469e-13,5.452228808e-13,7.141613267e-13,1.952816452e-13,8.853929072e-15
0.88281,5.646952163e-13,3.291480902e-13,5.302642522e-13,1.406065341e-13,1.100858935e-13,2.060695229e-13,3.899732112e-13,3.876794391e-14,3.899028593e-14,1.106454598e-13,8.149193427e-13,1.941931950e-13,1.022249731e-13,4.246775526e-13,3.105942187e-13,1.873584800e-13,3.408869876e-13,1.070892845e-13,1.033596201e-13,8.422129599e-13,2.681230046e-13,6.495081227e-14,2.461842141e-13,5.630403815e-13,3.961437302e-13,1.589943665e-13,5.662108778e-13,6.039372546e-13,5.611832185e-13,7.236349403e-13,2.039430964e-13,8.929425179e-15
0.89062,6.232710787e-13,3.556405186e-13,5.927596581e-13,1.488522084e-13,1.120753383e-13,2.210175122e-13,4.249054249e-13,3.898468806e-14,3.584917693e-14,1.142223228e-13,8.092196558e-13,1.790864581e-13,1.011205324e-13,4.150829668e-13,3.102565719e-13,1.904859260e-13,3.289000429e-13,9.907860393e-14,1.045418138e-13,8.659314298e-13,2.863714612e-13,6.412186891e-14,2.637882893e-13,5.917258415e-13,4.185082152e-13,1.574676522e-13,5.870464309e-13,6.703896699e-13,5.825227875e-13,7.422593989e-13,2.131804186e-13,9.022317646e-15
0.89844,6.729492514e-13,3.745771573e-13,6.482883627e-13,1.552896879e-13,1.110869621e-13,2.306072204e-13,4.572999033e-13,3.922485749e-14,3.278843616e-14,1.177012603e-13,7.985673520e-13,1.638600140e-13,9.776804722e-14,4.039161722e-13,3.072189106e-13,1.943565326e-13,3.166088844e-13,9.204628711e-14,1.066844297e-13,8.971969128e-13,3.058029015e-13,6.316120903e-14,2.788142772e-13,6.212758973e-13,4.341414125e-13,1.524152811e-13,5.988185102e-13,7.272454111e-13,6.074842408e-13,7.530067536e-13,2.234062303e-13,9.054373640e-15
0.90625,7.324829529e-13,4.013578060e-13,7.060320650e-13,1.642541642e-13,1.125797963e-13,2.429035288e-13,4.875546736e-13,3.885639516e-14,2.955747428e-14,1.210921654e-13,7.849893121e-13,1.480106043e-13,9.358003142e-14,3.918625028e-13,3.059064377e-13,1.998472695e-13,3.103816097e-13,8.670129734e-14,1.108442032e-13,9.350587246e-13,3.254968924e-13,6.112792275e-14,2.947144296e-13,6.562782787e-13,4.598336010e-13,1.495186396e-13,6.200428500e-13,7.873916036e-13,6.413536745e-13,7.771413124e-13,2.348798886e-13,9.123304347e-15
0.91406,8.048132006e-13,4.330697151e-13,7.706773602e-13,1.752026301e-13,1.164051882e-13,2.557424240e-13,5.183435648e-13,3.809725980e-14,2.692586447e-14,1.264066881e-13,7.806092975e-13,1.354533160e-13,9.285169263e-14,3.808360517e-13,3.097339439e-13,2.068058102e-13,3.057222744e-13,8.288457331e-14,1.155177437e-13,9.716614178e-13,3.427604685e-13,5.998467945e-14,3.169438774e-13,6.901373451e-13,4.943824729e-13,1.491829132e-13,6.512821468e-13,8.606359132e-13,6.823182208e-13,8.120893225e-13,2.473144792e-13,9.224796919e-15
0.92188,8.665286773e-13,4.621429315e-13,8.310413115e-13,1.868979658e-13,1.204488915e-13,2.669529068e-13,5.445280562e-13,3.743534332e-14,2.437954121e-14,1.310467576e-13,7.746971170e-13,1.243356765e-13,8.968880135e-14,3.683380647e-13,3.135949800e-13,2.147541120e-13,3.028815313e-13,7.982133953e-14,1.188767850e-13,1.012146783e-12,3.577792778e-13,5.735395379e-14,3.322601756e-13,7.224474114e-13,5.224405500e-13,1.474239918e-13,6.765386421e-13,9.179817614e-13,7.244081796e-13,8.416353345e-13,2.602140889e-13,9.407932325e-15
0.92969,9.298834552e-13,4.935102580e-13,8.922608994e-13,2.004635212e-13,1.264533170e-13,2.800903124e-13,5.691427639e-13,3.630623531e-14,2.207482183e-14,1.356672788e-13,7.724195508e-13,1.149958328e-13,8.750161823e-14,3.553464359e-13,3.199044908e-13,2.239453301e-13,3.033541084e-13,7.844286173e-14,1.229458969e-13,1.053046203e-12,3.706635227e-13,5.450741027e-14,3.476596449e-13,7.529552355e-13,5.543352898e-13,1.472976504e-13,7.057179195e-13,9.752733622e-13,7.655282255e-13,8.749234669e-13,2.727944532e-13,9.646625067e-15
0.9375,9.970693249e-13,5.222912954e-13,9.555639143e-13,2.133959295e-13,1.306553854e-13,2.928388711e-13,5.974341701e-13,3.589956552e-14,2.040883478e-14,1.410772034e-13,7.762324407e-13,1.076062338e-13,8.652460895e-14,3.401505507e-13,3.229161978e-13,2.327206981e-13,3.026160059e-13,7.822021450e-14,1.287419455e-13,1.096466243e-12,3.850457916e-13,5.409371961e-14,3.681108433e-13,7.825652018e-13,5.876655271e-13,1.459356104e-13,7.316356267e-13,1.041399848e-12,8.017935281e-13,9.068999704e-13,2.849165958e-13,9.835323517e-15
0.94531,1.071540992e-12,5.593954742e-13,1.024902622e-12,2.299407769e-13,1.371559130e-13,3.137671044e-13,6.275782585e-13,3.650912721e-14,1.866310824e-14,1.468197729e-13,7.835322734e-13,1.009902042e-13,8.509628715e-14,3.244987024e-13,3.280637411e-13,2.426780094e-13,3.073310099e-13,7.983146378e-14,1.362432807e-13,1.143094888e-12,4.031569065e-13,5.325988812e-14,3.868367025e-13,8.180887943e-13,6.240480094e-13,1.454925455e-13,7.612377654e-13,1.114236553e-12,8.336736051e-13,9.453171641e-13,2.965514892e-13,1.005987306e-14
0.95312,1.151577571e-12,6.007613870e-13,1.099788629e-12,2.489503848e-13,1.452001961e-13,3.406213865e-13,6.602075764e-13,3.774507143e-14,1.722431691e-14,1.536691975e-13,7.994299207e-13,9.637230083e-14,8.612524566e-14,3.110177439e-13,3.377100447e-13,2.546887250e-13,3.156523724e-13,8.358217979e-14,1.453257138e-13,1.184943499e-12,4.228896400e-13,5.331700679e-14,4.069822462e-13,8.530204402e-13,6.616722256e-13,1.463369795e-13,7.961282923e-13,1.199876904e-12,8.595430984e-13,9.886962287e-13,3.073671679e-13,1.021458596e-14
0.96094,1.206906193e-12,6.283551387e-13,1.159742629e-12,2.660811194e-13,1.499736009e-13,3.632522954e-13,6.874274831e-13,3.892574257e-14,1.589703187e-14,1.583250861e-13,8.070777880e-13,9.033565748e-14,8.440818854e-14,2.959113936e-13,3.389329041e-13,2.658963874e-13,3.189742195e-13,8.648595420e-14,1.537497372e-13,1.220065100e-12,4.433603069e-13,5.369529245e-14,4.220362450e-13,8.808001558e-13,6.856421266e-13,1.439374990e-13,8.164584524e-13,1.271872735e-12,8.772396453e-13,1.014141101e-12,3.177373383e-13,1.016918640e-14
0.96875,1.263206708e-12,6.589191855e-13,1.213279369e-12,2.838391947e-13,1.553897343e-13,3.859024776e-13,7.106833378e-13,3.976076080e-14,1.467504047e-14,1.629007201e-13,8.137869955e-13,8.433135143e-14,8.334023590e-14,2.819203639e-13,3.422428710e-13,2.778222515e-13,3.265378560e-13,9.177175791e-14,1.645190075e-13,1.253645506e-12,4.662382355e-13,5.419983129e-14,4.369447045e-13,9.087384223e-13,7.126528608e-13,1.427693106e-13,8.392871553e-13,1.346259555e-12,8.936646416e-13,1.043405418e-12,3.279080199e-13,9.968846996e-15
0.97656,1.326327121e-12,6.914433429e-13,1.263142638e-12,3.003680555e-13,1.601481711e-13,4.061116860e-13,7.334220745e-13,4.057009066e-14,1.380606330e-14,1.685135904e-13,8.224969249e-13,7.887621364e-14,8.388544376e-14,2.688316393e-13,3.460602887e-13,2.901573142e-13,3.362424200e-13,9.872805377e-14,1.773208172e-13,1.289107953e-12,4.903735422e-13,5.607038294e-14,4.553611393e-13,9.368613192e-13,7.438913496e-13,1.421338480e-13,8.629142960e-13,1.426242414e-12,9.096169393e-13,1.076779002e-12,3.376534916e-13,9.563394111e-15
0.98438,1.364707684e-12,7.130034624e-13,1.294925385e-12,3.152850008e-13,1.643635965e-13,4.200403410e-13,7.455768281e-13,4.076228198e-14,1.281626847e-14,1.727258499e-13,8.218942944e-13,7.281892544e-14,8.163457393e-14,2.558229827e-13,3.460847709e-13,3.014620328e-13,3.436496414e-13,1.040676204e-13,1.865797845e-13,1.322042232e-12,5.101012208e-13,5.583741216e-14,4.637924127e-13,9.570676671e-13,7.619127618e-13,1.402383601e-13,8.748262971e-13,1.474939077e-12,9.245200530e-13,1.093263275e-12,3.469782632e-13,9.057876885e-15
0.99219,1.393402516e-12,7.297100919e-13,1.313846386e-12,3.283376053e-13,1.685878852e-13,4.278620761e-13,7.498016116e-13,4.004977470e-14,1.213534774e-14,1.770237877e-13,8.202137736e-13,6.812829985e-14,8.008665848e-14,2.451237928e-13,3.486699562e-13,3.128637985e-13,3.526017580e-13,1.097452357e-13,1.935833590e-13,1.354049637e-12,5.245138642e-13,5.477029379e-14,4.685103741e-13,9.721778359e-13,7.772801139e-13,1.395443171e-13,8.858198385e-13,1.506502748e-12,9.424991618e-13,1.107013248e-12,3.560931130e-13,8.537038418e-15
1,1.403311305e-12,7.335058969e-13,1.313046650e-12,3.368335978e-13,1.693671387e-13,4.253490726e-13,7.455916990e-13,3.820711038e-14,1.180284277e-14,1.798095670e-13,8.110472125e-13,6.296615841e-14,7.752417471e-14,2.336722694e-13,3.458701384e-13,3.233972053e-13,3.586326500e-13,1.147491253e-13,1.985843728e-13,1.387368371e-12,5.340265668e-13,5.387239279e-14,4.710340404e-13,9.819039468e-13,7.881521927e-13,1.378860669e-13,8.874459551e-13,1.517675963e-12,9.611631551e-13,1.110501089e-12,3.649626243e-13,7.992206389e-15
1.0078,1.407487415e-12,7.376025647e-13,1.305260962e-12,3.454899331e-13,1.712461854e-13,4.224217095e-13,7.355427264e-13,3.662536865e-14,1.147658337e-14,1.829740723e-13,8.030349216e-13,5.960765284e-14,7.513990466e-14,2.236009708e-13,3.465966305e-13,3.342706163e-13,3.687628038e-13,1.206215402e-13,2.021530297e-13,1.427472467e-12,5.403059956e-13,5.137651445e-14,4.688319871e-13,9.900401136e-13,7.981591890e-13,1.373157689e-13,8.890936673e-13,1.514050760e-12,9.798600686e-13,1.113486672e-12,3.726085958e-13,7.588808770e-15
1.0156,1.415941908e-12,7.448862153e-13,1.296722858e-12,3.543375569e-13,1.737369677e-13,4.219876677e-13,7.243530462e-13,3.578047536e-14,1.129647014e-14,1.867626411e-13,7.989897485e-13,5.816864369e-14,7.404315474e-14,2.148372463e-13,3.492928502e-13,3.447537604e-13,3.818992670e-13,1.270653242e-13,2.055094258e-13,1.471410531e-12,5.459013888e-13,4.883530727e-14,4.675270106e-13,9.988586627e-13,8.109761634e-13,1.378196090e-13,8.924632678e-13,1.510953349e-12,9.941819343e-13,1.121199989e-12,3.778680411e-13,7.329640064e-15
1.0234,1.391459101e-12,7.348879418e-13,1.268775586e-12,3.605803139e-13,1.734595620e-13,4.167391768e-13,7.030279839e-13,3.465867183e-14,1.115619201e-14,1.877313819e-13,7.872007308e-13,5.694126628e-14,7.083311799e-14,2.053946555e-13,3.449146835e-13,3.530691864e-13,3.898967352e-13,1.314809715e-13,2.050482238e-13,1.502231906e-12,5.481588190e-13,4.541490303e-14,4.587045752e-13,9.935322071e-13,8.076514773e-13,1.357326822e-13,8.796126296e-13,1.480785464e-12,9.964122392e-13,1.106473459e-12,3.802949456e-13,7.213252688e-15
1.0312,1.366655348e-12,7.269614225e-13,1.240178509e-12,3.672478585e-13,1.733400000e-13,4.151137405e-13,6.809283486e-13,3.429377415e-14,1.113572074e-14,1.885655007e-13,7.816261657e-13,5.840668670e-14,6.908943320e-14,1.986498854e-13,3.448075713e-13,3.616334787e-13,4.004243454e-13,1.375204796e-13,2.047119366e-13,1.525933585e-12,5.509150399e-13,4.180639620e-14,4.482073665e-13,9.834877490e-13,8.029222181e-13,1.340202515e-13,8.675321232e-13,1.451644670e-12,9.885088465e-13,1.093347903e-12,3.796982459e-13,7.259102414e-15
1.0391,1.344560174e-12,7.200508330e-13,1.209544124e-12,3.725649843e-13,1.714172813e-13,4.147532408e-13,6.603243912e-13,3.426659778e-14,1.134145088e-14,1.883852635e-13,7.785867187e-13,6.128167147e-14,6.884347995e-14,1.933448590e-13,3.444308738e-13,3.693025361e-13,4.103340393e-13,1.449652731e-13,2.063645911e-13,1.541491265e-12,5.560577279e-13,3.959728957e-14,4.404844722e-13,9.732447540e-13,7.990590309e-13,1.321532142e-13,8.540804285e-13,1.434773790e-12,9.688925770e-13,1.082196301e-12,3.761264601e-13,7.334387826e-15
1.0469,1.307870260e-12,7.078080473e-13,1.171088442e-12,3.769938718e-13,1.692808906e-13,4.141398681e-13,6.349127469e-13,3.478140937e-14,1.160501793e-14,1.873855395e-13,7.764312468e-13,6.642086942e-14,6.870935156e-14,1.889371770e-13,3.435057180e-13,3.754835992e-13,4.190383281e-13,1.521792035e-13,2.070964500e-13,1.545008649e-12,5.618472381e-13,3.696375740e-14,4.277257160e-13,9.547930321e-13,7.843098354e-13,1.290392847e-13,8.328151262e-13,1.408742671e-12,9.375446696e-13,1.058071559e-12,3.698656917e-13,7.488782555e-15
1.0547,1.276983519e-12,6.986824258e-13,1.133830213e-12,3.804058461e-13,1.674084178e-13,4.148285399e-13,6.104243421e-13,3.559607634e-14,1.201230580e-14,1.862946855e-13,7.766214659e-13,7.290738721e-14,6.967392183e-14,1.852760600e-13,3.436511580e-13,3.809918237e-13,4.296725200e-13,1.602237515e-13,2.089585669e-13,1.539766466e-12,5.691501758e-13,3.507711476e-14,4.164422422e-13,9.343728291e-13,7.713837098e-13,1.266174102e-13,8.128054596e-13,1.389783062e-12,8.990116045e-13,1.037369601e-12,3.615859675e-13,7.676344968e-15
1.0625,1.227236348e-12,6.775699014e-13,1.083327390e-12,3.787514867e-13,1.622841427e-13,4.071718176e-13,5.818878266e-13,3.506444577e-14,1.272601948e-14,1.831961985e-13,7.682691238e-13,7.877782390e-14,6.979269263e-14,1.814083545e-13,3.384707782e-13,3.842262910e-13,4.360015934e-13,1.670857851e-13,2.084759558e-13,1.516027429e-12,5.717102788e-13,3.401847172e-14,4.032071519e-13,9.034935630e-13,7.515264826e-13,1.231877981e-13,7.830722558e-13,1.360425072e-12,8.540156566e-13,1.005927280e-12,3.520873817e-13,7.783897142e-15
1.0703,1.175087498e-12,6.574749991e-13,1.031167669e-12,3.743798580e-13,1.575831477e-13,3.966286351e-13,5.528146995e-13,3.449839484e-14,1.358966761e-14,1.813720306e-13,7.626872687e-13,8.643419475e-14,7.049095321e-14,1.800333567e-13,3.372924344e-13,3.871708528e-13,4.438276087e-13,1.737310591e-13,2.065967341e-13,1.491565263e-12,5.705914738e-13,3.266100759e-14,3.882267405e-13,8.710328412e-13,7.307426760e-13,1.204125938e-13,7.539612179e-13,1.325352948e-12,8.080675838e-13,9.742094069e-13,3.413769441e-13,7.850048298e-15
1.0781,1.125267089e-12,6.377569980e-13,9.775691388e-13,3.663876499e-13,1.519980941e-13,3.821069418e-13,5.246422110e-13,3.335460758e-14,1.468557564e-14,1.803349050e-13,7.562035834e-13,9.435771249e-14,7.232185032e-14,1.806532796e-13,3.381200057e-13,3.908737214e-13,4.551067923e-13,1.816699567e-13,2.058839205e-13,1.472314838e-12,5.683435736e-13,3.226275633e-14,3.766606880e-13,8.417228942e-13,7.159395464e-13,1.186161810e-13,7.264100069e-13,1.291706738e-12,7.629726883e-13,9.454017758e-13,3.299033823e-13,7.833880959e-15
1.0859,1.056148107e-12,6.066875466e-13,9.136553042e-13,3.553033207e-13,1.448868262e-13,3.614960410e-13,4.917535377e-13,3.144755830e-14,1.606367723e-14,1.796133293e-13,7.420545859e-13,1.020826156e-13,7.345935032e-14,1.828628390e-13,3.369596616e-13,3.943069771e-13,4.667238163e-13,1.890677582e-13,2.025684065e-13,1.450787093e-12,5.624017108e-13,3.170501185e-14,3.622980263e-13,8.049977866e-13,6.953816049e-13,1.160234028e-13,6.902146293e-13,1.240023326e-12,7.194486157e-13,9.036075317e-13,3.188554734e-13,7.803973521e-15
1.0938,9.966791467e-13,5.811500748e-13,8.523198744e-13,3.437244588e-13,1.385151080e-13,3.416054669e-13,4.604028131e-13,2.950058800e-14,1.743236955e-14,1.798466435e-13,7.267632244e-13,1.094510159e-13,7.475059789e-14,1.877849863e-13,3.390978630e-13,3.984818091e-13,4.807014840e-13,1.965376712e-13,1.989471341e-13,1.433727262e-12,5.554465599e-13,3.148463888e-14,3.506049101e-13,7.740656862e-13,6.816441986e-13,1.150972722e-13,6.594487402e-13,1.193616370e-12,6.816569223e-13,8.727680013e-13,3.083547747e-13,7.836070352e-15
1.1016,9.329772427e-13,5.513269703e-13,7.855754156e-13,3.292358943e-13,1.303190661e-13,3.178158433e-13,4.278398104e-13,2.675234090e-14,1.898350534e-14,1.790658837e-13,7.061889537e-13,1.161806250e-13,7.639462466e-14,1.951284000e-13,3.416388435e-13,4.039361283e-13,4.948696390e-13,2.048615061e-13,1.951063510e-13,1.411412480e-12,5.469090337e-13,3.249092698e-14,3.409062896e-13,7.422743832e-13,6.689624348e-13,1.143429685e-13,6.267855081e-13,1.146094281e-12,6.458842891e-13,8.437312845e-13,2.979872157e-13,7.943671560e-15
1.1094,8.645390131e-13,5.184190373e-13,7.175008884e-13,3.143887953e-13,1.224889334e-13,2.946073050e-13,3.940042926e-13,2.474267280e-14,2.079874569e-14,1.791710178e-13,6.883999468e-13,1.253755120e-13,7.876185160e-14,2.059803521e-13,3.474234157e-13,4.109320988e-13,5.100885497e-13,2.142915310e-13,1.913539548e-13,1.391323123e-12,5.390134529e-13,3.322126346e-14,3.291900687e-13,7.063097580e-13,6.508835584e-13,1.129320189e-13,5.911851017e-13,1.091862163e-12,6.118173200e-13,8.093790872e-13,2.878622426e-13,8.241010763e-15
1.1172,8.071139954e-13,4.896096357e-13,6.527913420e-13,2.999912539e-13,1.148492922e-13,2.738627691e-13,3.622957254e-13,2.310245501e-14,2.283170213e-14,1.788396215e-13,6.726633329e-13,1.359944746e-13,8.211281382e-14,2.188677672e-13,3.557451960e-13,4.180649212e-13,5.254747651e-13,2.247893138e-13,1.893123383e-13,1.367268673e-12,5.329434463e-13,3.476241656e-14,3.208861024e-13,6.748375483e-13,6.380986991e-13,1.126609500e-13,5.600948999e-13,1.048631949e-12,5.811777493e-13,7.841714637e-13,2.783602960e-13,8.767597181e-15
1.125,7.447430558e-13,4.554703726e-13,5.864268776e-13,2.850993005e-13,1.061863992e-13,2.529100350e-13,3.299600712e-13,2.141147880e-14,2.515003920e-14,1.768924426e-13,6.531563599e-13,1.470524312e-13,8.522617814e-14,2.311836691e-13,3.619585462e-13,4.242020739e-13,5.389723833e-13,2.347356797e-13,1.864645724e-13,1.324629691e-12,5.264129534e-13,3.698021306e-14,3.132449708e-13,6.398506393e-13,6.239035453e-13,1.123189977e-13,5.255881579e-13,1.003447526e-12,5.515381875e-13,7.567689913e-13,2.694510063e-13,9.532377684e-15
1.1328,6.906712568e-13,4.262542697e-13,5.284079865e-13,2.704169332e-13,9.905162070e-14,2.351780855e-13,3.009316025e-13,2.048006078e-14,2.741935867e-14,1.745231613e-13,6.372706702e-13,1.591368561e-13,8.836907130e-14,2.429282384e-13,3.690597761e-13,4.303838497e-13,5.501919719e-13,2.442105939e-13,1.847145948e-13,1.276901873e-12,5.212222787e-13,3.932262434e-14,3.069820969e-13,6.078550369e-13,6.110466777e-13,1.129162303e-13,4.951836751e-13,9.640662533e-13,5.242009064e-13,7.353499137e-13,2.607269048e-13,1.047461573e-14
1.1406,6.397299839e-13,3.981995289e-13,4.742004470e-13,2.548094478e-13,9.193826837e-14,2.171044784e-13,2.742846517e-13,1.949403168e-14,2.985781429e-14,1.714278367e-13,6.221730263e-13,1.720989650e-13,9.229226613e-14,2.540110275e-13,3.765102650e-13,4.366496669e-13,5.597999543e-13,2.540827530e-13,1.842692925e-13,1.221236580e-12,5.161949601e-13,4.247882708e-14,3.036265288e-13,5.806852141e-13,6.024657297e-13,1.143958576e-13,4.676483527e-13,9.306518970e-13,4.984010675e-13,7.175409863e-13,2.524431338e-13,1.150727523e-14
1.1484,5.844232269e-13,3.675229617e-13,4.214226069e-13,2.398315939e-13,8.499995232e-14,1.995531703e-13,2.481403447e-13,1.918105520e-14,3.258541426e-14,1.694677350e-13,6.091018094e-13,1.869325693e-13,9.691964587e-14,2.649113918e-13,3.851147352e-13,4.435478753e-13,5.720407815e-13,2.645761718e-13,1.844762578e-13,1.163329978e-12,5.114056323e-13,4.542587378e-14,3.007012127e-13,5.538560467e-13,5.938046701e-13,1.154274673e-13,4.385831459e-13,8.919800089e-13,4.732826427e-13,6.920642592e-13,2.448114718e-13,1.259760543e-14
1.1562,5.408328676e-13,3.447318808e-13,3.759286480e-13,2.250890849e-13,7.912576571e-14,1.833752059e-13,2.257975993e-13,1.878050560e-14,3.505048351e-14,1.674231104e-13,5.971626017e-13,2.009981077e-13,1.022034037e-13,2.763685930e-13,3.973162819e-13,4.522551782e-13,5.870896457e-13,2.761943827e-13,1.870142481e-13,1.107192393e-12,5.076242190e-13,4.929591256e-14,3.025209888e-13,5.352897635e-13,5.942429542e-13,1.181361783e-13,4.170967680e-13,8.655200696e-13,4.511475693e-13,6.769945612e-13,2.376587933e-13,1.354857542e-14
1.1641,5.031254824e-13,3.248388950e-13,3.346859553e-13,2.103248195e-13,7.344257023e-14,1.671261537e-13,2.058407145e-13,1.772961864e-14,3.730746058e-14,1.652116268e-13,5.823349431e-13,2.130175652e-13,1.078523808e-13,2.890844056e-13,4.120763717e-13,4.633211057e-13,6.051237825e-13,2.890133913e-13,1.910497340e-13,1.051279599e-12,5.045997689e-13,5.454815935e-14,3.087105038e-13,5.245812377e-13,6.024540903e-13,1.218001507e-13,3.994862976e-13,8.502480055e-13,4.311249144e-13,6.687916805e-13,2.312648993e-13,1.424689601e-14
1.1719,4.681933637e-13,3.071043070e-13,2.975736475e-13,1.962003398e-13,6.858871975e-14,1.517472492e-13,1.870267292e-13,1.701510762e-14,3.938154784e-14,1.643523228e-13,5.697898282e-13,2.245168201e-13,1.137706416e-13,3.044152541e-13,4.300038925e-13,4.765960369e-13,6.237724286e-13,3.024034022e-13,1.970095537e-13,1.008778552e-12,5.022833850e-13,6.027950191e-14,3.158500731e-13,5.181655532e-13,6.098506033e-13,1.246774270e-13,3.842008621e-13,8.396810382e-13,4.121379370e-13,6.594233486e-13,2.254713241e-13,1.471344446e-14
1.1797,4.396320386e-13,2.932666159e-13,2.644656538e-13,1.818641368e-13,6.386910095e-14,1.364762670e-13,1.698707112e-13,1.587329795e-14,4.122401989e-14,1.633670365e-13,5.562567679e-13,2.343000590e-13,1.207299028e-13,3.222822276e-13,4.523770033e-13,4.913100430e-13,6.434868626e-13,3.172547354e-13,2.052636641e-13,9.712457166e-13,5.006609018e-13,6.762043066e-14,3.259955750e-13,5.169286432e-13,6.207233963e-13,1.275253584e-13,3.730018831e-13,8.405536188e-13,3.932930061e-13,6.554087334e-13,2.197483374e-13,1.492512056e-14
1.1875,4.139258167e-13,2.798361770e-13,2.349988938e-13,1.686776449e-13,5.892671210e-14,1.236892941e-13,1.547207033e-13,1.475106193e-14,4.299219656e-14,1.630808306e-13,5.414713258e-13,2.425805989e-13,1.289161227e-13,3.415638097e-13,4.778164302e-13,5.069122057e-13,6.668235042e-13,3.341890468e-13,2.156144509e-13,9.376521629e-13,5.016460027e-13,7.636706370e-14,3.379715738e-13,5.201600355e-13,6.329364013e-13,1.292278055e-13,3.609353247e-13,8.471031027e-13,3.730208096e-13,6.492884248e-13,2.139550841e-13,1.496871729e-14
1.1953,3.932194434e-13,2.699441326e-13,2.107199846e-13,1.561789500e-13,5.491846660e-14,1.133874618e-13,1.426960153e-13,1.352952717e-14,4.430931927e-14,1.623217414e-13,5.275571629e-13,2.489660694e-13,1.374731000e-13,3.609942329e-13,5.035573817e-13,5.228083278e-13,6.872457466e-13,3.512112124e-13,2.287232109e-13,9.111438228e-13,5.051586028e-13,8.703855553e-14,3.518047228e-13,5.293156999e-13,6.441679733e-13,1.304393943e-13,3.519981151e-13,8.623479801e-13,3.525287703e-13,6.447408494e-13,2.078922216e-13,1.490278884e-14
1.2031,3.773554898e-13,2.605543255e-13,1.898070002e-13,1.439755927e-13,5.114644216e-14,1.042157524e-13,1.327624104e-13,1.207296244e-14,4.538190098e-14,1.603982565e-13,5.131117461e-13,2.535652894e-13,1.459734304e-13,3.794648922e-13,5.288142205e-13,5.387992739e-13,7.047140908e-13,3.678053914e-13,2.433036312e-13,8.847317963e-13,5.113162465e-13,9.916563706e-14,3.670917021e-13,5.421118175e-13,6.544299152e-13,1.312858506e-13,3.446315652e-13,8.830995905e-13,3.324910578e-13,6.421448408e-13,2.016238762e-13,1.484532070e-14
1.2109,3.608982622e-13,2.478077557e-13,1.696882643e-13,1.324658972e-13,4.705042513e-14,9.583995410e-14,1.229396153e-13,1.130581881e-14,4.655930822e-14,1.583901055e-13,5.012087872e-13,2.585567358e-13,1.545026404e-13,3.961988350e-13,5.529687978e-13,5.542827969e-13,7.188126327e-13,3.838705007e-13,2.587446948e-13,8.647446559e-13,5.191126429e-13,1.110355150e-13,3.799949786e-13,5.554381370e-13,6.575051486e-13,1.301371602e-13,3.341662884e-13,8.964136504e-13,3.140274780e-13,6.335498916e-13,1.956273813e-13,1.493845723e-14
1.2188,3.498945876e-13,2.389390156e-13,1.523886099e-13,1.218372846e-13,4.378352130e-14,8.817364590e-14,1.143687395e-13,1.045746757e-14,4.750108008e-14,1.547660872e-13,4.896434381e-13,2.629634295e-13,1.638174673e-13,4.105644378e-13,5.771484744e-13,5.692019389e-13,7.309400841e-13,4.001481992e-13,2.768054606e-13,8.482090453e-13,5.294064238e-13,1.239749543e-13,3.950979608e-13,5.763500980e-13,6.641303297e-13,1.300080176e-13,3.286251381e-13,9.160479224e-13,3.005618990e-13,6.334913754e-13,1.902514135e-13,1.515137947e-14
1.2266,3.434099618e-13,2.318887728e-13,1.374614292e-13,1.124392477e-13,4.072692209e-14,8.139883514e-14,1.068531466e-13,9.816020997e-15,4.833486434e-14,1.503338700e-13,4.781885005e-13,2.667137979e-13,1.736907819e-13,4.224918945e-13,6.007976011e-13,5.834526802e-13,7.448382127e-13,4.172246641e-13,2.974245585e-13,8.355202282e-13,5.433714793e-13,1.374696652e-13,4.129704795e-13,6.036965271e-13,6.758773101e-13,1.308631985e-13,3.264300158e-13,9.391506229e-13,2.925542809e-13,6.395532372e-13,1.856833103e-13,1.552856957e-14
1.2344,3.362418097e-13,2.233617762e-13,1.238575008e-13,1.029613654e-13,3.776838248e-14,7.384454952e-14,9.910285532e-14,9.536787174e-15,4.879000716e-14,1.447663594e-13,4.673823028e-13,2.688450924e-13,1.825392235e-13,4.315388495e-13,6.198467676e-13,5.953749176e-13,7.531385587e-13,4.322195143e-13,3.198233373e-13,8.334822493e-13,5.575416752e-13,1.509795500e-13,4.313858443e-13,6.345953545e-13,6.864694289e-13,1.317073893e-13,3.261597257e-13,9.580824044e-13,2.902481931e-13,6.466964343e-13,1.817328904e-13,1.599851231e-14
1.2422,3.348063133e-13,2.170912241e-13,1.136419456e-13,9.394985774e-14,3.531199770e-14,6.655342124e-14,9.215921781e-14,9.314680421e-15,4.879810759e-14,1.382592107e-13,4.555438416e-13,2.685834269e-13,1.908765658e-13,4.387681089e-13,6.381506163e-13,6.054429145e-13,7.599523385e-13,4.460988318e-13,3.431839199e-13,8.358613090e-13,5.718600848e-13,1.642786978e-13,4.516998606e-13,6.713519959e-13,7.028787220e-13,1.337211168e-13,3.300173316e-13,9.794156536e-13,2.934225646e-13,6.633495086e-13,1.779451667e-13,1.646617455e-14
1.25,3.334258767e-13,2.091754267e-13,1.041686623e-13,8.539111179e-14,3.245708562e-14,5.913502980e-14,8.489673368e-14,9.621683135e-15,4.871674348e-14,1.326794972e-13,4.452952723e-13,2.676094839e-13,1.994550042e-13,4.457390951e-13,6.579037976e-13,6.142357852e-13,7.689021066e-13,4.606532106e-13,3.674802801e-13,8.441602071e-13,5.865860168e-13,1.767535924e-13,4.710917480e-13,7.103936809e-13,7.192335063e-13,1.351850695e-13,3.333594468e-13,9.948991775e-13,2.998161744e-13,6.805553793e-13,1.741738170e-13,1.693920989e-14
1.2578,3.325116125e-13,2.031897670e-13,9.689377077e-14,7.722413263e-14,3.031433878e-14,5.179535252e-14,7.812595266e-14,9.589476622e-15,4.796326055e-14,1.267342568e-13,4.356231606e-13,2.644093916e-13,2.085210669e-13,4.525798550e-13,6.780232486e-13,6.217758457e-13,7.779663206e-13,4.758046431e-13,3.957870948e-13,8.622380827e-13,6.037746596e-13,1.910376842e-13,4.941262784e-13,7.574350038e-13,7.405770753e-13,1.377518959e-13,3.418341454e-13,1.018072166e-12,3.095743661e-13,7.030658523e-13,1.703524580e-13,1.726976381e-14
1.2656,3.365647995e-13,1.992119181e-13,9.231290463e-14,6.997252922e-14,2.843006313e-14,4.582494533e-14,7.289754570e-14,9.503333950e-15,4.670765680e-14,1.212213765e-13,4.263251946e-13,2.594981009e-13,2.176472845e-13,4.596125629e-13,6.986798701e-13,6.278586230e-13,7.877564600e-13,4.911065684e-13,4.259619637e-13,8.841349625e-13,6.236988643e-13,2.061473734e-13,5.187860406e-13,8.082650475e-13,7.657211293e-13,1.406561007e-13,3.529505623e-13,1.048701367e-12,3.215227626e-13,7.326373449e-13,1.664152613e-13,1.748000945e-14
1.2734,3.414623699e-13,1.921730456e-13,8.815330187e-14,6.291766588e-14,2.616451287e-14,3.970283947e-14,6.765341549e-14,9.763425197e-15,4.511404701e-14,1.161246540e-13,4.175067025e-13,2.531235956e-13,2.249637835e-13,4.653617334e-13,7.141130428e-13,6.305950874e-13,7.909300411e-13,5.035998077e-13,4.550647853e-13,9.076653067e-13,6.432723768e-13,2.210154247e-13,5.396597806e-13,8.555228355e-13,7.830214557e-13,1.418227705e-13,3.626286448e-13,1.075667465e-12,3.346864967e-13,7.632568323e-13,1.623640356e-13,1.759507712e-14
1.2812,3.505132994e-13,1.884892903e-13,8.748782180e-14,5.729167457e-14,2.478404864e-14,3.492454741e-14,6.351734415e-14,9.614925496e-15,4.305088076e-14,1.106800091e-13,4.092135506e-13,2.454643615e-13,2.320338849e-13,4.696848688e-13,7.280344893e-13,6.314608150e-13,7.921410177e-13,5.150086261e-13,4.845672604e-13,9.318692741e-13,6.649245769e-13,2.369280142e-13,5.608225010e-13,9.068024510e-13,8.012531539e-13,1.433706484e-13,3.763546349e-13,1.113375161e-12,3.504169754e-13,8.028716465e-13,1.581995816e-13,1.757130652e-14
1.2891,3.608738843e-13,1.850943321e-13,8.808303638e-14,5.258398228e-14,2.332530904e-14,3.091096709e-14,5.974695990e-14,9.443790510e-15,4.097540872e-14,1.059121519e-13,4.028501426e-13,2.384079753e-13,2.392541237e-13,4.719673126e-13,7.404392750e-13,6.299243050e-13,7.916592084e-13,5.253650910e-13,5.139122451e-13,9.563487790e-13,6.887622186e-13,2.528234459e-13,5.801678994e-13,9.593593068e-13,8.167922675e-13,1.440541544e-13,3.905786038e-13,1.157145583e-12,3.689745348e-13,8.492464047e-13,1.542703422e-13,1.756396830e-14
1.2969,3.724539352e-13,1.811831729e-13,9.005322895e-14,4.829961218e-14,2.200490817e-14,2.715836884e-14,5.664608670e-14,9.107002648e-15,3.854260588e-14,1.007947104e-13,3.953659743e-13,2.299555124e-13,2.448952571e-13,4.689113201e-13,7.431183848e-13,6.233522327e-13,7.834054394e-13,5.323157991e-13,5.444553125e-13,9.848594880e-13,7.150358789e-13,2.697446669e-13,6.002678316e-13,1.013571150e-12,8.309485827e-13,1.444917011e-13,4.078040739e-13,1.208911354e-12,3.914568191e-13,9.051166148e-13,1.507803893e-13,1.760959385e-14
1.3047,3.920468197e-13,1.802090309e-13,9.480947499e-14,4.526991338e-14,2.118726466e-14,2.480297374e-14,5.496434709e-14,8.731561091e-15,3.596011048e-14,9.563065895e-14,3.864196960e-13,2.210406699e-13,2.491762846e-13,4.615293480e-13,7.393325579e-13,6.135815223e-13,7.711304380e-13,5.368501710e-13,5.729732427e-13,1.010089813e-12,7.411058770e-13,2.856237385e-13,6.191515769e-13,1.064509516e-12,8.448801097e-13,1.451707252e-13,4.280960599e-13,1.266600919e-12,4.190671472e-13,9.758961618e-13,1.478037192e-13,1.777190781e-14
1.3125,4.185041942e-13,1.783645961e-13,1.001364845e-13,4.282118299e-14,2.029999027e-14,2.253881387e-14,5.310179934e-14,8.688760867e-15,3.350362241e-14,9.076561331e-14,3.763478617e-13,2.122904416e-13,2.511352633e-13,4.508862651e-13,7.279398497e-13,6.001073256e-13,7.512077189e-13,5.372585254e-13,5.964482248e-13,1.030450412e-12,7.636360198e-13,2.984264710e-13,6.329159749e-13,1.107438578e-12,8.534184582e-13,1.450436026e-13,4.488195162e-13,1.321286926e-12,4.527828052e-13,1.060843041e-12,1.457034684e-13,1.813119291e-14
1.3203,4.468002618e-13,1.789421727e-13,1.079038680e-13,4.144685389e-14,2.001884206e-14,2.116523092e-14,5.254715580e-14,8.357785508e-15,3.097338816e-14,8.617510031e-14,3.656849639e-13,2.036076668e-13,2.526641785e-13,4.376594814e-13,7.123754664e-13,5.833004725e-13,7.295660770e-13,5.359861687e-13,6.196129200e-13,1.056671058e-12,7.870764691e-13,3.104702627e-13,6.487797435e-13,1.155234410e-12,8.684011153e-13,1.463309199e-13,4.752147457e-13,1.386259769e-12,4.937668003e-13,1.160286530e-12,1.445541723e-13,1.862279842e-14
1.3281,4.810921673e-13,1.816611485e-13,1.154223987e-13,4.034320122e-14,1.975352802e-14,1.989188048e-14,5.253140271e-14,8.110339725e-15,2.874882993e-14,8.269298181e-14,3.556781091e-13,1.965494137e-13,2.541362875e-13,4.237626861e-13,6.959811143e-13,5.654221190e-13,7.088111875e-13,5.343343476e-13,6.411663199e-13,1.085569206e-12,8.098301624e-13,3.206332310e-13,6.644326169e-13,1.203702509e-12,8.874416556e-13,1.484692010e-13,5.066804186e-13,1.459687406e-12,5.432770644e-13,1.279105559e-12,1.445344153e-13,1.930974038e-14
1.3359,5.250653541e-13,1.851909774e-13,1.221714438e-13,3.900417217e-14,1.950127889e-14,1.836265508e-14,5.255280765e-14,8.094549930e-15,2.662585944e-14,8.007007000e-14,3.456855237e-13,1.897185861e-13,2.540515849e-13,4.097961287e-13,6.751586834e-13,5.461968285e-13,6.841373801e-13,5.303740908e-13,6.605510788e-13,1.115427549e-12,8.309628399e-13,3.292136274e-13,6.797441570e-13,1.249009129e-12,9.105966468e-13,1.512986242e-13,5.439309660e-13,1.540260437e-12,6.009590845e-13,1.421973099e-12,1.457802277e-13,2.019102499e-14
1.3438,5.734769888e-13,1.914529623e-13,1.317754980e-13,3.846642841e-14,1.992818236e-14,1.762154450e-14,5.372844991e-14,8.035583477e-15,2.470724725e-14,7.839279759e-14,3.361138775e-13,1.843128693e-13,2.540052278e-13,3.971448633e-13,6.555619940e-13,5.261129736e-13,6.598140289e-13,5.250337857e-13,6.764738205e-13,1.142488030e-12,8.499357609e-13,3.359057924e-13,6.937845907e-13,1.291051396e-12,9.364519105e-13,1.552372133e-13,5.850402221e-13,1.625892867e-12,6.645127512e-13,1.579931085e-12,1.480625061e-13,2.119027237e-14
1.3516,6.274563034e-13,1.976598340e-13,1.422886728e-13,3.805254804e-14,2.056640321e-14,1.685381559e-14,5.516359521e-14,8.194682243e-15,2.310115234e-14,7.757286829e-14,3.255327477e-13,1.801406818e-13,2.528771962e-13,3.851051608e-13,6.343024365e-13,5.043758957e-13,6.320363538e-13,5.169062008e-13,6.873510968e-13,1.162730321e-12,8.651828309e-13,3.401885332e-13,7.042360315e-13,1.326571478e-12,9.593154476e-13,1.594776223e-13,6.283750927e-13,1.713502160e-12,7.340709985e-13,1.753414742e-12,1.515989273e-13,2.231466604e-14
1.3594,6.825202364e-13,2.046810568e-13,1.535517538e-13,3.783969498e-14,2.148137854e-14,1.669672067e-14,5.762086000e-14,8.227858690e-15,2.158407423e-14,7.815929917e-14,3.162865240e-13,1.770162723e-13,2.517360886e-13,3.740638425e-13,6.121671405e-13,4.814890281e-13,6.039393981e-13,5.079583493e-13,6.980613447e-13,1.183199973e-12,8.811046471e-13,3.446166651e-13,7.168557771e-13,1.362881775e-12,9.892186255e-13,1.648950381e-13,6.765914250e-13,1.813405193e-12,8.087887256e-13,1.941781148e-12,1.564595997e-13,2.347152702e-14
1.3672,7.444721908e-13,2.144814847e-13,1.646006070e-13,3.804719952e-14,2.280047363e-14,1.659130880e-14,6.038465420e-14,8.217477400e-15,2.044476936e-14,7.970142973e-14,3.073685381e-13,1.759975101e-13,2.502375791e-13,3.645890912e-13,5.906135857e-13,4.586000789e-13,5.749637556e-13,4.972093043e-13,7.037336209e-13,1.193725536e-12,8.933581076e-13,3.467193485e-13,7.253426315e-13,1.389737104e-12,1.016492581e-12,1.704461191e-13,7.268335362e-13,1.918271464e-12,8.874988978e-13,2.146166572e-12,1.624589694e-13,2.459918230e-14
1.375,8.150129020e-13,2.253955269e-13,1.751263026e-13,3.827713261e-14,2.437001263e-14,1.649244074e-14,6.375574800e-14,8.442531707e-15,1.954936272e-14,8.158866717e-14,2.959791857e-13,1.758526504e-13,2.468597735e-13,3.558471557e-13,5.652391277e-13,4.362216500e-13,5.415134406e-13,4.832784486e-13,7.033333661e-13,1.192670039e-12,9.005169313e-13,3.464822073e-13,7.289962522e-13,1.404452479e-12,1.037087901e-12,1.758766873e-13,7.788207633e-13,2.022537298e-12,9.706477734e-13,2.366892332e-12,1.698194373e-13,2.577953946e-14
1.3828,8.780322047e-13,2.359151452e-13,1.884822081e-13,3.890201390e-14,2.623380946e-14,1.747984587e-14,6.889902829e-14,8.616609865e-15,1.901458646e-14,8.478650673e-14,2.862245367e-13,1.787543161e-13,2.443961095e-13,3.496841579e-13,5.438348013e-13,4.164513972e-13,5.104339227e-13,4.689373861e-13,6.997757058e-13,1.185584163e-12,9.049709455e-13,3.450972788e-13,7.310137196e-13,1.415284922e-12,1.056058137e-12,1.817121478e-13,8.304856929e-13,2.125855993e-12,1.057233411e-12,2.585885329e-12,1.785810511e-13,2.699377015e-14
1.3906,9.465405615e-13,2.481178260e-13,2.013666529e-13,4.002097934e-14,2.850529543e-14,1.864639820e-14,7.387726759e-14,8.810069788e-15,1.886843075e-14,8.839361357e-14,2.758358039e-13,1.836934652e-13,2.411134128e-13,3.446978703e-13,5.217511958e-13,3.977063954e-13,4.766848303e-13,4.518564350e-13,6.900489234e-13,1.166950108e-12,9.037104313e-13,3.408331774e-13,7.281064821e-13,1.416493210e-12,1.069757377e-12,1.875157872e-13,8.828481144e-13,2.226887758e-12,1.147799770e-12,2.814823144e-12,1.884227638e-13,2.814167569e-14
1.3984,1.020417724e-12,2.627069933e-13,2.127139389e-13,4.157807585e-14,3.112320680e-14,1.994341810e-14,7.910136338e-14,9.007084437e-15,1.893956184e-14,9.263304574e-14,2.653241885e-13,1.901541556e-13,2.377413882e-13,3.406660542e-13,4.973753092e-13,3.800046685e-13,4.426584114e-13,4.346405547e-13,6.787517512e-13,1.144406452e-12,8.993014475e-13,3.361370690e-13,7.249572082e-13,1.412125313e-12,1.085373484e-12,1.941083351e-13,9.391222449e-13,2.328774481e-12,1.241270286e-12,3.055431074e-12,1.990563269e-13,2.929336085e-14
1.4062,1.091726756e-12,2.779992141e-13,2.245848584e-13,4.323240237e-14,3.393524118e-14,2.135120749e-14,8.506305415e-14,9.199513983e-15,1.957417095e-14,9.747910015e-14,2.558607734e-13,2.007191762e-13,2.361658443e-13,3.395919765e-13,4.771359541e-13,3.655461096e-13,4.106861961e-13,4.183778081e-13,6.641369702e-13,1.113513740e-12,8.902919307e-13,3.305245696e-13,7.189197147e-13,1.398469566e-12,1.096332164e-12,2.009120273e-13,9.941754180e-13,2.422967469e-12,1.335819213e-12,3.292223822e-12,2.103184603e-13,3.050882591e-14
1.4141,1.166626562e-12,2.938470799e-13,2.344729936e-13,4.470013978e-14,3.695319999e-14,2.291614624e-14,9.096120511e-14,9.508194410e-15,2.059846222e-14,1.024616605e-13,2.454774450e-13,2.135986790e-13,2.346728269e-13,3.402705355e-13,4.566094305e-13,3.531212554e-13,3.770129680e-13,4.011888963e-13,6.455271964e-13,1.074168665e-12,8.772709459e-13,3.234748907e-13,7.096016507e-13,1.375482203e-12,1.102044270e-12,2.076243989e-13,1.047974814e-12,2.508785554e-12,1.430153372e-12,3.529809877e-12,2.219550877e-13,3.168160291e-14
1.4219,1.232668072e-12,3.084228154e-13,2.439843158e-13,4.643354950e-14,4.018389485e-14,2.502352740e-14,9.714558473e-14,9.739915333e-15,2.188225403e-14,1.088412039e-13,2.377719308e-13,2.288841689e-13,2.344909108e-13,3.432911760e-13,4.391874049e-13,3.428332165e-13,3.468919370e-13,3.854744575e-13,6.269742119e-13,1.035636925e-12,8.623097405e-13,3.163052366e-13,6.999027599e-13,1.351558193e-12,1.109860635e-12,2.142144009e-13,1.099151191e-12,2.584747013e-12,1.519313229e-12,3.753403079e-12,2.335620338e-13,3.276909260e-14
1.4297,1.303853501e-12,3.255311413e-13,2.517455679e-13,4.856579698e-14,4.399668440e-14,2.655467473e-14,1.022956792e-13,9.817723390e-15,2.350177473e-14,1.153381114e-13,2.300862713e-13,2.459091908e-13,2.349677423e-13,3.487477953e-13,4.236572461e-13,3.350326968e-13,3.171403945e-13,3.702397058e-13,6.056666077e-13,9.913035521e-13,8.428869664e-13,3.081074151e-13,6.872819252e-13,1.320874803e-12,1.114234742e-12,2.206425103e-13,1.148493344e-12,2.653191487e-12,1.602310032e-12,3.972177107e-12,2.448002674e-13,3.373377088e-14
1.4375,1.379771883e-12,3.446758950e-13,2.566631744e-13,5.076948518e-14,4.810543641e-14,2.777509572e-14,1.061542876e-13,9.843203886e-15,2.538389437e-14,1.223598462e-13,2.227876773e-13,2.638105276e-13,2.363067706e-13,3.565433503e-13,4.094743661e-13,3.296843484e-13,2.891889529e-13,3.566419412e-13,5.844862343e-13,9.464844952e-13,8.227922560e-13,3.000960550e-13,6.752214320e-13,1.287800248e-12,1.118608386e-12,2.272505333e-13,1.197194512e-12,2.718406336e-12,1.677627174e-12,4.185824622e-12,2.554770608e-13,3.456834491e-14
1.4453,1.437753298e-12,3.588171796e-13,2.632086307e-13,5.273981142e-14,5.179222617e-14,2.937411865e-14,1.102317046e-13,9.935523864e-15,2.759419511e-14,1.310013537e-13,2.178393209e-13,2.839254655e-13,2.391242460e-13,3.673684128e-13,4.012983618e-13,3.267920354e-13,2.654740922e-13,3.443048822e-13,5.616056261e-13,8.998367155e-13,7.987217787e-13,2.909687713e-13,6.601834964e-13,1.250422411e-12,1.117230523e-12,2.322829552e-13,1.235979001e-12,2.759334631e-12,1.740328783e-12,4.361718386e-12,2.655157394e-13,3.530006913e-14
1.4531,1.493713703e-12,3.729290294e-13,2.699589113e-13,5.500507314e-14,5.584823803e-14,3.088426863e-14,1.139767184e-13,1.005122113e-14,2.984501261e-14,1.398280300e-13,2.117569994e-13,3.036042514e-13,2.412997897e-13,3.802224162e-13,3.937974466e-13,3.255470103e-13,2.422585250e-13,3.318036647e-13,5.355178329e-13,8.491810995e-13,7.692312270e-13,2.801896444e-13,6.415227877e-13,1.206421307e-12,1.108328558e-12,2.362380235e-13,1.267793873e-12,2.782488404e-12,1.791992330e-12,4.517415649e-12,2.747175889e-13,3.583733202e-14
1.4609,1.543344500e-12,3.865490541e-13,2.769549979e-13,5.793139218e-14,6.029387602e-14,3.302118021e-14,1.171808054e-13,1.018132530e-14,3.204833156e-14,1.491207407e-13,2.068991516e-13,3.223620928e-13,2.438076012e-13,3.957290923e-13,3.890362113e-13,3.266176900e-13,2.225168565e-13,3.213068239e-13,5.102848220e-13,8.024561414e-13,7.390216476e-13,2.694638749e-13,6.231873657e-13,1.162316785e-12,1.097298983e-12,2.397182442e-13,1.294007493e-12,2.796916842e-12,1.833198362e-12,4.653117088e-12,2.829473596e-13,3.626043485e-14
1.4688,1.583712835e-12,3.975381696e-13,2.839800491e-13,6.057797246e-14,6.429265613e-14,3.521528527e-14,1.200004576e-13,1.036434208e-14,3.438455680e-14,1.581314745e-13,2.023906610e-13,3.414367506e-13,2.474330666e-13,4.134630375e-13,3.884286205e-13,3.293271240e-13,2.049390437e-13,3.118120387e-13,4.836354125e-13,7.540180620e-13,7.050806566e-13,2.580141064e-13,6.021301901e-13,1.112409172e-12,1.078514557e-12,2.420006921e-13,1.311567506e-12,2.790796708e-12,1.863176811e-12,4.759363215e-12,2.902060203e-13,3.659306184e-14
1.4766,1.617456407e-12,4.076351656e-13,2.909855435e-13,6.284974923e-14,6.802278541e-14,3.714181310e-14,1.225839715e-13,1.061755579e-14,3.672362864e-14,1.671424615e-13,1.982132685e-13,3.599421176e-13,2.513190601e-13,4.320813173e-13,3.892160538e-13,3.326373120e-13,1.891418970e-13,3.035371408e-13,4.570836922e-13,7.058453199e-13,6.682840565e-13,2.462167555e-13,5.790751112e-13,1.059316779e-12,1.054082349e-12,2.433786637e-13,1.321590187e-12,2.765906942e-12,1.881796729e-12,4.839536079e-12,2.962974849e-13,3.669362978e-14
1.4844,1.626625821e-12,4.111865693e-13,2.996254947e-13,6.492395161e-14,7.115175352e-14,3.991199536e-14,1.254565883e-13,1.112747735e-14,3.906626946e-14,1.770300571e-13,1.972622518e-13,3.786486531e-13,2.559284245e-13,4.518680916e-13,3.944263434e-13,3.376481450e-13,1.775284252e-13,2.978090661e-13,4.316863364e-13,6.589934076e-13,6.298873869e-13,2.342911609e-13,5.530471607e-13,1.004255119e-12,1.021639254e-12,2.427506460e-13,1.318219908e-12,2.714353068e-12,1.886746407e-12,4.870669359e-12,3.011265389e-13,3.667685492e-14
1.4922,1.635168165e-12,4.156221926e-13,3.046415234e-13,6.679637231e-14,7.420772582e-14,4.217183442e-14,1.261679723e-13,1.152805597e-14,4.123529193e-14,1.848713316e-13,1.954061687e-13,3.954267440e-13,2.603541696e-13,4.706230557e-13,3.991966550e-13,3.432435437e-13,1.670869258e-13,2.936131105e-13,4.070329753e-13,6.118940136e-13,5.915306532e-13,2.229871388e-13,5.268308690e-13,9.485243737e-13,9.860413818e-13,2.417461586e-13,1.310324233e-12,2.652360119e-12,1.880455379e-12,4.878449914e-12,3.045449148e-13,3.648454287e-14
1.5,1.640617216e-12,4.209811989e-13,3.071139240e-13,6.865534874e-14,7.719724210e-14,4.331405445e-14,1.246057791e-13,1.167270293e-14,4.316290192e-14,1.909748327e-13,1.930076885e-13,4.095983114e-13,2.642482713e-13,4.874331182e-13,4.023967374e-13,3.481131951e-13,1.575103073e-13,2.906063902e-13,3.845313750e-13,5.688360235e-13,5.547760419e-13,2.127573115e-13,5.025817083e-13,8.962727051e-13,9.515384002e-13,2.404739874e-13,1.299519323e-12,2.585024610e-12,1.861692896e-12,4.862707021e-12,3.061785758e-13,3.595892871e-14
1.5078,1.623102231e-12,4.196946082e-13,3.076645726e-13,7.005969285e-14,7.902155023e-14,4.357891988e-14,1.220118514e-13,1.179445069e-14,4.520285830e-14,1.964809116e-13,1.923037308e-13,4.239912392e-13,2.695504624e-13,5.036789114e-13,4.084285927e-13,3.530345757e-13,1.505130996e-13,2.899895698e-13,3.639535288e-13,5.269159049e-13,5.177306373e-13,2.034195208e-13,4.773174634e-13,8.427105061e-13,9.108890034e-13,2.372615363e-13,1.278813061e-12,2.495459211e-12,1.827503619e-12,4.794524727e-12,3.059616158e-13,3.522697899e-14
1.5156,1.602598793e-12,4.195895758e-13,3.044552395e-13,7.160378518e-14,8.096760619e-14,4.332507287e-14,1.173552417e-13,1.174640288e-14,4.698622779e-14,2.003601474e-13,1.910956067e-13,4.353522790e-13,2.740378883e-13,5.177141496e-13,4.129608347e-13,3.575495321e-13,1.441982558e-13,2.903235960e-13,3.453076041e-13,4.877779722e-13,4.833707200e-13,1.952405386e-13,4.538094844e-13,7.931027940e-13,8.711342280e-13,2.338380693e-13,1.254986568e-12,2.399835363e-12,1.780521540e-12,4.698021909e-12,3.039160935e-13,3.430594419e-14
1.5234,1.569085300e-12,4.176692762e-13,3.031195821e-13,7.343861098e-14,8.301192427e-14,4.335396190e-14,1.123061040e-13,1.168487281e-14,4.825256360e-14,2.033580701e-13,1.899746134e-13,4.427213860e-13,2.763690834e-13,5.293251957e-13,4.162386984e-13,3.617292036e-13,1.387152060e-13,2.905094152e-13,3.271357942e-13,4.524148762e-13,4.506370070e-13,1.868852065e-13,4.305809172e-13,7.473025367e-13,8.307364714e-13,2.292889450e-13,1.224109994e-12,2.292753833e-12,1.720562703e-12,4.565515022e-12,2.999536046e-13,3.318558328e-14
1.5312,1.528730606e-12,4.148378902e-13,3.017555001e-13,7.515595327e-14,8.460681150e-14,4.243401737e-14,1.061762143e-13,1.136612989e-14,4.917743663e-14,2.041525439e-13,1.878000107e-13,4.472407459e-13,2.781614458e-13,5.389022509e-13,4.186767750e-13,3.652875230e-13,1.345169143e-13,2.922435066e-13,3.104987319e-13,4.201414999e-13,4.191384848e-13,1.791055568e-13,4.084342974e-13,7.033533126e-13,7.904686163e-13,2.243902266e-13,1.190206153e-12,2.177411244e-12,1.651269634e-12,4.407147398e-12,2.943598176e-13,3.192447664e-14
1.5391,1.486975682e-12,4.129331229e-13,2.998364594e-13,7.717175763e-14,8.639722186e-14,4.160716456e-14,9.896119972e-14,1.096785968e-14,4.960339016e-14,2.037432250e-13,1.851217604e-13,4.474658108e-13,2.779787390e-13,5.458466499e-13,4.192022896e-13,3.675270500e-13,1.299845788e-13,2.939090870e-13,2.950718958e-13,3.921045606e-13,3.900549485e-13,1.715372730e-13,3.879386185e-13,6.645921610e-13,7.530231043e-13,2.196599078e-13,1.154657104e-12,2.059181111e-12,1.575636226e-12,4.234905891e-12,2.876370351e-13,3.055049723e-14
1.5469,1.425946229e-12,4.046570228e-13,3.006260177e-13,7.908274716e-14,8.742369511e-14,4.185069485e-14,9.301247323e-14,1.094199347e-14,4.975467801e-14,2.040603009e-13,1.845395291e-13,4.458583581e-13,2.770861568e-13,5.514847932e-13,4.216997272e-13,3.696648906e-13,1.269934031e-13,2.961031802e-13,2.798924510e-13,3.657838740e-13,3.602984958e-13,1.631776193e-13,3.653593852e-13,6.260198083e-13,7.102252380e-13,2.130034988e-13,1.109775782e-12,1.924345497e-12,1.493248823e-12,4.029525793e-12,2.798964711e-13,2.914392963e-14
1.5547,1.367236094e-12,3.980057879e-13,3.029213537e-13,8.116248332e-14,8.846005608e-14,4.248933085e-14,8.715324182e-14,1.077570775e-14,4.947590682e-14,2.028182781e-13,1.829032483e-13,4.406476025e-13,2.744644886e-13,5.540007771e-13,4.216840398e-13,3.703648894e-13,1.239959952e-13,2.984143848e-13,2.656352421e-13,3.419290849e-13,3.320103853e-13,1.550881781e-13,3.437427067e-13,5.890264275e-13,6.692202101e-13,2.065141258e-13,1.064083291e-12,1.793551513e-12,1.409670906e-12,3.821782378e-12,2.711567808e-13,2.774453585e-14
1.5625,1.306271576e-12,3.906371736e-13,3.070017401e-13,8.309129726e-14,8.935581583e-14,4.411251902e-14,8.205299439e-14,1.076577596e-14,4.868384526e-14,2.009190190e-13,1.808102979e-13,4.313269532e-13,2.687753748e-13,5.523685162e-13,4.185901976e-13,3.685330576e-13,1.202397218e-13,2.992838781e-13,2.511622410e-13,3.209839644e-13,3.050899385e-13,1.466520441e-13,3.225969201e-13,5.541747139e-13,6.296234993e-13,1.999765313e-13,1.016332996e-12,1.664500856e-12,1.326343301e-12,3.612033649e-12,2.617798832e-13,2.637076928e-14
1.5703,1.236254306e-12,3.780786934e-13,3.106064400e-13,8.403638743e-14,8.875273743e-14,4.515674759e-14,7.753972509e-14,1.094457876e-14,4.789728430e-14,1.986030226e-13,1.799285667e-13,4.212932587e-13,2.635783248e-13,5.478637818e-13,4.165119971e-13,3.654618357e-13,1.189309866e-13,3.020439622e-13,2.388451820e-13,3.029859349e-13,2.786800858e-13,1.390025576e-13,3.021496274e-13,5.200907792e-13,5.890849592e-13,1.929208980e-13,9.670437294e-13,1.532544929e-12,1.243416567e-12,3.394225788e-12,2.519912847e-13,2.502743395e-14
1.5781,1.169405863e-12,3.662028738e-13,3.144384508e-13,8.514177439e-14,8.807125909e-14,4.610532803e-14,7.312653697e-14,1.114386101e-14,4.687244904e-14,1.955072903e-13,1.791806629e-13,4.084879980e-13,2.570444951e-13,5.391942783e-13,4.123875069e-13,3.606473619e-13,1.172222565e-13,3.043305653e-13,2.277661425e-13,2.867556414e-13,2.548218726e-13,1.320896607e-13,2.833434663e-13,4.865417651e-13,5.514932228e-13,1.861774362e-13,9.188626752e-13,1.409012983e-12,1.162569966e-12,3.183392616e-12,2.418130044e-13,2.372995575e-14
1.5859,1.094682170e-12,3.505045945e-13,3.183286678e-13,8.605284648e-14,8.685898827e-14,4.744145510e-14,6.979105903e-14,1.168139798e-14,4.562258090e-14,1.928902148e-13,1.799616679e-13,3.939681514e-13,2.490589337e-13,5.268261329e-13,4.074361474e-13,3.538371316e-13,1.154358613e-13,3.057256959e-13,2.170847014e-13,2.715289644e-13,2.327448321e-13,1.252542706e-13,2.644813404e-13,4.527430574e-13,5.134428872e-13,1.785495582e-13,8.678114417e-13,1.285693243e-12,1.081970719e-12,2.965667363e-12,2.313947289e-13,2.247585492e-14
1.5938,1.023536489e-12,3.343074710e-13,3.198890293e-13,8.621556602e-14,8.486549065e-14,4.733918952e-14,6.613481138e-14,1.198390361e-14,4.422887138e-14,1.885881589e-13,1.803442882e-13,3.776206445e-13,2.403186397e-13,5.104613303e-13,4.004378487e-13,3.444996564e-13,1.145694267e-13,3.079475330e-13,2.083303160e-13,2.589492144e-13,2.130774333e-13,1.197070328e-13,2.480583387e-13,4.241605192e-13,4.794700158e-13,1.716498540e-13,8.213171645e-13,1.172266346e-12,1.003399633e-12,2.755776611e-12,2.209579072e-13,2.119386797e-14
1.6016,9.550792655e-13,3.184191989e-13,3.206958235e-13,8.628903225e-14,8.286901068e-14,4.687051209e-14,6.270933584e-14,1.238712674e-14,4.250450323e-14,1.835419757e-13,1.804184930e-13,3.587569978e-13,2.296191320e-13,4.907030977e-13,3.910612737e-13,3.329804644e-13,1.125734686e-13,3.083475782e-13,1.993266712e-13,2.467172917e-13,1.955459213e-13,1.142083032e-13,2.326923256e-13,3.982190925e-13,4.479270884e-13,1.654047465e-13,7.773702120e-13,1.067271165e-12,9.270958742e-13,2.553086259e-12,2.105948133e-13,1.991718027e-14
1.6094,8.796167022e-13,2.984321200e-13,3.191344878e-13,8.569582459e-14,7.997693486e-14,4.588213343e-14,5.977019259e-14,1.311224863e-14,4.072917222e-14,1.788112137e-13,1.818024524e-13,3.400287405e-13,2.196641382e-13,4.702919763e-13,3.832966869e-13,3.210344832e-13,1.116775774e-13,3.092260079e-13,1.919346588e-13,2.357222860e-13,1.798860113e-13,1.093357344e-13,2.181393770e-13,3.731048065e-13,4.163776703e-13,1.586252055e-13,7.333199768e-13,9.629241316e-13,8.510504633e-13,2.345181245e-12,1.999731857e-13,1.870613908e-14
1.6172,8.111703451e-13,2.808903817e-13,3.180676066e-13,8.500464555e-14,7.724244138e-14,4.488937463e-14,5.731468880e-14,1.358310526e-14,3.873819546e-14,1.731658973e-13,1.827085451e-13,3.191351894e-13,2.085004553e-13,4.480014808e-13,3.739582014e-13,3.077372593e-13,1.100311296e-13,3.093808624e-13,1.852289215e-13,2.254835202e-13,1.660582996e-13,1.052191644e-13,2.049472429e-13,3.505948486e-13,3.873740556e-13,1.521793541e-13,6.924285613e-13,8.668753895e-13,7.771831375e-13,2.147312154e-12,1.890307242e-13,1.760544487e-14
1.625,7.449899857e-13,2.638913849e-13,3.183412030e-13,8.460447401e-14,7.474449367e-14,4.462451758e-14,5.616561452e-14,1.408960465e-14,3.659866258e-14,1.679062799e-13,1.838232602e-13,2.970986474e-13,1.960711977e-13,4.246112714e-13,3.637951048e-13,2.931754147e-13,1.075938795e-13,3.083669600e-13,1.783028728e-13,2.150913324e-13,1.531937431e-13,1.010997644e-13,1.918933445e-13,3.282792778e-13,3.580898750e-13,1.460444818e-13,6.534047498e-13,7.770028876e-13,7.073732639e-13,1.957904472e-12,1.784039245e-13,1.664902731e-14
1.6328,6.813517090e-13,2.458821252e-13,3.170700587e-13,8.374861807e-14,7.168859391e-14,4.385415502e-14,5.534215952e-14,1.446234103e-14,3.452859724e-14,1.622409778e-13,1.847445513e-13,2.756514341e-13,1.844291051e-13,4.014851825e-13,3.541301106e-13,2.784296628e-13,1.068537845e-13,3.090578288e-13,1.734979631e-13,2.073702486e-13,1.418528770e-13,9.815420333e-14,1.807936694e-13,3.092794369e-13,3.315685902e-13,1.406348215e-13,6.194521285e-13,6.959591016e-13,6.426293741e-13,1.781643742e-12,1.682439243e-13,1.578686675e-14
1.6406,6.236461877e-13,2.295349979e-13,3.175491303e-13,8.317908845e-14,6.930390060e-14,4.411420839e-14,5.577798965e-14,1.480927099e-14,3.237419361e-14,1.565068189e-13,1.856118191e-13,2.535881650e-13,1.715182624e-13,3.777024304e-13,3.432232028e-13,2.632286323e-13,1.047156910e-13,3.077764876e-13,1.677129634e-13,1.990074817e-13,1.309871247e-13,9.493916154e-14,1.699573910e-13,2.913710573e-13,3.074269716e-13,1.355338730e-13,5.888387198e-13,6.231143065e-13,5.839723343e-13,1.620869851e-12,1.584667782e-13,1.504101237e-14
1.6484,5.673374033e-13,2.120779242e-13,3.184125128e-13,8.284908156e-14,6.713139527e-14,4.533971441e-14,5.760809763e-14,1.529566125e-14,3.037505827e-14,1.513156678e-13,1.875533527e-13,2.328396431e-13,1.589104973e-13,3.540658712e-13,3.329639935e-13,2.477797216e-13,1.029852546e-13,3.060500022e-13,1.621106440e-13,1.910402505e-13,1.212515875e-13,9.169842877e-14,1.596956203e-13,2.738471832e-13,2.852575989e-13,1.308656238e-13,5.615403295e-13,5.577679143e-13,5.336174639e-13,1.474572691e-12,1.496646312e-13,1.443442882e-14
1.6562,5.199054741e-13,1.967437912e-13,3.201725050e-13,8.257174652e-14,6.489962550e-14,4.685672978e-14,5.994083099e-14,1.537171762e-14,2.854239799e-14,1.452083128e-13,1.893466205e-13,2.127019686e-13,1.464047894e-13,3.296904835e-13,3.212374721e-13,2.311299201e-13,1.020053737e-13,3.051544688e-13,1.576079258e-13,1.846998944e-13,1.129711071e-13,8.942111782e-14,1.507818897e-13,2.594979622e-13,2.671991633e-13,1.272511047e-13,5.390079932e-13,5.041710000e-13,4.927305144e-13,1.352072235e-12,1.422513663e-13,1.394302747e-14
1.6641,4.776021664e-13,1.827597184e-13,3.225658435e-13,8.292105728e-14,6.314817165e-14,4.952040150e-14,6.357175766e-14,1.557442094e-14,2.681524125e-14,1.393277793e-13,1.912284224e-13,1.931617378e-13,1.335933888e-13,3.047666411e-13,3.079288721e-13,2.136653537e-13,1.004726465e-13,3.032512946e-13,1.527913411e-13,1.783956563e-13,1.054148849e-13,8.707871763e-14,1.418594427e-13,2.463388827e-13,2.506363382e-13,1.240004266e-13,5.184750051e-13,4.578280982e-13,4.596359458e-13,1.246739310e-12,1.360788943e-13,1.359331197e-14
1.6719,4.364888333e-13,1.672602996e-13,3.217010353e-13,8.337599387e-14,6.132425909e-14,5.257986307e-14,6.786647546e-14,1.608227215e-14,2.528212479e-14,1.333001748e-13,1.925138202e-13,1.752229275e-13,1.220731111e-13,2.802024292e-13,2.944807575e-13,1.965935916e-13,1.012359157e-13,3.026614618e-13,1.495433105e-13,1.751064683e-13,9.980649134e-14,8.520466902e-14,1.344002523e-13,2.368636677e-13,2.366278330e-13,1.214553809e-13,5.015110054e-13,4.180076995e-13,4.328872650e-13,1.155258408e-12,1.308121532e-13,1.337220609e-14
1.6797,4.001178612e-13,1.530172172e-13,3.210048989e-13,8.414942811e-14,5.984472649e-14,5.646535236e-14,7.305458593e-14,1.652351805e-14,2.386307979e-14,1.269885563e-13,1.936515037e-13,1.576199958e-13,1.102237975e-13,2.549907249e-13,2.796974809e-13,1.790075011e-13,1.021130733e-13,3.010123440e-13,1.455978386e-13,1.717603388e-13,9.479448744e-14,8.305732932e-14,1.265584584e-13,2.286181376e-13,2.232043079e-13,1.188322283e-13,4.847874461e-13,3.821428111e-13,4.105215191e-13,1.073665098e-12,1.261833981e-13,1.327287549e-14
1.6875,3.663296470e-13,1.385427347e-13,3.190126816e-13,8.542488452e-14,5.855014869e-14,6.099351300e-14,7.912710299e-14,1.715728466e-14,2.260922547e-14,1.211335396e-13,1.950138381e-13,1.413841423e-13,9.893734578e-14,2.307408225e-13,2.652335848e-13,1.617181991e-13,1.038253427e-13,2.988606128e-13,1.417863002e-13,1.691517390e-13,9.083979575e-14,8.071433544e-14,1.186969020e-13,2.218952481e-13,2.098179225e-13,1.158203691e-13,4.677638657e-13,3.491658089e-13,3.916910758e-13,9.992067486e-13,1.222446014e-13,1.326851093e-14
1.6953,3.375900949e-13,1.250086201e-13,3.146437345e-13,8.671804590e-14,5.690397091e-14,6.535844366e-14,8.481418131e-14,1.766184624e-14,2.151112228e-14,1.145550269e-13,1.944685341e-13,1.266400504e-13,8.903713436e-14,2.084432395e-13,2.507824936e-13,1.455781271e-13,1.077906306e-13,2.982731368e-13,1.401138110e-13,1.698012134e-13,8.892290412e-14,7.927410814e-14,1.122891011e-13,2.205173613e-13,1.980784407e-13,1.131779579e-13,4.526763283e-13,3.225330172e-13,3.757348818e-13,9.372451972e-13,1.188703720e-13,1.329700545e-14
1.7031,3.121992746e-13,1.131042479e-13,3.099512302e-13,8.850396832e-14,5.567263611e-14,7.064866699e-14,9.165407285e-14,1.824323504e-14,2.050822491e-14,1.085987939e-13,1.931301641e-13,1.126089367e-13,7.942851092e-14,1.875108875e-13,2.361327485e-13,1.301826984e-13,1.123336828e-13,2.964189068e-13,1.380428938e-13,1.705724839e-13,8.774104491e-14,7.755608728e-14,1.052427718e-13,2.205916126e-13,1.851034532e-13,1.101297379e-13,4.370427527e-13,2.986192331e-13,3.600070911e-13,8.796575803e-13,1.156600499e-13,1.341104835e-14
1.7109,2.872141408e-13,1.007858858e-13,3.026884746e-13,9.062659765e-14,5.454868564e-14,7.662033380e-14,9.941200031e-14,1.905054053e-14,1.962749385e-14,1.033681822e-13,1.909864402e-13,9.992371715e-14,7.081653170e-14,1.684681039e-13,2.222782874e-13,1.160807428e-13,1.190421705e-13,2.949299683e-13,1.365942727e-13,1.730522792e-13,8.804228501e-14,7.596325851e-14,9.878759299e-14,2.233649480e-13,1.732074951e-13,1.071634483e-13,4.232027194e-13,2.782839676e-13,3.443909088e-13,8.257903779e-13,1.125982263e-13,1.360929748e-14
1.7188,2.652807898e-13,8.977711643e-14,2.957326500e-13,9.253709708e-14,5.306986332e-14,8.287495667e-14,1.068542731e-13,1.935335954e-14,1.894558863e-14,9.792589696e-14,1.879404325e-13,8.850520673e-14,6.298249951e-14,1.512326624e-13,2.094206404e-13,1.033417286e-13,1.262835782e-13,2.931413941e-13,1.355885963e-13,1.760668609e-13,8.928826335e-14,7.498809766e-14,9.265796636e-14,2.288836095e-13,1.622308140e-13,1.042288273e-13,4.098904273e-13,2.617349136e-13,3.295552236e-13,7.780267342e-13,1.097956395e-13,1.379330450e-14
1.7266,2.458001549e-13,7.971591746e-14,2.890547740e-13,9.455704214e-14,5.170213068e-14,9.033117200e-14,1.150255283e-13,1.957478613e-14,1.841663761e-14,9.321175266e-14,1.844612904e-13,7.835969608e-14,5.579386468e-14,1.355399934e-13,1.971527633e-13,9.190845781e-14,1.342737518e-13,2.900903495e-13,1.345536068e-13,1.795399622e-13,9.143691700e-14,7.402061552e-14,8.647820100e-14,2.364971689e-13,1.517757424e-13,1.011358728e-13,3.969605112e-13,2.474470126e-13,3.154623586e-13,7.350732982e-13,1.072188722e-13,1.395433681e-14
1.7344,2.289970764e-13,7.098708079e-14,2.810934496e-13,9.675276676e-14,5.023758138e-14,9.878490933e-14,1.231398477e-13,1.972581583e-14,1.801219283e-14,8.842751186e-14,1.792459652e-13,6.972251036e-14,4.976590861e-14,1.212030219e-13,1.840956054e-13,8.199915360e-14,1.448764480e-13,2.884130204e-13,1.348383746e-13,1.852036116e-13,9.494708256e-14,7.354319543e-14,8.147764366e-14,2.479703534e-13,1.445445356e-13,9.867435882e-14,3.866087275e-13,2.379725715e-13,3.029709708e-13,7.006134451e-13,1.050709951e-13,1.408706019e-14
1.7422,2.135648087e-13,6.383701576e-14,2.743703189e-13,9.921739009e-14,4.884146268e-14,1.081123863e-13,1.316257026e-13,1.956892434e-14,1.785467828e-14,8.393669246e-14,1.743446578e-13,6.227459290e-14,4.433115803e-14,1.078768490e-13,1.715591924e-13,7.360963083e-14,1.562336861e-13,2.860994608e-13,1.345657691e-13,1.907242145e-13,9.875732682e-14,7.301388754e-14,7.593154837e-14,2.601409596e-13,1.370789639e-13,9.592822511e-14,3.748523584e-13,2.289249781e-13,2.919400591e-13,6.680013463e-13,1.034620843e-13,1.420317345e-14
1.75,1.987480065e-13,5.744141515e-14,2.673794392e-13,1.022625227e-13,4.766381853e-14,1.184787582e-13,1.406394682e-13,1.950008082e-14,1.784008621e-14,7.991737395e-14,1.693748583e-13,5.584924047e-14,3.930580634e-14,9.544019119e-14,1.591635242e-13,6.649333455e-14,1.682135346e-13,2.827567011e-13,1.339896662e-13,1.978996773e-13,1.033952942e-13,7.221874344e-14,7.048441925e-14,2.742746532e-13,1.308134947e-13,9.327489490e-14,3.636783555e-13,2.203036362e-13,2.827834176e-13,6.378866998e-13,1.022613173e-13,1.433424958e-14
1.7578,1.857157763e-13,5.251102565e-14,2.603864241e-13,1.055301196e-13,4.619707655e-14,1.292857143e-13,1.487880308e-13,1.911262411e-14,1.797504786e-14,7.543621694e-14,1.632766497e-13,5.047101586e-14,3.493365565e-14,8.378588736e-14,1.463575710e-13,6.040905207e-14,1.807393024e-13,2.790555080e-13,1.335086002e-13,2.069076957e-13,1.082677149e-13,7.146625736e-14,6.566448442e-14,2.911666726e-13,1.275673525e-13,9.097779988e-14,3.534272029e-13,2.140573622e-13,2.756081107e-13,6.125218751e-13,1.014038836e-13,1.445249868e-14
1.7656,1.735908487e-13,4.845180618e-14,2.539790469e-13,1.093396589e-13,4.498724116e-14,1.413957480e-13,1.577435982e-13,1.877204495e-14,1.829154841e-14,7.154024982e-14,1.571572147e-13,4.563562567e-14,3.091177245e-14,7.298349148e-14,1.340738355e-13,5.569144241e-14,1.946774546e-13,2.743827530e-13,1.321004662e-13,2.167167972e-13,1.130442728e-13,6.991070095e-14,6.060238683e-14,3.091759022e-13,1.246774893e-13,8.843361427e-14,3.430331134e-13,2.076520139e-13,2.697425166e-13,5.878142924e-13,1.007292738e-13,1.459003593e-14
1.7734,1.624945927e-13,4.587376769e-14,2.478277351e-13,1.140933377e-13,4.413031580e-14,1.544829230e-13,1.670561205e-13,1.856647224e-14,1.871159227e-14,6.799430438e-14,1.505007492e-13,4.146644911e-14,2.749420887e-14,6.368282466e-14,1.223712766e-13,5.266313985e-14,2.097889847e-13,2.697122920e-13,1.307529760e-13,2.278125180e-13,1.180486676e-13,6.787052898e-14,5.623604426e-14,3.281110787e-13,1.237080784e-13,8.651659638e-14,3.357235209e-13,2.034565385e-13,2.656826200e-13,5.669496463e-13,1.003526667e-13,1.476202457e-14
1.7812,1.505161271e-13,4.453550986e-14,2.433425519e-13,1.190535431e-13,4.318385822e-14,1.673982791e-13,1.757079473e-13,1.806036076e-14,1.931055545e-14,6.466969252e-14,1.449062581e-13,3.821741939e-14,2.483860403e-14,5.618311131e-14,1.128956881e-13,5.126995098e-14,2.238171870e-13,2.638406769e-13,1.285371492e-13,2.381863208e-13,1.222157888e-13,6.554470647e-14,5.194022977e-14,3.457792105e-13,1.238287675e-13,8.491180479e-14,3.292548817e-13,1.996550217e-13,2.628897866e-13,5.460766033e-13,1.004886214e-13,1.496170270e-14
1.7891,1.400989043e-13,4.483808662e-14,2.399288927e-13,1.245577409e-13,4.260428966e-14,1.821413546e-13,1.845169457e-13,1.789324306e-14,1.988770211e-14,6.198789406e-14,1.393536242e-13,3.526453983e-14,2.235222573e-14,4.986729608e-14,1.041591882e-13,5.094269082e-14,2.377595760e-13,2.575473161e-13,1.259909237e-13,2.493370417e-13,1.266349735e-13,6.270321763e-14,4.803873084e-14,3.652336681e-13,1.253295623e-13,8.382176449e-14,3.254376313e-13,1.979603366e-13,2.613350281e-13,5.290632409e-13,1.009573467e-13,1.525408128e-14
