Time,Fp1,AF3,F7,F3,FC1,FC5,T7,C3,CP1,CP5,P7,P3,Pz,PO3,O1,Oz,O2,PO4,P4,P8,CP6,CP2,C4,T8,FC6,FC2,F4,F8,AF4,Fp2,Fz,Cz,
0,2.504540499e-09,1.804248526e-09,9.896971206e-10,5.273963263e-10,8.731300940e-12,6.550720148e-09,1.939703117e-09,9.405272459e-10,1.253781421e-10,3.101475281e-09,3.151176364e-09,1.438466711e-09,6.946804713e-08,8.005943598e-11,9.004830497e-11,3.345014321e-10,1.540243402e-10,3.160389215e-11,4.030000254e-10,4.858751668e-10,1.185614394e-09,6.069721080e-11,1.698789454e-09,6.598273965e-10,2.631150453e-09,2.428290162e-10,5.076967512e-09,4.695408465e-09,9.023417496e-10,1.624248487e-09,7.105055094e-11,1.282516164e-11
0.0078125,2.496390923e-09,1.792839260e-09,9.800892290e-10,5.256039242e-10,8.779638303e-12,6.507444351e-09,1.921934314e-09,9.337848185e-10,1.242271045e-10,3.085221970e-09,3.129295853e-09,1.428816885e-09,6.915030434e-08,7.993478581e-11,8.964522449e-11,3.312311412e-10,1.549264221e-10,3.136502806e-11,4.024676819e-10,4.853865959e-10,1.183534444e-09,6.000753844e-11,1.691929625e-09,6.614072317e-10,2.615504447e-09,2.405728633e-10,5.036229990e-09,4.678269175e-09,8.981764578e-10,1.618467572e-09,7.083371323e-11,1.278524668e-11
0.015625,2.468410625e-09,1.767345260e-09,9.630041820e-10,5.196241836e-10,8.759751326e-12,6.412902557e-09,1.889333387e-09,9.196834924e-10,1.221252234e-10,3.044479165e-09,3.082735173e-09,1.407856816e-09,6.833542726e-08,7.917374363e-11,8.852688168e-11,3.253906395e-10,1.546366332e-10,3.094148418e-11,3.988734312e-10,4.812196493e-10,1.172206274e-09,5.886137977e-11,1.671723870e-09,6.578492502e-10,2.579453407e-09,2.365499655e-10,4.956551915e-09,4.624318436e-09,8.869527991e-10,1.599962549e-09,7.004215740e-11,1.264629863e-11
0.023438,2.421481537e-09,1.728461972e-09,9.388510843e-10,5.096485840e-10,8.672961515e-12,6.269708036e-09,1.842683133e-09,8.986034794e-10,1.191196675e-10,2.980401383e-09,3.012742875e-09,1.376140228e-09,6.704020861e-08,7.779186620e-11,8.674559978e-11,3.171730589e-10,1.531471229e-10,3.035215511e-11,3.922858006e-10,4.734529067e-10,1.151910450e-09,5.729661615e-11,1.638727648e-09,6.491997272e-10,2.523917602e-09,2.308403902e-10,4.839870639e-09,4.535138367e-09,8.689509773e-10,1.569315470e-09,6.870447048e-11,1.241172338e-11
0.03125,2.356394769e-09,1.676800347e-09,9.079906387e-10,4.958507363e-10,8.521137567e-12,6.080102164e-09,1.782709123e-09,8.708882542e-10,1.152564154e-10,2.894060440e-09,2.920469209e-09,1.334207404e-09,6.528773083e-08,7.582412800e-11,8.432427847e-11,3.067114751e-10,1.504964758e-10,2.961787994e-11,3.827734420e-10,4.621546152e-10,1.122911017e-09,5.534405083e-11,1.593429411e-09,6.355887765e-10,2.449718245e-09,2.235269673e-10,4.687939303e-09,4.411865916e-09,8.444558743e-10,1.526972124e-09,6.684308360e-11,1.208317174e-11
0.039062,2.275161442e-09,1.613889789e-09,8.712251770e-10,4.786611802e-10,8.310218025e-12,5.849598885e-09,1.711086868e-09,8.373458979e-10,1.106408833e-10,2.788036849e-09,2.808616448e-09,1.283298260e-09,6.310829851e-08,7.333811512e-11,8.132525122e-11,2.942657390e-10,1.467892269e-10,2.875696353e-11,3.706330190e-10,4.476710611e-10,1.086133676e-09,5.305590824e-11,1.537199191e-09,6.175282888e-10,2.358974618e-09,2.147566830e-10,4.504956616e-09,4.258262287e-09,8.142153010e-10,1.474148806e-09,6.451186063e-11,1.167131364e-11
0.046875,2.179951228e-09,1.541463067e-09,8.295930999e-10,4.585523245e-10,8.045380051e-12,5.584510941e-09,1.629748003e-09,7.988861663e-10,1.053962876e-10,2.665146776e-09,2.680217555e-09,1.224775471e-09,6.054981302e-08,7.039710052e-11,7.782939148e-11,2.801768928e-10,1.421193475e-10,2.779632475e-11,3.562041484e-10,4.304127217e-10,1.042587130e-09,5.049504829e-11,1.471565111e-09,5.954834007e-10,2.254157370e-09,2.047385711e-10,4.295851626e-09,4.078548528e-09,7.790465823e-10,1.412323556e-09,6.176879666e-11,1.118771006e-11
0.054688,2.072953077e-09,1.461132017e-09,7.840043725e-10,4.359782694e-10,7.733005850e-12,5.290764965e-09,1.540470889e-09,7.563689725e-10,9.963571561e-11,2.528179283e-09,2.538158178e-09,1.159965762e-09,5.766632956e-08,6.707119111e-11,7.391126278e-11,2.647404121e-10,1.366096429e-10,2.675322598e-11,3.398315623e-10,4.107972367e-10,9.932848936e-10,4.771559760e-11,1.398035901e-09,5.699551867e-10,2.137680559e-09,1.936820262e-10,4.065226388e-09,3.876842615e-09,7.397563584e-10,1.342941295e-09,5.867730354e-11,1.064183301e-11
0.0625,1.956411581e-09,1.374606129e-09,7.354366946e-10,4.113991464e-10,7.379630068e-12,4.974623061e-09,1.445244160e-09,7.107060732e-10,9.348483548e-11,2.380063696e-09,2.385481889e-09,1.090258579e-09,5.452068048e-08,6.343157845e-11,6.965841741e-11,2.482941645e-10,1.303813417e-10,2.565667836e-11,3.218907160e-10,3.892800458e-10,9.393144753e-10,4.477979807e-11,1.318197204e-09,5.415263092e-10,2.012080834e-09,1.818349947e-10,3.818135494e-09,3.657508971e-09,6.971932119e-10,1.267431975e-09,5.530383553e-11,1.004662577e-11
0.070312,1.832534199e-09,1.283597634e-09,6.849188531e-10,3.852805643e-10,6.990156807e-12,4.642354915e-09,1.345987815e-09,6.627944524e-10,8.707134461e-11,2.223677653e-09,2.225194574e-09,1.017020224e-09,5.118737484e-08,5.955040468e-11,6.515819125e-11,2.311933740e-10,1.235398051e-10,2.454398915e-11,3.027358426e-10,3.662740369e-10,8.817190772e-10,4.175102085e-11,1.233597887e-09,5.107606198e-10,1.879804435e-09,1.694676290e-10,3.559623549e-09,3.424724868e-09,6.521816729e-10,1.187310991e-09,5.171335532e-11,9.414691243e-12
0.078125,1.704016472e-09,1.190004294e-09,6.334583069e-10,3.581891833e-10,6.573126814e-12,4.300846740e-09,1.244689687e-09,6.136260626e-10,8.052637735e-11,2.062341942e-09,2.060631671e-09,9.417687364e-10,4.773842911e-08,5.551187265e-11,6.050197055e-11,2.137721447e-10,1.162287965e-10,2.343153818e-11,2.827773277e-10,3.422667420e-10,8.217339127e-10,3.868823149e-11,1.146037321e-09,4.783209959e-10,1.743612040e-09,1.568360515e-10,3.294985091e-09,3.183488499e-09,6.056832559e-10,1.104312528e-09,4.798396892e-11,8.757943605e-12
0.085938,1.573301749e-09,1.095530541e-09,5.819106266e-10,3.306471371e-10,6.138460371e-12,3.956317137e-09,1.143157882e-09,5.641030656e-10,7.396709166e-11,1.899101055e-09,1.894808565e-09,8.658801475e-10,4.423916212e-08,5.139241536e-11,5.578276896e-11,1.963337664e-10,1.085989290e-10,2.233528556e-11,2.623946562e-10,3.177222493e-10,7.605136640e-10,3.564579229e-11,1.057170153e-09,4.448635115e-10,1.606015930e-09,1.441692217e-10,3.028948214e-09,2.938439241e-09,5.585609146e-10,1.019939302e-09,4.419109969e-11,8.089355965e-12
0.09375,1.442213391e-09,1.001388171e-09,5.308749751e-10,3.030378262e-10,5.692825185e-12,3.613258630e-09,1.042567173e-09,5.148495886e-10,6.747312971e-11,1.736166768e-09,1.729854768e-09,7.903512829e-10,4.074479662e-08,4.725774039e-11,5.106782793e-11,1.790892631e-10,1.007841170e-10,2.126830462e-11,2.418717222e-10,2.929726099e-10,6.989341943e-10,3.265537659e-11,9.682095341e-10,4.109636281e-10,1.468765538e-09,1.316347354e-10,2.764777578e-09,2.692878241e-09,5.114260488e-10,9.353689526e-10,4.039429860e-11,7.419290885e-12
0.10156,1.312812498e-09,9.088982966e-10,4.809881333e-10,2.757784309e-10,5.243309391e-12,3.276531460e-09,9.442133574e-10,4.665526540e-10,6.112790180e-11,1.575967391e-09,1.568125983e-09,7.162737821e-10,3.729978787e-08,4.318011730e-11,4.641726527e-11,1.622562690e-10,9.292723021e-11,2.023975259e-11,2.215159736e-10,2.683839400e-10,6.379508429e-10,2.975151979e-11,8.804816220e-10,3.771803688e-10,1.333795084e-09,1.193748095e-10,2.505970528e-09,2.450534234e-09,4.649618455e-10,8.518784010e-10,3.665672385e-11,6.757145672e-12
0.10938,1.187010648e-09,8.193776268e-10,4.328928622e-10,2.492789782e-10,4.798282744e-12,2.950907090e-09,8.494486074e-10,4.199073717e-10,5.501591989e-11,1.420833263e-09,1.411913346e-09,6.447136876e-10,3.394407711e-08,3.921920887e-11,4.190084520e-11,1.460640442e-10,8.516675119e-11,1.926336615e-11,2.016218976e-10,2.443257822e-10,5.784698467e-10,2.697618159e-11,7.952778744e-10,3.440086631e-10,1.203016274e-09,1.075311040e-10,2.256049032e-09,2.214945069e-09,4.198404816e-10,7.706555989e-10,3.303407470e-11,6.112646075e-12
0.11719,1.066328958e-09,7.338151119e-10,3.870381185e-10,2.238699628e-10,4.364222117e-12,2.639936242e-09,7.591656210e-10,3.754131474e-10,4.919277123e-11,1.272530604e-09,1.262867059e-09,5.764472596e-10,3.070689903e-08,3.542269984e-11,3.757866934e-11,1.306759443e-10,7.759987274e-11,1.834482566e-11,1.824202454e-10,2.210689636e-10,5.212145169e-10,2.435334125e-11,7.136073299e-10,3.119193606e-10,1.077844897e-09,9.620036118e-11,2.017485127e-09,1.988850666e-09,3.765946740e-10,6.926805158e-10,2.956937489e-11,5.493694328e-12
0.125,9.520281614e-10,6.530304399e-10,3.438282330e-10,1.998091239e-10,3.945576711e-12,2.346589442e-09,6.741611706e-10,3.334928472e-10,4.370765014e-11,1.132540367e-09,1.122438581e-09,5.121315393e-10,2.761043800e-08,3.183541029e-11,3.348478094e-11,1.162173879e-10,7.032180134e-11,1.749021932e-11,1.641173571e-10,1.988597487e-10,4.667938290e-10,2.190361624e-11,6.363070489e-10,2.812733911e-10,9.595275226e-10,8.546754321e-11,1.792461327e-09,1.774671479e-09,3.356740675e-10,6.187447262e-10,2.629704715e-11,4.906697002e-12
0.13281,8.447229996e-10,5.774852029e-10,3.035065836e-10,1.772251362e-10,3.545453174e-12,2.072508201e-09,5.949178274e-10,2.943755470e-10,3.859199300e-11,1.001617260e-09,9.914066459e-10,4.521248918e-10,2.467721498e-08,2.847606298e-11,2.963849539e-11,1.027413508e-10,6.342188073e-11,1.669824434e-11,1.468572251e-10,1.779012393e-10,4.155700553e-10,1.963661189e-11,5.638366085e-10,2.522528450e-10,8.487727256e-10,7.541210632e-11,1.582341768e-09,1.573633164e-09,2.973174341e-10,5.492962354e-10,2.323508166e-11,4.355188915e-12
0.14062,7.451385571e-10,5.076604370e-10,2.662862292e-10,1.562693643e-10,3.166920089e-12,1.819396976e-09,5.218730681e-10,2.582846569e-10,3.387394470e-11,8.805744978e-10,8.705281254e-10,3.967719396e-10,2.192517136e-08,2.535876649e-11,2.607535053e-11,9.033018016e-11,5.693448709e-11,1.596215373e-11,1.307749127e-10,1.583666065e-10,3.679277287e-10,1.755849754e-11,4.966895798e-10,2.250855874e-10,7.463036270e-10,6.609342815e-11,1.388402146e-09,1.387114988e-09,2.617802279e-10,4.848710646e-10,2.040479340e-11,3.842825646e-12
0.14844,6.537635045e-10,4.438707128e-10,2.323483546e-10,1.370416177e-10,2.812648207e-12,1.588389035e-09,4.553483774e-10,2.253802574e-10,2.957556340e-11,7.699592561e-10,7.603300265e-10,3.463042249e-10,1.936938457e-08,2.249705889e-11,2.281183441e-11,7.904367582e-11,5.089040685e-11,1.528207664e-11,1.159659507e-10,1.403689282e-10,3.241196463e-10,1.567424467e-11,4.351992347e-10,1.999269273e-10,6.526535096e-10,5.756216030e-11,1.211559216e-09,1.216172874e-09,2.292429754e-10,4.257648332e-10,1.781692961e-11,3.372869739e-12
0.15625,5.705031310e-10,3.859977898e-10,2.016211412e-10,1.195235273e-10,2.484215336e-12,1.379031064e-09,3.951750251e-10,1.955911120e-10,2.568841748e-11,6.695779743e-10,6.605618472e-10,3.006225979e-10,1.701839379e-08,1.989082099e-11,1.983820664e-11,6.882891718e-11,4.532737760e-11,1.465200214e-11,1.024435977e-10,1.239311926e-10,2.841405832e-10,1.397257173e-11,3.792997439e-10,1.768081890e-10,5.676697119e-10,4.982655762e-11,1.051471142e-09,1.060619495e-09,1.996689009e-10,3.718935073e-10,1.546741074e-11,2.945284849e-12
0.16406,4.953170014e-10,3.339574010e-10,1.740431785e-10,1.037091984e-10,2.182246633e-12,1.190982367e-09,3.412277177e-10,1.688587757e-10,2.220341099e-11,5.792932336e-10,5.710205479e-10,2.596346551e-10,1.487487833e-08,1.753422042e-11,1.715576341e-11,5.966868409e-11,4.024218480e-11,1.407199840e-11,9.019991007e-11,1.090541042e-10,2.479666772e-10,1.244947450e-11,3.289218635e-10,1.557353593e-10,4.912224236e-10,4.287767326e-11,9.078214972e-10,9.202629037e-10,1.730266334e-10,3.232430466e-10,1.335385969e-11,2.559223007e-12
0.17188,4.278994499e-10,2.874994696e-10,1.495004260e-10,8.953593905e-11,1.906586543e-12,1.023327666e-09,2.932436360e-10,1.450519567e-10,1.910254951e-11,4.986832587e-10,4.912455629e-10,2.231271774e-10,1.293947860e-08,1.541512009e-11,1.475889861e-11,5.153396405e-11,3.562398376e-11,1.354738034e-11,7.918250193e-11,9.567937306e-11,2.154417687e-10,1.110075432e-11,2.838268461e-10,1.366446759e-10,4.229632638e-10,3.669533665e-11,7.799046794e-10,7.944640569e-10,1.491925140e-10,2.795994054e-10,1.146772313e-11,2.212682944e-12
0.17969,3.679510825e-10,2.463431066e-10,1.278075544e-10,7.693688948e-11,1.657301585e-12,8.750217679e-10,2.508581098e-10,1.240149041e-10,1.636261994e-11,4.273080476e-10,4.207277152e-10,1.908757905e-10,1.120544687e-08,1.352636567e-11,1.263170227e-11,4.435228660e-11,3.147758611e-11,1.307100409e-11,6.935362395e-11,8.375564602e-11,1.864577276e-10,9.910858990e-12,2.438059611e-10,1.195182450e-10,3.624778721e-10,3.123567769e-11,6.668225931e-10,6.826394714e-10,1.280364411e-10,2.407517673e-10,9.801210229e-12,1.904530388e-12
0.1875,3.150548318e-10,2.101636981e-10,1.087907949e-10,6.582281987e-11,1.433529472e-12,7.448329939e-10,2.137037230e-10,1.055676395e-10,1.396083902e-11,3.645928619e-10,3.588679291e-10,1.626019769e-10,9.662395244e-09,1.185154077e-11,1.075475817e-11,3.804805232e-11,2.778550286e-11,1.263642422e-11,6.065450895e-11,7.321978863e-11,1.608359431e-10,8.864718152e-12,2.085738091e-10,1.042586276e-10,3.092940368e-10,2.645321759e-11,5.676178550e-10,5.840248161e-10,1.094014133e-10,2.064431986e-10,8.341023106e-12,1.633389191e-12
0.19531,2.685655541e-10,1.784821316e-10,9.218727267e-11,5.606190773e-11,1.234294840e-12,6.310049176e-10,1.812569936e-10,8.945742026e-11,1.186303781e-11,3.096935654e-10,3.047946257e-10,1.379069463e-10,8.298213824e-09,1.036688009e-11,9.110182729e-12,3.253693126e-11,2.451557299e-11,1.224118821e-11,5.297362612e-11,6.394164645e-11,1.382551035e-10,7.948965813e-12,1.776681047e-10,9.069617616e-11,2.627117913e-10,2.228800265e-11,4.809227508e-10,4.973707706e-10,9.305022671e-11,1.762571793e-10,7.068589986e-12,1.395429740e-12
0.20312,2.280328785e-10,1.509571030e-10,7.778254689e-11,4.755982374e-11,1.058794044e-12,5.322621332e-10,1.531188336e-10,7.549867450e-11,1.004165126e-11,2.620136533e-10,2.578929924e-10,1.165033528e-10,7.098994707e-09,9.059363149e-12,7.680491007e-12,2.775484757e-11,2.164140747e-11,1.188155081e-11,4.623978602e-11,5.582564053e-11,1.185087923e-10,7.152060074e-12,1.507716765e-10,7.874249421e-11,2.222251483e-10,1.868370450e-11,4.057222364e-10,4.218257746e-10,7.881791768e-11,1.499049131e-10,5.968363456e-12,1.187977372e-12
0.21094,1.928688566e-10,1.271702474e-10,6.535490460e-11,4.018767931e-11,9.044811095e-13,4.470717216e-10,1.288467216e-10,6.346816353e-11,8.469575910e-12,2.208282340e-10,2.174395183e-10,9.805932194e-11,6.051105458e-09,7.911748735e-12,6.442983367e-12,2.363016145e-11,1.912749726e-11,1.155757655e-11,4.036879542e-11,4.876680152e-11,1.013356616e-10,6.461620871e-12,1.274948170e-10,6.825789277e-11,1.872339830e-10,1.558837656e-11,3.408814034e-10,3.563212475e-10,6.649693154e-11,1.270158434e-10,5.024150748e-12,1.008595835e-12
0.21875,1.625067623e-10,1.067017114e-10,5.466501238e-11,3.382363170e-11,7.695846520e-13,3.739203891e-10,1.079810671e-10,5.314545195e-11,7.118258070e-12,1.854227554e-10,1.826842251e-10,8.224117853e-11,5.139616696e-09,6.905762938e-12,5.382382171e-12,2.009260539e-11,1.693864542e-11,1.126736221e-11,3.526954948e-11,4.265218844e-11,8.647165458e-11,5.865969438e-12,1.074477796e-10,5.909719196e-11,1.571302282e-10,1.294219913e-11,2.852216644e-10,2.998181774e-10,5.587941941e-11,1.072384451e-10,4.219477459e-12,8.539893936e-13
0.22656,1.364594575e-10,8.920397463e-11,4.553573810e-11,2.836820725e-11,6.531015879e-13,3.115011838e-10,9.015502678e-11,4.434318778e-11,5.962059045e-12,1.551601826e-10,1.529833322e-10,6.874742850e-11,4.350458795e-09,6.026547967e-12,4.478488037e-12,1.707583748e-11,1.504820680e-11,1.100832697e-11,3.086649753e-11,3.739161623e-11,7.368344468e-11,5.355047587e-12,9.028258039e-11,5.114136974e-11,1.313919889e-10,1.069515956e-11,2.377435645e-10,2.514212643e-10,4.679227249e-11,9.027562183e-11,3.534359724e-12,7.211812533e-13
0.23438,1.141956104e-10,7.429942493e-11,3.777165625e-11,2.371095565e-11,5.529130091e-13,2.584381390e-10,7.498432586e-11,3.686227052e-11,4.975979994e-12,1.293866421e-10,1.276929908e-10,5.727875173e-11,3.670433210e-09,5.259235866e-12,3.707840307e-12,1.450879829e-11,1.342571498e-11,1.077760892e-11,2.707389871e-11,3.288424706e-11,6.271311875e-11,4.917767202e-12,7.563212029e-11,4.425468008e-11,1.094652755e-10,8.799128847e-12,1.973960560e-10,2.100836182e-10,3.904463763e-11,7.577081003e-11,2.953154865e-12,6.077167798e-13
0.24219,9.528241135e-11,6.167733298e-11,3.119992450e-11,1.976122378e-11,4.672895686e-13,2.136116748e-10,6.214138884e-11,3.053988448e-11,4.139835616e-12,1.075697881e-10,1.062760179e-10,4.758822407e-11,3.086369380e-09,4.590478817e-12,3.056378384e-12,1.233201054e-11,1.203464062e-11,1.056414365e-11,2.382568060e-11,2.904678418e-11,5.336196798e-11,4.540410100e-12,6.320925313e-11,3.831387947e-11,9.090925715e-11,7.208277381e-12,1.633079994e-10,1.749595326e-10,3.247880569e-11,6.343034735e-11,2.463622326e-12,5.112796078e-13
0.25,7.926339649e-11,5.102128376e-11,2.566505329e-11,1.642224541e-11,3.947022916e-13,1.758598110e-10,5.130200140e-11,2.521104902e-11,3.433515518e-12,8.914703213e-11,8.817817840e-11,3.941933588e-11,2.586319933e-09,4.007198185e-12,2.509093519e-12,1.048967268e-11,1.083970482e-11,1.036491044e-11,2.105197544e-11,2.578697369e-11,4.540961442e-11,4.213487256e-12,5.270219617e-11,3.318846520e-11,7.525628775e-11,5.880448681e-12,1.345990511e-10,1.452180327e-10,2.693240576e-11,5.296231167e-11,2.052537664e-12,4.293008801e-13
0.25781,6.574164764e-11,4.205690625e-11,2.101808978e-11,1.360725518e-11,3.333608915e-13,1.441864002e-10,4.218567394e-11,2.073672298e-11,2.839762600e-12,7.365202831e-11,7.295039043e-11,3.256409048e-11,2.159374610e-09,3.498595714e-12,2.051090557e-12,8.935762093e-12,9.816877040e-12,1.018221373e-11,1.869089662e-11,2.302247336e-11,3.866777478e-11,3.932451396e-12,4.384925896e-11,2.877878209e-11,6.210455861e-11,4.776647200e-12,1.105079552e-10,1.201439585e-10,2.226356383e-11,4.411812521e-11,1.709597694e-12,3.601830184e-13
0.26562,5.438890730e-11,3.455904489e-11,1.714178399e-11,1.124639165e-11,2.818278340e-13,1.177587727e-10,3.456671803e-11,1.700057816e-11,2.343509419e-12,6.068532331e-11,6.020450362e-11,2.683884088e-11,1.796015458e-09,3.054543180e-12,1.669470949e-12,7.626115946e-12,8.945015951e-12,1.000837373e-11,1.669845675e-11,2.070180812e-11,3.299338221e-11,3.688765674e-12,3.643852597e-11,2.500044216e-11,5.113522199e-11,3.865720297e-12,9.041170903e-11,9.913556944e-11,1.835641209e-11,3.669223103e-11,1.424102811e-12,3.025830223e-13
0.27344,4.488497378e-11,2.830670282e-11,1.392474622e-11,9.273844927e-12,2.388596526e-13,9.577949284e-11,2.822170547e-11,1.389019826e-11,1.929533448e-12,4.986511326e-11,4.956086627e-11,2.206898199e-11,1.487672203e-09,2.666560442e-12,1.353730531e-12,6.522082313e-12,8.198556674e-12,9.838695433e-12,1.502139441e-11,1.876307571e-11,2.822759633e-11,3.476220736e-12,3.025063545e-11,2.176049964e-11,4.201532741e-11,3.118115985e-12,7.369623112e-11,8.157716130e-11,1.509742791e-11,3.047073465e-11,1.187539928e-12,2.546142292e-13
0.28125,3.695444011e-11,2.311736682e-11,1.127142541e-11,7.632427778e-12,2.032377737e-13,7.759559714e-11,2.296416986e-11,1.131410917e-11,1.585576106e-12,4.087803166e-11,4.071250180e-11,1.811264043e-11,1.226843245e-09,2.327452383e-12,1.094226097e-12,5.592746697e-12,7.555514795e-12,9.669503035e-12,1.361709303e-11,1.715251182e-11,2.424311595e-11,3.289931879e-12,2.511140510e-11,1.898463124e-11,3.447769579e-11,2.509202448e-12,5.986617709e-11,6.695820964e-11,1.239174912e-11,2.527938341e-11,9.922188919e-13,2.150147332e-13
0.28906,3.034413302e-11,1.882126325e-11,9.094693117e-12,6.266810342e-12,1.737828335e-13,6.258980132e-11,1.862229174e-11,9.185380125e-12,1.300312696e-12,3.342108336e-11,3.336579697e-11,1.483469456e-11,1.007247538e-09,2.030128672e-12,8.818439167e-13,4.809488371e-12,6.994965345e-12,9.497760832e-12,1.244335126e-11,1.581762412e-11,2.091701215e-11,3.125388704e-12,2.085140753e-11,1.659932938e-11,2.827231834e-11,2.018319818e-12,4.846964806e-11,5.482448355e-11,1.015106102e-11,2.095965799e-11,8.307227855e-13,1.828324457e-13
0.29688,2.486300715e-11,1.528711949e-11,7.320191686e-12,5.136366455e-12,1.495925071e-13,5.029526145e-11,1.505777495e-11,7.438585419e-12,1.063871109e-12,2.726831942e-11,2.729684211e-11,1.213260955e-11,8.233346882e-10,1.770139036e-12,7.126843477e-13,4.156068976e-12,6.501153008e-12,9.324909300e-12,1.145852899e-11,1.470557161e-11,1.814364973e-11,2.981937348e-12,1.733212627e-11,1.455072305e-11,2.318987268e-11,1.625812113e-12,3.914432620e-11,4.481310711e-11,8.306094500e-12,1.738524298e-11,6.981390828e-13,1.568222215e-13
0.30469,2.033728714e-11,1.239422267e-11,5.886027888e-12,4.206136967e-12,1.299443504e-13,4.027943544e-11,1.214801781e-11,6.012091494e-12,8.677923705e-13,2.221260698e-11,2.229900087e-11,9.909551491e-12,6.702103021e-10,1.544264344e-12,5.801722515e-13,3.613077233e-12,6.070529170e-12,9.149997108e-12,1.063785318e-11,1.378528546e-11,1.584988902e-11,2.855258010e-12,1.444397277e-11,1.280498679e-11,1.905939191e-11,1.314981567e-12,3.155361650e-11,3.659571427e-11,6.793802703e-12,1.444755820e-11,5.888064524e-13,1.360182332e-13
0.3125,1.660265515e-11,1.002498584e-11,4.728463999e-12,3.440229174e-12,1.140061307e-13,3.212576940e-11,9.774883549e-12,4.845630873e-12,7.056029156e-13,1.805930730e-11,1.818356742e-11,8.082325370e-12,5.433207190e-10,1.349208966e-12,4.773489192e-13,3.162960475e-12,5.698490484e-12,8.977239898e-12,9.951516954e-12,1.302339848e-11,1.395269702e-11,2.743209028e-12,1.207477839e-11,1.131656907e-11,1.570743286e-11,1.070157553e-12,2.537726714e-11,2.986111704e-11,5.553925010e-12,1.203100868e-11,4.985417407e-13,1.198821983e-13
0.32031,1.328142149e-11,7.924879851e-12,3.695241823e-12,2.738850760e-12,9.949544643e-14,2.504251046e-11,7.794089069e-12,3.817074341e-12,5.878396746e-13,1.452461662e-11,1.475954990e-11,6.624257179e-12,4.389586076e-10,1.198843680e-12,3.927889938e-13,2.795956097e-12,5.317433864e-12,8.829756580e-12,9.295276136e-12,1.225325082e-11,1.219986649e-11,2.652997147e-12,1.001777644e-11,9.957891830e-12,1.282942872e-11,8.721301221e-13,2.021520900e-11,2.409104097e-11,4.476137094e-12,9.783378442e-12,4.329932917e-13,1.083226490e-13
0.32812,1.078105836e-11,6.363835754e-12,2.938770267e-12,2.229826351e-12,8.952776041e-14,1.973280482e-11,6.260451619e-12,3.065056133e-12,4.835041554e-13,1.180749583e-11,1.207340386e-11,5.437463656e-12,3.538176174e-10,1.056646693e-12,3.400455737e-13,2.503751662e-12,5.040484817e-12,8.682657641e-12,8.778186280e-12,1.167777398e-11,1.087946594e-11,2.575266434e-12,8.436823115e-12,8.893675712e-12,1.061442976e-11,7.157679319e-13,1.617422177e-11,1.960648530e-11,3.658785676e-12,8.138751016e-12,3.706476354e-13,9.873092732e-14
0.33594,8.800090039e-12,5.126106357e-12,2.357623493e-12,1.824018557e-12,8.244837966e-14,1.558681039e-11,5.015564524e-12,2.453094969e-12,3.910628277e-13,9.560927153e-12,9.803830676e-12,4.428442479e-12,2.846309542e-10,9.273907570e-13,3.130342481e-13,2.268923321e-12,4.811775926e-12,8.526624534e-12,8.378412907e-12,1.124847641e-11,9.868192262e-12,2.499632944e-12,7.187128191e-12,8.004149330e-12,8.917904119e-12,5.961465449e-13,1.299504867e-11,1.613209896e-11,3.000818244e-12,6.927823182e-12,3.185725024e-13,9.317336295e-14
0.34375,7.166470754e-12,4.129811878e-12,1.901977526e-12,1.493155195e-12,7.660106125e-14,1.225299026e-11,4.017587021e-12,1.967578074e-12,3.158229628e-13,7.757248187e-12,7.989500166e-12,3.617315385e-12,2.286141013e-10,8.273796384e-13,3.015949163e-13,2.084227190e-12,4.610728874e-12,8.373462957e-12,8.021439925e-12,1.087081837e-11,9.014131628e-12,2.434970467e-12,6.170338956e-12,7.256506599e-12,7.545692612e-12,5.031123007e-13,1.043026368e-11,1.330596960e-11,2.471482067e-12,5.917109367e-12,2.757992684e-13,8.971301941e-14
0.35156,5.842758529e-12,3.339694235e-12,1.555552635e-12,1.230546132e-12,7.217522857e-14,9.620246724e-12,3.217843523e-12,1.586778342e-12,2.526069017e-13,6.309463552e-12,6.524506537e-12,2.951309529e-12,1.836240735e-10,7.469162973e-13,3.076366952e-13,1.946136456e-12,4.439736312e-12,8.219619523e-12,7.706957020e-12,1.054883241e-11,8.306173116e-12,2.377906912e-12,5.347630002e-12,6.627898783e-12,6.451797998e-12,4.321343974e-13,8.375342296e-12,1.102718956e-11,2.049447333e-12,5.111323030e-12,2.394408228e-13,8.792976363e-14
0.35938,4.816472254e-12,2.761892949e-12,1.332913926e-12,1.033583010e-12,6.850474412e-14,7.571645238e-12,2.627930448e-12,1.272559805e-12,2.007731224e-13,5.214731112e-12,5.464843009e-12,2.389460138e-12,1.476175219e-10,7.052908514e-13,2.882040012e-13,1.747892032e-12,4.380751825e-12,8.018118465e-12,7.586033833e-12,1.050418127e-11,7.995413700e-12,2.290412847e-12,4.903395518e-12,6.298164492e-12,5.881465781e-12,3.987193129e-13,6.850255003e-12,9.564195910e-12,1.760354271e-12,4.670551801e-12,1.932664877e-13,9.130749009e-14
0.36719,3.999116603e-12,2.285947371e-12,1.136940261e-12,8.649642786e-13,6.674194860e-14,6.047806588e-12,2.171768845e-12,1.025343700e-12,1.624713461e-13,4.317089045e-12,4.567743069e-12,1.972430631e-12,1.183549067e-10,6.580865039e-13,3.109944462e-13,1.629229514e-12,4.268545171e-12,7.819051993e-12,7.413441297e-12,1.036538384e-11,7.597284251e-12,2.222433044e-12,4.472204562e-12,5.864275292e-12,5.384326889e-12,3.877521272e-13,5.763522240e-12,8.344317075e-12,1.505766607e-12,4.243940401e-12,1.701952995e-13,9.601782572e-14
0.375,3.245680886e-12,1.832827349e-12,9.211650433e-13,7.037673935e-13,6.464075044e-14,4.687536542e-12,1.748950293e-12,8.067890880e-13,1.357538517e-13,3.531000215e-12,3.775344297e-12,1.649838846e-12,9.445835737e-11,6.185898429e-13,3.654567732e-13,1.597242037e-12,4.110959763e-12,7.650825974e-12,7.144077239e-12,1.008316105e-11,7.068538744e-12,2.180561399e-12,3.982523450e-12,5.389534387e-12,4.811055798e-12,3.757250954e-13,4.792054387e-12,7.182797650e-12,1.266865854e-12,3.768132448e-12,1.609184568e-13,9.998084607e-14
0.38281,2.660484511e-12,1.476310040e-12,7.411727265e-13,5.782422669e-13,6.361583555e-14,3.635592650e-12,1.426211170e-12,6.348421637e-13,1.150527230e-13,2.910645114e-12,3.148726796e-12,1.387807047e-12,7.500874329e-11,5.927525805e-13,4.229678153e-13,1.570430961e-12,4.004805078e-12,7.484300195e-12,6.919519458e-12,9.851911676e-12,6.662741452e-12,2.135965246e-12,3.623210398e-12,5.028026872e-12,4.387185089e-12,3.687520735e-13,4.055261202e-12,6.314725528e-12,1.076946841e-12,3.414448155e-12,1.504018960e-13,1.052447213e-13
0.39062,2.189477979e-12,1.181927899e-12,5.887536326e-13,4.756571669e-13,6.340817387e-14,2.803222221e-12,1.173475233e-12,4.978271920e-13,9.818731965e-14,2.391944959e-12,2.616364398e-12,1.168862066e-12,5.942348982e-11,5.762684115e-13,4.898158542e-13,1.562805839e-12,3.926290095e-12,7.324350037e-12,6.710684138e-12,9.632327332e-12,6.314534995e-12,2.093565814e-12,3.331197187e-12,4.724635915e-12,4.035061378e-12,3.618677436e-13,3.475598875e-12,5.615684062e-12,9.145735943e-13,3.126556044e-12,1.427352254e-13,1.111350818e-13
0.39844,1.813870386e-12,9.483743578e-13,4.657295417e-13,3.904147635e-13,6.319478457e-14,2.141929132e-12,9.794504356e-13,3.915705494e-13,8.696958234e-14,2.007086827e-12,2.238271120e-12,1.013833478e-12,4.710588984e-11,5.791901698e-13,5.601078719e-13,1.576999178e-12,3.871714925e-12,7.175230885e-12,6.504987087e-12,9.421001919e-12,6.017716215e-12,2.055836210e-12,3.110902476e-12,4.503516029e-12,3.751675514e-12,3.507676871e-13,3.002701131e-12,5.137685990e-12,7.926265559e-13,2.917187223e-12,1.377414753e-13,1.171453270e-13
0.40625,1.518858518e-12,7.684626375e-13,3.770249569e-13,3.234821206e-13,6.364719617e-14,1.640763077e-12,8.291864716e-13,3.136897275e-13,7.700254167e-14,1.704303821e-12,1.944682543e-12,8.881944495e-13,3.749081232e-11,5.917646041e-13,6.388546756e-13,1.613351806e-12,3.843998531e-12,7.035472194e-12,6.308994477e-12,9.230907741e-12,5.766795592e-12,2.020544057e-12,2.940529770e-12,4.337046180e-12,3.516058069e-12,3.358379826e-13,2.612445802e-12,4.791463104e-12,6.978085791e-13,2.763035462e-12,1.355858058e-13,1.228578909e-13
0.41406,1.138290172e-12,4.696645763e-13,2.326500350e-13,2.192360960e-13,6.336445415e-14,8.418642146e-13,5.606597761e-13,2.427143110e-13,5.917498283e-14,1.262390219e-12,1.493633242e-12,8.012470846e-13,3.054252143e-11,5.952282334e-13,7.615465384e-13,1.796704417e-12,3.714214855e-12,6.965347515e-12,5.869899035e-12,8.693620172e-12,5.096460436e-12,2.040642341e-12,2.375625050e-12,3.904346753e-12,2.772976372e-12,2.867884476e-13,1.764674773e-12,3.870777070e-12,4.963001576e-13,2.365127800e-12,1.559598812e-13,1.221346655e-13
0.42188,9.599416856e-13,3.477880445e-13,1.664674134e-13,1.709222742e-13,6.438769875e-14,5.218670263e-13,4.405651654e-13,2.091513665e-13,5.258443856e-14,1.106637329e-12,1.367152260e-12,7.753388153e-13,2.565664004e-11,6.267385396e-13,8.572306234e-13,1.918285907e-12,3.703410987e-12,6.869574121e-12,5.590863376e-12,8.395276793e-12,4.790397407e-12,2.030678505e-12,2.184516898e-12,3.776819140e-12,2.467142565e-12,2.441623081e-13,1.377234395e-12,3.649048481e-12,4.287954820e-13,2.252247673e-12,1.606341207e-13,1.251710942e-13
0.42969,8.477499714e-13,3.067171782e-13,1.577777289e-13,1.560795096e-13,6.736246268e-14,4.243160620e-13,4.032735163e-13,1.798330140e-13,4.779366834e-14,9.863846290e-13,1.272688203e-12,6.984793872e-13,2.158207643e-11,6.570207958e-13,9.427662333e-13,1.960576148e-12,3.765885566e-12,6.711723787e-12,5.484306937e-12,8.341892926e-12,4.756134798e-12,1.976310986e-12,2.232720715e-12,3.789273829e-12,2.488092436e-12,2.325087587e-13,1.294130578e-12,3.690155119e-12,4.142929612e-13,2.263373860e-12,1.586777852e-13,1.316086453e-13
0.4375,7.545510714e-13,2.727250728e-13,1.533013999e-13,1.346869899e-13,6.915432974e-14,3.317253845e-13,3.843625047e-13,1.536280445e-13,4.736680651e-14,9.199049851e-13,1.264826970e-12,6.787787651e-13,1.794608306e-11,6.950419031e-13,1.031101572e-12,2.015824137e-12,3.797755574e-12,6.548345258e-12,5.346377193e-12,8.268950375e-12,4.644553852e-12,1.927108377e-12,2.238769305e-12,3.747328876e-12,2.487112265e-12,2.395954150e-13,1.251427807e-12,3.761135319e-12,4.068776672e-13,2.275125713e-12,1.656733831e-13,1.374004300e-13
0.44531,6.938628289e-13,2.652738233e-13,1.642783207e-13,1.168817981e-13,7.033724463e-14,2.963389162e-13,4.081515787e-13,1.290129369e-13,5.106929834e-14,9.077033482e-13,1.335975742e-12,6.865401753e-13,1.473716742e-11,7.390148342e-13,1.115078720e-12,2.055498396e-12,3.827809374e-12,6.371472391e-12,5.231050907e-12,8.248508190e-12,4.548225442e-12,1.871707799e-12,2.274363974e-12,3.708738728e-12,2.545698237e-12,2.694177553e-13,1.329016900e-12,3.924268363e-12,4.199686682e-13,2.328620640e-12,1.767724810e-13,1.433572714e-13
0.45312,6.314706308e-13,2.537906154e-13,1.800603652e-13,1.038036072e-13,7.181521895e-14,2.699737084e-13,4.450684064e-13,1.081909269e-13,5.309377167e-14,8.580207532e-13,1.348389182e-12,6.768592775e-13,1.172204322e-11,7.769968746e-13,1.208241428e-12,2.091691771e-12,3.849955139e-12,6.180138678e-12,5.134246941e-12,8.245208999e-12,4.441208775e-12,1.807360585e-12,2.291616970e-12,3.632731422e-12,2.596230551e-12,3.135354098e-13,1.430960088e-12,3.978529851e-12,4.188867110e-13,2.337530001e-12,1.945405824e-13,1.485093642e-13
0.46094,6.002798605e-13,2.606459204e-13,2.092324275e-13,9.693608976e-14,7.266299618e-14,2.789640698e-13,5.145632682e-13,9.363284752e-14,5.572855100e-14,8.483345219e-13,1.400347542e-12,6.808689028e-13,8.921597768e-12,8.234107901e-13,1.295395047e-12,2.115305569e-12,3.878724574e-12,5.980481864e-12,5.052164009e-12,8.265278828e-12,4.352981718e-12,1.736531673e-12,2.330275088e-12,3.585604666e-12,2.665265543e-12,3.635656263e-13,1.582775680e-12,4.066769968e-12,4.297913394e-13,2.365681099e-12,2.129719450e-13,1.528496105e-13
0.46875,5.915096252e-13,2.825455955e-13,2.472665773e-13,9.495073047e-14,7.303828803e-14,3.261365331e-13,6.071398840e-13,7.994148058e-14,5.840764126e-14,8.598360258e-13,1.464907595e-12,6.808891641e-13,6.520439243e-12,8.766122332e-13,1.375740313e-12,2.125952356e-12,3.920594614e-12,5.776950839e-12,4.994179610e-12,8.323801976e-12,4.309860794e-12,1.657852512e-12,2.407654478e-12,3.586843612e-12,2.769884036e-12,4.140978081e-13,1.793828721e-12,4.214128143e-12,4.526745157e-13,2.421921395e-12,2.304712216e-13,1.568535933e-13
0.47656,5.827953028e-13,2.884988746e-13,2.751386205e-13,9.053966747e-14,7.291013586e-14,3.334198834e-13,6.766554984e-13,7.247541468e-14,5.878761932e-14,8.662227543e-13,1.509232545e-12,6.922918086e-13,4.689468412e-12,9.332015681e-13,1.460284892e-12,2.168595379e-12,3.950057928e-12,5.598951860e-12,4.892468704e-12,8.318427515e-12,4.208654600e-12,1.589581043e-12,2.421983677e-12,3.579001111e-12,2.768973146e-12,4.472920624e-13,1.901652221e-12,4.270558259e-12,4.625043397e-13,2.435811556e-12,2.508358825e-13,1.584842883e-13
0.48438,4.609203879e-13,2.905151105e-13,2.863924350e-13,9.016591233e-14,7.455171660e-14,4.527268142e-13,6.542561333e-13,4.516516086e-14,5.461720180e-14,7.280853148e-13,1.415096003e-12,6.020070073e-13,3.736210630e-12,9.711193724e-13,1.550677536e-12,2.211052969e-12,4.019011170e-12,5.440004104e-12,4.822092272e-12,8.326027852e-12,4.161673444e-12,1.509331324e-12,2.456939800e-12,3.610150531e-12,2.761633957e-12,4.595464979e-13,1.999098072e-12,4.146923929e-12,4.328339879e-13,2.370958960e-12,2.699122860e-13,1.617935268e-13
0.49219,4.578188450e-13,3.002416690e-13,3.160241541e-13,1.000249923e-13,7.500278517e-14,5.622464853e-13,6.685299543e-13,5.122084842e-14,4.929269704e-14,7.053631825e-13,1.396885006e-12,5.864234910e-13,3.351554109e-12,1.026555099e-12,1.637931480e-12,2.294321215e-12,4.078147562e-12,5.308296205e-12,4.728029680e-12,8.293130139e-12,4.102606111e-12,1.444840583e-12,2.465457724e-12,3.671238024e-12,2.703768342e-12,4.493370672e-13,2.004526093e-12,4.080004299e-12,4.238394042e-13,2.336388176e-12,2.863277247e-13,1.609582446e-13
0.5,5.141162411e-13,2.967376130e-13,3.240968681e-13,9.968943789e-14,7.371965311e-14,5.011997127e-13,6.862546686e-13,5.408745052e-14,4.558848242e-14,7.739303411e-13,1.467800329e-12,6.298870994e-13,3.322015950e-12,1.099179716e-12,1.703948805e-12,2.402717233e-12,4.128318832e-12,5.212411780e-12,4.569114306e-12,8.208111223e-12,3.979370272e-12,1.404153722e-12,2.426293352e-12,3.757560564e-12,2.560859666e-12,4.209184608e-13,1.914936891e-12,4.108388956e-12,4.386373859e-13,2.366778968e-12,2.947813144e-13,1.576790558e-13
0.50781,5.602762892e-13,2.947004971e-13,3.358844669e-13,1.034829131e-13,7.340792023e-14,4.789900069e-13,6.973791882e-13,5.748694046e-14,4.296660895e-14,8.322049084e-13,1.552015742e-12,6.752713840e-13,3.439816074e-12,1.162174405e-12,1.768322365e-12,2.515133600e-12,4.192609033e-12,5.131732910e-12,4.423700457e-12,8.125644006e-12,3.892806924e-12,1.363300904e-12,2.399113163e-12,3.861882420e-12,2.426923330e-12,3.837174419e-13,1.785841435e-12,4.112364422e-12,4.487310588e-13,2.375385917e-12,3.022858946e-13,1.535717768e-13
0.51562,5.885684815e-13,2.820844593e-13,3.571152967e-13,1.081004033e-13,7.373459351e-14,4.538919064e-13,7.063534233e-13,6.704538165e-14,4.090626577e-14,8.705906581e-13,1.638202927e-12,7.316596426e-13,3.609151031e-12,1.212653312e-12,1.833759694e-12,2.635561978e-12,4.245926784e-12,5.061984578e-12,4.273883884e-12,8.020088394e-12,3.794515031e-12,1.325753668e-12,2.336406364e-12,3.936939845e-12,2.257112292e-12,3.437519605e-13,1.575461544e-12,4.016823233e-12,4.452959913e-13,2.331229119e-12,3.121070192e-13,1.476678276e-13
0.52344,6.202777972e-13,2.832848840e-13,3.755580583e-13,1.118610033e-13,7.410471896e-14,4.210350909e-13,7.325948099e-13,6.874089902e-14,4.198139936e-14,9.301356092e-13,1.766290606e-12,7.911444276e-13,3.688942603e-12,1.255965028e-12,1.880034068e-12,2.728154622e-12,4.292441134e-12,4.986594887e-12,4.131533948e-12,7.948811601e-12,3.708992821e-12,1.288068316e-12,2.294891796e-12,4.009563416e-12,2.129906408e-12,3.157187429e-13,1.449343138e-12,3.980129342e-12,4.568372343e-13,2.323159666e-12,3.186441876e-13,1.426647798e-13
0.53125,6.488246681e-13,2.964608749e-13,4.082185946e-13,1.180718097e-13,7.470151556e-14,4.106881343e-13,7.915676588e-13,7.028934598e-14,4.520587944e-14,9.918046904e-13,1.913297731e-12,8.466995633e-13,3.498375932e-12,1.287739706e-12,1.914072733e-12,2.786013346e-12,4.329253643e-12,4.891685108e-12,4.016570104e-12,7.921496636e-12,3.650428970e-12,1.243616224e-12,2.273325119e-12,4.062351671e-12,2.051790144e-12,3.055031324e-13,1.397146866e-12,3.943730062e-12,4.748856448e-13,2.311693481e-12,3.251105091e-13,1.380560136e-13
0.53906,6.871529284e-13,3.158857523e-13,4.631799118e-13,1.229906634e-13,7.484829958e-14,4.002141136e-13,8.918442568e-13,7.770816605e-14,5.089357461e-14,1.081246776e-12,2.113892958e-12,9.258642480e-13,3.090088732e-12,1.315933592e-12,1.935417510e-12,2.817209708e-12,4.344034622e-12,4.782996736e-12,3.914906497e-12,7.914196375e-12,3.593780232e-12,1.197959035e-12,2.245748874e-12,4.083540308e-12,1.990996106e-12,3.105739591e-13,1.372038643e-12,3.909934087e-12,4.987806399e-13,2.295093875e-12,3.333947258e-13,1.325816205e-13
0.54688,7.130571334e-13,3.439796064e-13,5.230629571e-13,1.279784358e-13,7.519205764e-14,4.137626537e-13,1.002893764e-12,8.166800571e-14,5.703221741e-14,1.157193221e-12,2.306712765e-12,9.888306493e-13,2.557816445e-12,1.338292668e-12,1.947630900e-12,2.821512922e-12,4.348489670e-12,4.663232820e-12,3.838751455e-12,7.941420179e-12,3.552560200e-12,1.148302807e-12,2.231264498e-12,4.079288083e-12,1.966405601e-12,3.288307858e-13,1.426583660e-12,3.864732022e-12,5.222882798e-13,2.274492043e-12,3.410744292e-13,1.279240499e-13
0.55469,7.213691041e-13,3.678733230e-13,5.803551824e-13,1.332125571e-13,7.557759181e-14,4.351971361e-13,1.102475522e-12,8.559285689e-14,6.139958259e-14,1.204907929e-12,2.458392239e-12,1.029710849e-12,1.990147177e-12,1.357051732e-12,1.958917548e-12,2.817999379e-12,4.343483894e-12,4.539201840e-12,3.774126294e-12,7.976778306e-12,3.508642120e-12,1.097636404e-12,2.203003815e-12,4.049594989e-12,1.936768354e-12,3.510241465e-13,1.498883047e-12,3.752285211e-12,5.349891545e-13,2.224392959e-12,3.481075120e-13,1.234474565e-13
0.5625,7.450458597e-13,3.928400351e-13,6.321495725e-13,1.374355368e-13,7.537050497e-14,4.496458328e-13,1.202163584e-12,8.841285602e-14,6.559047659e-14,1.272318837e-12,2.617223894e-12,1.067765264e-12,1.569024128e-12,1.382063563e-12,1.959893851e-12,2.802769487e-12,4.335278175e-12,4.414007574e-12,3.719324548e-12,8.030468871e-12,3.481032292e-12,1.048023865e-12,2.184766984e-12,4.037235162e-12,1.923915038e-12,3.727949888e-13,1.600291641e-12,3.675581330e-12,5.539378522e-13,2.194049304e-12,3.509370567e-13,1.192517767e-13
0.57031,7.654707386e-13,4.136003968e-13,6.702745087e-13,1.428345038e-13,7.544992688e-14,4.733874368e-13,1.272562545e-12,9.043817384e-14,6.753403439e-14,1.324191387e-12,2.739396104e-12,1.087462444e-12,1.401161809e-12,1.406392280e-12,1.958583199e-12,2.788685668e-12,4.326033766e-12,4.293364129e-12,3.667434389e-12,8.072457464e-12,3.457868733e-12,9.999617840e-13,2.160841044e-12,4.026307620e-12,1.901119398e-12,3.872483322e-13,1.689016108e-12,3.566516793e-12,5.644758860e-13,2.150947577e-12,3.503882220e-13,1.155268242e-13
0.57812,7.802012018e-13,4.207408850e-13,6.901068522e-13,1.471286581e-13,7.591783766e-14,4.870270271e-13,1.297113616e-12,9.383661001e-14,6.686399611e-14,1.360561909e-12,2.833570006e-12,1.104904341e-12,1.470897901e-12,1.431660265e-12,1.957717948e-12,2.789604329e-12,4.311234649e-12,4.184121888e-12,3.597981726e-12,8.060064179e-12,3.414225757e-12,9.575139018e-13,2.105157679e-12,4.005464671e-12,1.831073912e-12,3.868119280e-13,1.697700637e-12,3.405417102e-12,5.587117542e-13,2.081384207e-12,3.469914567e-13,1.115505922e-13
0.58594,7.924771670e-13,4.218736137e-13,6.872731266e-13,1.509113437e-13,7.686633640e-14,4.845677922e-13,1.284815022e-12,9.365988738e-14,6.483480132e-14,1.385457472e-12,2.896612526e-12,1.109428390e-12,1.762630314e-12,1.458546908e-12,1.954050049e-12,2.796256980e-12,4.298752136e-12,4.084906016e-12,3.520067048e-12,8.016043396e-12,3.369596192e-12,9.198912434e-13,2.047614478e-12,3.995924210e-12,1.751331677e-12,3.753830392e-13,1.684035918e-12,3.246729688e-12,5.489148685e-13,2.017435197e-12,3.377210794e-13,1.082226856e-13
0.59375,7.942333091e-13,4.150876634e-13,6.719383306e-13,1.550246199e-13,7.844317760e-14,4.774729700e-13,1.241675419e-12,9.409630137e-14,6.167542855e-14,1.392375856e-12,2.933074562e-12,1.105327537e-12,2.201399178e-12,1.484413961e-12,1.953997759e-12,2.812060001e-12,4.287419165e-12,3.994926374e-12,3.434170863e-12,7.933242780e-12,3.318540986e-12,8.877493953e-13,1.975585127e-12,3.979975068e-12,1.649008047e-12,3.533713096e-13,1.620626983e-12,3.055741809e-12,5.277776608e-13,1.938089405e-12,3.249650659e-13,1.049955781e-13
0.60156,8.038729561e-13,4.078240395e-13,6.634952233e-13,1.588678302e-13,8.033294013e-14,4.753405532e-13,1.199920210e-12,9.876785067e-14,5.945788962e-14,1.417058693e-12,3.006654224e-12,1.118958312e-12,2.590718385e-12,1.512693991e-12,1.951718748e-12,2.824550036e-12,4.277295129e-12,3.910020167e-12,3.347990134e-12,7.822803887e-12,3.272353717e-12,8.593298359e-13,1.900416485e-12,3.963426009e-12,1.539239453e-12,3.235206284e-13,1.511706448e-12,2.886585906e-12,5.044557000e-13,1.858383536e-12,3.086570790e-13,1.012378390e-13
0.60938,8.039687022e-13,4.037703675e-13,6.633248439e-13,1.635856750e-13,8.281788585e-14,4.819160245e-13,1.158221951e-12,1.054944724e-13,5.757595464e-14,1.430196695e-12,3.079455994e-12,1.129481551e-12,2.829182714e-12,1.535472485e-12,1.948616472e-12,2.830098755e-12,4.269223384e-12,3.829903550e-12,3.265928087e-12,7.693556152e-12,3.223769967e-12,8.332356733e-13,1.823536460e-12,3.931629564e-12,1.429061166e-12,2.922081917e-13,1.396646910e-12,2.708897308e-12,4.790974150e-13,1.775322363e-12,2.901487050e-13,9.769214026e-14
0.61719,7.923196779e-13,3.990973067e-13,6.750452594e-13,1.672028499e-13,8.550492628e-14,4.929323602e-13,1.120958475e-12,1.151144338e-13,5.648142508e-14,1.430179118e-12,3.155883339e-12,1.142962553e-12,2.882846013e-12,1.552414330e-12,1.945759871e-12,2.828344726e-12,4.258891327e-12,3.749451694e-12,3.184658149e-12,7.543343913e-12,3.163687000e-12,8.095437893e-13,1.736444597e-12,3.869170837e-12,1.314064951e-12,2.615226176e-13,1.265703790e-12,2.515913079e-12,4.492824732e-13,1.685958265e-12,2.722243790e-13,9.407018615e-14
0.625,7.814154076e-13,3.975372265e-13,7.008979130e-13,1.692392365e-13,8.816224663e-14,5.066751633e-13,1.109256003e-12,1.249896789e-13,5.752705621e-14,1.436447081e-12,3.252251506e-12,1.157820142e-12,2.690740678e-12,1.566848079e-12,1.939295746e-12,2.806353691e-12,4.244519390e-12,3.656611334e-12,3.113995213e-12,7.399026743e-12,3.111419699e-12,7.845502159e-13,1.662822293e-12,3.791870832e-12,1.226254093e-12,2.351882813e-13,1.157780609e-12,2.359959542e-12,4.266706016e-13,1.609059813e-12,2.532806921e-13,9.037592577e-14
0.63281,7.595083032e-13,3.962180622e-13,7.345118814e-13,1.704547691e-13,9.130879689e-14,5.292707911e-13,1.108536557e-12,1.348998253e-13,5.961954036e-14,1.432024073e-12,3.347288301e-12,1.167005574e-12,2.311662492e-12,1.578366864e-12,1.933683415e-12,2.770391514e-12,4.220700157e-12,3.554301274e-12,3.048897595e-12,7.246342045e-12,3.053270045e-12,7.589103728e-13,1.588132159e-12,3.685781557e-12,1.148076626e-12,2.129554887e-13,1.064786948e-12,2.195053580e-12,4.031123973e-13,1.527572812e-12,2.350056298e-13,8.671896109e-14
0.64062,7.396598500e-13,3.967927934e-13,7.758519663e-13,1.715007933e-13,9.477418148e-14,5.638548885e-13,1.123135879e-12,1.465747115e-13,6.307450102e-14,1.435856513e-12,3.463290511e-12,1.185329298e-12,1.842514443e-12,1.593560315e-12,1.930399536e-12,2.725156680e-12,4.195638314e-12,3.451227324e-12,2.991810133e-12,7.086793455e-12,2.994167745e-12,7.342006576e-13,1.516276111e-12,3.560992301e-12,1.080351522e-12,1.939040120e-13,9.801601892e-13,2.040391664e-12,3.803487374e-13,1.450461736e-12,2.176902286e-13,8.288247153e-14
0.64844,7.145211886e-13,3.953808834e-13,8.072419458e-13,1.723897726e-13,9.865579736e-14,5.825876627e-13,1.136686202e-12,1.553004259e-13,6.703172129e-14,1.429420552e-12,3.552054484e-12,1.191924401e-12,1.372384918e-12,1.611051994e-12,1.934183174e-12,2.681235793e-12,4.176488527e-12,3.353153036e-12,2.942229870e-12,6.929391069e-12,2.932821777e-12,7.113933338e-13,1.451692446e-12,3.426333593e-12,1.028241092e-12,1.792335808e-13,9.231040674e-13,1.900168017e-12,3.610676598e-13,1.381820715e-12,2.004594297e-13,7.949578064e-14
0.65625,6.827602142e-13,3.883069929e-13,8.211957647e-13,1.726438726e-13,1.030089328e-13,5.876192134e-13,1.133839911e-12,1.613288252e-13,7.082926063e-14,1.409037977e-12,3.610235440e-12,1.189691026e-12,1.000257511e-12,1.631674072e-12,1.944280840e-12,2.643558842e-12,4.157444945e-12,3.261717833e-12,2.891967238e-12,6.756666132e-12,2.860987225e-12,6.915131043e-13,1.382888317e-12,3.277852114e-12,9.755294784e-13,1.667139587e-13,8.681404954e-13,1.760375563e-12,3.393710338e-13,1.312649614e-12,1.845198616e-13,7.644442511e-14
0.66406,6.586981980e-13,3.794687471e-13,8.237356598e-13,1.729554549e-13,1.073512169e-13,5.911553279e-13,1.127450006e-12,1.655226480e-13,7.517901571e-14,1.395870652e-12,3.665971050e-12,1.187378604e-12,7.697749111e-13,1.660863867e-12,1.959187739e-12,2.608610226e-12,4.144050133e-12,3.179780557e-12,2.847389165e-12,6.579225923e-12,2.794658258e-12,6.742338046e-13,1.322858323e-12,3.133483148e-12,9.341330560e-13,1.560128301e-13,8.209568255e-13,1.644142913e-12,3.207321341e-13,1.251001205e-12,1.690781100e-13,7.340748400e-14
0.67188,6.307022625e-13,3.682852259e-13,8.059950389e-13,1.740888865e-13,1.119451398e-13,5.779484067e-13,1.101371495e-12,1.680475941e-13,7.934435189e-14,1.371851403e-12,3.694425649e-12,1.177848085e-12,6.983486732e-13,1.698500728e-12,1.984678427e-12,2.584867306e-12,4.139122151e-12,3.113196061e-12,2.803207517e-12,6.384255739e-12,2.720631477e-12,6.609542107e-13,1.261866375e-12,2.985328057e-12,8.918111406e-13,1.473744476e-13,7.827513913e-13,1.527370980e-12,3.017320140e-13,1.193134670e-12,1.544527112e-13,7.077939340e-14
0.67969,6.049135815e-13,3.585078752e-13,7.750645917e-13,1.765201557e-13,1.166829777e-13,5.595840722e-13,1.061821513e-12,1.722233047e-13,8.371986802e-14,1.348284837e-12,3.716787181e-12,1.172210677e-12,7.461373365e-13,1.745615751e-12,2.018740656e-12,2.568004944e-12,4.140171433e-12,3.059820556e-12,2.759413398e-12,6.166350674e-12,2.641139246e-12,6.506330146e-13,1.200376763e-12,2.834902523e-12,8.465144508e-13,1.400027458e-13,7.431651189e-13,1.416532373e-12,2.820477257e-13,1.141222540e-12,1.409082783e-13,6.828305515e-14
0.6875,5.778751034e-13,3.471843939e-13,7.339196316e-13,1.776242624e-13,1.208747346e-13,5.285018224e-13,1.015755974e-12,1.755299159e-13,8.869246467e-14,1.320981592e-12,3.721216314e-12,1.162082798e-12,8.647664888e-13,1.800108121e-12,2.062494278e-12,2.559009965e-12,4.148246572e-12,3.021976580e-12,2.720766404e-12,5.944024461e-12,2.562790206e-12,6.432801205e-13,1.144732848e-12,2.690649150e-12,8.092114548e-13,1.345333290e-13,7.106218425e-13,1.316086561e-12,2.652156378e-13,1.094068280e-12,1.281231268e-13,6.592305720e-14
0.69531,5.469679841e-13,3.358021609e-13,6.878679588e-13,1.779238086e-13,1.245584958e-13,4.959192108e-13,9.627566658e-13,1.793290873e-13,9.392734121e-14,1.289191747e-12,3.718020403e-12,1.153063280e-12,1.007873484e-12,1.861383865e-12,2.116248967e-12,2.558594701e-12,4.161520977e-12,3.005793925e-12,2.690551067e-12,5.714676571e-12,2.482336231e-12,6.404534596e-13,1.089456005e-12,2.545934566e-12,7.723859591e-13,1.305435439e-13,6.794266832e-13,1.216502371e-12,2.473266891e-13,1.050070911e-12,1.169091311e-13,6.381313614e-14
0.70312,5.216071977e-13,3.290383478e-13,6.514000730e-13,1.788670277e-13,1.276321654e-13,4.802772663e-13,9.184731608e-13,1.852541142e-13,9.982297997e-14,1.268050336e-12,3.735130588e-12,1.152762922e-12,1.099441882e-12,1.929110974e-12,2.176509993e-12,2.560520302e-12,4.179825915e-12,3.011862873e-12,2.678705081e-12,5.490292832e-12,2.411648034e-12,6.414633165e-13,1.043021830e-12,2.405714232e-12,7.417698944e-13,1.275591495e-13,6.527811794e-13,1.130837626e-12,2.306654723e-13,1.014414316e-12,1.072624058e-13,6.167096612e-14
0.71094,4.929592099e-13,3.234448580e-13,6.183737587e-13,1.791241665e-13,1.299123546e-13,4.568651259e-13,8.784680206e-13,1.920527863e-13,1.063253419e-13,1.243855478e-12,3.745042492e-12,1.152995413e-12,1.129941444e-12,1.999901517e-12,2.242833693e-12,2.567920721e-12,4.202292479e-12,3.039222325e-12,2.681084666e-12,5.272133700e-12,2.341768738e-12,6.459886193e-13,1.000883165e-12,2.264716897e-12,7.170237815e-13,1.257475829e-13,6.350279458e-13,1.052313500e-12,2.162878279e-13,9.856617249e-13,9.902980875e-14,5.975498664e-14
0.71875,4.652065763e-13,3.198382867e-13,5.934942339e-13,1.792342184e-13,1.313764065e-13,4.424820499e-13,8.479471180e-13,2.003336206e-13,1.131941857e-13,1.223301753e-12,3.758285115e-12,1.159559456e-12,1.104057889e-12,2.074030774e-12,2.313396385e-12,2.578680408e-12,4.225561642e-12,3.086312247e-12,2.696150128e-12,5.058591614e-12,2.273697915e-12,6.536558699e-13,9.617358922e-13,2.123917959e-12,6.954387078e-13,1.241665868e-13,6.173714268e-13,9.831264298e-13,2.026497863e-13,9.623475101e-13,9.242544502e-14,5.782407263e-14
0.72656,4.382572550e-13,3.142826869e-13,5.788613156e-13,1.777782176e-13,1.319725074e-13,4.376062637e-13,8.281024579e-13,2.066808487e-13,1.202665177e-13,1.204571074e-12,3.769111518e-12,1.165953528e-12,1.038839057e-12,2.152664328e-12,2.392016109e-12,2.599103463e-12,4.249622195e-12,3.157768967e-12,2.726248655e-12,4.862116863e-12,2.213308670e-12,6.662429612e-13,9.284678570e-13,1.989229652e-12,6.795515431e-13,1.220189642e-13,5.968108026e-13,9.238458636e-13,1.905442789e-13,9.418406788e-13,8.747058167e-14,5.564768771e-14
0.73438,4.135224933e-13,3.099196841e-13,5.711815415e-13,1.773124789e-13,1.322406877e-13,4.346901750e-13,8.159463619e-13,2.136395947e-13,1.278234599e-13,1.190884307e-12,3.783348406e-12,1.178342770e-12,9.883110075e-13,2.241016254e-12,2.480476358e-12,2.633685153e-12,4.285303727e-12,3.259292677e-12,2.773917064e-12,4.683273255e-12,2.160079797e-12,6.847610300e-13,9.006752701e-13,1.858867598e-12,6.699776673e-13,1.193811807e-13,5.779368765e-13,8.746731082e-13,1.795252775e-13,9.303007671e-13,8.359739715e-14,5.354071941e-14
0.74219,3.963480073e-13,3.078788521e-13,5.742030785e-13,1.786628283e-13,1.321866224e-13,4.436054332e-13,8.203360834e-13,2.224664015e-13,1.360618380e-13,1.192219968e-12,3.816455337e-12,1.200952699e-12,9.808334567e-13,2.340102550e-12,2.577506378e-12,2.683406859e-12,4.340664954e-12,3.394271311e-12,2.843114559e-12,4.532839072e-12,2.121113137e-12,7.088966368e-13,8.819280865e-13,1.739748957e-12,6.665512271e-13,1.160768232e-13,5.578569932e-13,8.410696711e-13,1.698252759e-13,9.255052432e-13,8.066152295e-14,5.134584558e-14
0.75,3.800449119e-13,3.022996481e-13,5.791909802e-13,1.789981450e-13,1.315689387e-13,4.424828403e-13,8.354627001e-13,2.309539444e-13,1.446986457e-13,1.196564983e-12,3.841167049e-12,1.223674351e-12,1.046092128e-12,2.444815103e-12,2.681903473e-12,2.750317366e-12,4.408585400e-12,3.563067626e-12,2.927951793e-12,4.412976121e-12,2.091093110e-12,7.393089720e-13,8.682727373e-13,1.631209764e-12,6.666726336e-13,1.122150601e-13,5.314810633e-13,8.158731855e-13,1.618799760e-13,9.209830132e-13,7.901242015e-14,4.914299793e-14
0.75781,3.692873062e-13,2.976269814e-13,5.887350583e-13,1.810665244e-13,1.307659928e-13,4.459312319e-13,8.603550319e-13,2.405740605e-13,1.536021060e-13,1.209406842e-12,3.870918262e-12,1.253282535e-12,1.193081377e-12,2.557161348e-12,2.792009177e-12,2.828970245e-12,4.486958028e-12,3.763385577e-12,3.029054530e-12,4.315169256e-12,2.070121299e-12,7.756121570e-13,8.601974134e-13,1.528101972e-12,6.714271796e-13,1.082165573e-13,5.027005235e-13,7.968032354e-13,1.543965625e-13,9.195006430e-13,7.833067115e-14,4.704108784e-14
0.76562,3.633632763e-13,2.923209039e-13,6.056770650e-13,1.840229056e-13,1.296501620e-13,4.568102001e-13,8.979196268e-13,2.501144304e-13,1.628836958e-13,1.231348532e-12,3.910430707e-12,1.288391873e-12,1.405951719e-12,2.678530185e-12,2.910208322e-12,2.923654141e-12,4.576676130e-12,3.997490722e-12,3.148294504e-12,4.244916915e-12,2.059138603e-12,8.178600048e-13,8.578298744e-13,1.431252066e-12,6.804869240e-13,1.042658874e-13,4.712144908e-13,7.852554697e-13,1.473949982e-13,9.183577135e-13,7.869729939e-14,4.495645739e-14
0.77344,3.651318884e-13,2.897423246e-13,6.282740883e-13,1.888511571e-13,1.282459524e-13,4.598933052e-13,9.520344295e-13,2.632014219e-13,1.734844647e-13,1.266780109e-12,3.964078502e-12,1.334458084e-12,1.635256195e-12,2.807261685e-12,3.030853942e-12,3.026494236e-12,4.674116893e-12,4.261289545e-12,3.288018915e-12,4.206628092e-12,2.061467335e-12,8.640602318e-13,8.648779363e-13,1.344150501e-12,7.012207438e-13,1.012867393e-13,4.453554695e-13,7.902936836e-13,1.434892110e-13,9.251229039e-13,8.021671556e-14,4.308032646e-14
0.78125,3.745157053e-13,2.902000668e-13,6.614816919e-13,1.959726175e-13,1.266668009e-13,4.694164974e-13,1.023464106e-12,2.792092876e-13,1.851488540e-13,1.315705363e-12,4.035980359e-12,1.391200132e-12,1.825641522e-12,2.940621352e-12,3.155708680e-12,3.137853688e-12,4.780938175e-12,4.553140852e-12,3.448370490e-12,4.197500501e-12,2.077146386e-12,9.145406241e-13,8.798392497e-13,1.266842645e-12,7.305992529e-13,9.941435122e-14,4.246219774e-13,8.033168841e-13,1.411200128e-13,9.343996951e-13,8.283147128e-14,4.126516549e-14
0.78906,3.835550188e-13,2.880908718e-13,7.033669556e-13,2.022360919e-13,1.246666798e-13,4.794053348e-13,1.107024639e-12,2.948062917e-13,1.971721095e-13,1.366525277e-12,4.103752739e-12,1.449662178e-12,1.970789696e-12,3.076278827e-12,3.291074105e-12,3.269755779e-12,4.899738716e-12,4.878102631e-12,3.626070691e-12,4.218632544e-12,2.101004523e-12,9.713042480e-13,8.966455390e-13,1.200381144e-12,7.619714756e-13,9.823820604e-14,4.009438509e-13,8.182647868e-13,1.388170649e-13,9.366678768e-13,8.662613895e-14,3.950166257e-14
0.79688,3.999205157e-13,2.911302902e-13,7.566016071e-13,2.108069615e-13,1.226012515e-13,4.955545961e-13,1.205272550e-12,3.122478632e-13,2.098681866e-13,1.427457421e-12,4.182901242e-12,1.518418236e-12,2.036955484e-12,3.215032824e-12,3.430022444e-12,3.410628273e-12,5.029289586e-12,5.233974325e-12,3.830542523e-12,4.277215723e-12,2.143441972e-12,1.033157812e-12,9.247095166e-13,1.147899228e-12,8.068210418e-13,9.883035147e-14,3.867087280e-13,8.480429777e-13,1.387751713e-13,9.430694776e-13,9.121251778e-14,3.798565536e-14
0.80469,4.196061842e-13,2.964790111e-13,8.198071678e-13,2.202420177e-13,1.206051840e-13,5.204492320e-13,1.315270333e-12,3.300504056e-13,2.227509146e-13,1.496163818e-12,4.271015946e-12,1.593946025e-12,2.024361646e-12,3.354819130e-12,3.574063763e-12,3.562706121e-12,5.168897540e-12,5.621607131e-12,4.061221504e-12,4.370424071e-12,2.201242692e-12,1.101558248e-12,9.605494590e-13,1.106724001e-12,8.605371466e-13,1.012887437e-13,3.767999742e-13,8.860397959e-13,1.393975152e-13,9.482622839e-13,9.699799530e-14,3.649553636e-14
0.8125,4.402410525e-13,3.020914573e-13,8.893407702e-13,2.292424448e-13,1.185292905e-13,5.419292974e-13,1.434828069e-12,3.500491309e-13,2.358976467e-13,1.573202015e-12,4.363149731e-12,1.676249815e-12,1.980507223e-12,3.494155247e-12,3.720741053e-12,3.725712591e-12,5.319459756e-12,6.038235539e-12,4.313069913e-12,4.492588768e-12,2.272076397e-12,1.175583540e-12,1.001828797e-12,1.079719423e-12,9.199945236e-13,1.053835588e-13,3.676940180e-13,9.348484408e-13,1.407522732e-13,9.489077870e-13,1.042231733e-13,3.507106478e-14
0.82031,4.623017884e-13,3.092300152e-13,9.646847942e-13,2.389128265e-13,1.165122848e-13,5.672222728e-13,1.554672367e-12,3.692456729e-13,2.481477584e-13,1.651565186e-12,4.452293331e-12,1.760136393e-12,1.945843377e-12,3.629542986e-12,3.865736906e-12,3.896180161e-12,5.475366821e-12,6.479226928e-12,4.580619629e-12,4.634850977e-12,2.352446183e-12,1.254886393e-12,1.047554729e-12,1.063256969e-12,9.802281573e-13,1.117310486e-13,3.631247506e-13,9.843298751e-13,1.426260007e-13,9.448465084e-13,1.122644940e-13,3.390970586e-14
0.82812,4.816221807e-13,3.136263946e-13,1.040092183e-12,2.475955146e-13,1.145163140e-13,5.933349943e-13,1.668591158e-12,3.852502703e-13,2.587505694e-13,1.724579759e-12,4.527045067e-12,1.839522590e-12,1.992779713e-12,3.760306634e-12,4.014291309e-12,4.081878769e-12,5.635700766e-12,6.945983823e-12,4.857116068e-12,4.790039065e-12,2.436245550e-12,1.340954353e-12,1.092658868e-12,1.056349352e-12,1.033757754e-12,1.198195913e-13,3.554354185e-13,1.029957036e-12,1.436596777e-13,9.324980365e-13,1.213675960e-13,3.292791948e-14
0.83594,5.080347672e-13,3.217750590e-13,1.118089704e-12,2.584283894e-13,1.126778030e-13,6.208675994e-13,1.787287980e-12,4.040182486e-13,2.695308531e-13,1.810943061e-12,4.622184090e-12,1.929472408e-12,2.128910136e-12,3.893372409e-12,4.163760439e-12,4.272261305e-12,5.810190007e-12,7.433542573e-12,5.151444859e-12,4.966898860e-12,2.538094291e-12,1.430581330e-12,1.149325767e-12,1.067587399e-12,1.096089971e-12,1.292195870e-13,3.541801245e-13,1.094966394e-12,1.467314182e-13,9.219301808e-13,1.313900761e-13,3.210295524e-14
0.84375,5.344837883e-13,3.293059350e-13,1.196478079e-12,2.694104445e-13,1.111323503e-13,6.506731927e-13,1.904764075e-12,4.223378299e-13,2.793622601e-13,1.900825836e-12,4.725339794e-12,2.021133039e-12,2.344828307e-12,4.026603369e-12,4.317258106e-12,4.472821591e-12,5.999245294e-12,7.939210716e-12,5.455657497e-12,5.160382201e-12,2.649960883e-12,1.524556265e-12,1.208914761e-12,1.092229342e-12,1.156209972e-12,1.389300833e-13,3.519790346e-13,1.161284970e-12,1.492131053e-13,9.063965778e-13,1.419107498e-13,3.142711571e-14
0.85156,5.572572386e-13,3.328727727e-13,1.272929778e-12,2.789727535e-13,1.099642315e-13,6.770317630e-13,2.020592232e-12,4.403785098e-13,2.877224863e-13,1.990272357e-12,4.826086399e-12,2.109490735e-12,2.642088486e-12,4.154938570e-12,4.472813160e-12,4.684104195e-12,6.198257922e-12,8.457063847e-12,5.760987703e-12,5.364501574e-12,2.767044603e-12,1.621961221e-12,1.266876826e-12,1.132176293e-12,1.207113678e-12,1.476164624e-13,3.417066427e-13,1.225307361e-12,1.501388735e-13,8.853636149e-13,1.531102045e-13,3.090520015e-14
0.85938,5.861006247e-13,3.396145578e-13,1.353702487e-12,2.907273723e-13,1.094973613e-13,7.085664152e-13,2.138621609e-12,4.589960870e-13,2.955926764e-13,2.082381513e-12,4.934963925e-12,2.198820350e-12,2.948432439e-12,4.275709151e-12,4.621192084e-12,4.890526685e-12,6.402323396e-12,8.976187761e-12,6.072206454e-12,5.579063196e-12,2.894368780e-12,1.719720402e-12,1.333110965e-12,1.186069703e-12,1.262213786e-12,1.555191365e-13,3.349910916e-13,1.297275298e-12,1.526378246e-13,8.664222963e-13,1.645984763e-13,3.052040088e-14
0.86719,6.146759143e-13,3.456647979e-13,1.437039728e-12,3.025596560e-13,1.096361118e-13,7.484571793e-13,2.255325278e-12,4.761556448e-13,3.026841146e-13,2.171768156e-12,5.040798782e-12,2.285239169e-12,3.211108370e-12,4.388050291e-12,4.764251935e-12,5.092419264e-12,6.605466310e-12,9.491142434e-12,6.385605072e-12,5.796286641e-12,3.025822337e-12,1.818640254e-12,1.402212039e-12,1.248705912e-12,1.316358685e-12,1.619595644e-13,3.239745427e-13,1.370736056e-12,1.545991701e-13,8.412183302e-13,1.763820002e-13,3.014213315e-14
0.875,6.441476249e-13,3.527755911e-13,1.526127961e-12,3.149851907e-13,1.102108681e-13,7.981540962e-13,2.381122155e-12,4.961868128e-13,3.100233277e-13,2.272688322e-12,5.165527654e-12,2.377110801e-12,3.369620114e-12,4.494403190e-12,4.900854335e-12,5.280517930e-12,6.805716314e-12,9.994166166e-12,6.704134599e-12,6.019648475e-12,3.169733144e-12,1.915307693e-12,1.480232359e-12,1.326823981e-12,1.377449259e-12,1.663775314e-13,3.114635356e-13,1.460590570e-12,1.567491122e-13,8.162329597e-13,1.882921493e-13,2.984250832e-14
0.88281,6.712087249e-13,3.600724081e-13,1.619072151e-12,3.271938728e-13,1.113142996e-13,8.517172254e-13,2.501898844e-12,5.135883111e-13,3.161325217e-13,2.364972424e-12,5.282634904e-12,2.459669865e-12,3.406310840e-12,4.587747454e-12,5.032285213e-12,5.459839638e-12,6.998122837e-12,1.048161676e-11,7.014471934e-12,6.240208494e-12,3.312375781e-12,2.008394225e-12,1.558126625e-12,1.412818214e-12,1.438721854e-12,1.699819305e-13,2.997953328e-13,1.548040433e-12,1.591094447e-13,7.890538869e-13,1.992977634e-13,2.974610285e-14
0.89062,6.921870685e-13,3.647225265e-13,1.707704578e-12,3.375320733e-13,1.127903506e-13,9.031965692e-13,2.605641431e-12,5.265663114e-13,3.202605999e-13,2.442014494e-12,5.377056191e-12,2.526999696e-12,3.385572411e-12,4.665937218e-12,5.156950088e-12,5.633064302e-12,7.177621112e-12,1.094390996e-11,7.304699317e-12,6.447031885e-12,3.446980023e-12,2.097558932e-12,1.630069639e-12,1.503857797e-12,1.492374240e-12,1.736007964e-13,2.852544721e-13,1.627924528e-12,1.613098672e-13,7.544753508e-13,2.095220481e-13,2.975852846e-14
0.89844,7.158930185e-13,3.733112447e-13,1.792641921e-12,3.491903129e-13,1.146810970e-13,9.593002804e-13,2.699560815e-12,5.387120427e-13,3.241270340e-13,2.520760491e-12,5.474407557e-12,2.590520096e-12,3.327817406e-12,4.734381855e-12,5.271456857e-12,5.786515723e-12,7.338814425e-12,1.137089479e-11,7.582590385e-12,6.640764128e-12,3.584892192e-12,2.181177440e-12,1.709998308e-12,1.604382865e-12,1.552119303e-12,1.782220547e-13,2.789015307e-13,1.719981854e-12,1.663766835e-13,7.217117625e-13,2.193281150e-13,2.979488218e-14
0.90625,7.316681719e-13,3.795910894e-13,1.865171378e-12,3.590924249e-13,1.170665416e-13,1.009721481e-12,2.769721213e-12,5.461026030e-13,3.264384918e-13,2.586006299e-12,5.550168299e-12,2.638278452e-12,3.307281196e-12,4.789769947e-12,5.379144724e-12,5.929892060e-12,7.475051850e-12,1.176726749e-11,7.835102085e-12,6.807630917e-12,3.711299586e-12,2.261142437e-12,1.784083515e-12,1.706324384e-12,1.601314615e-12,1.841579458e-13,2.740611866e-13,1.799540843e-12,1.713393333e-13,6.826086797e-13,2.288955225e-13,2.978670988e-14
0.91406,7.368801758e-13,3.809114210e-13,1.919863576e-12,3.661582793e-13,1.196330395e-13,1.048091102e-12,2.816577563e-12,5.503001736e-13,3.268740548e-13,2.642140759e-12,5.608646945e-12,2.670596823e-12,3.399380562e-12,4.829613450e-12,5.473730738e-12,6.058810405e-12,7.582548993e-12,1.212407541e-11,8.053060086e-12,6.941128942e-12,3.824315934e-12,2.335266759e-12,1.847829082e-12,1.808552716e-12,1.634678025e-12,1.904527794e-13,2.668096877e-13,1.865611079e-12,1.746769412e-13,6.384847549e-13,2.381090627e-13,2.974984237e-14
0.92188,7.379797401e-13,3.814124030e-13,1.955201684e-12,3.718587630e-13,1.222898692e-13,1.071565106e-12,2.838813046e-12,5.490565985e-13,3.251880867e-13,2.682416058e-12,5.644666911e-12,2.683938837e-12,3.613730791e-12,4.852830760e-12,5.557361118e-12,6.170054522e-12,7.659206800e-12,1.243449384e-11,8.232027148e-12,7.038602513e-12,3.920678522e-12,2.402683036e-12,1.903480197e-12,1.911370584e-12,1.658069869e-12,1.971189945e-13,2.641260869e-13,1.922776970e-12,1.785287819e-13,5.967180410e-13,2.456005051e-13,2.989359346e-14
0.92969,7.317460788e-13,3.778992232e-13,1.971091066e-12,3.749547968e-13,1.248975452e-13,1.082656034e-12,2.836690598e-12,5.435728461e-13,3.212333487e-13,2.707110702e-12,5.657584792e-12,2.678390946e-12,3.955186915e-12,4.860569022e-12,5.630556095e-12,6.268764972e-12,7.710891044e-12,1.270294610e-11,8.368661221e-12,7.099535099e-12,3.998550749e-12,2.462394920e-12,1.946561236e-12,2.013864662e-12,1.665974382e-12,2.031949148e-13,2.599038442e-13,1.968393010e-12,1.812178844e-13,5.541211867e-13,2.516526950e-13,3.022371866e-14
0.9375,7.237612462e-13,3.737111205e-13,1.980654317e-12,3.780272504e-13,1.273461222e-13,1.098427791e-12,2.830031520e-12,5.401798042e-13,3.170449128e-13,2.737511175e-12,5.676103461e-12,2.668550457e-12,4.325343359e-12,4.854239744e-12,5.681791171e-12,6.340619339e-12,7.738890377e-12,1.292164818e-11,8.475764381e-12,7.131099237e-12,4.071725055e-12,2.511094406e-12,1.987483335e-12,2.114732840e-12,1.668976269e-12,2.068340965e-13,2.537040037e-13,2.016875655e-12,1.823265722e-13,5.147807766e-13,2.566982196e-13,3.063386116e-14
0.94531,7.096504932e-13,3.669383747e-13,1.981978687e-12,3.790519869e-13,1.298387170e-13,1.108584928e-12,2.810414570e-12,5.341889384e-13,3.119273132e-13,2.754042197e-12,5.674142713e-12,2.642728962e-12,4.636218544e-12,4.828989093e-12,5.714309351e-12,6.388114802e-12,7.731345353e-12,1.308612555e-11,8.545846054e-12,7.123144087e-12,4.126433669e-12,2.551843904e-12,2.018135700e-12,2.203945537e-12,1.662155762e-12,2.075380966e-13,2.429984303e-13,2.052769432e-12,1.815520846e-13,4.758725117e-13,2.595195301e-13,3.113732004e-14
0.95312,6.907507219e-13,3.567983190e-13,1.975249895e-12,3.776798350e-13,1.321855766e-13,1.116231368e-12,2.782142294e-12,5.271803411e-13,3.058608135e-13,2.761615893e-12,5.660421949e-12,2.602822305e-12,4.828666799e-12,4.783841159e-12,5.724979852e-12,6.403695626e-12,7.682642984e-12,1.318689535e-11,8.576116310e-12,7.075595496e-12,4.161312725e-12,2.581954751e-12,2.037869627e-12,2.281630661e-12,1.647913910e-12,2.049713739e-13,2.262286860e-13,2.081656790e-12,1.790787122e-13,4.372999704e-13,2.605363435e-13,3.161105209e-14
0.96094,6.763162368e-13,3.502290949e-13,1.971712501e-12,3.777302576e-13,1.344303572e-13,1.134235765e-12,2.754417527e-12,5.205928071e-13,3.000097741e-13,2.767743431e-12,5.647231056e-12,2.555894238e-12,4.808512555e-12,4.719350769e-12,5.709618745e-12,6.376528177e-12,7.595775544e-12,1.321802871e-11,8.578987456e-12,6.997494739e-12,4.185155698e-12,2.598534463e-12,2.057226041e-12,2.347817127e-12,1.638975166e-12,2.000111113e-13,2.126077457e-13,2.115776570e-12,1.774817107e-13,4.045514698e-13,2.598737227e-13,3.202163383e-14
0.96875,6.596779567e-13,3.433878249e-13,1.968654982e-12,3.766027291e-13,1.367760351e-13,1.155558103e-12,2.720723068e-12,5.124345394e-13,2.940850905e-13,2.766463232e-12,5.625683401e-12,2.498423235e-12,4.581274940e-12,4.638653032e-12,5.674514554e-12,6.316626952e-12,7.473937813e-12,1.318866867e-11,8.554063038e-12,6.886509716e-12,4.193413574e-12,2.604584153e-12,2.070184985e-12,2.395606471e-12,1.628266683e-12,1.936286071e-13,1.987252751e-13,2.147215665e-12,1.754724607e-13,3.740460918e-13,2.575635578e-13,3.241648831e-14
0.97656,6.433088616e-13,3.367487485e-13,1.966001910e-12,3.746772104e-13,1.388951611e-13,1.184277693e-12,2.689091215e-12,5.052824662e-13,2.886607831e-13,2.770728742e-12,5.613408090e-12,2.437993708e-12,4.182480857e-12,4.545560525e-12,5.617648569e-12,6.221754658e-12,7.317402185e-12,1.309736480e-11,8.502675346e-12,6.745177283e-12,4.190060048e-12,2.597847003e-12,2.080518098e-12,2.429279256e-12,1.618978837e-12,1.862502342e-13,1.847549395e-13,2.183534545e-12,1.728736053e-13,3.473556914e-13,2.542850729e-13,3.280012367e-14
0.98438,6.278697373e-13,3.325474983e-13,1.957143506e-12,3.725405146e-13,1.407959060e-13,1.204617309e-12,2.645571802e-12,4.939698050e-13,2.827500359e-13,2.759941247e-12,5.578090570e-12,2.363241272e-12,3.702482371e-12,4.435602653e-12,5.541739437e-12,6.102986401e-12,7.127047784e-12,1.294964529e-11,8.416182891e-12,6.567727075e-12,4.161595517e-12,2.581240433e-12,2.080879539e-12,2.444571796e-12,1.603076198e-12,1.795634626e-13,1.764012219e-13,2.200754768e-12,1.712613186e-13,3.262765350e-13,2.492585706e-13,3.335513715e-14
0.99219,6.104389722e-13,3.278951273e-13,1.936361290e-12,3.693225934e-13,1.426061761e-13,1.213866459e-12,2.589359823e-12,4.789089030e-13,2.758806028e-13,2.738467534e-12,5.520151978e-12,2.274555344e-12,3.276290857e-12,4.309498087e-12,5.446940510e-12,5.965170421e-12,6.908140464e-12,1.275296297e-11,8.293527444e-12,6.355226775e-12,4.107842124e-12,2.557613978e-12,2.068689040e-12,2.438576524e-12,1.574906697e-12,1.736664775e-13,1.695277289e-13,2.195982237e-12,1.692871072e-13,3.068314780e-13,2.434529683e-13,3.404000928e-14
1,5.949195185e-13,3.254906013e-13,1.907773754e-12,3.669944053e-13,1.443075254e-13,1.220971435e-12,2.529878888e-12,4.625201227e-13,2.687153455e-13,2.718457552e-12,5.457490586e-12,2.179605567e-12,2.959371570e-12,4.169263702e-12,5.332095778e-12,5.802127697e-12,6.661602777e-12,1.250812231e-11,8.142377333e-12,6.114738672e-12,4.039428020e-12,2.525957165e-12,2.053759217e-12,2.419184185e-12,1.541336287e-12,1.682193545e-13,1.666499736e-13,2.188499680e-12,1.679315141e-13,2.895410815e-13,2.377370235e-13,3.472230594e-14
1.0078,5.767675355e-13,3.221345430e-13,1.863357819e-12,3.631840912e-13,1.459197944e-13,1.207051611e-12,2.451770232e-12,4.412501029e-13,2.603859286e-13,2.679486831e-12,5.363091796e-12,2.069259692e-12,2.822602233e-12,4.012973216e-12,5.201382446e-12,5.626329455e-12,6.389663239e-12,1.222674610e-11,7.954364248e-12,5.841816570e-12,3.946486533e-12,2.490033597e-12,2.024736305e-12,2.384638183e-12,1.489631964e-12,1.633520171e-13,1.646187403e-13,2.159372829e-12,1.662835076e-13,2.753993451e-13,2.313668293e-13,3.554004755e-14
1.0156,5.590740324e-13,3.173519167e-13,1.805629640e-12,3.587899314e-13,1.473367088e-13,1.179655854e-12,2.363033276e-12,4.182421593e-13,2.513198482e-13,2.632664803e-12,5.250952659e-12,1.952312970e-12,2.877472403e-12,3.844712924e-12,5.053004997e-12,5.435717045e-12,6.099432582e-12,1.191351333e-11,7.735712025e-12,5.547338737e-12,3.835848349e-12,2.449959533e-12,1.983635819e-12,2.337195295e-12,1.423777237e-12,1.576719251e-13,1.583508819e-13,2.114660902e-12,1.630788503e-13,2.644669679e-13,2.247731403e-13,3.641352756e-14
1.0234,5.451679190e-13,3.160118193e-13,1.742135502e-12,3.563690395e-13,1.487990718e-13,1.142982626e-12,2.266670463e-12,3.932298844e-13,2.419412442e-13,2.576031603e-12,5.119650244e-12,1.830329015e-12,3.072476661e-12,3.667859704e-12,4.893797919e-12,5.235445497e-12,5.795106010e-12,1.157587225e-11,7.495082253e-12,5.239280422e-12,3.710053378e-12,2.407553376e-12,1.934483654e-12,2.279863407e-12,1.349630893e-12,1.510548303e-13,1.524313646e-13,2.056489118e-12,1.610673613e-13,2.583058792e-13,2.179579070e-13,3.717289355e-14
1.0312,5.304432388e-13,3.143402737e-13,1.673306996e-12,3.538313064e-13,1.505026091e-13,1.097107822e-12,2.161371640e-12,3.668319157e-13,2.328490968e-13,2.510400955e-12,4.973176125e-12,1.705681462e-12,3.350237844e-12,3.484543954e-12,4.724317326e-12,5.031045270e-12,5.483571126e-12,1.122287167e-11,7.240645604e-12,4.921379943e-12,3.573555678e-12,2.364078473e-12,1.877804484e-12,2.212499777e-12,1.266411647e-12,1.438562416e-13,1.429486984e-13,1.982600387e-12,1.592544661e-13,2.549777799e-13,2.119189604e-13,3.791928601e-14
1.0391,5.184637103e-13,3.128221632e-13,1.607150845e-12,3.522144552e-13,1.525216003e-13,1.056045473e-12,2.059022938e-12,3.427311626e-13,2.251176538e-13,2.449211881e-12,4.832163744e-12,1.588083996e-12,3.587530274e-12,3.295781751e-12,4.539539809e-12,4.812175737e-12,5.168337019e-12,1.085422457e-11,6.986882919e-12,4.605630149e-12,3.437136736e-12,2.317690249e-12,1.822844214e-12,2.132650252e-12,1.185481879e-12,1.359838995e-13,1.299747850e-13,1.910707581e-12,1.573162696e-13,2.541883174e-13,2.070880890e-13,3.881723842e-14
1.0469,5.097758298e-13,3.133973285e-13,1.544140948e-12,3.513730134e-13,1.550294760e-13,1.009931076e-12,1.954024030e-12,3.186164365e-13,2.184175857e-13,2.376942492e-12,4.678206650e-12,1.471617206e-12,3.720902281e-12,3.101219811e-12,4.347024536e-12,4.586264746e-12,4.852083514e-12,1.047816353e-11,6.734591559e-12,4.295087692e-12,3.295197502e-12,2.272143339e-12,1.764574014e-12,2.038506974e-12,1.105452888e-12,1.282450686e-13,1.167099255e-13,1.830585913e-12,1.565591299e-13,2.580803830e-13,2.021636122e-13,3.989809368e-14
1.0547,5.023618780e-13,3.143409220e-13,1.485035986e-12,3.511662328e-13,1.579730917e-13,9.668019411e-13,1.854250760e-12,2.959575218e-13,2.134125809e-13,2.304854630e-12,4.528332973e-12,1.362717653e-12,3.709293650e-12,2.903997201e-12,4.145304974e-12,4.350766684e-12,4.541509257e-12,1.009470338e-11,6.494301305e-12,3.998186907e-12,3.157369394e-12,2.226754612e-12,1.708852836e-12,1.938215324e-12,1.030296773e-12,1.207885754e-13,1.018681479e-13,1.744967438e-12,1.555107835e-13,2.631582559e-13,1.980742004e-13,4.105480761e-14
1.0625,4.978957553e-13,3.180567209e-13,1.434508675e-12,3.538967273e-13,1.616150842e-13,9.333114715e-13,1.768049806e-12,2.755140744e-13,2.104790648e-13,2.239793991e-12,4.390579801e-12,1.264273594e-12,3.515793897e-12,2.706811405e-12,3.936129049e-12,4.103815068e-12,4.235282170e-12,9.702617820e-12,6.273352646e-12,3.718880605e-12,3.025601957e-12,2.180839924e-12,1.659837331e-12,1.829055029e-12,9.630301283e-13,1.136719101e-13,8.934630495e-14,1.660848606e-12,1.545678485e-13,2.691921465e-13,1.950902400e-13,4.233733169e-14
1.0703,4.966737602e-13,3.232288374e-13,1.389967451e-12,3.583007208e-13,1.660254221e-13,8.989686585e-13,1.689741409e-12,2.560568940e-13,2.095703127e-13,2.174842314e-12,4.258829704e-12,1.173504776e-12,3.184486344e-12,2.513781463e-12,3.728298065e-12,3.858472284e-12,3.940813818e-12,9.313455035e-12,6.071218210e-12,3.459887278e-12,2.900041834e-12,2.137013522e-12,1.613988232e-12,1.717267486e-12,9.004295214e-13,1.071045493e-13,7.813650787e-14,1.574838114e-12,1.543243590e-13,2.785793909e-13,1.927965941e-13,4.385532001e-14
1.0781,5.000531849e-13,3.301504360e-13,1.353734765e-12,3.652808438e-13,1.709732450e-13,8.712091026e-13,1.624677099e-12,2.385739681e-13,2.106353145e-13,2.117971127e-12,4.143835805e-12,1.094209794e-12,2.756624274e-12,2.325367067e-12,3.520900463e-12,3.616791949e-12,3.667887227e-12,8.933340756e-12,5.894381108e-12,3.231587246e-12,2.789201475e-12,2.095956157e-12,1.576038669e-12,1.614303857e-12,8.449678493e-13,1.007515228e-13,6.800843490e-14,1.490570541e-12,1.542643246e-13,2.895486763e-13,1.916631723e-13,4.543699763e-14
1.0859,5.084587894e-13,3.421364094e-13,1.326758113e-12,3.761946046e-13,1.766530090e-13,8.451840243e-13,1.567839116e-12,2.210809034e-13,2.120917713e-13,2.056354770e-12,4.022341424e-12,1.019577872e-12,2.311389866e-12,2.139142153e-12,3.315270943e-12,3.381610120e-12,3.409572074e-12,8.563234956e-12,5.735135765e-12,3.027820028e-12,2.682415270e-12,2.060364993e-12,1.538617190e-12,1.511024030e-12,7.890852219e-13,9.458314028e-14,6.131388094e-14,1.397844911e-12,1.542795932e-13,3.038943724e-13,1.911202452e-13,4.700332831e-14
1.0938,5.200242578e-13,3.563294119e-13,1.307431273e-12,3.894197906e-13,1.829164734e-13,8.201588552e-13,1.516475002e-12,2.042563581e-13,2.138426120e-13,1.995897856e-12,3.902862618e-12,9.527530857e-13,1.924493356e-12,1.959728718e-12,3.114232809e-12,3.153019154e-12,3.166261183e-12,8.199274319e-12,5.591676621e-12,2.846219195e-12,2.584356215e-12,2.028377376e-12,1.504164692e-12,1.412713428e-12,7.340436535e-13,8.842780784e-14,5.575358224e-14,1.302411504e-12,1.537540799e-13,3.211140004e-13,1.917817058e-13,4.865038700e-14
1.1016,5.353290448e-13,3.741863595e-13,1.297909045e-12,4.056626412e-13,1.895838353e-13,8.002401181e-13,1.472126778e-12,1.889176165e-13,2.160287776e-13,1.942036115e-12,3.791917987e-12,8.965590689e-13,1.632252675e-12,1.788610677e-12,2.920113064e-12,2.935149400e-12,2.942298193e-12,7.846920950e-12,5.466215079e-12,2.688372518e-12,2.499135939e-12,2.000591312e-12,1.475902567e-12,1.326743495e-12,6.817692665e-13,8.195786815e-14,5.266817381e-14,1.208295287e-12,1.532897085e-13,3.395031334e-13,1.939038315e-13,5.030298241e-14
1.1094,5.558248953e-13,3.983448934e-13,1.296545302e-12,4.247382224e-13,1.967170502e-13,7.774791363e-13,1.424096005e-12,1.736143174e-13,2.178684604e-13,1.878263370e-12,3.664220445e-12,8.443935236e-13,1.490979949e-12,1.625344391e-12,2.734182266e-12,2.734745582e-12,2.735992190e-12,7.518071173e-12,5.352201877e-12,2.545985085e-12,2.420543324e-12,1.981046435e-12,1.447805095e-12,1.248883119e-12,6.282317512e-13,7.546942295e-14,5.170750321e-14,1.111694770e-12,1.541079383e-13,3.622645793e-13,1.966772886e-13,5.190992844e-14
1.1172,5.799437925e-13,4.277250192e-13,1.304754894e-12,4.467860672e-13,2.040887853e-13,7.605970085e-13,1.375753987e-12,1.599037366e-13,2.195244248e-13,1.815397160e-12,3.532815959e-12,8.003439033e-13,1.501271459e-12,1.472201146e-12,2.556259008e-12,2.547223195e-12,2.548503083e-12,7.209194377e-12,5.251497859e-12,2.418753859e-12,2.352945415e-12,1.968127094e-12,1.422841369e-12,1.179077939e-12,5.766774945e-13,6.930139055e-14,5.237406742e-14,1.018813065e-12,1.557977321e-13,3.876815407e-13,2.007937405e-13,5.352678939e-14
1.125,6.073178755e-13,4.639469141e-13,1.324712081e-12,4.725903309e-13,2.116141362e-13,7.514698655e-13,1.328545682e-12,1.477171556e-13,2.208183772e-13,1.753659248e-12,3.397390201e-12,7.639835125e-13,1.642238696e-12,1.327894189e-12,2.388166957e-12,2.374978287e-12,2.380127943e-12,6.919027548e-12,5.163008419e-12,2.307566330e-12,2.293927774e-12,1.962624582e-12,1.398875118e-12,1.116404731e-12,5.260622350e-13,6.368291993e-14,5.623041103e-14,9.237797044e-13,1.586380457e-13,4.145284977e-13,2.060194208e-13,5.522795724e-14
1.1328,6.363519694e-13,5.036250927e-13,1.350380465e-12,4.993989703e-13,2.190827935e-13,7.409055692e-13,1.276144059e-12,1.364477527e-13,2.222173267e-13,1.689212619e-12,3.255480904e-12,7.335052786e-13,1.870376556e-12,1.192436552e-12,2.226825534e-12,2.216784240e-12,2.232331552e-12,6.646687908e-12,5.086574514e-12,2.211466880e-12,2.247460144e-12,1.961942986e-12,1.379781781e-12,1.064324262e-12,4.803830499e-13,5.915340839e-14,6.027281431e-14,8.331865861e-13,1.625545447e-13,4.444285769e-13,2.121919453e-13,5.701063385e-14
1.1406,6.663554695e-13,5.459916925e-13,1.377748524e-12,5.277509508e-13,2.263171457e-13,7.322558794e-13,1.223434730e-12,1.267092909e-13,2.240596366e-13,1.629064359e-12,3.116205308e-12,7.105861840e-13,2.107051356e-12,1.066492372e-12,2.071725336e-12,2.066435856e-12,2.100548694e-12,6.384515337e-12,5.021216514e-12,2.127391619e-12,2.212054033e-12,1.963012771e-12,1.366265491e-12,1.020526191e-12,4.407620636e-13,5.607349185e-14,6.505675120e-14,7.504043108e-13,1.665023143e-13,4.775251916e-13,2.198376942e-13,5.878154272e-14
1.1484,7.008383360e-13,5.932296081e-13,1.405309986e-12,5.588290252e-13,2.334169045e-13,7.242299287e-13,1.170320621e-12,1.177340156e-13,2.262893662e-13,1.566384225e-12,2.971180119e-12,6.921995038e-13,2.314150038e-12,9.500224824e-13,1.926140314e-12,1.925719412e-12,1.978259977e-12,6.131512551e-12,4.963025352e-12,2.049795620e-12,2.181843961e-12,1.968846697e-12,1.353180251e-12,9.824094041e-13,4.042421567e-13,5.460137100e-14,7.107215964e-14,6.689658737e-13,1.713866279e-13,5.134935070e-13,2.279948638e-13,6.073558217e-14
1.1562,7.366258378e-13,6.399846329e-13,1.431360476e-12,5.906619490e-13,2.403051459e-13,7.143906154e-13,1.119652011e-12,1.098672039e-13,2.299101809e-13,1.510658352e-12,2.836050230e-12,6.818926274e-13,2.432894432e-12,8.439499278e-13,1.788619016e-12,1.793039319e-12,1.868021401e-12,5.883789612e-12,4.918237299e-12,1.981577014e-12,2.165113834e-12,1.976530746e-12,1.346824859e-12,9.560245071e-13,3.761020628e-13,5.454377227e-14,7.604373457e-14,5.968674913e-13,1.765356956e-13,5.501694215e-13,2.368427592e-13,6.290309446e-14
1.1641,7.746023331e-13,6.875165552e-13,1.456916509e-12,6.243865359e-13,2.471164414e-13,7.051205552e-13,1.075379868e-12,1.033141965e-13,2.347173904e-13,1.464428591e-12,2.714396080e-12,6.805501976e-13,2.418252709e-12,7.476070191e-13,1.659970299e-12,1.668178682e-12,1.766896878e-12,5.637052918e-12,4.884146217e-12,1.922615185e-12,2.157728019e-12,1.983715888e-12,1.344822156e-12,9.383133868e-13,3.549045399e-13,5.541068407e-14,8.075935026e-14,5.334165260e-13,1.814031522e-13,5.914942369e-13,2.467491756e-13,6.506051835e-14
1.1719,8.178418487e-13,7.364140220e-13,1.479883189e-12,6.595326703e-13,2.537023191e-13,6.921361050e-13,1.034396872e-12,9.734937639e-14,2.405760676e-13,1.419337867e-12,2.597551619e-12,6.843461904e-13,2.276623176e-12,6.614130249e-13,1.542284486e-12,1.553656251e-12,1.673032097e-12,5.392506887e-12,4.856856883e-12,1.871017331e-12,2.157280286e-12,1.990813019e-12,1.346457055e-12,9.266483332e-13,3.391164255e-13,5.707127946e-14,8.380744208e-14,4.773664950e-13,1.864814399e-13,6.383514109e-13,2.567896826e-13,6.745884626e-14
1.1797,8.647853737e-13,7.851965666e-13,1.502521123e-12,6.963358341e-13,2.597481287e-13,6.805287618e-13,1.002638587e-12,9.273288717e-14,2.473445122e-13,1.383832992e-12,2.496130475e-12,6.965678564e-13,2.021815835e-12,5.859481836e-13,1.434689496e-12,1.449602513e-12,1.588959322e-12,5.149999940e-12,4.837496906e-12,1.829592291e-12,2.164051614e-12,1.996524895e-12,1.350414368e-12,9.219841717e-13,3.289510182e-13,5.876774829e-14,8.678248561e-14,4.298720590e-13,1.912646404e-13,6.879072761e-13,2.669332858e-13,7.009867590e-14
1.1875,9.186667222e-13,8.379054401e-13,1.528677476e-12,7.360000323e-13,2.654196548e-13,6.750127634e-13,9.802749867e-13,8.965725276e-14,2.541860521e-13,1.354531036e-12,2.402298043e-12,7.166208806e-13,1.712369478e-12,5.207727303e-13,1.336213603e-12,1.356178900e-12,1.507895109e-12,4.909713424e-12,4.819087447e-12,1.792806107e-12,2.169676735e-12,2.002288165e-12,1.349987865e-12,9.209103216e-13,3.207573289e-13,5.959741397e-14,9.216654083e-14,3.869856237e-13,1.968013367e-13,7.431891757e-13,2.771689444e-13,7.270129895e-14
1.1953,9.728111364e-13,8.893420697e-13,1.553991422e-12,7.742979527e-13,2.704340087e-13,6.674829778e-13,9.629679054e-13,8.781745563e-14,2.618188429e-13,1.331600977e-12,2.317257723e-12,7.440896041e-13,1.404394035e-12,4.659443567e-13,1.246308854e-12,1.273038150e-12,1.427739599e-12,4.670953299e-12,4.801794989e-12,1.755819273e-12,2.178827260e-12,2.007628170e-12,1.351556488e-12,9.252384500e-13,3.161322862e-13,5.948255557e-14,9.855510688e-14,3.514046151e-13,2.020269571e-13,8.001333382e-13,2.873234794e-13,7.538418028e-14
1.2031,1.026126372e-12,9.410855287e-13,1.581774447e-12,8.120365800e-13,2.745712949e-13,6.648105156e-13,9.544789807e-13,8.770321357e-14,2.694818459e-13,1.317222386e-12,2.243758211e-12,7.793487748e-13,1.146598071e-12,4.202108602e-13,1.164584860e-12,1.200829503e-12,1.352845210e-12,4.437252179e-12,4.781064891e-12,1.717311461e-12,2.187330445e-12,2.013155711e-12,1.350234380e-12,9.356451335e-13,3.120855231e-13,5.802759199e-14,1.079222580e-13,3.227748745e-13,2.074499570e-13,8.590167391e-13,2.973009973e-13,7.820686358e-14
1.2109,1.085822887e-12,9.993659818e-13,1.615802634e-12,8.507271387e-13,2.778635385e-13,6.698956161e-13,9.541537583e-13,8.865552245e-14,2.759662662e-13,1.301844915e-12,2.168725909e-12,8.169104921e-13,9.988265442e-13,3.830290747e-13,1.091257046e-12,1.139471503e-12,1.281264984e-12,4.212819862e-12,4.748833467e-12,1.672960504e-12,2.187292583e-12,2.020313750e-12,1.340225759e-12,9.512191003e-13,3.047680058e-13,5.526641182e-14,1.213035573e-13,2.986755263e-13,2.154400803e-13,9.246064577e-13,3.071716840e-13,8.124295028e-14
1.2188,1.146723019e-12,1.060480975e-12,1.653294345e-12,8.882593516e-13,2.799937802e-13,6.788672137e-13,9.629430180e-13,9.080764798e-14,2.819240553e-13,1.293421941e-12,2.102640681e-12,8.599849147e-13,9.757734280e-13,3.557965455e-13,1.027704523e-12,1.088915788e-12,1.212206912e-12,3.996030386e-12,4.708856548e-12,1.623369680e-12,2.184173152e-12,2.027395297e-12,1.326474826e-12,9.761893931e-13,2.970025363e-13,5.173878859e-14,1.397536637e-13,2.815166731e-13,2.250394223e-13,9.937257405e-13,3.175094471e-13,8.448366015e-14
1.2266,1.209361327e-12,1.125464297e-12,1.693156480e-12,9.258243717e-13,2.810855771e-13,6.955632036e-13,9.784108647e-13,9.428657270e-14,2.870064978e-13,1.290587552e-12,2.044029525e-12,9.089542240e-13,1.072058733e-12,3.387904511e-13,9.730358794e-13,1.048031553e-12,1.147532422e-12,3.789169450e-12,4.659120073e-12,1.567657802e-12,2.174782285e-12,2.034874946e-12,1.305935094e-12,1.009040547e-12,2.868200668e-13,4.781050317e-14,1.629998323e-13,2.692664978e-13,2.369116740e-13,1.064796142e-12,3.283991695e-13,8.799213846e-14
1.2344,1.272352671e-12,1.191464167e-12,1.729363861e-12,9.613879611e-13,2.813114397e-13,7.100440738e-13,9.922734574e-13,9.747031087e-14,2.912779158e-13,1.284160898e-12,1.982825899e-12,9.582606649e-13,1.252234683e-12,3.309831013e-13,9.245191436e-13,1.013031638e-12,1.085395763e-12,3.592956944e-12,4.599930597e-12,1.504729391e-12,2.161372347e-12,2.041403335e-12,1.282536744e-12,1.049578380e-12,2.755035188e-13,4.440254844e-14,1.860775552e-13,2.599481963e-13,2.505607751e-13,1.135720165e-12,3.400966812e-13,9.207209429e-14
1.2422,1.335552166e-12,1.257789809e-12,1.761290075e-12,9.954671490e-13,2.807676330e-13,7.236713746e-13,1.006878275e-12,1.005661386e-13,2.950600256e-13,1.280759734e-12,1.926312430e-12,1.011071953e-12,1.458391265e-12,3.316541360e-13,8.824925764e-13,9.836538239e-13,1.024383417e-12,3.407075058e-12,4.532999658e-12,1.437567419e-12,2.144940969e-12,2.046006861e-12,1.255828848e-12,1.100163307e-12,2.648272401e-13,4.199048856e-14,2.084089765e-13,2.560495027e-13,2.656434806e-13,1.209808522e-12,3.522518895e-13,9.658796632e-14
1.25,1.402389941e-12,1.325349159e-12,1.787829623e-12,1.029066263e-12,2.794696994e-13,7.384939704e-13,1.020494377e-12,1.034858880e-13,2.982120386e-13,1.277574401e-12,1.870626158e-12,1.066971023e-12,1.649476503e-12,3.406726443e-13,8.475466458e-13,9.600538866e-13,9.663505763e-13,3.234521687e-12,4.457121673e-12,1.367745120e-12,2.121947169e-12,2.048815630e-12,1.223678105e-12,1.159157925e-12,2.532189910e-13,4.097513264e-14,2.287272059e-13,2.556779555e-13,2.826437896e-13,1.286123752e-12,3.638647917e-13,1.016487034e-13
1.2578,1.464074725e-12,1.383999900e-12,1.802002967e-12,1.058150407e-12,2.768043186e-13,7.426772794e-13,1.028425771e-12,1.060524119e-13,3.014712847e-13,1.277532594e-12,1.819595423e-12,1.127173889e-12,1.768486528e-12,3.587607014e-13,8.189076276e-13,9.413987218e-13,9.115224221e-13,3.071906188e-12,4.379794094e-12,1.299916713e-12,2.103005442e-12,2.045651757e-12,1.194731838e-12,1.231282577e-12,2.451883057e-13,4.188842675e-14,2.427504148e-13,2.583768213e-13,2.981920663e-13,1.353619452e-12,3.743807521e-13,1.075399183e-13
1.2656,1.523813063e-12,1.434599425e-12,1.805290994e-12,1.084394485e-12,2.728019095e-13,7.420510989e-13,1.032826447e-12,1.088203705e-13,3.046530852e-13,1.282229598e-12,1.773983496e-12,1.192208053e-12,1.785851176e-12,3.866408807e-13,7.965325451e-13,9.299557095e-13,8.599918625e-13,2.919599487e-12,4.301284719e-12,1.236743522e-12,2.087106219e-12,2.036354705e-12,1.166357927e-12,1.317116566e-12,2.405053207e-13,4.434034446e-14,2.504592597e-13,2.647967961e-13,3.123441218e-13,1.414935436e-12,3.825993539e-13,1.140890211e-13
1.2734,1.584358856e-12,1.478097204e-12,1.794823605e-12,1.107658755e-12,2.679292424e-13,7.345094487e-13,1.030818423e-12,1.108966651e-13,3.081026174e-13,1.285044695e-12,1.727240514e-12,1.259749569e-12,1.711798802e-12,4.244315760e-13,7.794834053e-13,9.257784657e-13,8.150655454e-13,2.782613836e-12,4.222824494e-12,1.179321831e-12,2.072433077e-12,2.022382576e-12,1.138082082e-12,1.412830887e-12,2.388886543e-13,4.822862290e-14,2.524202031e-13,2.724711932e-13,3.260392576e-13,1.470932991e-12,3.885763715e-13,1.213758006e-13
1.2812,1.641092795e-12,1.511161458e-12,1.771704193e-12,1.126842760e-12,2.621775868e-13,7.191980251e-13,1.025748626e-12,1.136951792e-13,3.125507000e-13,1.296960723e-12,1.692248493e-12,1.337892796e-12,1.560285226e-12,4.719055684e-13,7.656374096e-13,9.257164831e-13,7.765787401e-13,2.659439799e-12,4.148956723e-12,1.130114468e-12,2.063010821e-12,2.002680071e-12,1.110681062e-12,1.518424744e-12,2.418316491e-13,5.335739539e-14,2.517382780e-13,2.826304223e-13,3.386247795e-13,1.517624535e-12,3.928858263e-13,1.293524445e-13
1.2891,1.695312408e-12,1.536492870e-12,1.743309277e-12,1.142779822e-12,2.557065401e-13,7.035740291e-13,1.020802690e-12,1.177961623e-13,3.172095853e-13,1.316346925e-12,1.665700971e-12,1.425040111e-12,1.371566963e-12,5.275167708e-13,7.533125158e-13,9.283137517e-13,7.422874133e-13,2.548764555e-12,4.075289157e-12,1.087800185e-12,2.054611667e-12,1.977698166e-12,1.081651779e-12,1.633542344e-12,2.472652266e-13,5.944034013e-14,2.521163776e-13,2.935523295e-13,3.510049850e-13,1.558211389e-12,3.952947488e-13,1.377719018e-13
1.2969,1.740768558e-12,1.549744295e-12,1.708071067e-12,1.151843281e-12,2.485980209e-13,6.806724185e-13,1.013963183e-12,1.222918358e-13,3.223052297e-13,1.338748286e-12,1.641618367e-12,1.518277103e-12,1.178613961e-12,5.908142730e-13,7.427419579e-13,9.329187652e-13,7.129173692e-13,2.449562755e-12,4.004007114e-12,1.053380321e-12,2.052040527e-12,1.946721198e-12,1.055696699e-12,1.762452255e-12,2.571637044e-13,6.656552368e-14,2.532831754e-13,3.040803777e-13,3.623293872e-13,1.587410839e-12,3.968914206e-13,1.466101415e-13
1.3047,1.783016579e-12,1.557572857e-12,1.672010216e-12,1.157097393e-12,2.409821616e-13,6.592247554e-13,1.013454963e-12,1.279428661e-13,3.274677682e-13,1.369726133e-12,1.627622381e-12,1.620766241e-12,1.006881394e-12,6.628348991e-13,7.349928797e-13,9.371894537e-13,6.879739390e-13,2.361407517e-12,3.933911417e-12,1.027454510e-12,2.052602454e-12,1.910911668e-12,1.026908726e-12,1.903705832e-12,2.692202747e-13,7.442359745e-14,2.588901224e-13,3.174379376e-13,3.748115138e-13,1.606830477e-12,3.979373904e-13,1.557750312e-13
1.3125,1.825111064e-12,1.565737444e-12,1.639517272e-12,1.160586446e-12,2.333267500e-13,6.431047788e-13,1.019626884e-12,1.340813688e-13,3.321199494e-13,1.403785357e-12,1.618558529e-12,1.728805732e-12,8.860889466e-13,7.431323309e-13,7.297625455e-13,9.405426876e-13,6.688648404e-13,2.286086716e-12,3.862782345e-12,1.009822364e-12,2.053251998e-12,1.871574442e-12,9.937973992e-13,2.053980865e-12,2.825244032e-13,8.312807675e-14,2.700061270e-13,3.334271426e-13,3.898482104e-13,1.623047595e-12,3.990466083e-13,1.652404118e-13
1.3203,1.858468574e-12,1.568080844e-12,1.607420481e-12,1.159102685e-12,2.259052438e-13,6.250656960e-13,1.028962529e-12,1.411442286e-13,3.372429429e-13,1.445856851e-12,1.616782355e-12,1.846713279e-12,8.155590791e-13,8.320209379e-13,7.276666438e-13,9.455395909e-13,6.582410657e-13,2.223149475e-12,3.795848849e-12,1.001824518e-12,2.060586768e-12,1.827975134e-12,9.614909699e-13,2.215126702e-12,2.998567477e-13,9.289404067e-14,2.849354604e-13,3.538315841e-13,4.062919455e-13,1.632015714e-12,4.017896230e-13,1.748158237e-13
1.3281,1.888531375e-12,1.570054404e-12,1.577613457e-12,1.154440897e-12,2.187328199e-13,6.112080761e-13,1.042506101e-12,1.486456559e-13,3.422716613e-13,1.493022603e-12,1.619797265e-12,1.970872133e-12,7.933435142e-13,9.296434132e-13,7.297939093e-13,9.522982147e-13,6.553059463e-13,2.174138298e-12,3.729882190e-12,1.000194623e-12,2.068819584e-12,1.781889693e-12,9.268885328e-13,2.380477579e-12,3.166780742e-13,1.041610378e-13,3.028781677e-13,3.783393636e-13,4.265061511e-13,1.635241922e-12,4.058809806e-13,1.844337178e-13
1.3359,1.913024635e-12,1.570575650e-12,1.549184555e-12,1.145899023e-12,2.118522178e-13,5.971509308e-13,1.056692897e-12,1.550672207e-13,3.470836440e-13,1.536119362e-12,1.616521895e-12,2.093557734e-12,8.100863222e-13,1.033768115e-12,7.340143419e-13,9.589688317e-13,6.597480553e-13,2.139196135e-12,3.665154087e-12,1.003015731e-12,2.078114826e-12,1.733789887e-12,8.930481555e-13,2.546158832e-12,3.310290902e-13,1.175823120e-13,3.187990799e-13,4.014956429e-13,4.493840640e-13,1.634547133e-12,4.116292242e-13,1.942187568e-13
1.3438,1.932945408e-12,1.569143577e-12,1.522782619e-12,1.134742223e-12,2.054954878e-13,5.838563160e-13,1.073055170e-12,1.616239288e-13,3.521443119e-13,1.581814056e-12,1.611294693e-12,2.218894325e-12,8.480623252e-13,1.143725897e-12,7.380851347e-13,9.642649216e-13,6.696917040e-13,2.113234447e-12,3.603283774e-12,1.009727411e-12,2.089457701e-12,1.684014128e-12,8.588936688e-13,2.711416365e-12,3.435916680e-13,1.330385864e-13,3.340607657e-13,4.214989645e-13,4.747316612e-13,1.631562021e-12,4.187228469e-13,2.038018099e-13
1.3516,1.951338619e-12,1.568040358e-12,1.495535368e-12,1.121727697e-12,1.997341249e-13,5.734597802e-13,1.085668767e-12,1.677953734e-13,3.573331817e-13,1.625517531e-12,1.600898744e-12,2.343042481e-12,9.027308826e-13,1.260459375e-12,7.430891625e-13,9.685375362e-13,6.842021358e-13,2.093741153e-12,3.542165636e-12,1.018615478e-12,2.099343714e-12,1.632547933e-12,8.236538526e-13,2.871525734e-12,3.539533822e-13,1.509028804e-13,3.477101628e-13,4.380599750e-13,5.027958858e-13,1.626480574e-12,4.266218373e-13,2.132099473e-13
1.3594,1.959327820e-12,1.559683444e-12,1.461900283e-12,1.103486594e-12,1.946102117e-13,5.573835736e-13,1.088067748e-12,1.734666747e-13,3.636455480e-13,1.665788685e-12,1.582782037e-12,2.463944271e-12,9.561343193e-13,1.382092939e-12,7.484767397e-13,9.723789206e-13,7.045779523e-13,2.079238507e-12,3.484368915e-12,1.030002652e-12,2.111607576e-12,1.577746504e-12,7.925813776e-13,3.024903237e-12,3.639294947e-13,1.716893095e-13,3.575622378e-13,4.517550300e-13,5.310706799e-13,1.616588731e-12,4.364249761e-13,2.227388230e-13
1.3672,1.964738582e-12,1.549472241e-12,1.424752186e-12,1.083234385e-12,1.902985951e-13,5.406715275e-13,1.085394124e-12,1.788647886e-13,3.710578499e-13,1.703189061e-12,1.559344385e-12,2.578788208e-12,1.000297493e-12,1.504712441e-12,7.519692788e-13,9.728455288e-13,7.271693496e-13,2.067225277e-12,3.426401724e-12,1.042084971e-12,2.120864398e-12,1.522163021e-12,7.622594463e-13,3.164956966e-12,3.726507998e-13,1.948302394e-13,3.681060813e-13,4.599800212e-13,5.624663931e-13,1.608604177e-12,4.474939064e-13,2.320814931e-13
1.375,1.968697325e-12,1.537664631e-12,1.382661034e-12,1.061262417e-12,1.867614290e-13,5.222954957e-13,1.076585529e-12,1.834791557e-13,3.801067084e-13,1.733960952e-12,1.528011554e-12,2.685421356e-12,1.031227577e-12,1.628068231e-12,7.549805660e-13,9.701134482e-13,7.509982217e-13,2.057015051e-12,3.369399062e-12,1.055170637e-12,2.126763310e-12,1.467492956e-12,7.334727127e-13,3.289633150e-12,3.800164176e-13,2.193778133e-13,3.777016777e-13,4.612858697e-13,5.966109577e-13,1.603374555e-12,4.596101025e-13,2.410693444e-13
1.3828,1.966347843e-12,1.519717223e-12,1.336300109e-12,1.036688452e-12,1.840919826e-13,5.003595603e-13,1.065775522e-12,1.888403424e-13,3.916666668e-13,1.767082674e-12,1.497488183e-12,2.791612462e-12,1.033841144e-12,1.753326983e-12,7.582517412e-13,9.657241938e-13,7.771513621e-13,2.048169985e-12,3.319004244e-12,1.072682646e-12,2.134083712e-12,1.413647199e-12,7.077585029e-13,3.404526255e-12,3.886506383e-13,2.445259952e-13,3.888682765e-13,4.660633537e-13,6.316356495e-13,1.601631873e-12,4.730168109e-13,2.496008206e-13
1.3906,1.963243285e-12,1.500662990e-12,1.288593379e-12,1.011280954e-12,1.823405860e-13,4.792623990e-13,1.054699371e-12,1.942385860e-13,4.047373538e-13,1.796652575e-12,1.467472310e-12,2.890542527e-12,1.009343701e-12,1.877174432e-12,7.606446506e-13,9.578284336e-13,8.022160978e-13,2.040986261e-12,3.271621938e-12,1.093867301e-12,2.137616206e-12,1.361310784e-12,6.826570731e-13,3.505309408e-12,3.975377463e-13,2.694945792e-13,4.016476318e-13,4.749865089e-13,6.679727849e-13,1.608498480e-12,4.866763471e-13,2.574152708e-13
1.3984,1.957717207e-12,1.478489676e-12,1.237497942e-12,9.830489113e-13,1.813000934e-13,4.548946837e-13,1.039203284e-12,1.992878971e-13,4.192548974e-13,1.818204813e-12,1.434609074e-12,2.977336074e-12,9.611045020e-13,1.996668663e-12,7.633814337e-13,9.484693052e-13,8.263957680e-13,2.033864138e-12,3.223417641e-12,1.115604422e-12,2.135897578e-12,1.309105967e-12,6.592696579e-13,3.587255034e-12,4.050703365e-13,2.939092650e-13,4.147594997e-13,4.806368829e-13,7.040540348e-13,1.623087622e-12,5.007400717e-13,2.643852832e-13
1.4062,1.953770298e-12,1.457641146e-12,1.189571050e-12,9.550060770e-13,1.808965805e-13,4.325487427e-13,1.028807425e-12,2.047001723e-13,4.345192120e-13,1.839175666e-12,1.403945336e-12,3.053813172e-12,9.014018483e-13,2.110555623e-12,7.667588025e-13,9.390690902e-13,8.487185409e-13,2.021421180e-12,3.168994073e-12,1.133708857e-12,2.124322973e-12,1.258478705e-12,6.342000769e-13,3.648998914e-12,4.095302531e-13,3.181299408e-13,4.362048296e-13,4.871183040e-13,7.432066241e-13,1.648464243e-12,5.148282753e-13,2.704538273e-13
1.4141,1.947644273e-12,1.438822014e-12,1.147547696e-12,9.281099392e-13,1.809927744e-13,4.140667950e-13,1.024598936e-12,2.096134449e-13,4.496660021e-13,1.854230321e-12,1.371671659e-12,3.113776030e-12,8.498862013e-13,2.215957365e-12,7.691817219e-13,9.272580549e-13,8.648032091e-13,2.000710538e-12,3.108301534e-12,1.146840709e-12,2.101840328e-12,1.211451948e-12,6.075620198e-13,3.689927005e-12,4.115330361e-13,3.420610384e-13,4.639174677e-13,4.962457743e-13,7.848809147e-13,1.682370683e-12,5.285846754e-13,2.756178345e-13
1.4219,1.934041827e-12,1.416948051e-12,1.107520692e-12,8.994539948e-13,1.815127396e-13,3.952663142e-13,1.022484513e-12,2.147288050e-13,4.649384434e-13,1.865341187e-12,1.340990775e-12,3.160369459e-12,8.161477571e-13,2.312442649e-12,7.705864572e-13,9.126339521e-13,8.766663878e-13,1.973541964e-12,3.046339685e-12,1.156876311e-12,2.074081833e-12,1.167573411e-12,5.823428790e-13,3.710212187e-12,4.137440798e-13,3.654190019e-13,4.955094279e-13,5.064943728e-13,8.256392488e-13,1.724318106e-12,5.423352389e-13,2.798719370e-13
1.4297,1.921140480e-12,1.398620042e-12,1.072260952e-12,8.712235133e-13,1.824158751e-13,3.798027821e-13,1.024958374e-12,2.190619975e-13,4.788145007e-13,1.869542026e-12,1.310859923e-12,3.190184277e-12,8.134716339e-13,2.399859564e-12,7.719915425e-13,8.974348655e-13,8.868785841e-13,1.942889901e-12,2.980919856e-12,1.162782249e-12,2.038307681e-12,1.127665500e-12,5.571976795e-13,3.708117069e-12,4.130665113e-13,3.886487690e-13,5.323570664e-13,5.175410943e-13,8.674961807e-13,1.779977243e-12,5.546685680e-13,2.833419485e-13
1.4375,1.903687470e-12,1.381133075e-12,1.041582123e-12,8.425385170e-13,1.832598500e-13,3.656779794e-13,1.029832605e-12,2.218152065e-13,4.906067129e-13,1.862545996e-12,1.276820049e-12,3.197499022e-12,8.461941374e-13,2.474494012e-12,7.714862981e-13,8.819362440e-13,8.930251931e-13,1.908423122e-12,2.912755227e-12,1.164403149e-12,1.996319196e-12,1.091264292e-12,5.334809377e-13,3.689556335e-12,4.108681448e-13,4.111993805e-13,5.714754205e-13,5.298752744e-13,9.081727643e-13,1.845078033e-12,5.646166365e-13,2.858326206e-13
1.4453,1.881241646e-12,1.362069734e-12,1.013465637e-12,8.131071639e-13,1.837710278e-13,3.548408820e-13,1.038416393e-12,2.243064134e-13,5.003706357e-13,1.853269847e-12,1.244920028e-12,3.186677475e-12,9.019919763e-13,2.533411709e-12,7.672554468e-13,8.629745790e-13,8.931839199e-13,1.867844005e-12,2.840185305e-12,1.161794133e-12,1.947589343e-12,1.057494699e-12,5.093637422e-13,3.655366699e-12,4.088300310e-13,4.317294416e-13,6.123861100e-13,5.476819413e-13,9.459155661e-13,1.918520648e-12,5.717920238e-13,2.871982513e-13
1.4531,1.855252872e-12,1.343421053e-12,9.887013169e-13,7.844044342e-13,1.840103149e-13,3.497210286e-13,1.049138458e-12,2.257940276e-13,5.071524276e-13,1.836332662e-12,1.211855668e-12,3.153251747e-12,9.649810849e-13,2.575021132e-12,7.604066937e-13,8.408415178e-13,8.880918569e-13,1.820354491e-12,2.759896710e-12,1.154891784e-12,1.889127689e-12,1.026095729e-12,4.838281440e-13,3.602427161e-12,4.032773638e-13,4.496092483e-13,6.497322055e-13,5.698226013e-13,9.800191962e-13,1.998146824e-12,5.756023006e-13,2.879551781e-13
1.4609,1.820773749e-12,1.320060196e-12,9.681681636e-13,7.554022277e-13,1.838122864e-13,3.466767240e-13,1.060372499e-12,2.262686530e-13,5.112328112e-13,1.811467528e-12,1.177848749e-12,3.098173983e-12,1.015956919e-12,2.597205434e-12,7.494627663e-13,8.159232078e-13,8.786055340e-13,1.765556186e-12,2.675184333e-12,1.145309571e-12,1.825291013e-12,9.962342645e-13,4.592315974e-13,3.536403075e-12,3.964135917e-13,4.642121019e-13,6.806880165e-13,5.941496848e-13,1.007849264e-12,2.077367579e-12,5.761406968e-13,2.880164108e-13
1.4688,1.787094104e-12,1.295878396e-12,9.518810805e-13,7.276568036e-13,1.830378336e-13,3.478426023e-13,1.075750188e-12,2.256715373e-13,5.124332856e-13,1.782104565e-12,1.145730053e-12,3.024130333e-12,1.046464538e-12,2.599987970e-12,7.346647598e-13,7.873512435e-13,8.639729130e-13,1.704906930e-12,2.583374285e-12,1.130740641e-12,1.752639354e-12,9.682573518e-13,4.335191610e-13,3.455445493e-12,3.876101500e-13,4.753447809e-13,7.091519851e-13,6.225550386e-13,1.031579728e-12,2.160122384e-12,5.727453130e-13,2.871994965e-13
1.4766,1.751095567e-12,1.270376396e-12,9.394916403e-13,7.006150029e-13,1.817069960e-13,3.536769963e-13,1.095102856e-12,2.242005336e-13,5.105251390e-13,1.746142382e-12,1.115689854e-12,2.931897305e-12,1.058741045e-12,2.587095146e-12,7.186415190e-13,7.572720188e-13,8.435545994e-13,1.640820790e-12,2.484086097e-12,1.110240527e-12,1.671967512e-12,9.415562690e-13,4.073823118e-13,3.360711876e-12,3.770352173e-13,4.829002401e-13,7.324138937e-13,6.540080781e-13,1.049544423e-12,2.244978094e-12,5.652772823e-13,2.857778868e-13
1.4844,1.708948913e-12,1.239340958e-12,9.330438584e-13,6.735816630e-13,1.798332064e-13,3.650303136e-13,1.120893774e-12,2.229544608e-13,5.060806304e-13,1.710691266e-12,1.092551781e-12,2.827812294e-12,1.052865410e-12,2.560274012e-12,7.007940865e-13,7.269824681e-13,8.181568282e-13,1.574911004e-12,2.379949263e-12,1.084651628e-12,1.587243581e-12,9.149420424e-13,3.817019626e-13,3.256297872e-12,3.680658175e-13,4.866278125e-13,7.513727827e-13,6.884483756e-13,1.060580598e-12,2.324818280e-12,5.541630089e-13,2.835289697e-13
1.4922,1.668394500e-12,1.207212976e-12,9.316069315e-13,6.481728351e-13,1.774477430e-13,3.816456211e-13,1.151269549e-12,2.206282562e-13,4.989073225e-13,1.671571439e-12,1.073705632e-12,2.708782427e-12,1.042874570e-12,2.518605820e-12,6.817226779e-13,6.977208245e-13,7.882754473e-13,1.508139333e-12,2.268638572e-12,1.052566081e-12,1.495522773e-12,8.883436572e-13,3.556305752e-13,3.140011158e-12,3.592419716e-13,4.875098875e-13,7.687494619e-13,7.282768778e-13,1.068513253e-12,2.402469748e-12,5.394016795e-13,2.804362234e-13
1.5,1.625403267e-12,1.172816862e-12,9.371736533e-13,6.242718438e-13,1.746387410e-13,4.011752229e-13,1.187657633e-12,2.174642827e-13,4.894637609e-13,1.630205865e-12,1.060870413e-12,2.578404834e-12,1.041931234e-12,2.464957797e-12,6.622434296e-13,6.697895131e-13,7.540501146e-13,1.440605164e-12,2.153201356e-12,1.015876523e-12,1.400114718e-12,8.616270159e-13,3.307837052e-13,3.018169321e-12,3.522750470e-13,4.859992750e-13,7.823049818e-13,7.751114151e-13,1.071479354e-12,2.480180553e-12,5.218975223e-13,2.765732052e-13
1.5078,1.582768224e-12,1.137875454e-12,9.529377192e-13,6.032356266e-13,1.714537423e-13,4.265299432e-13,1.235800366e-12,2.140397913e-13,4.775127459e-13,1.592700605e-12,1.054859739e-12,2.442371738e-12,1.051916930e-12,2.401830775e-12,6.420614581e-13,6.434426850e-13,7.169919832e-13,1.374649016e-12,2.036127214e-12,9.769187778e-13,1.302800795e-12,8.352312762e-13,3.068859404e-13,2.892901778e-12,3.477968329e-13,4.821411426e-13,7.963016100e-13,8.316239804e-13,1.070177602e-12,2.555369568e-12,5.018504780e-13,2.718942648e-13
1.5156,1.540640589e-12,1.102947007e-12,9.744601035e-13,5.840337598e-13,1.676584829e-13,4.578162479e-13,1.289360230e-12,2.100457930e-13,4.626783137e-13,1.552040353e-12,1.051151967e-12,2.297912397e-12,1.071853767e-12,2.327140534e-12,6.198035313e-13,6.181752127e-13,6.772932687e-13,1.310930383e-12,1.918461765e-12,9.366431575e-13,1.205585040e-12,8.090129676e-13,2.844043592e-13,2.765072456e-12,3.450163549e-13,4.760807708e-13,8.077751407e-13,8.961207328e-13,1.065711909e-12,2.624488288e-12,4.796450300e-13,2.665971656e-13
1.5234,1.495970728e-12,1.065370482e-12,1.003158536e-12,5.660890333e-13,1.635181591e-13,4.946895883e-13,1.347568862e-12,2.064265854e-13,4.458005834e-13,1.511272784e-12,1.051951983e-12,2.149545450e-12,1.084462337e-12,2.240350753e-12,5.938552205e-13,5.914343519e-13,6.346215040e-13,1.248352422e-12,1.803020764e-12,8.957430627e-13,1.111909971e-12,7.822652048e-13,2.639213692e-13,2.641720637e-12,3.448739817e-13,4.673368409e-13,8.131580608e-13,9.680569588e-13,1.056705687e-12,2.689819101e-12,4.564657788e-13,2.606045237e-13
1.5312,1.453843233e-12,1.029524009e-12,1.039327404e-12,5.517200454e-13,1.594836407e-13,5.355429335e-13,1.410219972e-12,2.022492914e-13,4.266574164e-13,1.470790461e-12,1.055358730e-12,1.998592528e-12,1.079122497e-12,2.145163191e-12,5.672138114e-13,5.646445142e-13,5.908532182e-13,1.190067661e-12,1.689993052e-12,8.549611451e-13,1.020244299e-12,7.551353201e-13,2.452546590e-13,2.522701196e-12,3.457300979e-13,4.565094750e-13,8.172290609e-13,1.052141023e-12,1.045547721e-12,2.751693817e-12,4.321629276e-13,2.541348214e-13
1.5391,1.407909512e-12,9.925247847e-13,1.080773155e-12,5.394502857e-13,1.552529721e-13,5.806782156e-13,1.476148417e-12,1.980651430e-13,4.057837002e-13,1.432170256e-12,1.064271838e-12,1.847628593e-12,1.049812963e-12,2.044954673e-12,5.416168167e-13,5.393836375e-13,5.475257142e-13,1.139271266e-12,1.582334869e-12,8.169070072e-13,9.337631410e-13,7.282128639e-13,2.288848203e-13,2.411548555e-12,3.479407122e-13,4.433257205e-13,8.158701236e-13,1.141545678e-12,1.030331918e-12,2.798080143e-12,4.070048636e-13,2.474333422e-13
1.5469,1.361216923e-12,9.545465154e-13,1.131521036e-12,5.298701762e-13,1.510915992e-13,6.339559744e-13,1.550760599e-12,1.949502336e-13,3.839983132e-13,1.401571746e-12,1.081090480e-12,1.701700262e-12,9.908810069e-13,1.941238384e-12,5.169520681e-13,5.166731437e-13,5.061982849e-13,1.096941507e-12,1.480819851e-12,7.802443405e-13,8.523839736e-13,7.018860764e-13,2.129208943e-13,2.311419571e-12,3.507410420e-13,4.274954887e-13,8.117830114e-13,1.231132554e-12,1.012010600e-12,2.831874803e-12,3.821281942e-13,2.403439289e-13
1.5547,1.319010030e-12,9.195442254e-13,1.188733672e-12,5.241139079e-13,1.475322847e-13,6.918184147e-13,1.626611508e-12,1.917866568e-13,3.611940514e-13,1.371522381e-12,1.097884945e-12,1.560013321e-12,9.129457902e-13,1.836952081e-12,4.941653315e-13,4.969965463e-13,4.659437663e-13,1.061968844e-12,1.382790215e-12,7.410758383e-13,7.726279255e-13,6.750872960e-13,1.967176359e-13,2.217597649e-12,3.509424514e-13,4.104620999e-13,8.068257267e-13,1.323590620e-12,9.944762281e-13,2.856689295e-12,3.585253656e-13,2.330992986e-13
1.5625,1.276116483e-12,8.844944535e-13,1.250755479e-12,5.210849160e-13,1.444088377e-13,7.545598550e-13,1.702002287e-12,1.892696527e-13,3.379161145e-13,1.342691352e-12,1.114039943e-12,1.424282736e-12,8.241201137e-13,1.735054662e-12,4.727877857e-13,4.800614351e-13,4.252158943e-13,1.033259704e-12,1.287714854e-12,6.994339008e-13,6.958151191e-13,6.475147487e-13,1.807222770e-13,2.131033646e-12,3.502344794e-13,3.922995821e-13,7.989906429e-13,1.415221466e-12,9.772955485e-13,2.864454794e-12,3.364637420e-13,2.258456486e-13
1.5703,1.237056925e-12,8.520696667e-13,1.317651075e-12,5.215430738e-13,1.416627453e-13,8.226907493e-13,1.781950885e-12,1.873606734e-13,3.143044418e-13,1.317709924e-12,1.130705185e-12,1.294162548e-12,7.420821063e-13,1.637058250e-12,4.537604951e-13,4.678377906e-13,3.867948101e-13,1.011764153e-12,1.195084090e-12,6.563029305e-13,6.223158502e-13,6.200936535e-13,1.649932097e-13,2.055176915e-12,3.513705396e-13,3.735658371e-13,7.957538337e-13,1.509280847e-12,9.621338525e-13,2.866884956e-12,3.157771378e-13,2.186247461e-13
1.5781,1.200792714e-12,8.229229598e-13,1.388253524e-12,5.251424581e-13,1.393440880e-13,8.964265998e-13,1.863573442e-12,1.860617870e-13,2.908913208e-13,1.295055276e-12,1.149818468e-12,1.170596063e-12,6.818616757e-13,1.543506631e-12,4.367198024e-13,4.593179103e-13,3.513053508e-13,9.985801410e-13,1.106844940e-12,6.119789026e-13,5.536526028e-13,5.932451971e-13,1.500522355e-13,1.988544791e-12,3.540749141e-13,3.552228550e-13,7.937010154e-13,1.605933827e-12,9.485648431e-13,2.867882262e-12,2.974325389e-13,2.114950493e-13
1.5859,1.169324527e-12,7.976168217e-13,1.467148384e-12,5.327098377e-13,1.377204606e-13,9.790165144e-13,1.951405132e-12,1.860415108e-13,2.682793850e-13,1.278480152e-12,1.173520449e-12,1.055565698e-12,6.463563712e-13,1.455173049e-12,4.213155099e-13,4.548744293e-13,3.187426160e-13,9.961791639e-13,1.025118847e-12,5.677497796e-13,4.905729922e-13,5.682149290e-13,1.356794491e-13,1.927806352e-12,3.597473011e-13,3.373300797e-13,7.936811675e-13,1.701564516e-12,9.378858078e-13,2.862218189e-12,2.820596121e-13,2.041755289e-13
1.5938,1.147757664e-12,7.800245639e-13,1.550238822e-12,5.448723960e-13,1.370819707e-13,1.063136957e-12,2.042697914e-12,1.863097154e-13,2.463841620e-13,1.262959824e-12,1.196032311e-12,9.473550378e-13,6.413789875e-13,1.375836940e-12,4.104746454e-13,4.561951535e-13,2.905086075e-13,1.004802378e-12,9.505416949e-13,5.252163080e-13,4.328123155e-13,5.452466052e-13,1.229621009e-13,1.876064673e-12,3.687400695e-13,3.209023009e-13,8.005384125e-13,1.802158823e-12,9.334083265e-13,2.857278510e-12,2.696889688e-13,1.967445766e-13
1.6016,1.131764589e-12,7.684558818e-13,1.635053873e-12,5.609419738e-13,1.372935091e-13,1.151322691e-12,2.132212505e-12,1.878037096e-13,2.257009592e-13,1.249100902e-12,1.218954606e-12,8.478876379e-13,6.599095474e-13,1.308207870e-12,4.052604394e-13,4.633546886e-13,2.662516966e-13,1.024006361e-12,8.839114150e-13,4.852330320e-13,3.818832576e-13,5.243261963e-13,1.121132288e-13,1.839375021e-12,3.805764812e-13,3.060036990e-13,8.116087094e-13,1.909613365e-12,9.338984411e-13,2.852678602e-12,2.606170455e-13,1.894120153e-13
1.6094,1.123512989e-12,7.626539979e-13,1.723163301e-12,5.807425586e-13,1.381337538e-13,1.245426611e-12,2.221286713e-12,1.909247441e-13,2.062773457e-13,1.239971858e-12,1.243731043e-12,7.583107376e-13,6.959561722e-13,1.252976525e-12,4.062286704e-13,4.781969382e-13,2.472405706e-13,1.054662077e-12,8.245784024e-13,4.486855659e-13,3.366073903e-13,5.061413113e-13,1.022888576e-13,1.812590010e-12,3.956223725e-13,2.920954510e-13,8.300230188e-13,2.023978617e-12,9.386189912e-13,2.847694174e-12,2.544234821e-13,1.821371153e-13
1.6172,1.119917033e-12,7.612071513e-13,1.807051361e-12,6.021533719e-13,1.395594704e-13,1.334765720e-12,2.303547641e-12,1.946327418e-13,1.882778061e-13,1.228997658e-12,1.263728865e-12,6.784024223e-13,7.390403068e-13,1.211592973e-12,4.142283218e-13,4.993683601e-13,2.331278320e-13,1.094172035e-12,7.725742427e-13,4.155805025e-13,2.962123225e-13,4.898198015e-13,9.363433456e-14,1.790133841e-12,4.098326327e-13,2.793926762e-13,8.517525282e-13,2.136462931e-12,9.463779713e-13,2.840743335e-12,2.509668317e-13,1.750536372e-13
1.625,1.119452139e-12,7.637913419e-13,1.886344872e-12,6.258243363e-13,1.419064276e-13,1.422276953e-12,2.379243683e-12,1.993801988e-13,1.721108718e-13,1.217827471e-12,1.280150150e-12,6.086567553e-13,7.745721961e-13,1.183651637e-12,4.284800128e-13,5.252659979e-13,2.220703462e-13,1.140640648e-12,7.276890682e-13,3.849162592e-13,2.611674320e-13,4.754589887e-13,8.585562689e-14,1.777047912e-12,4.235329376e-13,2.681472995e-13,8.773649090e-13,2.240238450e-12,9.584273916e-13,2.831346556e-12,2.505631193e-13,1.682278458e-13
1.6328,1.125553232e-12,7.705681893e-13,1.959943805e-12,6.515245050e-13,1.450325484e-13,1.505877884e-12,2.446546066e-12,2.047956041e-13,1.575160186e-13,1.205762114e-12,1.292658161e-12,5.480773107e-13,7.984237956e-13,1.168524056e-12,4.488008575e-13,5.560619657e-13,2.149528351e-13,1.193201710e-12,6.894424221e-13,3.573285341e-13,2.306451279e-13,4.634260363e-13,7.896081100e-14,1.771447547e-12,4.382620941e-13,2.582979943e-13,9.093018573e-13,2.339603529e-12,9.748738916e-13,2.823032439e-12,2.524005073e-13,1.616431352e-13
1.6406,1.131726274e-12,7.771960924e-13,2.025164260e-12,6.767909503e-13,1.484550091e-13,1.584570054e-12,2.500366113e-12,2.108836499e-13,1.446708347e-13,1.191488338e-12,1.300865891e-12,4.969252201e-13,8.019605550e-13,1.167297328e-12,4.762617752e-13,5.927449501e-13,2.123989916e-13,1.251683826e-12,6.586900353e-13,3.337619036e-13,2.052015029e-13,4.535013683e-13,7.248840632e-14,1.766928230e-12,4.516972760e-13,2.487682847e-13,9.386628471e-13,2.427144730e-12,9.907141105e-13,2.809984147e-12,2.553352617e-13,1.553050605e-13
1.6484,1.138071958e-12,7.841848439e-13,2.086392157e-12,7.023127087e-13,1.522714033e-13,1.661929903e-12,2.545043407e-12,2.175880326e-13,1.337432972e-13,1.178674513e-12,1.308557566e-12,4.549692027e-13,7.841531739e-13,1.180136103e-12,5.107824235e-13,6.351460030e-13,2.138722243e-13,1.315697367e-12,6.352853485e-13,3.142342112e-13,1.853058469e-13,4.463347480e-13,6.646461986e-14,1.766482775e-12,4.656766883e-13,2.391114344e-13,9.654379883e-13,2.502393800e-12,1.005406304e-12,2.792669079e-12,2.590908556e-13,1.492167796e-13
1.6562,1.144163514e-12,7.909339806e-13,2.138544586e-12,7.261544258e-13,1.562592658e-13,1.727994817e-12,2.577238498e-12,2.236448230e-13,1.245936515e-13,1.163424632e-12,1.312587978e-12,4.211077288e-13,7.479393662e-13,1.206098990e-12,5.518857631e-13,6.800146410e-13,2.189559349e-13,1.381166305e-12,6.182511685e-13,2.979226242e-13,1.701670826e-13,4.413549706e-13,6.138572990e-14,1.768734362e-12,4.785346657e-13,2.294651392e-13,9.870680404e-13,2.566332860e-12,1.018209689e-12,2.772454867e-12,2.632971937e-13,1.435210455e-13
1.6641,1.148941773e-12,7.972898160e-13,2.181032977e-12,7.481447032e-13,1.601688217e-13,1.789099480e-12,2.600769106e-12,2.298167712e-13,1.170608104e-13,1.149521373e-12,1.317024889e-12,3.950367165e-13,7.021979239e-13,1.245030180e-12,6.009662709e-13,7.293002313e-13,2.281488962e-13,1.446770552e-12,6.054052998e-13,2.827926206e-13,1.594078226e-13,4.380118280e-13,5.660971724e-14,1.770374312e-12,4.915872055e-13,2.195859616e-13,1.001898360e-12,2.615468354e-12,1.028245037e-12,2.752122015e-12,2.672326222e-13,1.381825803e-13
1.6719,1.156470654e-12,8.059463916e-13,2.219602788e-12,7.698577412e-13,1.640542983e-13,1.850309728e-12,2.624397397e-12,2.364381223e-13,1.106673368e-13,1.140145394e-12,1.325742077e-12,3.758147733e-13,6.682528280e-13,1.296650049e-12,6.582251172e-13,7.839241908e-13,2.417165563e-13,1.511303118e-12,5.946957204e-13,2.684074753e-13,1.525251567e-13,4.360175519e-13,5.260629665e-14,1.774485453e-12,5.090496158e-13,2.099388672e-13,1.015940933e-12,2.658712412e-12,1.036888535e-12,2.738552061e-12,2.707502769e-13,1.330466656e-13
1.6797,1.161050496e-12,8.140118084e-13,2.253509184e-12,7.890038290e-13,1.675017142e-13,1.907042013e-12,2.644487528e-12,2.427480045e-13,1.051378398e-13,1.131185669e-12,1.335798775e-12,3.619470263e-13,6.599371892e-13,1.360145186e-12,7.237933328e-13,8.423816782e-13,2.595365708e-13,1.572618811e-12,5.865329295e-13,2.562385075e-13,1.496690247e-13,4.348172935e-13,4.960887531e-14,1.779507918e-12,5.273151403e-13,2.003667123e-13,1.025301242e-12,2.693125098e-12,1.040914186e-12,2.721511569e-12,2.736905285e-13,1.281287908e-13
1.6875,1.163250512e-12,8.223568300e-13,2.284980730e-12,8.059189100e-13,1.703526120e-13,1.964015414e-12,2.663880390e-12,2.495418128e-13,1.002385010e-13,1.126262711e-12,1.351582690e-12,3.527007525e-13,6.909864103e-13,1.434983349e-12,7.982137139e-13,9.062690921e-13,2.821800440e-13,1.631816329e-12,5.810702418e-13,2.468757076e-13,1.508394698e-13,4.348601425e-13,4.710151790e-14,1.784327664e-12,5.471735361e-13,1.905670512e-13,1.031623273e-12,2.719143899e-12,1.040603874e-12,2.698081546e-12,2.755554816e-13,1.234386339e-13
1.6953,1.166870894e-12,8.319467961e-13,2.310855051e-12,8.198381695e-13,1.727279564e-13,2.013007559e-12,2.683330291e-12,2.566530193e-13,9.578546878e-14,1.124261758e-12,1.373518789e-12,3.482981232e-13,7.669010978e-13,1.519362299e-12,8.797437569e-13,9.717596407e-13,3.088677821e-13,1.685840282e-12,5.775558381e-13,2.392559930e-13,1.548802595e-13,4.358836834e-13,4.533984752e-14,1.789404063e-12,5.703028714e-13,1.814242067e-13,1.040365154e-12,2.745633036e-12,1.038730019e-12,2.677010707e-12,2.767491698e-13,1.190370224e-13
1.7031,1.169622215e-12,8.406911011e-13,2.328361908e-12,8.297739913e-13,1.744793948e-13,2.055630817e-12,2.699030516e-12,2.639375282e-13,9.196470948e-14,1.124652946e-12,1.403364590e-12,3.490645738e-13,8.780256664e-13,1.612539584e-12,9.683335271e-13,1.036368627e-12,3.389092051e-13,1.730822517e-12,5.752277492e-13,2.329544488e-13,1.625042483e-13,4.376601765e-13,4.436222165e-14,1.794043885e-12,5.961528978e-13,1.732091010e-13,1.049806880e-12,2.767220350e-12,1.033530174e-12,2.656801408e-12,2.776070770e-13,1.148966237e-13
1.7109,1.172969339e-12,8.489046553e-13,2.339130719e-12,8.368550061e-13,1.754358954e-13,2.094352363e-12,2.711295401e-12,2.713244703e-13,8.877191717e-14,1.128700575e-12,1.441694848e-12,3.555620757e-13,1.008242850e-12,1.714704906e-12,1.064413475e-12,1.102811717e-12,3.742909419e-13,1.767319610e-12,5.738709099e-13,2.294354206e-13,1.739089930e-13,4.397702956e-13,4.419270925e-14,1.799812018e-12,6.246568279e-13,1.656475559e-13,1.059436557e-12,2.782334821e-12,1.024319530e-12,2.634176025e-12,2.774576740e-13,1.107888265e-13
1.7188,1.171889037e-12,8.523579489e-13,2.338440172e-12,8.379252611e-13,1.753683036e-13,2.114701714e-12,2.715313911e-12,2.772770414e-13,8.609641798e-14,1.131349777e-12,1.481416582e-12,3.676742243e-13,1.127532463e-12,1.823400220e-12,1.166484555e-12,1.169974633e-12,4.144828816e-13,1.795279708e-12,5.745327804e-13,2.289259647e-13,1.872494430e-13,4.410040258e-13,4.476005715e-14,1.803233349e-12,6.510549551e-13,1.584941195e-13,1.064401975e-12,2.792686876e-12,1.010298096e-12,2.607788970e-12,2.762614952e-13,1.067209071e-13
1.7266,1.163825975e-12,8.491154819e-13,2.326465370e-12,8.323772574e-13,1.742612737e-13,2.120694424e-12,2.708667785e-12,2.823195605e-13,8.398822426e-14,1.134202272e-12,1.525507450e-12,3.844649836e-13,1.210341320e-12,1.935984653e-12,1.272663456e-12,1.234798479e-12,4.567170075e-13,1.813670598e-12,5.772002407e-13,2.309376236e-13,2.024256146e-13,4.419117344e-13,4.602454446e-14,1.803121342e-12,6.750626017e-13,1.512624475e-13,1.062058231e-12,2.795400002e-12,9.905802647e-13,2.579230125e-12,2.736436034e-13,1.027983186e-13
1.7344,1.151411078e-12,8.401224930e-13,2.302963500e-12,8.216865592e-13,1.722085548e-13,2.111648188e-12,2.690694399e-12,2.863625978e-13,8.254235604e-14,1.136788504e-12,1.573955778e-12,4.053895774e-13,1.245374321e-12,2.050319362e-12,1.381492161e-12,1.296992810e-12,5.047833820e-13,1.822083863e-12,5.813476409e-13,2.363154008e-13,2.197681021e-13,4.426560803e-13,4.801684206e-14,1.804266421e-12,6.970223551e-13,1.437318533e-13,1.052224740e-12,2.785878325e-12,9.649220078e-13,2.544335861e-12,2.690008749e-13,9.891539656e-14
1.7422,1.132657124e-12,8.241472428e-13,2.266667780e-12,8.052355962e-13,1.691163046e-13,2.085503457e-12,2.660385246e-12,2.883469896e-13,8.169989342e-14,1.137448349e-12,1.622433565e-12,4.293130126e-13,1.230292512e-12,2.164320053e-12,1.492305564e-12,1.357178587e-12,5.597915161e-13,1.821069198e-12,5.873597475e-13,2.447865164e-13,2.395243323e-13,4.424391403e-13,5.067023280e-14,1.807406694e-12,7.143557755e-13,1.357329999e-13,1.031300012e-12,2.766531451e-12,9.334658041e-13,2.498824708e-12,2.632649747e-13,9.505146872e-14
1.75,1.109223900e-12,8.023092942e-13,2.220664701e-12,7.842231441e-13,1.650576336e-13,2.051035942e-12,2.617338657e-12,2.891476588e-13,8.120158649e-14,1.138213813e-12,1.670951162e-12,4.555485266e-13,1.180928959e-12,2.277289537e-12,1.603782980e-12,1.413827271e-12,6.163455127e-13,1.810750089e-12,5.949095205e-13,2.552927101e-13,2.613624481e-13,4.417097476e-13,5.399077368e-14,1.811528397e-12,7.276129557e-13,1.270497115e-13,1.000402931e-12,2.740971270e-12,8.976996862e-13,2.447633942e-12,2.567618783e-13,9.128446546e-14
1.7578,1.079928792e-12,7.741147716e-13,2.162533891e-12,7.580171339e-13,1.601056132e-13,2.002965712e-12,2.562673393e-12,2.882048470e-13,8.099272573e-14,1.137071142e-12,1.717565237e-12,4.844016627e-13,1.122427173e-12,2.389218981e-12,1.716621905e-12,1.468963601e-12,6.761473031e-13,1.792094223e-12,6.042398255e-13,2.680369288e-13,2.844413211e-13,4.406032585e-13,5.782419500e-14,1.814948332e-12,7.350171260e-13,1.175773028e-13,9.576346727e-13,2.703064056e-12,8.561737465e-13,2.385595493e-12,2.490560476e-13,8.749796812e-14
1.7656,1.044944364e-12,7.410879145e-13,2.096490356e-12,7.263579338e-13,1.542743993e-13,1.947109902e-12,2.508426079e-12,2.860290493e-13,8.092141709e-14,1.138480160e-12,1.768389483e-12,5.157353684e-13,1.080833675e-12,2.498902324e-12,1.829226235e-12,1.524132544e-12,7.396108123e-13,1.767422660e-12,6.157621471e-13,2.832864822e-13,3.099531507e-13,4.390251057e-13,6.258939712e-14,1.818990834e-12,7.389642782e-13,1.075881878e-13,9.053418980e-13,2.661370652e-12,8.103050252e-13,2.311151155e-12,2.401987557e-13,8.354428296e-14
1.7734,1.008916313e-12,7.063382335e-13,2.029552579e-12,6.918067859e-13,1.478809742e-13,1.891148587e-12,2.457135037e-12,2.836047368e-13,8.060574909e-14,1.143134725e-12,1.824761492e-12,5.486952070e-13,1.076750100e-12,2.603058262e-12,1.937786151e-12,1.576144889e-12,8.045658766e-13,1.736644593e-12,6.285366772e-13,3.006929743e-13,3.373418393e-13,4.373082044e-13,6.825359119e-14,1.827137135e-12,7.428385647e-13,9.766159473e-14,8.513992866e-13,2.622895094e-12,7.635675968e-13,2.233123609e-12,2.305349268e-13,7.958381053e-14
1.7812,9.716058342e-13,6.700039785e-13,1.960242098e-12,6.554255313e-13,1.412921956e-13,1.832823429e-12,2.403973790e-12,2.801300735e-13,7.993148448e-14,1.147384563e-12,1.882699235e-12,5.819799077e-13,1.113810310e-12,2.699289870e-12,2.044837659e-12,1.627353838e-12,8.742970362e-13,1.701109158e-12,6.429474533e-13,3.205797716e-13,3.656958677e-13,4.356824675e-13,7.454899868e-14,1.837906091e-12,7.445352709e-13,8.795188841e-14,7.941516091e-13,2.582008763e-12,7.152836723e-13,2.151417785e-12,2.208535097e-13,7.579408808e-14
1.7891,9.352967915e-13,6.335922936e-13,1.890395823e-12,6.171937636e-13,1.345898335e-13,1.776255203e-12,2.358153887e-12,2.769596140e-13,7.908521119e-14,1.157027636e-12,1.949771013e-12,6.169914325e-13,1.181782489e-12,2.787341293e-12,2.149579635e-12,1.677816611e-12,9.472520622e-13,1.664783715e-12,6.605368281e-13,3.435840325e-13,3.962314532e-13,4.346951486e-13,8.176965943e-14,1.851386757e-12,7.464933969e-13,7.875035032e-14,7.374712962e-13,2.544534405e-12,6.677975285e-13,2.067114915e-12,2.115456656e-13,7.204212637e-14
