Time,Fp1,AF3,F7,F3,FC1,FC5,T7,C3,CP1,CP5,P7,P3,Pz,PO3,O1,Oz,O2,PO4,P4,P8,CP6,CP2,C4,T8,FC6,FC2,F4,F8,AF4,Fp2,Fz,Cz,
0,1.248639994e-09,8.589651064e-09,2.799860565e-10,5.996751250e-10,6.496643981e-11,8.358831741e-10,5.804874517e-11,1.496788356e-09,1.338265140e-09,3.893713664e-09,2.613852685e-10,9.876719384e-10,1.840305388e-10,2.372637057e-09,5.007052821e-12,7.106212352e-12,1.839038276e-10,6.995190743e-11,2.476452065e-09,7.041315351e-10,3.363832416e-10,1.341123751e-08,6.492268132e-10,1.803664226e-10,9.370237915e-11,7.213976809e-11,6.085991475e-12,9.703640013e-09,1.156841590e-08,1.049928223e-11,2.228857777e-09,3.636540836e-09
0.0078125,1.244989697e-09,8.518326901e-09,2.790587303e-10,5.948127866e-10,6.406451598e-11,8.307775738e-10,5.794394899e-11,1.483743227e-09,1.324661048e-09,3.873792253e-09,2.598103377e-10,9.758451652e-10,1.797999829e-10,2.358636788e-09,4.987816978e-12,7.139874870e-12,1.823568216e-10,6.970746832e-11,2.456707459e-09,6.870660954e-10,3.318276736e-10,1.330082849e-08,6.434578206e-10,1.794492263e-10,9.342626542e-11,7.079381880e-11,5.921079513e-12,9.596055182e-09,1.141836509e-08,1.046978190e-11,2.208958963e-09,3.615442645e-09
0.015625,1.188399206e-09,8.080761956e-09,2.662447486e-10,5.644754324e-10,6.139933598e-11,7.898288459e-10,5.553807386e-11,1.406481316e-09,1.253652225e-09,3.686200666e-09,2.470712720e-10,9.222298805e-10,1.691468499e-10,2.243253501e-09,4.763826251e-12,6.884806642e-12,1.729313927e-10,6.648858447e-11,2.330986775e-09,6.441874301e-10,3.135339184e-10,1.261753523e-08,6.099383267e-10,1.725292163e-10,8.917782186e-11,6.659629943e-11,5.603536912e-12,9.079044878e-09,1.078766107e-08,1.011263822e-11,2.094016217e-09,3.438553565e-09
0.023438,1.092039754e-09,7.352077164e-09,2.443844291e-10,5.138108409e-10,5.726917225e-11,7.207662130e-10,5.148032443e-11,1.277807789e-09,1.136356486e-09,3.368306320e-09,2.254522191e-10,8.345310606e-10,1.526893781e-10,2.048835246e-09,4.371549068e-12,6.411813951e-12,1.572428739e-10,6.098594192e-11,2.121081761e-09,5.784612998e-10,2.837977582e-10,1.147838653e-08,5.542924430e-10,1.611757073e-10,8.190890296e-11,5.994393192e-11,5.148145619e-12,8.228502962e-09,9.762277221e-09,9.505766547e-12,1.903228519e-09,3.140172470e-09
0.03125,9.671893627e-10,6.427627596e-09,2.161433894e-10,4.495390244e-10,5.161068596e-11,6.325465876e-10,4.613507012e-11,1.114640111e-09,9.880640777e-10,2.960519966e-09,1.977579554e-10,7.241821822e-10,1.322530116e-10,1.800413665e-09,3.864717064e-12,5.768896759e-12,1.373057752e-10,5.387276149e-11,1.854453492e-09,4.972091861e-10,2.464469740e-10,1.003269605e-08,4.838309202e-10,1.454459532e-10,7.249617746e-11,5.166173440e-11,4.582903656e-12,7.156381022e-09,8.475665817e-09,8.661747380e-12,1.661614107e-09,2.758635802e-09
0.039062,8.246405375e-10,5.408740301e-09,1.841194541e-10,3.786667615e-10,4.483651979e-11,5.343066303e-10,3.984216782e-11,9.351060231e-10,8.257777185e-10,2.503472112e-09,1.669721680e-10,6.042622413e-10,1.106468380e-10,1.523351247e-09,3.300188147e-12,4.991693857e-12,1.153208728e-10,4.582231429e-11,1.560235562e-09,4.117159967e-10,2.061370254e-10,8.438826054e-09,4.063336881e-10,1.261535478e-10,6.181535677e-11,4.284955271e-11,3.973204789e-12,5.988509489e-09,7.083805998e-09,7.618355288e-12,1.396008329e-09,2.332756020e-09
0.046875,6.788214001e-10,4.395363613e-09,1.514772423e-10,3.081749431e-10,3.787568207e-11,4.358036877e-10,3.328942416e-11,7.570096299e-10,6.655314815e-10,2.042678540e-09,1.361872853e-10,4.865701748e-10,9.009408886e-11,1.245136448e-09,2.735408445e-12,4.168610951e-12,9.346564162e-11,3.765021442e-11,1.267345568e-09,3.305368530e-10,1.668508588e-10,6.853690713e-09,3.293917038e-10,1.058001248e-10,5.094280242e-11,3.438247041e-11,3.384215483e-12,4.839976672e-09,5.722521171e-09,6.499606831e-12,1.132481233e-09,1.904794255e-09
0.054688,5.436652302e-10,3.468779450e-09,1.212132789e-10,2.436987516e-10,3.141142442e-11,3.453508321e-10,2.716161501e-11,5.944362892e-10,5.196491638e-10,1.618578726e-09,1.079594418e-10,3.797533715e-10,7.171677060e-11,9.894110206e-10,2.215148147e-12,3.392806066e-12,7.349603423e-11,3.011721099e-11,9.995668434e-10,2.580566455e-10,1.312795998e-10,5.404422582e-09,2.591215841e-10,8.672501603e-11,4.089356548e-11,2.678301915e-11,2.846133462e-12,3.796120511e-09,4.488554201e-09,5.431519445e-12,8.919070315e-10,1.511213406e-09
0.0625,4.267786438e-10,2.676317547e-09,9.502946492e-11,1.885501689e-10,2.561862882e-11,2.678029180e-10,2.180872946e-11,4.556702510e-10,3.953753464e-10,1.254440682e-09,8.375479403e-11,2.888252281e-10,5.597824351e-11,7.698634481e-10,1.765005857e-12,2.716252972e-12,5.642447269e-11,2.363040338e-11,7.707363554e-10,1.964092799e-10,1.008948424e-10,4.165143864e-09,1.990941790e-10,6.980350841e-11,3.223186919e-11,2.033967540e-11,2.369071357e-12,2.906786320e-09,3.437421157e-09,4.468207982e-12,6.864678492e-10,1.173173993e-09
0.070312,3.290830348e-10,2.027702160e-09,7.319430881e-11,1.433989458e-10,2.055058043e-11,2.040572390e-10,1.724214492e-11,3.425348936e-10,2.943648494e-10,9.542225346e-10,6.389059127e-11,2.150574007e-10,4.318150349e-11,5.888692110e-10,1.395715862e-12,2.142306092e-12,4.244701231e-11,1.824637944e-11,5.835843943e-10,1.466781108e-10,7.621500217e-11,3.151385723e-09,1.500523915e-10,5.507691531e-11,2.503959149e-11,1.515792136e-11,1.958308852e-12,2.184380108e-09,2.584301920e-09,3.616114658e-12,5.186996959e-10,8.945684300e-10
0.078125,2.501429595e-10,1.515982693e-09,5.556083861e-11,1.077642357e-10,1.631832950e-11,1.535153097e-10,1.347529793e-11,2.537729335e-10,2.154533402e-10,7.154467194e-10,4.820541511e-11,1.575311235e-10,3.323516925e-11,4.448345409e-10,1.105949289e-12,1.669979600e-12,3.143357540e-11,1.393664083e-11,4.360798071e-10,1.082041134e-10,5.696693224e-11,2.352377785e-09,1.114504173e-10,4.275249371e-11,1.926743230e-11,1.116913764e-11,1.615507027e-12,1.620149126e-09,1.918434346e-09,2.888603432e-12,3.867153120e-10,6.729430361e-10
0.085938,1.883765243e-10,1.123037485e-09,4.175562096e-11,8.038108335e-11,1.293787689e-11,1.145840012e-10,1.046474693e-11,1.860911513e-10,1.555812552e-10,5.312100133e-10,3.614414021e-11,1.138980846e-10,2.563501311e-11,3.333171540e-10,8.843422002e-13,1.298408619e-12,2.300740071e-11,1.058304212e-11,3.230129995e-10,7.907274207e-11,4.227755357e-11,1.739543311e-09,8.188972357e-11,3.293517015e-11,1.477123093e-11,8.175322472e-12,1.336681366e-12,1.190713016e-09,1.411210893e-09,2.292381444e-12,2.856579820e-10,5.015595185e-10
0.09375,1.413340697e-10,8.281623125e-10,3.125946321e-11,5.982398286e-11,1.025138312e-11,8.533741179e-11,8.120710842e-12,1.356919246e-10,1.111957893e-10,3.927192370e-10,2.707185313e-11,8.146608462e-11,1.984894513e-11,2.490251650e-10,7.196832082e-13,1.017703131e-12,1.670890956e-11,8.036584814e-12,2.383687560e-10,5.713849749e-11,3.123055399e-11,1.280241795e-09,5.977658804e-11,2.529062927e-11,1.136319965e-11,5.950506382e-12,1.105974119e-12,8.704293074e-10,1.031742545e-09,1.818969279e-12,2.099969057e-10,3.722789629e-10
0.10156,1.055472800e-10,6.086638764e-10,2.330923443e-11,4.450445775e-11,8.095410499e-12,6.349428553e-11,6.291188594e-12,9.850740287e-11,7.865207490e-11,2.892639212e-10,2.029837544e-11,5.762846977e-11,1.550964866e-11,1.856644945e-10,6.000506550e-13,8.036012750e-13,1.204478986e-11,6.108672310e-12,1.754841780e-10,4.081519840e-11,2.302347776e-11,9.388406041e-10,4.337691332e-11,1.934646751e-11,8.785335726e-12,4.311812169e-12,9.103113793e-13,6.339480663e-10,7.509177639e-10,1.441670238e-12,1.538282931e-10,2.753956346e-10
0.10938,7.825376540e-11,4.457254062e-10,1.727389536e-11,3.311701030e-11,6.381382345e-12,4.719020912e-11,4.855741419e-12,7.121104760e-11,5.499153021e-11,2.120293769e-10,1.523338819e-11,4.027203606e-11,1.228975044e-11,1.380230549e-10,5.129810812e-13,6.378758536e-13,8.613801649e-12,4.645328999e-12,1.288744842e-10,2.883930421e-11,1.695582827e-11,6.858060736e-10,3.126730857e-11,1.473860218e-11,6.815997562e-12,3.119458874e-12,7.470500747e-13,4.602130934e-10,5.443838983e-10,1.139858399e-12,1.122979632e-10,2.028004505e-10
0.11719,5.756536118e-11,3.251041979e-10,1.272370152e-11,2.466649793e-11,5.049952266e-12,3.503960965e-11,3.732629722e-12,5.126136103e-11,3.791289056e-11,1.545210197e-10,1.144480365e-11,2.773569872e-11,9.908421838e-12,1.022565764e-10,4.496651563e-13,5.107190188e-13,6.102555641e-12,3.534989123e-12,9.442412488e-11,2.016352354e-11,1.248527300e-11,4.988436019e-10,2.237122485e-11,1.119104293e-11,5.311251571e-12,2.251888147e-12,6.140274385e-13,3.329874834e-10,3.930793714e-10,9.017240709e-13,8.167604906e-11,1.485687070e-10
0.125,4.203685993e-11,2.358919669e-10,9.331569035e-12,1.838769781e-11,4.031604050e-12,2.599863824e-11,2.865236940e-12,3.672353368e-11,2.565827957e-11,1.118726365e-10,8.612977630e-12,1.872013861e-11,8.120773339e-12,7.548969065e-11,4.036873319e-13,4.127689914e-13,4.272214962e-12,2.696230813e-12,6.896632179e-11,1.386553084e-11,9.187445807e-12,3.608924796e-10,1.585606590e-11,8.485566280e-12,4.165903643e-12,1.615419244e-12,5.063524273e-13,2.397286663e-10,2.820353436e-10,7.197481475e-13,5.909970512e-11,1.082297761e-10
0.13281,3.038551002e-11,1.698962177e-10,6.775663871e-12,1.367223947e-11,3.240726182e-12,1.925504482e-11,2.205787021e-12,2.614347298e-11,1.698555429e-11,8.036692806e-11,6.506241467e-12,1.229192147e-11,6.727648959e-12,5.541034354e-11,3.723461119e-13,3.382993055e-13,2.941096089e-12,2.056720003e-12,5.013876784e-11,9.325830752e-12,6.760056264e-12,2.589939608e-10,1.109420548e-11,6.410562472e-12,3.280142273e-12,1.154642724e-12,4.185201735e-13,1.712648194e-10,2.005254205e-10,5.845006967e-13,4.246934181e-11,7.816498193e-11
0.14062,2.181701458e-11,1.220115578e-10,4.946432896e-12,1.023828037e-11,2.605138974e-12,1.429778433e-11,1.708367943e-12,1.859548008e-11,1.096533174e-11,5.741565151e-11,4.931485649e-12,7.860316483e-12,5.692339313e-12,4.060470923e-11,3.503258480e-13,2.811582542e-13,2.009041796e-12,1.573750905e-12,3.644349625e-11,6.116052314e-12,4.980509740e-12,1.853248446e-10,7.702675007e-12,4.792666526e-12,2.605467035e-12,8.199188044e-13,3.458182514e-13,1.220210873e-10,1.419170262e-10,4.850271059e-13,3.041303245e-11,5.631442796e-11
0.14844,1.545344256e-11,8.695848036e-11,3.574507635e-12,7.649130783e-12,2.092252451e-12,1.060756622e-11,1.339715873e-12,1.317552556e-11,6.853093370e-12,4.068294935e-11,3.765005013e-12,4.832101179e-12,4.882339489e-12,2.953386226e-11,3.376362453e-13,2.384762654e-13,1.351695310e-12,1.198867572e-12,2.639316875e-11,3.861200101e-12,3.691621059e-12,1.314971814e-10,5.275923994e-12,3.696461123e-12,2.077926687e-12,5.742727603e-13,2.885755346e-13,8.628311798e-11,9.944055410e-11,4.037589231e-13,2.159823987e-11,4.022385569e-11
0.15625,1.082230473e-11,6.144634301e-11,2.609045075e-12,5.728897937e-12,1.698595738e-12,7.874544957e-12,1.060286166e-12,9.328659881e-12,4.107664863e-12,2.843143897e-11,2.894952517e-12,2.835380787e-12,4.205753902e-12,2.138758591e-11,3.298156383e-13,2.021570019e-13,9.012931416e-13,9.150688509e-13,1.902532848e-11,2.354936187e-12,2.759366695e-12,9.252061820e-11,3.557907030e-12,2.862887968e-12,1.672128926e-12,4.008318325e-13,2.442459495e-13,6.058923625e-11,6.892375373e-11,3.472234524e-13,1.521528534e-11,2.855741894e-11
0.16406,7.475168892e-12,4.290062346e-11,1.937340363e-12,4.293931423e-12,1.407321557e-12,5.814381490e-12,8.465597135e-13,6.555924833e-12,2.279577443e-12,1.954573035e-11,2.246874510e-12,1.540599920e-12,3.628750708e-12,1.527269758e-11,3.296226789e-13,1.739473849e-13,5.891848784e-13,7.015843739e-13,1.363822831e-11,1.380744127e-12,2.106109788e-12,6.425306364e-11,2.369135089e-12,2.125943902e-12,1.351172609e-12,2.758391857e-13,2.087046218e-13,4.195864765e-11,4.699411815e-11,3.153620377e-13,1.055225772e-11,2.007059638e-11
0.17188,5.091075444e-12,2.973488753e-11,1.482346224e-12,3.223545207e-12,1.195502882e-12,4.323656440e-12,6.758445779e-13,4.679123173e-12,1.215753308e-12,1.330501378e-11,1.775281484e-12,7.883660266e-13,3.084087761e-12,1.084149018e-11,3.337746502e-13,1.525564612e-13,4.045250091e-13,5.431155233e-13,9.790175049e-12,8.220242008e-13,1.638540455e-12,4.434654150e-11,1.545006299e-12,1.527571250e-12,1.107567354e-12,2.023514002e-13,1.812610346e-13,2.904345396e-11,3.180762492e-11,2.965841564e-13,7.285503089e-12,1.408570927e-11
0.17969,3.418549188e-12,2.040265781e-11,1.160928546e-12,2.421836298e-12,1.003112500e-12,3.215113201e-12,5.553543260e-13,3.375746948e-12,6.098057403e-13,8.942723896e-12,1.439354101e-12,3.870600771e-13,2.623923317e-12,7.617667992e-12,3.447329901e-13,1.424530448e-13,2.945185164e-13,4.232022612e-13,7.022665352e-12,5.260696966e-13,1.311521189e-12,3.028945001e-11,9.977454154e-13,1.158625466e-12,9.142246698e-13,1.670912241e-13,1.660044784e-13,1.997268847e-11,2.119317676e-11,2.772072528e-13,4.999538317e-12,9.850957220e-12
0.1875,2.259764757e-12,1.385224138e-11,9.082988321e-13,1.819031930e-12,8.251245783e-13,2.420977175e-12,4.950418699e-13,2.483577390e-12,3.195865213e-13,5.897187952e-12,1.207381988e-12,1.999938026e-13,2.238073074e-12,5.343101678e-12,3.633908737e-13,1.412970248e-13,2.351541307e-13,3.341993136e-13,5.054820902e-12,4.566049027e-13,1.092684935e-12,2.046265122e-11,6.311878629e-13,9.783590399e-13,7.694648079e-13,1.619271837e-13,1.633085912e-13,1.370916419e-11,1.396809373e-11,2.609476968e-13,3.400264953e-12,6.877820656e-12
0.19531,1.431091282e-12,8.921225957e-12,7.396404237e-13,1.341771738e-12,6.975542038e-13,1.791218152e-12,4.421063864e-13,1.863287765e-12,2.124197669e-13,3.652461642e-12,1.034269522e-12,1.691081222e-13,1.908190088e-12,3.641148029e-12,3.917535347e-13,1.460134149e-13,2.042002139e-13,2.693733510e-13,3.430891228e-12,3.877102834e-13,1.004614022e-12,1.339983823e-11,3.799913714e-13,8.301200217e-13,6.480013420e-13,1.668257313e-13,1.662593053e-13,9.040992924e-12,8.719222185e-12,2.557388129e-13,2.217915391e-12,4.853174022e-12
0.20312,1.044966005e-12,5.955153526e-12,6.564005542e-13,1.038885723e-12,6.091696481e-13,1.411050481e-12,3.833982058e-13,1.497556924e-12,2.293963973e-13,2.338883294e-12,9.226614365e-13,1.693548149e-13,1.614248986e-12,2.558362750e-12,4.242203093e-13,1.518171187e-13,2.260775303e-13,2.415697260e-13,2.564509812e-12,4.657900938e-13,9.214430940e-13,8.991683868e-12,2.353799336e-13,6.714980024e-13,5.839930512e-13,1.977374305e-13,1.688956648e-13,6.216820962e-12,5.617257274e-12,2.635718217e-13,1.529950751e-12,3.527001205e-12
0.21094,7.347337786e-13,3.815143046e-12,6.385781558e-13,7.652314483e-13,5.506700142e-13,1.082397084e-12,3.114769038e-13,1.178767585e-12,2.866175553e-13,1.445219286e-12,8.682172578e-13,2.341655388e-13,1.310847364e-12,1.766425864e-12,4.634708418e-13,1.639324745e-13,2.519220496e-13,2.117243479e-13,1.860501785e-12,6.270480082e-13,8.844598642e-13,5.808217337e-12,1.503069585e-13,6.215765271e-13,5.247819812e-13,2.289131496e-13,1.749045917e-13,4.244065213e-12,3.478962620e-12,2.575189196e-13,1.007033094e-12,2.757830156e-12
0.21875,5.005786703e-13,2.432633351e-12,5.653019982e-13,5.810530584e-13,5.037921182e-13,8.545227019e-13,2.683485336e-13,9.780070827e-13,3.632234719e-13,8.633009311e-13,8.320737424e-13,2.804844736e-13,1.045171216e-12,1.235304886e-12,5.016070804e-13,1.834948337e-13,2.703952278e-13,1.943208017e-13,1.394644387e-12,8.887492626e-13,8.555961626e-13,3.716699039e-12,1.077749268e-13,6.589558174e-13,4.657407154e-13,2.783925662e-13,1.921527724e-13,2.898354085e-12,2.122964313e-12,2.369837867e-13,6.903653782e-13,2.157401470e-12
0.22656,4.002400898e-13,1.549524799e-12,4.721241764e-13,4.529641178e-13,4.643542791e-13,6.959060433e-13,2.490179598e-13,8.359754638e-13,4.341778814e-13,5.209406298e-13,8.101013158e-13,3.285443857e-13,8.222506951e-13,8.853853062e-13,5.356876236e-13,2.049435475e-13,2.822873146e-13,1.930647069e-13,1.087048303e-12,1.118943736e-12,8.446675774e-13,2.393315911e-12,8.791276037e-14,6.903365296e-13,4.168719476e-13,3.269305240e-13,2.130150373e-13,2.034889754e-12,1.260435136e-12,2.149871276e-13,4.912173608e-13,1.735094353e-12
0.23438,4.825758413e-13,1.002800996e-12,3.911620364e-13,3.782866693e-13,4.622661061e-13,6.172684978e-13,2.388573456e-13,7.707105180e-13,4.971244226e-13,3.477930780e-13,7.778352059e-13,3.581147217e-13,6.462327252e-13,6.848311663e-13,5.586270824e-13,2.163774750e-13,3.045903114e-13,2.114231142e-13,9.204752677e-13,1.210499910e-12,8.501923954e-13,1.567840160e-12,7.249494454e-14,7.395281785e-13,3.926646185e-13,3.667264310e-13,2.270106509e-13,1.437336214e-12,7.303944048e-13,2.011879252e-13,4.019379727e-13,1.394712982e-12
0.24219,5.656635307e-13,6.596033416e-13,3.548288602e-13,3.233697508e-13,4.874386995e-13,5.750931460e-13,2.297340682e-13,7.253832108e-13,5.374179363e-13,2.314446128e-13,7.470714789e-13,3.789004660e-13,5.093426449e-13,5.960560094e-13,5.668895981e-13,2.160067749e-13,3.256321666e-13,2.242739876e-13,8.164212055e-13,1.217066975e-12,8.594515136e-13,9.949907250e-13,6.012473554e-14,8.472961241e-13,3.805606411e-13,3.936409258e-13,2.338473044e-13,1.063345197e-12,4.164581530e-13,1.916666011e-13,3.675116692e-13,1.173899858e-12
0.25,5.005943524e-13,4.205056829e-13,3.360787489e-13,2.704363050e-13,4.910167358e-13,5.225214734e-13,2.191899251e-13,6.738641049e-13,5.617435333e-13,1.179914778e-13,7.260228554e-13,3.835591166e-13,4.105342785e-13,5.528544961e-13,5.598187861e-13,2.124547127e-13,3.256601574e-13,2.187016144e-13,6.952069370e-13,1.239802682e-12,8.589335178e-13,5.927774648e-13,5.643692666e-14,9.364337561e-13,3.538666120e-13,4.155955221e-13,2.424854520e-13,8.119475860e-13,2.523327431e-13,1.788469130e-13,3.435959234e-13,1.053577908e-12
0.25781,3.617641303e-13,1.098209348e-13,3.316294339e-13,1.950257400e-13,4.393967279e-13,3.995020810e-13,1.937451964e-13,5.934063681e-13,6.934406349e-13,3.807168082e-14,6.745997723e-13,4.603089436e-13,3.131952207e-13,4.332640038e-13,5.369411659e-13,2.067253141e-13,3.152266800e-13,2.098930918e-13,4.619529223e-13,1.323212267e-12,7.967393024e-13,6.498857496e-14,5.708114782e-14,9.226031474e-13,2.942991133e-13,4.464107268e-13,2.582152254e-13,2.897004758e-13,1.106345596e-13,1.600408156e-13,2.939737955e-13,8.396902879e-13
0.26562,3.707524275e-13,6.340446554e-14,3.374945146e-13,1.617287568e-13,3.498617511e-13,3.357158650e-13,1.984510121e-13,5.478376258e-13,6.943577610e-13,9.357797557e-14,6.622157457e-13,4.571570982e-13,2.418110173e-13,3.999303340e-13,5.010069872e-13,2.014682334e-13,2.880697534e-13,2.047944651e-13,3.681347509e-13,1.446160513e-12,7.391377984e-13,4.403692839e-14,5.516794519e-14,8.241547343e-13,2.620472888e-13,4.662821319e-13,2.667075297e-13,2.651144187e-13,1.347452461e-13,1.418708484e-13,2.760063085e-13,9.105309584e-13
0.27344,4.730463449e-13,6.743514636e-14,3.351220751e-13,1.401306907e-13,2.914901398e-13,3.006237484e-13,2.265416213e-13,4.516092828e-13,5.825600881e-13,1.766206509e-13,6.662776446e-13,3.738592717e-13,2.101765383e-13,5.180967024e-13,4.566442816e-13,1.870163629e-13,2.478563372e-13,2.154304991e-13,2.908968482e-13,1.409465318e-12,7.129142107e-13,1.222834639e-13,6.258325633e-14,8.462364305e-13,2.518100563e-13,4.560378057e-13,2.638468201e-13,2.468397450e-13,1.375535187e-13,1.174852243e-13,2.374107676e-13,1.055896163e-12
0.28125,4.801979977e-13,8.146713436e-14,2.996093432e-13,1.315196011e-13,2.867858867e-13,2.923847557e-13,2.476639149e-13,4.090690202e-13,5.277796316e-13,1.809312933e-13,6.296529816e-13,3.234878134e-13,1.898486177e-13,5.920308770e-13,4.026444420e-13,1.649105597e-13,2.184232993e-13,2.214297675e-13,2.486092834e-13,1.333551940e-12,6.765586017e-13,1.516997539e-13,6.605465256e-14,9.494581586e-13,2.354859138e-13,4.308001886e-13,2.556014089e-13,2.561477571e-13,1.249464594e-13,9.442921444e-14,2.378593829e-13,9.987087558e-13
0.28906,3.730830193e-13,1.041661955e-13,2.726776859e-13,1.235481205e-13,2.991551909e-13,2.690569902e-13,2.412630579e-13,3.641741812e-13,4.747139020e-13,1.576729916e-13,5.758203996e-13,2.783855267e-13,1.895459377e-13,5.895167648e-13,3.441621295e-13,1.421708411e-13,1.901654134e-13,2.212386292e-13,2.299757290e-13,1.222463390e-12,6.384796798e-13,1.327833328e-13,7.243079885e-14,9.896564878e-13,2.065803226e-13,3.980238041e-13,2.497505519e-13,3.001380975e-13,9.880883904e-14,8.076748182e-14,2.474113837e-13,8.311027473e-13
0.29688,2.605778497e-13,1.356222349e-13,2.744386662e-13,1.125040896e-13,2.990920429e-13,2.243074483e-13,2.136178604e-13,3.131872959e-13,4.472328573e-13,1.962912392e-13,5.189907305e-13,2.523054483e-13,2.087210432e-13,5.327200762e-13,2.887583418e-13,1.233507411e-13,1.694429300e-13,2.219816494e-13,1.981794286e-13,1.076205626e-12,5.940682641e-13,1.011320091e-13,7.765909778e-14,9.599424069e-13,1.719137291e-13,3.707070013e-13,2.506552223e-13,2.992249226e-13,8.818297659e-14,7.339727411e-14,2.521296413e-13,6.682084965e-13
0.30469,2.056303063e-13,1.428994205e-13,2.898485654e-13,1.040801726e-13,2.733293487e-13,1.921606313e-13,1.958876264e-13,2.665434362e-13,4.109238009e-13,2.369784321e-13,4.723698032e-13,2.276092948e-13,2.354151902e-13,4.724303160e-13,2.376912234e-13,1.097277376e-13,1.519079392e-13,2.206120404e-13,1.638237175e-13,9.492877051e-13,5.391402354e-13,9.821044257e-14,8.065490069e-14,8.824295515e-13,1.495681342e-13,3.542540406e-13,2.569897720e-13,3.172447082e-13,7.819201764e-14,6.627331993e-14,2.354849853e-13,6.199528203e-13
0.3125,1.976884973e-13,1.084432887e-13,2.970034167e-13,9.271802818e-14,2.317079564e-13,1.703018650e-13,1.999442092e-13,2.230131274e-13,3.668223964e-13,2.109059919e-13,4.395326356e-13,1.974352430e-13,2.660708065e-13,4.586990429e-13,1.905994771e-13,9.914256248e-14,1.379883713e-13,2.235910178e-13,1.150054994e-13,8.568937927e-13,4.834824284e-13,1.085782595e-13,8.403881454e-14,7.847420520e-13,1.445199789e-13,3.430033643e-13,2.622654071e-13,3.422103945e-13,7.519386359e-14,5.936625531e-14,1.968911068e-13,6.569410217e-13
0.32031,1.996413563e-13,7.179260010e-14,2.809401367e-13,8.195337901e-14,1.919819538e-13,1.504948682e-13,2.141684729e-13,1.963130510e-13,3.372647956e-13,1.558670966e-13,4.039666017e-13,1.776008492e-13,2.937037245e-13,4.462963702e-13,1.489031178e-13,9.036100902e-14,1.309648869e-13,2.318716706e-13,8.585555376e-14,8.167821970e-13,4.233517459e-13,1.278028933e-13,9.295982407e-14,6.930721694e-13,1.445922348e-13,3.304815769e-13,2.605128195e-13,3.886182192e-13,6.297422396e-14,5.587254440e-14,1.710976992e-13,6.718002973e-13
0.32812,1.971455587e-13,5.706052919e-14,2.547544732e-13,7.490696379e-14,1.736829621e-13,1.281111897e-13,2.235211324e-13,1.768930452e-13,3.191151082e-13,1.456361743e-13,3.673795875e-13,1.645317516e-13,3.235917906e-13,4.377484704e-13,1.152696070e-13,8.240191272e-14,1.284635854e-13,2.459884065e-13,6.734761996e-14,8.009705097e-13,3.755141604e-13,1.473152514e-13,1.091107225e-13,6.671683466e-13,1.410785424e-13,3.113532359e-13,2.515068333e-13,4.366659382e-13,5.003336018e-14,5.419319347e-14,1.569269436e-13,6.414661757e-13
0.33594,2.078836345e-13,6.529052694e-14,2.443119871e-13,7.808448196e-14,1.745803939e-13,1.192854043e-13,2.279860393e-13,1.668501787e-13,3.188047479e-13,1.818474816e-13,3.221067057e-13,1.593344455e-13,3.441451142e-13,4.369516832e-13,8.917637687e-14,7.560702460e-14,1.279470151e-13,2.604615731e-13,5.142363295e-14,8.193542861e-13,3.343315887e-13,1.802521592e-13,1.281427763e-13,6.892778163e-13,1.358727903e-13,2.933875635e-13,2.408732062e-13,4.320975077e-13,5.343139384e-14,5.321160644e-14,1.450588840e-13,5.943618092e-13
0.34375,2.567396640e-13,7.930083667e-14,2.623801280e-13,8.509796298e-14,1.819212986e-13,1.261712674e-13,2.385483957e-13,1.727646199e-13,3.264896958e-13,2.099428595e-13,2.796239310e-13,1.584106871e-13,3.412675081e-13,4.691197823e-13,7.007053946e-14,7.073314203e-14,1.292558693e-13,2.757548499e-13,3.381416554e-14,8.515639298e-13,3.004850232e-13,2.505916854e-13,1.483331912e-13,6.768447099e-13,1.391705814e-13,2.766517428e-13,2.331746381e-13,4.272300798e-13,5.109726313e-14,5.389810228e-14,1.176173598e-13,5.902400492e-13
0.35156,3.136153164e-13,9.623724825e-14,2.854612730e-13,8.939435404e-14,1.962658830e-13,1.320152552e-13,2.524713763e-13,1.925927584e-13,3.469484979e-13,2.109846444e-13,2.413372596e-13,1.611309680e-13,3.260649488e-13,5.030873084e-13,5.608411432e-14,6.678448934e-14,1.358555651e-13,2.931621045e-13,2.168262147e-14,8.465994771e-13,2.688724204e-13,3.115846055e-13,1.632674175e-13,6.258462947e-13,1.508543286e-13,2.575118479e-13,2.293240112e-13,4.150412071e-13,5.600165386e-14,5.651285110e-14,9.023629146e-14,5.849037469e-13
0.35938,3.303288221e-13,8.896571303e-14,2.819606487e-13,8.831572965e-14,2.251663959e-13,1.232147979e-13,2.607139529e-13,2.240311134e-13,3.874596004e-13,1.981313425e-13,2.119560029e-13,1.773602117e-13,3.146369326e-13,4.905205209e-13,4.754228467e-14,6.313258747e-14,1.473191024e-13,3.065686874e-13,1.305736479e-14,7.868125201e-13,2.421568171e-13,2.901099327e-13,1.711675298e-13,5.924313383e-13,1.604350079e-13,2.321640984e-13,2.258097138e-13,4.403868103e-13,5.021723029e-14,6.176812186e-14,7.330057774e-14,5.367107674e-13
0.36719,3.300696033e-13,7.717822876e-14,2.581061168e-13,8.694107248e-14,2.564841316e-13,1.061011454e-13,2.637980407e-13,2.515552507e-13,4.356009084e-13,2.179150982e-13,1.868329329e-13,1.973025721e-13,3.110236979e-13,4.406219317e-13,4.389832850e-14,6.163430567e-14,1.592869256e-13,3.082315718e-13,7.387244256e-15,6.988793194e-13,2.197411198e-13,2.251927701e-13,1.779837145e-13,5.907892668e-13,1.638906620e-13,2.033501756e-13,2.208120195e-13,4.561258883e-13,5.074395196e-14,7.266516040e-14,6.783408726e-14,4.803917804e-13
0.375,3.547119749e-13,6.664011706e-14,2.383941376e-13,8.517156498e-14,2.647658962e-13,9.481607425e-14,2.748020661e-13,2.750383780e-13,4.873632335e-13,2.548169217e-13,1.621564223e-13,2.238646628e-13,3.034822808e-13,3.963729156e-13,4.456032193e-14,6.351275466e-14,1.674765971e-13,2.961681944e-13,5.095917613e-15,6.430810378e-13,1.961018280e-13,1.867978816e-13,1.898771750e-13,5.786982424e-13,1.688664721e-13,1.742766208e-13,2.150996625e-13,4.722754893e-13,5.067025839e-14,9.078920971e-14,6.233110232e-14,4.779715956e-13
0.38281,4.087092108e-13,5.118869953e-14,2.265837341e-13,7.796657974e-14,2.479578854e-13,8.845350614e-14,3.021712569e-13,2.899130760e-13,5.256058665e-13,2.681197922e-13,1.373624326e-13,2.457372266e-13,2.903944623e-13,3.840404012e-13,4.858330683e-14,6.842505151e-14,1.727464120e-13,2.782446663e-13,6.080203635e-15,6.320251298e-13,1.742123569e-13,1.849217709e-13,2.090182305e-13,5.422535774e-13,1.806864173e-13,1.483786468e-13,2.151507060e-13,4.804834570e-13,5.889276765e-14,1.103537415e-13,5.156591367e-14,5.154631307e-13
0.39062,4.533986944e-13,3.444756874e-14,2.129772427e-13,6.825745428e-14,2.288707290e-13,8.750984245e-14,3.288178228e-13,3.121159093e-13,5.622022046e-13,2.392689121e-13,1.168245161e-13,2.660245711e-13,2.733458499e-13,4.027865475e-13,5.544642104e-14,7.355606234e-14,1.776869209e-13,2.620755387e-13,1.134937057e-14,6.303046582e-13,1.533460145e-13,1.913528343e-13,2.304199120e-13,4.896214558e-13,1.953392561e-13,1.240646775e-13,2.221586548e-13,4.997305087e-13,6.743166350e-14,1.261481126e-13,4.067343935e-14,5.241448576e-13
0.39844,4.738899128e-13,2.419492607e-14,1.943402617e-13,6.028622596e-14,2.276731300e-13,8.996073932e-14,3.429138884e-13,3.416869459e-13,5.863614605e-13,1.980629462e-13,1.013770836e-13,2.796880314e-13,2.477536683e-13,4.379344438e-13,6.429629370e-14,7.769094870e-14,1.847383286e-13,2.482944437e-13,2.197388737e-14,6.123045194e-13,1.358035016e-13,1.960726214e-13,2.519979566e-13,4.362990183e-13,2.049907054e-13,1.025260532e-13,2.314837567e-13,5.323048187e-13,7.837175511e-14,1.370218468e-13,3.762542538e-14,4.950069675e-13
0.40625,4.941540942e-13,2.451954020e-14,1.862453088e-13,5.677194601e-14,2.412575511e-13,9.897013117e-14,3.457675059e-13,3.748292019e-13,5.992563305e-13,1.861940516e-13,8.783320460e-14,2.829851142e-13,2.204113727e-13,4.933136582e-13,7.448531424e-14,8.137156870e-14,1.935456993e-13,2.328519972e-13,3.132258698e-14,5.756784417e-13,1.216675168e-13,1.944239140e-13,2.722237069e-13,4.093312554e-13,2.131476188e-13,8.290142992e-14,2.425363101e-13,5.412746448e-13,8.692487584e-14,1.500823105e-13,3.909226794e-14,4.555338063e-13
0.41406,5.301972284e-13,2.778150490e-14,1.883156555e-13,5.303083108e-14,2.554965249e-13,1.083702679e-13,3.432186873e-13,3.983327819e-13,5.886594286e-13,2.123058406e-13,7.681233360e-14,2.748731793e-13,1.989244260e-13,5.405882166e-13,8.529874644e-14,8.683916282e-14,2.037511036e-13,2.166162214e-13,4.059713987e-14,5.264172752e-13,1.089097804e-13,1.801259655e-13,2.856123544e-13,4.235379071e-13,2.216135321e-13,6.473261692e-14,2.505964041e-13,5.211058492e-13,9.625263277e-14,1.656961942e-13,4.239902440e-14,4.323145137e-13
0.42188,5.647845713e-13,3.308587132e-14,1.931170473e-13,4.898306553e-14,2.641709551e-13,1.129855595e-13,3.343325824e-13,4.166301580e-13,5.685196730e-13,2.607969023e-13,6.701714002e-14,2.570640615e-13,1.940159413e-13,5.608416584e-13,9.703770368e-14,9.617047689e-14,2.143729537e-13,2.000960669e-13,5.232278949e-14,4.663772413e-13,9.910331117e-14,1.653565388e-13,2.961833338e-13,4.550167056e-13,2.264408204e-13,5.008963368e-14,2.601248626e-13,4.833245465e-13,1.109655276e-13,1.807579885e-13,4.860804235e-14,4.167633901e-13
0.42969,5.779767519e-13,3.571081824e-14,1.929034313e-13,4.602314702e-14,2.678983882e-13,1.127678461e-13,3.229256221e-13,4.468150158e-13,5.544240589e-13,3.016302750e-13,6.009199402e-14,2.411183373e-13,2.064373382e-13,5.490099418e-13,1.088386962e-13,1.081255255e-13,2.244646309e-13,1.828573408e-13,6.529164293e-14,4.203972111e-13,8.964691229e-14,1.586895410e-13,3.074956315e-13,4.734342566e-13,2.218892449e-13,4.151986017e-14,2.737613224e-13,4.642407055e-13,1.346108706e-13,1.964139787e-13,5.937768045e-14,4.013917810e-13
0.4375,5.659614875e-13,3.831491977e-14,1.933942944e-13,4.503427571e-14,2.682416774e-13,1.131855807e-13,3.175673965e-13,4.953915995e-13,5.462034125e-13,3.309979560e-13,5.511436445e-14,2.246555039e-13,2.316383209e-13,5.353449420e-13,1.211957379e-13,1.217190307e-13,2.320706386e-13,1.657621314e-13,7.504717316e-14,3.948112249e-13,8.067941443e-14,1.833027334e-13,3.260995071e-13,4.772601629e-13,2.068017685e-13,3.958633801e-14,2.898717646e-13,4.640670903e-13,1.685141115e-13,2.133253591e-13,7.545224125e-14,3.956558945e-13
0.44531,5.534034117e-13,4.491921281e-14,1.984054337e-13,4.652054005e-14,2.694095125e-13,1.169679253e-13,3.261507738e-13,5.697351215e-13,5.507074243e-13,3.544716430e-13,5.333702511e-14,2.112749860e-13,2.648456524e-13,5.322323256e-13,1.314509578e-13,1.339480954e-13,2.384314771e-13,1.513090260e-13,8.113561854e-14,3.872078965e-13,7.199324448e-14,2.162231743e-13,3.438600546e-13,4.778740641e-13,1.888793860e-13,4.363682159e-14,3.107111788e-13,4.779922937e-13,2.005686303e-13,2.349038846e-13,9.545680684e-14,4.055476768e-13
0.45312,5.587648308e-13,5.443493726e-14,2.049582753e-13,4.916574857e-14,2.741387835e-13,1.216056418e-13,3.457862712e-13,6.683906355e-13,5.699985170e-13,3.807019844e-13,5.451022952e-14,2.031026765e-13,3.041024755e-13,5.335882435e-13,1.390217086e-13,1.449446349e-13,2.421147585e-13,1.416888222e-13,8.857038520e-14,3.711410953e-13,6.492895105e-14,2.516510360e-13,3.561687557e-13,4.828246426e-13,1.701862034e-13,5.255533908e-14,3.371632157e-13,4.996649768e-13,2.387965069e-13,2.639080032e-13,1.208235363e-13,4.153011861e-13
0.46094,6.006691275e-13,7.058367689e-14,2.168236752e-13,5.322249851e-14,2.842957638e-13,1.295257271e-13,3.798468457e-13,8.000129041e-13,6.122906917e-13,4.130531209e-13,5.630318070e-14,2.037273481e-13,3.444693116e-13,5.315538878e-13,1.457685636e-13,1.555230310e-13,2.464515384e-13,1.364472052e-13,9.974227628e-14,3.467882750e-13,5.805421146e-14,2.786540262e-13,3.637487086e-13,4.995751013e-13,1.524302341e-13,6.712920692e-14,3.695238323e-13,5.305889186e-13,2.754988257e-13,2.995163699e-13,1.511392271e-13,4.122725866e-13
0.46875,6.633638758e-13,9.847734356e-14,2.362085418e-13,5.974186396e-14,2.986675848e-13,1.349022798e-13,4.260401429e-13,9.513484387e-13,6.746496621e-13,4.664062724e-13,5.670613174e-14,2.156358954e-13,3.884836881e-13,5.215540324e-13,1.517963082e-13,1.658515071e-13,2.491798976e-13,1.332036485e-13,1.147971230e-13,3.188080811e-13,5.177319374e-14,3.262295821e-13,3.777990710e-13,5.383625165e-13,1.362485189e-13,8.701087038e-14,4.114142512e-13,5.731887666e-13,3.355774086e-13,3.425433086e-13,1.914921562e-13,4.103849541e-13
0.47656,7.260457202e-13,1.264874731e-13,2.614025699e-13,6.637009143e-14,3.092847815e-13,1.381593088e-13,4.748361341e-13,1.129702769e-12,7.646189255e-13,5.278776281e-13,5.569818107e-14,2.380613252e-13,4.413565073e-13,5.041642807e-13,1.568537224e-13,1.753805051e-13,2.488658300e-13,1.306965024e-13,1.274956246e-13,2.880059548e-13,4.576449805e-14,3.726280878e-13,3.957718080e-13,5.997620291e-13,1.223900240e-13,1.130776402e-13,4.633330664e-13,6.168489752e-13,4.084676162e-13,3.927844974e-13,2.344190358e-13,4.081996913e-13
0.48438,7.819615970e-13,1.548507088e-13,2.917009820e-13,7.357877950e-14,3.134356730e-13,1.379147782e-13,5.180020942e-13,1.324905156e-12,8.790444554e-13,5.970521200e-13,5.314697186e-14,2.721222511e-13,5.051461776e-13,4.764112374e-13,1.613698934e-13,1.835321832e-13,2.448269969e-13,1.297533545e-13,1.363892051e-13,2.491653728e-13,4.110407339e-14,4.181803721e-13,4.226292593e-13,6.874791470e-13,1.120781234e-13,1.430185879e-13,5.233932477e-13,6.392516982e-13,5.035394320e-13,4.501116755e-13,2.795727805e-13,4.139002384e-13
0.49219,8.343040933e-13,1.795715683e-13,3.258458107e-13,8.086668051e-14,3.113816446e-13,1.384858059e-13,5.560074134e-13,1.548454322e-12,1.024796190e-12,6.564161050e-13,5.179175038e-14,3.218076718e-13,5.744028226e-13,4.532930406e-13,1.653909907e-13,1.900964809e-13,2.428036817e-13,1.299140992e-13,1.391754549e-13,2.080121997e-13,3.763138291e-14,4.536185274e-13,4.588951060e-13,7.953874723e-13,1.046361983e-13,1.770778712e-13,5.890917523e-13,6.575265218e-13,5.977149502e-13,5.172189495e-13,3.251537173e-13,4.249617276e-13
0.5,9.061037689e-13,2.148328494e-13,3.665712417e-13,8.997280209e-14,3.027613600e-13,1.381410331e-13,5.844783439e-13,1.788389561e-12,1.197894761e-12,7.130864661e-13,5.202025306e-14,3.862450566e-13,6.429555414e-13,4.361349846e-13,1.680305977e-13,1.945020460e-13,2.429373078e-13,1.290263222e-13,1.394767557e-13,1.771325887e-13,3.621449895e-14,4.989781505e-13,5.123242260e-13,9.159824062e-13,1.013846549e-13,2.150971956e-13,6.567877056e-13,6.727794611e-13,7.045324981e-13,5.970200411e-13,3.807345605e-13,4.552834459e-13
0.50781,1.003100152e-12,2.554930707e-13,4.094742871e-13,1.007268181e-13,2.915574847e-13,1.362674249e-13,5.991062867e-13,2.043820399e-12,1.395255700e-12,7.584966665e-13,5.441016699e-14,4.657030585e-13,7.011422010e-13,4.287510070e-13,1.709803476e-13,1.998784421e-13,2.471138008e-13,1.279295489e-13,1.374901783e-13,1.562486540e-13,3.725338096e-14,5.590721066e-13,5.892302931e-13,1.037422281e-12,1.038158166e-13,2.529192452e-13,7.186683985e-13,7.105912182e-13,7.954579037e-13,6.885970440e-13,4.487739606e-13,4.987766734e-13
0.51562,1.121085227e-12,3.128462601e-13,4.524232851e-13,1.154515048e-13,2.805291040e-13,1.306061011e-13,5.962202322e-13,2.291980715e-12,1.601752621e-12,8.021405728e-13,5.725932536e-14,5.535144857e-13,7.470033763e-13,4.196326976e-13,1.739621053e-13,2.058149713e-13,2.558969714e-13,1.278118260e-13,1.393614832e-13,1.412631891e-13,4.138583320e-14,6.453896480e-13,6.914767236e-13,1.157326286e-12,1.092403178e-13,2.881610177e-13,7.711107303e-13,7.449527484e-13,8.838301395e-13,7.881938550e-13,5.322992395e-13,5.465211600e-13
0.52344,1.233609235e-12,3.789647211e-13,4.876433273e-13,1.340669700e-13,2.772894342e-13,1.233925160e-13,5.808683634e-13,2.522823813e-12,1.804035215e-12,8.285103514e-13,6.092178240e-14,6.419006940e-13,7.780554215e-13,4.129148850e-13,1.779306090e-13,2.133240281e-13,2.692535938e-13,1.276119310e-13,1.413438138e-13,1.303793877e-13,4.845916949e-14,7.439530668e-13,8.158936608e-13,1.277256437e-12,1.160731147e-13,3.212247123e-13,8.140530114e-13,7.683535651e-13,9.790842148e-13,8.870529967e-13,6.280743129e-13,5.837554878e-13
0.53125,1.317692301e-12,4.460043840e-13,5.212109939e-13,1.553293945e-13,2.825313367e-13,1.149575892e-13,5.599290920e-13,2.722545090e-12,1.990682811e-12,8.388582645e-13,6.606308127e-14,7.190316904e-13,7.972997631e-13,4.033684160e-13,1.840511457e-13,2.220791614e-13,2.860638757e-13,1.251728882e-13,1.420534007e-13,1.251638569e-13,5.797709224e-14,8.351020670e-13,9.534220965e-13,1.400857683e-12,1.240903972e-13,3.556119342e-13,8.474644188e-13,7.597725677e-13,1.084732740e-12,9.784321911e-13,7.290002211e-13,6.097198009e-13
0.53906,1.370282786e-12,5.030809695e-13,5.520703959e-13,1.792635519e-13,2.919059657e-13,1.086419851e-13,5.372391456e-13,2.885526100e-12,2.160955276e-12,8.282338514e-13,7.140582964e-14,7.815556997e-13,8.049959161e-13,3.902983796e-13,1.913792815e-13,2.306005742e-13,3.030346546e-13,1.191588872e-13,1.389606526e-13,1.204811087e-13,6.964966713e-14,9.065488888e-13,1.093960647e-12,1.524011282e-12,1.337829073e-13,3.920575136e-13,8.712611880e-13,7.324386924e-13,1.184333326e-12,1.056776841e-12,8.313465560e-13,6.312938641e-13
0.54688,1.410693250e-12,5.523057276e-13,5.839863278e-13,2.072212336e-13,3.005313537e-13,1.051488050e-13,5.168306011e-13,2.994827763e-12,2.302858127e-12,8.104614468e-13,7.720894826e-14,8.317535610e-13,7.952577564e-13,3.734149648e-13,1.998431098e-13,2.385677088e-13,3.208427544e-13,1.126794981e-13,1.355139092e-13,1.172306974e-13,8.519366839e-14,9.605148764e-13,1.229388444e-12,1.608575509e-12,1.449799150e-13,4.284075975e-13,8.846379846e-13,6.935537710e-13,1.256577523e-12,1.118671072e-12,9.324574631e-13,6.509639813e-13
0.55469,1.434532948e-12,6.045231843e-13,6.119479899e-13,2.409993749e-13,3.109424683e-13,1.050984673e-13,5.018263820e-13,3.038820575e-12,2.406355807e-12,7.843463985e-13,8.201998348e-14,8.699668783e-13,7.681255007e-13,3.625160641e-13,2.081655560e-13,2.459321432e-13,3.378697999e-13,1.051031867e-13,1.343088163e-13,1.227513166e-13,1.039810056e-13,1.014256951e-12,1.359585122e-12,1.624550852e-12,1.549238460e-13,4.618348385e-13,8.879356445e-13,6.541219331e-13,1.311531574e-12,1.163437873e-12,1.036009446e-12,6.740979827e-13
0.5625,1.429242309e-12,6.595039977e-13,6.289690457e-13,2.812034080e-13,3.343320929e-13,1.078262633e-13,4.916563002e-13,3.013615954e-12,2.461944472e-12,7.460886079e-13,8.669023786e-14,8.937509672e-13,7.296564640e-13,3.548410526e-13,2.166196423e-13,2.528574574e-13,3.510864273e-13,9.541375115e-14,1.361145203e-13,1.369527397e-13,1.250977850e-13,1.077494750e-12,1.475872156e-12,1.582488387e-12,1.608117991e-13,4.888609766e-13,8.836542913e-13,6.115089694e-13,1.366068564e-12,1.182906353e-12,1.139751077e-12,6.980276147e-13
0.57031,1.391333506e-12,7.140124307e-13,6.339260332e-13,3.308390931e-13,3.728212014e-13,1.127543365e-13,4.833015944e-13,2.924065983e-12,2.474010030e-12,6.872929907e-13,9.159019260e-14,9.022228548e-13,6.870447845e-13,3.461054627e-13,2.262237479e-13,2.580002443e-13,3.573490060e-13,8.445133900e-14,1.435914766e-13,1.490248596e-13,1.470082838e-13,1.144102973e-12,1.572617271e-12,1.529563378e-12,1.633384484e-13,5.084835337e-13,8.764495812e-13,5.821154374e-13,1.438659036e-12,1.174114765e-12,1.244557575e-12,7.125203870e-13
0.57812,1.348288613e-12,7.627357644e-13,6.319538515e-13,3.859153230e-13,4.145941466e-13,1.208997311e-13,4.794218134e-13,2.779484142e-12,2.450025537e-12,6.158787116e-13,9.639235899e-14,9.037104985e-13,6.434044212e-13,3.391592119e-13,2.348977858e-13,2.590390853e-13,3.557066623e-13,7.539840739e-14,1.563407836e-13,1.511651844e-13,1.695351881e-13,1.197917734e-12,1.644164718e-12,1.455710426e-12,1.658953482e-13,5.245533875e-13,8.704581243e-13,5.683048964e-13,1.513487255e-12,1.141201088e-12,1.345015397e-12,7.200192544e-13
0.58594,1.320856724e-12,8.045872314e-13,6.261962969e-13,4.421993653e-13,4.492900426e-13,1.315559870e-13,4.840257127e-13,2.594025795e-12,2.402931086e-12,5.462638706e-13,1.042886480e-13,9.017679016e-13,6.020290673e-13,3.379732381e-13,2.436342839e-13,2.574376291e-13,3.471384846e-13,6.862690972e-14,1.735957826e-13,1.499494122e-13,1.897326455e-13,1.239256792e-12,1.689378317e-12,1.348721225e-12,1.699299891e-13,5.364850211e-13,8.622191747e-13,5.792853316e-13,1.587863300e-12,1.091517819e-12,1.434645623e-12,7.266414820e-13
0.59375,1.313585628e-12,8.307725364e-13,6.246912687e-13,4.923844931e-13,4.771197584e-13,1.449915056e-13,4.891771067e-13,2.383060806e-12,2.348760671e-12,4.801975799e-13,1.175016913e-13,9.053890836e-13,5.648149524e-13,3.499075351e-13,2.533789473e-13,2.562937585e-13,3.379722168e-13,6.390873348e-14,1.874844152e-13,1.579797550e-13,2.066752885e-13,1.257798517e-12,1.711289692e-12,1.225046873e-12,1.764539138e-13,5.392083917e-13,8.514068852e-13,6.082985258e-13,1.647465135e-12,1.033638336e-12,1.501805790e-12,7.381432253e-13
0.60156,1.322164080e-12,8.485702268e-13,6.185143921e-13,5.376545238e-13,5.094790246e-13,1.621499230e-13,4.814063017e-13,2.152624340e-12,2.285206326e-12,4.165809842e-13,1.358660603e-13,9.139941499e-13,5.317664520e-13,3.704469076e-13,2.637868706e-13,2.546300490e-13,3.262767472e-13,6.219832125e-14,2.008904687e-13,1.700897064e-13,2.207605824e-13,1.263065619e-12,1.711214848e-12,1.122089055e-12,1.824514756e-13,5.311157776e-13,8.386504915e-13,6.484033767e-13,1.691206492e-12,9.697394598e-13,1.550947187e-12,7.486089776e-13
0.60938,1.357867128e-12,8.620239431e-13,6.109307174e-13,5.767248024e-13,5.566128314e-13,1.802574455e-13,4.614112810e-13,1.923630113e-12,2.219565985e-12,3.585558122e-13,1.581311615e-13,9.274640808e-13,5.014587121e-13,3.921747438e-13,2.741014956e-13,2.523299291e-13,3.121344012e-13,6.503551880e-14,2.184329421e-13,1.814461941e-13,2.351383750e-13,1.258437113e-12,1.689226921e-12,1.060482135e-12,1.905401008e-13,5.099332356e-13,8.224183100e-13,6.748340025e-13,1.690771353e-12,9.065969704e-13,1.577437787e-12,7.693662944e-13
0.61719,1.425306603e-12,8.611340728e-13,6.004382717e-13,6.019367790e-13,6.070231351e-13,1.905809124e-13,4.370629566e-13,1.703664656e-12,2.153404996e-12,3.093722820e-13,1.861078162e-13,9.473078521e-13,4.837326732e-13,4.114916194e-13,2.841978241e-13,2.509730224e-13,2.981408928e-13,7.078736959e-14,2.387825381e-13,1.930719060e-13,2.466880401e-13,1.248742030e-12,1.647752824e-12,1.030537175e-12,2.019326037e-13,4.805199187e-13,8.021392233e-13,6.861296142e-13,1.666452055e-12,8.468187740e-13,1.581001132e-12,8.014051871e-13
0.625,1.524994193e-12,8.307400029e-13,5.994292897e-13,6.093899587e-13,6.379137922e-13,1.951235507e-13,4.168920208e-13,1.501649838e-12,2.088936976e-12,2.620746817e-13,2.214838821e-13,9.719517616e-13,4.862515679e-13,4.337055168e-13,2.963915382e-13,2.527567378e-13,2.891092878e-13,7.829000793e-14,2.518945169e-13,2.095237369e-13,2.524167077e-13,1.207015263e-12,1.585597222e-12,1.025993095e-12,2.196610205e-13,4.451703516e-13,7.756673777e-13,6.789274138e-13,1.628104278e-12,7.880662001e-13,1.547941758e-12,8.492113434e-13
0.63281,1.642264174e-12,7.880816855e-13,6.137045154e-13,6.072721386e-13,6.479366500e-13,2.002978166e-13,3.982389713e-13,1.318756579e-12,2.026683796e-12,2.190090189e-13,2.648988052e-13,9.988520032e-13,5.080973721e-13,4.648385489e-13,3.120496905e-13,2.580958257e-13,2.865540336e-13,8.822288961e-14,2.574859401e-13,2.217478067e-13,2.514112611e-13,1.144491973e-12,1.513123069e-12,1.050835150e-12,2.435972475e-13,4.098225344e-13,7.458690276e-13,6.694746504e-13,1.599744210e-12,7.309754234e-13,1.490215535e-12,9.068492247e-13
0.64062,1.741079994e-12,7.415742477e-13,6.384392954e-13,6.007962135e-13,6.535586702e-13,2.114995947e-13,3.764941473e-13,1.166493289e-12,1.974684859e-12,1.789836277e-13,3.115040623e-13,1.028251487e-12,5.478886269e-13,5.005405981e-13,3.293762247e-13,2.638671592e-13,2.884496579e-13,1.017354206e-13,2.607377455e-13,2.276225218e-13,2.477001350e-13,1.061497922e-12,1.425949130e-12,1.102904816e-12,2.720835383e-13,3.715605798e-13,7.139541521e-13,6.478768734e-13,1.554782894e-12,6.806857961e-13,1.409709959e-12,9.513652623e-13
0.64844,1.807663856e-12,7.040351285e-13,6.654309757e-13,6.006007687e-13,6.746139605e-13,2.265486294e-13,3.510544268e-13,1.043236712e-12,1.931926269e-12,1.464637379e-13,3.559825701e-13,1.058433035e-12,6.097861286e-13,5.250073582e-13,3.485261776e-13,2.711071177e-13,2.958094577e-13,1.192212521e-13,2.694814821e-13,2.454123100e-13,2.447379709e-13,9.873783537e-13,1.331324912e-12,1.185740818e-12,3.029468330e-13,3.297263668e-13,6.766693179e-13,6.139310886e-13,1.486681011e-12,6.383700372e-13,1.323562312e-12,9.775363112e-13
0.65625,1.859856468e-12,6.627413889e-13,6.899734674e-13,6.023889709e-13,7.058395062e-13,2.364253423e-13,3.261396488e-13,9.428043229e-13,1.898694888e-12,1.232093267e-13,4.015545031e-13,1.089197572e-12,6.965403984e-13,5.393360885e-13,3.698065158e-13,2.827897433e-13,3.121954886e-13,1.388612452e-13,2.800941033e-13,2.880908959e-13,2.443847510e-13,9.232667259e-13,1.232845241e-12,1.277132566e-12,3.348355092e-13,2.900403078e-13,6.342121871e-13,5.662023410e-13,1.384663397e-12,6.023844428e-13,1.231937797e-12,1.004773557e-12
0.66406,1.927206585e-12,6.262573034e-13,7.154232236e-13,6.065286115e-13,7.225216260e-13,2.414491044e-13,3.024453846e-13,8.568183244e-13,1.872503113e-12,1.104714544e-13,4.501556047e-13,1.119875493e-12,8.055491119e-13,5.557798051e-13,3.927497330e-13,2.979586222e-13,3.359374503e-13,1.575306117e-13,2.878102418e-13,3.423325059e-13,2.456162285e-13,8.698783980e-13,1.133366337e-12,1.339669273e-12,3.669529560e-13,2.593966662e-13,5.902907047e-13,5.101951993e-13,1.273590834e-12,5.722444304e-13,1.140256029e-12,1.051725197e-12
0.67188,2.001104358e-12,5.952540003e-13,7.487839233e-13,6.124612775e-13,7.211214922e-13,2.444516801e-13,2.803943997e-13,7.796248992e-13,1.848405792e-12,1.059544154e-13,4.986447013e-13,1.145228546e-12,9.322518905e-13,5.840052125e-13,4.169309295e-13,3.139800208e-13,3.666818350e-13,1.771354870e-13,2.901091004e-13,3.961329094e-13,2.501526344e-13,8.168187950e-13,1.035225445e-12,1.360713421e-12,4.029189072e-13,2.383370200e-13,5.479665593e-13,4.525447018e-13,1.167878535e-12,5.476435307e-13,1.051639418e-12,1.104565400e-12
0.67969,2.033126690e-12,5.733029711e-13,7.874897622e-13,6.251977216e-13,7.204895090e-13,2.512710584e-13,2.649398793e-13,7.134403466e-13,1.825598482e-12,1.012359404e-13,5.415635649e-13,1.164048508e-12,1.065369506e-12,6.166715409e-13,4.428649071e-13,3.292068005e-13,4.107710548e-13,2.032945909e-13,2.963219043e-13,4.562792561e-13,2.602068022e-13,7.658010575e-13,9.380007053e-13,1.362123945e-12,4.400037474e-13,2.286253372e-13,5.109993344e-13,4.035859023e-13,1.067326714e-12,5.282599928e-13,9.751249642e-13,1.139976866e-12
0.6875,1.996811800e-12,5.548983355e-13,8.213823517e-13,6.448793522e-13,7.393131155e-13,2.606781126e-13,2.556130030e-13,6.582079566e-13,1.797609433e-12,9.018657820e-14,5.763302760e-13,1.168228756e-12,1.199211831e-12,6.428435228e-13,4.694136393e-13,3.412036865e-13,4.644227781e-13,2.334146242e-13,3.074563900e-13,5.359893200e-13,2.763270980e-13,7.238831216e-13,8.446893637e-13,1.374748003e-12,4.689957398e-13,2.322641902e-13,4.789278546e-13,3.631088259e-13,9.778190614e-13,5.074253666e-13,9.123358408e-13,1.153786427e-12
0.69531,1.902576356e-12,5.287837920e-13,8.340350668e-13,6.649898857e-13,7.696045776e-13,2.652054837e-13,2.475668999e-13,6.141180634e-13,1.771119248e-12,7.436961745e-14,6.073262479e-13,1.158731968e-12,1.337430754e-12,6.399050529e-13,4.954045972e-13,3.527192527e-13,5.262784506e-13,2.648362434e-13,3.184268059e-13,6.341398321e-13,2.982730659e-13,6.842855282e-13,7.525219289e-13,1.399196476e-12,4.850111130e-13,2.489552779e-13,4.540120724e-13,3.380825276e-13,8.952924119e-13,4.807164712e-13,8.550420843e-13,1.150914338e-12
0.70312,1.798312287e-12,5.030718155e-13,8.217962871e-13,6.802714037e-13,7.898348703e-13,2.580257173e-13,2.377444977e-13,5.716946093e-13,1.743058632e-12,6.869663482e-14,6.384019103e-13,1.135793627e-12,1.480695824e-12,6.090686776e-13,5.235301807e-13,3.703713524e-13,5.975505371e-13,2.986018484e-13,3.289005271e-13,7.371025925e-13,3.240427203e-13,6.549707612e-13,6.651696861e-13,1.416716260e-12,4.930451011e-13,2.791178329e-13,4.383018221e-13,3.204360118e-13,8.304173682e-13,4.524162635e-13,8.080541124e-13,1.147615590e-12
0.71094,1.699931542e-12,4.818494127e-13,7.953081888e-13,6.936959679e-13,7.927161047e-13,2.440468873e-13,2.258899619e-13,5.347100472e-13,1.709356053e-12,7.564151202e-14,6.697446360e-13,1.102153560e-12,1.603492543e-12,5.663927327e-13,5.566332969e-13,3.964546144e-13,6.782100305e-13,3.379231001e-13,3.424255329e-13,8.436812050e-13,3.517985017e-13,6.332290494e-13,5.810842217e-13,1.402997558e-12,4.979286735e-13,3.142599190e-13,4.303651683e-13,3.142287203e-13,7.688335035e-13,4.262603438e-13,7.714329044e-13,1.140890684e-12
0.71875,1.604902419e-12,4.725115247e-13,7.674773731e-13,7.084852510e-13,7.835369152e-13,2.307963323e-13,2.151765416e-13,5.044693953e-13,1.662545167e-12,8.518484967e-14,6.966576309e-13,1.056370883e-12,1.672125571e-12,5.357668725e-13,5.929581069e-13,4.278468304e-13,7.641396071e-13,3.813727410e-13,3.605414138e-13,9.718905667e-13,3.793703796e-13,6.311049717e-13,5.058242305e-13,1.343943925e-12,4.994408500e-13,3.559270623e-13,4.314904325e-13,3.114490550e-13,7.148584038e-13,4.043889424e-13,7.506009656e-13,1.149121203e-12
0.72656,1.508645194e-12,4.647588422e-13,7.414227675e-13,7.259022242e-13,7.760929796e-13,2.244607324e-13,2.092214167e-13,4.873048236e-13,1.610154389e-12,8.933496596e-14,7.167735102e-13,1.000534737e-12,1.681769104e-12,5.122193340e-13,6.298210714e-13,4.619031082e-13,8.475739652e-13,4.246690174e-13,3.780516845e-13,1.119317684e-12,4.062434257e-13,6.444042892e-13,4.380409838e-13,1.244870035e-12,4.979119998e-13,4.063943467e-13,4.445403499e-13,3.116933588e-13,6.613427913e-13,3.842376259e-13,7.345855018e-13,1.175099532e-12
0.73438,1.425209361e-12,4.566309484e-13,7.026846782e-13,7.447399398e-13,7.802218322e-13,2.235999163e-13,2.079925034e-13,4.842668419e-13,1.552570807e-12,9.082752758e-14,7.321976400e-13,9.368557478e-13,1.655533402e-12,4.768016210e-13,6.651951115e-13,4.982965498e-13,9.251050460e-13,4.687169083e-13,3.946879302e-13,1.253518461e-12,4.333696756e-13,6.605702512e-13,3.738437391e-13,1.140564878e-12,4.945360813e-13,4.597363065e-13,4.665981529e-13,3.101973117e-13,6.109914753e-13,3.634593100e-13,7.181513728e-13,1.200284772e-12
0.74219,1.335860735e-12,4.478389518e-13,6.395073719e-13,7.646915394e-13,7.900099493e-13,2.274444899e-13,2.125415884e-13,4.936081271e-13,1.486939585e-12,9.305528997e-14,7.439747787e-13,8.635921766e-13,1.614060544e-12,4.281613927e-13,6.994681069e-13,5.344744023e-13,9.979481618e-13,5.154595876e-13,4.109193549e-13,1.344258618e-12,4.606425942e-13,6.461487876e-13,3.165889746e-13,1.064048373e-12,4.880197878e-13,5.081711362e-13,4.948448205e-13,3.063887062e-13,5.670365308e-13,3.441598995e-13,7.050381705e-13,1.189365277e-12
0.75,1.240311152e-12,4.371245654e-13,5.629091860e-13,7.858764497e-13,7.963658196e-13,2.328029185e-13,2.201857981e-13,5.165959647e-13,1.417404185e-12,9.844313714e-14,7.509396900e-13,7.826130935e-13,1.554371162e-12,3.737389197e-13,7.283761954e-13,5.668153600e-13,1.061682017e-12,5.608914466e-13,4.253567325e-13,1.387358665e-12,4.855077316e-13,5.982796449e-13,2.686088587e-13,1.013961872e-12,4.783440829e-13,5.425270691e-13,5.272026600e-13,3.018430948e-13,5.284660527e-13,3.314422720e-13,6.945216796e-13,1.140833813e-12
0.75781,1.158190611e-12,4.291208617e-13,4.903305976e-13,8.126114776e-13,7.923415919e-13,2.430129799e-13,2.237542269e-13,5.501367507e-13,1.343743378e-12,1.091018071e-13,7.534520617e-13,6.979235690e-13,1.469320203e-12,3.284787117e-13,7.503868107e-13,5.978791874e-13,1.113565354e-12,6.025529888e-13,4.372614942e-13,1.409201089e-12,5.050706704e-13,5.442419622e-13,2.305183916e-13,9.581820859e-13,4.664289018e-13,5.677713909e-13,5.652693992e-13,3.011556692e-13,5.015292462e-13,3.258584507e-13,6.871129419e-13,1.089320375e-12
0.76562,1.100082332e-12,4.158484202e-13,4.269795339e-13,8.452614619e-13,7.797628597e-13,2.610206637e-13,2.261289379e-13,5.866924832e-13,1.263819592e-12,1.257965786e-13,7.532589475e-13,6.170064666e-13,1.356618720e-12,2.890768542e-13,7.654114410e-13,6.284689176e-13,1.146145147e-12,6.391729633e-13,4.417249797e-13,1.434055277e-12,5.173077291e-13,4.990785835e-13,2.031382135e-13,8.697175940e-13,4.535349876e-13,5.897693031e-13,6.118226029e-13,3.040940580e-13,4.771519498e-13,3.265010945e-13,6.743002367e-13,1.055633771e-12
0.77344,1.049975305e-12,4.048525096e-13,3.719214784e-13,8.913450656e-13,7.726758990e-13,2.906601857e-13,2.342505316e-13,6.314331293e-13,1.180742475e-12,1.507251550e-13,7.501599027e-13,5.429043557e-13,1.227669340e-12,2.593293493e-13,7.723839245e-13,6.580658190e-13,1.160945864e-12,6.764131030e-13,4.439110601e-13,1.457737715e-12,5.224004630e-13,4.663783910e-13,1.844471174e-13,7.719679204e-13,4.411049086e-13,6.044126888e-13,6.653268982e-13,3.110838404e-13,4.653706934e-13,3.343920646e-13,6.572456189e-13,1.039683158e-12
0.78125,9.876903139e-13,3.933393432e-13,3.237695532e-13,9.463112590e-13,7.832772943e-13,3.261775049e-13,2.513008138e-13,6.953161434e-13,1.107745417e-12,1.777604877e-13,7.405914747e-13,4.774659094e-13,1.085050983e-12,2.388694918e-13,7.696144714e-13,6.820496364e-13,1.164207249e-12,7.156296090e-13,4.444516126e-13,1.453458922e-12,5.226658565e-13,4.249790751e-13,1.732095378e-13,6.981560620e-13,4.286185235e-13,6.053020728e-13,7.171552787e-13,3.218043000e-13,4.479838716e-13,3.517615365e-13,6.389520189e-13,1.024693795e-12
0.78906,9.417985260e-13,3.888543945e-13,2.863144929e-13,1.008876330e-12,8.089368677e-13,3.622020027e-13,2.752631082e-13,7.699793005e-13,1.040668782e-12,1.985165510e-13,7.204877782e-13,4.167127285e-13,9.441867653e-13,2.297096563e-13,7.577068567e-13,6.983636733e-13,1.158315229e-12,7.555641970e-13,4.453056417e-13,1.399245972e-12,5.189652952e-13,3.822610784e-13,1.699206245e-13,6.458914201e-13,4.189907127e-13,5.901648038e-13,7.607687359e-13,3.307845598e-13,4.332188069e-13,3.751871478e-13,6.212786441e-13,1.022879557e-12
0.79688,9.366086700e-13,3.925591948e-13,2.588486659e-13,1.079215306e-12,8.420746914e-13,3.950494636e-13,3.016676792e-13,8.517186445e-13,9.823481081e-13,2.056921931e-13,6.919777679e-13,3.645152513e-13,8.188963562e-13,2.212186035e-13,7.391186628e-13,7.111976041e-13,1.146868594e-12,7.957352041e-13,4.442960093e-13,1.309376833e-12,5.123250383e-13,3.373710909e-13,1.765396496e-13,5.966749512e-13,4.074957591e-13,5.710359879e-13,7.992312739e-13,3.396623915e-13,4.238613771e-13,3.982489438e-13,6.039105103e-13,1.030631475e-12
0.80469,9.365634449e-13,4.050044685e-13,2.378849684e-13,1.158608034e-12,8.801546364e-13,4.289017888e-13,3.288804685e-13,9.390540653e-13,9.334895566e-13,2.090064807e-13,6.576003444e-13,3.206940982e-13,7.181939088e-13,2.119965650e-13,7.155663068e-13,7.218684633e-13,1.128657459e-12,8.348466141e-13,4.412293907e-13,1.202938044e-12,5.038184289e-13,3.003477431e-13,1.904107517e-13,5.513254865e-13,3.911010434e-13,5.488376080e-13,8.357010233e-13,3.491748476e-13,4.281126812e-13,4.177821232e-13,5.881306087e-13,1.027248540e-12
0.8125,8.909650922e-13,4.180120020e-13,2.229867326e-13,1.242824605e-12,9.302904482e-13,4.666910334e-13,3.524626573e-13,1.029950410e-12,8.955170058e-13,2.171772665e-13,6.187424002e-13,2.849941757e-13,6.303562762e-13,2.110646299e-13,6.892959471e-13,7.294068096e-13,1.106242316e-12,8.727187217e-13,4.387301111e-13,1.097498784e-12,4.912777184e-13,2.615093562e-13,2.075056312e-13,5.379194822e-13,3.691495764e-13,5.234979837e-13,8.628990152e-13,3.591417029e-13,4.330734195e-13,4.350775600e-13,5.763049211e-13,9.895693489e-13
0.82031,8.051103285e-13,4.362733283e-13,2.168680358e-13,1.330975110e-12,9.865863880e-13,5.074106601e-13,3.751313590e-13,1.105885898e-12,8.551382813e-13,2.412093138e-13,5.791261463e-13,2.535959710e-13,5.430504603e-13,2.250119376e-13,6.621037264e-13,7.321595518e-13,1.082196962e-12,9.088973634e-13,4.381869983e-13,9.943314329e-13,4.726956757e-13,2.240207055e-13,2.240089305e-13,5.395943076e-13,3.479348503e-13,4.923431734e-13,8.728960328e-13,3.672954929e-13,4.344132655e-13,4.508045175e-13,5.683333935e-13,9.370806719e-13
0.82812,7.338801074e-13,4.636432420e-13,2.161472882e-13,1.410996553e-12,1.022713927e-12,5.394509829e-13,4.014216998e-13,1.157904405e-12,8.100984267e-13,2.753533195e-13,5.389896295e-13,2.267897171e-13,4.599184352e-13,2.454144624e-13,6.306114933e-13,7.255625210e-13,1.050936983e-12,9.362002534e-13,4.345590493e-13,8.915991242e-13,4.452970108e-13,1.951238235e-13,2.379856638e-13,5.196393150e-13,3.311109703e-13,4.593704998e-13,8.649104518e-13,3.719192143e-13,4.336644893e-13,4.633971322e-13,5.621361782e-13,9.027824933e-13
0.83594,6.928111651e-13,4.833434106e-13,2.122074064e-13,1.467910176e-12,1.021536355e-12,5.519573250e-13,4.318321502e-13,1.187015815e-12,7.611379747e-13,3.000937893e-13,4.994969017e-13,2.019017239e-13,3.932984924e-13,2.579629530e-13,5.948213581e-13,7.116690728e-13,1.007743650e-12,9.466732534e-13,4.193240506e-13,7.977120112e-13,4.096369460e-13,1.747765203e-13,2.509153707e-13,4.763337274e-13,3.156847431e-13,4.276519744e-13,8.448979237e-13,3.704687356e-13,4.393111299e-13,4.656479263e-13,5.490276304e-13,8.734712203e-13
0.84375,6.407218832e-13,4.734373689e-13,2.029979754e-13,1.494253062e-12,9.989220509e-13,5.453593490e-13,4.606878021e-13,1.202379556e-12,7.130876215e-13,2.955276921e-13,4.582269440e-13,1.779306857e-13,3.506916271e-13,2.623454362e-13,5.551399314e-13,6.898981622e-13,9.529736639e-13,9.371286148e-13,3.916722100e-13,7.162872700e-13,3.712454964e-13,1.559483863e-13,2.664638582e-13,4.410391271e-13,2.990519976e-13,3.942631412e-13,8.135875450e-13,3.682694765e-13,4.446299817e-13,4.522054934e-13,5.258714966e-13,8.107125606e-13
0.85156,5.622223315e-13,4.493412343e-13,1.931789149e-13,1.494924688e-12,9.810334086e-13,5.323210018e-13,4.807320551e-13,1.202576943e-12,6.649083220e-13,2.751389063e-13,4.123582580e-13,1.557178246e-13,3.254139494e-13,2.760041073e-13,5.120223661e-13,6.581226216e-13,8.910583788e-13,9.131794695e-13,3.636964805e-13,6.402887033e-13,3.336583438e-13,1.422403097e-13,2.843104604e-13,4.377285558e-13,2.835239233e-13,3.575794243e-13,7.672099527e-13,3.609659659e-13,4.404958001e-13,4.308154328e-13,5.017806617e-13,7.026886540e-13
0.85938,4.879309659e-13,4.336705737e-13,1.892763133e-13,1.473429800e-12,9.718476707e-13,5.181941427e-13,4.932095912e-13,1.178738301e-12,6.147711203e-13,2.663677351e-13,3.637852000e-13,1.353475152e-13,3.056241943e-13,3.034773532e-13,4.677783329e-13,6.160546840e-13,8.240941302e-13,8.790268675e-13,3.410761707e-13,5.597624043e-13,2.995678272e-13,1.419818161e-13,3.011851562e-13,4.658777334e-13,2.738022263e-13,3.176082380e-13,7.061188016e-13,3.494039453e-13,4.168645038e-13,4.077982241e-13,4.805492198e-13,5.892286313e-13
0.86719,4.484496066e-13,4.247552034e-13,1.894788258e-13,1.419225113e-12,9.445156785e-13,4.981614896e-13,5.066974099e-13,1.120855819e-12,5.618287212e-13,2.745585966e-13,3.166941014e-13,1.155025688e-13,2.920915155e-13,3.386236284e-13,4.239642133e-13,5.660189388e-13,7.522854666e-13,8.339530142e-13,3.219473023e-13,4.809014083e-13,2.668395150e-13,1.481689360e-13,3.152445535e-13,5.015763158e-13,2.717578683e-13,2.807775782e-13,6.327750470e-13,3.329645186e-13,3.804011210e-13,3.856750860e-13,4.591430244e-13,4.958933858e-13
0.875,4.397949608e-13,3.994262719e-13,1.926956478e-13,1.327085326e-12,8.801382201e-13,4.657706878e-13,5.323882193e-13,1.033597495e-12,5.093941572e-13,2.874768894e-13,2.746286457e-13,9.915770975e-14,2.982735374e-13,3.701042647e-13,3.814215490e-13,5.122165094e-13,6.732577367e-13,7.750056490e-13,2.980277027e-13,4.145057991e-13,2.355741034e-13,1.512941493e-13,3.255005061e-13,5.320729850e-13,2.776309712e-13,2.504769707e-13,5.558474748e-13,3.151342098e-13,3.410752268e-13,3.659325866e-13,4.254937413e-13,4.290865237e-13
0.88281,4.382618853e-13,3.548451421e-13,1.989843309e-13,1.201193910e-12,7.854542466e-13,4.259884292e-13,5.671581036e-13,9.356265888e-13,4.644231428e-13,2.953392888e-13,2.348371426e-13,8.580297053e-14,3.198626759e-13,4.009284911e-13,3.402350076e-13,4.561488930e-13,5.899900215e-13,7.028718873e-13,2.683418472e-13,3.613212618e-13,2.053878248e-13,1.508698397e-13,3.330873868e-13,5.650022425e-13,2.878880511e-13,2.279538208e-13,4.819681032e-13,2.985429822e-13,3.097799795e-13,3.482488498e-13,3.805585116e-13,3.767433520e-13
0.89062,4.250671527e-13,3.020854834e-13,2.119503590e-13,1.063344774e-12,6.882293396e-13,3.904610750e-13,6.010349799e-13,8.411512691e-13,4.314966495e-13,3.009041970e-13,1.977517003e-13,7.560562371e-14,3.498002437e-13,4.389457662e-13,3.034441891e-13,4.014402884e-13,5.069264476e-13,6.255395616e-13,2.377293168e-13,3.122423011e-13,1.785483498e-13,1.477297674e-13,3.373948999e-13,6.159338885e-13,2.979670346e-13,2.125098749e-13,4.128256318e-13,2.798011836e-13,2.834044683e-13,3.312478430e-13,3.309559153e-13,3.250436548e-13
0.89844,4.182524523e-13,2.580344915e-13,2.270010566e-13,9.322671971e-13,6.061142797e-13,3.617670702e-13,6.290221450e-13,7.535869853e-13,4.138041258e-13,3.009884554e-13,1.665271121e-13,6.862283065e-14,3.857092484e-13,4.888148458e-13,2.734182082e-13,3.514464772e-13,4.304863598e-13,5.523055389e-13,2.140557391e-13,2.649920511e-13,1.568374384e-13,1.503421534e-13,3.378685828e-13,6.961097199e-13,3.102006730e-13,2.036176380e-13,3.492610264e-13,2.613253074e-13,2.598617034e-13,3.129957756e-13,2.866482197e-13,2.712048735e-13
0.90625,4.310539571e-13,2.251034124e-13,2.422111454e-13,8.132079684e-13,5.352499703e-13,3.371302458e-13,6.553889230e-13,6.683485475e-13,4.069805323e-13,2.971071560e-13,1.421386865e-13,6.614740400e-14,4.246361243e-13,5.475658848e-13,2.490026848e-13,3.073138622e-13,3.622227303e-13,4.872525000e-13,1.992623990e-13,2.297415004e-13,1.406381184e-13,1.625281003e-13,3.353861032e-13,7.936156575e-13,3.257538895e-13,2.040716210e-13,2.925280180e-13,2.440954723e-13,2.357647124e-13,2.946672161e-13,2.497318642e-13,2.262165714e-13
0.91406,4.551074007e-13,1.984394244e-13,2.642669486e-13,7.103038617e-13,4.692884804e-13,3.177533480e-13,6.863849767e-13,5.860064520e-13,4.074481918e-13,2.972866912e-13,1.220341295e-13,6.655087756e-14,4.671821795e-13,6.057991343e-13,2.298554838e-13,2.687778484e-13,2.975974111e-13,4.298351690e-13,1.904914692e-13,2.076710847e-13,1.286665428e-13,1.852293571e-13,3.311781133e-13,8.892214013e-13,3.429608968e-13,2.107253732e-13,2.429985300e-13,2.295854509e-13,2.123692182e-13,2.803546734e-13,2.169482731e-13,2.004094176e-13
0.92188,4.681211957e-13,1.736276171e-13,2.961106555e-13,6.262194096e-13,4.097940254e-13,3.053106870e-13,7.077444018e-13,5.097972116e-13,4.167234338e-13,3.128367706e-13,1.046833000e-13,6.844465444e-14,5.132106405e-13,6.541001309e-13,2.147196593e-13,2.374067139e-13,2.395341522e-13,3.811929466e-13,1.848020605e-13,1.929698967e-13,1.194802813e-13,2.061834113e-13,3.219566924e-13,9.860240792e-13,3.570419952e-13,2.225074680e-13,2.005993120e-13,2.128698661e-13,1.914948807e-13,2.684255342e-13,1.868694238e-13,1.918818661e-13
0.92969,4.647708755e-13,1.517211861e-13,3.247387282e-13,5.635940467e-13,3.594786703e-13,2.973186706e-13,7.102663398e-13,4.466598833e-13,4.340167938e-13,3.335816491e-13,9.000071194e-14,7.081309357e-14,5.577413499e-13,6.907364309e-13,2.013613596e-13,2.116666005e-13,1.923034573e-13,3.428635864e-13,1.807174041e-13,1.787186855e-13,1.125159138e-13,2.151618559e-13,3.054162331e-13,1.102063947e-12,3.663239094e-13,2.362794065e-13,1.661171258e-13,1.961683541e-13,1.722384249e-13,2.573007858e-13,1.621462494e-13,1.858163498e-13
0.9375,4.624310541e-13,1.355155508e-13,3.391255898e-13,5.161482536e-13,3.125127755e-13,2.895397934e-13,7.027565381e-13,3.927874096e-13,4.505088045e-13,3.363427038e-13,7.890526932e-14,7.335895952e-14,5.932319324e-13,7.225505587e-13,1.883054144e-13,1.900833261e-13,1.539980284e-13,3.130739563e-13,1.767893773e-13,1.616891366e-13,1.061335695e-13,2.081251805e-13,2.817574831e-13,1.230890444e-12,3.719991956e-13,2.484039440e-13,1.385174510e-13,1.810445398e-13,1.590782032e-13,2.457425782e-13,1.421854944e-13,1.757654985e-13
0.94531,4.765400246e-13,1.287442496e-13,3.444220883e-13,4.815988738e-13,2.667267830e-13,2.829660793e-13,6.911170053e-13,3.450969476e-13,4.616800485e-13,3.110516342e-13,7.094696701e-14,7.494083710e-14,6.180120060e-13,7.579001132e-13,1.759067408e-13,1.728590873e-13,1.234481013e-13,2.913133804e-13,1.738194893e-13,1.473587638e-13,9.975823818e-14,1.980006910e-13,2.547156595e-13,1.342255506e-12,3.754148435e-13,2.582011128e-13,1.180040648e-13,1.677052910e-13,1.535933979e-13,2.350839087e-13,1.248255555e-13,1.683833647e-13
0.95312,5.071765861e-13,1.338889676e-13,3.497386048e-13,4.622595507e-13,2.274739431e-13,2.791876792e-13,6.787773779e-13,3.038484225e-13,4.690319690e-13,2.767742154e-13,6.486739735e-14,7.579492779e-14,6.356293822e-13,7.966168578e-13,1.634683384e-13,1.589875161e-13,9.977495272e-14,2.788531421e-13,1.764890246e-13,1.400952391e-13,9.328492368e-14,2.001169621e-13,2.279399152e-13,1.419036519e-12,3.754861352e-13,2.629339203e-13,1.020773823e-13,1.570922693e-13,1.552405722e-13,2.294412419e-13,1.113038503e-13,1.679412683e-13
0.96094,5.376172864e-13,1.460748329e-13,3.472611229e-13,4.557530415e-13,1.960024887e-13,2.765297996e-13,6.597497298e-13,2.681978469e-13,4.716601691e-13,2.459044850e-13,5.912635288e-14,7.655278833e-14,6.557705909e-13,8.331493587e-13,1.505266626e-13,1.482522608e-13,8.160200300e-14,2.735056833e-13,1.832160006e-13,1.386283760e-13,8.666291868e-14,2.090532939e-13,2.022605874e-13,1.474281067e-12,3.674788107e-13,2.625748543e-13,8.992789996e-14,1.487228806e-13,1.639064948e-13,2.271896003e-13,1.005033679e-13,1.634499143e-13
0.96875,5.560361501e-13,1.593987237e-13,3.298567687e-13,4.601954046e-13,1.699635566e-13,2.716368815e-13,6.344174257e-13,2.399161422e-13,4.705811562e-13,2.192385500e-13,5.473483136e-14,7.781947922e-14,6.835841030e-13,8.572060018e-13,1.387113212e-13,1.417671460e-13,6.806738949e-14,2.726633174e-13,1.917002920e-13,1.387985118e-13,8.004359336e-14,2.128363121e-13,1.787505962e-13,1.523728560e-12,3.492554788e-13,2.552304762e-13,7.983678284e-14,1.441820665e-13,1.764434812e-13,2.279435098e-13,9.335976456e-14,1.475608674e-13
0.97656,5.683566575e-13,1.741633122e-13,3.020223786e-13,4.709369853e-13,1.453534758e-13,2.606410548e-13,6.090536766e-13,2.149197794e-13,4.626421338e-13,1.942940363e-13,5.248146524e-14,7.979728929e-14,7.162418502e-13,8.606409415e-13,1.265315699e-13,1.379788299e-13,5.990905419e-14,2.745162151e-13,1.989220609e-13,1.404345521e-13,7.427695590e-14,2.066549647e-13,1.583476919e-13,1.580970612e-12,3.237424996e-13,2.433279825e-13,7.249028344e-14,1.425886788e-13,1.930047513e-13,2.320315958e-13,8.967954212e-14,1.260409720e-13
0.98438,5.808626012e-13,1.919789756e-13,2.720512531e-13,4.860137993e-13,1.218974402e-13,2.451515078e-13,5.857581049e-13,1.899128366e-13,4.492262381e-13,1.734998917e-13,5.233986885e-14,8.302052507e-14,7.558434696e-13,8.475714113e-13,1.146796634e-13,1.350968752e-13,5.565105116e-14,2.784631958e-13,2.064184783e-13,1.467557966e-13,6.910880201e-14,1.985757240e-13,1.417233368e-13,1.644588529e-12,2.959319934e-13,2.273001908e-13,6.869597150e-14,1.414143783e-13,2.108508820e-13,2.397131666e-13,8.806497463e-14,1.046731623e-13
0.99219,5.984447330e-13,2.081809404e-13,2.415440807e-13,5.033406427e-13,1.014787318e-13,2.279094717e-13,5.636226018e-13,1.658877952e-13,4.305734540e-13,1.545118415e-13,5.394015613e-14,8.765725740e-14,8.026402049e-13,8.208307497e-13,1.044262902e-13,1.331714987e-13,5.395279986e-14,2.847542749e-13,2.113765589e-13,1.622608143e-13,6.369222259e-14,1.912051726e-13,1.288786574e-13,1.699055282e-12,2.666390100e-13,2.094786164e-13,6.840541044e-14,1.374086430e-13,2.319386596e-13,2.484488076e-13,8.807502649e-14,8.773355029e-14
1,6.184693835e-13,2.201110151e-13,2.081428645e-13,5.231021257e-13,8.521444089e-14,2.110688644e-13,5.470385084e-13,1.447466593e-13,4.061185753e-13,1.324875805e-13,5.697508016e-14,9.152631111e-14,8.492518123e-13,7.900411200e-13,9.639707396e-14,1.333764431e-13,5.445426281e-14,2.947340281e-13,2.156553385e-13,1.876485042e-13,5.900226934e-14,1.897122637e-13,1.224717658e-13,1.731372553e-12,2.362178455e-13,1.931548673e-13,7.221774419e-14,1.313323261e-13,2.504037459e-13,2.585211706e-13,8.952021727e-14,7.589412773e-14
1.0078,6.398547556e-13,2.304619294e-13,1.782658084e-13,5.433120386e-13,7.343208650e-14,1.960235285e-13,5.332502024e-13,1.276868223e-13,3.805171841e-13,1.104867379e-13,6.266197576e-14,9.528312095e-14,8.934570286e-13,7.613124702e-13,8.983762103e-14,1.334835529e-13,5.645058721e-14,3.070194684e-13,2.209656069e-13,2.171380701e-13,5.598273744e-14,1.959307295e-13,1.213142367e-13,1.724880965e-12,2.083057415e-13,1.797087323e-13,7.996751997e-14,1.244552258e-13,2.679426149e-13,2.704699837e-13,9.409965637e-14,6.976330307e-14
1.0156,6.638348127e-13,2.426295771e-13,1.550049735e-13,5.571823038e-13,6.850253731e-14,1.833969556e-13,5.177050420e-13,1.123362529e-13,3.556413576e-13,9.268580346e-14,7.009434851e-14,9.863456373e-14,9.365438737e-13,7.356896950e-13,8.354882858e-14,1.302345668e-13,5.913827457e-14,3.206141021e-13,2.297715823e-13,2.484634253e-13,5.404829841e-14,2.098583371e-13,1.235473349e-13,1.693465504e-12,1.836510562e-13,1.715987818e-13,9.187270015e-14,1.141209595e-13,2.802759990e-13,2.804912548e-13,1.020202717e-13,6.696326093e-14
1.0234,6.783420572e-13,2.552257337e-13,1.379713766e-13,5.626977693e-13,7.214365192e-14,1.707747781e-13,4.944653624e-13,9.968942887e-14,3.316927294e-13,8.067987292e-14,7.866292749e-14,1.010711221e-13,9.775782272e-13,7.022132175e-13,7.852628114e-14,1.250738769e-13,6.289736860e-14,3.344764359e-13,2.367075867e-13,2.850204449e-13,5.321084728e-14,2.273286232e-13,1.291726173e-13,1.654688488e-12,1.607416596e-13,1.695465176e-13,1.084829480e-13,9.848327952e-14,2.923755743e-13,2.839977245e-13,1.144867059e-13,6.440246436e-14
1.0312,6.699170089e-13,2.589419578e-13,1.265271738e-13,5.547844902e-13,8.262560912e-14,1.568029516e-13,4.672030761e-13,8.941268233e-14,3.113511010e-13,7.022617170e-14,8.897619227e-14,1.017408111e-13,1.019400409e-12,6.573498336e-13,7.641189138e-14,1.203573309e-13,6.759261575e-14,3.470350097e-13,2.377133119e-13,3.279062421e-13,5.420261146e-14,2.416167780e-13,1.360525694e-13,1.618454777e-12,1.412085482e-13,1.735637675e-13,1.284375506e-13,8.234459918e-14,3.033894195e-13,2.814534007e-13,1.299368804e-13,6.448191184e-14
1.0391,6.386128360e-13,2.490889428e-13,1.198662681e-13,5.324818924e-13,9.741664718e-14,1.409998866e-13,4.412976154e-13,7.886183038e-14,2.950786852e-13,5.980846493e-14,9.979698143e-14,1.008957937e-13,1.061124131e-12,6.046884319e-13,7.597333694e-14,1.162113775e-13,7.282153416e-14,3.593590826e-13,2.338100471e-13,3.737728853e-13,5.806137691e-14,2.478278894e-13,1.411583974e-13,1.585818341e-12,1.246018822e-13,1.846445666e-13,1.504066119e-13,6.787460687e-14,3.135778134e-13,2.747187512e-13,1.458192104e-13,7.230070160e-14
1.0469,5.946647373e-13,2.282203242e-13,1.170205152e-13,4.966906084e-13,1.160801551e-13,1.247338149e-13,4.192352167e-13,6.856706197e-14,2.833514109e-13,4.943995717e-14,1.108438056e-13,9.871362705e-14,1.099487934e-12,5.513733704e-13,7.502911440e-14,1.102866845e-13,7.734783163e-14,3.726061773e-13,2.283604189e-13,4.164556025e-13,6.520525881e-14,2.457979028e-13,1.424202983e-13,1.544011725e-12,1.099756091e-13,2.006711843e-13,1.712916234e-13,5.786911057e-14,3.196776314e-13,2.652699698e-13,1.615941264e-13,8.995636007e-14
1.0547,5.497973827e-13,2.052386793e-13,1.166429990e-13,4.555607056e-13,1.417423068e-13,1.112717817e-13,4.003531638e-13,5.991595943e-14,2.769185719e-13,4.057562261e-14,1.217973986e-13,9.600307338e-14,1.136107511e-12,5.046348924e-13,7.406981530e-14,1.036899815e-13,8.115656712e-14,3.904893844e-13,2.269691359e-13,4.574290837e-13,7.572392038e-14,2.421918052e-13,1.422644355e-13,1.495655188e-12,9.873489727e-14,2.210963318e-13,1.901287992e-13,5.162097810e-14,3.257952292e-13,2.542753883e-13,1.781637066e-13,1.193521946e-13
1.0625,5.126862353e-13,1.853410725e-13,1.192715277e-13,4.132994629e-13,1.753133128e-13,9.992449915e-14,3.849848222e-13,5.269937744e-14,2.766168441e-13,3.432269059e-14,1.322158324e-13,9.288894970e-14,1.170589811e-12,4.662118410e-13,7.400811705e-14,9.811452577e-14,8.485192634e-14,4.151869635e-13,2.327418839e-13,5.013172410e-13,9.074591909e-14,2.417925670e-13,1.416509012e-13,1.449976562e-12,9.011057520e-14,2.440799518e-13,2.038376690e-13,4.992221424e-14,3.285174858e-13,2.418913441e-13,1.976667211e-13,1.575688815e-13
1.0703,4.839321141e-13,1.709807192e-13,1.236291349e-13,3.736237865e-13,2.154812181e-13,9.035458378e-14,3.705614218e-13,4.759079290e-14,2.821306971e-13,3.132604119e-14,1.393727995e-13,8.894052134e-14,1.201971489e-12,4.362101520e-13,7.431118089e-14,9.411251752e-14,8.868912479e-14,4.472475424e-13,2.475189542e-13,5.461780468e-13,1.105796213e-13,2.472861415e-13,1.410211313e-13,1.411261797e-12,8.374325396e-14,2.676337554e-13,2.116011012e-13,5.138227789e-14,3.297008929e-13,2.301479223e-13,2.196112912e-13,2.028367744e-13
1.0781,4.618187912e-13,1.586066093e-13,1.287303620e-13,3.388917079e-13,2.588213250e-13,8.272303944e-14,3.590052034e-13,4.493444264e-14,2.939958776e-13,3.066076830e-14,1.436281262e-13,8.512503480e-14,1.231931724e-12,4.132544069e-13,7.408071452e-14,9.138858223e-14,9.234623163e-14,4.862135909e-13,2.717131621e-13,5.865661120e-13,1.351482225e-13,2.530817218e-13,1.414146349e-13,1.384512232e-12,7.999929161e-14,2.898070854e-13,2.119450999e-13,5.827356627e-14,3.246583216e-13,2.207652478e-13,2.416247740e-13,2.531261671e-13
1.0859,4.430776370e-13,1.465048473e-13,1.344964755e-13,3.080833064e-13,3.026179248e-13,7.616953091e-14,3.538031853e-13,4.442879110e-14,3.093780013e-13,3.037644380e-14,1.459742491e-13,8.126107843e-14,1.258402492e-12,3.971444265e-13,7.305055743e-14,8.966913473e-14,9.526757530e-14,5.302088494e-13,3.021633388e-13,6.177446191e-13,1.621863580e-13,2.553463618e-13,1.440231595e-13,1.368146222e-12,7.733483474e-14,3.088763804e-13,2.048392102e-13,6.846868681e-14,3.174143754e-13,2.123882126e-13,2.625359131e-13,3.062481515e-13
1.0938,4.278328591e-13,1.339303062e-13,1.411599704e-13,2.816665825e-13,3.465759740e-13,7.072487778e-14,3.487460735e-13,4.607822263e-14,3.293307436e-13,2.973003286e-14,1.476403039e-13,7.799059344e-14,1.280858094e-12,3.872889736e-13,7.142449524e-14,8.954129699e-14,9.770994342e-14,5.790799559e-13,3.372774465e-13,6.406441188e-13,1.897565606e-13,2.519606171e-13,1.494618962e-13,1.362795428e-12,7.607090049e-14,3.265203902e-13,1.936026985e-13,8.132467639e-14,3.036267980e-13,2.057019799e-13,2.816468051e-13,3.611981305e-13
1.1016,4.198610818e-13,1.235411051e-13,1.497044804e-13,2.604011956e-13,3.864954532e-13,6.686514861e-14,3.441627009e-13,4.957344140e-14,3.509038003e-13,2.907780831e-14,1.495087569e-13,7.475927765e-14,1.295692236e-12,3.840321757e-13,7.040783303e-14,9.181033585e-14,1.000285169e-13,6.313940762e-13,3.758869026e-13,6.589032452e-13,2.167412853e-13,2.463193588e-13,1.598053260e-13,1.368024942e-12,7.617113755e-14,3.417595570e-13,1.790213503e-13,9.508546390e-14,2.852736806e-13,2.024787565e-13,2.972552254e-13,4.171790665e-13
1.1094,4.181025616e-13,1.133068617e-13,1.595521685e-13,2.436052044e-13,4.172227321e-13,6.397402841e-14,3.372077236e-13,5.440863119e-14,3.698016313e-13,2.996125510e-14,1.524077826e-13,7.168264998e-14,1.296335614e-12,3.829780179e-13,6.984326004e-14,9.577170461e-14,1.026922777e-13,6.812626653e-13,4.140324357e-13,6.785603475e-13,2.416358221e-13,2.392814531e-13,1.777554206e-13,1.375043508e-12,7.665196118e-14,3.551526637e-13,1.650604704e-13,1.113019449e-13,2.666601894e-13,2.016807479e-13,3.065619983e-13,4.705181655e-13
1.1172,4.194179873e-13,1.013515877e-13,1.721793278e-13,2.266761555e-13,4.380331333e-13,6.184609581e-14,3.272054188e-13,5.979621207e-14,3.857844092e-13,3.496568002e-14,1.573300493e-13,6.834461438e-14,1.281759873e-12,3.847179512e-13,6.910631183e-14,1.000441583e-13,1.046941234e-13,7.265885724e-13,4.504459553e-13,6.997599016e-13,2.635307156e-13,2.350799708e-13,2.021828085e-13,1.382613377e-12,7.779676247e-14,3.676107988e-13,1.537121847e-13,1.305370160e-13,2.499103270e-13,2.049631658e-13,3.095900466e-13,5.239035137e-13
1.125,4.237131060e-13,8.982268977e-14,1.836935494e-13,2.096635742e-13,4.472328499e-13,5.927039270e-14,3.124444502e-13,6.454953104e-14,3.983237330e-13,4.378450179e-14,1.638913768e-13,6.514720198e-14,1.254504675e-12,3.897660498e-13,6.769006241e-14,1.041816501e-13,1.056782811e-13,7.658356448e-13,4.848423593e-13,7.197650628e-13,2.818832849e-13,2.363804677e-13,2.330694415e-13,1.392065793e-12,8.078077141e-14,3.774996351e-13,1.459929887e-13,1.503892502e-13,2.366284300e-13,2.124965791e-13,3.077497206e-13,5.695282703e-13
1.1328,4.281831427e-13,7.929519920e-14,1.942375342e-13,1.925553058e-13,4.439177203e-13,5.657818209e-14,2.968130295e-13,6.887135683e-14,4.052525000e-13,5.369743309e-14,1.717199092e-13,6.109299631e-14,1.214835189e-12,3.969174454e-13,6.621318523e-14,1.084578041e-13,1.054259919e-13,7.978219993e-13,5.152446276e-13,7.333707886e-13,2.948520070e-13,2.409327904e-13,2.709057398e-13,1.406661516e-12,8.560886094e-14,3.844454230e-13,1.431519754e-13,1.677026005e-13,2.269262288e-13,2.234270145e-13,3.006623289e-13,6.011045396e-13
1.1406,4.268613372e-13,7.174728912e-14,2.046507371e-13,1.752422205e-13,4.273016704e-13,5.360465488e-14,2.825132654e-13,7.279831615e-14,4.039143298e-13,6.509298799e-14,1.815204814e-13,5.656343465e-14,1.157414259e-12,4.062455799e-13,6.563940590e-14,1.133695813e-13,1.049745839e-13,8.217278041e-13,5.418234356e-13,7.364805108e-13,3.014022270e-13,2.470499108e-13,3.141525596e-13,1.421678725e-12,9.053151311e-14,3.900421105e-13,1.462816067e-13,1.832269727e-13,2.219931169e-13,2.362354950e-13,2.911278480e-13,6.149839277e-13
1.1484,4.210454296e-13,6.774840024e-14,2.146242435e-13,1.588322636e-13,4.038378866e-13,5.080886156e-14,2.710131991e-13,7.755704138e-14,3.959336561e-13,7.756158824e-14,1.925506373e-13,5.151636902e-14,1.081932333e-12,4.166805042e-13,6.629580400e-14,1.192335804e-13,1.059238988e-13,8.371387081e-13,5.622405089e-13,7.303608265e-13,3.016948511e-13,2.522378989e-13,3.584696136e-13,1.439442979e-12,9.539712088e-14,3.942076015e-13,1.553242045e-13,1.968939210e-13,2.208377108e-13,2.492955991e-13,2.797255289e-13,6.142754485e-13
1.1562,4.158517808e-13,6.711371216e-14,2.262584162e-13,1.438420192e-13,3.779158756e-13,4.852460381e-14,2.579965304e-13,8.283391736e-14,3.826885098e-13,9.033679115e-14,2.035892925e-13,4.580999358e-14,9.975469814e-13,4.237879554e-13,6.741870915e-14,1.260027478e-13,1.089343222e-13,8.450877323e-13,5.741832911e-13,7.151881842e-13,2.978012581e-13,2.576150171e-13,4.015318288e-13,1.463115167e-12,1.011154064e-13,3.955036985e-13,1.682574563e-13,2.056661995e-13,2.225853187e-13,2.591513759e-13,2.667943247e-13,6.006983174e-13
1.1641,4.078352672e-13,6.831879921e-14,2.340385408e-13,1.312231230e-13,3.496639449e-13,4.635227820e-14,2.457564309e-13,9.178832613e-14,3.657135998e-13,1.034855540e-13,2.156914461e-13,3.956885838e-14,9.103509710e-13,4.227840364e-13,6.884927942e-14,1.331390529e-13,1.125044210e-13,8.459988847e-13,5.757287039e-13,6.926039040e-13,2.911969455e-13,2.621306069e-13,4.408944243e-13,1.488642015e-12,1.060714434e-13,3.942515892e-13,1.857858353e-13,2.092874080e-13,2.250000087e-13,2.672651292e-13,2.526129193e-13,5.765625036e-13
1.1719,3.994181307e-13,7.052084398e-14,2.423137172e-13,1.197845363e-13,3.189468701e-13,4.410672990e-14,2.389036957e-13,1.056397095e-13,3.452094636e-13,1.174836577e-13,2.276987980e-13,3.360373603e-14,8.269574293e-13,4.176650636e-13,7.059544489e-14,1.404173553e-13,1.165202530e-13,8.407294055e-13,5.673023227e-13,6.613082727e-13,2.838565968e-13,2.674905839e-13,4.754875081e-13,1.510557367e-12,1.110345341e-13,3.902087364e-13,2.052588399e-13,2.064676489e-13,2.265386795e-13,2.726320668e-13,2.395517875e-13,5.465471103e-13
1.1797,3.879050855e-13,7.171128354e-14,2.538210811e-13,1.093045343e-13,2.860495840e-13,4.289463743e-14,2.393614126e-13,1.235182794e-13,3.224941303e-13,1.296122957e-13,2.375322470e-13,2.847060909e-14,7.470071573e-13,4.108578092e-13,7.298711545e-14,1.480129464e-13,1.218506620e-13,8.293364281e-13,5.481618284e-13,6.217251596e-13,2.759305236e-13,2.719436634e-13,5.027699533e-13,1.526595037e-12,1.162415427e-13,3.846163254e-13,2.254281862e-13,2.045158278e-13,2.277613606e-13,2.741088996e-13,2.283370868e-13,5.114606311e-13
1.1875,3.742186533e-13,7.130156881e-14,2.674945072e-13,1.004910415e-13,2.574097086e-13,4.316135359e-14,2.448614969e-13,1.442246221e-13,2.977927005e-13,1.351887543e-13,2.441535771e-13,2.392993091e-14,6.729314528e-13,4.011959838e-13,7.528144259e-14,1.555801715e-13,1.282135331e-13,8.115318692e-13,5.185481998e-13,5.729159304e-13,2.676529991e-13,2.747185882e-13,5.211980078e-13,1.542334504e-12,1.217153718e-13,3.755347562e-13,2.441371693e-13,2.009710426e-13,2.313768964e-13,2.686902170e-13,2.178653687e-13,4.740345120e-13
1.1953,3.574914551e-13,6.917316750e-14,2.849970769e-13,9.516670108e-14,2.369311064e-13,4.458275480e-14,2.544103923e-13,1.713233388e-13,2.741713851e-13,1.346523407e-13,2.476381162e-13,2.033680438e-14,6.120982592e-13,3.882587930e-13,7.705977600e-14,1.619339358e-13,1.349014831e-13,7.896401340e-13,4.803364658e-13,5.189068775e-13,2.611071722e-13,2.740276051e-13,5.306477669e-13,1.552977508e-12,1.264586771e-13,3.649687751e-13,2.597151991e-13,2.006639020e-13,2.370195478e-13,2.558131423e-13,2.086763603e-13,4.362985418e-13
1.2031,3.396967339e-13,6.737437146e-14,3.028317991e-13,9.339015318e-14,2.221169621e-13,4.660761077e-14,2.719742629e-13,2.012301682e-13,2.511259894e-13,1.340899634e-13,2.511570052e-13,1.777710626e-14,5.650408823e-13,3.754958635e-13,7.830613919e-14,1.661624532e-13,1.410040587e-13,7.668476503e-13,4.382896106e-13,4.674909659e-13,2.592422664e-13,2.697991030e-13,5.340463124e-13,1.554376212e-12,1.311501114e-13,3.543409657e-13,2.728049801e-13,1.991465488e-13,2.398033695e-13,2.398612160e-13,2.005241368e-13,4.010350703e-13
1.2109,3.228883208e-13,6.562980211e-14,3.187757388e-13,9.218407288e-14,2.101701777e-13,4.922996024e-14,2.938232700e-13,2.311565471e-13,2.295280618e-13,1.352871879e-13,2.549230936e-13,1.653102769e-14,5.288474715e-13,3.637980235e-13,7.859326745e-14,1.680599571e-13,1.458195510e-13,7.409512111e-13,3.957861420e-13,4.193731098e-13,2.621073143e-13,2.641849853e-13,5.344080750e-13,1.550769278e-12,1.355616295e-13,3.417321104e-13,2.819061561e-13,1.963223664e-13,2.370692340e-13,2.231558494e-13,1.944215227e-13,3.700081133e-13
1.2188,3.045615335e-13,6.328457621e-14,3.263147285e-13,9.212682085e-14,2.047476617e-13,5.365050644e-14,3.172951194e-13,2.594710352e-13,2.087102345e-13,1.339200891e-13,2.604007388e-13,1.681377898e-14,5.028615245e-13,3.492346713e-13,7.846853170e-14,1.684612843e-13,1.502086031e-13,7.096448736e-13,3.541789101e-13,3.703941019e-13,2.705009235e-13,2.564285979e-13,5.332032367e-13,1.546543499e-12,1.409063643e-13,3.311087851e-13,2.911397351e-13,1.870821157e-13,2.327359967e-13,2.077646075e-13,1.918785910e-13,3.442945212e-13
1.2266,2.832031351e-13,5.861642856e-14,3.228492388e-13,9.475492603e-14,2.093166488e-13,6.005047816e-14,3.436532363e-13,2.853462297e-13,1.874379770e-13,1.293993920e-13,2.675504869e-13,1.771913866e-14,4.848263047e-13,3.315873931e-13,7.820823039e-14,1.677045910e-13,1.542064966e-13,6.735049314e-13,3.158017418e-13,3.235361823e-13,2.865801472e-13,2.463673872e-13,5.301396215e-13,1.550914109e-12,1.469231703e-13,3.258941198e-13,3.020651966e-13,1.721744363e-13,2.323548385e-13,1.917656747e-13,1.933524162e-13,3.232701159e-13
1.2344,2.625996770e-13,5.159371577e-14,3.132318196e-13,9.754988073e-14,2.207524469e-13,6.633249134e-14,3.712286864e-13,3.050568074e-13,1.675352715e-13,1.256234185e-13,2.756164615e-13,1.876824597e-14,4.734025864e-13,3.145492161e-13,7.808437058e-14,1.656721274e-13,1.572845956e-13,6.328264934e-13,2.815611357e-13,2.841127945e-13,3.087023408e-13,2.323975882e-13,5.251424006e-13,1.559264823e-12,1.532695197e-13,3.258369394e-13,3.150444900e-13,1.547633900e-13,2.320746350e-13,1.767089075e-13,1.954938060e-13,3.054618606e-13
1.2422,2.483220215e-13,4.515680329e-14,2.951779315e-13,9.903710798e-14,2.377441864e-13,7.129848132e-14,3.993258904e-13,3.161952809e-13,1.514106537e-13,1.243932127e-13,2.855864024e-13,1.955762673e-14,4.652879476e-13,2.988183315e-13,7.778415332e-14,1.616172638e-13,1.594506136e-13,5.889895161e-13,2.555857579e-13,2.556185692e-13,3.365082747e-13,2.195689004e-13,5.204122287e-13,1.569814699e-12,1.615830263e-13,3.309339426e-13,3.314658448e-13,1.371864212e-13,2.295847316e-13,1.659238497e-13,1.995524640e-13,2.921608057e-13
1.25,2.331090086e-13,3.973544224e-14,2.683418809e-13,1.001771817e-13,2.580047732e-13,7.506852353e-14,4.248389839e-13,3.168686255e-13,1.394498916e-13,1.211733356e-13,2.992007447e-13,2.074907013e-14,4.579782205e-13,2.832826367e-13,7.753476752e-14,1.557961872e-13,1.606880054e-13,5.414237251e-13,2.377687225e-13,2.397422657e-13,3.697830944e-13,2.068760232e-13,5.141902034e-13,1.582325256e-12,1.712676406e-13,3.413178507e-13,3.506507539e-13,1.182202934e-13,2.250423174e-13,1.612968555e-13,2.058661840e-13,2.840383458e-13
1.2578,2.209276494e-13,3.481825095e-14,2.342426178e-13,1.006684127e-13,2.805228524e-13,7.843736011e-14,4.456325594e-13,3.070800267e-13,1.301909449e-13,1.167185459e-13,3.146809985e-13,2.250922727e-14,4.520154491e-13,2.647525855e-13,7.812368241e-14,1.504034566e-13,1.615124283e-13,4.910883026e-13,2.256939398e-13,2.316867328e-13,4.063233547e-13,1.953553492e-13,5.079620608e-13,1.596264683e-12,1.816686471e-13,3.589503853e-13,3.730840349e-13,9.930575708e-14,2.248839846e-13,1.621839520e-13,2.137074493e-13,2.845570395e-13
1.2656,2.148622149e-13,3.061541087e-14,2.010861269e-13,1.005379390e-13,3.072594352e-13,8.061414854e-14,4.613179446e-13,2.880001006e-13,1.230013646e-13,1.159153786e-13,3.303471086e-13,2.534625540e-14,4.468732899e-13,2.443017508e-13,7.934500132e-14,1.451579586e-13,1.629272140e-13,4.411984824e-13,2.203599264e-13,2.293612971e-13,4.463764988e-13,1.853525295e-13,5.015778875e-13,1.606497395e-12,1.921312754e-13,3.830095320e-13,3.963062354e-13,8.336722487e-14,2.280716792e-13,1.678307807e-13,2.226597098e-13,2.916450886e-13
1.2734,2.137055660e-13,2.888379245e-14,1.736777622e-13,1.021734581e-13,3.367427426e-13,7.959506903e-14,4.645283294e-13,2.621821348e-13,1.168401500e-13,1.213658887e-13,3.482786699e-13,2.959397378e-14,4.367071180e-13,2.212845826e-13,8.113929786e-14,1.402659900e-13,1.655913680e-13,3.919403832e-13,2.199761303e-13,2.295363981e-13,4.868404429e-13,1.776955621e-13,4.946247139e-13,1.609963705e-12,2.017337775e-13,4.065089500e-13,4.163019150e-13,6.991397176e-14,2.334864333e-13,1.780502037e-13,2.336341808e-13,2.893711716e-13
1.2812,2.082156448e-13,2.965876963e-14,1.569366843e-13,1.046770750e-13,3.645013916e-13,7.613300199e-14,4.547940699e-13,2.311361782e-13,1.125699649e-13,1.289923716e-13,3.676059894e-13,3.438808739e-14,4.205893540e-13,1.989020283e-13,8.318150120e-14,1.359496362e-13,1.691066138e-13,3.457476916e-13,2.251162968e-13,2.313801598e-13,5.245704152e-13,1.732341333e-13,4.846808685e-13,1.601046955e-12,2.135362523e-13,4.272355125e-13,4.304865342e-13,6.003378899e-14,2.406262952e-13,1.937812009e-13,2.452787825e-13,2.754760808e-13
1.2891,2.002267487e-13,3.254794322e-14,1.529417769e-13,1.088529025e-13,3.815324520e-13,7.303425298e-14,4.354637549e-13,1.976924335e-13,1.109392542e-13,1.355903237e-13,3.872481954e-13,4.117460962e-14,3.999089964e-13,1.793545196e-13,8.568954371e-14,1.328909093e-13,1.738187970e-13,3.045518226e-13,2.305131844e-13,2.406779748e-13,5.562380538e-13,1.700428881e-13,4.730357500e-13,1.576651394e-12,2.254620405e-13,4.458920726e-13,4.380409582e-13,5.343007414e-14,2.503819151e-13,2.150824218e-13,2.541967355e-13,2.608994029e-13
1.2969,1.962174577e-13,3.518804846e-14,1.598392942e-13,1.138668722e-13,3.826840583e-13,7.182851062e-14,4.111188118e-13,1.659117224e-13,1.116858847e-13,1.392005154e-13,4.075210863e-13,5.047860912e-14,3.762189745e-13,1.618247168e-13,8.917777647e-14,1.316887408e-13,1.802121632e-13,2.704384965e-13,2.307144056e-13,2.593680567e-13,5.764871094e-13,1.661246951e-13,4.602104482e-13,1.521503635e-12,2.353982061e-13,4.617459469e-13,4.396504198e-13,4.957880202e-14,2.673736560e-13,2.396837874e-13,2.583131458e-13,2.509367095e-13
1.3047,1.985911947e-13,3.613878698e-14,1.750056586e-13,1.184256786e-13,3.751628653e-13,7.093979243e-14,3.809040039e-13,1.367776433e-13,1.142484837e-13,1.411928871e-13,4.261034998e-13,6.155676215e-14,3.528611338e-13,1.430212868e-13,9.246042900e-14,1.309382634e-13,1.876583174e-13,2.436921464e-13,2.223949802e-13,2.786400155e-13,5.842649805e-13,1.565163577e-13,4.483843838e-13,1.436476940e-12,2.410285140e-13,4.740953983e-13,4.347861674e-13,4.816375095e-14,2.870533593e-13,2.621270729e-13,2.588606992e-13,2.425865980e-13
1.3125,2.051650833e-13,3.869617143e-14,1.997258070e-13,1.235038611e-13,3.653686178e-13,7.040963115e-14,3.452416792e-13,1.112332958e-13,1.183361110e-13,1.474255786e-13,4.422874157e-13,7.419416474e-14,3.345146230e-13,1.248340885e-13,9.438916001e-14,1.296333858e-13,1.958209681e-13,2.256335189e-13,2.118039034e-13,2.901501224e-13,5.818286243e-13,1.465812523e-13,4.382266928e-13,1.339649772e-12,2.446919795e-13,4.805180837e-13,4.233472044e-13,4.849896894e-14,3.108784030e-13,2.830807911e-13,2.611202039e-13,2.251757262e-13
1.3203,2.097019839e-13,4.380112996e-14,2.311870983e-13,1.284175480e-13,3.513985030e-13,7.233380496e-14,3.066453357e-13,8.926928666e-14,1.233730644e-13,1.582530481e-13,4.504993067e-13,8.738788486e-14,3.227070100e-13,1.109666593e-13,9.519393806e-14,1.288478267e-13,2.048212404e-13,2.165747916e-13,1.994664215e-13,2.916869352e-13,5.689444882e-13,1.389329757e-13,4.286940146e-13,1.239104269e-12,2.498374206e-13,4.790021779e-13,4.064393351e-13,5.183706796e-14,3.348886809e-13,3.007668531e-13,2.630820874e-13,2.030826376e-13
1.3281,2.134433992e-13,5.068416156e-14,2.687757811e-13,1.346937224e-13,3.264490013e-13,7.688127056e-14,2.692133611e-13,7.229039421e-14,1.284126363e-13,1.684791481e-13,4.498192224e-13,1.003406917e-13,3.145647945e-13,1.008661723e-13,9.600885757e-14,1.299681905e-13,2.152759521e-13,2.164878372e-13,1.862788644e-13,2.931584678e-13,5.448952266e-13,1.350972962e-13,4.154546671e-13,1.139175299e-12,2.567688255e-13,4.780208165e-13,3.907263166e-13,5.889012429e-14,3.631893531e-13,3.139619726e-13,2.659782297e-13,1.878946229e-13
1.3359,2.216192111e-13,5.646844458e-14,3.031744832e-13,1.407108336e-13,2.935573644e-13,8.192284295e-14,2.371121643e-13,6.169267656e-14,1.343681133e-13,1.689689115e-13,4.435493796e-13,1.134945793e-13,3.091712782e-13,9.532699244e-14,9.791312932e-14,1.339057833e-13,2.280967951e-13,2.260355121e-13,1.694900323e-13,3.010707419e-13,5.096978540e-13,1.300415006e-13,3.989324633e-13,1.038595142e-12,2.651477525e-13,4.818644512e-13,3.781895959e-13,7.126855083e-14,3.932466055e-13,3.189650006e-13,2.696991259e-13,1.866790152e-13
1.3438,2.320843592e-13,6.119300571e-14,3.277785286e-13,1.454096202e-13,2.622266840e-13,8.456058013e-14,2.114133288e-13,5.582906521e-14,1.412275942e-13,1.630486528e-13,4.324119531e-13,1.255689383e-13,3.079332692e-13,9.584822192e-14,1.007580640e-13,1.388188463e-13,2.420298843e-13,2.410393247e-13,1.506415840e-13,3.135118629e-13,4.690310719e-13,1.213502270e-13,3.826906642e-13,9.292174868e-13,2.721623805e-13,4.919895650e-13,3.713754008e-13,9.086056640e-14,4.276728640e-13,3.151433081e-13,2.759643410e-13,1.901352811e-13
1.3516,2.374537238e-13,6.818544929e-14,3.467491395e-13,1.525725504e-13,2.386102233e-13,8.756275535e-14,1.909574556e-13,5.326227680e-14,1.482315724e-13,1.603368817e-13,4.162564824e-13,1.365315789e-13,3.133240851e-13,1.015722161e-13,1.037010091e-13,1.432577844e-13,2.553710843e-13,2.587167862e-13,1.334836508e-13,3.266685373e-13,4.277454173e-13,1.122339912e-13,3.682174089e-13,8.120696503e-13,2.784961959e-13,5.050207411e-13,3.694120197e-13,1.190312823e-13,4.627522525e-13,3.061517904e-13,2.829864472e-13,1.919959590e-13
1.3594,2.375614072e-13,7.818742414e-14,3.648058454e-13,1.644697491e-13,2.244654446e-13,9.179082549e-14,1.743492689e-13,5.620937673e-14,1.531667581e-13,1.641441980e-13,3.952059968e-13,1.463398198e-13,3.217632616e-13,1.096421665e-13,1.079794940e-13,1.474614677e-13,2.679589116e-13,2.773305180e-13,1.196003828e-13,3.384508760e-13,3.885928783e-13,1.068756609e-13,3.555729488e-13,6.989439142e-13,2.850879381e-13,5.194225878e-13,3.723233391e-13,1.594174133e-13,4.923000583e-13,2.932789243e-13,2.919319033e-13,1.997452326e-13
1.3672,2.412364821e-13,8.979216672e-14,3.775607667e-13,1.812700568e-13,2.174215289e-13,9.616542159e-14,1.613281287e-13,6.476105172e-14,1.556365411e-13,1.679026808e-13,3.732880454e-13,1.553279235e-13,3.266381911e-13,1.195727102e-13,1.135381478e-13,1.503679986e-13,2.806616884e-13,2.969280062e-13,1.094866915e-13,3.517284637e-13,3.550986099e-13,1.050966681e-13,3.446905623e-13,5.961348893e-13,2.927128343e-13,5.352983880e-13,3.788228374e-13,2.080991804e-13,5.089956386e-13,2.786408727e-13,3.035123628e-13,2.211381105e-13
1.375,2.494940088e-13,1.007771667e-13,3.807473054e-13,2.028588465e-13,2.178884160e-13,9.849628110e-14,1.540050408e-13,7.890564595e-14,1.571551829e-13,1.658665541e-13,3.516813693e-13,1.645917728e-13,3.262571957e-13,1.324857005e-13,1.191595787e-13,1.504011357e-13,2.925078171e-13,3.143728780e-13,1.008947200e-13,3.649404826e-13,3.259809624e-13,1.018417834e-13,3.378919801e-13,5.044487969e-13,2.968828816e-13,5.460828005e-13,3.851049534e-13,2.653604556e-13,5.143920603e-13,2.618604166e-13,3.152475047e-13,2.459141660e-13
1.3828,2.516934242e-13,1.138198866e-13,3.842802126e-13,2.321527889e-13,2.303827125e-13,9.898656922e-14,1.546911468e-13,9.772361999e-14,1.603207468e-13,1.633571159e-13,3.357805665e-13,1.764693456e-13,3.284422387e-13,1.483807641e-13,1.254389774e-13,1.485085139e-13,3.032153156e-13,3.261001937e-13,9.325322180e-14,3.736587196e-13,3.030202405e-13,9.554193746e-14,3.374796559e-13,4.221923414e-13,2.948627321e-13,5.512812770e-13,3.958126822e-13,3.289545394e-13,5.189853520e-13,2.454354069e-13,3.254660161e-13,2.615015948e-13
1.3906,2.466329391e-13,1.275354913e-13,3.934741215e-13,2.677714406e-13,2.524805898e-13,1.004039537e-13,1.624384818e-13,1.211867781e-13,1.637900406e-13,1.673681600e-13,3.272442998e-13,1.915641378e-13,3.353157204e-13,1.640831670e-13,1.326333854e-13,1.458531514e-13,3.117046834e-13,3.337553240e-13,8.720558025e-14,3.762507226e-13,2.862503261e-13,8.916254017e-14,3.424688386e-13,3.577376850e-13,2.871107681e-13,5.535692061e-13,4.130854888e-13,3.960308144e-13,5.287147629e-13,2.301032374e-13,3.324276149e-13,2.721915817e-13
1.3984,2.409163777e-13,1.394490989e-13,4.121146710e-13,3.078839687e-13,2.804263574e-13,1.021718053e-13,1.769491688e-13,1.509083267e-13,1.657722339e-13,1.732492831e-13,3.240097065e-13,2.084500550e-13,3.379395176e-13,1.767902178e-13,1.406925085e-13,1.428792954e-13,3.161350661e-13,3.371083251e-13,8.182519726e-14,3.758515797e-13,2.719374425e-13,8.524112693e-14,3.503842410e-13,3.100403258e-13,2.759900622e-13,5.502857775e-13,4.330449440e-13,4.617425204e-13,5.419881749e-13,2.151626814e-13,3.341625939e-13,2.908578109e-13
1.4062,2.390287589e-13,1.476340423e-13,4.365492649e-13,3.505125639e-13,3.115422288e-13,1.052485759e-13,1.957677830e-13,1.864058426e-13,1.683445156e-13,1.739168000e-13,3.271802233e-13,2.281723262e-13,3.365889391e-13,1.879151225e-13,1.510349405e-13,1.404296440e-13,3.179507251e-13,3.375568877e-13,7.793518057e-14,3.755523356e-13,2.584167799e-13,8.558463234e-14,3.604321228e-13,2.703429379e-13,2.643045764e-13,5.427008473e-13,4.580522192e-13,5.232861532e-13,5.598403231e-13,2.021103377e-13,3.339625937e-13,3.150823610e-13
1.4141,2.369843479e-13,1.562391129e-13,4.640030801e-13,3.927358832e-13,3.462145978e-13,1.079500276e-13,2.158274647e-13,2.263738748e-13,1.719110759e-13,1.718395242e-13,3.331466747e-13,2.488529774e-13,3.349888526e-13,2.005126220e-13,1.616787637e-13,1.385601629e-13,3.169219318e-13,3.363160075e-13,7.617855332e-14,3.762010922e-13,2.448755836e-13,8.891181434e-14,3.699907538e-13,2.338527714e-13,2.494842883e-13,5.303841286e-13,4.856641447e-13,5.725439467e-13,5.830383629e-13,1.906998737e-13,3.339554654e-13,3.290983268e-13
1.4219,2.317460412e-13,1.703992450e-13,5.012975339e-13,4.365001986e-13,3.861044362e-13,1.128619569e-13,2.323332894e-13,2.685802157e-13,1.759342318e-13,1.752660895e-13,3.383929466e-13,2.693201511e-13,3.337592493e-13,2.160959593e-13,1.729850942e-13,1.382116985e-13,3.128851677e-13,3.349853203e-13,7.726531746e-14,3.671651085e-13,2.293651952e-13,9.577678526e-14,3.787590481e-13,2.054189833e-13,2.305832761e-13,5.121313623e-13,5.118839625e-13,6.052900447e-13,6.057791343e-13,1.804078228e-13,3.334296087e-13,3.219052195e-13
1.4297,2.327494992e-13,1.929300817e-13,5.432217291e-13,4.785008973e-13,4.253715955e-13,1.226807973e-13,2.489977335e-13,3.095248074e-13,1.784634840e-13,1.871308365e-13,3.424846549e-13,2.879517196e-13,3.291507796e-13,2.365909947e-13,1.867054299e-13,1.418187184e-13,3.091383275e-13,3.368664586e-13,8.171299874e-14,3.450870556e-13,2.134992639e-13,1.060915612e-13,3.842216283e-13,1.903593331e-13,2.107182276e-13,4.930732630e-13,5.367418578e-13,6.145995568e-13,6.279724472e-13,1.731763458e-13,3.358269567e-13,3.069526914e-13
1.4375,2.413923290e-13,2.198160178e-13,5.815429989e-13,5.162542517e-13,4.519141876e-13,1.361625643e-13,2.666409973e-13,3.511688983e-13,1.783049275e-13,1.978333729e-13,3.468040997e-13,3.024435574e-13,3.196128747e-13,2.580689745e-13,2.023458195e-13,1.498170424e-13,3.059385329e-13,3.393711213e-13,8.719690590e-14,3.143277716e-13,1.958663043e-13,1.177812250e-13,3.826546495e-13,1.835280625e-13,1.912914054e-13,4.728872270e-13,5.558657605e-13,6.061492403e-13,6.416043156e-13,1.671421226e-13,3.368717840e-13,2.940544173e-13
1.4453,2.499864681e-13,2.452393453e-13,6.093998065e-13,5.463630192e-13,4.611361343e-13,1.508492832e-13,2.808925279e-13,3.948667225e-13,1.791440033e-13,1.973195470e-13,3.533153882e-13,3.134735246e-13,3.110386888e-13,2.762767763e-13,2.202622166e-13,1.628584724e-13,3.034022502e-13,3.399862902e-13,9.176107251e-14,2.849092865e-13,1.751955633e-13,1.273495585e-13,3.757926243e-13,1.733243976e-13,1.734565811e-13,4.483303708e-13,5.676682921e-13,5.819480447e-13,6.506985895e-13,1.611137505e-13,3.330697399e-13,2.819327115e-13
1.4531,2.470822287e-13,2.651555865e-13,6.238373915e-13,5.695012382e-13,4.617135131e-13,1.658430162e-13,2.885960446e-13,4.412509956e-13,1.804858310e-13,1.874613516e-13,3.618234763e-13,3.198787894e-13,3.027621281e-13,2.857320237e-13,2.405155155e-13,1.812890857e-13,3.009706907e-13,3.380146010e-13,9.433946036e-14,2.612523055e-13,1.539461222e-13,1.317048376e-13,3.654711261e-13,1.600099516e-13,1.549796670e-13,4.213451613e-13,5.731548296e-13,5.461660084e-13,6.543057527e-13,1.541493517e-13,3.224798492e-13,2.604380904e-13
1.4609,2.395760311e-13,2.879413466e-13,6.333020102e-13,5.893049603e-13,4.611721795e-13,1.850137365e-13,2.910018711e-13,4.871813186e-13,1.811382605e-13,1.793578629e-13,3.717865324e-13,3.205869530e-13,2.903671374e-13,2.925142079e-13,2.655075350e-13,2.070090713e-13,3.016727450e-13,3.373257306e-13,9.841484261e-14,2.365326669e-13,1.338599811e-13,1.372510457e-13,3.525097654e-13,1.554234297e-13,1.374300713e-13,3.919906294e-13,5.700287110e-13,5.021872841e-13,6.475894509e-13,1.459394831e-13,3.081456136e-13,2.295232723e-13
1.4688,2.404280370e-13,3.202666655e-13,6.338961625e-13,6.053860254e-13,4.584024205e-13,2.111099328e-13,2.929992625e-13,5.309293479e-13,1.794480669e-13,1.768003441e-13,3.837654381e-13,3.170731380e-13,2.703918662e-13,3.038319444e-13,2.981345628e-13,2.417074236e-13,3.107394589e-13,3.402705475e-13,1.062337654e-13,2.066578828e-13,1.163082926e-13,1.472750065e-13,3.363318058e-13,1.552066844e-13,1.230203194e-13,3.622456030e-13,5.610889485e-13,4.552894957e-13,6.247248971e-13,1.382563678e-13,2.953602768e-13,2.030461966e-13
1.4766,2.443059082e-13,3.528095480e-13,6.253753543e-13,6.152822801e-13,4.448386196e-13,2.437481676e-13,2.957051692e-13,5.758770290e-13,1.767360753e-13,1.730632417e-13,3.982991291e-13,3.107715997e-13,2.466955276e-13,3.183861827e-13,3.377063591e-13,2.839680017e-13,3.264818372e-13,3.433424124e-13,1.152099318e-13,1.768793333e-13,9.996817733e-14,1.566758467e-13,3.177765472e-13,1.547130960e-13,1.113569679e-13,3.324334513e-13,5.481784405e-13,4.104091721e-13,5.861968326e-13,1.318636089e-13,2.816296802e-13,1.855472740e-13
1.4844,2.378036094e-13,3.775072148e-13,6.069204827e-13,6.129797518e-13,4.177427148e-13,2.749749219e-13,2.987078039e-13,6.252713219e-13,1.771746533e-13,1.622378073e-13,4.175631602e-13,3.059714424e-13,2.262099904e-13,3.287267523e-13,3.823616282e-13,3.319968000e-13,3.450122355e-13,3.435743920e-13,1.199892386e-13,1.524944803e-13,8.391604008e-14,1.570283865e-13,2.977856184e-13,1.569412335e-13,1.022358817e-13,3.044260363e-13,5.383190227e-13,3.756247325e-13,5.454103288e-13,1.266359108e-13,2.659115417e-13,1.769675578e-13
1.4922,2.197861995e-13,3.981962895e-13,5.884379871e-13,6.022691722e-13,3.846608717e-13,3.015289914e-13,3.011385251e-13,6.758013995e-13,1.813777520e-13,1.478163894e-13,4.399379683e-13,3.009402087e-13,2.090938756e-13,3.320443468e-13,4.318918806e-13,3.852668494e-13,3.665420417e-13,3.412619971e-13,1.213365566e-13,1.357787832e-13,7.013791580e-14,1.494719593e-13,2.759309764e-13,1.681445972e-13,9.444328862e-14,2.848399970e-13,5.398389640e-13,3.492991200e-13,5.113117541e-13,1.217736111e-13,2.508763077e-13,1.721994634e-13
1.5,2.081375730e-13,4.256747534e-13,5.766084973e-13,5.891023259e-13,3.547925734e-13,3.284238899e-13,3.034292357e-13,7.258083317e-13,1.898214152e-13,1.351286486e-13,4.647294572e-13,2.983075955e-13,1.949564664e-13,3.353923105e-13,4.861042307e-13,4.423814524e-13,3.935115346e-13,3.393718712e-13,1.239441124e-13,1.233303219e-13,5.942760706e-14,1.428078362e-13,2.531907474e-13,1.840364393e-13,8.792217723e-14,2.749194768e-13,5.554522723e-13,3.319688953e-13,4.884621748e-13,1.187516199e-13,2.415146619e-13,1.758496975e-13
1.5078,2.034520885e-13,4.556062945e-13,5.792059311e-13,5.726244948e-13,3.331135666e-13,3.552204053e-13,3.062931844e-13,7.748290675e-13,2.025727786e-13,1.280319337e-13,4.899006581e-13,2.994551029e-13,1.835271007e-13,3.457779799e-13,5.424142564e-13,4.988086086e-13,4.226743809e-13,3.369619342e-13,1.282811883e-13,1.160355023e-13,5.222234022e-14,1.434936522e-13,2.330107617e-13,1.951816428e-13,8.172143237e-14,2.753115322e-13,5.876460070e-13,3.254122619e-13,4.749414376e-13,1.199391109e-13,2.413849030e-13,1.904619068e-13
1.5156,1.955892693e-13,4.763858277e-13,5.949237430e-13,5.500528810e-13,3.148228727e-13,3.744359267e-13,3.081751658e-13,8.145028539e-13,2.195975300e-13,1.268271206e-13,5.140943107e-13,3.044125563e-13,1.785905614e-13,3.578877579e-13,5.953564877e-13,5.491913943e-13,4.490820328e-13,3.323126559e-13,1.309619508e-13,1.194084541e-13,5.022630732e-14,1.477631237e-13,2.154091679e-13,2.044775825e-13,7.514841617e-14,2.879188424e-13,6.365438328e-13,3.287095573e-13,4.722067514e-13,1.266868411e-13,2.530630789e-13,2.118263189e-13
1.5234,1.786402171e-13,4.842749931e-13,6.155631380e-13,5.195461790e-13,2.943880192e-13,3.788577162e-13,3.061494896e-13,8.400289542e-13,2.404914916e-13,1.292970444e-13,5.384155074e-13,3.112112692e-13,1.799452353e-13,3.640294368e-13,6.419892068e-13,5.921103731e-13,4.697633395e-13,3.250870538e-13,1.303833121e-13,1.337556757e-13,5.333620372e-14,1.487608658e-13,1.999386961e-13,2.226924966e-13,6.878723199e-14,3.151344896e-13,7.042995548e-13,3.413758579e-13,4.834853513e-13,1.388953549e-13,2.783824228e-13,2.334538458e-13
1.5312,1.610541312e-13,4.871319125e-13,6.415416961e-13,4.837961998e-13,2.744498888e-13,3.692840099e-13,3.006983645e-13,8.494722359e-13,2.636852565e-13,1.342117791e-13,5.605699383e-13,3.180956287e-13,1.846815877e-13,3.643748296e-13,6.797671204e-13,6.246997517e-13,4.830999347e-13,3.160017319e-13,1.295421448e-13,1.532112165e-13,6.084606823e-14,1.452443715e-13,1.884069685e-13,2.494002775e-13,6.327493648e-14,3.564361045e-13,7.875551879e-13,3.597487652e-13,5.056729321e-13,1.547280549e-13,3.161906077e-13,2.579732070e-13
1.5391,1.500760767e-13,4.901535164e-13,6.681467697e-13,4.461494008e-13,2.605684946e-13,3.505675528e-13,2.925087140e-13,8.456859872e-13,2.893056036e-13,1.430547389e-13,5.776383712e-13,3.256199949e-13,1.913324997e-13,3.653795988e-13,7.030149603e-13,6.407372118e-13,4.887923663e-13,3.073628939e-13,1.330403770e-13,1.784851660e-13,7.370557266e-14,1.444448234e-13,1.822759169e-13,2.759676261e-13,5.903394630e-14,4.120072659e-13,8.803564547e-13,3.793351837e-13,5.364141934e-13,1.755540301e-13,3.706830780e-13,2.906148548e-13
1.5469,1.412671886e-13,4.909967846e-13,6.920209285e-13,4.098862957e-13,2.558793751e-13,3.285040084e-13,2.843368726e-13,8.299915536e-13,3.141804632e-13,1.551696000e-13,5.898034558e-13,3.325308882e-13,1.964273775e-13,3.716922245e-13,7.094216607e-13,6.362469321e-13,4.870022676e-13,3.002455051e-13,1.422879865e-13,2.117424592e-13,9.239487068e-14,1.505950781e-13,1.825953701e-13,3.024616936e-13,5.629698164e-14,4.797089175e-13,9.776013536e-13,3.954416542e-13,5.760486885e-13,2.012550146e-13,4.415016826e-13,3.286660241e-13
1.5547,1.288846743e-13,4.786304496e-13,6.999398405e-13,3.718186156e-13,2.561773260e-13,3.020552617e-13,2.773734238e-13,8.049429748e-13,3.369512870e-13,1.690591620e-13,5.946799466e-13,3.382568363e-13,2.017192086e-13,3.793311896e-13,6.981548656e-13,6.131360980e-13,4.763321004e-13,2.946231167e-13,1.548457572e-13,2.445494580e-13,1.147478744e-13,1.596699699e-13,1.896205466e-13,3.323058757e-13,5.462300454e-14,5.486139370e-13,1.068013217e-12,4.036978097e-13,6.188214287e-13,2.284598481e-13,5.217719051e-13,3.563825139e-13
1.5625,1.153935193e-13,4.552373809e-13,6.805656087e-13,3.320704793e-13,2.578759671e-13,2.703530801e-13,2.714876673e-13,7.740049521e-13,3.548135468e-13,1.867570858e-13,5.960618372e-13,3.399859799e-13,2.061816899e-13,3.802499441e-13,6.702007247e-13,5.761060241e-13,4.567025418e-13,2.915231338e-13,1.705225687e-13,2.696728467e-13,1.396303491e-13,1.662330163e-13,2.035018936e-13,3.638098511e-13,5.372377631e-14,6.176370216e-13,1.146342209e-12,4.010068158e-13,6.629284510e-13,2.542983414e-13,6.071867407e-13,3.702911684e-13
1.5703,1.074368976e-13,4.266852623e-13,6.360188389e-13,2.926764305e-13,2.568649068e-13,2.390589860e-13,2.656955895e-13,7.375533587e-13,3.673970450e-13,2.108363969e-13,5.954240347e-13,3.372293701e-13,2.072727664e-13,3.703175426e-13,6.286038869e-13,5.280346580e-13,4.298699726e-13,2.914047514e-13,1.907669698e-13,2.896493562e-13,1.659712743e-13,1.678285496e-13,2.221661104e-13,3.841554766e-13,5.372618163e-14,6.829177362e-13,1.209639053e-12,3.888903953e-13,7.055686612e-13,2.769281535e-13,6.882352452e-13,3.807131753e-13
1.5781,1.066548090e-13,3.987823684e-13,5.743041067e-13,2.558094264e-13,2.559982983e-13,2.114585594e-13,2.588913275e-13,6.957694251e-13,3.733618301e-13,2.420018940e-13,5.940821768e-13,3.335652379e-13,2.034036048e-13,3.571499867e-13,5.776404454e-13,4.738909824e-13,4.009976280e-13,2.971037150e-13,2.151899833e-13,3.123696548e-13,1.912601101e-13,1.698361276e-13,2.462942831e-13,3.898168007e-13,5.533110348e-14,7.392025104e-13,1.250250830e-12,3.672140777e-13,7.377490538e-13,2.969888265e-13,7.575753749e-13,3.951763520e-13
1.5859,1.122126490e-13,3.739609244e-13,5.059140533e-13,2.237456041e-13,2.589783418e-13,1.889781602e-13,2.522657511e-13,6.544245094e-13,3.738794861e-13,2.792629025e-13,5.920885948e-13,3.306970291e-13,1.945849439e-13,3.463634277e-13,5.189098373e-13,4.156850397e-13,3.705142203e-13,3.086270507e-13,2.461910128e-13,3.369526302e-13,2.141955195e-13,1.752532894e-13,2.753876868e-13,3.863894145e-13,5.878913092e-14,7.798569760e-13,1.264974881e-12,3.397347721e-13,7.564038723e-13,3.145344153e-13,8.137754368e-13,4.095583003e-13
1.5938,1.209397209e-13,3.499864431e-13,4.298320922e-13,1.943188780e-13,2.647245490e-13,1.708069048e-13,2.468741548e-13,6.159988904e-13,3.695253750e-13,3.214056769e-13,5.883341938e-13,3.300229639e-13,1.843592900e-13,3.372191977e-13,4.535155548e-13,3.559233017e-13,3.382061127e-13,3.249943338e-13,2.827566575e-13,3.536693222e-13,2.332091720e-13,1.799146603e-13,3.053096923e-13,3.809115675e-13,6.425876356e-14,8.007488593e-13,1.251274816e-12,3.126608091e-13,7.574040990e-13,3.285768533e-13,8.528183153e-13,4.159064685e-13
1.6016,1.265820710e-13,3.252588106e-13,3.581605363e-13,1.707362966e-13,2.705984995e-13,1.585879224e-13,2.446111891e-13,5.766982087e-13,3.587544313e-13,3.626704635e-13,5.819056902e-13,3.286029785e-13,1.722625634e-13,3.244185309e-13,3.858441780e-13,2.982234535e-13,3.050676555e-13,3.458897567e-13,3.225699049e-13,3.579064263e-13,2.473389379e-13,1.762582478e-13,3.324158837e-13,3.739985124e-13,7.118506615e-14,8.060507732e-13,1.209798843e-12,2.893267209e-13,7.438256672e-13,3.357783171e-13,8.713473578e-13,4.147815539e-13
1.6094,1.317028511e-13,2.959975047e-13,3.010583625e-13,1.553492963e-13,2.789848194e-13,1.554251338e-13,2.474183079e-13,5.402804269e-13,3.449452914e-13,3.944154739e-13,5.760893851e-13,3.266203889e-13,1.611633303e-13,3.075805506e-13,3.259374597e-13,2.505554350e-13,2.776381752e-13,3.732631556e-13,3.644753260e-13,3.558416425e-13,2.577331418e-13,1.635540846e-13,3.537003356e-13,3.564609552e-13,7.883944947e-14,7.988164989e-13,1.144343921e-12,2.720040607e-13,7.154578220e-13,3.333022280e-13,8.637867560e-13,4.186206138e-13
1.6172,1.399635347e-13,2.629869582e-13,2.592482981e-13,1.449844483e-13,2.887888880e-13,1.589934634e-13,2.566705443e-13,5.092079292e-13,3.293310068e-13,4.150469472e-13,5.690708575e-13,3.242688490e-13,1.502201754e-13,2.917648725e-13,2.732805559e-13,2.126890717e-13,2.557553599e-13,4.037333253e-13,4.072778186e-13,3.563317849e-13,2.642728631e-13,1.476487650e-13,3.696152646e-13,3.300047281e-13,8.707123340e-14,7.844810785e-13,1.059670368e-12,2.584197177e-13,6.770314372e-13,3.232252345e-13,8.372547309e-13,4.314462264e-13
1.625,1.540784112e-13,2.301944589e-13,2.316389495e-13,1.400591516e-13,3.018429713e-13,1.690562604e-13,2.730556329e-13,4.791780184e-13,3.134453351e-13,4.293903357e-13,5.577355788e-13,3.231577637e-13,1.411188902e-13,2.835995105e-13,2.262100824e-13,1.820746362e-13,2.364213631e-13,4.357643512e-13,4.500393229e-13,3.599021508e-13,2.664873502e-13,1.338720248e-13,3.798894954e-13,3.003422965e-13,9.456893837e-14,7.626014275e-13,9.583294105e-13,2.509150356e-13,6.278384580e-13,3.074355157e-13,7.974918957e-13,4.489663247e-13
1.6328,1.693508565e-13,2.035251922e-13,2.202779697e-13,1.420181789e-13,3.219919890e-13,1.850142326e-13,2.946988457e-13,4.498018801e-13,2.982604460e-13,4.413958177e-13,5.449620779e-13,3.253068430e-13,1.374855200e-13,2.893033625e-13,1.867282000e-13,1.590595393e-13,2.211230633e-13,4.712155585e-13,4.962065240e-13,3.638334237e-13,2.656685214e-13,1.237306175e-13,3.835768216e-13,2.730484919e-13,1.008354894e-13,7.412807108e-13,8.499273308e-13,2.447560768e-13,5.769358900e-13,2.890620136e-13,7.576677676e-13,4.693229911e-13
1.6406,1.816004200e-13,1.798248499e-13,2.203166197e-13,1.493241975e-13,3.468011008e-13,2.057581580e-13,3.198765188e-13,4.231269413e-13,2.837136062e-13,4.463882300e-13,5.298058903e-13,3.291291877e-13,1.394313210e-13,3.035769447e-13,1.546512303e-13,1.418559976e-13,2.087155527e-13,5.050766792e-13,5.441841923e-13,3.639299027e-13,2.620637907e-13,1.136362550e-13,3.807984062e-13,2.478174123e-13,1.063287006e-13,7.265252030e-13,7.424369564e-13,2.361123405e-13,5.270158172e-13,2.687694689e-13,7.208769682e-13,4.911915481e-13
1.6484,1.926727605e-13,1.592730777e-13,2.259368147e-13,1.622515488e-13,3.757238001e-13,2.318964556e-13,3.509682694e-13,4.035339059e-13,2.707016086e-13,4.384733609e-13,5.165834250e-13,3.360811589e-13,1.489347402e-13,3.267571124e-13,1.290574285e-13,1.292239900e-13,1.976411065e-13,5.350934474e-13,5.915644911e-13,3.551599600e-13,2.562920794e-13,1.019353366e-13,3.700070574e-13,2.244947590e-13,1.096004570e-13,7.211442298e-13,6.431024866e-13,2.281244566e-13,4.842437754e-13,2.474443463e-13,6.904508023e-13,5.153177259e-13
1.6562,2.031809575e-13,1.394215869e-13,2.355158698e-13,1.794965017e-13,4.054678345e-13,2.632124233e-13,3.859060410e-13,3.916551624e-13,2.610986753e-13,4.146720750e-13,5.100386799e-13,3.473192026e-13,1.680611675e-13,3.624604685e-13,1.117423557e-13,1.227165334e-13,1.886648283e-13,5.612340168e-13,6.344303093e-13,3.422603460e-13,2.495208249e-13,8.949307504e-14,3.530108791e-13,2.053276433e-13,1.118416478e-13,7.286215677e-13,5.594376064e-13,2.200221574e-13,4.521784026e-13,2.263596189e-13,6.681973797e-13,5.410899671e-13
1.6641,2.105078122e-13,1.198243853e-13,2.473864009e-13,2.001209573e-13,4.356642044e-13,3.007556748e-13,4.217030912e-13,3.892705055e-13,2.548353159e-13,3.815156020e-13,5.052015450e-13,3.619097246e-13,1.946092381e-13,4.096504950e-13,1.003177633e-13,1.210615081e-13,1.810591282e-13,5.800533004e-13,6.675376996e-13,3.281234986e-13,2.399267510e-13,7.983809747e-14,3.323892279e-13,1.918515147e-13,1.124625084e-13,7.413762994e-13,4.924870546e-13,2.113278405e-13,4.296851892e-13,2.063280451e-13,6.505150351e-13,5.654945306e-13
1.6719,2.160260454e-13,1.051792875e-13,2.601555389e-13,2.283544657e-13,4.716867943e-13,3.472845891e-13,4.595545208e-13,4.004613193e-13,2.515418621e-13,3.447251802e-13,5.023699074e-13,3.834193956e-13,2.321641349e-13,4.745220102e-13,9.267177995e-14,1.228477847e-13,1.749715271e-13,5.940715413e-13,6.927499381e-13,3.154362816e-13,2.282011326e-13,7.469428878e-14,3.109781149e-13,1.831667124e-13,1.111540117e-13,7.589655194e-13,4.444941343e-13,2.026325801e-13,4.178484750e-13,1.897054812e-13,6.404635370e-13,5.893965667e-13
1.6797,2.202723596e-13,9.716472778e-14,2.750014686e-13,2.633451616e-13,5.145550272e-13,4.014841708e-13,4.959828078e-13,4.253409362e-13,2.495102653e-13,3.090544606e-13,5.033989310e-13,4.086627269e-13,2.813879933e-13,5.553743002e-13,9.085364664e-14,1.288012241e-13,1.716502392e-13,6.046479358e-13,7.133632975e-13,3.048920104e-13,2.164651681e-13,7.368077571e-14,2.901924102e-13,1.775257675e-13,1.090725803e-13,7.796506162e-13,4.169537303e-13,1.943626155e-13,4.196739293e-13,1.770133366e-13,6.394063998e-13,6.091217193e-13
1.6875,2.244540186e-13,9.508459600e-14,2.912724335e-13,3.053013850e-13,5.686818454e-13,4.636522271e-13,5.288664427e-13,4.689405844e-13,2.469726344e-13,2.761898205e-13,5.051856353e-13,4.344780007e-13,3.370500354e-13,6.497665688e-13,9.460796167e-14,1.383427667e-13,1.709565092e-13,6.107198128e-13,7.285372991e-13,2.932266859e-13,2.041885207e-13,7.519004909e-14,2.702042296e-13,1.753701111e-13,1.062400996e-13,7.947298577e-13,4.055926124e-13,1.887574806e-13,4.318380358e-13,1.675131205e-13,6.432068917e-13,6.148146285e-13
1.6953,2.307905936e-13,1.014276604e-13,3.108212183e-13,3.577603916e-13,6.382759471e-13,5.374654745e-13,5.539611331e-13,5.389647983e-13,2.445472729e-13,2.486168473e-13,5.059148241e-13,4.596542110e-13,3.988643687e-13,7.637133334e-13,1.043914514e-13,1.524126421e-13,1.748208813e-13,6.175742812e-13,7.430244611e-13,2.801144635e-13,1.926552493e-13,8.153520650e-14,2.514860996e-13,1.798200699e-13,1.027168563e-13,8.034865816e-13,4.089239299e-13,1.850101830e-13,4.538370184e-13,1.611954576e-13,6.544409930e-13,6.025481216e-13
1.7031,2.361072440e-13,1.150799641e-13,3.312888219e-13,4.186179879e-13,7.174698700e-13,6.175456132e-13,5.658688386e-13,6.372161065e-13,2.434395755e-13,2.248247156e-13,5.008321177e-13,4.819850430e-13,4.645383086e-13,8.881740679e-13,1.197211140e-13,1.710730094e-13,1.838251408e-13,6.260571252e-13,7.575304444e-13,2.685872310e-13,1.811942487e-13,9.280514297e-14,2.336444491e-13,1.873875178e-13,9.851970029e-14,8.019543295e-13,4.209528444e-13,1.850446859e-13,4.818868266e-13,1.577511334e-13,6.683334269e-13,5.721213634e-13
1.7109,2.376949630e-13,1.352062742e-13,3.539677273e-13,4.913513113e-13,8.062364094e-13,7.039883701e-13,5.696250752e-13,7.675817740e-13,2.411750537e-13,2.043645458e-13,4.932861186e-13,4.991440207e-13,5.320226224e-13,1.019732055e-12,1.426904306e-13,1.958300983e-13,1.981879561e-13,6.384008414e-13,7.709840570e-13,2.607035831e-13,1.709880231e-13,1.088304623e-13,2.160723280e-13,1.956596647e-13,9.346467282e-14,7.928748576e-13,4.414932625e-13,1.914241663e-13,5.114164800e-13,1.559989645e-13,6.831158958e-13,5.318776527e-13
1.7188,2.355494815e-13,1.599486768e-13,3.759547846e-13,5.712554105e-13,8.957785280e-13,7.928295627e-13,5.613620664e-13,9.281585293e-13,2.373782546e-13,1.867381121e-13,4.867338871e-13,5.109007571e-13,6.004480757e-13,1.156339131e-12,1.776707773e-13,2.301026403e-13,2.182322181e-13,6.562831292e-13,7.821563321e-13,2.579114618e-13,1.630445916e-13,1.281397586e-13,1.983252960e-13,2.034550692e-13,8.777283922e-14,7.717101049e-13,4.653238922e-13,2.023024216e-13,5.393637167e-13,1.551674560e-13,6.919264529e-13,4.847797004e-13
1.7266,2.302656951e-13,1.889011695e-13,3.973815076e-13,6.563834166e-13,9.848166861e-13,8.807243686e-13,5.429252459e-13,1.120158066e-12,2.331268857e-13,1.727889273e-13,4.801875878e-13,5.171502059e-13,6.651900003e-13,1.299296723e-12,2.257356353e-13,2.756403187e-13,2.436763704e-13,6.802659982e-13,7.891608719e-13,2.598774203e-13,1.559013004e-13,1.503747244e-13,1.812834482e-13,2.150486919e-13,8.150960786e-14,7.424148923e-13,4.889819638e-13,2.179184829e-13,5.583146284e-13,1.555914089e-13,6.937421452e-13,4.373329659e-13
1.7344,2.296265606e-13,2.250769137e-13,4.192947525e-13,7.462165759e-13,1.073571309e-12,9.700747458e-13,5.194160449e-13,1.341715493e-12,2.277118834e-13,1.642077975e-13,4.773746092e-13,5.189274463e-13,7.261962411e-13,1.451468412e-12,2.889705803e-13,3.332002637e-13,2.738315371e-13,7.146535765e-13,7.985932717e-13,2.640179533e-13,1.525592608e-13,1.743120622e-13,1.654764195e-13,2.288026934e-13,7.467892529e-14,7.098283103e-13,5.117286836e-13,2.392329436e-13,5.734788206e-13,1.568152939e-13,6.930764433e-13,3.918189795e-13
1.7422,2.378317734e-13,2.664846476e-13,4.417111859e-13,8.325461998e-13,1.152387734e-12,1.052678483e-12,4.937608997e-13,1.581669718e-12,2.211452577e-13,1.598364847e-13,4.812636465e-13,5.175019625e-13,7.845376689e-13,1.607563272e-12,3.699364535e-13,4.034977916e-13,3.082103215e-13,7.574417462e-13,8.082311423e-13,2.686266505e-13,1.536788750e-13,1.992470802e-13,1.499269535e-13,2.403183810e-13,6.813590538e-14,6.739951518e-13,5.281393808e-13,2.639866562e-13,5.827337239e-13,1.584030248e-13,6.861809095e-13,3.477841641e-13
1.75,2.569362176e-13,3.113779896e-13,4.664411577e-13,9.159245138e-13,1.221017720e-12,1.128363646e-12,4.690137183e-13,1.831608715e-12,2.137464005e-13,1.592069735e-13,4.937710689e-13,5.139805218e-13,8.392973656e-13,1.760552212e-12,4.703073255e-13,4.882857777e-13,3.477569496e-13,8.120669527e-13,8.188094208e-13,2.738076733e-13,1.604701745e-13,2.233759054e-13,1.344839229e-13,2.496499750e-13,6.269954938e-14,6.419360376e-13,5.412949881e-13,2.894819735e-13,5.894403830e-13,1.608256997e-13,6.755992059e-13,3.098414348e-13
1.7578,2.900214784e-13,3.608732103e-13,4.905104046e-13,9.969428537e-13,1.281361738e-12,1.200563327e-12,4.491698741e-13,2.083664880e-12,2.073590429e-13,1.626320886e-13,5.144205939e-13,5.132314506e-13,8.930403598e-13,1.908983523e-12,5.882625603e-13,5.841525854e-13,3.919469377e-13,8.785809029e-13,8.303504725e-13,2.832335356e-13,1.727124491e-13,2.474199981e-13,1.195515254e-13,2.555706454e-13,5.959336838e-14,6.109180213e-13,5.482493750e-13,3.149034434e-13,5.921665135e-13,1.645033297e-13,6.586745182e-13,2.801048063e-13
1.7656,3.377831927e-13,4.167788924e-13,5.174591676e-13,1.072629971e-12,1.335606009e-12,1.267813110e-12,4.369846870e-13,2.317879609e-12,2.021675998e-13,1.716185217e-13,5.464392394e-13,5.181692112e-13,9.467119773e-13,2.050973551e-12,7.199773145e-13,6.850747715e-13,4.391505982e-13,9.542721026e-13,8.440110577e-13,2.972640556e-13,1.918548434e-13,2.721418115e-13,1.068500030e-13,2.589083299e-13,5.980492454e-14,5.875836072e-13,5.505977960e-13,3.426963148e-13,5.960040040e-13,1.703040585e-13,6.434671970e-13,2.590381046e-13
1.7734,3.960046910e-13,4.818693600e-13,5.484698881e-13,1.147875129e-12,1.391372794e-12,1.335605723e-12,4.336242539e-13,2.526853681e-12,1.984741786e-13,1.874497059e-13,5.888728150e-13,5.262946105e-13,9.977600488e-13,2.178891878e-12,8.609752102e-13,7.870184618e-13,4.890192318e-13,1.038975540e-12,8.621275311e-13,3.171301431e-13,2.197711275e-13,2.970508313e-13,9.565670155e-14,2.587864059e-13,6.350533164e-14,5.731453735e-13,5.483561296e-13,3.727956958e-13,6.042338233e-13,1.782226656e-13,6.329412131e-13,2.474713871e-13
1.7812,4.632791100e-13,5.559266341e-13,5.834001633e-13,1.224142879e-12,1.446662825e-12,1.405926873e-12,4.406058368e-13,2.692802349e-12,1.946563840e-13,2.096311651e-13,6.389171155e-13,5.396707443e-13,1.043628993e-12,2.289720426e-12,1.005335151e-12,8.845450776e-13,5.404878003e-13,1.128356844e-12,8.830621696e-13,3.430012746e-13,2.557770640e-13,3.210226466e-13,8.677479738e-14,2.592756230e-13,7.103870324e-14,5.664834887e-13,5.393598041e-13,4.067815725e-13,6.151657966e-13,1.875661830e-13,6.275994591e-13,2.439194798e-13
1.7891,5.311522208e-13,6.357189761e-13,6.237547119e-13,1.302976942e-12,1.501581037e-12,1.477624183e-12,4.575091774e-13,2.794308210e-12,1.911945334e-13,2.380145811e-13,6.943124278e-13,5.602465886e-13,1.078823640e-12,2.372372136e-12,1.140405725e-12,9.668280501e-13,5.871905468e-13,1.211313124e-12,9.032541948e-13,3.763093883e-13,2.993265249e-13,3.426996358e-13,8.077098149e-14,2.640591719e-13,8.186719118e-14,5.686184632e-13,5.269808812e-13,4.424493755e-13,6.292096624e-13,1.991245084e-13,6.277738472e-13,2.472748997e-13
