Time,Fp1,AF3,F7,F3,FC1,FC5,T7,C3,CP1,CP5,P7,P3,Pz,PO3,O1,Oz,O2,PO4,P4,P8,CP6,CP2,C4,T8,FC6,FC2,F4,F8,AF4,Fp2,Fz,Cz,
0,7.471157781e-10,9.309467902e-10,1.263155326e-09,1.571701792e-10,2.524633532e-12,3.308520383e-09,1.813338416e-09,4.970591316e-10,1.276352428e-10,1.104976583e-09,1.586499783e-09,6.707379890e-10,2.467334260e-07,3.489930433e-11,3.093612490e-11,2.996361723e-10,4.910948267e-11,7.272217815e-11,2.129414250e-10,2.787353211e-10,3.761017798e-10,5.701425391e-11,6.460068655e-10,2.275553579e-10,1.469936009e-09,7.305712747e-10,4.458024503e-09,1.540811828e-09,3.774061006e-10,5.276274190e-10,3.575343961e-11,7.473185489e-12
0.0078125,7.470980668e-10,9.292466069e-10,1.261584750e-09,1.570946845e-10,2.531874521e-12,3.302410769e-09,1.810572545e-09,4.960571661e-10,1.274417997e-10,1.103503387e-09,1.583639297e-09,6.696566022e-10,2.468353388e-07,3.500128599e-11,3.088979460e-11,2.991424885e-10,4.927337238e-11,7.265184179e-11,2.126761379e-10,2.783576293e-10,3.757332221e-10,5.691059353e-11,6.451287379e-10,2.282512727e-10,1.467268727e-09,7.305596047e-10,4.451553475e-09,1.538862816e-09,3.768334921e-10,5.271642403e-10,3.585433586e-11,7.459123037e-12
0.015625,7.465010314e-10,9.268730157e-10,1.259165584e-09,1.568971719e-10,2.537404468e-12,3.293919168e-09,1.806561493e-09,4.947020438e-10,1.271606359e-10,1.101185003e-09,1.579606592e-09,6.680789541e-10,2.467787424e-07,3.508141571e-11,3.082227316e-11,2.984581322e-10,4.940531612e-11,7.253815720e-11,2.122576680e-10,2.777778200e-10,3.750734188e-10,5.676868039e-11,6.437605060e-10,2.287721743e-10,1.463549524e-09,7.300769278e-10,4.442025839e-09,1.535726237e-09,3.759777779e-10,5.262848194e-10,3.592793229e-11,7.440259878e-12
0.023438,7.453136316e-10,9.238403178e-10,1.255914714e-09,1.565776004e-10,2.541020227e-12,3.283082262e-09,1.801320715e-09,4.930013418e-10,1.267940372e-10,1.098029312e-09,1.574424516e-09,6.660133593e-10,2.465644360e-07,3.513896222e-11,3.073201128e-11,2.975814567e-10,4.950356936e-11,7.238372469e-11,2.116884884e-10,2.769997425e-10,3.741287375e-10,5.658988333e-11,6.419075094e-10,2.291253682e-10,1.458793338e-09,7.291265525e-10,4.429486154e-09,1.531395319e-09,3.748452275e-10,5.249901846e-10,3.597344787e-11,7.416596466e-12
0.03125,7.435261353e-10,9.201455654e-10,1.251839373e-09,1.561333675e-10,2.542730007e-12,3.269880410e-09,1.794856180e-09,4.909528256e-10,1.263429633e-10,1.094021571e-09,1.568081888e-09,6.634505122e-10,2.461934132e-07,3.516846671e-11,3.061974134e-11,2.965087226e-10,4.956186808e-11,7.218635409e-11,2.109712702e-10,2.760274038e-10,3.728992573e-10,5.637343602e-11,6.395721249e-10,2.293116877e-10,1.453001912e-09,7.277076336e-10,4.413941024e-09,1.525853577e-09,3.734310196e-10,5.232795627e-10,3.599017328e-11,7.388090756e-12
0.039062,7.411604115e-10,9.158095263e-10,1.246960287e-09,1.555704876e-10,2.542453062e-12,3.254397912e-09,1.787202302e-09,4.885677382e-10,1.258091094e-10,1.089188885e-09,1.560606647e-09,6.604040033e-10,2.456667257e-07,3.516776597e-11,3.048860596e-11,2.952451991e-10,4.958610682e-11,7.194462157e-11,2.101135421e-10,2.748667761e-10,3.713964635e-10,5.611927586e-11,6.367797769e-10,2.293269536e-10,1.446211046e-09,7.258249146e-10,4.395474342e-09,1.519167890e-09,3.717448461e-10,5.211620992e-10,3.597858380e-11,7.355025440e-12
0.046875,7.382156620e-10,9.108452673e-10,1.241297610e-09,1.548900734e-10,2.539942167e-12,3.236682587e-09,1.778385309e-09,4.858543387e-10,1.251938974e-10,1.083543565e-09,1.552032224e-09,6.568830771e-10,2.449864562e-07,3.513773922e-11,3.033899350e-11,2.937955652e-10,4.957453649e-11,7.165849122e-11,2.091179513e-10,2.735184311e-10,3.696190268e-10,5.582904169e-11,6.335365713e-10,2.291489230e-10,1.438441751e-09,7.234911990e-10,4.374170048e-09,1.511352228e-09,3.697972372e-10,5.186445000e-10,3.593908884e-11,7.317624040e-12
0.054688,7.346900543e-10,9.052516980e-10,1.234853391e-09,1.540883309e-10,2.535319738e-12,3.216715742e-09,1.768398107e-09,4.828096409e-10,1.244981314e-10,1.077082250e-09,1.542361141e-09,6.528829571e-10,2.441546620e-07,3.508004357e-11,3.016983481e-11,2.921623182e-10,4.951810358e-11,7.132935419e-11,2.079822335e-10,2.719787586e-10,3.675607803e-10,5.550317766e-11,6.298328559e-10,2.287823482e-10,1.429694789e-09,7.207135355e-10,4.350026347e-09,1.502391733e-09,3.675848651e-10,5.157412004e-10,3.587237474e-11,7.275897344e-12
0.0625,7.306166836e-10,8.990683377e-10,1.227643637e-09,1.531716890e-10,2.528905428e-12,3.194615111e-09,1.757282000e-09,4.794484413e-10,1.237251792e-10,1.069851599e-09,1.531634713e-09,6.484264411e-10,2.431736259e-07,3.499638561e-11,2.998238804e-11,2.903521908e-10,4.942127224e-11,7.095999079e-11,2.067118318e-10,2.702574083e-10,3.652381503e-10,5.514282816e-11,6.256899206e-10,2.282610909e-10,1.420012564e-09,7.174968620e-10,4.323114497e-09,1.492356675e-09,3.651156026e-10,5.124790884e-10,3.577887139e-11,7.229959036e-12
0.070312,7.260044028e-10,8.923196134e-10,1.219696302e-09,1.521459745e-10,2.520739904e-12,3.170454402e-09,1.745091550e-09,4.757828856e-10,1.228763079e-10,1.061868545e-09,1.519883921e-09,6.435276104e-10,2.420466234e-07,3.488658329e-11,2.977776437e-11,2.883706737e-10,4.929010143e-11,7.055209345e-11,2.053071309e-10,2.683618789e-10,3.626565717e-10,5.475085474e-11,6.211145873e-10,2.275848449e-10,1.409415000e-09,7.138512401e-10,4.293531363e-09,1.481245714e-09,3.623992544e-10,5.088491883e-10,3.565815563e-11,7.179756921e-12
0.078125,7.208511465e-10,8.849929536e-10,1.211031882e-09,1.510111732e-10,2.510708033e-12,3.144214954e-09,1.731830928e-09,4.718126458e-10,1.219513135e-10,1.053124941e-09,1.507114314e-09,6.381877487e-10,2.407764703e-07,3.475115693e-11,2.955650029e-11,2.862256973e-10,4.912069101e-11,7.010704700e-11,2.037648027e-10,2.662883211e-10,3.598126236e-10,5.432813015e-11,6.161001101e-10,2.267349110e-10,1.397907642e-09,7.097867221e-10,4.261335928e-09,1.469036900e-09,3.594393179e-10,5.048278776e-10,3.551144918e-11,7.125359891e-12
0.085938,7.151702010e-10,8.771049708e-10,1.201665353e-09,1.497683554e-10,2.498665171e-12,3.115993768e-09,1.717526713e-09,4.675530272e-10,1.209562401e-10,1.043669289e-09,1.493383070e-09,6.324425191e-10,2.393660475e-07,3.459274427e-11,2.931780407e-11,2.839215515e-10,4.891391513e-11,6.962559837e-11,2.020974079e-10,2.640473273e-10,3.567234365e-10,5.387342989e-11,6.106738763e-10,2.257160086e-10,1.385542166e-09,7.053125757e-10,4.226633936e-09,1.455834113e-09,3.562459655e-10,5.004365907e-10,3.534055938e-11,7.067200635e-12
0.09375,7.089619899e-10,8.686754602e-10,1.191608068e-09,1.484171340e-10,2.484592169e-12,3.085866139e-09,1.702236775e-09,4.630178599e-10,1.198965976e-10,1.033534023e-09,1.478734108e-09,6.263151815e-10,2.378191648e-07,3.441138982e-11,2.905853977e-11,2.814475052e-10,4.867340146e-11,6.910589270e-11,2.003141315e-10,2.616544515e-10,3.533966881e-10,5.338689317e-11,6.048510857e-10,2.245344962e-10,1.372332491e-09,7.004347524e-10,4.189464085e-09,1.441675833e-09,3.528190926e-10,4.957120359e-10,3.514531393e-11,7.005161909e-12
0.10156,7.022586517e-10,8.597205812e-10,1.180898221e-09,1.469627284e-10,2.468721757e-12,3.053880408e-09,1.686000014e-09,4.582134916e-10,1.187716294e-10,1.022726130e-09,1.463179348e-09,6.198002036e-10,2.361392214e-07,3.420527134e-11,2.877979777e-11,2.788087371e-10,4.839613174e-11,6.854988639e-11,1.984077367e-10,2.591058924e-10,3.498317419e-10,5.287156448e-11,5.986321192e-10,2.231914845e-10,1.358283138e-09,6.951583141e-10,4.149850016e-09,1.426538316e-09,3.491580019e-10,4.906694126e-10,3.492592303e-11,6.938946033e-12
0.10938,6.950998135e-10,8.502792850e-10,1.169582279e-09,1.454129370e-10,2.451156544e-12,3.020168023e-09,1.668835052e-09,4.531543808e-10,1.175816981e-10,1.011275753e-09,1.446757896e-09,6.129106282e-10,2.343298998e-07,3.397460277e-11,2.848580190e-11,2.760295023e-10,4.808328625e-11,6.796381503e-11,1.963781229e-10,2.563970441e-10,3.460419284e-10,5.233053934e-11,5.920411346e-10,2.216906941e-10,1.343455393e-09,6.894994890e-10,4.107959574e-09,1.410482517e-09,3.452827464e-10,4.853009889e-10,3.468360901e-11,6.869106501e-12
0.11719,6.874679043e-10,8.403633346e-10,1.157655570e-09,1.437664477e-10,2.431838234e-12,2.984758939e-09,1.650746199e-09,4.478458212e-10,1.163289206e-10,9.991930924e-10,1.429488773e-09,6.056574327e-10,2.323955876e-07,3.371967606e-11,2.817698459e-11,2.731127542e-10,4.773946330e-11,6.734787682e-11,1.942334033e-10,2.535362657e-10,3.420316429e-10,5.176371328e-11,5.850910605e-10,2.200311507e-10,1.327870438e-09,6.834782197e-10,4.063904840e-09,1.393531974e-09,3.412071221e-10,4.795941764e-10,3.441928222e-11,6.796191800e-12
0.125,6.793785201e-10,8.299840827e-10,1.145126431e-09,1.420279792e-10,2.410822027e-12,2.947691368e-09,1.631781477e-09,4.422967607e-10,1.150157449e-10,9.865082123e-10,1.411402035e-09,5.980493978e-10,2.303400118e-07,3.344008294e-11,2.785569229e-11,2.700604221e-10,4.736094320e-11,6.669989455e-11,1.919790164e-10,2.505327478e-10,3.378080185e-10,5.117115416e-11,5.777948183e-10,2.182192493e-10,1.311551128e-09,6.771075447e-10,4.017728949e-09,1.375711679e-09,3.369377032e-10,4.735804780e-10,3.413449169e-11,6.720228024e-12
0.13281,6.708832978e-10,8.191843451e-10,1.132049096e-09,1.402062766e-10,2.388089344e-12,2.909121948e-09,1.612022648e-09,4.365282160e-10,1.136465861e-10,9.732770784e-10,1.392568381e-09,5.901140475e-10,2.281672694e-07,3.313662918e-11,2.752551897e-11,2.668885012e-10,4.694501653e-11,6.602147993e-11,1.896229902e-10,2.473933529e-10,3.333925273e-10,5.055512612e-11,5.701846417e-10,2.162661389e-10,1.294576787e-09,6.703993615e-10,3.969552904e-09,1.357122638e-09,3.324857783e-10,4.673063547e-10,3.382972951e-11,6.641363299e-12
0.14062,6.619846888e-10,8.079692927e-10,1.118432331e-09,1.382983953e-10,2.363734718e-12,2.869070480e-09,1.591481807e-09,4.305419862e-10,1.122237392e-10,9.595001011e-10,1.373007203e-09,5.818642352e-10,2.258819537e-07,3.281098231e-11,2.718326279e-11,2.635903795e-10,4.649711593e-11,6.531047905e-11,1.871736946e-10,2.441267683e-10,3.287909392e-10,4.991550368e-11,5.622694796e-10,2.141743269e-10,1.276961767e-09,6.633616952e-10,3.919430104e-09,1.337773155e-09,3.278501069e-10,4.607703037e-10,3.350350728e-11,6.559789486e-12
0.14844,6.527062898e-10,7.963518502e-10,1.104282339e-09,1.363106426e-10,2.338142619e-12,2.827589549e-09,1.570169323e-09,4.243478910e-10,1.107496425e-10,9.451997999e-10,1.352745836e-09,5.733152711e-10,2.234879749e-07,3.246553353e-11,2.682840928e-11,2.601672564e-10,4.602026367e-11,6.456574275e-11,1.846370442e-10,2.407412536e-10,3.240105828e-10,4.925145539e-11,5.540619246e-10,2.119527177e-10,1.258713023e-09,6.560026071e-10,3.867436322e-09,1.317658767e-09,3.230384991e-10,4.539716662e-10,3.315602401e-11,6.475769669e-12
0.15625,6.430928093e-10,7.843953223e-10,1.089663342e-09,1.342578410e-10,2.311425107e-12,2.784896121e-09,1.548162449e-09,4.179777035e-10,1.092305495e-10,9.304464447e-10,1.331865772e-09,5.645015336e-10,2.209900882e-07,3.210229009e-11,2.646675077e-11,2.566520259e-10,4.551407572e-11,6.379503143e-11,1.820175529e-10,2.372376838e-10,3.190712835e-10,4.856564117e-11,5.455952444e-10,2.096111064e-10,1.239904812e-09,6.483413828e-10,3.813777039e-09,1.296885442e-09,3.180757899e-10,4.469408873e-10,3.278904388e-11,6.389712171e-12
0.16406,6.331460960e-10,7.721161378e-10,1.074601502e-09,1.321387851e-10,2.283586152e-12,2.741025884e-09,1.525505074e-09,4.114365677e-10,1.076690139e-10,9.152575500e-10,1.310395357e-09,5.554317175e-10,2.183935794e-07,3.172124962e-11,2.609749416e-11,2.530481307e-10,4.498013690e-11,6.300207248e-11,1.793168062e-10,2.336170902e-10,3.139781733e-10,4.786005265e-11,5.368789706e-10,2.071498546e-10,1.220563321e-09,6.403937040e-10,3.758524095e-09,1.275517442e-09,3.129686475e-10,4.397022217e-10,3.240297792e-11,6.301663134e-12
0.17188,6.229043877e-10,7.595167377e-10,1.059102539e-09,1.299553672e-10,2.254866792e-12,2.695994651e-09,1.502231397e-09,4.047281610e-10,1.060652569e-10,8.996623264e-10,1.288371833e-09,5.461175933e-10,2.157029048e-07,3.132327075e-11,2.571687163e-11,2.493401949e-10,4.442052794e-11,6.218477380e-11,1.765418026e-10,2.298970009e-10,3.087434212e-10,4.713560211e-11,5.279317749e-10,2.045799914e-10,1.200718338e-09,6.321689996e-10,3.701730296e-09,1.253603574e-09,3.077273115e-10,4.322807265e-10,3.199812218e-11,6.211676724e-12
0.17969,6.124152967e-10,7.466550669e-10,1.043227401e-09,1.277210668e-10,2.225045997e-12,2.650034475e-09,1.478413579e-09,3.978854372e-10,1.044241731e-10,8.837321983e-10,1.265893340e-09,5.366026518e-10,2.129235969e-07,3.091082943e-11,2.532735841e-11,2.455473880e-10,4.383932667e-11,6.134830168e-11,1.737017275e-10,2.260928684e-10,3.033903495e-10,4.639628598e-11,5.187893163e-10,2.019132750e-10,1.180452735e-09,6.236888028e-10,3.643616677e-09,1.231227058e-09,3.023790160e-10,4.246897344e-10,3.157686534e-11,6.120022237e-12
0.1875,6.016587710e-10,7.335591857e-10,1.027012603e-09,1.254376358e-10,2.193665921e-12,2.603248938e-09,1.454083887e-09,3.909224826e-10,1.027495897e-10,8.674880008e-10,1.242996245e-09,5.269082882e-10,2.100615968e-07,3.048345932e-11,2.493149261e-11,2.416858150e-10,4.324033722e-11,6.049792976e-11,1.707962538e-10,2.222002579e-10,2.979222073e-10,4.564495210e-11,5.094563430e-10,1.991469409e-10,1.159780051e-09,6.149739952e-10,3.584284754e-09,1.208376508e-09,2.969267283e-10,4.169198154e-10,3.114292840e-11,6.026508458e-12
0.19531,5.906517532e-10,7.202269813e-10,1.010462400e-09,1.231030536e-10,2.160963980e-12,2.555622181e-09,1.429283663e-09,3.838391339e-10,1.010432701e-10,8.509475718e-10,1.219693032e-09,5.170407312e-10,2.071214621e-07,3.003907843e-11,2.452968935e-11,2.377494540e-10,4.261989547e-11,5.963024179e-11,1.678316840e-10,2.182260559e-10,2.923472972e-10,4.487978919e-11,4.999506949e-10,1.962834227e-10,1.138720412e-09,6.060360806e-10,3.523775119e-09,1.185058088e-09,2.913668032e-10,4.089918112e-10,3.069806461e-11,5.931152773e-12
0.20312,5.794523696e-10,7.066952116e-10,9.936175556e-10,1.207236312e-10,2.127347828e-12,2.507283254e-09,1.404098460e-09,3.766546977e-10,9.931014701e-11,8.341622583e-10,1.196049713e-09,5.070260121e-10,2.041087282e-07,2.957929470e-11,2.412358706e-11,2.337461330e-10,4.197361634e-11,5.874251437e-11,1.648261139e-10,2.141939364e-10,2.866887487e-10,4.409936390e-11,4.903173018e-10,1.933280331e-10,1.117374319e-09,5.968955214e-10,3.462301117e-09,1.161410189e-09,2.857196073e-10,4.009434983e-10,3.024095296e-11,5.834735523e-12
0.21094,5.680669309e-10,6.930008458e-10,9.765121093e-10,1.183067016e-10,2.092912531e-12,2.458374262e-09,1.378557542e-09,3.693859154e-10,9.755390044e-11,8.171614042e-10,1.172114574e-09,4.968861980e-10,2.010298460e-07,2.910668418e-11,2.371464081e-11,2.296892482e-10,4.130505462e-11,5.783636874e-11,1.617862626e-10,2.101103210e-10,2.809564464e-10,4.330556726e-11,4.805696101e-10,1.902865782e-10,1.095784719e-09,5.875739355e-10,3.400012275e-09,1.137524532e-09,2.800031676e-10,3.927863339e-10,2.977103623e-11,5.737576903e-12
0.21875,5.565059001e-10,6.791659259e-10,9.591714411e-10,1.158612972e-10,2.057873055e-12,2.408988844e-09,1.352683260e-09,3.620443082e-10,9.577547199e-11,7.999752731e-10,1.147921552e-09,4.866361904e-10,1.978901633e-07,2.862086343e-11,2.330423176e-11,2.255862833e-10,4.062021930e-11,5.691461683e-11,1.587112039e-10,2.059747595e-10,2.751618643e-10,4.250181926e-11,4.707131131e-10,1.871797408e-10,1.073958451e-09,5.780836553e-10,3.336956157e-09,1.113390471e-09,2.742283765e-10,3.845346878e-10,2.928970441e-11,5.639434717e-12
0.22656,5.448090002e-10,6.652225457e-10,9.416540659e-10,1.133931154e-10,2.022323891e-12,2.359228035e-09,1.326557320e-09,3.546480822e-10,9.397763227e-11,7.826410722e-10,1.123524414e-09,4.762971056e-10,1.946957094e-07,2.812264153e-11,2.289296647e-11,2.214506355e-10,3.992288494e-11,5.598210216e-11,1.556072631e-10,2.018001137e-10,2.693221479e-10,4.169149110e-11,4.607733709e-10,1.840164435e-10,1.051955569e-09,5.684433453e-10,3.273279215e-09,1.089021081e-09,2.684094508e-10,3.762081297e-10,2.879799917e-11,5.540447424e-12
0.23438,5.330042529e-10,6.511987099e-10,9.239982895e-10,1.109021463e-10,1.985987120e-12,2.309161433e-09,1.300237817e-09,3.472109737e-10,9.216434139e-11,7.651901500e-10,1.098974575e-09,4.658938827e-10,1.914533138e-07,2.761590681e-11,2.247998056e-11,2.172912575e-10,3.921404954e-11,5.504248723e-11,1.524798069e-10,1.975937423e-10,2.634426460e-10,4.087702712e-11,4.507710273e-10,1.807850187e-10,1.029828990e-09,5.586745829e-10,3.209130578e-09,1.064496947e-09,2.625562735e-10,3.678188179e-10,2.829782809e-11,5.440768833e-12
0.24219,5.211199454e-10,6.371180976e-10,9.062100603e-10,1.083929971e-10,1.948716635e-12,2.258878857e-09,1.273756212e-09,3.397455907e-10,9.034009416e-11,7.476723604e-10,1.074329595e-09,4.554546916e-10,1.881686229e-07,2.710269575e-11,2.206599417e-11,2.131084508e-10,3.849195139e-11,5.409547191e-11,1.493326301e-10,1.933569676e-10,2.575317796e-10,4.005940918e-11,4.407238910e-10,1.774930556e-10,1.007611456e-09,5.487906390e-10,3.144598523e-09,1.039905417e-09,2.566781977e-10,3.593911234e-10,2.779185491e-11,5.340327340e-12
0.25,5.091658854e-10,6.229993392e-10,8.883146223e-10,1.058705500e-10,1.910728303e-12,2.208471706e-09,1.247159413e-09,3.322639004e-10,8.850945969e-11,7.301166515e-10,1.049632355e-09,4.449949243e-10,1.848472277e-07,2.658270756e-11,2.165174304e-11,2.089044363e-10,3.775768993e-11,5.314053181e-11,1.461741050e-10,1.891011629e-10,2.516012376e-10,3.923838245e-11,4.306449633e-10,1.741594159e-10,9.853305646e-10,5.388060244e-10,3.079771317e-09,1.015262011e-09,2.507808276e-10,3.509426852e-10,2.728048526e-11,5.239382327e-12
0.25781,4.971504538e-10,6.088604144e-10,8.703511907e-10,1.033390823e-10,1.872444916e-12,2.158003862e-09,1.220496570e-09,3.247752170e-10,8.667467825e-11,7.125361614e-10,1.024909225e-09,4.345221884e-10,1.814953768e-07,2.605637791e-11,2.123752944e-11,2.046870160e-10,3.701460304e-11,5.217928191e-11,1.430102717e-10,1.848372293e-10,2.456576616e-10,3.841460772e-11,4.205465157e-10,1.707872625e-10,9.630085772e-10,5.287386014e-10,3.014740279e-09,9.905689491e-10,2.448668496e-10,3.424746942e-10,2.676339028e-11,5.138349378e-12
0.26562,4.851216611e-10,5.947368426e-10,8.523531718e-10,1.008084993e-10,1.834129247e-12,2.107596825e-09,1.193821287e-09,3.172963902e-10,8.483730301e-11,6.949776740e-10,1.000209731e-09,4.240571513e-10,1.781189335e-07,2.552373760e-11,2.082703553e-11,2.004718330e-10,3.626234016e-11,5.121510978e-11,1.398419832e-10,1.805666567e-10,2.397148090e-10,3.759098791e-11,4.104576578e-10,1.673844470e-10,9.407028665e-10,5.186053624e-10,2.949643846e-09,9.658939548e-10,2.389540863e-10,3.339947162e-10,2.624160234e-11,5.037384747e-12
0.27344,4.730982620e-10,5.806503763e-10,8.343448706e-10,9.828203760e-11,1.795584952e-12,2.057336683e-09,1.167164645e-09,3.098386124e-10,8.299974339e-11,6.774644822e-10,9.755667500e-10,4.136128327e-10,1.747235037e-07,2.498465232e-11,2.042183346e-11,1.962675119e-10,3.550257534e-11,5.025097492e-11,1.366704633e-10,1.762920195e-10,2.337819044e-10,3.676953641e-11,4.003942299e-10,1.639639584e-10,9.184582646e-10,5.084259052e-10,2.884611175e-09,9.412844632e-10,2.330604421e-10,3.255144558e-10,2.571624142e-11,4.936534992e-12
0.28125,4.610716108e-10,5.666090390e-10,8.163534861e-10,9.575872259e-11,1.756648134e-12,2.007244348e-09,1.140550040e-09,3.024061109e-10,8.116490113e-11,6.600018893e-10,9.510042066e-10,4.031973864e-10,1.713145731e-07,2.444154186e-11,2.001823620e-11,1.920677493e-10,3.473982803e-11,4.928680210e-11,1.335019029e-10,1.720245999e-10,2.278597109e-10,3.595007817e-11,3.903579349e-10,1.605200900e-10,8.962780778e-10,4.982198285e-10,2.819702308e-09,9.167650388e-10,2.271888534e-10,3.170621701e-10,2.518872794e-11,4.835937974e-12
0.28906,4.490836300e-10,5.526496757e-10,7.984259829e-10,9.324679761e-11,1.717516211e-12,1.957428356e-09,1.114046313e-09,2.950170028e-10,7.933685080e-11,6.426396584e-10,9.265879446e-10,3.928378313e-10,1.678975352e-07,2.389757558e-11,1.961647685e-11,1.878785048e-10,3.397130600e-11,4.832224920e-11,1.303458989e-10,1.677782181e-10,2.219610293e-10,3.513352566e-11,3.803711754e-10,1.570451525e-10,8.742066045e-10,4.880032729e-10,2.755019004e-09,8.924101578e-10,2.213470872e-10,3.086736163e-10,2.466118563e-11,4.735814358e-12
0.29688,4.371655011e-10,5.387964339e-10,7.805855962e-10,9.074898436e-11,1.678269849e-12,1.907972396e-09,1.087688411e-09,2.876837169e-10,7.751800688e-11,6.254045291e-10,9.023517655e-10,3.825501309e-10,1.644777319e-07,2.335418554e-11,1.922029995e-11,1.837178717e-10,3.319326786e-11,4.735954813e-11,1.272064410e-10,1.635560659e-10,2.160975452e-10,3.432176203e-11,3.704492019e-10,1.535512923e-10,8.522915945e-10,4.777898826e-10,2.690668419e-09,8.682495812e-10,2.155456963e-10,3.003438246e-10,2.413500269e-11,4.636319762e-12
0.30469,4.253045014e-10,5.250400070e-10,7.628180622e-10,8.826121768e-11,1.638967330e-12,1.858855529e-09,1.061464704e-09,2.804027028e-10,7.570840036e-11,6.082901947e-10,8.782911477e-10,3.723346745e-10,1.610597424e-07,2.281154684e-11,1.882907377e-11,1.795868924e-10,3.241182176e-11,4.640061466e-11,1.240832973e-10,1.593549758e-10,2.102706220e-10,3.351540045e-11,3.605931534e-10,1.500560599e-10,8.305302134e-10,4.675909805e-10,2.626690563e-09,8.442508303e-10,2.097890446e-10,2.920598141e-10,2.361005364e-11,4.537523889e-12
0.3125,4.135227229e-10,5.113986587e-10,7.451448124e-10,8.579266644e-11,1.600042008e-12,1.810149110e-09,1.035428727e-09,2.731837270e-10,7.391057621e-11,5.913299391e-10,8.544489624e-10,3.622082151e-10,1.576478328e-07,2.226874902e-11,1.844160910e-11,1.754791300e-10,3.163320698e-11,4.544521567e-11,1.209814707e-10,1.551828460e-10,2.044911707e-10,3.271522434e-11,3.508252975e-10,1.465677306e-10,8.089507788e-10,4.574191672e-10,2.563170495e-09,8.204479776e-10,2.040867359e-10,2.838454434e-10,2.308517790e-11,4.439546821e-12
0.32031,4.018566072e-10,4.979014411e-10,7.276125539e-10,8.335366547e-11,1.561760601e-12,1.761966476e-09,1.009628892e-09,2.660410002e-10,7.212807654e-11,5.745505775e-10,8.308628316e-10,3.521853754e-10,1.542464733e-07,2.172500834e-11,1.805963760e-11,1.713988721e-10,3.085590146e-11,4.449237285e-11,1.179063961e-10,1.510516405e-10,1.987714364e-10,3.192256571e-11,3.411637136e-10,1.430886933e-10,7.875968775e-10,4.472866057e-10,2.500191189e-09,7.969153333e-10,1.984448984e-10,2.757214747e-10,2.256036864e-11,4.342502156e-12
0.32812,3.903042965e-10,4.845441220e-10,7.102254102e-10,8.093890670e-11,1.523838066e-12,1.714300279e-09,9.840420105e-10,2.589733305e-10,7.036180427e-11,5.579463853e-10,8.075269888e-10,3.422673625e-10,1.508593414e-07,2.118079077e-11,1.768358530e-11,1.673516543e-10,3.007779607e-11,4.354204376e-11,1.148598926e-10,1.469608257e-10,1.931121320e-10,3.113700342e-11,3.316068934e-10,1.396173047e-10,7.664650834e-10,4.372012987e-10,2.437752020e-09,7.736748689e-10,1.928609734e-10,2.676917798e-10,2.203787586e-11,4.246515837e-12
0.33594,3.788661372e-10,4.713291614e-10,6.929798515e-10,7.854400162e-11,1.486057816e-12,1.667154569e-09,9.586948668e-10,2.519847728e-10,6.861367519e-11,5.415371272e-10,7.844625340e-10,3.324651557e-10,1.474897488e-07,2.063651860e-11,1.731373659e-11,1.633431409e-10,2.930054732e-11,4.259638333e-11,1.118473197e-10,1.429071945e-10,1.875175882e-10,3.035728916e-11,3.221669250e-10,1.361515098e-10,7.455694022e-10,4.271753439e-10,2.375913700e-09,7.507254145e-10,1.873428947e-10,2.597610076e-10,2.151954034e-11,4.151809761e-12
0.34375,3.675699484e-10,4.582845941e-10,6.759025225e-10,7.617781618e-11,1.448669560e-12,1.620630161e-09,9.336461567e-10,2.450898659e-10,6.688683039e-11,5.253547535e-10,7.617057600e-10,3.227926870e-10,1.441414926e-07,2.009330165e-11,1.695249055e-11,1.593832213e-10,2.852757897e-11,4.165782221e-11,1.088751415e-10,1.388978856e-10,1.819997115e-10,2.958417218e-11,3.128617092e-10,1.327025013e-10,7.249498465e-10,4.172227523e-10,2.314783629e-09,7.280943122e-10,1.819032095e-10,2.519323578e-10,2.100560293e-11,4.058397276e-12
0.35156,3.564406065e-10,4.454282080e-10,6.590148961e-10,7.384937776e-11,1.411975266e-12,1.574784955e-09,9.088900364e-10,2.382940332e-10,6.518131640e-11,5.094098623e-10,7.392642700e-10,3.132549683e-10,1.408177652e-07,1.955398150e-11,1.660055361e-11,1.554760955e-10,2.776133331e-11,4.072669798e-11,1.059442863e-10,1.349418386e-10,1.765661663e-10,2.881949559e-11,3.036945593e-10,1.292899324e-10,7.046112605e-10,4.073475219e-10,2.254367453e-09,7.058217360e-10,1.765412140e-10,2.442223991e-10,2.049615538e-11,3.966123466e-12
0.35938,3.454787184e-10,4.327615488e-10,6.423257212e-10,7.155795584e-11,1.375955472e-12,1.529600239e-09,8.844287829e-10,2.315952502e-10,6.349589638e-11,4.937048941e-10,7.171406644e-10,3.038550178e-10,1.375211334e-07,1.902100898e-11,1.625722652e-11,1.516215335e-10,2.700175683e-11,3.980400513e-11,1.030534728e-10,1.310399793e-10,1.712169432e-10,2.806419399e-11,2.946660797e-10,1.259180235e-10,6.845535980e-10,3.975548360e-10,2.194668301e-09,6.839146904e-10,1.712546922e-10,2.366481652e-10,1.999153889e-11,3.875185538e-12
0.36719,3.346813670e-10,4.202932443e-10,6.258505980e-10,6.930275081e-11,1.340419106e-12,1.485112733e-09,8.603019437e-10,2.249984632e-10,6.183147669e-11,4.782507241e-10,6.953557662e-10,2.945985645e-10,1.342545380e-07,1.849590951e-11,1.592365115e-11,1.478261799e-10,2.624894810e-11,3.889311763e-11,1.002028712e-10,1.271897898e-10,1.659517388e-10,2.731952788e-11,2.857825263e-10,1.225796663e-10,6.648053216e-10,3.878603381e-10,2.135788527e-09,6.623676645e-10,1.660530543e-10,2.292012063e-10,1.949320904e-11,3.785793337e-12
0.375,3.240655726e-10,4.080372260e-10,6.096045007e-10,6.708814660e-11,1.305252727e-12,1.441405319e-09,8.365240951e-10,2.185128127e-10,6.019012929e-11,4.630713181e-10,6.739429463e-10,2.854976108e-10,1.310205693e-07,1.797938418e-11,1.559892720e-11,1.440938068e-10,2.550505360e-11,3.799491714e-11,9.739485979e-11,1.233931883e-10,1.607760118e-10,2.658690445e-11,2.770524946e-10,1.192754166e-10,6.453868278e-10,3.782726834e-10,2.077798487e-09,6.412074940e-10,1.609445302e-10,2.218800970e-10,1.900357777e-11,3.697542404e-12
0.38281,3.136434297e-10,3.959911713e-10,5.935926196e-10,6.491287609e-11,1.270473730e-12,1.398465040e-09,8.131043219e-10,2.121392723e-10,5.857381210e-11,4.481795122e-10,6.529187134e-10,2.765627533e-10,1.278209611e-07,1.746998935e-11,1.527899747e-11,1.404133366e-10,2.477121961e-11,3.710558451e-11,9.463382298e-11,1.196556464e-10,1.556938427e-10,2.586525220e-11,2.684799244e-10,1.160064081e-10,6.262947792e-10,3.687894708e-10,2.020669388e-09,6.204523745e-10,1.559252363e-10,2.146971026e-10,1.852315479e-11,3.610050454e-12
0.39062,3.034146946e-10,3.841549508e-10,5.778194936e-10,6.277418507e-11,1.236231322e-12,1.356264833e-09,7.900604901e-10,2.058774182e-10,5.698404147e-11,4.335729661e-10,6.322786070e-10,2.677969574e-10,1.246575583e-07,1.696615403e-11,1.496446954e-11,1.367788256e-10,2.404576453e-11,3.622338770e-11,9.192182465e-11,1.159795800e-10,1.507055056e-10,2.515353765e-11,2.600677802e-10,1.127727568e-10,6.075320567e-10,3.594138364e-10,1.964404300e-09,6.001035482e-10,1.509953915e-10,2.076523452e-10,1.805055950e-11,3.523641984e-12
0.39844,2.933935826e-10,3.725524824e-10,5.622947771e-10,6.067952080e-11,1.202709475e-12,1.314885120e-09,7.673962233e-10,1.997353958e-10,5.542116908e-11,4.192656185e-10,6.120325661e-10,2.592046165e-10,1.215325403e-07,1.646813152e-11,1.465971824e-11,1.332034197e-10,2.332786844e-11,3.535252503e-11,8.925691019e-11,1.123628883e-10,1.458161050e-10,2.445386730e-11,2.518276921e-10,1.095875179e-10,5.891197239e-10,3.501552517e-10,1.909084403e-09,5.801939137e-10,1.461683169e-10,2.007541994e-10,1.758517089e-11,3.438735853e-12
0.40625,2.835885216e-10,3.611907722e-10,5.470233631e-10,5.863314059e-11,1.169982733e-12,1.274354302e-09,7.451246982e-10,1.937160986e-10,5.388473564e-11,4.052700468e-10,5.921954840e-10,2.507884787e-10,1.184476446e-07,1.597621854e-11,1.436402370e-11,1.296948171e-10,2.262155686e-11,3.449596527e-11,8.663881208e-11,1.088063444e-10,1.410313360e-10,2.376737059e-11,2.437651373e-10,1.064641592e-10,5.710709273e-10,3.410204462e-10,1.854745385e-09,5.607484187e-10,1.414482519e-10,1.940160173e-10,1.712748472e-11,3.355358806e-12
0.41406,2.739922338e-10,3.500537808e-10,5.320075422e-10,5.663051204e-11,1.138066247e-12,1.234623859e-09,7.232701702e-10,1.878158375e-10,5.237479523e-11,3.915816373e-10,5.727710380e-10,2.425482448e-10,1.154042215e-07,1.549107342e-11,1.407518802e-11,1.262483504e-10,2.193097243e-11,3.365184839e-11,8.407166018e-11,1.053177972e-10,1.363519708e-10,2.309281465e-11,2.358748328e-10,1.033992833e-10,5.533875288e-10,3.320146391e-10,1.801374204e-09,5.417542269e-10,1.368273989e-10,1.874299483e-10,1.667831283e-11,3.273508707e-12
0.42188,2.646152843e-10,3.391526909e-10,5.172592553e-10,5.467400203e-11,1.106927015e-12,1.195744334e-09,7.018353188e-10,1.820397205e-10,5.089176660e-11,3.782100477e-10,5.537729248e-10,2.344898245e-10,1.124039755e-07,1.501488790e-11,1.379580290e-11,1.228697000e-10,2.125381524e-11,3.282024132e-11,8.155831374e-11,1.019024809e-10,1.317802634e-10,2.243071069e-11,2.281616169e-10,1.003875387e-10,5.360811619e-10,3.231428299e-10,1.749013161e-09,5.232083237e-10,1.323089366e-10,1.809954424e-10,1.623822877e-11,3.193176227e-12
0.42969,2.554701551e-10,3.285034221e-10,5.027836855e-10,5.276736453e-11,1.076425226e-12,1.157769045e-09,6.808168951e-10,1.763918997e-10,4.943597836e-11,3.651694014e-10,5.352127629e-10,2.266183052e-10,1.094485416e-07,1.454955951e-11,1.352644691e-11,1.195650912e-10,2.058792658e-11,3.200357231e-11,7.909823463e-11,9.855801407e-11,1.273195651e-10,2.178187947e-11,2.206338919e-10,9.743469462e-11,5.191592548e-10,3.144073304e-10,1.697702252e-09,5.051238831e-10,1.279008794e-10,1.747299402e-10,1.580735919e-11,3.114195628e-12
0.4375,2.465489741e-10,3.180922266e-10,4.885754757e-10,5.090568269e-11,1.046525828e-12,1.120650172e-09,6.602309177e-10,1.708688920e-10,4.800876580e-11,3.524577570e-10,5.170937531e-10,2.189370987e-10,1.065387897e-07,1.409565619e-11,1.326308384e-11,1.163234615e-10,1.993715843e-11,3.120022537e-11,7.669289958e-11,9.528623434e-11,1.229706765e-10,2.114514094e-11,2.132902144e-10,9.454481230e-11,5.026170494e-10,3.058104643e-10,1.647420315e-09,4.875139463e-10,1.236003469e-10,1.686364891e-10,1.538589906e-11,3.036607033e-12
0.44531,2.378521178e-10,3.079191566e-10,4.746492385e-10,4.908873915e-11,1.017409723e-12,1.084387355e-09,6.400917741e-10,1.654732634e-10,4.661154920e-11,3.400740535e-10,4.994262693e-10,2.114525840e-10,1.036756871e-07,1.365278772e-11,1.300510846e-11,1.131388997e-10,1.930251450e-11,3.040783708e-11,7.434482910e-11,9.209362515e-11,1.187334084e-10,2.052042859e-11,2.061306390e-10,9.171198701e-11,4.864604627e-10,2.973569369e-10,1.598175323e-09,4.703852430e-10,1.194054341e-10,1.627050679e-10,1.497387908e-11,2.960608257e-12
0.45312,2.293926194e-10,2.980049841e-10,4.610238441e-10,4.732343089e-11,9.892124564e-13,1.049033643e-09,6.203943998e-10,1.602088507e-10,4.524368107e-11,3.280185132e-10,4.822050887e-10,2.041609739e-10,1.008606407e-07,1.322031691e-11,1.275555519e-11,1.100206843e-10,1.867994790e-11,2.962884683e-11,7.205291510e-11,8.897899051e-11,1.146079900e-10,1.990875203e-11,1.991582219e-10,8.893240498e-11,4.707005980e-10,2.890504566e-10,1.550009506e-09,4.537359613e-10,1.153223020e-10,1.569308309e-10,1.457104421e-11,2.886097440e-12
0.46094,2.211723464e-10,2.883485074e-10,4.476884443e-10,4.561069267e-11,9.619167594e-13,1.014587145e-09,6.011369571e-10,1.550730486e-10,4.390440141e-11,3.162887832e-10,4.654168008e-10,1.970540410e-10,9.809451240e-08,1.279830963e-11,1.251474847e-11,1.069710547e-10,1.806897746e-11,2.886545617e-11,6.981612449e-11,8.593871331e-11,1.105960216e-10,1.930980792e-11,1.923729040e-10,8.621193107e-11,4.553389345e-10,2.808928212e-10,1.502927625e-09,4.375730742e-10,1.113543098e-10,1.513157127e-10,1.417773706e-11,2.812942430e-12
0.46875,2.131800888e-10,2.789368995e-10,4.346333186e-10,4.394677418e-11,9.354671909e-13,9.810244352e-10,5.823338584e-10,1.500649513e-10,4.259441765e-11,3.048838470e-10,4.490696360e-10,1.901334636e-10,9.537788216e-08,1.238605338e-11,1.228108158e-11,1.039849680e-10,1.747132746e-11,2.811600575e-11,6.763453809e-11,8.297396280e-11,1.066961409e-10,1.872349183e-11,1.857731140e-10,8.355704212e-11,4.403719288e-10,2.728870864e-10,1.456916999e-09,4.218869711e-10,1.074973247e-10,1.458659030e-10,1.379461249e-11,2.741348077e-12
0.47656,2.054084416e-10,2.697735285e-10,4.218720686e-10,4.233088512e-11,9.098192298e-13,9.483421443e-10,5.639910826e-10,1.451855170e-10,4.131397675e-11,2.937998893e-10,4.331677786e-10,1.834000684e-10,9.271170714e-08,1.198165556e-11,1.205486027e-11,1.010648204e-10,1.688662214e-11,2.737941263e-11,6.550604847e-11,8.008404275e-11,1.029040456e-10,1.815042078e-11,1.793569033e-10,8.096843077e-11,4.257942150e-10,2.650376037e-10,1.411981741e-09,4.066470846e-10,1.037467490e-10,1.405847346e-10,1.342182571e-11,2.671516153e-12
0.48438,1.978659433e-10,2.608635572e-10,4.094083068e-10,4.076374252e-11,8.849961620e-13,9.165432482e-10,5.460965337e-10,1.404347254e-10,4.006327062e-11,2.830380221e-10,4.177058840e-10,1.768532170e-10,9.009672512e-08,1.158523845e-11,1.183691061e-11,9.821400371e-11,1.631526039e-11,2.665655548e-11,6.343019990e-11,7.726819830e-11,9.922032000e-11,1.759066136e-11,1.731248440e-10,7.844233153e-11,4.116055154e-10,2.573466293e-10,1.368131943e-09,3.918659754e-10,1.001039788e-10,1.354675258e-10,1.305883088e-11,2.603373306e-12
0.49219,1.905574181e-10,2.521963148e-10,3.972304354e-10,3.924399703e-11,8.610656247e-13,8.856142090e-10,5.286379613e-10,1.358116408e-10,3.884297134e-11,2.725974219e-10,4.026849666e-10,1.704950701e-10,8.753328294e-08,1.119841425e-11,1.162591156e-11,9.542929330e-11,1.575814074e-11,2.594785745e-11,6.140789276e-11,7.452789787e-11,9.564390959e-11,1.704448469e-11,1.670745321e-10,7.597346398e-11,3.978039181e-10,2.498121831e-10,1.325360384e-09,3.775634066e-10,9.656990075e-11,1.305034996e-10,1.270448554e-11,2.536671123e-12
0.5,1.834699222e-10,2.437638074e-10,3.853393091e-10,3.777041635e-11,8.380019412e-13,8.555314490e-10,5.116113187e-10,1.313132051e-10,3.765245754e-11,2.624660507e-10,3.880942734e-10,1.643211331e-10,8.502174668e-08,1.082129459e-11,1.142095469e-11,9.270899050e-11,1.521516737e-11,2.525349212e-11,5.943739642e-11,7.186093007e-11,9.216991225e-11,1.651231911e-11,1.611991095e-10,7.356356306e-11,3.843770300e-10,2.424316465e-10,1.283646520e-09,3.637149756e-10,9.314064486e-11,1.256871927e-10,1.235837690e-11,2.471227792e-12
0.50781,1.765989171e-10,2.355777019e-10,3.737424297e-10,3.634492130e-11,8.157153307e-13,8.263079737e-10,4.950193425e-10,1.269394908e-10,3.649102139e-11,2.526433462e-10,3.739210911e-10,1.583271533e-10,8.256244559e-08,1.045360890e-11,1.122401963e-11,9.005531356e-11,1.468579819e-11,2.457327853e-11,5.751990632e-11,6.926742358e-11,8.880232074e-11,1.599351661e-11,1.555018443e-10,7.121870430e-11,3.713249354e-10,2.352081457e-10,1.242995948e-09,3.503119240e-10,8.981695353e-11,1.210289987e-10,1.202125786e-11,2.407235472e-12
0.51562,1.699481055e-10,2.276394430e-10,3.624317773e-10,3.496774165e-11,7.941760548e-13,7.979434340e-10,4.788610168e-10,1.226905971e-10,3.535869859e-11,2.431289970e-10,3.601616949e-10,1.525124477e-10,8.015556948e-08,1.009545006e-11,1.103579768e-11,8.746688216e-11,1.416775545e-11,2.390574330e-11,5.565845763e-11,6.675125436e-11,8.554295928e-11,1.548707629e-11,1.499854866e-10,6.893367496e-11,3.586537268e-10,2.281469715e-10,1.203413940e-09,3.373442325e-10,8.660017066e-11,1.165319678e-10,1.169364653e-11,2.344985836e-12
0.52344,1.635082275e-10,2.199273883e-10,3.513944641e-10,3.363449357e-11,7.734096525e-13,7.703839845e-10,4.631230852e-10,1.185601461e-10,3.425444831e-11,2.339047812e-10,3.468032917e-10,1.468707739e-10,7.780111311e-08,9.746582339e-12,1.085390524e-11,8.494184161e-11,1.366097798e-11,2.325049650e-11,5.385036623e-11,6.430818372e-11,8.238216293e-11,1.499297339e-11,1.446381414e-10,6.670025986e-11,3.463494284e-10,2.212466122e-10,1.164867411e-09,3.247780348e-10,8.348362660e-11,1.121767598e-10,1.137581777e-11,2.284313793e-12
0.53125,1.572750554e-10,2.124365602e-10,3.406322350e-10,3.234327628e-11,7.534450912e-13,7.436273144e-10,4.477982955e-10,1.145464515e-10,3.317769561e-11,2.249703593e-10,3.338443027e-10,1.414008332e-10,7.549902638e-08,9.407924249e-12,1.067754272e-11,8.248362526e-11,1.317068278e-11,2.260920038e-11,5.209360170e-11,6.193271923e-11,7.931933159e-11,1.451174842e-11,1.394562585e-10,6.452483761e-11,3.344041677e-10,2.145027284e-10,1.127343589e-09,3.126350746e-10,8.046483478e-11,1.079574437e-10,1.106776412e-11,2.224938158e-12
0.53906,1.512544673e-10,2.051768160e-10,3.301499574e-10,3.109616744e-11,7.342872735e-13,7.177011781e-10,4.328929821e-10,1.106525842e-10,3.212921409e-11,2.163365809e-10,3.212955875e-10,1.361051079e-10,7.324934322e-08,9.080680971e-12,1.050760804e-11,8.009150417e-11,1.269811936e-11,2.198213786e-11,5.038992325e-11,5.962828525e-11,7.635962065e-11,1.404312576e-11,1.344448205e-10,6.241627565e-11,3.228208827e-10,2.079157439e-10,1.090845853e-09,3.009387067e-10,7.754624361e-11,1.038880045e-10,1.076858784e-11,2.166932443e-12
0.54688,1.454391796e-10,1.981397127e-10,3.199437074e-10,2.989346196e-11,7.159076397e-13,6.925663666e-10,4.184093578e-10,1.068748426e-10,3.110864153e-11,2.079890080e-10,3.091450153e-10,1.309759524e-10,7.105171310e-08,8.763943363e-12,1.034400222e-11,7.775872777e-11,1.223766872e-11,2.136801043e-11,4.873725301e-11,5.739610224e-11,7.349679562e-11,1.358629504e-11,1.295954325e-10,6.037156064e-11,3.115851521e-10,2.014863934e-10,1.055339584e-09,2.896387668e-10,7.472233396e-11,9.996575602e-11,1.047805920e-11,2.110352660e-12
0.55469,1.398155841e-10,1.913158179e-10,3.100109560e-10,2.873348215e-11,6.982666411e-13,6.682005731e-10,4.043444088e-10,1.032107187e-10,3.011546902e-11,1.999158394e-10,2.973793048e-10,1.260094991e-10,6.890559297e-08,8.456714219e-12,1.018697210e-11,7.548484612e-11,1.178717987e-11,2.076666350e-11,4.713309132e-11,5.523236602e-11,7.072696188e-11,1.314138290e-11,1.249012925e-10,5.838276025e-11,3.006881115e-10,1.952120692e-10,1.020808971e-09,2.787104519e-10,7.198864996e-11,9.617608155e-11,1.019645803e-11,2.055095914e-12
0.5625,1.343813322e-10,1.847056718e-10,3.003492830e-10,2.761443026e-11,6.813274056e-13,6.446149859e-10,3.906911895e-10,9.966069160e-11,2.915010825e-11,1.921199238e-10,2.860004084e-10,1.212088498e-10,6.681083050e-08,8.159565622e-12,1.003621253e-11,7.327141120e-11,1.134935421e-11,2.017840602e-11,4.557818671e-11,5.313620513e-11,6.805219786e-11,1.270870838e-11,1.203644293e-10,5.644649708e-11,2.901336097e-10,1.890906037e-10,9.872617592e-10,2.681686788e-10,6.934799259e-11,9.251407358e-11,9.922851425e-12,2.001193920e-12
0.57031,1.291403737e-10,1.783014581e-10,2.909507484e-10,2.653509975e-11,6.650579565e-13,6.217714367e-10,3.774332075e-10,9.621948054e-11,2.821166556e-11,1.845914220e-10,2.749955996e-10,1.165678317e-10,6.476702067e-08,7.872634094e-12,9.890117439e-12,7.111490167e-11,1.092544836e-11,1.960409540e-11,4.407029560e-11,5.110595633e-11,6.546709963e-11,1.228790303e-11,1.159780628e-10,5.456643241e-11,2.799062762e-10,1.831206541e-10,9.546625894e-10,2.579979331e-10,6.679792241e-11,8.897742376e-11,9.657172449e-12,1.948588546e-12
0.57812,1.240874917e-10,1.720959695e-10,2.818092877e-10,2.549500431e-11,6.494556603e-13,5.996406941e-10,3.645571532e-10,9.288383030e-11,2.729881730e-11,1.773178812e-10,2.643470013e-10,1.120792589e-10,6.277336311e-08,7.595234046e-12,9.749672758e-12,6.901692649e-11,1.051524421e-11,1.904577849e-11,4.260652623e-11,4.913818342e-11,6.296656974e-11,1.187912242e-11,1.117346638e-10,5.274464740e-11,2.699897478e-10,1.773001525e-10,9.229823880e-10,2.481869979e-10,6.433285062e-11,8.556491449e-11,9.400615791e-12,1.897050476e-12
0.58594,1.192072964e-10,1.660878298e-10,2.729167786e-10,2.449195871e-11,6.345679768e-13,5.782198003e-10,3.520577642e-10,8.965307643e-11,2.641157217e-11,1.702960079e-10,2.540495052e-10,1.077422546e-10,6.082941036e-08,7.326990431e-12,9.616054302e-12,6.698022866e-11,1.011794353e-11,1.850217334e-11,4.118827740e-11,4.723292622e-11,6.055223307e-11,1.148230670e-11,1.076356889e-10,5.097584326e-11,2.603875324e-10,1.716273827e-10,8.922263469e-10,2.387336038e-10,6.195334551e-11,8.227889145e-11,9.152539385e-12,1.846710670e-12
0.59375,1.144976636e-10,1.602701771e-10,2.642637684e-10,2.352361048e-11,6.204471527e-13,5.574723233e-10,3.399286365e-10,8.652127964e-11,2.554987567e-11,1.635223088e-10,2.440979280e-10,1.035539384e-10,5.893458590e-08,7.067656859e-12,9.485689346e-12,6.499668779e-11,9.732730762e-12,1.796873635e-11,3.981668517e-11,4.539089235e-11,5.822453564e-11,1.109604832e-11,1.036802680e-10,4.925970237e-11,2.510979598e-10,1.661008271e-10,8.623734362e-10,2.296208142e-10,5.965971953e-11,7.911639696e-11,8.911778576e-12,1.797928836e-12
0.60156,1.099673003e-10,1.546371165e-10,2.558513177e-10,2.259072511e-11,6.070844188e-13,5.373780694e-10,3.281637283e-10,8.348558584e-11,2.471304883e-11,1.569905811e-10,2.344837292e-10,9.951025103e-11,5.708790535e-08,6.816934043e-12,9.356442913e-12,6.305997787e-11,9.360668169e-12,1.744509747e-11,3.849045837e-11,4.361152807e-11,5.598120857e-11,1.071987640e-11,9.986235943e-11,4.760096834e-11,2.421072050e-10,1.607180744e-10,8.333906952e-10,2.208422406e-10,5.744626581e-11,7.606908102e-11,8.678445679e-12,1.750582685e-12
0.60938,1.056087391e-10,1.491858600e-10,2.476772954e-10,2.169471112e-11,5.944757961e-13,5.179476682e-10,3.167540515e-10,8.054735115e-11,2.390015048e-11,1.506890739e-10,2.251935491e-10,9.560549123e-11,5.528871519e-08,6.574540313e-12,9.231911744e-12,6.117445350e-11,9.001468693e-12,1.693365984e-11,3.720745347e-11,4.189385162e-11,5.381823014e-11,1.035465892e-11,9.617585297e-11,4.599684148e-11,2.334047120e-10,1.554764544e-10,8.052624322e-10,2.123822158e-10,5.530862935e-11,7.313065322e-11,8.451774939e-12,1.704297239e-12
0.61719,1.014139027e-10,1.439136990e-10,2.397292645e-10,2.083585442e-11,5.826741709e-13,4.991689108e-10,3.056865296e-10,7.770396356e-11,2.311025031e-11,1.446110298e-10,2.162148082e-10,9.183323438e-11,5.353640018e-08,6.340244095e-12,9.113923226e-12,5.934339539e-11,8.652126795e-12,1.643388813e-11,3.596440851e-11,4.023321223e-11,5.173175091e-11,1.000023651e-11,9.261809714e-11,4.444534061e-11,2.249880426e-10,1.503745493e-10,7.779716555e-10,2.042292924e-10,5.324989150e-11,7.030177378e-11,8.230950577e-12,1.659108745e-12
0.625,9.738460810e-11,1.388194763e-10,2.320037232e-10,2.001219642e-11,5.716319225e-13,4.810160652e-10,2.949535770e-10,7.495264161e-11,2.234303246e-11,1.387581140e-10,2.075445215e-10,8.819169584e-11,5.183002840e-08,6.114387665e-12,9.000568948e-12,5.756635739e-11,8.313318085e-12,1.594661725e-11,3.475835568e-11,3.862413194e-11,4.971921244e-11,9.656155049e-12,8.918769585e-11,4.294830769e-11,2.168527030e-10,1.454113004e-10,7.515011776e-10,1.964080754e-10,5.127144190e-11,6.758609576e-11,8.016785367e-12,1.615181768e-12
0.63281,9.350790454e-11,1.338944280e-10,2.245016382e-10,1.921920444e-11,5.611962068e-13,4.634604726e-10,2.845488959e-10,7.229076393e-11,2.159776441e-11,1.331182727e-10,1.991719174e-10,8.467616851e-11,5.016886162e-08,5.897612213e-12,8.892013058e-12,5.584273658e-11,7.988810010e-12,1.547497311e-11,3.358836031e-11,3.706723554e-11,4.777603796e-11,9.322830591e-12,8.587736286e-11,4.149973129e-11,2.089823957e-10,1.405832626e-10,7.258284571e-10,1.888984001e-10,4.936542615e-11,6.497811512e-11,7.809305688e-12,1.572410544e-12
0.64062,8.977328516e-11,1.291298562e-10,2.172172534e-10,1.845645685e-11,5.513424634e-13,4.464844368e-10,2.744670622e-10,6.971391374e-11,2.087360129e-11,1.276790388e-10,1.910854965e-10,8.128106458e-11,4.855217670e-08,5.689831434e-12,8.788705408e-12,5.416854511e-11,7.677314882e-12,1.501685522e-11,3.245574608e-11,3.556587877e-11,4.590154488e-11,8.999836794e-12,8.268195023e-11,4.009599476e-11,2.013686329e-10,1.358868821e-10,7.009287438e-10,1.816457459e-10,4.752679537e-11,6.246787049e-11,7.607547400e-12,1.530822520e-12
0.64844,8.618777600e-11,1.245274963e-10,2.101431054e-10,1.772639388e-11,5.421057381e-13,4.300853126e-10,2.647063237e-10,6.722069465e-11,2.017138637e-11,1.224447735e-10,1.832914542e-10,7.800925722e-11,4.697902061e-08,5.490477948e-12,8.687902190e-12,5.253940927e-11,7.374715803e-12,1.456818100e-11,3.136223054e-11,3.411890536e-11,4.409995942e-11,8.685817869e-12,7.960374092e-11,3.874260167e-11,1.940159541e-10,1.313213683e-10,6.767898806e-10,1.746672715e-10,4.575705494e-11,6.005333152e-11,7.411668189e-12,1.490635684e-12
0.65625,8.274384973e-11,1.200791113e-10,2.032652081e-10,1.702534850e-11,5.333874292e-13,4.142269368e-10,2.552508360e-10,6.480907985e-11,1.949098520e-11,1.174064460e-10,1.757800441e-10,7.485768779e-11,4.544856463e-08,5.299359183e-12,8.588550170e-12,5.095554246e-11,7.082020774e-12,1.413099044e-11,3.030646362e-11,3.272222827e-11,4.236731983e-11,8.380543808e-12,7.663827151e-11,3.743896821e-11,1.869107768e-10,1.268837815e-10,6.533857811e-10,1.679820266e-10,4.405137205e-11,5.773346973e-11,7.221904649e-12,1.451682042e-12
0.66406,7.942882120e-11,1.157729264e-10,1.965757904e-10,1.635014889e-11,5.251288241e-13,3.988836268e-10,2.460793749e-10,6.247502746e-11,1.882981041e-11,1.125463581e-10,1.685228444e-10,7.181472025e-11,4.396001850e-08,5.116268184e-12,8.493094806e-12,4.941771287e-11,6.802311103e-12,1.370791419e-11,2.928632566e-11,3.137441619e-11,4.069657798e-11,8.084876661e-12,7.377787655e-11,3.618062585e-11,1.800355835e-10,1.225687021e-10,6.306875934e-10,1.615464699e-10,4.240435594e-11,5.550457935e-11,7.037825222e-12,1.413572106e-12
0.67188,7.624737475e-11,1.116144752e-10,1.900878629e-10,1.570354856e-11,5.174049160e-13,3.840841835e-10,2.371939037e-10,6.021841903e-11,1.818712250e-11,1.078672047e-10,1.615165732e-10,6.887847932e-11,4.251252210e-08,4.940471429e-12,8.402017020e-12,4.792456463e-11,6.534170920e-12,1.329637556e-11,2.830207126e-11,3.007550611e-11,3.908865400e-11,7.798867266e-12,7.102269047e-11,3.496752471e-11,1.733958791e-10,1.183756032e-10,6.086945438e-10,1.553474206e-10,4.081960041e-11,5.336452835e-11,6.859477299e-12,1.376335768e-12
0.67969,7.319509523e-11,1.075999854e-10,1.838002500e-10,1.508373647e-11,5.102217097e-13,3.698054380e-10,2.286000693e-10,5.803728713e-11,1.756409355e-11,1.033687023e-10,1.547670703e-10,6.605039361e-11,4.110524679e-08,4.771571068e-12,8.313553864e-12,4.647552680e-11,6.275027937e-12,1.289461610e-11,2.735195113e-11,2.882270918e-11,3.754243918e-11,7.521341086e-12,6.836953985e-11,3.379704269e-11,1.669878601e-10,1.143057578e-10,5.873897662e-10,1.494010404e-10,3.929724558e-11,5.130640248e-11,6.686826592e-12,1.340231708e-12
0.6875,7.025980237e-11,1.037136843e-10,1.776913603e-10,1.448634178e-11,5.035360066e-13,3.559808958e-10,2.202852105e-10,5.592638016e-11,1.696022634e-11,9.903764004e-11,1.482621008e-10,6.332513745e-11,3.973726279e-08,4.609875259e-12,8.227420584e-12,4.507005323e-11,6.025459269e-12,1.250393961e-11,2.643271128e-11,2.761388684e-11,3.605317843e-11,7.251612392e-12,6.581235768e-11,3.266606988e-11,1.607943122e-10,1.103551322e-10,5.667411668e-10,1.436919760e-10,3.783196907e-11,4.932395906e-11,6.519269506e-12,1.305262687e-12
0.69531,6.744356132e-11,9.996101983e-11,1.717625684e-10,1.391369548e-11,4.973693996e-13,3.426180224e-10,2.122371588e-10,5.388591056e-11,1.637482162e-11,9.487088787e-11,1.419940641e-10,6.070033678e-11,3.840771822e-08,4.455249609e-12,8.143609687e-12,4.370355280e-11,5.785353483e-12,1.212357236e-11,2.554510194e-11,2.645126495e-11,3.462087698e-11,6.990153891e-12,6.335137034e-11,3.157487431e-11,1.548160114e-10,1.065187558e-10,5.467463849e-10,1.382096954e-10,3.642329342e-11,4.742302019e-11,6.356768097e-12,1.271273632e-12
0.70312,6.474473032e-11,9.634776036e-11,1.660217211e-10,1.336709258e-11,4.916808951e-13,3.297356555e-10,2.044499760e-10,5.191614454e-11,1.580814454e-11,9.086650205e-11,1.359613949e-10,5.817485487e-11,3.711590678e-08,4.307278032e-12,8.061416793e-12,4.237123775e-11,5.552679014e-12,1.175200553e-11,2.468949999e-11,2.533475979e-11,3.324417526e-11,6.737166494e-12,6.098277245e-11,3.052213367e-11,1.490506904e-10,1.027936386e-10,5.273900095e-10,1.329528819e-10,3.506970637e-11,4.560614392e-11,6.199580853e-12,1.238143728e-12
0.71094,6.215329827e-11,9.285638207e-11,1.604488136e-10,1.284247608e-11,4.863769548e-13,3.172991516e-10,1.969152939e-10,5.001221050e-11,1.525938075e-11,8.701534048e-11,1.301527133e-10,5.574339017e-11,3.586093765e-08,4.166554319e-12,7.981457847e-12,4.107630795e-11,5.328405394e-12,1.139103634e-11,2.386226983e-11,2.425872774e-11,3.191867027e-11,6.492280634e-12,5.869862278e-11,2.950810482e-11,1.434795729e-10,9.917533648e-11,5.086325431e-10,1.279005532e-10,3.376539872e-11,4.386183932e-11,6.046970326e-12,1.205787792e-12
0.71875,5.966653797e-11,8.947636768e-11,1.550304047e-10,1.233828896e-11,4.814958994e-13,3.052906185e-10,1.896251695e-10,4.817193901e-11,1.472757331e-11,8.331317299e-11,1.245569245e-10,5.340329293e-11,3.464196694e-08,4.033575581e-12,7.904409921e-12,3.982390260e-11,5.114904979e-12,1.104210524e-11,2.306179540e-11,2.321980333e-11,3.064336240e-11,6.255374713e-12,5.649783463e-11,2.853340542e-11,1.380955059e-10,9.566028519e-11,4.904638788e-10,1.230418655e-10,3.250869498e-11,4.218258770e-11,5.897823765e-12,1.174219230e-12
0.72656,5.728220958e-11,8.621211685e-11,1.497756295e-10,1.185533161e-11,4.771136875e-13,2.937071857e-10,1.825710033e-10,4.639525142e-11,1.421301322e-11,7.975618093e-11,1.191683790e-10,5.115353672e-11,3.345831256e-08,3.907265393e-12,7.829321286e-12,3.860993165e-11,4.910565861e-12,1.070322593e-11,2.228919780e-11,2.221920723e-11,2.941735515e-11,6.026100178e-12,5.437978717e-11,2.759325226e-11,1.328980996e-10,9.224837709e-11,4.728775868e-10,1.183801665e-10,3.130031945e-11,4.057198609e-11,5.752067995e-12,1.143534891e-12
0.73438,5.499546321e-11,8.306201636e-11,1.446827546e-10,1.139278158e-11,4.731704923e-13,2.825261744e-10,1.757464014e-10,4.467935930e-11,1.371564219e-11,7.633730765e-11,1.139821057e-10,4.899016316e-11,3.230904271e-08,3.786553059e-12,7.755684816e-12,3.742815766e-11,4.712763727e-12,1.037293950e-11,2.154403468e-11,2.125709238e-11,2.823820502e-11,5.803699523e-12,5.234031229e-11,2.668587961e-11,1.278792886e-10,8.893944283e-11,4.558477633e-10,1.139067706e-10,3.013851777e-11,3.903042273e-11,5.610227324e-12,1.113796586e-12
0.74219,5.280264190e-11,8.002104372e-11,1.397417855e-10,1.094948799e-11,4.695800019e-13,2.717339710e-10,1.691511274e-10,4.302179258e-11,1.323462576e-11,7.305178247e-11,1.089928643e-10,4.690920830e-11,3.119325180e-08,3.671729142e-12,7.684068068e-12,3.627954078e-11,4.521453182e-12,1.005183777e-11,2.082530820e-11,2.033224184e-11,2.710432737e-11,5.587839827e-12,5.037683065e-11,2.581211816e-11,1.230352205e-10,8.573164375e-11,4.393658231e-10,1.096107228e-10,2.902131801e-11,3.755165255e-11,5.472267351e-12,1.085008603e-12
0.75,5.069801380e-11,7.708683442e-11,1.349542614e-10,1.052456867e-11,4.663032646e-13,2.613237861e-10,1.627786926e-10,4.142105368e-11,1.276926837e-11,6.989453768e-11,1.041923079e-10,4.490734566e-11,3.011033828e-08,3.563205564e-12,7.614524178e-12,3.516580336e-11,4.336444561e-12,9.739713819e-12,2.013227139e-11,1.944405917e-11,2.601329795e-11,5.378587333e-12,4.848641490e-11,2.496666840e-11,1.183639012e-10,8.262219782e-11,4.234249389e-10,1.054853960e-10,2.794713458e-11,3.613210546e-11,5.337871964e-12,1.057111126e-12
0.75781,4.867960003e-11,7.425543051e-11,1.303182722e-10,1.011728761e-11,4.632521036e-13,2.512815256e-10,1.566161715e-10,3.987522990e-11,1.231886724e-11,6.686091236e-11,9.957280827e-11,4.298169710e-11,2.905955583e-08,3.460734002e-12,7.546773316e-12,3.408560028e-11,4.158056168e-12,9.436222092e-12,1.946321578e-11,1.859057046e-11,2.496379819e-11,5.176137312e-12,4.666607565e-11,2.414920217e-11,1.138573858e-10,7.960732663e-11,4.079990085e-10,1.015238175e-10,2.691432373e-11,3.477147070e-11,5.206941286e-12,1.029999565e-12
0.76562,4.674751811e-11,7.152226042e-11,1.258204709e-10,9.727077988e-12,4.603978442e-13,2.415949751e-10,1.506586472e-10,3.838246004e-11,1.188278309e-11,6.394712261e-11,9.513004968e-11,4.113031554e-11,2.804005164e-08,3.364014935e-12,7.480859339e-12,3.303843601e-11,3.989112747e-12,9.142412459e-12,1.881682930e-11,1.776913853e-11,2.395605647e-11,4.980734796e-12,4.491420968e-11,2.336642317e-11,1.095090510e-10,7.668402882e-11,3.930713340e-10,9.772274180e-11,2.592143412e-11,3.346774417e-11,5.079314680e-12,1.003639667e-12
0.77344,4.489480274e-11,6.888431560e-11,1.214546785e-10,9.353370511e-12,4.578878013e-13,2.322504767e-10,1.449047621e-10,3.694044310e-11,1.146077092e-11,6.114729342e-11,9.085741820e-11,3.935030614e-11,2.705114572e-08,3.272863995e-12,7.416936730e-12,3.202365259e-11,3.830149542e-12,8.858421541e-12,1.819266168e-11,1.697932197e-11,2.298753545e-11,4.792140078e-12,4.322754482e-11,2.261508890e-11,1.053148782e-10,7.385138364e-11,3.786352401e-10,9.407573027e-11,2.496681628e-11,3.221922913e-11,4.954967256e-12,9.780701868e-13
0.78125,4.311608836e-11,6.634015920e-11,1.172251133e-10,8.996237870e-12,4.557338840e-13,2.232397814e-10,1.393475354e-10,3.554760051e-11,1.105257124e-11,5.845783426e-11,8.674840162e-11,3.763890117e-11,2.609209700e-08,3.186978146e-12,7.355043132e-12,3.103951847e-11,3.677748869e-12,8.583021291e-12,1.759002301e-11,1.622087594e-11,2.205586600e-11,4.609864074e-12,4.160364100e-11,2.188848958e-11,1.012702584e-10,7.110857128e-11,3.646780217e-10,9.057347892e-11,2.404959173e-11,3.102427360e-11,4.834249405e-12,9.532995391e-13
0.78906,4.141076313e-11,6.388694125e-11,1.131303144e-10,8.654453315e-12,4.536471172e-13,2.145551850e-10,1.339792344e-10,3.420295612e-11,1.065768559e-11,5.587581002e-11,8.279833173e-11,3.599431765e-11,2.516211195e-08,3.106101277e-12,7.294895409e-12,3.008520981e-11,3.530148818e-12,8.316140009e-12,1.700855092e-11,1.549216385e-11,2.116138554e-11,4.433812064e-12,4.004162642e-11,2.119003942e-11,9.736955971e-11,6.845323286e-11,3.511846466e-10,8.721526360e-11,2.316888291e-11,2.987739775e-11,4.717363041e-12,9.293041262e-13
0.79688,3.977620164e-11,6.151951568e-11,1.091619681e-10,8.325646802e-12,4.515167599e-13,2.061759164e-10,1.287949647e-10,3.290436917e-11,1.027566332e-11,5.339549428e-11,7.900092850e-11,3.441398861e-11,2.426051103e-08,3.030170066e-12,7.236468123e-12,2.916032409e-11,3.388071023e-12,8.058346906e-12,1.644798020e-11,1.479250194e-11,2.030266683e-11,4.263888865e-12,3.853829287e-11,2.052128464e-11,9.360658460e-11,6.588228970e-11,3.381391044e-10,8.399682237e-11,2.232298644e-11,2.877563633e-11,4.604156742e-12,9.060453568e-13
0.80469,3.821267206e-11,5.923713648e-11,1.053164655e-10,8.011197950e-12,4.496409139e-13,1.980973473e-10,1.237894881e-10,3.165091990e-11,9.906191265e-12,5.101469909e-11,7.535160248e-11,3.289542787e-11,2.338658989e-08,2.958957595e-12,7.180132146e-12,2.826483817e-11,3.251675185e-12,7.809142653e-12,1.590696001e-11,1.412149589e-11,1.947711515e-11,4.099833733e-12,3.709101646e-11,1.987684989e-11,8.997819688e-11,6.339314249e-11,3.255298774e-10,8.090203577e-11,2.151097527e-11,2.772180355e-11,4.494270436e-12,8.834766230e-13
0.8125,3.671899121e-11,5.703987360e-11,1.015930542e-10,7.712946473e-12,4.481889575e-13,1.903237169e-10,1.189549583e-10,3.044229399e-11,9.548940210e-12,4.873132663e-11,7.184636228e-11,3.143634059e-11,2.253964163e-08,2.892065807e-12,7.124898755e-12,2.739793631e-11,3.121579088e-12,7.568006828e-12,1.538441192e-11,1.347751851e-11,1.868401356e-11,3.941546462e-12,3.569889096e-11,1.925639570e-11,8.648119021e-11,6.098366662e-11,3.133474160e-10,7.792533099e-11,2.073087787e-11,2.671470309e-11,4.387258740e-12,8.616364680e-13
0.82031,3.528412397e-11,5.491980416e-11,9.798700438e-11,7.426836449e-12,4.469399539e-13,1.828263609e-10,1.142856177e-10,2.927530922e-11,9.203611582e-12,4.653906156e-11,6.847986316e-11,3.003493115e-11,2.171902297e-08,2.829700085e-12,7.068689131e-12,2.655600034e-11,2.998847087e-12,7.335009157e-12,1.488065904e-11,1.285986331e-11,1.792273831e-11,3.788834840e-12,3.435943793e-11,1.866190919e-11,8.310851097e-11,5.865202830e-11,3.015739264e-10,7.507426556e-11,1.997975286e-11,2.574917088e-11,4.283145476e-12,8.406160580e-13
0.82812,3.390087724e-11,5.287071873e-11,9.449388882e-11,7.149453437e-12,4.457357088e-13,1.755838446e-10,1.097812805e-10,2.814777746e-11,8.870092521e-12,4.443609431e-11,6.525077086e-11,2.869179965e-11,2.092405847e-08,2.772564836e-12,7.011589217e-12,2.573730497e-11,2.882409980e-12,7.109896994e-12,1.439531014e-11,1.226814552e-11,1.719178739e-11,3.641489121e-12,3.307052444e-11,1.808972711e-11,7.985596153e-11,5.639675314e-11,2.901981464e-10,7.234231299e-11,1.925817580e-11,2.482323118e-11,4.182327072e-12,8.203625481e-13
0.83594,3.257283360e-11,5.089442036e-11,9.111166423e-11,6.883227695e-12,4.446611127e-13,1.686089010e-10,1.054379567e-10,2.706025774e-11,8.548207073e-12,4.242189698e-11,6.215577287e-11,2.740575828e-11,2.015408970e-08,2.720888904e-12,6.955934733e-12,2.494431137e-11,2.770555879e-12,6.892258456e-12,1.392683979e-11,1.170068473e-11,1.648971755e-11,3.499464581e-12,3.183057762e-11,1.753746585e-11,7.672185688e-11,5.421580971e-11,2.792156508e-10,6.971492197e-11,1.856668090e-11,2.393506313e-11,4.084568941e-12,8.007459968e-13
0.84375,3.130148551e-11,4.898968643e-11,8.783682242e-11,6.629065484e-12,4.437148143e-13,1.618915580e-10,1.012458801e-10,2.601117149e-11,8.237508059e-12,4.049034185e-11,5.918521936e-11,2.617202224e-11,1.940847345e-08,2.674495857e-12,6.902714557e-12,2.417691749e-11,2.663670171e-12,6.681819011e-12,1.347533123e-11,1.115758742e-11,1.581588754e-11,3.362328934e-12,3.063726523e-11,1.700755858e-11,7.370214632e-11,5.210661804e-11,2.686074486e-10,6.719712760e-11,1.790150969e-11,2.308307971e-11,3.989182438e-12,7.818338658e-13
0.85156,3.008284532e-11,4.715149066e-11,8.466540783e-11,6.384471163e-12,4.427855946e-13,1.554054883e-10,9.720162700e-11,2.499832683e-11,7.937530996e-12,3.863796851e-11,5.633440780e-11,2.498830578e-11,1.868653423e-08,2.632938165e-12,6.850887586e-12,2.343250619e-11,2.562641935e-12,6.478201508e-12,1.304149934e-11,1.063978185e-11,1.517010709e-11,3.229624483e-12,2.948970176e-11,1.649974337e-11,7.079336083e-11,5.006763416e-11,2.583554436e-10,6.479450150e-11,1.726068860e-11,2.226787069e-11,3.896037070e-12,7.637704547e-13
0.85938,2.891392998e-11,4.537850204e-11,8.159462785e-11,6.149580232e-12,4.418962807e-13,1.491566369e-10,9.330415263e-11,2.402211856e-11,7.647797903e-12,3.686338464e-11,5.360115945e-11,2.385338910e-11,1.798769336e-08,2.595231699e-12,6.800236137e-12,2.271234699e-11,2.466762517e-12,6.281525732e-12,1.262338630e-11,1.014447960e-11,1.455044434e-11,3.101706856e-12,2.838614062e-11,1.601080580e-11,6.799089854e-11,4.809762797e-11,2.484567958e-10,6.248804783e-11,1.664549876e-11,2.148618582e-11,3.805325614e-12,7.464440048e-13
0.86719,2.779422321e-11,4.367067863e-11,7.862310660e-11,5.925671038e-12,4.411091830e-13,1.431495607e-10,8.954574759e-11,2.308187803e-11,7.367805504e-12,3.516119179e-11,5.097817887e-11,2.276367426e-11,1.731140147e-08,2.560950050e-12,6.751726232e-12,2.201812352e-11,2.374937392e-12,6.092376715e-12,1.221879267e-11,9.668987188e-12,1.395456973e-11,2.978828365e-12,2.732323746e-11,1.554031030e-11,6.529018852e-11,4.619464402e-11,2.389038672e-10,6.026318402e-11,1.605528389e-11,2.073474416e-11,3.716890043e-12,7.296798779e-13
0.875,2.672181894e-11,4.202577221e-11,7.575131323e-11,5.711063599e-12,4.403729082e-13,1.373619372e-10,8.592134807e-11,2.217514061e-11,7.097423666e-12,3.352913342e-11,4.846316270e-11,2.171868838e-11,1.665700289e-08,2.530421406e-12,6.704529729e-12,2.134655936e-11,2.287272178e-12,5.910494403e-12,1.182837262e-11,9.214601934e-12,1.338271153e-11,2.860447253e-12,2.630074817e-11,1.508852382e-11,6.269234251e-11,4.435728032e-11,2.296837250e-10,5.812618616e-11,1.548866841e-11,2.001618660e-11,3.630527226e-12,7.135717049e-13
0.88281,2.569107448e-11,4.044037360e-11,7.297704955e-11,5.504284941e-12,4.396582584e-13,1.317848459e-10,8.242902516e-11,2.130088558e-11,6.836659140e-12,3.196762104e-11,4.605740204e-11,2.071951472e-11,1.602390657e-08,2.503185286e-12,6.656329314e-12,2.069436677e-11,2.204107339e-12,5.735043868e-12,1.145233419e-11,8.781377015e-12,1.283447017e-11,2.746425248e-12,2.531786569e-11,1.465348860e-11,6.019333397e-11,4.258343677e-11,2.207859760e-10,5.607713459e-11,1.494481215e-11,1.932881883e-11,3.546316330e-12,6.981713314e-13
0.89062,2.469835945e-11,3.891152927e-11,7.029399230e-11,5.306101779e-12,4.389830127e-13,1.264220666e-10,7.906115122e-11,2.045846038e-11,6.585140336e-12,3.047188135e-11,4.375332741e-11,1.976242498e-11,1.541160725e-08,2.479142842e-12,6.607717831e-12,2.006298686e-11,2.124895369e-12,5.566214136e-12,1.108869219e-11,8.366276526e-12,1.230708684e-11,2.637195687e-12,2.437016277e-11,1.423443576e-11,5.778157428e-11,4.086933653e-11,2.121944524e-10,5.410946095e-11,1.442126501e-11,1.866598000e-11,3.464277684e-12,6.832697359e-13
0.89844,2.374464429e-11,3.743747473e-11,6.769787766e-11,5.115936791e-12,4.382940688e-13,1.212556700e-10,7.581388161e-11,1.964590943e-11,6.342574353e-12,2.903737463e-11,4.154295360e-11,1.884448558e-11,1.481951555e-08,2.459914754e-12,6.561837382e-12,1.945486750e-11,2.049413953e-12,5.404804041e-12,1.073681375e-11,7.968040963e-12,1.179971562e-11,2.532478229e-12,2.345670867e-11,1.383168286e-11,5.545571064e-11,3.921369351e-11,2.038966821e-10,5.222445190e-11,1.391638539e-11,1.802835572e-11,3.384364616e-12,6.689120913e-13
0.90625,2.282902065e-11,3.601638176e-11,6.518736172e-11,4.932048762e-12,4.375546933e-13,1.162663163e-10,7.269002815e-11,1.886210381e-11,6.109026827e-12,2.766370781e-11,3.942619975e-11,1.796694383e-11,1.424704671e-08,2.445732298e-12,6.518688582e-12,1.886870450e-11,1.978124542e-12,5.250413942e-12,1.039778304e-11,7.587609205e-12,1.131325945e-11,2.431577605e-12,2.257925471e-11,1.344352507e-11,5.321891069e-11,3.761760926e-11,1.958905122e-10,5.041636290e-11,1.343074234e-11,1.741880947e-11,3.306820064e-12,6.554606843e-13
0.91406,2.194919225e-11,3.464736796e-11,6.276031317e-11,4.755241265e-12,4.367880759e-13,1.114615087e-10,6.968209771e-11,1.810773051e-11,5.884207866e-12,2.634872467e-11,3.740065006e-11,1.712834353e-11,1.369370015e-08,2.434382774e-12,6.475163919e-12,1.830053141e-11,1.910509108e-12,5.101631278e-12,1.007145353e-11,7.224954814e-12,1.084686028e-11,2.334516396e-12,2.173574847e-11,1.306924130e-11,5.106363850e-11,3.607903364e-11,1.881669378e-10,4.867191266e-11,1.296397570e-11,1.683331106e-11,3.231794596e-12,6.428835365e-13
0.92188,2.110464011e-11,3.333015239e-11,6.041339908e-11,4.586757061e-12,4.359839514e-13,1.068473294e-10,6.677572080e-11,1.738257271e-11,5.667362456e-12,2.508852273e-11,3.545929548e-11,1.632485635e-11,1.315894889e-08,2.424983859e-12,6.430693243e-12,1.774837051e-11,1.845555789e-12,4.957813019e-12,9.756823035e-12,6.878900167e-12,1.039907439e-11,2.241486199e-12,2.092349428e-11,1.271100126e-11,4.898465390e-11,3.459399121e-11,1.807104474e-10,4.699069996e-11,1.251456573e-11,1.626805715e-11,3.158868079e-12,6.308043291e-13
0.92969,2.029263047e-11,3.205956063e-11,5.814226760e-11,4.424861820e-12,4.351966024e-13,1.024061405e-10,6.397051730e-11,1.668418573e-11,5.458232810e-12,2.388148133e-11,3.359955121e-11,1.555602914e-11,1.264223872e-08,2.418259535e-12,6.387088494e-12,1.721294446e-11,1.783062543e-12,4.819086329e-12,9.453899372e-12,6.548678224e-12,9.969497150e-12,2.152083796e-12,2.014151829e-11,1.236919594e-11,4.698436154e-11,3.316072349e-11,1.735114721e-10,4.537919668e-11,1.208113052e-11,1.572410095e-11,3.087579901e-12,6.192134802e-13
0.9375,1.951022695e-11,3.082974184e-11,5.594433350e-11,4.267909332e-12,4.345407377e-13,9.812291511e-11,6.127490383e-11,1.601075253e-11,5.257294599e-12,2.272751555e-11,3.182275452e-11,1.482289485e-11,1.214304827e-08,2.413908385e-12,6.344333541e-12,1.669430267e-11,1.722792062e-12,4.685023254e-12,9.162881305e-12,6.234222340e-12,9.557615229e-12,2.065969376e-12,1.938821641e-11,1.204067136e-11,4.505868470e-11,3.177818237e-11,1.665645219e-10,4.383557425e-11,1.166255143e-11,1.520315906e-11,3.017929756e-12,6.083241532e-13
0.94531,1.875866192e-11,2.964298904e-11,5.382100537e-11,4.116651365e-12,4.339480115e-13,9.399888371e-11,5.868542508e-11,1.536239346e-11,5.064580876e-12,2.162521179e-11,3.012692888e-11,1.412396724e-11,1.166089269e-08,2.411785613e-12,6.301631773e-12,1.619211257e-11,1.665123683e-12,4.555300764e-12,8.882783050e-12,5.935004762e-12,9.162534737e-12,1.983230005e-12,1.866302733e-11,1.172210409e-11,4.320174536e-11,3.044531821e-11,1.598671310e-10,4.235335070e-11,1.125938543e-11,1.470495333e-11,2.950110626e-12,5.980741437e-13
0.95312,1.803833213e-11,2.850222650e-11,5.177164676e-11,3.971566969e-12,4.332811252e-13,9.003420865e-11,5.619080851e-11,1.473875980e-11,4.879185747e-12,2.057113855e-11,2.850699582e-11,1.345624654e-11,1.119532936e-08,2.412982916e-12,6.259579038e-12,1.570739506e-11,1.611836692e-12,4.430789638e-12,8.612404980e-12,5.650018249e-12,8.783755479e-12,1.903774694e-12,1.796627883e-11,1.141311511e-11,4.141521811e-11,2.916189070e-11,1.534166033e-10,4.092854551e-11,1.087302151e-11,1.422730561e-11,2.884202109e-12,5.883445762e-13
0.96094,1.715200857e-11,2.721422477e-11,4.968441513e-11,3.766314410e-12,4.322775080e-13,8.597666719e-11,5.370582216e-11,1.410035181e-11,4.690022533e-12,1.947694776e-11,2.684636224e-11,1.277985857e-11,1.074629077e-08,2.385701260e-12,6.241742830e-12,1.526804941e-11,1.554976031e-12,4.317657846e-12,8.352299839e-12,5.403541329e-12,8.426093601e-12,1.825416901e-12,1.728408233e-11,1.115534968e-11,3.966491618e-11,2.792727657e-11,1.473445388e-10,3.974859461e-11,1.044112449e-11,1.376502086e-11,2.842864370e-12,5.816887522e-13
0.96875,1.643547901e-11,2.607691898e-11,4.771123981e-11,3.609943901e-12,4.314020555e-13,8.224840000e-11,5.135592866e-11,1.351093140e-11,4.513551500e-12,1.849345279e-11,2.533879901e-11,1.215762592e-11,1.031327525e-08,2.387795850e-12,6.209708368e-12,1.483543425e-11,1.506602547e-12,4.209074954e-12,8.105440087e-12,5.164185611e-12,8.088772990e-12,1.751733303e-12,1.663906395e-11,1.088293928e-11,3.800692323e-11,2.673559943e-11,1.414296450e-10,3.852226897e-11,1.005868535e-11,1.332896364e-11,2.784097028e-12,5.742695793e-13
0.97656,1.585815153e-11,2.509639878e-11,4.587222906e-11,3.504927993e-12,4.310131407e-13,7.878114386e-11,4.915124171e-11,1.296347100e-11,4.348599656e-12,1.760166526e-11,2.395861632e-11,1.158601654e-11,9.895317953e-09,2.412616970e-12,6.162184471e-12,1.439663260e-11,1.468571955e-12,4.103401239e-12,7.858543002e-12,4.914047049e-12,7.748087592e-12,1.682400175e-12,1.602014239e-11,1.059383055e-11,3.642233917e-11,2.558729914e-11,1.356404513e-10,3.720040627e-11,9.729504798e-12,1.290742004e-11,2.709231666e-12,5.657103304e-13
0.98438,1.526285160e-11,2.411530754e-11,4.408501185e-11,3.386960348e-12,4.301904668e-13,7.540628607e-11,4.700826388e-11,1.242983450e-11,4.188610351e-12,1.672941882e-11,2.261931291e-11,1.103076257e-11,9.492022993e-09,2.431503407e-12,6.120613646e-12,1.398285647e-11,1.431880615e-12,4.004197075e-12,7.622318731e-12,4.681693765e-12,7.426979525e-12,1.616073481e-12,1.542180115e-11,1.032383244e-11,3.489083691e-11,2.448180204e-11,1.300709622e-10,3.596754149e-11,9.397634646e-12,1.249664387e-11,2.643674392e-12,5.581604002e-13
0.99219,1.466145824e-11,2.313788785e-11,4.234403391e-11,3.259380040e-12,4.290694458e-13,7.212990795e-11,4.492420801e-11,1.191089293e-11,4.034475591e-12,1.587594461e-11,2.132232457e-11,1.049075207e-11,9.103085863e-09,2.447623303e-12,6.082815520e-12,1.359101642e-11,1.395622220e-12,3.909699272e-12,7.400082165e-12,4.469764626e-12,7.126169945e-12,1.552287970e-12,1.484290364e-11,1.006958335e-11,3.341101180e-11,2.341613695e-11,1.246989990e-10,3.481244207e-11,9.064225632e-12,1.209873270e-11,2.584539684e-12,5.515561314e-13
1,1.411770482e-11,2.223642435e-11,4.068416928e-11,3.154563835e-12,4.284513914e-13,6.902079532e-11,4.294974058e-11,1.141909603e-11,3.887809241e-12,1.508624372e-11,2.010998355e-11,9.989494787e-12,8.727915151e-09,2.470621159e-12,6.041135736e-12,1.320141808e-11,1.364651572e-12,3.817264704e-12,7.181896746e-12,4.260973895e-12,6.830849311e-12,1.491209669e-12,1.429296908e-11,9.821213012e-12,3.199890726e-11,2.239087419e-11,1.195174223e-10,3.367626113e-11,8.760997094e-12,1.172631070e-11,2.521332975e-12,5.449925999e-13
1.0078,1.358717807e-11,2.136743174e-11,3.908765128e-11,3.051006283e-12,4.276692004e-13,6.602775136e-11,4.105273933e-11,1.094568278e-11,3.747253060e-12,1.432881270e-11,1.895351232e-11,9.511057449e-12,8.366099532e-09,2.493364759e-12,6.000593042e-12,1.282429875e-11,1.334830620e-12,3.728225954e-12,6.971281641e-12,4.062144494e-12,6.548117794e-12,1.432828119e-12,1.376340887e-11,9.583805165e-12,3.063806321e-11,2.140483551e-11,1.145187884e-10,3.257696725e-11,8.466979800e-12,1.136779186e-11,2.461608580e-12,5.389506958e-13
1.0156,1.305824076e-11,2.051380723e-11,3.754318351e-11,2.940861757e-12,4.264215875e-13,6.313137709e-11,3.921311217e-11,1.048725845e-11,3.612508677e-12,1.358755635e-11,1.783865065e-11,9.046932108e-12,8.017381118e-09,2.514570860e-12,5.960814374e-12,1.246467114e-11,1.305309426e-12,3.643357285e-12,6.771827564e-12,3.877357891e-12,6.281926845e-12,1.377230923e-12,1.324859726e-11,9.356875431e-12,2.931932171e-11,2.045539352e-11,1.096830183e-10,3.151703910e-11,8.172010095e-12,1.101502888e-11,2.406891985e-12,5.336158577e-13
1.0234,1.256123166e-11,1.970708595e-11,3.606099459e-11,2.842486534e-12,4.253528504e-13,6.036419295e-11,3.746110090e-11,1.004934576e-11,3.482998885e-12,1.289484870e-11,1.678808659e-11,8.613120148e-12,7.681317372e-09,2.537806763e-12,5.918999949e-12,1.211217176e-11,1.280479951e-12,3.562422123e-12,6.577289167e-12,3.699260153e-12,6.024339130e-12,1.324312822e-12,1.275766156e-11,9.139739730e-12,2.805949129e-11,1.954354554e-11,1.050372257e-10,3.050221109e-11,7.895839541e-12,1.067976207e-11,2.351887388e-12,5.286218281e-13
1.0312,1.208341808e-11,1.893432082e-11,3.463662726e-11,2.748566202e-12,4.241532433e-13,5.770649659e-11,3.578518976e-11,9.628691012e-12,3.358780862e-12,1.223841036e-11,1.579229702e-11,8.203373469e-12,7.357450903e-09,2.561993376e-12,5.877878254e-12,1.176902846e-11,1.256830177e-12,3.485520955e-12,6.390033090e-12,3.530359019e-12,5.777304095e-12,1.273775230e-12,1.228690694e-11,8.931082533e-12,2.685209620e-11,1.866906910e-11,1.005703563e-10,2.952964904e-11,7.632163613e-12,1.035708717e-11,2.299194873e-12,5.240922053e-13
1.0391,1.161672204e-11,1.818675525e-11,3.326392565e-11,2.652582025e-12,4.225079653e-13,5.514493951e-11,3.416820068e-11,9.223510339e-12,3.240793490e-12,1.160085255e-11,1.484039248e-11,7.809770846e-12,7.045453709e-09,2.587686169e-12,5.837444686e-12,1.143859261e-11,1.231721768e-12,3.412040821e-12,6.213112094e-12,3.371455715e-12,5.543113284e-12,1.225532467e-12,1.183055164e-11,8.728070381e-12,2.568498825e-11,1.782928451e-11,9.624940149e-11,2.857745157e-11,7.372092272e-12,1.004000105e-11,2.249886554e-12,5.201019522e-13
1.0469,1.116816954e-11,1.747128038e-11,3.194009300e-11,2.562192525e-12,4.209297125e-13,5.269233407e-11,3.262589738e-11,8.835624128e-12,3.127676887e-12,1.099939842e-11,1.394107112e-11,7.439915450e-12,6.744976479e-09,2.614422114e-12,5.797438944e-12,1.111741956e-11,1.209276051e-12,3.342039545e-12,6.041385050e-12,3.219677328e-12,5.318219828e-12,1.179524177e-12,1.139458409e-11,8.535719574e-12,2.456811307e-11,1.702360523e-11,9.210118357e-11,2.766670928e-11,7.124186359e-12,9.739508403e-12,2.202095233e-12,5.165770596e-13
1.0547,1.073512232e-11,1.678318016e-11,3.066571880e-11,2.475469822e-12,4.193786396e-13,5.033893168e-11,3.115654020e-11,8.462963854e-12,3.018777859e-12,1.043098361e-11,1.309029833e-11,7.091552469e-12,6.455634240e-09,2.641445290e-12,5.759431738e-12,1.080645322e-11,1.189386456e-12,3.276039726e-12,5.875343948e-12,3.076950600e-12,5.103165805e-12,1.135651873e-12,1.097838110e-11,8.351750071e-12,2.350199383e-11,1.625164576e-11,8.812553583e-11,2.680275358e-11,6.887932635e-12,9.456102423e-12,2.156519468e-12,5.135713763e-13
1.0625,1.032169442e-11,1.612746686e-11,2.944640814e-11,2.391419416e-12,4.175513847e-13,4.808081178e-11,2.974882334e-11,8.105267533e-12,2.915131174e-12,9.885112026e-12,1.228304552e-11,6.760744128e-12,6.177097203e-09,2.670912124e-12,5.721817984e-12,1.050599099e-11,1.169870039e-12,3.213266936e-12,5.717007832e-12,2.941305944e-12,4.897884401e-12,1.093853765e-12,1.057705241e-11,8.168640187e-12,2.247718853e-11,1.551167628e-11,8.429072273e-11,2.595676000e-11,6.660083007e-12,9.181197578e-12,2.112481750e-12,5.109383142e-13
1.0703,9.925023627e-12,1.549872430e-11,2.827349204e-11,2.311607577e-12,4.156353505e-13,4.592017141e-11,2.840189284e-11,7.762924650e-12,2.815409815e-12,9.367165235e-12,1.151867643e-11,6.448217668e-12,5.909070644e-09,2.700631285e-12,5.683852132e-12,1.021512836e-11,1.151924339e-12,3.153192891e-12,5.562361356e-12,2.811162573e-12,4.700324952e-12,1.053990744e-12,1.019097347e-11,7.992994897e-12,2.149310073e-11,1.480266019e-11,8.060906934e-11,2.514614584e-11,6.440835754e-12,8.915650288e-12,2.070132986e-12,5.086364401e-13
1.0781,9.541852595e-12,1.488799384e-11,2.713740838e-11,2.233801291e-12,4.136748228e-13,4.384703322e-11,2.711237492e-11,7.434239536e-12,2.718763759e-12,8.875311954e-12,1.079301894e-11,6.151373256e-12,5.651228402e-09,2.728781730e-12,5.645879593e-12,9.934209022e-12,1.135313026e-12,3.095799987e-12,5.410848648e-12,2.689218041e-12,4.511042506e-12,1.015958686e-12,9.819714489e-12,7.827013430e-12,2.054943979e-11,1.412369646e-11,7.708341769e-11,2.438135894e-11,6.228960538e-12,8.662421293e-12,2.030067359e-12,5.067660307e-13
1.0859,9.185046995e-12,1.430988323e-11,2.604598354e-11,2.160611927e-12,4.115653435e-13,4.186229111e-11,2.588168259e-11,7.119503496e-12,2.626552011e-12,8.408262648e-12,1.010900852e-11,5.872284286e-12,5.403225761e-09,2.759302616e-12,5.606687562e-12,9.660638488e-12,1.119245404e-12,3.040784843e-12,5.264398580e-12,2.573952747e-12,4.329856779e-12,9.797623813e-13,9.463735206e-12,7.662849647e-12,1.964618982e-11,1.347368230e-11,7.369614102e-11,2.363647874e-11,6.028086915e-12,8.423823500e-12,1.989603080e-12,5.051338587e-13
1.0938,8.850928628e-12,1.375982433e-11,2.499923690e-11,2.090586576e-12,4.093494639e-13,3.996161370e-11,2.470713550e-11,6.817595862e-12,2.538150736e-12,7.964990927e-12,9.463233115e-12,5.610229778e-12,5.164765189e-09,2.792158306e-12,5.569090814e-12,9.396193030e-12,1.104789155e-12,2.989102924e-12,5.122574186e-12,2.465760907e-12,4.156999536e-12,9.454022188e-13,9.123846884e-12,7.503819244e-12,1.878375891e-11,1.285196472e-11,7.045330158e-11,2.292201457e-11,5.836700723e-12,8.200229481e-12,1.949135222e-12,5.037682585e-13
1.1016,8.531340671e-12,1.322477966e-11,2.398949800e-11,2.020407961e-12,4.070911038e-13,3.813488727e-11,2.357926097e-11,6.526634274e-12,2.452444905e-12,7.539364257e-12,8.846806480e-12,5.360056731e-12,4.935569844e-09,2.825610807e-12,5.536333045e-12,9.145836171e-12,1.092208758e-12,2.942141053e-12,4.985782466e-12,2.367149240e-12,3.993141782e-12,9.129352380e-13,8.797242636e-12,7.352819336e-12,1.795759172e-11,1.225748545e-11,6.735189622e-11,2.225079218e-11,5.650375221e-12,7.989420594e-12,1.910770989e-12,5.028499088e-13
1.1094,8.236951508e-12,1.272013969e-11,2.302010315e-11,1.956539499e-12,4.049108962e-13,3.639298123e-11,2.250330046e-11,6.248598971e-12,2.370152238e-12,7.138020361e-12,8.266674586e-12,5.126217574e-12,4.715329248e-09,2.861634265e-12,5.504598242e-12,8.906244353e-12,1.081272914e-12,2.899511994e-12,4.853368181e-12,2.274671943e-12,3.835684802e-12,8.824551808e-13,8.482742049e-12,7.204056273e-12,1.716548215e-11,1.168879552e-11,6.437847170e-11,2.160434982e-11,5.475312735e-12,7.793512965e-12,1.872590684e-12,5.020643817e-13
1.1172,7.962606298e-12,1.224373707e-11,2.209125698e-11,1.897463283e-12,4.027382411e-13,3.473207463e-11,2.147973582e-11,5.983112451e-12,2.291181079e-12,6.761504175e-12,7.723480496e-12,4.908533047e-12,4.503751560e-09,2.898320074e-12,5.470394013e-12,8.673712847e-12,1.071504874e-12,2.860044275e-12,4.724606610e-12,2.188151684e-12,3.684590858e-12,8.538478051e-13,8.180475337e-12,7.059134552e-12,1.640641724e-11,1.114496672e-11,6.153272291e-11,2.098036949e-11,5.310852967e-12,7.611103516e-12,1.835007370e-12,5.013574285e-13
1.125,7.697611761e-12,1.178030492e-11,2.119815237e-11,1.836176213e-12,4.003800715e-13,3.313390947e-11,2.049674648e-11,5.727408386e-12,2.214864841e-12,6.398467979e-12,7.205888266e-12,4.699533164e-12,4.300576403e-09,2.933187323e-12,5.436064667e-12,8.450502731e-12,1.062373406e-12,2.823052810e-12,4.601259181e-12,2.110761037e-12,3.542653546e-12,8.268023758e-13,7.890081459e-12,6.920956238e-12,1.567917313e-11,1.062548280e-11,5.881044668e-11,2.038486198e-11,5.149987541e-12,7.437283673e-12,1.799992647e-12,5.011293758e-13
1.1328,7.450428246e-12,1.134096926e-11,2.034151017e-11,1.778805300e-12,3.979953760e-13,3.160768483e-11,1.955749569e-11,5.482606560e-12,2.141376739e-12,6.055368800e-12,6.717370125e-12,4.502981539e-12,4.105515936e-09,2.969014073e-12,5.403687172e-12,8.237090899e-12,1.055309095e-12,2.788410252e-12,4.482108100e-12,2.039458162e-12,3.407795902e-12,8.011491041e-13,7.612667749e-12,6.786315205e-12,1.498709521e-11,1.012938582e-11,5.620740207e-11,1.981520785e-11,4.997521914e-12,7.275274750e-12,1.765418661e-12,5.012636236e-13
1.1406,7.216863938e-12,1.092594469e-11,1.951924716e-11,1.727125392e-12,3.957177761e-13,3.015314263e-11,1.866280009e-11,5.248629124e-12,2.070777819e-12,5.734710792e-12,6.259861678e-12,4.320691793e-12,3.918282199e-09,3.006369554e-12,5.372242349e-12,8.033156287e-12,1.050785305e-12,2.756578791e-12,4.365283083e-12,1.972523461e-12,3.277529400e-12,7.769633403e-13,7.346348816e-12,6.654354490e-12,1.432666893e-11,9.655086740e-12,5.371749638e-11,1.926820386e-11,4.853624684e-12,7.123721465e-12,1.730994325e-12,5.015435395e-13
1.1484,7.084153890e-12,1.058442857e-11,1.875798980e-11,1.720971370e-12,3.956938065e-13,2.901592067e-11,1.794000382e-11,5.041940024e-12,1.996948759e-12,5.556659420e-12,5.968789761e-12,4.127096412e-12,3.738990067e-09,3.041128557e-12,5.340337928e-12,7.845285411e-12,1.050806546e-12,2.742153207e-12,4.185134550e-12,1.909677464e-12,3.080046804e-12,7.642056039e-13,7.027971483e-12,6.505505799e-12,1.368041068e-11,9.211751931e-12,5.130946113e-11,1.858912745e-11,4.772321306e-12,6.913120621e-12,1.680868921e-12,4.990008376e-13
1.1562,6.905117259e-12,1.022498671e-11,1.802902690e-11,1.686369271e-12,3.939096206e-13,2.781307066e-11,1.720191611e-11,4.838289931e-12,1.927901844e-12,5.317066253e-12,5.628847896e-12,3.958654845e-12,3.567392205e-09,3.077520855e-12,5.311244527e-12,7.667359542e-12,1.050142843e-12,2.728054938e-12,4.048073146e-12,1.859774076e-12,2.942073452e-12,7.479554914e-13,6.767924557e-12,6.380756706e-12,1.308165008e-11,8.794474101e-12,4.905437123e-11,1.806042768e-11,4.663244139e-12,6.755727038e-12,1.647811006e-12,4.992202316e-13
1.1641,6.646161427e-12,9.836971510e-12,1.729953718e-11,1.621985411e-12,3.901631023e-13,2.646864464e-11,1.640563027e-11,4.626378702e-12,1.864868491e-12,5.005148564e-12,5.213536439e-12,3.808388838e-12,3.402716189e-09,3.119527759e-12,5.280769523e-12,7.489082109e-12,1.049784007e-12,2.707052778e-12,3.951886520e-12,1.811052033e-12,2.844983930e-12,7.272296629e-13,6.540679411e-12,6.258577565e-12,1.249667678e-11,8.391284091e-12,4.686686574e-11,1.759200458e-11,4.518844763e-12,6.627880336e-12,1.624347162e-12,5.008548414e-13
1.1719,6.424773608e-12,9.472834177e-12,1.660799415e-11,1.569551435e-12,3.869904898e-13,2.523528392e-11,1.566562274e-11,4.428312648e-12,1.803127922e-12,4.733950841e-12,4.849191632e-12,3.662377548e-12,3.244733060e-09,3.158865684e-12,5.249134751e-12,7.318818943e-12,1.050344386e-12,2.689134962e-12,3.851155530e-12,1.771582115e-12,2.744651808e-12,7.089237099e-13,6.318498947e-12,6.141872832e-12,1.194286812e-11,8.008252112e-12,4.478229781e-11,1.713325593e-11,4.388901859e-12,6.501300603e-12,1.597748963e-12,5.028314821e-13
1.1797,6.234580000e-12,9.128804607e-12,1.596011056e-11,1.526564257e-12,3.843836982e-13,2.409755618e-11,1.497984735e-11,4.242372606e-12,1.742390959e-12,4.490150742e-12,4.524520969e-12,3.520062868e-12,3.093378167e-09,3.195591266e-12,5.218019920e-12,7.157773008e-12,1.051997883e-12,2.675742679e-12,3.748936463e-12,1.742437397e-12,2.645165731e-12,6.924669556e-13,6.104473697e-12,6.032110896e-12,1.142120181e-11,7.648420223e-12,4.280856137e-11,1.669347602e-11,4.270493920e-12,6.377390463e-12,1.570044198e-12,5.054710801e-13
1.1875,6.016770501e-12,8.785955316e-12,1.532131554e-11,1.476450657e-12,3.811082347e-13,2.295090884e-11,1.429213991e-11,4.058582585e-12,1.685644493e-12,4.242498044e-12,4.194507146e-12,3.391897388e-12,2.948289943e-09,3.235928386e-12,5.186521398e-12,7.000466254e-12,1.056803532e-12,2.661413680e-12,3.659299597e-12,1.712858408e-12,2.556951188e-12,6.757442700e-13,5.899865611e-12,5.918694283e-12,1.091266890e-11,7.302400053e-12,4.089238463e-11,1.626258419e-11,4.143634276e-12,6.255154210e-12,1.544593880e-12,5.080048540e-13
1.1953,5.807441896e-12,8.452954008e-12,1.470274472e-11,1.428444001e-12,3.778929295e-13,2.185032339e-11,1.362964399e-11,3.882508647e-12,1.631505200e-12,4.007944915e-12,3.883181304e-12,3.270682617e-12,2.809201073e-09,3.274683210e-12,5.154875728e-12,6.850781358e-12,1.062971013e-12,2.648177329e-12,3.572696122e-12,1.685697555e-12,2.472486511e-12,6.597636292e-13,5.703018665e-12,5.807663371e-12,1.042445191e-11,6.971086238e-12,3.905077159e-11,1.584683714e-11,4.019272527e-12,6.132612230e-12,1.518585398e-12,5.108533245e-13
1.2031,5.623227218e-12,8.132347350e-12,1.411730114e-11,1.386071618e-12,3.751119038e-13,2.081411375e-11,1.300640514e-11,3.715900725e-12,1.579009151e-12,3.787589283e-12,3.596870110e-12,3.152810451e-12,2.675981510e-09,3.309479742e-12,5.123783862e-12,6.710307802e-12,1.069500846e-12,2.637250839e-12,3.487984129e-12,1.665934150e-12,2.392698046e-12,6.444521174e-13,5.518316440e-12,5.703790429e-12,9.966075060e-12,6.659258787e-12,3.731015554e-11,1.546200365e-11,3.902351916e-12,6.016160167e-12,1.491771309e-12,5.146246726e-13
1.2109,5.429344682e-12,7.816972864e-12,1.354312273e-11,1.341085047e-12,3.719618518e-13,1.979669480e-11,1.239461681e-11,3.553889953e-12,1.529911845e-12,3.577792541e-12,3.322465289e-12,3.045795520e-12,2.548354838e-09,3.345715047e-12,5.091514216e-12,6.572671398e-12,1.078404407e-12,2.624797991e-12,3.409658781e-12,1.647817888e-12,2.317868490e-12,6.296905759e-13,5.339787285e-12,5.597827301e-12,9.522950240e-12,6.360931082e-12,3.562621166e-11,1.508023483e-11,3.783953692e-12,5.900441428e-12,1.466075493e-12,5.181979087e-13
1.2188,5.239225220e-12,7.512916735e-12,1.298499433e-11,1.297232686e-12,3.687254061e-13,1.881663951e-11,1.180123046e-11,3.398278897e-12,1.483721961e-12,3.380452941e-12,3.064467208e-12,2.947255013e-12,2.426061831e-09,3.381291741e-12,5.057801219e-12,6.437056461e-12,1.087952430e-12,2.610544080e-12,3.336515711e-12,1.631770876e-12,2.247596393e-12,6.157242523e-13,5.168382847e-12,5.494405772e-12,9.096340232e-12,6.074080936e-12,3.399790654e-11,1.470166779e-11,3.667990198e-12,5.785869227e-12,1.441171793e-12,5.217445155e-13
1.2266,5.069857247e-12,7.223791378e-12,1.245749071e-11,1.258366094e-12,3.659336676e-13,1.788711048e-11,1.123811194e-11,3.250369763e-12,1.439364667e-12,3.189728945e-12,2.821386846e-12,2.852878469e-12,2.308961692e-09,3.412920405e-12,5.024118903e-12,6.306702951e-12,1.097272091e-12,2.596974141e-12,3.269694186e-12,1.622331962e-12,2.186339590e-12,6.020293906e-13,5.011322537e-12,5.399999010e-12,8.696772479e-12,5.802400113e-12,3.245551799e-11,1.435228470e-11,3.558430710e-12,5.680250841e-12,1.417042726e-12,5.260513297e-13
1.2344,4.901227121e-12,6.943598940e-12,1.194660340e-11,1.219608481e-12,3.631819837e-13,1.698735841e-11,1.069434450e-11,3.108036037e-12,1.397805521e-12,3.010773562e-12,2.592696180e-12,2.766131380e-12,2.196852460e-09,3.443859068e-12,4.989783752e-12,6.180423613e-12,1.109202127e-12,2.584275207e-12,3.206388286e-12,1.615578290e-12,2.128061573e-12,5.891874265e-13,4.858685619e-12,5.305722660e-12,8.313050044e-12,5.542987976e-12,3.097055917e-11,1.400991423e-11,3.449925408e-12,5.575086634e-12,1.394329819e-12,5.300563607e-13
1.2422,4.735439773e-12,6.674514096e-12,1.145040098e-11,1.181681657e-12,3.604485183e-13,1.612447589e-11,1.017031125e-11,2.971864845e-12,1.359049297e-12,2.845863000e-12,2.381418074e-12,2.687557567e-12,2.089512305e-09,3.474023694e-12,4.954501080e-12,6.056266805e-12,1.122585112e-12,2.571287123e-12,3.144371401e-12,1.609436544e-12,2.070862452e-12,5.773071827e-13,4.708892163e-12,5.213425523e-12,7.943879972e-12,5.293628866e-12,2.953517213e-11,1.367095632e-11,3.343800302e-12,5.470303297e-12,1.372391118e-12,5.335428836e-13
1.25,4.583765698e-12,6.419726626e-12,1.097928606e-11,1.146805882e-12,3.579748243e-13,1.530238455e-11,9.670610447e-12,2.841851331e-12,1.322084681e-12,2.684730496e-12,2.180667575e-12,2.614375398e-12,1.986793878e-09,3.500691106e-12,4.919347996e-12,5.934854173e-12,1.135196471e-12,2.557583519e-12,3.088258807e-12,1.607133957e-12,2.023116071e-12,5.653035037e-13,4.572681026e-12,5.131311097e-12,7.600189794e-12,5.056352891e-12,2.817471491e-11,1.336283020e-11,3.243395271e-12,5.376356726e-12,1.351224640e-12,5.374438821e-13
1.2578,4.438021031e-12,6.175464491e-12,1.052638029e-11,1.112416326e-12,3.554753426e-13,1.451163004e-11,9.193993069e-12,2.717040440e-12,1.286974420e-12,2.533087444e-12,1.994380607e-12,2.546549930e-12,1.888536073e-09,3.524990912e-12,4.883435495e-12,5.816639229e-12,1.148668408e-12,2.543922307e-12,3.035180879e-12,1.606792697e-12,1.978716505e-12,5.540552682e-13,4.442181210e-12,5.051752371e-12,7.273043284e-12,4.829564902e-12,2.686994953e-11,1.306393449e-11,3.146211363e-12,5.284710302e-12,1.331611740e-12,5.412680709e-13
1.2656,4.297906063e-12,5.942476790e-12,1.008845278e-11,1.079291478e-12,3.529790806e-13,1.375822846e-11,8.740624007e-12,2.598140990e-12,1.253810398e-12,2.396536599e-12,1.827595614e-12,2.484730621e-12,1.794555413e-09,3.547768560e-12,4.846642114e-12,5.700941163e-12,1.163500853e-12,2.530475982e-12,2.981490299e-12,1.606462947e-12,1.932917217e-12,5.441433757e-13,4.312551319e-12,4.971275981e-12,6.957448556e-12,4.611655168e-12,2.561080926e-11,1.276244853e-11,3.052517848e-12,5.192725068e-12,1.313246414e-12,5.445972183e-13
1.2734,4.166681538e-12,5.722492628e-12,9.670450890e-12,1.048767932e-12,3.507769845e-13,1.304041781e-11,8.304945652e-12,2.484646048e-12,1.222364440e-12,2.263812407e-12,1.668591871e-12,2.428328682e-12,1.704702307e-09,3.568326998e-12,4.810616012e-12,5.587553156e-12,1.178663585e-12,2.516340622e-12,2.932248060e-12,1.608613795e-12,1.894583332e-12,5.340994857e-13,4.193798808e-12,4.896345730e-12,6.662299020e-12,4.403905289e-12,2.441751731e-11,1.248626721e-11,2.963578435e-12,5.111325490e-12,1.296093153e-12,5.479851012e-13
1.2812,4.041718013e-12,5.513385497e-12,9.269410093e-12,1.019376770e-12,3.487118406e-13,1.235376893e-11,7.888216231e-12,2.376118898e-12,1.192769948e-12,2.136652161e-12,1.519649664e-12,2.376680513e-12,1.618823867e-09,3.586722072e-12,4.774033648e-12,5.476667913e-12,1.193980090e-12,2.502090387e-12,2.885204947e-12,1.612363002e-12,1.859739246e-12,5.242637998e-13,4.081251413e-12,4.824238783e-12,6.382667215e-12,4.206079443e-12,2.327872505e-11,1.222242518e-11,2.878410990e-12,5.033779789e-12,1.280780207e-12,5.511995425e-13
1.2891,3.924868302e-12,5.315688957e-12,8.883939277e-12,9.918403882e-13,3.466711264e-13,1.170465100e-11,7.498388065e-12,2.273254650e-12,1.164795254e-12,2.022436419e-12,1.389499439e-12,2.329679679e-12,1.536755284e-09,3.602546207e-12,4.735441731e-12,5.367923934e-12,1.208967676e-12,2.488669057e-12,2.835769919e-12,1.616234138e-12,1.822363914e-12,5.156406455e-13,3.968592402e-12,4.752803746e-12,6.113648890e-12,4.017629960e-12,2.218344512e-11,1.195457249e-11,2.797922273e-12,4.954606425e-12,1.267165670e-12,5.538780639e-13
1.2969,3.813532590e-12,5.128870680e-12,8.514934751e-12,9.658757856e-13,3.446980302e-13,1.108456732e-11,7.128162031e-12,2.174985093e-12,1.138034117e-12,1.913660300e-12,1.267581735e-12,2.287148725e-12,1.458361416e-09,3.615749017e-12,4.696804929e-12,5.261478608e-12,1.224369834e-12,2.474986667e-12,2.788792200e-12,1.622817768e-12,1.790262890e-12,5.072981652e-13,3.863444349e-12,4.686893398e-12,5.861634652e-12,3.838371987e-12,2.114336807e-11,1.170610518e-11,2.721548726e-12,4.883658367e-12,1.254893425e-12,5.563840566e-13
1.3047,3.706319581e-12,4.950946452e-12,8.160583298e-12,9.401322323e-13,3.426652347e-13,1.049005595e-11,6.774634119e-12,2.081099982e-12,1.112481076e-12,1.809806324e-12,1.153561759e-12,2.248120338e-12,1.383521181e-09,3.626795105e-12,4.658530394e-12,5.157922471e-12,1.241015793e-12,2.460284588e-12,2.743769704e-12,1.632262938e-12,1.762586275e-12,4.991813688e-13,3.765179798e-12,4.624907711e-12,5.624588178e-12,3.667307411e-12,2.015368754e-11,1.147511989e-11,2.648245580e-12,4.819158584e-12,1.243647659e-12,5.588268961e-13
1.3125,3.608870882e-12,4.782866598e-12,7.821734485e-12,9.162153317e-13,3.405755410e-13,9.932843049e-12,6.446228112e-12,1.992656383e-12,1.088024657e-12,1.716708029e-12,1.056832263e-12,2.211683861e-12,1.312100936e-09,3.635362549e-12,4.619333941e-12,5.056276877e-12,1.257190805e-12,2.445324339e-12,2.696390715e-12,1.642430754e-12,1.733868578e-12,4.921249021e-13,3.668956184e-12,4.563776660e-12,5.398555765e-12,3.504556686e-12,1.920789019e-11,1.124416508e-11,2.579767959e-12,4.754796836e-12,1.233214332e-12,5.611444611e-13
1.3203,3.516776693e-12,4.622999962e-12,7.496564053e-12,8.935083581e-13,3.384940276e-13,9.402561084e-12,6.135838355e-12,1.908391955e-12,1.064686064e-12,1.629418194e-12,9.690710313e-13,2.178287947e-12,1.243967535e-09,3.642242512e-12,4.580062209e-12,4.955677919e-12,1.273030517e-12,2.430908708e-12,2.650870898e-12,1.653969876e-12,1.708999846e-12,4.857950667e-13,3.578367568e-12,4.505541167e-12,5.186230135e-12,3.350055795e-12,1.830872968e-11,1.102210953e-11,2.514700230e-12,4.695019796e-12,1.224022590e-12,5.633818658e-13
1.3281,3.427694010e-12,4.470148673e-12,7.182491507e-12,8.707544392e-13,3.364146606e-13,8.891928054e-12,5.838710710e-12,1.827854851e-12,1.042570390e-12,1.546183889e-12,8.867176793e-13,2.148390690e-12,1.178997189e-09,3.648076358e-12,4.541260040e-12,4.857878900e-12,1.290670584e-12,2.417879780e-12,2.608571620e-12,1.667885672e-12,1.688596036e-12,4.801450972e-13,3.493317859e-12,4.450898272e-12,4.986472624e-12,3.202968382e-12,1.745227138e-11,1.081338627e-11,2.451564212e-12,4.641295539e-12,1.215856139e-12,5.653206396e-13
1.3359,3.348782721e-12,4.326617712e-12,6.883031340e-12,8.503451212e-13,3.345097847e-13,8.414976552e-12,5.563859685e-12,1.752179137e-12,1.021274016e-12,1.470369546e-12,8.170984136e-13,2.120792271e-12,1.117070492e-09,3.651576045e-12,4.502344036e-12,4.764233076e-12,1.309072273e-12,2.406195931e-12,2.565593892e-12,1.683899820e-12,1.668756279e-12,4.754545494e-13,3.410960794e-12,4.399575449e-12,4.797317942e-12,3.064011980e-12,1.663901185e-11,1.061202712e-11,2.392932088e-12,4.590137124e-12,1.208306756e-12,5.669167024e-13
1.3438,3.275121134e-12,4.189849405e-12,6.597318737e-12,8.314291347e-13,3.328200414e-13,7.963238800e-12,5.306527149e-12,1.680190250e-12,1.000741612e-12,1.399203786e-12,7.558620450e-13,2.094811382e-12,1.058071344e-09,3.653339877e-12,4.463847335e-12,4.673385653e-12,1.326917582e-12,2.394763661e-12,2.523039959e-12,1.701575067e-12,1.650732147e-12,4.712644589e-13,3.332563668e-12,4.350777469e-12,4.619196245e-12,2.933152763e-12,1.586817465e-11,1.041768749e-11,2.337764342e-12,4.540812000e-12,1.202213316e-12,5.684189586e-13
1.3516,3.202901667e-12,4.058030221e-12,6.322497857e-12,8.118770601e-13,3.311747976e-13,7.525927731e-12,5.060623187e-12,1.611077381e-12,9.812696800e-13,1.331833130e-12,6.996233454e-13,2.071160831e-12,1.001887279e-09,3.654799347e-12,4.426000943e-12,4.584490793e-12,1.345498483e-12,2.383868943e-12,2.481849097e-12,1.720664184e-12,1.634828218e-12,4.674192746e-13,3.258392569e-12,4.303213653e-12,4.451774551e-12,2.809299340e-12,1.513361053e-11,1.023178679e-11,2.284553097e-12,4.495772779e-12,1.197314284e-12,5.697917028e-13
1.3594,3.140216336e-12,3.934850780e-12,6.062771044e-12,7.941663710e-13,3.296386020e-13,7.117527508e-12,4.832815813e-12,1.545895750e-12,9.624693631e-13,1.269515116e-12,6.521257509e-13,2.048871874e-12,9.484095080e-10,3.654783715e-12,4.388557035e-12,4.498862752e-12,1.365265626e-12,2.374468827e-12,2.440057042e-12,1.741766296e-12,1.620461416e-12,4.639514058e-13,3.187948731e-12,4.258214372e-12,4.295495283e-12,2.693134383e-12,1.443951241e-11,1.005851036e-11,2.235724146e-12,4.457208207e-12,1.192271106e-12,5.708109193e-13
1.3672,3.083564133e-12,3.818765057e-12,5.817546112e-12,7.784614890e-13,3.282382990e-13,6.735753591e-12,4.620500282e-12,1.484272600e-12,9.441738188e-13,1.210584552e-12,6.113809548e-13,2.027253862e-12,8.975301837e-10,3.653497950e-12,4.352239893e-12,4.417568707e-12,1.386108556e-12,2.366253987e-12,2.397718832e-12,1.764417134e-12,1.607216495e-12,4.606623980e-13,3.119991177e-12,4.214258327e-12,4.147695500e-12,2.584465848e-12,1.378432405e-11,9.894178801e-12,2.189498147e-12,4.420791753e-12,1.187665363e-12,5.713842953e-13
1.375,3.027347756e-12,3.706890803e-12,5.581797802e-12,7.627521285e-13,3.268181150e-13,6.367950608e-12,4.418764856e-12,1.425620645e-12,9.267185458e-13,1.156190155e-12,5.765227155e-13,2.008022179e-12,8.491393754e-10,3.652181206e-12,4.316795832e-12,4.340103773e-12,1.408797944e-12,2.358774333e-12,2.355031986e-12,1.787652409e-12,1.593400675e-12,4.577798401e-13,3.053165379e-12,4.168733354e-12,4.006153260e-12,2.481964706e-12,1.315935399e-11,9.732981884e-12,2.143468735e-12,4.384783016e-12,1.184168476e-12,5.716539951e-13
1.3828,2.978696137e-12,3.601566565e-12,5.357740540e-12,7.482985410e-13,3.254748571e-13,6.020482121e-12,4.231683462e-12,1.370158483e-12,9.098429437e-13,1.106076886e-12,5.481145079e-13,1.990433682e-12,8.031283863e-10,3.648702195e-12,4.280315420e-12,4.264650937e-12,1.432911345e-12,2.351588632e-12,2.312776710e-12,1.813177998e-12,1.581795138e-12,4.552813526e-13,2.990799728e-12,4.126167149e-12,3.875664166e-12,2.386587591e-12,1.257034344e-11,9.583799321e-12,2.100571520e-12,4.355597864e-12,1.180980890e-12,5.719040176e-13
1.3906,2.937787908e-12,3.501958595e-12,5.146733837e-12,7.349540863e-13,3.243094567e-13,5.693175037e-12,4.057453885e-12,1.317396782e-12,8.934650719e-13,1.057542640e-12,5.236811003e-13,1.972902968e-12,7.593930554e-10,3.642055960e-12,4.242327878e-12,4.189595048e-12,1.457296553e-12,2.344323037e-12,2.272567681e-12,1.841158136e-12,1.573759881e-12,4.528969932e-13,2.933614277e-12,4.087878447e-12,3.756180181e-12,2.298888821e-12,1.201895922e-11,9.443703460e-12,2.060985806e-12,4.330070204e-12,1.178112953e-12,5.720852620e-13
1.3984,2.899184663e-12,3.406297606e-12,4.945955722e-12,7.216653201e-13,3.231910389e-13,5.380631176e-12,3.893025825e-12,1.267288751e-12,8.779231526e-13,1.012728969e-12,5.045710756e-13,1.956992379e-12,7.178367041e-10,3.634431574e-12,4.204778771e-12,4.116293545e-12,1.482074815e-12,2.338003382e-12,2.233471761e-12,1.869944102e-12,1.565338613e-12,4.509938188e-13,2.877468976e-12,4.048300473e-12,3.642300778e-12,2.217451136e-12,1.149597103e-11,9.301033615e-12,2.022471161e-12,4.301633919e-12,1.175877984e-12,5.719474771e-13
1.4062,2.864853419e-12,3.316594314e-12,4.756090885e-12,7.099652120e-13,3.221071405e-13,5.087916384e-12,3.740540618e-12,1.219968469e-12,8.628621712e-13,9.714613638e-13,4.900725046e-13,1.942216192e-12,6.783698957e-10,3.625834674e-12,4.168418135e-12,4.046697804e-12,1.508136904e-12,2.332916957e-12,2.195448294e-12,1.902230466e-12,1.558813796e-12,4.495233404e-13,2.824003640e-12,4.008675223e-12,3.536096768e-12,2.142060889e-12,1.100234030e-11,9.167782405e-12,1.985842273e-12,4.277931639e-12,1.173778991e-12,5.716051317e-13
1.4141,2.835600622e-12,3.232025048e-12,4.577299495e-12,6.995254397e-13,3.210734215e-13,4.812136738e-12,3.599213439e-12,1.174924625e-12,8.481164386e-13,9.310315213e-13,4.772300245e-13,1.927186646e-12,6.408964183e-10,3.615220259e-12,4.131122123e-12,3.978607175e-12,1.535472668e-12,2.327397885e-12,2.159525542e-12,1.938554844e-12,1.556535347e-12,4.479268433e-13,2.775201340e-12,3.972639798e-12,3.439222303e-12,2.073078637e-12,1.053986036e-11,9.048260210e-12,1.951233927e-12,4.261654084e-12,1.171891466e-12,5.711962325e-13
1.4219,2.810291923e-12,3.151093486e-12,4.407520919e-12,6.892395217e-13,3.200313040e-13,4.548902405e-12,3.468370549e-12,1.132422526e-12,8.341768239e-13,8.944340698e-13,4.695581860e-13,1.913929682e-12,6.053141136e-10,3.603598085e-12,4.092419475e-12,3.909916828e-12,1.562364019e-12,2.321300962e-12,2.124100384e-12,1.973557969e-12,1.553265317e-12,4.464213029e-13,2.727466264e-12,3.938067251e-12,3.348264319e-12,2.010011930e-12,1.010459468e-11,8.928467662e-12,1.918353893e-12,4.244651726e-12,1.170728396e-12,5.705876009e-13
1.4297,2.789129553e-12,3.075575073e-12,4.247384139e-12,6.802715081e-13,3.190898133e-13,4.302263722e-12,3.345967396e-12,1.092352385e-12,8.209078055e-13,8.614632002e-13,4.660736245e-13,1.902084206e-12,5.715404273e-10,3.591634694e-12,4.054949020e-12,3.843264960e-12,1.588183416e-12,2.316036087e-12,2.089774310e-12,2.007575180e-12,1.550138524e-12,4.452573926e-13,2.681780187e-12,3.904888345e-12,3.264379975e-12,1.952428609e-12,9.697211886e-12,8.814919590e-12,1.888127135e-12,4.229548303e-12,1.170380758e-12,5.697527679e-13
1.4375,2.588771323e-12,2.873120572e-12,3.978239724e-12,6.322351430e-13,3.139799388e-13,3.963222881e-12,3.266068676e-12,1.075837830e-12,8.265969395e-13,8.514166496e-13,5.963774549e-13,1.990942572e-12,5.397280589e-10,3.600717801e-12,4.017345434e-12,3.780400478e-12,1.595596590e-12,2.325133971e-12,2.001511884e-12,1.980338154e-12,1.416067968e-12,4.601833889e-13,2.418836303e-12,3.719489527e-12,2.866540877e-12,1.861813749e-12,8.691764489e-12,8.068834980e-12,1.710879284e-12,3.939185422e-12,1.195923703e-12,5.651201895e-13
1.4453,2.523658948e-12,2.756338518e-12,3.762632596e-12,6.134493776e-13,3.126681535e-13,3.732810877e-12,3.185341851e-12,1.050261056e-12,8.238363701e-13,8.376384020e-13,6.667539757e-13,2.017943793e-12,5.098425992e-10,3.590852025e-12,3.983778435e-12,3.726762701e-12,1.620928867e-12,2.332533948e-12,1.941845626e-12,1.991423745e-12,1.373016231e-12,4.681543706e-13,2.298822480e-12,3.655342154e-12,2.654819665e-12,1.777158208e-12,8.020465991e-12,7.732041555e-12,1.628710568e-12,3.834139570e-12,1.199999940e-12,5.624205157e-13
1.4531,2.563791193e-12,2.716406041e-12,3.625518771e-12,6.172071145e-13,3.134460209e-13,3.537747434e-12,3.086385435e-12,1.013380569e-12,8.112266857e-13,8.065598898e-13,6.460713923e-13,1.993089178e-12,4.814753040e-10,3.570732900e-12,3.948257912e-12,3.667360246e-12,1.660197773e-12,2.329244025e-12,1.916448992e-12,2.037525520e-12,1.403228426e-12,4.654054925e-13,2.305049833e-12,3.684331183e-12,2.634014119e-12,1.719165750e-12,7.728131626e-12,7.799015796e-12,1.630392344e-12,3.897182392e-12,1.190155336e-12,5.611629002e-13
1.4609,2.569196562e-12,2.657555860e-12,3.478181351e-12,6.142610959e-13,3.133559628e-13,3.348936651e-12,2.995260598e-12,9.801248817e-13,8.004058016e-13,7.810641826e-13,6.535815110e-13,1.979515358e-12,4.545552392e-10,3.552014405e-12,3.913261353e-12,3.612096857e-12,1.693717432e-12,2.325361180e-12,1.880813363e-12,2.078611903e-12,1.411488591e-12,4.652402996e-13,2.275438363e-12,3.680018751e-12,2.567638581e-12,1.667919316e-12,7.368842003e-12,7.738086559e-12,1.608656108e-12,3.904037261e-12,1.187011969e-12,5.594725249e-13
1.4688,2.553788351e-12,2.585931733e-12,3.318294696e-12,6.075039922e-13,3.130712019e-13,3.178282453e-12,2.915530839e-12,9.488140736e-13,7.907394562e-13,7.582406676e-13,6.856873730e-13,1.968905505e-12,4.291642531e-10,3.531863237e-12,3.879673289e-12,3.564542643e-12,1.724857667e-12,2.324054122e-12,1.835054945e-12,2.117061206e-12,1.404643531e-12,4.680535674e-13,2.219228767e-12,3.655301820e-12,2.463256028e-12,1.620001119e-12,6.950969835e-12,7.572585687e-12,1.572397986e-12,3.869811271e-12,1.187129228e-12,5.573967853e-13
1.4766,2.574736428e-12,2.540970789e-12,3.190756389e-12,6.074333158e-13,3.131152589e-13,3.017768037e-12,2.837518018e-12,9.184622563e-13,7.793590005e-13,7.375952669e-13,6.917464451e-13,1.954070348e-12,4.051130004e-10,3.511467645e-12,3.844562238e-12,3.513723003e-12,1.763839103e-12,2.319998115e-12,1.802891485e-12,2.165363167e-12,1.417450621e-12,4.672815720e-13,2.199232218e-12,3.657451090e-12,2.421475134e-12,1.582918551e-12,6.664305722e-12,7.552238700e-12,1.559912375e-12,3.890191263e-12,1.184953275e-12,5.549638696e-13
1.4844,2.591431505e-12,2.497100347e-12,3.071216266e-12,6.056563727e-13,3.128833079e-13,2.862306765e-12,2.760108667e-12,8.886696447e-13,7.679443060e-13,7.174104225e-13,6.979891608e-13,1.938614158e-12,3.822933512e-10,3.492174776e-12,3.811308287e-12,3.465867038e-12,1.804140367e-12,2.316332439e-12,1.772159907e-12,2.216301903e-12,1.429117363e-12,4.662886270e-13,2.178249247e-12,3.654228498e-12,2.384256903e-12,1.552626355e-12,6.402328293e-12,7.523228761e-12,1.546355257e-12,3.906358069e-12,1.184131389e-12,5.522548705e-13
1.4922,2.593395246e-12,2.446676755e-12,2.945920538e-12,6.015309709e-13,3.125333975e-13,2.726334176e-12,2.687427053e-12,8.580942560e-13,7.561682615e-13,6.952624641e-13,7.176027033e-13,1.917341240e-12,3.607587429e-10,3.471071036e-12,3.781232264e-12,3.425441667e-12,1.841881151e-12,2.315058835e-12,1.734520306e-12,2.267851209e-12,1.433134057e-12,4.671489338e-13,2.143358481e-12,3.636618422e-12,2.326920654e-12,1.527417376e-12,6.119308536e-12,7.415545075e-12,1.525762108e-12,3.895418601e-12,1.184256587e-12,5.497192609e-13
1.5,2.612735301e-12,2.409208922e-12,2.839295316e-12,6.007971186e-13,3.120749778e-13,2.597824247e-12,2.619201089e-12,8.304888079e-13,7.440712066e-13,6.777030211e-13,7.277331743e-13,1.899547172e-12,3.403822012e-10,3.449880059e-12,3.749258053e-12,3.380576863e-12,1.881773468e-12,2.310452783e-12,1.703103144e-12,2.322691849e-12,1.443631900e-12,4.661239591e-13,2.122255877e-12,3.627781150e-12,2.297401398e-12,1.508641293e-12,5.900219542e-12,7.374242130e-12,1.513542046e-12,3.906718739e-12,1.184490660e-12,5.469466799e-13
1.5078,2.635300509e-12,2.375625491e-12,2.743711958e-12,5.996168545e-13,3.114310581e-13,2.469803387e-12,2.551368266e-12,8.042265943e-13,7.322316042e-13,6.623909272e-13,7.343545903e-13,1.883459081e-12,3.210382050e-10,3.428656644e-12,3.716556273e-12,3.334125885e-12,1.922234880e-12,2.302730472e-12,1.674507215e-12,2.379063375e-12,1.454717025e-12,4.639568093e-13,2.104853006e-12,3.617674418e-12,2.279362490e-12,1.494198039e-12,5.716313550e-12,7.351005338e-12,1.503234924e-12,3.922734220e-12,1.185860209e-12,5.438555260e-13
1.5156,2.650042135e-12,2.339382370e-12,2.647363447e-12,5.971300403e-13,3.109982296e-13,2.358569532e-12,2.485088381e-12,7.755555391e-13,7.195721954e-13,6.433763619e-13,7.465774726e-13,1.857276983e-12,3.027669113e-10,3.404641050e-12,3.686858252e-12,3.294722833e-12,1.961483533e-12,2.296204492e-12,1.641670499e-12,2.438040899e-12,1.463121997e-12,4.626558479e-13,2.082826308e-12,3.599643956e-12,2.254824148e-12,1.484503100e-12,5.538151293e-12,7.278001503e-12,1.492250438e-12,3.922839905e-12,1.187148423e-12,5.409837627e-13
1.5234,2.672817442e-12,2.308952106e-12,2.562295522e-12,5.964403690e-13,3.106028667e-13,2.253997772e-12,2.423696417e-12,7.497488605e-13,7.073087363e-13,6.280928510e-13,7.563996094e-13,1.835270566e-12,2.855001110e-10,3.381271045e-12,3.657139370e-12,3.254356744e-12,2.003037489e-12,2.289560731e-12,1.612636745e-12,2.499233239e-12,1.473405699e-12,4.607245031e-13,2.065458097e-12,3.584703636e-12,2.242549203e-12,1.478790086e-12,5.392479007e-12,7.232339831e-12,1.483522766e-12,3.928939002e-12,1.189174158e-12,5.377811534e-13
1.5312,2.699940732e-12,2.281197982e-12,2.485928537e-12,5.958896774e-13,3.100912255e-13,2.146950985e-12,2.364269339e-12,7.273401687e-13,6.963495166e-13,6.173414855e-13,7.651699282e-13,1.820566404e-12,2.691136556e-10,3.359536864e-12,3.626694202e-12,3.211757415e-12,2.046304611e-12,2.281771605e-12,1.587178224e-12,2.560541775e-12,1.482582211e-12,4.581502731e-13,2.049643108e-12,3.569447722e-12,2.238061757e-12,1.474609031e-12,5.271091281e-12,7.208232076e-12,1.474521991e-12,3.938657574e-12,1.192233525e-12,5.338383699e-13
1.5391,2.725238782e-12,2.253054447e-12,2.410140400e-12,5.948342448e-13,3.098658638e-13,2.052842735e-12,2.304570467e-12,7.026776509e-13,6.847033267e-13,6.029248735e-13,7.746597865e-13,1.796016132e-12,2.536188997e-10,3.335117798e-12,3.598583617e-12,3.174336644e-12,2.088886719e-12,2.274382189e-12,1.559554513e-12,2.624462912e-12,1.491628154e-12,4.558227619e-13,2.035132267e-12,3.550695743e-12,2.235753858e-12,1.473836641e-12,5.172207329e-12,7.162266894e-12,1.468009222e-12,3.943099187e-12,1.193771258e-12,5.298666322e-13
1.5469,2.754615928e-12,2.226332956e-12,2.340858667e-12,5.935998159e-13,3.097141982e-13,1.963670251e-12,2.248039692e-12,6.791897598e-13,6.732092595e-13,5.894849029e-13,7.832298897e-13,1.772092653e-12,2.389849594e-10,3.310049466e-12,3.570549902e-12,3.136468891e-12,2.131993545e-12,2.266435461e-12,1.534065735e-12,2.689694612e-12,1.501934296e-12,4.530421672e-13,2.022323121e-12,3.532659361e-12,2.239136979e-12,1.475435056e-12,5.092631465e-12,7.126652279e-12,1.461724248e-12,3.949861025e-12,1.195166908e-12,5.257871875e-13
1.5547,2.788613365e-12,2.200273585e-12,2.279484801e-12,5.916086378e-13,3.094476576e-13,1.870126026e-12,2.195617967e-12,6.594727063e-13,6.631684906e-13,5.809049812e-13,7.934840233e-13,1.757731834e-12,2.251111208e-10,3.286286631e-12,3.540994192e-12,3.094931748e-12,2.175395303e-12,2.257683990e-12,1.511762464e-12,2.752643502e-12,1.510132948e-12,4.499674901e-13,2.006751216e-12,3.514665548e-12,2.243475901e-12,1.476132223e-12,5.019274019e-12,7.104948185e-12,1.453140167e-12,3.960463967e-12,1.197655035e-12,5.211278786e-13
1.5625,2.828100732e-12,2.177592239e-12,2.223937765e-12,5.906264701e-13,3.094896794e-13,1.787196502e-12,2.144436002e-12,6.384612525e-13,6.525581455e-13,5.697240763e-13,8.017713953e-13,1.736231209e-12,2.119876793e-10,3.260142127e-12,3.513243618e-12,3.056996767e-12,2.218062820e-12,2.250070446e-12,1.489367352e-12,2.816751952e-12,1.519465957e-12,4.470126364e-13,1.995222905e-12,3.497705082e-12,2.255022818e-12,1.478825521e-12,4.976361341e-12,7.081191766e-12,1.450615373e-12,3.978395466e-12,1.198723557e-12,5.163735563e-13
1.5703,2.873134238e-12,2.157482794e-12,2.174841770e-12,5.902746968e-13,3.096290067e-13,1.709522725e-12,2.095249588e-12,6.178070800e-13,6.421012542e-13,5.577074748e-13,8.088754082e-13,1.712523154e-12,1.995942958e-10,3.233459580e-12,3.487161740e-12,3.020733671e-12,2.261666462e-12,2.243402972e-12,1.469069056e-12,2.882486404e-12,1.530213714e-12,4.438396220e-13,1.987029441e-12,3.480135097e-12,2.272941996e-12,1.483809951e-12,4.955654022e-12,7.062351773e-12,1.451396426e-12,4.004350813e-12,1.199814492e-12,5.115565349e-13
1.5781,2.922268634e-12,2.136892411e-12,2.130131018e-12,5.890412932e-13,3.096478963e-13,1.627719335e-12,2.050982041e-12,6.010937988e-13,6.336746571e-13,5.505758564e-13,8.217284040e-13,1.698694002e-12,1.878452452e-10,3.208923613e-12,3.461128704e-12,2.981422372e-12,2.306193844e-12,2.236192991e-12,1.450402228e-12,2.945354144e-12,1.536726926e-12,4.406884555e-13,1.972666361e-12,3.458962646e-12,2.285449159e-12,1.487081113e-12,4.925944567e-12,7.043710379e-12,1.449001517e-12,4.034171919e-12,1.202658122e-12,5.061327566e-13
1.5859,2.980866884e-12,2.120869384e-12,2.091737885e-12,5.891175739e-13,3.101011224e-13,1.554296990e-12,2.009810019e-12,5.842442799e-13,6.252586480e-13,5.426483356e-13,8.334281236e-13,1.681157326e-12,1.767163390e-10,3.182316886e-12,3.436716390e-12,2.942953110e-12,2.349441038e-12,2.227564363e-12,1.430251524e-12,3.007275424e-12,1.542435693e-12,4.372197891e-13,1.959818598e-12,3.440644709e-12,2.302574082e-12,1.490602627e-12,4.918829629e-12,7.033601761e-12,1.452202980e-12,4.077332071e-12,1.204392092e-12,5.003921278e-13
1.5938,3.046197981e-12,2.108516747e-12,2.060961079e-12,5.900241335e-13,3.109069920e-13,1.485543627e-12,1.969516271e-12,5.669438796e-13,6.166935091e-13,5.325764906e-13,8.417684627e-13,1.659486206e-12,1.661988399e-10,3.153770014e-12,3.413241241e-12,2.905812234e-12,2.392158194e-12,2.217544760e-12,1.410229658e-12,3.069939550e-12,1.549341281e-12,4.329543644e-13,1.950724471e-12,3.423707620e-12,2.325896920e-12,1.495602725e-12,4.936525698e-12,7.033289619e-12,1.459798503e-12,4.131729430e-12,1.205432307e-12,4.945604366e-13
1.6016,3.112222729e-12,2.093947002e-12,2.032526649e-12,5.896003813e-13,3.115531651e-13,1.413254300e-12,1.933179175e-12,5.528712049e-13,6.099238044e-13,5.260001714e-13,8.563207750e-13,1.646089834e-12,1.562338417e-10,3.126952615e-12,3.389157390e-12,2.867498829e-12,2.436771195e-12,2.207893136e-12,1.391029408e-12,3.130509016e-12,1.552457971e-12,4.288763912e-13,1.935038514e-12,3.400374112e-12,2.340835643e-12,1.498544363e-12,4.938438503e-12,7.020115753e-12,1.462324363e-12,4.182097492e-12,1.207676730e-12,4.882534904e-13
1.6094,3.187426524e-12,2.082423561e-12,2.008292922e-12,5.901707896e-13,3.122324971e-13,1.347735841e-12,1.901695743e-12,5.398513710e-13,6.035272280e-13,5.199173529e-13,8.711666128e-13,1.632248118e-12,1.467911205e-10,3.099222879e-12,3.365671842e-12,2.829475013e-12,2.482471328e-12,2.198787668e-12,1.371751877e-12,3.191114772e-12,1.555314278e-12,4.250384035e-13,1.920360072e-12,3.379272340e-12,2.359398460e-12,1.500794782e-12,4.951772897e-12,7.013275635e-12,1.466652492e-12,4.238960471e-12,1.208777198e-12,4.817077828e-13
1.6172,3.271207091e-12,2.075484826e-12,1.990831075e-12,5.920154063e-13,3.130160088e-13,1.287016942e-12,1.872249379e-12,5.265170037e-13,5.968654434e-13,5.113906758e-13,8.813242776e-13,1.613996827e-12,1.378598790e-10,3.069287548e-12,3.342220927e-12,2.791072048e-12,2.526425110e-12,2.188206351e-12,1.353325165e-12,3.253786416e-12,1.560643447e-12,4.206758346e-13,1.911803317e-12,3.364694816e-12,2.387374608e-12,1.504266308e-12,4.990149365e-12,7.024075137e-12,1.474906434e-12,4.308466714e-12,1.208523407e-12,4.753597982e-13
1.625,3.352656939e-12,2.066230002e-12,1.973241088e-12,5.927479410e-13,3.136268795e-13,1.225344324e-12,1.846462292e-12,5.154481434e-13,5.916186372e-13,5.045362180e-13,8.966576572e-13,1.601138172e-12,1.294028336e-10,3.040296033e-12,3.318378186e-12,2.751891547e-12,2.569423194e-12,2.177488798e-12,1.335131597e-12,3.315887165e-12,1.563053638e-12,4.166477508e-13,1.897541026e-12,3.346773175e-12,2.405766223e-12,1.505855562e-12,5.010479568e-12,7.017368317e-12,1.478200743e-12,4.370682175e-12,1.208806487e-12,4.689238152e-13
1.6328,3.439041795e-12,2.057896973e-12,1.956725343e-12,5.937318880e-13,3.141285263e-13,1.170482877e-12,1.825947782e-12,5.058825988e-13,5.870250786e-13,4.986167318e-13,9.136284589e-13,1.589779896e-12,1.213937796e-10,3.011835492e-12,3.296851415e-12,2.715089917e-12,2.615320589e-12,2.169408916e-12,1.317735368e-12,3.378955002e-12,1.565380531e-12,4.133168179e-13,1.881702131e-12,3.329442037e-12,2.422014388e-12,1.505712455e-12,5.029049130e-12,7.009640970e-12,1.480791122e-12,4.429063862e-12,1.208108296e-12,4.622007197e-13
1.6406,3.534653926e-12,2.054219005e-12,1.946891961e-12,5.956106160e-13,3.145557260e-13,1.120344041e-12,1.807637645e-12,4.964087865e-13,5.822544191e-13,4.909958572e-13,9.254129267e-13,1.575447093e-12,1.138155221e-10,2.982773836e-12,3.277701901e-12,2.680232762e-12,2.664422328e-12,2.163372484e-12,1.303334594e-12,3.444540207e-12,1.571784661e-12,4.100814252e-13,1.872410973e-12,3.319420917e-12,2.448297395e-12,1.505925725e-12,5.069821387e-12,7.027352356e-12,1.486818944e-12,4.499507715e-12,1.205827221e-12,4.554236015e-13
1.6484,3.628043233e-12,2.049361212e-12,1.936955186e-12,5.967021101e-13,3.148403186e-13,1.070943524e-12,1.791186055e-12,4.881255463e-13,5.784170648e-13,4.839973452e-13,9.402789179e-13,1.563576706e-12,1.066432437e-10,2.954377215e-12,3.259132561e-12,2.645881636e-12,2.714878168e-12,2.158928743e-12,1.290018727e-12,3.509066625e-12,1.576825062e-12,4.074938469e-13,1.860048527e-12,3.308816201e-12,2.468588690e-12,1.504588403e-12,5.096164278e-12,7.032828237e-12,1.489062991e-12,4.570190865e-12,1.203492818e-12,4.486341846e-13
1.6562,3.722802134e-12,2.043940570e-12,1.924239816e-12,5.980053480e-13,3.150673698e-13,1.027275364e-12,1.778097190e-12,4.808039289e-13,5.752864575e-13,4.779835976e-13,9.577914368e-13,1.552899479e-12,9.986021597e-11,2.926392767e-12,3.242206051e-12,2.613761752e-12,2.768442859e-12,2.156893893e-12,1.277104621e-12,3.572955087e-12,1.580421526e-12,4.054521977e-13,1.844603577e-12,3.297133569e-12,2.483188996e-12,1.501099525e-12,5.109907724e-12,7.025664604e-12,1.488949028e-12,4.634264100e-12,1.200482259e-12,4.416840469e-13
1.6641,3.827151517e-12,2.042963610e-12,1.914980541e-12,6.004197209e-13,3.151731745e-13,9.868322673e-13,1.766866164e-12,4.738284995e-13,5.722209643e-13,4.716530327e-13,9.713928303e-13,1.541153529e-12,9.344583876e-11,2.898589814e-12,3.227905997e-12,2.584024929e-12,2.825600380e-12,2.156624523e-12,1.266816177e-12,3.638713740e-12,1.586616402e-12,4.032259940e-13,1.833916232e-12,3.289564137e-12,2.504444630e-12,1.497109508e-12,5.138722260e-12,7.037335923e-12,1.492009927e-12,4.702130534e-12,1.196379080e-12,4.345269979e-13
1.6719,3.933533609e-12,2.043805517e-12,1.906368798e-12,6.026212482e-13,3.151815074e-13,9.486761299e-13,1.756770347e-12,4.674550391e-13,5.696474003e-13,4.656453450e-13,9.866072526e-13,1.530380139e-12,8.738298393e-11,2.871849508e-12,3.215992798e-12,2.556333579e-12,2.882444623e-12,2.157816565e-12,1.257170303e-12,3.704371457e-12,1.592365286e-12,4.016505830e-13,1.821857798e-12,3.281627591e-12,2.521986601e-12,1.492124101e-12,5.161833671e-12,7.042126759e-12,1.494817065e-12,4.772262872e-12,1.192506962e-12,4.272761532e-13
1.6797,4.042386330e-12,2.045324708e-12,1.895618978e-12,6.047822163e-13,3.153618827e-13,9.165427812e-13,1.748252967e-12,4.614590307e-13,5.675395946e-13,4.596134540e-13,1.004992470e-12,1.519546002e-12,8.166642928e-11,2.845818583e-12,3.206254412e-12,2.530881251e-12,2.938953597e-12,2.160859871e-12,1.247552292e-12,3.769570905e-12,1.597063722e-12,4.007816047e-13,1.806444528e-12,3.273181562e-12,2.533083338e-12,1.485542036e-12,5.170825491e-12,7.032805821e-12,1.496283361e-12,4.843082011e-12,1.188973759e-12,4.200293664e-13
1.6875,4.161370263e-12,2.050808710e-12,1.887670772e-12,6.080611137e-13,3.157218367e-13,8.864748678e-13,1.741148505e-12,4.562301161e-13,5.658068340e-13,4.536734471e-13,1.021185342e-12,1.509146469e-12,7.627191468e-11,2.820236675e-12,3.197591715e-12,2.506346032e-12,2.998273423e-12,2.165518904e-12,1.240908348e-12,3.835790611e-12,1.603190445e-12,3.996220845e-13,1.793371568e-12,3.267890581e-12,2.548195674e-12,1.477835528e-12,5.184841907e-12,7.039790844e-12,1.499351954e-12,4.920904681e-12,1.185165576e-12,4.126776228e-13
1.6953,4.284660107e-12,2.058346368e-12,1.880347518e-12,6.120169719e-13,3.161126877e-13,8.593105371e-13,1.735579068e-12,4.516561004e-13,5.645045122e-13,4.482904665e-13,1.036984162e-12,1.499311057e-12,7.118001517e-11,2.795276724e-12,3.189563156e-12,2.483349334e-12,3.058598229e-12,2.172340056e-12,1.235333943e-12,3.902620374e-12,1.608742907e-12,3.988752099e-13,1.779445045e-12,3.262162397e-12,2.561870068e-12,1.469107527e-12,5.198457629e-12,7.046338727e-12,1.503076808e-12,5.001698440e-12,1.181125789e-12,4.052278488e-13
1.7031,4.408875133e-12,2.064832955e-12,1.869804270e-12,6.156042479e-13,3.164640101e-13,8.378778103e-13,1.729955280e-12,4.467681319e-13,5.634686488e-13,4.420951507e-13,1.054277395e-12,1.487718049e-12,6.639609296e-11,2.770995561e-12,3.182474195e-12,2.462613848e-12,3.118153993e-12,2.181864163e-12,1.229588200e-12,3.971327444e-12,1.614238654e-12,3.989343631e-13,1.763342088e-12,3.256289577e-12,2.569930029e-12,1.459621162e-12,5.204483827e-12,7.037584111e-12,1.506850834e-12,5.081316424e-12,1.177063600e-12,3.978524623e-13
1.7109,4.540474896e-12,2.072901727e-12,1.860365751e-12,6.191534689e-13,3.167144555e-13,8.162444126e-13,1.723261329e-12,4.424805791e-13,5.630973427e-13,4.359622023e-13,1.070895474e-12,1.477541996e-12,6.190059728e-11,2.748488528e-12,3.176165620e-12,2.442481961e-12,3.179606516e-12,2.193916258e-12,1.227167570e-12,4.042353193e-12,1.621944413e-12,3.989642953e-13,1.749088093e-12,3.253465981e-12,2.579177559e-12,1.449157730e-12,5.208973409e-12,7.037455816e-12,1.511835367e-12,5.164879094e-12,1.173239244e-12,3.904587271e-13
1.7188,4.679249662e-12,2.084668420e-12,1.852367172e-12,6.235509340e-13,3.170251611e-13,7.957877709e-13,1.717455609e-12,4.389183024e-13,5.633137297e-13,4.310240064e-13,1.087035143e-12,1.469295059e-12,5.766849807e-11,2.727977661e-12,3.171870933e-12,2.424486223e-12,3.242405694e-12,2.208826884e-12,1.227175157e-12,4.112946069e-12,1.629793763e-12,3.994282960e-13,1.735258857e-12,3.250293713e-12,2.588672150e-12,1.437454132e-12,5.212526376e-12,7.041243269e-12,1.518241262e-12,5.254596825e-12,1.169481702e-12,3.830244602e-13
1.7266,4.822633558e-12,2.097599956e-12,1.842246371e-12,6.280631615e-13,3.174711955e-13,7.795785210e-13,1.711602000e-12,4.344578690e-13,5.634419347e-13,4.253103042e-13,1.103469144e-12,1.458556888e-12,5.370680628e-11,2.708435617e-12,3.170243621e-12,2.410039626e-12,3.303994203e-12,2.225927238e-12,1.227323375e-12,4.183506757e-12,1.637610417e-12,4.007036818e-13,1.721223655e-12,3.246321484e-12,2.596096055e-12,1.425419108e-12,5.216706382e-12,7.035092499e-12,1.526432292e-12,5.350344621e-12,1.165502961e-12,3.757896468e-13
1.7344,4.972858799e-12,2.110228367e-12,1.832221765e-12,6.321192758e-13,3.177357722e-13,7.617200161e-13,1.703628186e-12,4.301498979e-13,5.638922417e-13,4.197730611e-13,1.120505977e-12,1.448465882e-12,5.000338878e-11,2.689931142e-12,3.169503300e-12,2.396252325e-12,3.367080287e-12,2.244129298e-12,1.229402786e-12,4.256657675e-12,1.646386687e-12,4.020167469e-13,1.707869098e-12,3.244832814e-12,2.602980254e-12,1.413000196e-12,5.219697455e-12,7.032221960e-12,1.535732404e-12,5.451385511e-12,1.161632188e-12,3.686847223e-13
1.7422,5.130470905e-12,2.124582875e-12,1.823827304e-12,6.369321619e-13,3.177697083e-13,7.450451102e-13,1.695662222e-12,4.268096601e-13,5.647069955e-13,4.160034843e-13,1.138037780e-12,1.440053442e-12,4.653246624e-11,2.671813321e-12,3.169408756e-12,2.383321629e-12,3.432850218e-12,2.263710781e-12,1.232666340e-12,4.332096415e-12,1.654136768e-12,4.035006971e-13,1.693329181e-12,3.244612921e-12,2.608445559e-12,1.399699337e-12,5.220193969e-12,7.033603208e-12,1.545880064e-12,5.555988106e-12,1.157626863e-12,3.616177059e-13
1.75,5.295759388e-12,2.141300030e-12,1.815334519e-12,6.422571540e-13,3.177518765e-13,7.333530812e-13,1.688171493e-12,4.226622891e-13,5.651385194e-13,4.115983766e-13,1.154972203e-12,1.428114208e-12,4.329864897e-11,2.652913585e-12,3.170538190e-12,2.373036517e-12,3.496350634e-12,2.283935113e-12,1.235399421e-12,4.407866525e-12,1.661081018e-12,4.054710179e-13,1.679060891e-12,3.244098061e-12,2.614305941e-12,1.386461807e-12,5.227029951e-12,7.033073357e-12,1.558664638e-12,5.668191981e-12,1.152888654e-12,3.547494272e-13
1.7578,5.469929276e-12,2.158353077e-12,1.807108912e-12,6.467923362e-13,3.175341687e-13,7.188833881e-13,1.679381608e-12,4.185022237e-13,5.658460411e-13,4.073960923e-13,1.172980703e-12,1.416426359e-12,4.029521719e-11,2.634596017e-12,3.172037715e-12,2.363741057e-12,3.556906069e-12,2.304597892e-12,1.239679565e-12,4.482169226e-12,1.668042586e-12,4.075839722e-13,1.665276903e-12,3.243276461e-12,2.620576785e-12,1.372885590e-12,5.234076146e-12,7.035341740e-12,1.572904710e-12,5.790216794e-12,1.147975730e-12,3.478856715e-13
1.7656,5.652766692e-12,2.175772202e-12,1.799328246e-12,6.514520525e-13,3.171309446e-13,7.023361944e-13,1.670662138e-12,4.154664528e-13,5.671350099e-13,4.053763412e-13,1.192704011e-12,1.407798509e-12,3.749776524e-11,2.617758842e-12,3.174768333e-12,2.356062978e-12,3.620285790e-12,2.328280863e-12,1.246069530e-12,4.556209988e-12,1.674317706e-12,4.100229256e-13,1.649435558e-12,3.242862143e-12,2.624195278e-12,1.357953054e-12,5.234345878e-12,7.037581971e-12,1.587203935e-12,5.919363113e-12,1.143260683e-12,3.408787052e-13
1.7734,5.845922856e-12,2.195811906e-12,1.792180617e-12,6.569806911e-13,3.167869388e-13,6.899497290e-13,1.662765206e-12,4.116434554e-13,5.677989243e-13,4.024176161e-13,1.210469028e-12,1.395967464e-12,3.490720826e-11,2.601155131e-12,3.179575653e-12,2.351513855e-12,3.688801015e-12,2.355384143e-12,1.253329112e-12,4.633622563e-12,1.681790716e-12,4.129991399e-13,1.634812770e-12,3.244284046e-12,2.628850245e-12,1.343317269e-12,5.245767652e-12,7.041108712e-12,1.605018640e-12,6.059024636e-12,1.138262719e-12,3.340850063e-13
1.7812,6.050180101e-12,2.218134549e-12,1.787445524e-12,6.624470358e-13,3.163906436e-13,6.775780114e-13,1.654557569e-12,4.073690028e-13,5.681407296e-13,3.985569108e-13,1.227447909e-12,1.382738273e-12,3.251984919e-11,2.585048658e-12,3.184301282e-12,2.347964071e-12,3.760298264e-12,2.384486730e-12,1.262282403e-12,4.713755609e-12,1.690680990e-12,4.165709961e-13,1.621800815e-12,3.244745118e-12,2.634147408e-12,1.329781802e-12,5.267446200e-12,7.051041454e-12,1.626633011e-12,6.209587496e-12,1.133359654e-12,3.275138985e-13
1.7891,6.265306581e-12,2.241308728e-12,1.784379339e-12,6.679107506e-13,3.158822878e-13,6.635503695e-13,1.646679081e-12,4.041694965e-13,5.692385511e-13,3.966569886e-13,1.247353506e-12,1.372943993e-12,3.031167778e-11,2.570735160e-12,3.188895166e-12,2.345673167e-12,3.833409644e-12,2.417077806e-12,1.273638167e-12,4.794360861e-12,1.699143707e-12,4.210855200e-13,1.606460166e-12,3.243300918e-12,2.635042202e-12,1.316051562e-12,5.283125302e-12,7.059358893e-12,1.648740851e-12,6.367825120e-12,1.128982668e-12,3.208780483e-13
