Time,Fp1,AF3,F7,F3,FC1,FC5,T7,C3,CP1,CP5,P7,P3,Pz,PO3,O1,Oz,O2,PO4,P4,P8,CP6,CP2,C4,T8,FC6,FC2,F4,F8,AF4,Fp2,Fz,Cz,
0,2.235424477e-09,1.260348916e-09,2.013008843e-09,6.022674674e-10,9.538250357e-11,5.266389604e-10,1.929166854e-09,7.400939401e-10,5.316643316e-11,6.538981947e-10,2.646711021e-09,5.173946339e-10,1.295168777e-10,5.540673838e-10,1.143042632e-09,2.141315757e-09,2.169100962e-09,1.433079892e-09,9.890758203e-10,2.778943757e-09,1.416582351e-09,2.367229632e-10,3.557777240e-10,2.581791774e-09,1.550041256e-09,3.719225216e-12,1.049875267e-09,1.683662472e-09,1.369313818e-09,5.703236285e-09,1.924694338e-11,4.303532096e-10
0.0078125,2.227332403e-09,1.257018022e-09,2.005937429e-09,6.004471147e-10,9.511572298e-11,5.246507682e-10,1.922972110e-09,7.408566817e-10,5.303809345e-11,6.512772895e-10,2.636649443e-09,5.157082237e-10,1.297814307e-10,5.538755434e-10,1.139938109e-09,2.134521095e-09,2.161789921e-09,1.430308856e-09,9.879071591e-10,2.768863987e-09,1.413068754e-09,2.362133212e-10,3.574839719e-10,2.574446523e-09,1.549905641e-09,3.704091449e-12,1.049221889e-09,1.679527930e-09,1.366914756e-09,5.680144468e-09,1.933159601e-11,4.308784138e-10
0.015625,2.212591310e-09,1.250092042e-09,1.993036493e-09,5.969106033e-10,9.457124441e-11,5.211354611e-10,1.911205026e-09,7.395450170e-10,5.275618429e-11,6.467665938e-10,2.618938106e-09,5.125397188e-10,1.296843767e-10,5.521407572e-10,1.133531420e-09,2.121532702e-09,2.148203496e-09,1.423452236e-09,9.839341061e-10,2.750753380e-09,1.405504824e-09,2.350253761e-10,3.582207314e-10,2.559656612e-09,1.545383777e-09,3.678468295e-12,1.045584196e-09,1.670414034e-09,1.360448998e-09,5.639179178e-09,1.936248136e-11,4.302016900e-10
0.023438,2.191354258e-09,1.239597577e-09,1.974451116e-09,5.917003503e-10,9.375589632e-11,5.161306263e-10,1.893993036e-09,7.361191662e-10,5.232368438e-11,6.404052804e-10,2.593749963e-09,5.079208344e-10,1.292135317e-10,5.488666070e-10,1.123909233e-09,2.102513073e-09,2.128517901e-09,1.412611166e-09,9.772164055e-10,2.724856148e-09,1.393988989e-09,2.331652779e-10,3.579646971e-10,2.537588744e-09,1.536539780e-09,3.644358239e-12,1.039059362e-09,1.656373428e-09,1.350061969e-09,5.580545875e-09,1.933762898e-11,4.283177793e-10
0.03125,2.163883292e-09,1.225607269e-09,1.950387739e-09,5.848594737e-10,9.267598680e-11,5.096941423e-10,1.871550861e-09,7.305694924e-10,5.174605179e-11,6.322586629e-10,2.561354817e-09,5.018991255e-10,1.283685506e-10,5.440808311e-10,1.111159582e-09,2.077638721e-09,2.102895206e-09,1.397867359e-09,9.678016363e-10,2.691378234e-09,1.378622864e-09,2.306573204e-10,3.566938969e-10,2.508445902e-09,1.523472792e-09,3.601268513e-12,1.029688559e-09,1.637647938e-09,1.335869974e-09,5.505242564e-09,1.926188427e-11,4.252476639e-10
0.039062,2.130587745e-09,1.208351361e-09,1.921103442e-09,5.764458999e-10,9.134185941e-11,5.018907569e-10,1.844134335e-09,7.229198251e-10,5.102933015e-11,6.224173941e-10,2.522119953e-09,4.945355537e-10,1.271521154e-10,5.378252622e-10,1.095390633e-09,2.047160814e-09,2.071611493e-09,1.379371377e-09,9.557836310e-10,2.650707268e-09,1.359575071e-09,2.275307577e-10,3.543997545e-10,2.472576437e-09,1.506284030e-09,3.548280747e-12,1.017486760e-09,1.614581439e-09,1.317970133e-09,5.414656997e-09,1.913915770e-11,4.210239082e-10
0.046875,2.091874658e-09,1.188014235e-09,1.886883193e-09,5.665331980e-10,8.977060529e-11,4.927893613e-10,1.811957242e-09,7.132273902e-10,5.018127117e-11,6.109736584e-10,2.476413703e-09,4.858949547e-10,1.255711749e-10,5.301377197e-10,1.076765415e-09,2.011403001e-09,2.035004467e-09,1.357297506e-09,9.412624284e-10,2.603305865e-09,1.337019560e-09,2.238140990e-10,3.510874688e-10,2.430340371e-09,1.485085824e-09,3.487027207e-12,1.002568050e-09,1.587343787e-09,1.296614795e-09,5.309876346e-09,1.896698713e-11,4.156681862e-10
0.054688,2.048045564e-09,1.164720439e-09,1.848068407e-09,5.552340152e-10,8.798163056e-11,4.824927302e-10,1.775316032e-09,7.015856986e-10,4.921074745e-11,5.980432044e-10,2.424676784e-09,4.760649724e-10,1.236363920e-10,5.210672111e-10,1.055504687e-09,1.970739511e-09,1.993412414e-09,1.331826330e-09,9.243457662e-10,2.549545865e-09,1.311129485e-09,2.195481967e-10,3.467847135e-10,2.382085147e-09,1.460051809e-09,3.418632009e-12,9.850935759e-10,1.556169537e-09,1.272062872e-09,5.192186728e-09,1.874707248e-11,4.092234170e-10
0.0625,1.999471703e-09,1.138695931e-09,1.805016163e-09,5.426694262e-10,8.599248994e-11,4.711106455e-10,1.734609949e-09,6.881260933e-10,4.812465288e-11,5.837745342e-10,2.367474295e-09,4.651581123e-10,1.213693781e-10,5.106784765e-10,1.031852429e-09,1.925623760e-09,1.947303221e-09,1.303228177e-09,9.052096800e-10,2.489981315e-09,1.282166091e-09,2.147697207e-10,3.415360570e-10,2.328283193e-09,1.431413754e-09,3.343625275e-12,9.652132032e-10,1.521473403e-09,1.244525968e-09,5.063298162e-09,1.848396838e-11,4.017484200e-10
0.070312,1.946731468e-09,1.110198517e-09,1.758092931e-09,5.289418911e-10,8.382297775e-11,4.587331584e-10,1.690199566e-09,6.729998147e-10,4.693280472e-11,5.683065551e-10,2.305365060e-09,4.532761588e-10,1.188017109e-10,4.990598762e-10,1.006032325e-09,1.876518932e-09,1.897180433e-09,1.271791764e-09,8.840430825e-10,2.425296937e-09,1.250419751e-09,2.095147689e-10,3.353872633e-10,2.269464164e-09,1.399418207e-09,3.263210786e-12,9.430822011e-10,1.483592276e-09,1.214316116e-09,4.925069542e-09,1.817872071e-11,3.932997533e-10
0.078125,1.890473250e-09,1.079447233e-09,1.707716797e-09,5.141448413e-10,8.149189934e-11,4.454598723e-10,1.642425703e-09,6.563687298e-10,4.564627672e-11,5.517601304e-10,2.238827126e-09,4.405018856e-10,1.159577042e-10,4.863063984e-10,9.782313259e-10,1.823797955e-09,1.843402351e-09,1.237730061e-09,8.609860853e-10,2.355970335e-09,1.216115519e-09,2.038281291e-10,3.284050380e-10,2.206074710e-09,1.364294315e-09,3.177752056e-12,9.188497783e-10,1.442790963e-09,1.181679191e-09,4.778992789e-09,1.783410344e-11,3.839411219e-10
0.085938,1.831204975e-09,1.046726161e-09,1.654343709e-09,4.984023702e-10,7.901875524e-11,4.314136049e-10,1.591705258e-09,6.384167671e-10,4.427531122e-11,5.342731064e-10,2.168389980e-09,4.269336439e-10,1.128609987e-10,4.725270136e-10,9.486569156e-10,1.767860032e-09,1.786372581e-09,1.201307598e-09,8.362193091e-10,2.282521368e-09,1.179524256e-09,1.977569405e-10,3.206759141e-10,2.138626318e-09,1.326344838e-09,3.088349418e-12,8.927418943e-10,1.399414687e-09,1.146848503e-09,4.626099533e-09,1.745301447e-11,3.737543175e-10
0.09375,1.769249503e-09,1.012301898e-09,1.598378336e-09,4.818667759e-10,7.642681878e-11,4.167110955e-10,1.538427270e-09,6.193382319e-10,4.283196047e-11,5.159845682e-10,2.094623012e-09,4.126822640e-10,1.095445617e-10,4.578408292e-10,9.175531735e-10,1.709167234e-09,1.726572761e-09,1.162829668e-09,8.099511743e-10,2.205583493e-09,1.140947951e-09,1.913526570e-10,3.122730120e-10,2.067673204e-09,1.285892480e-09,2.996109368e-12,8.649673517e-10,1.353799305e-09,1.110140188e-09,4.467595465e-09,1.703697219e-11,3.628272576e-10
0.10156,1.705043758e-09,9.763488305e-10,1.540166588e-09,4.646225016e-10,7.373079818e-11,4.014426807e-10,1.482926523e-09,5.993165359e-10,4.132430400e-11,4.970143607e-10,2.018011294e-09,3.978471620e-10,1.060421736e-10,4.423527055e-10,8.851377914e-10,1.648104836e-09,1.664367879e-09,1.122532675e-09,7.823483540e-10,2.125608909e-09,1.100622076e-09,1.846593429e-10,3.032796659e-10,1.993661907e-09,1.243192679e-09,2.900721195e-12,8.356427406e-10,1.306203132e-09,1.071704472e-09,4.304519844e-09,1.659191837e-11,3.512405673e-10
0.10938,1.639137352e-09,9.391522813e-10,1.480131770e-09,4.467476270e-10,7.094403559e-11,3.857052802e-10,1.425638446e-09,5.785238427e-10,3.976102057e-11,4.774996768e-10,1.939082290e-09,3.825330753e-10,1.023879667e-10,4.262069708e-10,8.516159129e-10,1.585055757e-09,1.600154091e-09,1.080703662e-09,7.536199466e-10,2.043120624e-09,1.058849293e-09,1.777188184e-10,2.937976432e-10,1.917134643e-09,1.198619764e-09,2.804241942e-12,8.050718340e-10,1.256899693e-09,1.031751725e-09,4.137250507e-09,1.612142455e-11,3.390862227e-10
0.11719,1.571642538e-09,9.010046764e-10,1.418656071e-09,4.284206294e-10,6.808815622e-11,3.696042470e-10,1.366934095e-09,5.571213217e-10,3.815622034e-11,4.575579122e-10,1.858334469e-09,3.668323431e-10,9.861102609e-11,4.095497388e-10,8.171970697e-10,1.520425570e-09,1.534369224e-09,1.037650583e-09,7.239834107e-10,1.958715260e-09,1.015939247e-09,1.705809250e-10,2.839083271e-10,1.838614352e-09,1.152552748e-09,2.708555892e-12,7.735817706e-10,1.206167445e-09,9.906558392e-10,3.966252460e-09,1.562366010e-11,3.264602745e-10
0.125,1.502695466e-09,8.620425165e-10,1.356024757e-09,4.097869057e-10,6.517943095e-11,3.532285491e-10,1.307090618e-09,5.352516152e-10,3.651905644e-11,4.372796870e-10,1.776207007e-09,3.508349388e-10,9.473235187e-11,3.924716425e-10,7.821338846e-10,1.454647712e-09,1.467444757e-09,9.936696998e-10,6.936473759e-10,1.872895562e-09,9.721489136e-10,1.632879043e-10,2.736902457e-10,1.758522374e-09,1.105255464e-09,2.612752016e-12,7.412876562e-10,1.154328019e-09,9.486202622e-10,3.792456574e-09,1.510251810e-11,3.134547998e-10
0.13281,1.433036273e-09,8.225034862e-10,1.292653881e-09,3.909031536e-10,6.223074500e-11,3.366689279e-10,1.246530758e-09,5.130398192e-10,3.485667099e-11,4.167992357e-10,1.693260145e-09,3.346586821e-10,9.077991242e-11,3.750963136e-10,7.466820229e-10,1.388183526e-09,1.399856148e-09,9.491022230e-10,6.628595499e-10,1.786243082e-09,9.278054609e-10,1.558808587e-10,2.632199080e-10,1.677439023e-09,1.057095422e-09,2.518096499e-12,7.084236701e-10,1.101731239e-09,9.058536597e-10,3.616589285e-09,1.456391960e-11,3.001680098e-10
0.14062,1.363066681e-09,7.827039797e-10,1.228960264e-09,3.718679334e-10,5.925866531e-11,3.200152534e-10,1.185617153e-09,4.906014241e-10,3.318037160e-11,3.962308028e-10,1.609916658e-09,3.183830204e-10,8.678071524e-11,3.575647208e-10,7.109420383e-10,1.321266278e-09,1.331844697e-09,9.041475229e-10,6.317720406e-10,1.699135130e-09,8.831453264e-10,1.484086518e-10,2.525493422e-10,1.595823064e-09,1.008394309e-09,2.425620018e-12,6.752595819e-10,1.048589499e-09,8.626267822e-10,3.438959381e-09,1.400963960e-11,2.866855772e-10
0.14844,1.292798789e-09,7.428388417e-10,1.165265123e-09,3.528303178e-10,5.627972143e-11,3.033644683e-10,1.124637191e-09,4.680408990e-10,3.150079913e-11,3.756618181e-10,1.526535865e-09,3.020786633e-10,8.274877855e-11,3.399824585e-10,6.750500976e-10,1.254141191e-09,1.263642302e-09,8.589956511e-10,6.005283402e-10,1.611885453e-09,8.383701515e-10,1.409206973e-10,2.417428124e-10,1.514044526e-09,9.594016241e-10,2.334422948e-12,6.419393293e-10,9.951659664e-10,8.191384576e-10,3.260205538e-09,1.344433266e-11,2.730960828e-10
0.15625,1.222693843e-09,7.030993826e-10,1.101915406e-09,3.338994848e-10,5.331050513e-11,2.868174247e-10,1.063984827e-09,4.454515113e-10,2.982770836e-11,3.552182309e-10,1.443655769e-09,2.858598149e-10,7.870335770e-11,3.224573528e-10,6.392899792e-10,1.187301722e-09,1.195763608e-09,8.139874480e-10,5.693659904e-10,1.525114216e-09,7.938041183e-10,1.334599778e-10,2.308669579e-10,1.432668938e-09,9.104861367e-10,2.246694173e-12,6.087196559e-10,9.418644939e-10,7.756991317e-10,3.081353604e-09,1.287226177e-11,2.594876376e-10
0.16406,1.153187972e-09,6.637245487e-10,1.039200882e-09,3.151525903e-10,5.036571227e-11,2.704384890e-10,1.003944955e-09,4.229226744e-10,2.816969363e-11,3.349952792e-10,1.361656935e-09,2.698025352e-10,7.466975872e-11,3.050771578e-10,6.038345493e-10,1.121088126e-09,1.128578510e-09,7.693592676e-10,5.384481192e-10,1.439289266e-09,7.496761282e-10,1.260585477e-10,2.199618449e-10,1.352106105e-09,8.619104490e-10,2.163788606e-12,5.758055444e-10,8.890112763e-10,7.325892070e-10,2.903445536e-09,1.229507041e-11,2.459234860e-10
0.17188,1.084524607e-09,6.249260803e-10,9.774342297e-10,2.967003240e-10,4.746135675e-11,2.543043397e-10,9.447780123e-10,4.005397330e-10,2.653516841e-11,3.150808085e-10,1.280906667e-09,2.539772368e-10,7.066510056e-11,2.879143856e-10,5.688571952e-10,1.055818764e-09,1.062413697e-09,7.253381004e-10,5.079355623e-10,1.354810492e-09,7.061915724e-10,1.187550249e-10,2.090727300e-10,1.272713644e-09,8.138585874e-10,2.084265235e-12,5.432924227e-10,8.369244699e-10,6.900100154e-10,2.727834397e-09,1.171749758e-11,2.324815537e-10
0.17969,1.017187493e-09,5.868468292e-10,9.169359541e-10,2.786392582e-10,4.461464947e-11,2.385100414e-10,8.867961912e-10,3.783874636e-10,2.493393431e-11,2.955815797e-10,1.201848701e-09,2.384700431e-10,6.670421963e-11,2.710478630e-10,5.345770193e-10,9.918727024e-10,9.976370932e-10,6.821605186e-10,4.779878620e-10,1.272121748e-09,6.635756381e-10,1.115922913e-10,1.982446928e-10,1.194913783e-09,7.665789974e-10,2.008815957e-12,5.113634548e-10,7.858667103e-10,6.482646634e-10,2.555763601e-09,1.114201778e-11,2.192306139e-10
0.1875,9.516529583e-10,5.496459159e-10,8.579344420e-10,2.610100537e-10,4.183728398e-11,2.231131972e-10,8.302166724e-10,3.565533968e-10,2.337318583e-11,2.765594072e-10,1.124713284e-09,2.233201902e-10,6.280005974e-11,2.545456344e-10,5.010544470e-10,9.293760164e-10,9.343505078e-10,6.399040051e-10,4.486606950e-10,1.191374883e-09,6.219318086e-10,1.046022927e-10,1.875133370e-10,1.118958274e-09,7.202518760e-10,1.937646505e-12,4.801326019e-10,7.360306624e-10,6.075413498e-10,2.388251937e-09,1.057146550e-11,2.062135942e-10
0.19531,8.882155355e-10,5.135607956e-10,8.007283921e-10,2.438792790e-10,3.914129784e-11,2.081785631e-10,7.753149645e-10,3.351229397e-10,2.185868147e-11,2.580979524e-10,1.049832728e-09,2.085901604e-10,5.896369167e-11,2.384767574e-10,4.684044295e-10,8.685620730e-10,8.727982832e-10,5.987509354e-10,4.200857449e-10,1.112905394e-09,5.814465756e-10,9.781731699e-11,1.769259673e-10,1.045202905e-09,6.750704303e-10,1.869982915e-12,4.496801446e-10,6.877165613e-10,5.679471289e-10,2.226514985e-09,1.001388830e-11,1.934967199e-10
0.20312,8.269905622e-10,4.786880206e-10,7.455074059e-10,2.273244872e-10,3.653851871e-11,1.937642315e-10,7.222786983e-10,3.141836231e-10,2.039611868e-11,2.402774320e-10,9.775338570e-10,1.943475762e-10,5.521467050e-11,2.228876662e-10,4.368124964e-10,8.097734150e-10,8.133420232e-10,5.589065687e-10,3.923940965e-10,1.037151820e-09,5.422991591e-10,9.125937723e-11,1.665286367e-10,9.739522700e-10,6.312028043e-10,1.807282291e-12,4.201573686e-10,6.410906673e-10,5.297002869e-10,2.071116576e-09,9.470701418e-12,1.811231813e-10
0.21094,7.681408765e-10,4.450473765e-10,6.923415180e-10,2.113831768e-10,3.403699395e-11,1.798966797e-10,6.711668434e-10,2.938209585e-10,1.898969694e-11,2.231213690e-10,9.079178377e-10,1.806135609e-10,5.157043059e-11,2.078153510e-10,4.063518100e-10,7.531318360e-10,7.560838380e-10,5.204254136e-10,3.656217695e-10,9.642047470e-10,5.045328332e-10,8.494234774e-11,1.563631296e-10,9.052946071e-10,5.887315085e-10,1.749626785e-12,3.916342025e-10,5.962320975e-10,4.929458367e-10,1.922465249e-09,8.939699902e-12,1.691173911e-10
0.21875,7.120157554e-10,4.127899421e-10,6.414480400e-10,1.960973851e-10,3.164539726e-11,1.666238266e-10,6.221887749e-10,2.741107912e-10,1.764304330e-11,2.066903379e-10,8.412485250e-10,1.674390763e-10,4.803782524e-11,1.933104366e-10,3.771329964e-10,6.988267405e-10,7.012100441e-10,4.834564859e-10,3.398779256e-10,8.942800141e-10,4.682877018e-10,7.888705711e-11,1.464738141e-10,8.394833080e-10,5.478114543e-10,1.695828306e-12,3.641649257e-10,5.533269908e-10,4.577340597e-10,1.781528391e-09,8.423992938e-12,1.575302772e-10
0.22656,6.586706206e-10,3.819767642e-10,5.929066728e-10,1.814927364e-10,2.936711516e-11,1.539679949e-10,5.754462979e-10,2.551238140e-10,1.635725831e-11,1.910245254e-10,7.776958343e-10,1.548580329e-10,4.462782750e-11,1.793903674e-10,3.492463500e-10,6.470260143e-10,6.489043486e-10,4.481156364e-10,3.152376895e-10,8.276117362e-10,4.336687685e-10,7.309782829e-11,1.368987995e-10,7.766851975e-10,5.085643816e-10,1.646965158e-12,3.378372030e-10,5.123883216e-10,4.241173273e-10,1.648304278e-09,7.924511487e-12,1.463821918e-10
0.23438,6.080708941e-10,3.526166846e-10,5.467094543e-10,1.675684715e-10,2.720185481e-11,1.419250251e-10,5.309436971e-10,2.369150697e-10,1.513255803e-11,1.761198769e-10,7.172396078e-10,1.428694215e-10,4.135515183e-11,1.660827377e-10,3.226901246e-10,5.977275950e-10,5.991552741e-10,4.144059245e-10,2.917099383e-10,7.642084922e-10,4.006865731e-10,6.757642448e-11,1.276720526e-10,7.169189860e-10,4.710489478e-10,1.603427192e-12,3.126910443e-10,4.734178226e-10,3.921179925e-10,1.522272350e-09,7.441531374e-12,1.356874417e-10
0.24219,5.603275456e-10,3.248141462e-10,5.030059627e-10,1.543485756e-10,2.515175127e-11,1.305250803e-10,4.888127106e-10,2.195240407e-10,1.397048486e-11,1.620144913e-10,6.600132711e-10,1.315034822e-10,3.822789163e-11,1.534331962e-10,2.974970876e-10,5.509853531e-10,5.520023355e-10,3.823832932e-10,2.693418274e-10,7.041514125e-10,3.694009199e-10,6.233752642e-11,1.188184251e-10,6.603024176e-10,4.353401602e-10,1.563851174e-12,2.887651037e-10,4.364935051e-10,3.617405089e-10,1.403384791e-09,6.976850072e-12,1.254800204e-10
0.25,5.152047593e-10,2.985450734e-10,4.617823839e-10,1.418634690e-10,2.321572017e-11,1.197760187e-10,4.490356082e-10,2.029872009e-10,1.287082598e-11,1.487120488e-10,6.060224492e-10,1.207646780e-10,3.525020346e-11,1.414409368e-10,2.736753897e-10,5.068084821e-10,5.074498904e-10,3.520586847e-10,2.481386136e-10,6.474369355e-10,3.398089273e-10,5.737980026e-11,1.103574983e-10,6.068108525e-10,4.014546015e-10,1.528183184e-12,2.660969486e-10,4.015074804e-10,3.329823704e-10,1.291097364e-09,6.529242270e-12,1.157643634e-10
0.25781,4.725366011e-10,2.737389097e-10,4.229461756e-10,1.301196536e-10,2.139191630e-11,1.096602259e-10,4.115509871e-10,1.873227882e-10,1.183309562e-11,1.361884506e-10,5.551980849e-10,1.106453781e-10,3.242561739e-11,1.301106563e-10,2.512313061e-10,4.651976132e-10,4.655023524e-10,3.234493475e-10,2.281201942e-10,5.940374725e-10,3.119181444e-10,5.269861257e-11,1.023087136e-10,5.564236536e-10,3.694302752e-10,1.496817001e-12,2.447089441e-10,3.684545278e-10,3.058406460e-10,1.185018040e-09,6.099687771e-12,1.065504034e-10
0.26562,4.324715755e-10,2.504220234e-10,3.865077557e-10,1.190924474e-10,1.967753042e-11,1.001714940e-10,3.763880717e-10,1.725317961e-10,1.085653162e-11,1.244504680e-10,5.075579453e-10,1.011555923e-10,2.975903789e-11,1.194530189e-10,2.301693945e-10,4.261591611e-10,4.261708849e-10,2.965735205e-10,2.093059407e-10,5.439733805e-10,2.857484880e-10,4.829364759e-11,9.467779523e-11,5.091667827e-10,3.392886165e-10,1.468752392e-12,2.246031713e-10,3.373808733e-10,2.802819466e-10,1.085232424e-09,5.689548737e-12,9.784867457e-11
0.27344,3.949075745e-10,2.285791843e-10,3.524022140e-10,1.087545159e-10,1.806653568e-11,9.129413328e-11,3.434694431e-10,1.586123797e-10,9.939107992e-12,1.134742816e-10,4.629706123e-10,9.227134334e-11,2.725432606e-11,1.094524508e-10,2.104115135e-10,3.895545554e-10,3.893076323e-10,2.713452848e-10,1.916383142e-10,4.970811923e-10,2.612178518e-10,4.415625591e-11,8.746904314e-11,4.648994857e-10,3.109775946e-10,1.443282151e-12,2.057465367e-10,3.081601113e-10,2.562583514e-10,9.914173986e-10,5.297714768e-12,8.964653419e-11
0.28125,3.597574438e-10,2.081826114e-10,3.205990050e-10,9.910467942e-11,1.655717322e-11,8.301820832e-11,3.127599639e-10,1.455486668e-10,9.080501274e-12,1.032395963e-10,4.213649403e-10,8.397966344e-11,2.490852271e-11,1.001087889e-10,1.919365955e-10,3.553381710e-10,3.548666529e-10,2.477559630e-10,1.751186386e-10,4.533026508e-10,2.383147482e-10,4.028586103e-11,8.068508039e-11,4.235982651e-10,2.845044245e-10,1.420671105e-12,1.881207334e-10,2.808249217e-10,2.337770043e-10,9.035108624e-10,4.927536194e-12,8.195137342e-11
0.28906,3.270527855e-10,1.891895563e-10,2.910557051e-10,9.011883440e-11,1.514706782e-11,7.532451466e-11,2.842214828e-10,1.333167412e-10,8.279192653e-12,9.373503662e-11,3.827047713e-10,7.627445103e-11,2.271732553e-11,9.140113095e-11,1.747416137e-10,3.234962823e-10,3.228428226e-10,2.257973980e-10,1.597402618e-10,4.126188331e-10,2.170213474e-10,3.667865680e-11,7.431129679e-11,3.852259397e-10,2.598200142e-10,1.400501731e-12,1.716925061e-10,2.553998229e-10,2.128100683e-10,8.215516066e-10,4.581258840e-12,7.475809420e-11
0.29688,2.966322431e-10,1.715231995e-10,2.636186918e-10,8.176478529e-11,1.383159721e-11,6.817927583e-11,2.577006587e-10,1.218939778e-10,7.532839710e-12,8.491273774e-11,3.467951098e-10,6.911588107e-11,2.067774009e-11,8.329257149e-11,1.587424080e-10,2.938716640e-10,2.930688383e-10,2.053554019e-10,1.454218412e-10,3.748018876e-10,1.972203712e-10,3.332254916e-11,6.833757200e-11,3.495749104e-10,2.368241357e-10,1.382437873e-12,1.564159066e-10,2.317415743e-10,1.933029927e-10,7.452147385e-10,4.256394292e-12,6.804291013e-11
0.30469,2.684399410e-10,1.551709562e-10,2.382313215e-10,7.404234189e-11,1.261109768e-11,6.157551837e-11,2.331475088e-10,1.112483031e-10,6.841785788e-12,7.674882497e-11,3.135499582e-10,6.248649927e-11,1.878278487e-11,7.577849171e-11,1.439031217e-10,2.664010739e-10,2.654742174e-10,1.863916145e-10,1.321386268e-10,3.397530886e-10,1.788762982e-10,3.021621420e-11,6.275428665e-11,3.165843517e-10,2.155004939e-10,1.366740960e-12,1.422802005e-10,2.098514838e-10,1.752619143e-10,6.745871128e-10,3.953211982e-12,6.180293231e-11
0.3125,2.424888365e-10,1.400966237e-10,2.148472147e-10,6.692402435e-11,1.148300402e-11,5.549730105e-11,2.105129406e-10,1.013459734e-10,6.204100398e-12,6.922575836e-11,2.828965450e-10,5.637213670e-11,1.702533885e-11,6.883462781e-11,1.301911816e-10,2.410273507e-10,2.400059758e-10,1.688641514e-10,1.198572282e-10,3.074024030e-10,1.619411296e-10,2.735161274e-11,5.754000766e-11,2.861653815e-10,1.957623472e-10,1.352383326e-12,1.292267043e-10,1.896984657e-10,1.586356347e-10,6.097054966e-10,3.672340061e-12,5.602146823e-11
0.32031,2.186426714e-10,1.262130122e-10,1.933450197e-10,6.036622524e-11,1.044102481e-11,4.990933683e-11,1.896692678e-10,9.215618040e-11,5.616049014e-12,6.229898489e-11,2.546618507e-10,5.073783414e-11,1.540088459e-11,6.242476174e-11,1.175344858e-10,2.176105930e-10,2.165170984e-10,1.526801633e-10,1.085136991e-10,2.775543294e-10,1.463170580e-10,2.471286164e-11,5.268435945e-11,2.581353601e-10,1.775107801e-10,1.338539619e-12,1.171757710e-10,1.711409890e-10,1.433236967e-10,5.502175099e-10,3.412985440e-12,5.067484970e-11
0.32812,1.967928431e-10,1.134660152e-10,1.736331898e-10,5.434801062e-11,9.481854948e-12,4.478968256e-11,1.705419608e-10,8.364377064e-11,5.075721968e-12,5.594160203e-11,2.287489347e-10,4.556415079e-11,1.390369267e-11,5.653021970e-11,1.058971491e-10,1.960861458e-10,1.949379131e-10,1.377943897e-10,9.807935366e-11,2.501217246e-10,1.319666862e-10,2.228997055e-11,4.817595587e-11,2.324189477e-10,1.607233138e-10,1.325787224e-12,1.060951202e-10,1.541285932e-10,1.292700815e-10,4.958862864e-10,3.175150914e-12,4.574835309e-11
0.33594,1.768267099e-10,1.017890171e-10,1.556009859e-10,4.883519450e-11,8.601128858e-12,4.010862257e-11,1.530338522e-10,7.577699419e-11,4.580065643e-12,5.012576900e-11,2.050344920e-10,4.082675651e-11,1.252700876e-11,5.111782732e-11,9.522556116e-11,1.763628580e-10,1.751825782e-10,1.241353625e-10,8.850021142e-11,2.249995466e-10,1.188184127e-10,2.006923651e-11,4.399248964e-11,2.088833865e-10,1.452978027e-10,1.313487498e-12,9.592488877e-11,1.385784741e-10,1.164011507e-10,4.463274524e-10,2.957249793e-12,4.121391929e-11
0.34375,1.586211816e-10,9.111983536e-11,1.391577606e-10,4.379569967e-11,7.794288765e-12,3.583788018e-11,1.370523246e-10,6.852609150e-11,4.126053966e-12,4.481878350e-11,1.833883461e-10,3.650101713e-11,1.126338339e-11,4.616042825e-11,8.546538199e-11,1.583306903e-10,1.571377496e-10,1.116352479e-10,7.972788915e-11,2.020286553e-10,1.067927382e-10,1.803977814e-11,4.012255662e-11,1.873862465e-10,1.311393369e-10,1.300796925e-12,8.660258761e-11,1.243885353e-10,1.046364358e-10,4.011945441e-10,2.758175708e-12,3.705414085e-11
0.35156,1.420668181e-10,8.140758023e-11,1.242177351e-10,3.920910312e-11,7.057384377e-12,3.195792712e-11,1.225209962e-10,6.185663722e-11,3.711687624e-12,3.999303360e-11,1.637079184e-10,3.256827435e-11,1.010513750e-11,4.163548391e-11,7.657435816e-11,1.419069908e-10,1.407115033e-10,1.002386914e-10,7.172464005e-11,1.810914485e-10,9.583608255e-11,1.619182442e-11,3.655300895e-11,1.678284342e-10,1.182018264e-10,1.288256898e-12,7.809304468e-11,1.114773587e-10,9.390586079e-11,3.602684521e-10,2.577562814e-12,3.325178780e-11
0.35938,1.269910227e-10,7.257372954e-11,1.106433142e-10,3.504093819e-11,6.384555052e-12,2.843847578e-11,1.093095470e-10,5.573638062e-11,3.333777792e-12,3.560727763e-11,1.458132372e-10,2.899312481e-11,9.046216727e-12,3.750624345e-11,6.847065218e-11,1.269486232e-10,1.257556822e-10,8.984057769e-11,6.441671924e-11,1.620186915e-10,8.585164602e-11,1.450849997e-11,3.326232151e-11,1.500289325e-10,1.063830573e-10,1.275627422e-12,7.033348650e-11,9.970856779e-11,8.412464915e-11,3.230888746e-10,2.413360402e-12,2.977416561e-11
0.36719,1.133062185e-10,6.456757213e-11,9.836848043e-11,3.126299457e-11,5.771936926e-12,2.525785194e-11,9.734846949e-11,5.013524871e-11,2.989776993e-12,3.163765061e-11,1.295990206e-10,2.575544311e-11,8.081403268e-12,3.375188720e-11,6.110841712e-11,1.133667404e-10,1.121791105e-10,8.038588503e-11,5.776697187e-11,1.446966314e-10,7.678223717e-11,1.297996768e-11,3.023780788e-11,1.338806057e-10,9.561898908e-11,1.262480911e-12,6.327378657e-11,8.901586824e-11,7.523841314e-11,2.894256104e-10,2.264990892e-12,2.660666747e-11
0.375,1.009508972e-10,5.733558727e-11,8.731725661e-11,2.784935875e-11,5.215825169e-12,2.239201322e-11,8.657249106e-11,4.502096997e-11,2.677389393e-12,2.806439065e-11,1.149908585e-10,2.284149206e-11,7.205921241e-12,3.035004444e-11,5.445936330e-11,1.011021120e-10,9.992518493e-11,7.183554779e-11,5.174846273e-11,1.290486225e-10,6.858888519e-11,1.159643279e-11,2.746620047e-11,1.193095702e-10,8.586357050e-11,1.249214916e-12,5.687993394e-11,7.935483606e-11,6.719237268e-11,2.591539939e-10,2.132201867e-12,2.373262815e-11
0.38281,8.976625724e-11,5.079578032e-11,7.734138119e-11,2.476528323e-11,4.710567113e-12,1.980434935e-11,7.684459842e-11,4.036037157e-11,2.393447314e-12,2.484305576e-11,1.018115385e-10,2.021565286e-11,6.414197098e-12,2.726418523e-11,4.844859442e-11,9.001564526e-11,8.885817982e-11,6.409438878e-11,4.629518929e-11,1.149042214e-10,6.117993534e-11,1.034179804e-11,2.492822650e-11,1.061479988e-10,7.701332198e-11,1.235647478e-12,5.108850149e-11,7.060766960e-11,5.990433598e-11,2.318456571e-10,2.013147916e-12,2.112192972e-11
0.39062,7.968310893e-11,4.490835107e-11,6.837520323e-11,2.198804498e-11,4.252984726e-12,1.747765111e-11,6.809210001e-11,3.612200333e-11,2.136135761e-12,2.194692607e-11,8.995074347e-11,1.785552064e-11,5.698791766e-12,2.447203412e-11,4.302705401e-11,8.001455195e-11,7.888082785e-11,5.710266714e-11,4.136521082e-11,1.021406726e-10,5.449458292e-11,9.208121848e-12,2.260922125e-11,9.429099295e-11,6.900197413e-11,1.221827438e-12,4.584837395e-11,6.271239974e-11,5.332042113e-11,2.073348701e-10,1.907136768e-12,1.875892604e-11
0.39844,7.065848242e-11,3.963605778e-11,6.036071070e-11,1.949810857e-11,3.840323499e-12,1.539832758e-11,6.025689133e-11,3.227808374e-11,1.904014875e-12,1.935740368e-11,7.933268141e-11,1.574562513e-11,5.053664424e-12,2.195359899e-11,3.815939583e-11,7.103316336e-11,6.992355672e-11,5.081270682e-11,3.692465875e-11,9.067563071e-11,4.848846413e-11,8.188180079e-12,2.049646464e-11,8.366166765e-11,6.178635318e-11,1.208060140e-12,4.113048511e-11,5.562944746e-11,4.739941640e-11,1.855984644e-10,1.813395461e-12,1.662751419e-11
0.40625,6.256226166e-11,3.491366046e-11,5.318371819e-11,1.727081562e-11,3.468434662e-12,1.354007226e-11,5.323539561e-11,2.880030592e-11,1.694821419e-12,1.703987894e-11,6.982009487e-11,1.385835400e-11,4.474324463e-12,1.968514660e-11,3.378696071e-11,6.296299088e-11,6.188070491e-11,4.515319410e-11,3.292575605e-11,8.037849301e-11,4.309333155e-11,7.270497904e-12,1.857456767e-11,7.413239041e-11,5.529141602e-11,1.193812642e-12,3.689264318e-11,4.927567604e-11,4.208568002e-11,1.663303575e-10,1.731052400e-12,1.470725136e-11
0.41406,5.531938107e-11,3.069241213e-11,4.677382817e-11,1.528244172e-11,3.134167626e-12,1.188274006e-11,4.695643022e-11,2.565867186e-11,1.506601895e-12,1.496998820e-11,6.131455035e-11,1.217436915e-11,3.955455335e-12,1.764641156e-11,2.986828663e-11,5.572665605e-11,5.467552130e-11,4.007336702e-11,2.933185618e-11,7.114499548e-11,3.825473556e-11,6.447408718e-12,1.682734229e-11,6.560263990e-11,4.944779672e-11,1.179466362e-12,3.308723233e-11,4.358341922e-11,3.732254863e-11,1.493018996e-10,1.660525626e-12,1.298276194e-11
0.42188,4.887736390e-11,2.692835241e-11,4.106791860e-11,1.350897075e-11,2.834299928e-12,1.040815945e-11,4.135455692e-11,2.282666224e-11,1.337539523e-12,1.312726283e-11,5.373339052e-11,1.067679577e-11,3.492355710e-12,1.581438620e-11,2.636484684e-11,4.925500739e-11,4.823755358e-11,3.552051656e-11,2.610359629e-11,6.288302166e-11,3.392145979e-11,5.710754097e-12,1.524048809e-11,5.797952873e-11,4.419818250e-11,1.165924195e-12,2.967566037e-11,3.849318862e-11,3.305966309e-11,1.343901062e-10,1.601093630e-12,1.143489228e-11
0.42969,4.315869964e-11,2.358013367e-11,3.599612625e-11,1.193378776e-11,2.565714154e-12,9.099352232e-12,3.636761304e-11,2.027921598e-11,1.186196336e-12,1.148878978e-11,4.698789033e-11,9.347214833e-12,3.080654954e-12,1.417323345e-11,2.323674342e-11,4.347473758e-11,4.249481661e-11,3.144749881e-11,2.321009062e-11,5.550142919e-11,3.004982251e-11,5.053084501e-12,1.380152755e-11,5.118131215e-11,3.949181766e-11,1.152452103e-12,2.662366314e-11,3.395851467e-11,2.925746077e-11,1.214262404e-10,1.551814669e-12,1.005061320e-11
0.4375,3.810971637e-11,2.061096415e-11,3.150549808e-11,1.053988875e-11,2.325850640e-12,7.942105290e-12,3.194757101e-11,1.799113793e-11,1.051243457e-12,1.003739190e-11,4.100939353e-11,8.171553045e-12,2.715002389e-12,1.270710284e-11,2.045520403e-11,3.833168242e-11,3.739137548e-11,2.781820938e-11,2.062662445e-11,4.892608496e-11,2.660149373e-11,4.468792743e-12,1.249757206e-11,4.513829907e-11,3.527481473e-11,1.138489332e-12,2.389229656e-11,2.993265577e-11,2.586488409e-11,1.102645939e-10,1.512613111e-12,8.818984449e-12
0.44531,3.364838816e-11,1.797490263e-11,2.752279752e-11,9.304593164e-12,2.111588013e-12,6.916965569e-12,2.802135897e-11,1.593984161e-11,9.306457806e-13,8.751092222e-12,3.570895453e-11,7.131749524e-12,2.390775506e-12,1.139190949e-11,1.798065557e-11,3.375343093e-11,3.285098634e-11,2.457821585e-11,1.831377644e-11,4.306209452e-11,2.352253926e-11,3.948774724e-12,1.131702371e-11,3.975271828e-11,3.149096545e-11,1.124852016e-12,2.144809833e-11,2.634123820e-11,2.282784464e-11,1.006950692e-10,1.482527757e-12,7.720532402e-12
0.45312,2.970295764e-11,1.564126312e-11,2.399489106e-11,8.216045468e-12,1.920771052e-12,6.010932956e-12,2.453796479e-11,1.410383102e-11,8.230113523e-13,7.612665712e-12,3.101800741e-11,6.214309406e-12,2.104143139e-12,1.021534959e-11,1.578201871e-11,2.968275658e-11,2.881668504e-11,2.169143797e-11,1.624713330e-11,3.784150209e-11,2.077921881e-11,3.486576000e-12,1.024991066e-11,3.496022876e-11,2.810698896e-11,1.111887590e-12,1.927109967e-11,2.314268010e-11,2.012269419e-11,9.256484723e-11,1.460981043e-12,6.743954406e-12
0.46094,2.624995704e-11,1.358782202e-11,2.089344176e-11,7.263936904e-12,1.751632770e-12,5.216759852e-12,2.147118510e-11,1.246318764e-11,7.275417519e-13,6.612697493e-12,2.689483017e-11,5.410913355e-12,1.851280671e-12,9.169390903e-12,1.384200814e-11,2.608702601e-11,2.525691855e-11,1.913636365e-11,1.441252991e-11,3.322361424e-11,1.835027062e-11,3.078681795e-12,9.286811804e-12,3.072112568e-11,2.509068344e-11,1.099372831e-12,1.733673820e-11,2.031519659e-11,1.772299258e-11,8.582898089e-11,1.447834334e-12,5.881864426e-12
0.46875,2.323565707e-11,1.177990095e-11,1.816436120e-11,6.429445569e-12,1.601255372e-12,4.519695221e-12,1.876761323e-11,1.100035776e-11,6.427923273e-13,5.733606388e-12,2.326584219e-11,4.705985406e-12,1.628949592e-12,8.237569704e-12,1.212817204e-11,2.290604779e-11,2.211083951e-11,1.686884208e-11,1.278020873e-11,2.913028296e-11,1.619500135e-11,2.717965763e-12,8.419744175e-12,2.696338435e-11,2.239892678e-11,1.087373530e-12,1.561735619e-11,1.780951752e-11,1.558528758e-11,8.031883576e-11,1.442055751e-12,5.119353907e-12
0.47656,2.060626812e-11,1.019132408e-11,1.576304348e-11,5.700635325e-12,1.467859684e-12,3.907200342e-12,1.638326942e-11,9.697588016e-12,5.676225319e-13,4.960032768e-12,2.007153849e-11,4.086626362e-12,1.433807870e-12,7.408331568e-12,1.061260854e-11,2.008884148e-11,1.932695900e-11,1.485490135e-11,1.132665932e-11,2.549842926e-11,1.428318683e-11,2.398752882e-12,7.639375173e-12,2.363400287e-11,2.000045733e-11,1.075906329e-12,1.409417127e-11,1.559093159e-11,1.368501973e-11,7.588938700e-11,1.442820029e-12,4.445377153e-12
0.48438,1.833652185e-11,8.803733105e-12,1.366369829e-11,5.070749016e-12,1.350522356e-12,3.373197777e-12,1.429414766e-11,8.538807351e-12,5.013314709e-13,4.284373276e-12,1.728087205e-11,3.546296296e-12,1.262305392e-12,6.673356611e-12,9.281891500e-12,1.761049572e-11,1.688037755e-11,1.307650464e-11,1.003790993e-11,2.229866222e-11,1.259701931e-11,2.118072369e-12,6.936276195e-12,2.070210662e-11,1.786887560e-11,1.065100493e-12,1.274946318e-11,1.363917177e-11,1.200796944e-11,7.254748749e-11,1.449502500e-12,3.852718074e-12
0.49219,1.638084466e-11,7.594670725e-12,1.182900688e-11,4.529096290e-12,1.247205582e-12,2.909402078e-12,1.246493627e-11,7.510184552e-12,4.428285020e-13,3.694886835e-12,1.484418428e-11,3.075561562e-12,1.111658262e-12,6.022363722e-12,8.114829105e-12,1.543025227e-11,1.473137026e-11,1.150663956e-11,8.895921414e-12,1.948120061e-11,1.111056774e-11,1.871081222e-12,6.304763585e-12,1.812055862e-11,1.597837069e-11,1.055446873e-12,1.156660271e-11,1.192314626e-11,1.053213208e-11,7.022409840e-11,1.461573216e-12,3.332609239e-12
0.5,1.469757979e-11,6.543993949e-12,1.022492100e-11,4.066432725e-12,1.156409719e-12,2.506952719e-12,1.086249838e-11,6.597279590e-12,3.911473004e-13,3.180013333e-12,1.271516476e-11,2.665226639e-12,9.794355026e-13,5.446464081e-12,7.091256725e-12,1.350991369e-11,1.284178586e-11,1.012047353e-11,7.884290662e-12,1.699759727e-11,9.800683851e-12,1.653173675e-12,5.737779526e-12,1.584685000e-11,1.430373260e-11,1.046976160e-12,1.052958992e-11,1.041691183e-11,9.236208879e-12,6.879593352e-11,1.478668106e-12,2.876955430e-12
0.50781,1.326401435e-11,5.632848910e-12,8.825791892e-12,3.675438572e-12,1.077429886e-12,2.159314861e-12,9.462326485e-12,5.787533793e-12,3.456049402e-13,2.732818764e-12,1.086504998e-11,2.309011033e-12,8.635419658e-13,4.936028991e-12,6.199405289e-12,1.182780584e-11,1.118808829e-11,8.898554854e-12,6.988156092e-12,1.481791351e-11,8.648167411e-12,1.461223736e-12,5.226360684e-12,1.384814634e-11,1.281635685e-11,1.039285290e-12,9.619324507e-12,9.098395599e-12,8.100793185e-12,6.822348736e-11,1.499909625e-12,2.477710451e-12
0.51562,1.205599648e-11,4.845603886e-12,7.607909617e-12,3.347715475e-12,1.009078485e-12,1.860187639e-12,8.241827340e-12,5.071146693e-12,3.055833608e-13,2.345812199e-12,9.263322628e-12,2.001068052e-12,7.624852886e-13,4.484787047e-12,5.425494816e-12,1.035851629e-11,9.745014808e-12,7.823545705e-12,6.195628921e-12,1.290991251e-11,7.636273947e-12,1.292498889e-12,4.765470961e-12,1.209572276e-11,1.149935115e-11,1.032724013e-12,8.823936495e-12,7.950187978e-12,7.110846052e-12,6.849675770e-11,1.525326874e-12,2.129227440e-12
0.52344,1.105138171e-11,4.169218792e-12,6.549703035e-12,3.076430316e-12,9.505508742e-13,1.603268483e-12,7.180777002e-12,4.437716040e-12,2.705687321e-13,2.011110729e-12,7.880210117e-12,1.735587402e-12,6.744489722e-13,4.088657225e-12,4.756562614e-12,9.078079440e-12,8.489755633e-12,6.881840193e-12,5.498014375e-12,1.124397652e-11,6.752570324e-12,1.144684120e-12,4.351000713e-12,1.056581934e-11,1.033902368e-11,1.028051124e-12,8.135414649e-12,6.957784772e-12,6.254827404e-12,6.957679384e-11,1.555385241e-12,1.826977021e-12
0.53125,1.022088153e-11,3.587678532e-12,5.627553175e-12,2.856386130e-12,9.012323816e-13,1.383634252e-12,6.256973506e-12,3.877593314e-12,2.399172837e-13,1.721730486e-12,6.686522155e-12,1.506202410e-12,5.974306191e-13,3.739169181e-12,4.180575020e-12,7.963898409e-12,7.399022434e-12,6.054800227e-12,4.881189172e-12,9.790269759e-12,5.979414169e-12,1.015097798e-12,3.977243997e-12,9.227425080e-12,9.311558649e-12,1.025318268e-12,7.539615742e-12,6.095738010e-12,5.516945519e-12,7.138173862e-11,1.588909064e-12,1.563748065e-12
0.53906,9.543375411e-12,3.090077877e-12,4.825045393e-12,2.681907646e-12,8.601138257e-13,1.197479633e-12,5.452823168e-12,3.383330824e-12,2.131875358e-13,1.472103811e-12,5.659208117e-12,1.308415423e-12,5.301766104e-13,3.430430418e-12,3.686938132e-12,6.996149828e-12,6.452537777e-12,5.327834526e-12,4.334489161e-12,8.522954475e-12,5.302167434e-12,9.014972519e-13,3.640112749e-12,8.056748483e-12,8.403112914e-12,1.024426884e-12,7.026354821e-12,5.348043036e-12,4.886394441e-12,7.387438885e-11,1.625233113e-12,1.334827745e-12
0.54688,8.409965932e-12,2.547797793e-12,3.911949165e-12,2.557424604e-12,8.036067632e-13,1.028719700e-12,4.623191092e-12,2.948263759e-12,1.778658801e-13,1.262199292e-12,4.845128078e-12,1.186962119e-12,4.663289603e-13,3.070947554e-12,3.370069669e-12,6.383694590e-12,5.811680686e-12,4.772951998e-12,3.936509022e-12,7.608267933e-12,4.783340497e-12,7.577917575e-13,3.342623057e-12,7.069303637e-12,7.590330908e-12,1.027608874e-12,6.669680703e-12,4.566865914e-12,4.335095946e-12,7.528851414e-11,1.670267082e-12,1.116370829e-12
0.55469,7.823183311e-12,2.157657509e-12,3.264989797e-12,2.469339300e-12,7.713182927e-13,9.026530608e-13,4.013943091e-12,2.570228135e-12,1.550914439e-13,1.094292361e-12,4.152853956e-12,1.066495482e-12,4.281818140e-13,2.831876467e-12,3.055296867e-12,5.766554011e-12,5.200328838e-12,4.271800490e-12,3.555505643e-12,6.750164819e-12,4.319975662e-12,6.612809188e-13,3.061550998e-12,6.263662831e-12,6.922610712e-12,1.030894368e-12,6.336588615e-12,4.028479079e-12,3.910387471e-12,7.865391543e-11,1.715587055e-12,9.508751968e-13
0.5625,7.699759654e-12,1.911508328e-12,2.814918038e-12,2.411747818e-12,7.599029846e-13,8.027102333e-13,3.542200890e-12,2.238459643e-12,1.430465571e-13,9.404441591e-13,3.513376310e-12,9.340337744e-13,3.976311268e-13,2.649043653e-12,2.743220275e-12,5.101022417e-12,4.557648751e-12,3.758122659e-12,3.146656779e-12,5.893802786e-12,3.851859353e-12,6.032813000e-13,2.798011158e-12,5.461383534e-12,6.274883168e-12,1.035114498e-12,5.993681907e-12,3.565277178e-12,3.545201345e-12,8.340605057e-11,1.756510181e-12,8.105071383e-13
0.57031,7.585333130e-12,1.678463006e-12,2.391791030e-12,2.377740569e-12,7.497098149e-13,7.190067795e-13,3.116457456e-12,1.945109435e-12,1.304760962e-13,8.111707766e-13,2.976086052e-12,8.255021158e-13,3.646419552e-13,2.480287654e-12,2.490817506e-12,4.557197782e-12,4.034293071e-12,3.334522510e-12,2.810961766e-12,5.171923358e-12,3.465320283e-12,5.446450537e-13,2.566939242e-12,4.804125359e-12,5.729899255e-12,1.041804816e-12,5.730620870e-12,3.186119395e-12,3.257863667e-12,8.861069143e-11,1.801942220e-12,6.891414339e-13
0.57812,7.547500901e-12,1.460685615e-12,2.010696858e-12,2.359575633e-12,7.423176198e-13,6.495905461e-13,2.739825489e-12,1.686651294e-12,1.187729051e-13,7.011588315e-13,2.507023083e-12,7.302765198e-13,3.321190654e-13,2.335213701e-12,2.267672317e-12,4.081731186e-12,3.583520679e-12,2.973115975e-12,2.524430780e-12,4.533491100e-12,3.135255963e-12,4.897742804e-13,2.361629619e-12,4.264725814e-12,5.270007365e-12,1.050273240e-12,5.517495084e-12,2.897390884e-12,3.028845516e-12,9.447225010e-11,1.851410390e-12,5.853128211e-13
0.58594,7.647411317e-12,1.321089867e-12,1.710945740e-12,2.379332485e-12,7.435213478e-13,6.000026412e-13,2.434239755e-12,1.458438588e-12,1.109093898e-13,6.071406681e-13,2.127070062e-12,6.484682137e-13,2.994561911e-13,2.201739495e-12,2.103309498e-12,3.681403180e-12,3.201561668e-12,2.653588229e-12,2.266750664e-12,4.000483929e-12,2.849048498e-12,4.484154330e-13,2.178031881e-12,3.768999541e-12,4.846831109e-12,1.060841199e-12,5.352097911e-12,2.625484922e-12,2.864258926e-12,1.007840754e-10,1.899690062e-12,4.963666178e-13
0.59375,7.825026947e-12,1.212729147e-12,1.454395076e-12,2.418190215e-12,7.492592745e-13,5.633988764e-13,2.172770893e-12,1.256288403e-12,1.045283429e-13,5.272794322e-13,1.810531888e-12,5.775373131e-13,2.671237706e-13,2.085891844e-12,1.976555739e-12,3.344905768e-12,2.880807209e-12,2.379478871e-12,2.044049043e-12,3.546746874e-12,2.605701005e-12,4.123913413e-13,2.016533585e-12,3.347347945e-12,4.485077378e-12,1.073148094e-12,5.229601202e-12,2.405101777e-12,2.754678487e-12,1.075701998e-10,1.949748533e-12,4.205182803e-13
0.60156,8.122547114e-12,1.123786829e-12,1.241115183e-12,2.461704053e-12,7.595030868e-13,5.347563951e-13,1.947713092e-12,1.077897955e-12,9.997171253e-14,4.566212128e-13,1.528467871e-12,5.092556206e-13,2.364376055e-13,1.995425171e-12,1.862738987e-12,3.034650951e-12,2.589322034e-12,2.132520864e-12,1.840952242e-12,3.130745414e-12,2.386870692e-12,3.828528759e-13,1.872793164e-12,2.989033018e-12,4.175506615e-12,1.086671591e-12,5.125605314e-12,2.254233607e-12,2.683336861e-12,1.150445176e-10,2.002152640e-12,3.562757194e-13
0.60938,8.696294124e-12,9.449743404e-13,8.677328819e-13,2.404323860e-12,7.869714938e-13,4.152820351e-13,1.542203032e-12,9.201827001e-13,9.882917992e-14,3.559608693e-13,1.202052100e-12,3.995979530e-13,2.077673367e-13,1.862252146e-12,1.811059626e-12,2.828827103e-12,2.383617165e-12,1.924839599e-12,1.643667783e-12,2.683033791e-12,2.132264043e-12,3.507704824e-13,1.748937435e-12,2.668578917e-12,3.883221135e-12,1.104320291e-12,4.977286447e-12,2.302544375e-12,2.764837870e-12,1.255070463e-10,2.050894671e-12,2.728642091e-13
0.61719,9.189492255e-12,9.210719898e-13,6.965986341e-13,2.475837578e-12,8.129006805e-13,3.846566016e-13,1.357881058e-12,7.745099627e-13,9.859999856e-14,3.046976323e-13,1.053577548e-12,3.412446247e-13,1.788640809e-13,1.787497784e-12,1.819629414e-12,2.707267231e-12,2.257316096e-12,1.771669022e-12,1.501563916e-12,2.435774140e-12,1.985165337e-12,3.335448956e-13,1.634984427e-12,2.427985994e-12,3.660817655e-12,1.121520108e-12,4.949622271e-12,2.252005938e-12,2.848658476e-12,1.344744002e-10,2.101049127e-12,2.273716491e-13
0.625,9.551983474e-12,9.298610457e-13,6.114358042e-13,2.592510848e-12,8.249970055e-13,4.070618897e-13,1.268160360e-12,6.494793847e-13,9.569166711e-14,2.735941208e-13,9.480691758e-13,3.149964983e-13,1.535797382e-13,1.751901135e-12,1.806631799e-12,2.565171885e-12,2.112108253e-12,1.612860858e-12,1.372480711e-12,2.243521702e-12,1.869427684e-12,3.168206096e-13,1.532297446e-12,2.195251743e-12,3.455591839e-12,1.136710639e-12,4.935372002e-12,2.134710369e-12,2.841981287e-12,1.422617896e-10,2.158552677e-12,1.995532719e-13
0.63281,9.969059369e-12,9.608758034e-13,5.324976359e-13,2.723034894e-12,8.466616938e-13,4.308009530e-13,1.189194951e-12,5.458040097e-13,9.519225750e-14,2.517060760e-13,8.890097216e-13,2.898763133e-13,1.353420045e-13,1.722437561e-12,1.840774401e-12,2.494704332e-12,2.028554505e-12,1.488229803e-12,1.262554390e-12,2.113504074e-12,1.777432250e-12,3.044429998e-13,1.442756665e-12,2.008712126e-12,3.289484646e-12,1.154157809e-12,4.951080273e-12,2.060059829e-12,2.919326324e-12,1.504768097e-10,2.212683224e-12,1.732468464e-13
0.64062,1.039860101e-11,1.023752953e-12,4.755782488e-13,2.881668722e-12,8.760486526e-13,4.669097341e-13,1.140631683e-12,4.611124360e-13,9.665741271e-14,2.422916631e-13,8.760969940e-13,2.686582279e-13,1.239078725e-13,1.704143236e-12,1.911899916e-12,2.479124849e-12,1.991614336e-12,1.388875755e-12,1.167565551e-12,2.043527012e-12,1.710421719e-12,2.960823961e-13,1.362208667e-12,1.858839228e-12,3.155753760e-12,1.173390996e-12,4.999965011e-12,1.995496496e-12,3.059195604e-12,1.587288210e-10,2.263611372e-12,1.495365401e-13
0.64844,1.078884658e-11,1.075348768e-12,4.225470514e-13,3.034559038e-12,8.997490262e-13,5.107105531e-13,1.097289568e-12,3.944531885e-13,9.730282374e-14,2.378263130e-13,8.773641964e-13,2.591242918e-13,1.185591082e-13,1.695554416e-12,1.985066989e-12,2.482939453e-12,1.970581637e-12,1.301029528e-12,1.084374185e-12,1.998226668e-12,1.654748616e-12,2.870941050e-13,1.289092939e-12,1.731106631e-12,3.035292888e-12,1.192023878e-12,5.037739179e-12,1.950922182e-12,3.187181749e-12,1.669017448e-10,2.317310220e-12,1.313593489e-13
0.65625,1.116114016e-11,1.135960050e-12,3.790451619e-13,3.197378064e-12,9.253344280e-13,5.631718790e-13,1.069195448e-12,3.434776561e-13,9.876853145e-14,2.401173160e-13,8.994810374e-13,2.549654957e-13,1.193214093e-13,1.694953343e-12,2.071685051e-12,2.514141142e-12,1.972967758e-12,1.229508912e-12,1.012516428e-12,1.983399934e-12,1.615050838e-12,2.798091350e-13,1.221984577e-12,1.631916280e-12,2.937588397e-12,1.211082904e-12,5.090687993e-12,1.919876067e-12,3.346988094e-12,1.750144079e-10,2.368181641e-12,1.159400074e-13
0.66406,1.151868400e-11,1.219214771e-12,3.612580358e-13,3.383356285e-12,9.545586633e-13,6.322654051e-13,1.074228555e-12,3.062336772e-13,1.015725535e-13,2.500462500e-13,9.371134548e-13,2.538166673e-13,1.248439066e-13,1.708801637e-12,2.160958775e-12,2.550227109e-12,1.980899645e-12,1.166023320e-12,9.472022623e-13,1.991356853e-12,1.591287751e-12,2.756143491e-13,1.159637044e-12,1.557219836e-12,2.863667174e-12,1.230653416e-12,5.169260589e-12,1.884819415e-12,3.534941398e-12,1.828816863e-10,2.414981124e-12,1.026758731e-13
0.67188,1.186767843e-11,1.292171648e-12,3.349424754e-13,3.559477985e-12,9.820344972e-13,7.003205554e-13,1.069071653e-12,2.804236137e-13,1.044251095e-13,2.597851976e-13,9.754399924e-13,2.565254557e-13,1.329212305e-13,1.721353641e-12,2.252805633e-12,2.601922872e-12,2.002506310e-12,1.116557071e-12,8.929182414e-13,2.004745854e-12,1.573481082e-12,2.714568060e-13,1.102840090e-12,1.502777099e-12,2.800316311e-12,1.249855990e-12,5.246724465e-12,1.876297669e-12,3.738875219e-12,1.908552531e-10,2.461252500e-12,9.102922152e-14
0.67969,1.166310721e-11,1.392286322e-12,3.613458765e-13,3.865374210e-12,1.002581589e-12,8.426253357e-13,1.250843761e-12,2.637684785e-13,1.011707888e-13,2.875146432e-13,9.008332270e-13,2.614010797e-13,1.426973808e-13,1.861159524e-12,2.175841240e-12,2.359387734e-12,1.798962347e-12,9.702042305e-13,8.143849611e-13,1.993917098e-12,1.609760294e-12,2.545004776e-13,1.050980235e-12,1.418346018e-12,2.819604733e-12,1.270118102e-12,5.458111400e-12,1.628136692e-12,3.767810493e-12,1.944983734e-10,2.493969813e-12,6.721009243e-14
0.6875,1.181177341e-11,1.477907980e-12,3.968300285e-13,4.079660259e-12,1.023507411e-12,9.525541852e-13,1.348922951e-12,2.651158744e-13,1.028211396e-13,3.094917770e-13,8.996725939e-13,2.757898103e-13,1.489895280e-13,1.918113172e-12,2.181566174e-12,2.280565506e-12,1.729412148e-12,9.065263351e-13,7.709436264e-13,1.998536124e-12,1.626907110e-12,2.511475939e-13,1.004721409e-12,1.399397391e-12,2.810020806e-12,1.288035046e-12,5.575482234e-12,1.583129863e-12,3.921718814e-12,2.006927255e-10,2.536010691e-12,6.191543165e-14
0.69531,1.225738511e-11,1.557486218e-12,3.649514734e-13,4.234308147e-12,1.059172520e-12,1.016347511e-12,1.312745647e-12,2.679285873e-13,1.097438576e-13,3.126490711e-13,9.412051334e-13,2.760321998e-13,1.524623391e-13,1.891136634e-12,2.293763278e-12,2.384627441e-12,1.801961172e-12,9.122764494e-13,7.499122254e-13,2.011629077e-12,1.621456611e-12,2.511061024e-13,9.692993003e-13,1.423712958e-12,2.791086787e-12,1.307900471e-12,5.675982123e-12,1.672929587e-12,4.264915767e-12,2.092130562e-10,2.573319020e-12,5.193123452e-14
0.70312,1.264987479e-11,1.628931030e-12,3.522778811e-13,4.385105253e-12,1.088233780e-12,1.084488678e-12,1.303970503e-12,2.645490003e-13,1.152588339e-13,3.126203526e-13,9.487437186e-13,2.763068949e-13,1.534707915e-13,1.898858106e-12,2.362101125e-12,2.425605331e-12,1.821385052e-12,8.974036289e-13,7.243634098e-13,1.990830218e-12,1.615923414e-12,2.515965013e-13,9.378977096e-13,1.436212193e-12,2.783442766e-12,1.326354272e-12,5.782308606e-12,1.739551817e-12,4.553565623e-12,2.172576749e-10,2.608950473e-12,4.537790530e-14
0.71094,1.301820833e-11,1.678027372e-12,3.531018773e-13,4.509084314e-12,1.107469430e-12,1.148447365e-12,1.303614678e-12,2.567604783e-13,1.191002753e-13,3.064543434e-13,9.215056645e-13,2.788507709e-13,1.510154931e-13,1.927178367e-12,2.388537096e-12,2.409443528e-12,1.790086005e-12,8.602075353e-13,6.912314867e-13,1.925979165e-12,1.597566971e-12,2.532299238e-13,9.110725171e-13,1.423622295e-12,2.767885441e-12,1.342449455e-12,5.864244350e-12,1.802211332e-12,4.773587320e-12,2.250941082e-10,2.645710233e-12,4.282798383e-14
0.71875,1.344333633e-11,1.754287180e-12,3.417744451e-13,4.644585576e-12,1.137977478e-12,1.207041373e-12,1.286978408e-12,2.432412830e-13,1.253075466e-13,2.964005665e-13,9.163210453e-13,2.728808874e-13,1.456104856e-13,1.948659902e-12,2.453664590e-12,2.451231251e-12,1.808584806e-12,8.499215556e-13,6.726006945e-13,1.887913564e-12,1.594925763e-12,2.550943465e-13,8.947418419e-13,1.453152150e-12,2.794575334e-12,1.359879407e-12,5.997959143e-12,1.885186420e-12,5.082048979e-12,2.331030447e-10,2.672998298e-12,3.636954826e-14
0.72656,1.388220715e-11,1.835271916e-12,3.351717351e-13,4.775319960e-12,1.168890921e-12,1.263035599e-12,1.269101702e-12,2.226726597e-13,1.318912201e-13,2.826911588e-13,9.073152709e-13,2.628329332e-13,1.379254676e-13,1.982269820e-12,2.518338189e-12,2.494736930e-12,1.824710977e-12,8.371331244e-13,6.528572246e-13,1.840510961e-12,1.588626183e-12,2.584618950e-13,8.815016232e-13,1.482974257e-12,2.829519541e-12,1.375562791e-12,6.130044574e-12,1.968457951e-12,5.385705760e-12,2.409843896e-10,2.697521175e-12,3.151282355e-14
0.73438,1.433573172e-11,1.891451159e-12,3.241362296e-13,4.867395852e-12,1.192242028e-12,1.303773436e-12,1.228376311e-12,1.963917953e-13,1.373475654e-13,2.629482254e-13,8.894600981e-13,2.539259666e-13,1.286358190e-13,2.019419715e-12,2.580536063e-12,2.545039841e-12,1.836962932e-12,8.171781192e-13,6.277894996e-13,1.768754556e-12,1.560966045e-12,2.632630698e-13,8.694220817e-13,1.484903169e-12,2.839333487e-12,1.388045594e-12,6.212052357e-12,2.067425574e-12,5.644356060e-12,2.489945693e-10,2.724825456e-12,3.071552306e-14
0.74219,1.475961405e-11,1.970630800e-12,3.165312774e-13,4.976735735e-12,1.220596620e-12,1.348941579e-12,1.199776323e-12,1.659942967e-13,1.432403220e-13,2.456302809e-13,8.918526182e-13,2.426755355e-13,1.197190844e-13,2.071671139e-12,2.663888730e-12,2.626426836e-12,1.876226575e-12,8.094570733e-13,6.114261231e-13,1.730436323e-12,1.551286289e-12,2.667811839e-13,8.640333638e-13,1.514925942e-12,2.886172018e-12,1.400643676e-12,6.329672754e-12,2.158732916e-12,5.932186398e-12,2.564728047e-10,2.745466326e-12,2.863138809e-14
0.75,1.515373983e-11,2.066303192e-12,3.202342125e-13,5.096864444e-12,1.250325110e-12,1.402271625e-12,1.187680643e-12,1.340646904e-13,1.494512489e-13,2.313783423e-13,9.063908514e-13,2.305174040e-13,1.122187629e-13,2.139101893e-12,2.755160093e-12,2.719405424e-12,1.923820121e-12,8.028138035e-13,5.961839133e-13,1.711886313e-12,1.550007642e-12,2.706320664e-13,8.610788131e-13,1.556995633e-12,2.951929994e-12,1.411995600e-12,6.454967628e-12,2.237623903e-12,6.217851794e-12,2.633065723e-10,2.761753323e-12,2.710638639e-14
0.75781,1.556168587e-11,2.149192462e-12,3.196708966e-13,5.190887257e-12,1.276833812e-12,1.447705800e-12,1.154042345e-12,1.028004602e-13,1.557982564e-13,2.166462800e-13,9.336935970e-13,2.191792310e-13,1.066112563e-13,2.197230263e-12,2.864487492e-12,2.849519862e-12,1.992931636e-12,7.998385038e-13,5.784379029e-13,1.695074660e-12,1.533477859e-12,2.766632623e-13,8.572904918e-13,1.584503806e-12,2.995112635e-12,1.420553462e-12,6.534143558e-12,2.329295349e-12,6.487704072e-12,2.700655116e-10,2.778495504e-12,2.786266111e-14
0.76562,1.708175171e-11,2.414077686e-12,4.970256942e-13,5.238347458e-12,1.326359459e-12,1.519861869e-12,1.017942454e-12,7.423573797e-14,1.784115253e-13,1.766695651e-13,1.037322523e-12,1.648784912e-13,1.051355570e-13,2.113499487e-12,3.074787243e-12,3.097120468e-12,2.136513936e-12,7.501169305e-13,4.806431722e-13,1.601536571e-12,1.372778773e-12,3.228886566e-13,8.334987647e-13,1.582278349e-12,2.870816569e-12,1.425428013e-12,6.457618358e-12,2.726389236e-12,7.132416591e-12,2.819442082e-10,2.795506971e-12,4.622343012e-14
0.77344,1.781245059e-11,2.614418127e-12,6.037601462e-13,5.363866646e-12,1.365374069e-12,1.608123814e-12,1.009964307e-12,5.341062197e-14,1.892326242e-13,1.708577194e-13,1.164016251e-12,1.471790132e-13,1.035622840e-13,2.168683876e-12,3.249418214e-12,3.320217556e-12,2.290766233e-12,7.677246724e-13,4.673499660e-13,1.662865396e-12,1.369663381e-12,3.384558712e-13,8.389309101e-13,1.701062957e-12,2.950552799e-12,1.431480926e-12,6.550503309e-12,2.930661511e-12,7.545517495e-12,2.889557734e-10,2.802674649e-12,5.290322469e-14
0.78125,1.784284789e-11,2.652051874e-12,5.747120026e-13,5.460967267e-12,1.380222087e-12,1.663294354e-12,1.022371024e-12,4.056470101e-14,1.906187728e-13,1.726093721e-13,1.189002682e-12,1.451342546e-13,1.059830337e-13,2.287127462e-12,3.327998472e-12,3.426937112e-12,2.333798214e-12,7.602280566e-13,4.610544770e-13,1.694928856e-12,1.381929784e-12,3.358361704e-13,8.381205233e-13,1.719059765e-12,3.017851520e-12,1.434011555e-12,6.603640247e-12,2.903231978e-12,7.635321488e-12,2.923546205e-10,2.812340809e-12,4.760853371e-14
0.78906,1.800206903e-11,2.752498955e-12,5.965118815e-13,5.572703823e-12,1.403149404e-12,1.741498736e-12,1.044198571e-12,3.420403976e-14,1.958615587e-13,1.791114554e-13,1.255770513e-12,1.416909858e-13,1.116586186e-13,2.370655353e-12,3.429774494e-12,3.568035705e-12,2.417328435e-12,7.674966426e-13,4.554367782e-13,1.760702343e-12,1.398976543e-12,3.386057254e-13,8.285756972e-13,1.795412723e-12,3.094802404e-12,1.435351716e-12,6.658148480e-12,2.946428900e-12,7.837507478e-12,2.955302243e-10,2.817363692e-12,4.718177549e-14
0.79688,1.815378117e-11,2.896882018e-12,6.521938300e-13,5.708331676e-12,1.429522686e-12,1.845106829e-12,1.088112650e-12,3.628367221e-14,2.017199595e-13,1.932413295e-13,1.355253867e-12,1.436924773e-13,1.192944257e-13,2.439083500e-12,3.539146110e-12,3.720601723e-12,2.529821426e-12,7.931440145e-13,4.607808289e-13,1.872966244e-12,1.442649232e-12,3.394170062e-13,8.134358905e-13,1.940416952e-12,3.204776303e-12,1.434976557e-12,6.734744146e-12,3.032401575e-12,8.097874950e-12,2.977258340e-10,2.816553546e-12,4.780145787e-14
0.80469,1.814187281e-11,2.980218722e-12,6.766403701e-13,5.804926444e-12,1.444098937e-12,1.935269459e-12,1.129493917e-12,4.638606344e-14,2.063585704e-13,2.055070735e-13,1.397482856e-12,1.460200554e-13,1.288554153e-13,2.502581093e-12,3.594320072e-12,3.800331816e-12,2.568885161e-12,7.886058324e-13,4.506513936e-13,1.930163600e-12,1.456166645e-12,3.425562743e-13,7.869111354e-13,2.008860803e-12,3.254359181e-12,1.430474268e-12,6.736884471e-12,3.054355610e-12,8.243405304e-12,2.988095983e-10,2.816853242e-12,4.869186614e-14
0.8125,1.808235003e-11,3.072346413e-12,7.091297136e-13,5.898054664e-12,1.458186560e-12,2.030984002e-12,1.182023829e-12,6.159252428e-14,2.117763616e-13,2.185858396e-13,1.429653660e-12,1.487996741e-13,1.378398506e-13,2.549697092e-12,3.626801803e-12,3.849345133e-12,2.590542902e-12,7.841506937e-13,4.417858617e-13,1.982896509e-12,1.474278741e-12,3.461924291e-13,7.597086199e-13,2.094845639e-12,3.314800385e-12,1.425100919e-12,6.743611163e-12,3.081961777e-12,8.402585730e-12,2.989515937e-10,2.812249235e-12,4.928057368e-14
0.82031,1.794311221e-11,3.172583887e-12,7.453390365e-13,5.996101177e-12,1.471387636e-12,2.132196090e-12,1.243550998e-12,8.110428563e-14,2.163928086e-13,2.341635020e-13,1.465059796e-12,1.581979960e-13,1.452703557e-13,2.583637534e-12,3.643577676e-12,3.881322325e-12,2.616620395e-12,7.960880868e-13,4.467951676e-13,2.055774221e-12,1.517884509e-12,3.447859943e-13,7.343488751e-13,2.230836516e-12,3.413282739e-12,1.418832981e-12,6.778696386e-12,3.128597346e-12,8.579073383e-12,2.978933042e-10,2.801778486e-12,4.829913390e-14
0.82812,1.779420148e-11,3.243635411e-12,7.748151002e-13,6.060022606e-12,1.477856351e-12,2.220389369e-12,1.292507514e-12,1.031406189e-13,2.215644442e-13,2.433062873e-13,1.457500791e-12,1.645793802e-13,1.518825902e-13,2.600067434e-12,3.619284602e-12,3.855634981e-12,2.588164509e-12,7.849517064e-13,4.382326573e-13,2.074750927e-12,1.532725592e-12,3.478087852e-13,7.045218995e-13,2.319760427e-12,3.469994890e-12,1.409298547e-12,6.763953907e-12,3.165628168e-12,8.714469104e-12,2.963481445e-10,2.789793404e-12,4.931675405e-14
0.83594,1.762324306e-11,3.313290979e-12,8.064076933e-13,6.108537590e-12,1.481740247e-12,2.304080225e-12,1.341174492e-12,1.247504700e-13,2.272615358e-13,2.485376075e-13,1.427989835e-12,1.698104346e-13,1.561497452e-13,2.603630354e-12,3.568638261e-12,3.791890913e-12,2.530865771e-12,7.661146659e-13,4.271626838e-13,2.069224606e-12,1.541790805e-12,3.520314125e-13,6.789903509e-13,2.403973769e-12,3.528949279e-12,1.398445936e-12,6.748185607e-12,3.206366117e-12,8.849175257e-12,2.941206763e-10,2.773409485e-12,5.022471311e-14
0.84375,1.734363088e-11,3.367503818e-12,8.229266455e-13,6.142255207e-12,1.481965914e-12,2.378134604e-12,1.386393900e-12,1.444371266e-13,2.317382871e-13,2.522810811e-13,1.388459350e-12,1.803218017e-13,1.581501502e-13,2.602153616e-12,3.501634157e-12,3.712459226e-12,2.469080334e-12,7.569836636e-13,4.256034424e-13,2.061516269e-12,1.563191459e-12,3.513612584e-13,6.612795960e-13,2.503931954e-12,3.613648597e-12,1.386879330e-12,6.751020789e-12,3.242474382e-12,8.963248831e-12,2.908334255e-10,2.752863075e-12,4.835509333e-14
0.85156,1.709343162e-11,3.410031224e-12,8.388449314e-13,6.147755160e-12,1.478582065e-12,2.438177721e-12,1.416363588e-12,1.605854382e-13,2.369149513e-13,2.495599257e-13,1.326261268e-12,1.878633128e-13,1.595084950e-13,2.590556172e-12,3.417289252e-12,3.609436821e-12,2.383754653e-12,7.372345958e-13,4.170365201e-13,2.019449594e-12,1.566415801e-12,3.535181953e-13,6.482994206e-13,2.581825932e-12,3.684701857e-12,1.373828029e-12,6.735132152e-12,3.293008143e-12,9.068623109e-12,2.872864821e-10,2.729942753e-12,4.780353071e-14
0.85938,1.687072525e-11,3.457494960e-12,8.604589101e-13,6.139730011e-12,1.473010696e-12,2.490270980e-12,1.438528402e-12,1.719136698e-13,2.423808159e-13,2.427344630e-13,1.254752525e-12,1.938045461e-13,1.598451008e-13,2.573508997e-12,3.324145692e-12,3.493467833e-12,2.288668505e-12,7.142234036e-13,4.081410122e-13,1.964138493e-12,1.565646090e-12,3.567739325e-13,6.448601682e-13,2.658080214e-12,3.764577257e-12,1.360199166e-12,6.725449086e-12,3.363706669e-12,9.185512459e-12,2.833425770e-10,2.703393668e-12,4.803678350e-14
0.86719,1.657133324e-11,3.482650115e-12,8.634419648e-13,6.111804842e-12,1.462910455e-12,2.526598848e-12,1.450451724e-12,1.780930753e-13,2.467600909e-13,2.335780201e-13,1.175455616e-12,2.026727719e-13,1.594523625e-13,2.557287435e-12,3.222451676e-12,3.374505492e-12,2.190158716e-12,6.945089741e-13,4.033801478e-13,1.899980986e-12,1.565730885e-12,3.573959843e-13,6.516233058e-13,2.723110929e-12,3.853001850e-12,1.345840413e-12,6.718827361e-12,3.415053594e-12,9.264404684e-12,2.785550186e-10,2.674598434e-12,4.615192183e-14
0.875,1.630479218e-11,3.505333756e-12,8.654921633e-13,6.064165156e-12,1.451073494e-12,2.550226015e-12,1.448903933e-12,1.785520446e-13,2.514778829e-13,2.202488494e-13,1.091927119e-12,2.089940399e-13,1.592026984e-13,2.536912738e-12,3.119959184e-12,3.258549837e-12,2.090126498e-12,6.719163561e-13,3.959895084e-13,1.821997877e-12,1.556348292e-12,3.595412966e-13,6.673256757e-13,2.778103713e-12,3.941140348e-12,1.331033441e-12,6.707902808e-12,3.476555134e-12,9.340850839e-12,2.734796620e-10,2.644227653e-12,4.451250862e-14
0.88281,1.608166571e-11,3.539393566e-12,8.762850000e-13,6.007309246e-12,1.438175058e-12,2.567236248e-12,1.437941921e-12,1.735882701e-13,2.559986020e-13,2.048080095e-13,1.012925059e-12,2.133669288e-13,1.588722375e-13,2.514871777e-12,3.020789813e-12,3.149431870e-12,1.997322476e-12,6.510643365e-13,3.905629828e-13,1.747084509e-12,1.548245068e-12,3.617867450e-13,6.932586926e-13,2.842924503e-12,4.044259902e-12,1.316424812e-12,6.707734163e-12,3.564777974e-12,9.433197994e-12,2.681320916e-10,2.612409410e-12,4.366957671e-14
0.89062,1.581812719e-11,3.553123897e-12,8.758359668e-13,5.931886726e-12,1.421343224e-12,2.570712558e-12,1.418059257e-12,1.641366520e-13,2.596307578e-13,1.883801905e-13,9.308568845e-13,2.181190117e-13,1.587193925e-13,2.494663155e-12,2.916498651e-12,3.040912974e-12,1.901148321e-12,6.279636711e-13,3.845230903e-13,1.664078074e-12,1.534458684e-12,3.630744179e-13,7.266188564e-13,2.886373020e-12,4.140829931e-12,1.301122419e-12,6.697598031e-12,3.634701388e-12,9.483372378e-12,2.622210110e-10,2.580703735e-12,4.197743932e-14
0.89844,1.557380860e-11,3.566334414e-12,8.755614886e-13,5.847038292e-12,1.403696982e-12,2.566734025e-12,1.393102640e-12,1.508885742e-13,2.631834387e-13,1.714340226e-13,8.554211879e-13,2.211180279e-13,1.588569509e-13,2.472736466e-12,2.817259779e-12,2.942807554e-12,1.812253244e-12,6.054384823e-13,3.784128855e-13,1.583017526e-12,1.517650729e-12,3.645101787e-13,7.670368160e-13,2.923969491e-12,4.236694268e-12,1.285715626e-12,6.686499918e-12,3.709549577e-12,9.528093893e-12,2.559833321e-10,2.548074273e-12,4.004116857e-14
0.90625,1.536628154e-11,3.592256171e-12,8.839953225e-13,5.759974550e-12,1.385247338e-12,2.561005118e-12,1.364023524e-12,1.352800691e-13,2.660463226e-13,1.549303522e-13,7.917841366e-13,2.224488168e-13,1.589279885e-13,2.449993616e-12,2.725868549e-12,2.857260376e-12,1.737840426e-12,5.885033420e-13,3.763611895e-13,1.516641663e-12,1.507875391e-12,3.646325483e-13,8.142805607e-13,2.980052983e-12,4.347898055e-12,1.270871450e-12,6.685792171e-12,3.812728469e-12,9.587088626e-12,2.494520573e-10,2.514607267e-12,3.813596343e-14
0.91406,1.516026031e-11,3.609942495e-12,8.922309362e-13,5.661068457e-12,1.363088024e-12,2.549636440e-12,1.331167771e-12,1.186754588e-13,2.679584171e-13,1.386542724e-13,7.284128639e-13,2.219805475e-13,1.588921729e-13,2.425637948e-12,2.631539067e-12,2.769916912e-12,1.659763680e-12,5.678842961e-13,3.721321778e-13,1.445993894e-12,1.492871300e-12,3.649605688e-13,8.634978128e-13,3.022602499e-12,4.446250377e-12,1.255395201e-12,6.668273160e-12,3.913189310e-12,9.617322934e-12,2.425881540e-10,2.481840629e-12,3.644157839e-14
0.92188,1.496529930e-11,3.631895458e-12,9.047624679e-13,5.561485369e-12,1.339842189e-12,2.537790546e-12,1.300493628e-12,1.020129424e-13,2.691904456e-13,1.241708787e-13,6.740044912e-13,2.200909670e-13,1.583965362e-13,2.397401489e-12,2.541001744e-12,2.686832117e-12,1.587744426e-12,5.491259548e-13,3.693594969e-13,1.385397975e-12,1.479791026e-12,3.652084180e-13,9.135638778e-13,3.065469859e-12,4.539440895e-12,1.239517731e-12,6.647580987e-12,4.018241751e-12,9.643643040e-12,2.354512287e-10,2.448552483e-12,3.502139238e-14
0.92969,1.477055996e-11,3.658952897e-12,9.200555262e-13,5.462735061e-12,1.315993340e-12,2.525915964e-12,1.270216764e-12,8.660190096e-14,2.693875398e-13,1.117444249e-13,6.304570626e-13,2.180825580e-13,1.572399971e-13,2.365372544e-12,2.453832727e-12,2.609575289e-12,1.527035207e-12,5.368745624e-13,3.710123054e-13,1.342121875e-12,1.475228830e-12,3.634614559e-13,9.631313838e-13,3.125426817e-12,4.640259552e-12,1.223560395e-12,6.632392178e-12,4.139494436e-12,9.673139303e-12,2.280135199e-10,2.414879917e-12,3.291933371e-14
0.9375,1.458630325e-11,3.682007870e-12,9.372585082e-13,5.356317227e-12,1.289929274e-12,2.510859477e-12,1.238482563e-12,7.323514146e-14,2.689136440e-13,9.989121491e-14,5.866668693e-13,2.143585834e-13,1.554714731e-13,2.325084881e-12,2.360596979e-12,2.523923338e-12,1.460571765e-12,5.208906884e-13,3.699007205e-13,1.296339657e-12,1.466221388e-12,3.621126904e-13,1.007589590e-12,3.180485525e-12,4.726143123e-12,1.206513518e-12,6.600185358e-12,4.269444583e-12,9.686651952e-12,2.204319720e-10,2.381934483e-12,3.113549354e-14
0.94531,1.441423537e-11,3.711743248e-12,9.610538412e-13,5.252734114e-12,1.262657954e-12,2.497114264e-12,1.210905174e-12,6.241939837e-14,2.677903150e-13,8.974533858e-14,5.457210493e-13,2.092254787e-13,1.529237077e-13,2.277122377e-12,2.264154957e-12,2.429947906e-12,1.392388154e-12,5.041327152e-13,3.689947994e-13,1.258248701e-12,1.459587114e-12,3.606700326e-13,1.046254511e-12,3.240465198e-12,4.803581742e-12,1.188792018e-12,6.562203834e-12,4.411379163e-12,9.700998020e-12,2.127170615e-10,2.349025706e-12,3.020035453e-14
0.95312,1.421671324e-11,3.739051344e-12,9.820254002e-13,5.150676474e-12,1.233912612e-12,2.482222953e-12,1.186338335e-12,5.486223899e-14,2.655909799e-13,8.181558944e-14,5.102723533e-13,2.052645308e-13,1.499206650e-13,2.224161082e-12,2.167831195e-12,2.336391436e-12,1.331113889e-12,4.921602247e-13,3.711752995e-13,1.234242417e-12,1.460088075e-12,3.572933397e-13,1.078941078e-12,3.308065143e-12,4.877942928e-12,1.171114263e-12,6.523340591e-12,4.553357415e-12,9.708591506e-12,2.047474336e-10,2.316388175e-12,2.861954363e-14
0.96094,1.402127734e-11,3.763923581e-12,1.002099337e-12,5.045372893e-12,1.203922902e-12,2.464249271e-12,1.161668472e-12,5.058192423e-14,2.629030301e-13,7.491703440e-14,4.780543480e-13,2.011084595e-13,1.469767036e-13,2.162191965e-12,2.073141607e-12,2.244155504e-12,1.274163970e-12,4.816892342e-13,3.731596443e-13,1.216901242e-12,1.460412727e-12,3.541827234e-13,1.103959784e-12,3.372981835e-12,4.937732459e-12,1.153089994e-12,6.472825348e-12,4.697576620e-12,9.712216542e-12,1.967414796e-10,2.284129235e-12,2.731816596e-14
0.96875,1.384083609e-11,3.797359054e-12,1.028267784e-12,4.943330378e-12,1.173416031e-12,2.446778371e-12,1.138663803e-12,4.931847882e-14,2.598840880e-13,6.890422433e-14,4.463965121e-13,1.958681381e-13,1.443091257e-13,2.094097804e-12,1.978596188e-12,2.146532626e-12,1.217663716e-12,4.716033885e-13,3.756137750e-13,1.208392678e-12,1.463459175e-12,3.514078243e-13,1.121490414e-12,3.443620605e-12,4.989963972e-12,1.134651043e-12,6.417144650e-12,4.855368016e-12,9.724851142e-12,1.887523979e-10,2.252058846e-12,2.707518275e-14
0.97656,1.362694801e-11,3.824414591e-12,1.048920100e-12,4.840772802e-12,1.141398657e-12,2.425849675e-12,1.116839431e-12,5.078450405e-14,2.561025158e-13,6.412576578e-14,4.147850246e-13,1.921874249e-13,1.421344882e-13,2.022726087e-12,1.882137521e-12,2.044377947e-12,1.161096707e-12,4.621872616e-13,3.786270889e-13,1.205856632e-12,1.468880501e-12,3.478129296e-13,1.131737595e-12,3.511233326e-12,5.032034853e-12,1.116072223e-12,6.355188302e-12,5.004194096e-12,9.725538361e-12,1.806110237e-10,2.220956853e-12,2.659836454e-14
0.98438,1.340217883e-11,3.847349637e-12,1.065849504e-12,4.736997476e-12,1.108961934e-12,2.399743579e-12,1.094476399e-12,5.426850382e-14,2.519589680e-13,6.056808232e-14,3.876355031e-13,1.894143356e-13,1.405440592e-13,1.943631840e-12,1.788655965e-12,1.945098860e-12,1.109786607e-12,4.546964120e-13,3.822801227e-13,1.210995641e-12,1.475705579e-12,3.444094249e-13,1.135787718e-12,3.575156051e-12,5.062516699e-12,1.097803232e-12,6.288731295e-12,5.145959266e-12,9.727955883e-12,1.724689637e-10,2.190450247e-12,2.629485049e-14
0.99219,1.319412927e-11,3.874829276e-12,1.085546001e-12,4.632677265e-12,1.076843188e-12,2.369292236e-12,1.069434330e-12,5.916782577e-14,2.477224412e-13,5.735245055e-14,3.611272352e-13,1.859874036e-13,1.397982927e-13,1.858743556e-12,1.697398138e-12,1.846440107e-12,1.061852905e-12,4.486706022e-13,3.867051094e-13,1.223123914e-12,1.484948236e-12,3.411983907e-13,1.135714321e-12,3.644343704e-12,5.090007778e-12,1.080307143e-12,6.222459150e-12,5.297331814e-12,9.745913402e-12,1.644515652e-10,2.160815836e-12,2.654680030e-14
1,1.296280549e-11,3.891948388e-12,1.098113500e-12,4.522642387e-12,1.043600581e-12,2.331645211e-12,1.041519927e-12,6.484564214e-14,2.430920966e-13,5.400780782e-14,3.315503729e-13,1.837351011e-13,1.403266022e-13,1.772445962e-12,1.605324794e-12,1.747072872e-12,1.012768431e-12,4.420061762e-13,3.900925774e-13,1.233172529e-12,1.491633773e-12,3.379253002e-13,1.132077282e-12,3.701771506e-12,5.105421366e-12,1.063658593e-12,6.149278319e-12,5.433138985e-12,9.751389044e-12,1.564452344e-10,2.133295872e-12,2.693676825e-14
1.0078,1.270980101e-11,3.903294351e-12,1.106275005e-12,4.414154715e-12,1.010278938e-12,2.289924700e-12,1.014311749e-12,7.054385579e-14,2.381203101e-13,5.120434376e-14,3.039202838e-13,1.822880625e-13,1.418246782e-13,1.686712423e-12,1.516374889e-12,1.650940677e-12,9.656725108e-13,4.358201765e-13,3.931986445e-13,1.244667346e-12,1.497517774e-12,3.345763039e-13,1.126060723e-12,3.747883979e-12,5.111994439e-12,1.048011806e-12,6.076922849e-12,5.547154496e-12,9.751616694e-12,1.484551706e-10,2.106864080e-12,2.783823569e-14
1.0156,1.246217205e-11,3.917315494e-12,1.115063460e-12,4.308493031e-12,9.778462172e-13,2.244793896e-12,9.854782689e-13,7.589155687e-14,2.329207685e-13,4.871781712e-14,2.786691549e-13,1.803954462e-13,1.435541304e-13,1.601630151e-12,1.431903022e-12,1.558968884e-12,9.211108981e-13,4.301990082e-13,3.963589118e-13,1.258228480e-12,1.504247860e-12,3.305538343e-13,1.119368355e-12,3.793724333e-12,5.119419126e-12,1.033119496e-12,6.009653769e-12,5.657344751e-12,9.760493527e-12,1.405801923e-10,2.080663888e-12,2.875883991e-14
1.0234,1.221153832e-11,3.924590702e-12,1.119313951e-12,4.197791711e-12,9.450717793e-13,2.192647893e-12,9.526930718e-13,8.042321218e-14,2.274183281e-13,4.605706084e-14,2.537368374e-13,1.787622849e-13,1.453285123e-13,1.515052983e-12,1.349083733e-12,1.468215269e-12,8.751578674e-13,4.230008623e-13,3.981592065e-13,1.266354071e-12,1.507096156e-12,3.266440050e-13,1.112722312e-12,3.827850211e-12,5.117108655e-12,1.018268529e-12,5.935698677e-12,5.754989133e-12,9.760231721e-12,1.328553943e-10,2.055113963e-12,2.978391164e-14
1.0312,1.195448670e-11,3.928030532e-12,1.122847094e-12,4.087379190e-12,9.121138634e-13,2.137339681e-12,9.210952867e-13,8.363212098e-14,2.215850721e-13,4.358207152e-14,2.285572592e-13,1.768478767e-13,1.471376621e-13,1.430525033e-12,1.265382762e-12,1.373133488e-12,8.249696408e-13,4.138926494e-13,3.993503614e-13,1.270212219e-12,1.508489544e-12,3.230775867e-13,1.107333811e-12,3.852173323e-12,5.108697506e-12,1.003422358e-12,5.860462535e-12,5.839097167e-12,9.750820152e-12,1.252710539e-10,2.029635353e-12,3.151332319e-14
1.0391,1.169430996e-11,3.930264207e-12,1.125291450e-12,3.979901309e-12,8.797630214e-13,2.080116202e-12,8.900075493e-13,8.556951486e-14,2.153901510e-13,4.139668970e-14,2.045082864e-13,1.748167552e-13,1.486520173e-13,1.349844951e-12,1.183350272e-12,1.279428914e-12,7.750710660e-13,4.049481528e-13,4.008254181e-13,1.272244359e-12,1.509870896e-12,3.187385165e-13,1.103152551e-12,3.872990968e-12,5.100864493e-12,9.886658785e-13,5.790194508e-12,5.918030782e-12,9.740061723e-12,1.178447170e-10,2.003921070e-12,3.297452218e-14
1.0469,1.144099578e-11,3.928822992e-12,1.124608175e-12,3.871686542e-12,8.479934520e-13,2.018990746e-12,8.564541395e-13,8.636246271e-14,2.089759841e-13,3.923559659e-14,1.834354635e-13,1.729967225e-13,1.497127793e-13,1.269611405e-12,1.107170312e-12,1.193517024e-12,7.292952762e-13,3.967778960e-13,4.018298698e-13,1.271321354e-12,1.507213704e-12,3.140486346e-13,1.098717848e-12,3.882528845e-12,5.083592060e-12,9.737617809e-13,5.716845789e-12,5.987268303e-12,9.726081963e-12,1.106912477e-10,1.978402582e-12,3.437173403e-14
1.0547,1.120421631e-11,3.928130690e-12,1.126990293e-12,3.764259767e-12,8.166581607e-13,1.956283005e-12,8.234688849e-13,8.599340141e-14,2.023166450e-13,3.696049790e-14,1.621151227e-13,1.706768321e-13,1.503316310e-13,1.193243870e-12,1.034383340e-12,1.108157316e-12,6.820794563e-13,3.873582861e-13,4.018209553e-13,1.266017779e-12,1.501640767e-12,3.089039208e-13,1.094222987e-12,3.884047664e-12,5.060401726e-12,9.590434628e-13,5.641057470e-12,6.052732188e-12,9.710604661e-12,1.038733043e-10,1.953438581e-12,3.630594674e-14
1.0625,1.096362536e-11,3.923782488e-12,1.128550710e-12,3.658414435e-12,7.857227561e-13,1.892517959e-12,7.913926650e-13,8.466844250e-14,1.950745876e-13,3.477429619e-14,1.416519771e-13,1.688025362e-13,1.503157810e-13,1.123372918e-12,9.639380675e-13,1.023902611e-12,6.345601531e-13,3.771174320e-13,4.012298838e-13,1.257568289e-12,1.495264780e-12,3.023779396e-13,1.089757209e-12,3.881060181e-12,5.036299053e-12,9.448663863e-13,5.567476776e-12,6.114267073e-12,9.691446501e-12,9.731764041e-11,1.929366681e-12,3.785297011e-14
1.0703,1.072379764e-11,3.916740556e-12,1.129328127e-12,3.556623155e-12,7.557409941e-13,1.829160817e-12,7.598747176e-13,8.274744964e-14,1.873628972e-13,3.288763821e-14,1.256819719e-13,1.666770315e-13,1.495399686e-13,1.056843640e-12,8.990744138e-13,9.451293865e-13,5.915447533e-13,3.673471961e-13,4.004620116e-13,1.250461599e-12,1.487937690e-12,2.954135134e-13,1.084307994e-12,3.872046968e-12,5.006307173e-12,9.308185126e-13,5.494743900e-12,6.167396630e-12,9.670120928e-12,9.106372813e-11,1.905495030e-12,3.927454188e-14
1.0781,1.050560805e-11,3.914382053e-12,1.135255592e-12,3.459103160e-12,7.266234121e-13,1.767216212e-12,7.292785780e-13,8.053218009e-14,1.793596797e-13,3.115960625e-14,1.114928813e-13,1.631680709e-13,1.482303686e-13,9.928942313e-13,8.408039335e-13,8.703541108e-13,5.518098888e-13,3.583021572e-13,4.000532127e-13,1.245888214e-12,1.479958798e-12,2.882318092e-13,1.077216817e-12,3.860695808e-12,4.971548937e-12,9.162821501e-13,5.419225415e-12,6.223476168e-12,9.647145627e-12,8.522446425e-11,1.880885945e-12,4.092264310e-14
1.0859,1.028149195e-11,3.906778930e-12,1.138367423e-12,3.361366882e-12,6.975180907e-13,1.703891628e-12,6.982916885e-13,7.819762364e-14,1.708598948e-13,2.956658740e-14,9.905590787e-14,1.599984998e-13,1.468523616e-13,9.326559417e-13,7.882765267e-13,8.013479340e-13,5.163658716e-13,3.505165918e-13,3.998028442e-13,1.242508437e-12,1.469882138e-12,2.800264461e-13,1.067001575e-12,3.841100732e-12,4.927356883e-12,9.008430331e-13,5.334947045e-12,6.271438726e-12,9.607307723e-12,7.972292378e-11,1.855636243e-12,4.220407695e-14
1.0938,1.004985908e-11,3.893519669e-12,1.139493462e-12,3.266049014e-12,6.689335034e-13,1.641208978e-12,6.689777745e-13,7.594192257e-14,1.620596165e-13,2.829005160e-14,8.971868678e-14,1.569851883e-13,1.456646983e-13,8.773246839e-13,7.404807588e-13,7.366828269e-13,4.843315097e-13,3.427254070e-13,3.984445898e-13,1.240844242e-12,1.457553306e-12,2.712709517e-13,1.052982175e-12,3.811172761e-12,4.871598804e-12,8.846065623e-13,5.243197690e-12,6.298997461e-12,9.552271067e-12,7.451613366e-11,1.829928235e-12,4.343141037e-14
1.1016,9.840936548e-12,3.885221788e-12,1.145483033e-12,3.174860553e-12,6.414676819e-13,1.580059926e-12,6.396894382e-13,7.396819852e-14,1.533718037e-13,2.729486807e-14,8.227239979e-14,1.534640903e-13,1.447184388e-13,8.253275093e-13,6.996521888e-13,6.786539302e-13,4.560637487e-13,3.355437803e-13,3.967339523e-13,1.242298914e-12,1.444708389e-12,2.623356201e-13,1.036496567e-12,3.778863787e-12,4.812400121e-12,8.681683353e-13,5.150596585e-12,6.321605999e-12,9.497851155e-12,6.971978491e-11,1.804188169e-12,4.458051312e-14
1.1094,9.637255471e-12,3.874228344e-12,1.149499049e-12,3.083763243e-12,6.145062524e-13,1.517541971e-12,6.072973839e-13,7.218502154e-14,1.447113381e-13,2.642084747e-14,7.704247700e-14,1.507124338e-13,1.443224172e-13,7.750260953e-13,6.668782841e-13,6.313149055e-13,4.335125851e-13,3.298355887e-13,3.949390940e-13,1.244141555e-12,1.429708444e-12,2.535163228e-13,1.017804784e-12,3.737977064e-12,4.746165892e-12,8.516844078e-13,5.053991931e-12,6.332730671e-12,9.432009400e-12,6.529190280e-11,1.779112971e-12,4.544195940e-14
1.1172,9.428605227e-12,3.858308559e-12,1.152207425e-12,2.993990341e-12,5.880815120e-13,1.456184378e-12,5.769218331e-13,7.046746309e-14,1.359317596e-13,2.592306648e-14,7.328566256e-14,1.486430502e-13,1.445925078e-13,7.292575418e-13,6.389972433e-13,5.886996263e-13,4.117669282e-13,3.232945045e-13,3.917703485e-13,1.242549171e-12,1.412093846e-12,2.449775861e-13,9.970162686e-13,3.686167166e-12,4.671315301e-12,8.348694796e-13,4.950389574e-12,6.322680420e-12,9.344082217e-12,6.111221465e-11,1.754549385e-12,4.639481862e-14
1.125,9.227104550e-12,3.843792836e-12,1.156918223e-12,2.906906220e-12,5.627575337e-13,1.396791741e-12,5.484249890e-13,6.886296036e-14,1.273832977e-13,2.596476466e-14,7.029523777e-14,1.467973176e-13,1.454363352e-13,6.877900751e-13,6.162633452e-13,5.520169520e-13,3.910900825e-13,3.168048047e-13,3.882501426e-13,1.240231651e-12,1.393533536e-12,2.363383638e-13,9.750493708e-13,3.630393124e-12,4.593282494e-12,8.175530751e-13,4.842513964e-12,6.300428287e-12,9.244391211e-12,5.719291526e-11,1.729952156e-12,4.709674574e-14
1.1328,9.025955577e-12,3.823649285e-12,1.158812338e-12,2.819354649e-12,5.381944067e-13,1.337022990e-12,5.179358585e-13,6.717142415e-14,1.193468044e-13,2.615251372e-14,6.851411980e-14,1.452317056e-13,1.472020252e-13,6.483407146e-13,5.997090257e-13,5.247810437e-13,3.730756544e-13,3.110343386e-13,3.841693580e-13,1.235749579e-12,1.371429161e-12,2.283707522e-13,9.516638000e-13,3.563487028e-12,4.505363083e-12,7.994423829e-13,4.725844709e-12,6.256878681e-12,9.126853405e-12,5.354632221e-11,1.704894269e-12,4.767585741e-14
1.1406,8.830020612e-12,3.797065626e-12,1.160520496e-12,2.729949900e-12,5.138456241e-13,1.278121954e-12,4.890745591e-13,6.506186905e-14,1.115013961e-13,2.661788886e-14,6.774725636e-14,1.441822529e-13,1.499748534e-13,6.121652238e-13,5.888211341e-13,5.032125487e-13,3.535863730e-13,3.047666367e-13,3.787183894e-13,1.223545796e-12,1.344942632e-12,2.211421351e-13,9.273404934e-13,3.483828361e-12,4.407169963e-12,7.804774714e-13,4.598519246e-12,6.190773590e-12,8.983092346e-12,5.015286748e-11,1.679215632e-12,4.861749427e-14
1.1484,8.636657425e-12,3.769584095e-12,1.162392087e-12,2.640042055e-12,4.899343492e-13,1.220450813e-12,4.623316876e-13,6.247650821e-14,1.038214418e-13,2.771140743e-14,6.807591167e-14,1.441691246e-13,1.534459185e-13,5.799960747e-13,5.828320075e-13,4.875453037e-13,3.334160554e-13,2.984450135e-13,3.726964083e-13,1.205021766e-12,1.315997348e-12,2.138937485e-13,9.032814160e-13,3.397822709e-12,4.305515963e-12,7.610059954e-13,4.466786450e-12,6.110189150e-12,8.818485074e-12,4.695866187e-11,1.653222212e-12,4.939714407e-14
1.1562,8.436355537e-12,3.738231584e-12,1.161907294e-12,2.551138536e-12,4.669307804e-13,1.163968938e-12,4.364391452e-13,5.945815934e-14,9.676977276e-14,2.917621346e-14,6.890698785e-14,1.446905995e-13,1.576313261e-13,5.513367023e-13,5.795513897e-13,4.762194909e-13,3.121218477e-13,2.906139420e-13,3.649622281e-13,1.179393509e-12,1.283143143e-12,2.076477115e-13,8.795269550e-13,3.302055837e-12,4.197595092e-12,7.410779963e-13,4.331273082e-12,6.008332637e-12,8.633522157e-12,4.391262279e-11,1.626775534e-12,5.011770379e-14
1.1641,8.247272183e-12,3.703039104e-12,1.163510543e-12,2.461733890e-12,4.447259131e-13,1.109044196e-12,4.130027614e-13,5.593604881e-14,9.031147178e-14,3.100909756e-14,7.056123092e-14,1.459606046e-13,1.625563447e-13,5.248899076e-13,5.806868048e-13,4.693859087e-13,2.888764901e-13,2.823179084e-13,3.563654843e-13,1.145532808e-12,1.247015794e-12,2.025878394e-13,8.565769196e-13,3.198694404e-12,4.084887706e-12,7.207758754e-13,4.191877528e-12,5.893744934e-12,8.434105254e-12,4.107304363e-11,1.599836611e-12,5.111654903e-14
1.1719,8.067334836e-12,3.665647659e-12,1.164496526e-12,2.370550544e-12,4.230285860e-13,1.055273105e-12,3.916237850e-13,5.186004998e-14,8.427740174e-14,3.318420435e-14,7.393187391e-14,1.489182352e-13,1.682477866e-13,5.007770810e-13,5.858697815e-13,4.688763046e-13,2.662289236e-13,2.751648528e-13,3.483125804e-13,1.106239444e-12,1.209060965e-12,1.979947943e-13,8.344989550e-13,3.091245007e-12,3.970190331e-12,7.002823949e-13,4.050582192e-12,5.772586494e-12,8.224003829e-12,3.842195290e-11,1.573001196e-12,5.199757888e-14
1.1797,7.890085437e-12,3.627667287e-12,1.163646550e-12,2.281323016e-12,4.021524605e-13,1.005265183e-12,3.743740834e-13,4.744982235e-14,7.877654470e-14,3.551829862e-14,7.893886521e-14,1.528977613e-13,1.746640212e-13,4.809636714e-13,5.913845757e-13,4.686893351e-13,2.424835137e-13,2.666878781e-13,3.391066106e-13,1.061225011e-12,1.168290302e-12,1.943493376e-13,8.121562018e-13,2.978988490e-12,3.851770930e-12,6.792600768e-13,3.906494128e-12,5.638934934e-12,7.999980852e-12,3.588970988e-11,1.545521913e-12,5.299496992e-14
1.1875,7.733283489e-12,3.592556361e-12,1.167794112e-12,2.195776871e-12,3.824777915e-13,9.597326310e-13,3.607551867e-13,4.302051209e-14,7.380127877e-14,3.802910634e-14,8.561117883e-14,1.570603873e-13,1.814435857e-13,4.637607205e-13,6.002089455e-13,4.693316705e-13,2.187425768e-13,2.584250825e-13,3.295843132e-13,1.013007550e-12,1.125698685e-12,1.914580049e-13,7.891346015e-13,2.866788830e-12,3.731599928e-12,6.575518783e-13,3.760420231e-12,5.503397904e-12,7.770368569e-12,3.355495887e-11,1.516552165e-12,5.423486278e-14
1.1953,7.585675687e-12,3.556593211e-12,1.173433869e-12,2.111429824e-12,3.637297881e-13,9.164072564e-13,3.473120637e-13,3.865163574e-14,6.927858058e-14,4.037202519e-14,9.367059525e-14,1.616191092e-13,1.885550318e-13,4.480516671e-13,6.126071776e-13,4.733912844e-13,1.974885774e-13,2.517532425e-13,3.203489795e-13,9.635962903e-13,1.081403216e-12,1.891669101e-13,7.651701055e-13,2.752648256e-12,3.607495609e-12,6.354736541e-13,3.611831224e-12,5.365959959e-12,7.533770057e-12,3.141947131e-11,1.487256839e-12,5.528303589e-14
1.2031,7.437420042e-12,3.519611645e-12,1.176985235e-12,2.028925771e-12,3.457553871e-13,8.764381355e-13,3.372667131e-13,3.451626206e-14,6.507305106e-14,4.250108742e-14,1.046152578e-13,1.669469545e-13,1.961335582e-13,4.354514172e-13,6.262195465e-13,4.765433304e-13,1.779880416e-13,2.457467641e-13,3.110578759e-13,9.130031590e-13,1.036741855e-12,1.877990182e-13,7.403647006e-13,2.636742390e-12,3.480805901e-12,6.132715917e-13,3.462499394e-12,5.222407380e-12,7.287694863e-12,2.940558160e-11,1.457907501e-12,5.624429066e-14
1.2109,7.303909654e-12,3.486635182e-12,1.182851509e-12,1.950398430e-12,3.290349327e-13,8.406063258e-13,3.303944713e-13,3.102141293e-14,6.133250479e-14,4.452683085e-14,1.182232731e-13,1.722422575e-13,2.042706131e-13,4.253500636e-13,6.439922667e-13,4.799896474e-13,1.620332264e-13,2.421489773e-13,3.032871223e-13,8.660558148e-13,9.945734844e-13,1.870672693e-13,7.151805333e-13,2.527314569e-12,3.358984794e-12,5.912278581e-13,3.318772965e-12,5.084554725e-12,7.048531560e-12,2.755748885e-11,1.427574040e-12,5.711612404e-14
1.2188,7.181567947e-12,3.455300542e-12,1.190546895e-12,1.875416638e-12,3.136512530e-13,8.082658369e-13,3.235832164e-13,2.841262515e-14,5.834348815e-14,4.613191856e-14,1.321792779e-13,1.769043793e-13,2.133351396e-13,4.174481894e-13,6.657070202e-13,4.850169145e-13,1.489444411e-13,2.398448763e-13,2.957379727e-13,8.217609664e-13,9.526124389e-13,1.874770370e-13,6.889572582e-13,2.420144266e-12,3.237624601e-12,5.693516248e-13,3.177197585e-12,4.950190609e-12,6.815024972e-12,2.588232221e-11,1.396833753e-12,5.778840364e-14
1.2266,7.068335526e-12,3.426046425e-12,1.199439908e-12,1.803307500e-12,2.991439605e-13,7.799081405e-13,3.191477893e-13,2.682123675e-14,5.571176462e-14,4.751008412e-14,1.490934284e-13,1.820904401e-13,2.232730440e-13,4.113850695e-13,6.915695396e-13,4.909226417e-13,1.388687865e-13,2.396803643e-13,2.889825163e-13,7.793811240e-13,9.118572159e-13,1.889748435e-13,6.618751086e-13,2.314179993e-12,3.114598950e-12,5.474551221e-13,3.034505738e-12,4.817489223e-12,6.579555964e-12,2.434345991e-11,1.366040553e-12,5.838284431e-14
1.2344,6.969691535e-12,3.400937240e-12,1.210622651e-12,1.734501758e-12,2.855750126e-13,7.550633292e-13,3.160436909e-13,2.636127350e-14,5.328857402e-14,4.883399921e-14,1.690770098e-13,1.873898859e-13,2.340014380e-13,4.067252327e-13,7.228842085e-13,4.984494602e-13,1.338198436e-13,2.438307557e-13,2.853809525e-13,7.444531372e-13,8.760028901e-13,1.909882300e-13,6.350253082e-13,2.216641592e-12,2.996821455e-12,5.258500367e-13,2.897113120e-12,4.694175207e-12,6.350160295e-12,2.295105997e-11,1.334463317e-12,5.875494730e-14
1.2422,6.884436201e-12,3.377913098e-12,1.223584735e-12,1.669522625e-12,2.732358058e-13,7.336889840e-13,3.139497322e-13,2.706163146e-14,5.145971428e-14,5.013630165e-14,1.898122580e-13,1.919398842e-13,2.460558705e-13,4.047247323e-13,7.575773326e-13,5.059053164e-13,1.306442741e-13,2.489191882e-13,2.826068160e-13,7.141807368e-13,8.426171526e-13,1.944356742e-13,6.083679074e-13,2.124349581e-12,2.883157729e-12,5.048085625e-13,2.764560418e-12,4.576481683e-12,6.124608727e-12,2.168732821e-11,1.302348886e-12,5.902060841e-14
1.25,6.819524672e-12,3.359580711e-12,1.240384318e-12,1.606775993e-12,2.618460544e-13,7.152976478e-13,3.151008536e-13,2.891917279e-14,5.001385265e-14,5.192345201e-14,2.138176925e-13,1.971271461e-13,2.596327230e-13,4.040242033e-13,7.985536265e-13,5.164215619e-13,1.296275118e-13,2.562745459e-13,2.809722832e-13,6.857883417e-13,8.114175061e-13,1.990579284e-13,5.820686723e-13,2.035645048e-12,2.771685683e-12,4.842486779e-13,2.633538570e-12,4.464599425e-12,5.900574378e-12,2.054934034e-11,1.270346009e-12,5.922533819e-14
1.2578,6.770683970e-12,3.345572674e-12,1.260068773e-12,1.544169194e-12,2.511104981e-13,6.985329156e-13,3.169339843e-13,3.176987549e-14,4.885907420e-14,5.425181270e-14,2.404823202e-13,2.031149336e-13,2.750394943e-13,4.045048258e-13,8.472286164e-13,5.325692591e-13,1.321649610e-13,2.679512597e-13,2.820304023e-13,6.610258290e-13,7.839651559e-13,2.040618067e-13,5.566403254e-13,1.952608241e-12,2.664639285e-12,4.642529424e-13,2.507393014e-12,4.360883261e-12,5.681492321e-12,1.952055133e-11,1.238539573e-12,5.907103769e-14
1.2656,6.730989519e-12,3.332934755e-12,1.280040936e-12,1.483661491e-12,2.411412455e-13,6.841886226e-13,3.203911127e-13,3.534970722e-14,4.829701970e-14,5.728315648e-14,2.693594323e-13,2.098754508e-13,2.930737079e-13,4.086747993e-13,9.012410172e-13,5.523081853e-13,1.362135626e-13,2.813941457e-13,2.844571635e-13,6.380355205e-13,7.594256233e-13,2.102576953e-13,5.321025969e-13,1.874723424e-12,2.562730622e-12,4.448835692e-13,2.388191603e-12,4.263527642e-12,5.465775885e-12,1.855861695e-11,1.206813938e-12,5.893227771e-14
1.2734,6.710780786e-12,3.324333373e-12,1.302402519e-12,1.426367980e-12,2.318482630e-13,6.716423936e-13,3.271527581e-13,3.936343633e-14,4.825909246e-14,6.136819933e-14,3.019016618e-13,2.182810072e-13,3.138156086e-13,4.153513367e-13,9.623295647e-13,5.780918250e-13,1.424069349e-13,2.979651678e-13,2.889992600e-13,6.161454791e-13,7.376506856e-13,2.175585042e-13,5.084749842e-13,1.802505284e-12,2.465729175e-12,4.260456570e-13,2.274447543e-12,4.176017363e-12,5.257066594e-12,1.769463639e-11,1.175064138e-12,5.905953806e-14
1.2812,6.709733550e-12,3.317693473e-12,1.326390138e-12,1.368665989e-12,2.227540091e-13,6.592127668e-13,3.344877614e-13,4.332621312e-14,4.872693890e-14,6.619051414e-14,3.355436908e-13,2.279592181e-13,3.371491058e-13,4.240757433e-13,1.029162966e-12,6.103961518e-13,1.498926541e-13,3.175451035e-13,2.953505283e-13,5.939810847e-13,7.171777965e-13,2.256475628e-13,4.858227524e-13,1.733185213e-12,2.371059320e-12,4.077487911e-13,2.163741415e-12,4.095051304e-12,5.052087055e-12,1.692193256e-11,1.143534879e-12,5.914848771e-14
1.2891,6.722886476e-12,3.310499658e-12,1.350253987e-12,1.309963125e-12,2.136483239e-13,6.478975788e-13,3.440333588e-13,4.684841053e-14,4.962790601e-14,7.188416442e-14,3.721365408e-13,2.396250664e-13,3.633009989e-13,4.361251760e-13,1.100320644e-12,6.486514536e-13,1.595219400e-13,3.401010330e-13,3.038535869e-13,5.720307630e-13,6.995611216e-13,2.348445091e-13,4.647346144e-13,1.668526740e-12,2.279834516e-12,3.900482436e-13,2.056919588e-12,4.018694085e-12,4.846095078e-12,1.619058417e-11,1.112158705e-12,5.938480170e-14
1.2969,6.746895133e-12,3.306223697e-12,1.375520337e-12,1.252637279e-12,2.047516817e-13,6.375951286e-13,3.563089974e-13,4.971361999e-14,5.091197181e-14,7.839046981e-14,4.120240605e-13,2.533806952e-13,3.920943654e-13,4.509121313e-13,1.176347545e-12,6.938502652e-13,1.726853023e-13,3.674875179e-13,3.158918297e-13,5.523583372e-13,6.863367008e-13,2.448517980e-13,4.454510308e-13,1.612043486e-12,2.194661670e-12,3.728604288e-13,1.956040560e-12,3.952794555e-12,4.647315754e-12,1.552515242e-11,1.080409389e-12,5.997196958e-14
1.3047,6.765714328e-12,3.302895087e-12,1.399468212e-12,1.195688955e-12,1.960304900e-13,6.270962514e-13,3.685509545e-13,5.160311197e-14,5.289449793e-14,8.491249506e-14,4.506452306e-13,2.678213233e-13,4.232300045e-13,4.686741728e-13,1.254161303e-12,7.430253808e-13,1.852772956e-13,3.959798390e-13,3.284632747e-13,5.302229512e-13,6.730184146e-13,2.558991687e-13,4.273683686e-13,1.557893718e-12,2.111450130e-12,3.561020041e-13,1.858333324e-12,3.893354099e-12,4.453252938e-12,1.491641500e-11,1.048713231e-12,6.085653664e-14
1.3125,6.776765422e-12,3.295507712e-12,1.418695292e-12,1.138436631e-12,1.871735673e-13,6.162521644e-13,3.812883652e-13,5.230986328e-14,5.536525444e-14,9.143204111e-14,4.904080855e-13,2.839046977e-13,4.563515221e-13,4.887461796e-13,1.334888811e-12,7.969211376e-13,1.992398668e-13,4.263702563e-13,3.419236184e-13,5.059947211e-13,6.603908299e-13,2.678778361e-13,4.107595328e-13,1.505722991e-12,2.030101286e-12,3.399958100e-13,1.763681929e-12,3.836177836e-12,4.260072632e-12,1.432572766e-11,1.017793172e-12,6.203095263e-14
1.3203,6.790076216e-12,3.283993076e-12,1.434183758e-12,1.082809435e-12,1.783344063e-13,6.047525068e-13,3.941656369e-13,5.179857858e-14,5.814848798e-14,9.796802448e-14,5.309535839e-13,3.014815217e-13,4.909252763e-13,5.104083014e-13,1.417700289e-12,8.541486182e-13,2.166832384e-13,4.611060455e-13,3.582569822e-13,4.838216987e-13,6.509320091e-13,2.803398443e-13,3.958848898e-13,1.458842001e-12,1.954338305e-12,3.247515786e-13,1.675482298e-12,3.782875740e-12,4.076628529e-12,1.377129109e-11,9.875162443e-13,6.346247205e-14
1.3281,6.796803310e-12,3.270281744e-12,1.445366410e-12,1.029194845e-12,1.698277849e-13,5.930088292e-13,4.067464498e-13,5.010346320e-14,6.167938293e-14,1.040424624e-13,5.690080482e-13,3.192264237e-13,5.267612071e-13,5.348685067e-13,1.497573923e-12,9.091965781e-13,2.339011504e-13,4.965815689e-13,3.751875605e-13,4.610033341e-13,6.421609909e-13,2.942292260e-13,3.826013252e-13,1.414603690e-12,1.882254773e-12,3.103201564e-13,1.592847494e-12,3.731274695e-12,3.901620366e-12,1.324402665e-11,9.582174282e-13,6.529117784e-14
1.3359,6.779725228e-12,3.254200827e-12,1.450789986e-12,9.762223579e-13,1.614300164e-13,5.812487360e-13,4.191209149e-13,4.751507356e-14,6.576771154e-14,1.093677382e-13,6.076142826e-13,3.383870890e-13,5.634528512e-13,5.611213489e-13,1.578315020e-12,9.665386424e-13,2.535222174e-13,5.352168567e-13,3.939631353e-13,4.377902919e-13,6.354529048e-13,3.095665254e-13,3.717746340e-13,1.373303636e-12,1.812706929e-12,2.967933682e-13,1.514370076e-12,3.679782115e-12,3.730525939e-12,1.271840399e-11,9.305515260e-13,6.730464314e-14
1.3438,6.735733873e-12,3.233227092e-12,1.450736378e-12,9.242837223e-13,1.530251144e-13,5.697213678e-13,4.295202092e-13,4.448202706e-14,7.020429750e-14,1.135627493e-13,6.455049972e-13,3.585691813e-13,6.001306905e-13,5.886495069e-13,1.660490335e-12,1.026593422e-12,2.760350159e-13,5.781513925e-13,4.152766997e-13,4.157420447e-13,6.313683250e-13,3.256880156e-13,3.638544840e-13,1.335185815e-12,1.747243037e-12,2.841687673e-13,1.440682595e-12,3.627602690e-12,3.565760832e-12,1.219397428e-11,9.037316373e-13,6.924774492e-14
1.3516,6.670721645e-12,3.207020805e-12,1.445654405e-12,8.755463628e-13,1.449924181e-13,5.599564083e-13,4.388831080e-13,4.147849000e-14,7.534207517e-14,1.166362434e-13,6.810902460e-13,3.783282371e-13,6.363075530e-13,6.178070605e-13,1.738798884e-12,1.081734642e-12,2.988311695e-13,6.218088079e-13,4.373484929e-13,3.954621159e-13,6.290414753e-13,3.431386763e-13,3.587956119e-13,1.300241692e-12,1.686817959e-12,2.722142725e-13,1.372689090e-12,3.573940951e-12,3.406883967e-12,1.165755182e-11,8.769109467e-13,7.147166567e-14
1.3594,6.589097795e-12,3.175932741e-12,1.436718328e-12,8.294259612e-13,1.374597178e-13,5.515001311e-13,4.481851163e-13,3.900170594e-14,8.110937918e-14,1.187799172e-13,7.166760637e-13,3.980611004e-13,6.718267946e-13,6.464738517e-13,1.815315855e-12,1.132516924e-12,3.239321685e-13,6.685355197e-13,4.617851549e-13,3.784908059e-13,6.301297679e-13,3.619361484e-13,3.570149603e-13,1.268715707e-12,1.630541190e-12,2.609168745e-13,1.309645227e-12,3.517299108e-12,3.253472096e-12,1.111448578e-11,8.506589735e-13,7.379445158e-14
1.3672,6.500268444e-12,3.139316815e-12,1.423778910e-12,7.833027624e-13,1.303020408e-13,5.431402264e-13,4.566268846e-13,3.744277131e-14,8.747464473e-14,1.199581025e-13,7.507997423e-13,4.175487351e-13,7.066561543e-13,6.747977401e-13,1.890695252e-12,1.179699978e-12,3.490674481e-13,7.175398532e-13,4.878328594e-13,3.614656114e-13,6.326191884e-13,3.820501608e-13,3.585163088e-13,1.236787514e-12,1.575836229e-12,2.502783377e-13,1.248799757e-12,3.454529288e-12,3.103271886e-12,1.057430500e-11,8.252218073e-13,7.583193522e-14
1.375,6.411698855e-12,3.100977689e-12,1.406353737e-12,7.384836410e-13,1.236909837e-13,5.357749280e-13,4.650768808e-13,3.714438866e-14,9.450703439e-14,1.206544368e-13,7.848044522e-13,4.371911137e-13,7.408502139e-13,7.037981932e-13,1.963559004e-12,1.222366780e-12,3.739855327e-13,7.673584279e-13,5.150136905e-13,3.455339344e-13,6.374617441e-13,4.037781973e-13,3.636712891e-13,1.207509362e-12,1.524881406e-12,2.404373291e-13,1.192639908e-12,3.388756116e-12,2.955613566e-12,1.001941250e-11,8.004272542e-13,7.779170749e-14
1.3828,6.312933456e-12,3.063692411e-12,1.387213215e-12,6.981006433e-13,1.179435100e-13,5.301183715e-13,4.728541722e-13,3.838582218e-14,1.019870755e-13,1.209527189e-13,8.202167075e-13,4.572948973e-13,7.744406901e-13,7.326694682e-13,2.036271210e-12,1.263245110e-12,4.019898313e-13,8.209416080e-13,5.453524162e-13,3.344362997e-13,6.474007693e-13,4.267311454e-13,3.726136167e-13,1.184150505e-12,1.479940884e-12,2.316185841e-13,1.144473247e-12,3.324026771e-12,2.816915589e-12,9.464760709e-12,7.767188193e-13,7.965317487e-14
1.3906,6.202721569e-12,3.023874750e-12,1.366969215e-12,6.616721015e-13,1.130741323e-13,5.266748886e-13,4.797545900e-13,4.124201471e-14,1.101045488e-13,1.206551513e-13,8.554299501e-13,4.769301992e-13,8.080886089e-13,7.625717196e-13,2.109499701e-12,1.303330711e-12,4.312802621e-13,8.766384394e-13,5.773924179e-13,3.247015512e-13,6.591202077e-13,4.510575907e-13,3.840840853e-13,1.161493011e-12,1.436477107e-12,2.233104516e-13,1.099116167e-12,3.259742635e-12,2.685609857e-12,8.937893325e-12,7.537835667e-13,8.146082096e-14
1.3984,6.107064875e-12,2.981700706e-12,1.345403579e-12,6.270753800e-13,1.087761520e-13,5.256938275e-13,4.886372362e-13,4.562594945e-14,1.188930879e-13,1.207773779e-13,8.943791723e-13,4.974196124e-13,8.425836413e-13,7.936266296e-13,2.184130200e-12,1.344264693e-12,4.631190680e-13,9.348933936e-13,6.115274444e-13,3.168282576e-13,6.734468076e-13,4.766245989e-13,3.977170798e-13,1.141622524e-12,1.393533513e-12,2.151879074e-13,1.053934674e-12,3.199591975e-12,2.557227319e-12,8.437634430e-12,7.308182491e-13,8.328359028e-14
1.4062,6.036226736e-12,2.942352785e-12,1.326817275e-12,5.943275408e-13,1.049945646e-13,5.260279736e-13,4.999735352e-13,5.121839884e-14,1.280755464e-13,1.220080656e-13,9.383980052e-13,5.195619825e-13,8.777612698e-13,8.251472899e-13,2.259403892e-12,1.385713013e-12,4.977739725e-13,9.963846877e-13,6.480635636e-13,3.124317809e-13,6.920958149e-13,5.025909491e-13,4.134223938e-13,1.128740719e-12,1.355085122e-12,2.077697023e-13,1.013479417e-12,3.147200887e-12,2.438532638e-12,7.981206880e-12,7.079988170e-13,8.498008445e-14
1.4141,5.969079342e-12,2.904813542e-12,1.311032083e-12,5.642588010e-13,1.019159065e-13,5.267445879e-13,5.124700443e-13,5.748797339e-14,1.378704109e-13,1.240238392e-13,9.846993033e-13,5.423515936e-13,9.140246274e-13,8.590420728e-13,2.334550189e-12,1.427083987e-12,5.331042163e-13,1.057716412e-12,6.842711785e-13,3.100718994e-13,7.123517381e-13,5.290386228e-13,4.295334456e-13,1.120489066e-12,1.319716867e-12,2.008888261e-13,9.771301893e-13,3.099982126e-12,2.330966567e-12,7.582533521e-12,6.856518147e-13,8.683950085e-14
1.4219,5.897166200e-12,2.863928887e-12,1.294417401e-12,5.359994793e-13,9.930694695e-14,5.275720420e-13,5.263298412e-13,6.390029209e-14,1.482050575e-13,1.269903967e-13,1.035227698e-12,5.668499964e-13,9.528767484e-13,8.949916244e-13,2.414786577e-12,1.475032291e-12,5.733204843e-13,1.122352958e-12,7.220994640e-13,3.120188304e-13,7.355215665e-13,5.558650905e-13,4.449570642e-13,1.116944288e-12,1.283555057e-12,1.940510701e-13,9.406676537e-13,3.056272146e-12,2.228195967e-12,7.219366240e-12,6.638644337e-13,8.879446732e-14
1.4297,5.832037817e-12,2.821313422e-12,1.279046532e-12,5.093430277e-13,9.688663204e-14,5.286712930e-13,5.414955249e-13,6.991402733e-14,1.587819755e-13,1.310380507e-13,1.089014017e-12,5.932987982e-13,9.946188633e-13,9.318240413e-13,2.499305369e-12,1.530391923e-12,6.178560611e-13,1.191362695e-12,7.622021509e-13,3.172820506e-13,7.615626477e-13,5.827514534e-13,4.594375566e-13,1.118221369e-12,1.247578440e-12,1.876480392e-13,9.051140329e-13,3.017450655e-12,2.133070493e-12,6.891546898e-12,6.425859374e-13,9.077083386e-14
1.4375,5.768259079e-12,2.779741927e-12,1.265657404e-12,4.858514644e-13,9.473625119e-14,5.299940863e-13,5.569510722e-13,7.503623067e-14,1.698006201e-13,1.358780553e-13,1.143244519e-12,6.207630695e-13,1.038748587e-12,9.707859275e-13,2.583565521e-12,1.588814473e-12,6.647072404e-13,1.261148594e-12,8.022405612e-13,3.255801681e-13,7.892858407e-13,6.100047327e-13,4.723641165e-13,1.124605000e-12,1.214132812e-12,1.818874577e-13,8.722762564e-13,2.983126412e-12,2.048674781e-12,6.613542505e-12,6.216150844e-13,9.341027110e-14
1.4453,5.695007757e-12,2.734465687e-12,1.252836589e-12,4.646719762e-13,9.275964768e-14,5.304742321e-13,5.723212055e-13,7.893288357e-14,1.812938326e-13,1.414285736e-13,1.199327621e-12,6.501388437e-13,1.085679866e-12,1.011211025e-12,2.670129831e-12,1.652502511e-12,7.176957879e-13,1.335047182e-12,8.441007147e-13,3.398715246e-13,8.210850407e-13,6.376046281e-13,4.835966318e-13,1.137387340e-12,1.181533994e-12,1.764651115e-13,8.401069240e-13,2.949892697e-12,1.969409025e-12,6.369966997e-12,6.013509020e-13,9.664302846e-14
1.4531,5.617599398e-12,2.683172967e-12,1.241126015e-12,4.434762501e-13,9.074367882e-14,5.296747078e-13,5.875348639e-13,8.129812184e-14,1.932835230e-13,1.474928274e-13,1.255520967e-12,6.812908724e-13,1.135261262e-12,1.051730217e-12,2.756294885e-12,1.719213629e-12,7.730386327e-13,1.412516062e-12,8.876133072e-13,3.568757681e-13,8.552297148e-13,6.656854267e-13,4.932265068e-13,1.153894696e-12,1.148385224e-12,1.713241894e-13,8.075005271e-13,2.916267461e-12,1.892731347e-12,6.148060608e-12,5.817637481e-13,1.002487588e-13
1.4609,5.531835953e-12,2.629739442e-12,1.228311325e-12,4.225370172e-13,8.872660087e-14,5.273133417e-13,6.011234802e-13,8.188994146e-14,2.059353848e-13,1.539617476e-13,1.308911558e-12,7.134037825e-13,1.186280177e-12,1.092332412e-12,2.836971321e-12,1.784290534e-12,8.273972886e-13,1.490188582e-12,9.310987172e-13,3.761476920e-13,8.906450253e-13,6.942849166e-13,5.012592855e-13,1.173884312e-12,1.116872190e-12,1.664034747e-13,7.758942872e-13,2.881845556e-12,1.819311931e-12,5.944047252e-12,5.619191148e-13,1.045126736e-13
1.4688,5.428390347e-12,2.573085595e-12,1.213303352e-12,4.029834792e-13,8.683461451e-14,5.227640076e-13,6.113946284e-13,8.077588955e-14,2.191499164e-13,1.605136789e-13,1.358729298e-12,7.465831048e-13,1.238288090e-12,1.132682342e-12,2.915508138e-12,1.850366879e-12,8.848147997e-13,1.570784276e-12,9.759858696e-13,4.001912834e-13,9.291683103e-13,7.231274430e-13,5.080696845e-13,1.197442072e-12,1.086331816e-12,1.616277139e-13,7.455818826e-13,2.842528084e-12,1.748238617e-12,5.747218292e-12,5.419155867e-13,1.092657244e-13
1.4766,5.312022453e-12,2.508680591e-12,1.196496598e-12,3.848690828e-13,8.513105535e-14,5.169456440e-13,6.177468319e-13,7.829850824e-14,2.330729280e-13,1.662196992e-13,1.402155816e-12,7.801353150e-13,1.291100572e-12,1.173209600e-12,2.991841377e-12,1.916843469e-12,9.438974931e-13,1.653465172e-12,1.021783018e-12,4.254701075e-13,9.680287276e-13,7.527631713e-13,5.140903377e-13,1.219637169e-12,1.053933028e-12,1.570720464e-13,7.160066544e-13,2.797054104e-12,1.679846460e-12,5.556491141e-12,5.224139500e-13,1.146127372e-13
1.4844,5.185665112e-12,2.438535831e-12,1.176176519e-12,3.676009996e-13,8.358158282e-14,5.104139413e-13,6.208803835e-13,7.486077893e-14,2.478073334e-13,1.710853184e-13,1.438887506e-12,8.138838524e-13,1.343525742e-12,1.213435145e-12,3.061859359e-12,1.979416430e-12,1.001487936e-12,1.736134940e-12,1.067930995e-12,4.500828088e-13,1.006122963e-12,7.831387944e-13,5.202191161e-13,1.239849526e-12,1.021979435e-12,1.526957076e-13,6.875317555e-13,2.749318931e-12,1.612737336e-12,5.374037925e-12,5.031567973e-13,1.205704613e-13
1.4922,5.054374827e-12,2.367110278e-12,1.154603684e-12,3.506164781e-13,8.223795448e-14,5.025030214e-13,6.218950375e-13,7.087353252e-14,2.630484841e-13,1.754203629e-13,1.469500291e-12,8.470491659e-13,1.394041146e-12,1.251450738e-12,3.123489340e-12,2.035804137e-12,1.055952730e-12,1.818763434e-12,1.114666630e-12,4.739199765e-13,1.044612771e-12,8.136155059e-13,5.276269589e-13,1.260232735e-12,9.935522019e-13,1.484679457e-13,6.604607574e-13,2.700182705e-12,1.546541861e-12,5.201095193e-12,4.837654077e-13,1.266374208e-13
1.5,4.923898834e-12,2.292718851e-12,1.133263817e-12,3.341898555e-13,8.123626641e-14,4.938964745e-13,6.196545941e-13,6.678448639e-14,2.787506412e-13,1.784931193e-13,1.490869755e-12,8.776169356e-13,1.441330369e-12,1.287296005e-12,3.172851070e-12,2.083009151e-12,1.105226499e-12,1.898113323e-12,1.160189039e-12,4.957136175e-13,1.081506662e-12,8.442678885e-13,5.363820806e-13,1.278647142e-12,9.659335725e-13,1.443024451e-13,6.337232238e-13,2.648977441e-12,1.484244430e-12,5.037531564e-12,4.643782335e-13,1.330316515e-13
1.5078,4.784282425e-12,2.213471091e-12,1.109861160e-12,3.184418780e-13,8.046055331e-14,4.852763030e-13,6.138291271e-13,6.303424195e-14,2.948525403e-13,1.803824482e-13,1.504792912e-12,9.065697828e-13,1.484299734e-12,1.321525454e-12,3.210355052e-12,2.121653446e-12,1.151673685e-12,1.973509203e-12,1.204220431e-12,5.153891247e-13,1.115981039e-12,8.741691259e-13,5.462742805e-13,1.292825081e-12,9.363284606e-13,1.399747390e-13,6.066103098e-13,2.597588644e-12,1.423305862e-12,4.868220201e-12,4.452804140e-13,1.395481685e-13
1.5156,4.631762463e-12,2.132364719e-12,1.085375643e-12,3.027208547e-13,7.970085987e-14,4.756792057e-13,6.064446764e-13,5.997003966e-14,3.110715095e-13,1.817413114e-13,1.515102127e-12,9.350425305e-13,1.522418430e-12,1.354524940e-12,3.240534541e-12,2.154779916e-12,1.195891521e-12,2.045516424e-12,1.246694969e-12,5.316830685e-13,1.147714654e-12,9.022592863e-13,5.579344352e-13,1.302314868e-12,9.067955848e-13,1.355493049e-13,5.809659652e-13,2.547695601e-12,1.361314830e-12,4.688710348e-12,4.263622698e-13,1.455021519e-13
1.5234,4.472416456e-12,2.049043175e-12,1.058763270e-12,2.868165907e-13,7.889579403e-14,4.648027361e-13,5.972428719e-13,5.782907029e-14,3.272758351e-13,1.824482111e-13,1.520088939e-12,9.613708546e-13,1.555689114e-12,1.386982000e-12,3.262727792e-12,2.181353641e-12,1.235185866e-12,2.111942248e-12,1.286340979e-12,5.449092352e-13,1.175893463e-12,9.288886237e-13,5.716842393e-13,1.307707794e-12,8.788838974e-13,1.312099975e-13,5.577228980e-13,2.500805835e-12,1.302604306e-12,4.511102592e-12,4.073547451e-13,1.512661927e-13
1.5312,4.302089597e-12,1.961116221e-12,1.028249065e-12,2.713747879e-13,7.801398745e-14,4.539199034e-13,5.860493467e-13,5.679221725e-14,3.431934458e-13,1.826245979e-13,1.519832520e-12,9.851990605e-13,1.584170327e-12,1.417335029e-12,3.275443122e-12,2.201132358e-12,1.271183373e-12,2.173518192e-12,1.323780481e-12,5.562530358e-13,1.201194133e-12,9.538061243e-13,5.870140401e-13,1.309441992e-12,8.511071973e-13,1.268966451e-13,5.351198748e-13,2.457601615e-12,1.247523846e-12,4.334355761e-12,3.886990345e-13,1.567927531e-13
1.5391,4.114433024e-12,1.870781886e-12,9.967405849e-13,2.571271286e-13,7.702657603e-14,4.435589843e-13,5.738126407e-13,5.688405096e-14,3.585675994e-13,1.823682666e-13,1.515797557e-12,1.006947216e-12,1.607705636e-12,1.444535319e-12,3.279776727e-12,2.216012620e-12,1.305548074e-12,2.230858320e-12,1.358903173e-12,5.648750040e-13,1.222744663e-12,9.762421226e-13,6.031760285e-13,1.306232333e-12,8.225665735e-13,1.224457573e-13,5.123754528e-13,2.415430616e-12,1.193282723e-12,4.155710959e-12,3.708899413e-13,1.615330166e-13
1.5469,3.914379889e-12,1.779597112e-12,9.651195047e-13,2.441721252e-13,7.592493495e-14,4.331174340e-13,5.608813865e-13,5.789469649e-14,3.734851986e-13,1.820853556e-13,1.508977575e-12,1.026934225e-12,1.626417703e-12,1.470145465e-12,3.276891427e-12,2.226467174e-12,1.337824672e-12,2.282263874e-12,1.390394167e-12,5.724185158e-13,1.240032453e-12,9.959293786e-13,6.193443633e-13,1.298554557e-12,7.934148124e-13,1.177464421e-13,4.896076344e-13,2.373851892e-12,1.140756802e-12,3.978827199e-12,3.537338819e-13,1.657276408e-13
1.5547,3.716350023e-12,1.687677692e-12,9.342184626e-13,2.319831119e-13,7.469993293e-14,4.229309256e-13,5.497760637e-13,5.960316706e-14,3.879716338e-13,1.827804107e-13,1.503543321e-12,1.046466080e-12,1.640998026e-12,1.494122551e-12,3.267904064e-12,2.232998636e-12,1.368462230e-12,2.328181126e-12,1.418511157e-12,5.803506850e-13,1.255015630e-12,1.012655549e-12,6.350831019e-13,1.289255068e-12,7.643848784e-13,1.130335180e-13,4.673559095e-13,2.336090070e-12,1.090262185e-12,3.798296493e-12,3.371240335e-13,1.694383354e-13
1.5625,3.521955196e-12,1.596426699e-12,9.051748098e-13,2.198526601e-13,7.329557401e-14,4.132081089e-13,5.404809723e-13,6.179476310e-14,4.018385875e-13,1.840844015e-13,1.499320443e-12,1.065214966e-12,1.651961363e-12,1.515326810e-12,3.251569347e-12,2.235178165e-12,1.396935602e-12,2.368511180e-12,1.443307420e-12,5.882866571e-13,1.268194266e-12,1.026747529e-12,6.503042879e-13,1.279247420e-12,7.363211792e-13,1.086701264e-13,4.469354995e-13,2.299166086e-12,1.040781619e-12,3.607790591e-12,3.212535829e-13,1.726948248e-13
1.5703,3.319229132e-12,1.506099608e-12,8.759937498e-13,2.077039552e-13,7.175174686e-14,4.029656915e-13,5.307586142e-13,6.409112104e-14,4.149710102e-13,1.857110786e-13,1.493918003e-12,1.083050486e-12,1.659936451e-12,1.533931412e-12,3.228645716e-12,2.233248729e-12,1.423104654e-12,2.402850632e-12,1.464740491e-12,5.972736896e-13,1.279305042e-12,1.038647696e-12,6.643130954e-13,1.268225839e-12,7.085689972e-13,1.044317847e-13,4.273069294e-13,2.257439905e-12,9.914708982e-13,3.411896308e-12,3.062604705e-13,1.757266731e-13
1.5781,3.115419921e-12,1.416470022e-12,8.479832075e-13,1.964959922e-13,7.038741262e-14,3.923723498e-13,5.224480752e-13,6.617190232e-14,4.276311660e-13,1.885432932e-13,1.490399380e-12,1.101618388e-12,1.666586979e-12,1.550446299e-12,3.205000631e-12,2.230745819e-12,1.448865713e-12,2.434185319e-12,1.484267523e-12,6.075642463e-13,1.289434342e-12,1.048747736e-12,6.763279421e-13,1.257365171e-12,6.810353170e-13,1.000042972e-13,4.069804736e-13,2.212826295e-12,9.410270968e-13,3.220543734e-12,2.922207083e-13,1.783867872e-13
1.5859,2.922329117e-12,1.327976319e-12,8.223160255e-13,1.865563893e-13,6.941352248e-14,3.826122555e-13,5.158363997e-13,6.790752923e-14,4.402312142e-13,1.924321230e-13,1.489423179e-12,1.120578587e-12,1.673232262e-12,1.565607434e-12,3.181972231e-12,2.227915163e-12,1.474525111e-12,2.464284395e-12,1.502674730e-12,6.188986040e-13,1.299001124e-12,1.058169575e-12,6.863847141e-13,1.247356414e-12,6.545070431e-13,9.564025846e-14,3.868565387e-13,2.166053539e-12,8.891576083e-13,3.034837050e-12,2.789806222e-13,1.810959912e-13
1.5938,2.734732663e-12,1.241982589e-12,7.971852648e-13,1.770148534e-13,6.875949446e-14,3.736817370e-13,5.100596961e-13,6.913002049e-14,4.526743786e-13,1.971335202e-13,1.489255071e-12,1.139286501e-12,1.679234042e-12,1.578743335e-12,3.155800835e-12,2.221533752e-12,1.498077754e-12,2.491046109e-12,1.518923641e-12,6.307161006e-13,1.306991542e-12,1.066904926e-12,6.943053976e-13,1.236886671e-12,6.282174017e-13,9.150524403e-14,3.671887026e-13,2.112197735e-12,8.365999882e-13,2.852938737e-12,2.662422613e-13,1.842057499e-13
1.6016,2.554525360e-12,1.159957808e-12,7.744209388e-13,1.674503126e-13,6.843746696e-14,3.645489796e-13,5.064287993e-13,6.961783132e-14,4.645696949e-13,2.026704113e-13,1.489407297e-12,1.158042713e-12,1.683255551e-12,1.587882364e-12,3.124903859e-12,2.211080468e-12,1.518293649e-12,2.512513488e-12,1.531889284e-12,6.418561600e-13,1.312821788e-12,1.073599111e-12,6.994460499e-13,1.225566130e-12,6.022914915e-13,8.748395074e-14,3.479413229e-13,2.050615597e-12,7.845242779e-13,2.680164431e-12,2.538900930e-13,1.872033811e-13
1.6094,2.386013214e-12,1.081206869e-12,7.550074387e-13,1.581573769e-13,6.851702118e-14,3.547865129e-13,5.036871026e-13,6.927000907e-14,4.759413048e-13,2.084698094e-13,1.488117927e-12,1.176016136e-12,1.685361381e-12,1.593713495e-12,3.089554145e-12,2.196814053e-12,1.535460894e-12,2.528570499e-12,1.541807077e-12,6.535098359e-13,1.317479979e-12,1.078628291e-12,7.021315801e-13,1.214965262e-12,5.781253004e-13,8.367476702e-14,3.300808728e-13,1.984260016e-12,7.338311278e-13,2.511805687e-12,2.417734602e-13,1.903089982e-13
1.6172,2.224075207e-12,1.005120956e-12,7.376156951e-13,1.494269167e-13,6.903287131e-14,3.451257009e-13,5.017420590e-13,6.813654676e-14,4.870685969e-13,2.146936927e-13,1.486154105e-12,1.193392382e-12,1.686727762e-12,1.597935841e-12,3.051277821e-12,2.179546218e-12,1.550288572e-12,2.540696804e-12,1.549968503e-12,6.656932409e-13,1.321551625e-12,1.083319129e-12,7.032494841e-13,1.204998987e-12,5.547208994e-13,8.016809852e-14,3.131521059e-13,1.912855699e-12,6.835591145e-13,2.341639150e-12,2.297046612e-13,1.938952667e-13
1.625,2.069040019e-12,9.318861979e-13,7.226695076e-13,1.412401753e-13,7.003448283e-14,3.358327801e-13,5.012152718e-13,6.633874292e-14,4.978589201e-13,2.210846189e-13,1.482790825e-12,1.210107184e-12,1.687264056e-12,1.599773451e-12,3.010110733e-12,2.160143566e-12,1.562790188e-12,2.549980744e-12,1.556640914e-12,6.759856480e-13,1.323556155e-12,1.087330792e-12,7.027217508e-13,1.193250662e-12,5.304592400e-13,7.683197258e-14,2.960248406e-13,1.834570498e-12,6.326408039e-13,2.178384819e-12,2.179935579e-13,1.974917037e-13
1.6328,1.925341416e-12,8.618877167e-13,7.095982743e-13,1.335353403e-13,7.142447853e-14,3.266218767e-13,4.998974076e-13,6.401946654e-14,5.078848327e-13,2.268066618e-13,1.474530425e-12,1.224280437e-12,1.685077342e-12,1.598173647e-12,2.963378012e-12,2.136131274e-12,1.571062701e-12,2.554186293e-12,1.560339008e-12,6.839374114e-13,1.322190449e-12,1.089654216e-12,7.002174518e-13,1.179426251e-12,5.065408959e-13,7.360473659e-14,2.790426350e-13,1.752994366e-12,5.826695889e-13,2.023130227e-12,2.069341175e-13,2.010555732e-13
1.6406,1.795247279e-12,7.965942615e-13,6.981276470e-13,1.264448374e-13,7.295996167e-14,3.179643617e-13,4.991288823e-13,6.130966242e-14,5.169348375e-13,2.323453068e-13,1.464143555e-12,1.235904282e-12,1.678834520e-12,1.593311162e-12,2.911880915e-12,2.107127619e-12,1.574066707e-12,2.551353121e-12,1.560081760e-12,6.897086712e-13,1.317627390e-12,1.089797464e-12,6.962249590e-13,1.165043486e-12,4.843400285e-13,7.058089237e-14,2.629882400e-13,1.674342691e-12,5.355510803e-13,1.868439846e-12,1.961893613e-13,2.046513971e-13
1.6484,1.675019107e-12,7.354324943e-13,6.881452406e-13,1.198401476e-13,7.443532986e-14,3.098956320e-13,4.998699525e-13,5.831233508e-14,5.248563468e-13,2.375488454e-13,1.452541571e-12,1.244829358e-12,1.668267514e-12,1.585372372e-12,2.856619286e-12,2.074820904e-12,1.572999962e-12,2.541942314e-12,1.555528238e-12,6.926795900e-13,1.309250762e-12,1.087395367e-12,6.911466143e-13,1.148341055e-12,4.624455615e-13,6.792706301e-14,2.479335788e-13,1.596301547e-12,4.908597803e-13,1.712939064e-12,1.857848549e-13,2.079889763e-13
1.6562,1.557306897e-12,6.772888170e-13,6.780387385e-13,1.136321046e-13,7.574738576e-14,3.018882224e-13,4.995375722e-13,5.518931035e-14,5.311292221e-13,2.415061845e-13,1.435118021e-12,1.249258925e-12,1.652507490e-12,1.573708598e-12,2.794116488e-12,2.037443326e-12,1.567036848e-12,2.524646526e-12,1.545810216e-12,6.929746804e-13,1.296089607e-12,1.081881175e-12,6.847991056e-13,1.127686704e-12,4.401550491e-13,6.569522204e-14,2.339108236e-13,1.516878708e-12,4.492207004e-13,1.558722208e-12,1.761741580e-13,2.109972934e-13
1.6641,1.444992685e-12,6.229978176e-13,6.688031610e-13,1.078811860e-13,7.681021802e-14,2.941308751e-13,4.990039769e-13,5.209944806e-14,5.354476576e-13,2.445802714e-13,1.413257753e-12,1.249670389e-12,1.630933429e-12,1.557483320e-12,2.724129876e-12,1.995222634e-12,1.555552044e-12,2.498625914e-12,1.531200668e-12,6.916498239e-13,1.279008502e-12,1.072553294e-12,6.770933958e-13,1.105361439e-12,4.186790422e-13,6.368429704e-14,2.209061451e-13,1.443187842e-12,4.121695027e-13,1.412809402e-12,1.672486663e-13,2.133681250e-13
1.6719,1.342068048e-12,5.717831566e-13,6.610508531e-13,1.024059500e-13,7.752260205e-14,2.868988533e-13,4.988198514e-13,4.907971636e-14,5.380464256e-13,2.470223404e-13,1.389867470e-12,1.246746276e-12,1.604376129e-12,1.537454996e-12,2.649557005e-12,1.950032392e-12,1.540499578e-12,2.465589995e-12,1.512537822e-12,6.891572030e-13,1.258585182e-12,1.059604102e-12,6.682308319e-13,1.081669149e-12,3.972890847e-13,6.180191005e-14,2.083823143e-13,1.375261778e-12,3.780126833e-13,1.274538779e-12,1.588887675e-13,2.150406371e-13
1.6797,1.243736584e-12,5.226128748e-13,6.516293784e-13,9.720311715e-14,7.786148816e-14,2.801578086e-13,4.974299499e-13,4.621880920e-14,5.389201142e-13,2.486602365e-13,1.363922638e-12,1.239696569e-12,1.573384724e-12,1.514492261e-12,2.570370506e-12,1.900598466e-12,1.521443129e-12,2.425791325e-12,1.489582020e-12,6.842001716e-13,1.234321186e-12,1.043819657e-12,6.586016031e-13,1.055457861e-12,3.754455591e-13,6.022392024e-14,1.965695022e-13,1.308835234e-12,3.462243449e-13,1.136496213e-12,1.512569476e-13,2.163449764e-13
1.6875,1.149235624e-12,4.758541424e-13,6.398924049e-13,9.211145971e-14,7.778672618e-14,2.737702736e-13,4.955057337e-13,4.363004134e-14,5.377604807e-13,2.497084700e-13,1.335553062e-12,1.228900578e-12,1.537762830e-12,1.487953247e-12,2.487122582e-12,1.847487272e-12,1.497702348e-12,2.379388798e-12,1.462652697e-12,6.769078463e-13,1.207177122e-12,1.025022659e-12,6.484920856e-13,1.028414545e-12,3.548891769e-13,5.894207191e-14,1.858437685e-13,1.248953891e-12,3.190105422e-13,1.007400119e-12,1.441525367e-13,2.169483350e-13
1.6953,1.063199758e-12,4.318622806e-13,6.286371459e-13,8.711902933e-14,7.729641836e-14,2.676416801e-13,4.931669948e-13,4.125108253e-14,5.346956041e-13,2.501940682e-13,1.305512239e-12,1.214794399e-12,1.498182187e-12,1.458054655e-12,2.402323551e-12,1.792791540e-12,1.471394725e-12,2.327704081e-12,1.432595186e-12,6.693714389e-13,1.178553430e-12,1.003211602e-12,6.378139740e-13,1.001609631e-12,3.355376718e-13,5.780185818e-14,1.755407880e-13,1.197144760e-12,2.957097019e-13,8.962434666e-13,1.373435950e-13,2.167765581e-13
1.7031,9.868789535e-13,3.911652847e-13,6.183335959e-13,8.258547460e-14,7.663773535e-14,2.618498149e-13,4.907145052e-13,3.904569997e-14,5.300470571e-13,2.503263401e-13,1.274621427e-12,1.197702595e-12,1.455537048e-12,1.425446174e-12,2.316583597e-12,1.736531565e-12,1.443106217e-12,2.271063000e-12,1.399850583e-12,6.615368950e-13,1.148557116e-12,9.791603482e-13,6.263728577e-13,9.744642270e-13,3.161579762e-13,5.694020975e-14,1.659623089e-13,1.148376499e-12,2.751114720e-13,7.975579678e-13,1.310059761e-13,2.161876849e-13
1.7109,9.174638878e-13,3.533767837e-13,6.076668958e-13,7.828198586e-14,7.604675487e-14,2.564874350e-13,4.894546994e-13,3.709965209e-14,5.238254754e-13,2.503574163e-13,1.243557755e-12,1.178510460e-12,1.409857311e-12,1.390080186e-12,2.228868665e-12,1.678429825e-12,1.411933262e-12,2.209469344e-12,1.364355115e-12,6.521055792e-13,1.116389334e-12,9.528065313e-13,6.137211523e-13,9.458838331e-13,2.969355575e-13,5.652781547e-14,1.576851835e-13,1.101594055e-12,2.576584349e-13,7.102247191e-13,1.254635455e-13,2.149738918e-13
1.7188,8.547109353e-13,3.187824448e-13,5.973667886e-13,7.457745620e-14,7.560540819e-14,2.520758244e-13,4.885783115e-13,3.541386850e-14,5.161779266e-13,2.501038784e-13,1.211485553e-12,1.157302473e-12,1.361697773e-12,1.352918339e-12,2.139538259e-12,1.618613126e-12,1.378251409e-12,2.143586744e-12,1.325954873e-12,6.414925879e-13,1.082110941e-12,9.242145477e-13,5.997213624e-13,9.164334631e-13,2.787240483e-13,5.645066910e-14,1.502228564e-13,1.058076692e-12,2.432809875e-13,6.428633494e-13,1.206614076e-13,2.132213088e-13
1.7266,8.010844360e-13,2.877421223e-13,5.878867481e-13,7.210558960e-14,7.547211340e-14,2.489469840e-13,4.877353846e-13,3.391321645e-14,5.075016278e-13,2.496655938e-13,1.178952116e-12,1.134607787e-12,1.312490582e-12,1.314365796e-12,2.050489779e-12,1.558103423e-12,1.343168798e-12,2.075411712e-12,1.286251840e-12,6.303238133e-13,1.047742893e-12,8.945893489e-13,5.852967671e-13,8.894316850e-13,2.622508489e-13,5.666436336e-14,1.438155578e-13,1.019250864e-12,2.321443067e-13,5.986210425e-13,1.162436724e-13,2.112296615e-13
1.7344,7.548755070e-13,2.584816728e-13,5.781497960e-13,7.006898356e-14,7.578704142e-14,2.465548916e-13,4.878059976e-13,3.255180990e-14,4.979659927e-13,2.493163547e-13,1.147388266e-12,1.110979581e-12,1.262668956e-12,1.273971483e-12,1.961905278e-12,1.496835417e-12,1.306472613e-12,2.005439456e-12,1.245857771e-12,6.173758287e-13,1.013289381e-12,8.645508885e-13,5.706345353e-13,8.640048572e-13,2.466725909e-13,5.733721544e-14,1.385348803e-13,9.834612049e-13,2.233837158e-13,5.681633419e-13,1.123528376e-13,2.089454617e-13
1.7422,7.160138847e-13,2.316434492e-13,5.690353264e-13,6.809824376e-14,7.649111255e-14,2.445665450e-13,4.883246033e-13,3.130844436e-14,4.876631696e-13,2.489697491e-13,1.116315029e-12,1.085812362e-12,1.211791354e-12,1.232868879e-12,1.873269327e-12,1.433715012e-12,1.267047923e-12,1.931818937e-12,1.203191395e-12,6.019233862e-13,9.769974771e-13,8.338164407e-13,5.549552500e-13,8.373596177e-13,2.313482601e-13,5.848388243e-14,1.337869801e-13,9.468771897e-13,2.158953470e-13,5.480749386e-13,1.092446961e-13,2.065436653e-13
1.75,6.866886582e-13,2.086507580e-13,5.610806545e-13,6.649141579e-14,7.750974007e-14,2.428573763e-13,4.889777234e-13,3.016419114e-14,4.768247443e-13,2.484643236e-13,1.085247993e-12,1.059676386e-12,1.160422858e-12,1.191646378e-12,1.786681224e-12,1.371445311e-12,1.226788890e-12,1.856643504e-12,1.159656614e-12,5.858209729e-13,9.404922670e-13,8.025727855e-13,5.388260246e-13,8.116920265e-13,2.175258950e-13,5.996489050e-14,1.298913363e-13,9.112565934e-13,2.105045838e-13,5.465684194e-13,1.067087448e-13,2.040143659e-13
1.7578,6.627868260e-13,1.880446464e-13,5.523700501e-13,6.521555754e-14,7.893357674e-14,2.416032801e-13,4.899833656e-13,2.911477629e-14,4.655597748e-13,2.477074612e-13,1.054648754e-12,1.033127499e-12,1.109457360e-12,1.149557965e-12,1.703477109e-12,1.312345640e-12,1.188028332e-12,1.782366066e-12,1.116741113e-12,5.700691577e-13,9.048629009e-13,7.714394708e-13,5.228481987e-13,7.874359286e-13,2.048445620e-13,6.174330419e-14,1.268858616e-13,8.775950384e-13,2.066867965e-13,5.583649206e-13,1.047344465e-13,2.013044891e-13
1.7656,6.413834785e-13,1.695577496e-13,5.428743278e-13,6.482947055e-14,8.081019359e-14,2.417513040e-13,4.911065306e-13,2.818394989e-14,4.538460368e-13,2.465914158e-13,1.024205769e-12,1.005393106e-12,1.058694449e-12,1.107024594e-12,1.621957992e-12,1.254068327e-12,1.148890522e-12,1.706589820e-12,1.072551432e-12,5.536576101e-13,8.682087541e-13,7.403692589e-13,5.062486479e-13,7.627280086e-13,1.922406172e-13,6.378738455e-14,1.244878288e-13,8.425093007e-13,2.031797758e-13,5.710790255e-13,1.033663706e-13,1.986594909e-13
1.7734,6.228682055e-13,1.533126888e-13,5.338127265e-13,6.523464624e-14,8.297243833e-14,2.431624284e-13,4.923799559e-13,2.740498015e-14,4.417342278e-13,2.452025365e-13,9.933796208e-13,9.767999831e-13,1.008067675e-12,1.064813898e-12,1.541384914e-12,1.195655000e-12,1.108235054e-12,1.629470812e-12,1.027395289e-12,5.363748904e-13,8.309317639e-13,7.091308423e-13,4.892556098e-13,7.386921903e-13,1.806121820e-13,6.603207762e-14,1.230135753e-13,8.069245001e-13,2.002690822e-13,5.844738447e-13,1.023923690e-13,1.959058384e-13
1.7812,6.059278722e-13,1.386818128e-13,5.245502869e-13,6.558650601e-14,8.524529386e-14,2.447432423e-13,4.937792932e-13,2.682075899e-14,4.292471094e-13,2.438019439e-13,9.630984684e-13,9.477280376e-13,9.581669799e-13,1.022865609e-12,1.463571260e-12,1.139363869e-12,1.068319061e-12,1.553404093e-12,9.830166480e-13,5.192897632e-13,7.947480240e-13,6.782465920e-13,4.727985636e-13,7.163512409e-13,1.703444632e-13,6.847360502e-14,1.222675212e-13,7.730368151e-13,1.976342344e-13,5.974673481e-13,1.019307594e-13,1.930049945e-13
1.7891,5.903404767e-13,1.258794166e-13,5.142938326e-13,6.617606237e-14,8.755067175e-14,2.468438219e-13,4.948190770e-13,2.644506088e-14,4.162813043e-13,2.422285026e-13,9.338999787e-13,9.177671558e-13,9.090445262e-13,9.809383010e-13,1.389645625e-12,1.086336259e-12,1.029875960e-12,1.477475107e-12,9.387204924e-13,5.033479366e-13,7.592935343e-13,6.478648199e-13,4.564571075e-13,6.955694174e-13,1.607605762e-13,7.099521694e-14,1.218257953e-13,7.392295123e-13,1.945766422e-13,6.050844093e-13,1.020705038e-13,1.901704623e-13
