Time,Fp1,AF3,F7,F3,FC1,FC5,T7,C3,CP1,CP5,P7,P3,Pz,PO3,O1,Oz,O2,PO4,P4,P8,CP6,CP2,C4,T8,FC6,FC2,F4,F8,AF4,Fp2,Fz,Cz,
0,4.000818672e-10,4.203278422e-10,1.280155929e-09,1.157753566e-10,3.198215875e-11,1.083668264e-10,1.220994505e-10,1.104502096e-10,8.888214482e-11,2.930478789e-10,1.447573036e-10,1.338865610e-10,2.762824761e-10,2.643343622e-10,2.629498401e-10,2.495526080e-10,2.977557337e-10,2.756425556e-11,1.069514173e-11,4.441734559e-11,1.292346532e-10,1.403944126e-10,6.484319406e-10,1.011813666e-10,3.880742801e-10,6.797646783e-11,3.002503470e-10,3.259889027e-10,4.388572177e-11,2.016986749e-09,1.202516902e-10,1.609076554e-10
0.0078125,4.012908538e-10,4.202688128e-10,1.280322507e-09,1.157543291e-10,3.203764937e-11,1.084120672e-10,1.221235491e-10,1.105897327e-10,8.898405115e-11,2.931945566e-10,1.454453512e-10,1.342693524e-10,2.759578455e-10,2.648825093e-10,2.635120771e-10,2.500094908e-10,2.983746193e-10,2.758393137e-11,1.068325639e-11,4.464519213e-11,1.293377119e-10,1.402908052e-10,6.502046577e-10,1.013594312e-10,3.874307665e-10,6.810835248e-11,3.000756523e-10,3.260723446e-10,4.392698281e-11,2.017505668e-09,1.203685673e-10,1.611691105e-10
0.015625,4.022495943e-10,4.199253175e-10,1.279498885e-09,1.156546173e-10,3.207149749e-11,1.083747032e-10,1.220634212e-10,1.106409545e-10,8.902781202e-11,2.931051636e-10,1.460495865e-10,1.345594476e-10,2.754499200e-10,2.652620752e-10,2.639077043e-10,2.503116107e-10,2.987981839e-10,2.758543739e-11,1.066632193e-11,4.484483548e-11,1.293656361e-10,1.400820097e-10,6.515137240e-10,1.014652655e-10,3.864980032e-10,6.820042715e-11,2.996602535e-10,3.259285272e-10,4.393747731e-11,2.016572559e-09,1.203931585e-10,1.613283409e-10
0.023438,4.029416928e-10,4.192963474e-10,1.277650930e-09,1.154748479e-10,3.208317289e-11,1.082599082e-10,1.219273215e-10,1.106060165e-10,8.901388010e-11,2.927982924e-10,1.465857769e-10,1.347569558e-10,2.747603882e-10,2.654679505e-10,2.641104235e-10,2.504419520e-10,2.990191782e-10,2.756996718e-11,1.064371668e-11,4.501966743e-11,1.293077037e-10,1.397669269e-10,6.523308376e-10,1.015058506e-10,3.852681310e-10,6.824847651e-11,2.990054785e-10,3.255654566e-10,4.392077887e-11,2.014185918e-09,1.203259255e-10,1.613805130e-10
0.03125,4.033836896e-10,4.183791908e-10,1.274761218e-09,1.152185630e-10,3.207413149e-11,1.080555680e-10,1.216947746e-10,1.104846529e-10,8.894229713e-11,2.922601940e-10,1.470354052e-10,1.348567354e-10,2.738896204e-10,2.654944042e-10,2.641102734e-10,2.503927342e-10,2.990202852e-10,2.753672418e-11,1.061440654e-11,4.516159391e-11,1.291631608e-10,1.393438627e-10,6.526566113e-10,1.014609517e-10,3.837441491e-10,6.825255940e-11,2.981135686e-10,3.250038234e-10,4.387773698e-11,2.010373384e-09,1.201674625e-10,1.613251461e-10
0.039062,4.035953402e-10,4.171837736e-10,1.270891009e-09,1.148897504e-10,3.204491967e-11,1.077633681e-10,1.213573621e-10,1.102765443e-10,8.881268662e-11,2.914754688e-10,1.474004409e-10,1.348580017e-10,2.728415583e-10,2.653468958e-10,2.639395165e-10,2.501848169e-10,2.988118338e-10,2.748579662e-11,1.057846422e-11,4.526822978e-11,1.289387881e-10,1.388189487e-10,6.525153431e-10,1.013246290e-10,3.819611995e-10,6.821349935e-11,2.969918164e-10,3.242409709e-10,4.380635339e-11,2.005159925e-09,1.199203680e-10,1.611644214e-10
0.046875,4.035635137e-10,4.157138968e-10,1.266045450e-09,1.144826957e-10,3.199446673e-11,1.073986903e-10,1.209332791e-10,1.099834844e-10,8.862559507e-11,2.904719818e-10,1.476959783e-10,1.347648876e-10,2.716212929e-10,2.650260450e-10,2.636011433e-10,2.498209775e-10,2.984060707e-10,2.741808279e-11,1.053617263e-11,4.534358169e-11,1.286340599e-10,1.381893774e-10,6.518837651e-10,1.011155231e-10,3.799119505e-10,6.812987481e-11,2.956267185e-10,3.232705061e-10,4.370467360e-11,1.998484312e-09,1.195865710e-10,1.608975649e-10
0.054688,4.032884683e-10,4.139741734e-10,1.260220415e-09,1.139969217e-10,3.192326236e-11,1.069559673e-10,1.204313670e-10,1.096065546e-10,8.838220885e-11,2.892787304e-10,1.479051316e-10,1.345797526e-10,2.702306300e-10,2.645293961e-10,2.630727294e-10,2.492864407e-10,2.977955423e-10,2.733266624e-11,1.048761184e-11,4.538659087e-11,1.282478931e-10,1.374509697e-10,6.507526539e-10,1.008330558e-10,3.775701973e-10,6.800311952e-11,2.940175563e-10,3.220979859e-10,4.357218396e-11,1.990364776e-09,1.191662973e-10,1.605259088e-10
0.0625,4.027987806e-10,4.119859611e-10,1.253489642e-09,1.134442525e-10,3.183279579e-11,1.064246953e-10,1.198456257e-10,1.091457766e-10,8.808324830e-11,2.878809267e-10,1.480152571e-10,1.343015871e-10,2.686716624e-10,2.638597884e-10,2.623561488e-10,2.485816132e-10,2.969742477e-10,2.723008572e-11,1.043265248e-11,4.539553643e-11,1.277808979e-10,1.366148077e-10,6.491483936e-10,1.004611802e-10,3.749675869e-10,6.783375502e-11,2.921869920e-10,3.207287424e-10,4.340880853e-11,1.980976688e-09,1.186636334e-10,1.600510656e-10
0.070312,4.020988694e-10,4.097527447e-10,1.245856855e-09,1.128285461e-10,3.172319817e-11,1.058099935e-10,1.191661806e-10,1.086017780e-10,8.772965610e-11,2.862568578e-10,1.480360728e-10,1.339296752e-10,2.669478396e-10,2.630192159e-10,2.614584140e-10,2.477127073e-10,2.959458871e-10,2.711247493e-11,1.037133632e-11,4.537105373e-11,1.272343686e-10,1.356850378e-10,6.470688495e-10,1.000078742e-10,3.721087661e-10,6.762161297e-11,2.901263528e-10,3.191552535e-10,4.321354908e-11,1.970375862e-09,1.180830507e-10,1.594737699e-10
0.078125,4.011791930e-10,4.072640006e-10,1.237278414e-09,1.121460878e-10,3.159401386e-11,1.051143148e-10,1.184004998e-10,1.079761297e-10,8.732293839e-11,2.844142030e-10,1.479695712e-10,1.334657389e-10,2.650654404e-10,2.620112352e-10,2.603798693e-10,2.466841072e-10,2.947186343e-10,2.697857849e-11,1.030496153e-11,4.531090808e-11,1.266141056e-10,1.346560945e-10,6.445173260e-10,9.949108735e-11,3.689604336e-10,6.736976422e-11,2.878315628e-10,3.173808426e-10,4.299081380e-11,1.958497934e-09,1.174217518e-10,1.587975836e-10
0.085938,4.000466464e-10,4.045307168e-10,1.227796834e-09,1.113974002e-10,3.144554656e-11,1.043387367e-10,1.175771774e-10,1.072696528e-10,8.686475860e-11,2.823621408e-10,1.478211236e-10,1.329113576e-10,2.630342346e-10,2.608426863e-10,2.591263050e-10,2.455028969e-10,2.932992605e-10,2.682552242e-11,1.023502753e-11,4.521281775e-11,1.259227848e-10,1.335322988e-10,6.415137660e-10,9.890277089e-11,3.655620919e-10,6.707741460e-11,2.853337410e-10,3.154365547e-10,4.274844620e-11,1.945336204e-09,1.166761892e-10,1.580237402e-10
0.09375,3.987118398e-10,4.015704376e-10,1.217471214e-09,1.105841257e-10,3.127896703e-11,1.034922236e-10,1.166870910e-10,1.064847610e-10,8.635618677e-11,2.801085229e-10,1.475981626e-10,1.322681043e-10,2.608573646e-10,2.595157391e-10,2.577024291e-10,2.441711793e-10,2.916895132e-10,2.665468990e-11,1.016091994e-11,4.507907252e-11,1.251571455e-10,1.323180247e-10,6.380563146e-10,9.822857867e-11,3.619619220e-10,6.674300012e-11,2.826330745e-10,3.133305098e-10,4.248253042e-11,1.930903290e-09,1.158532670e-10,1.571527401e-10
0.10156,3.971853661e-10,3.983977484e-10,1.206339263e-09,1.097129022e-10,3.109489022e-11,1.025777747e-10,1.156946611e-10,1.056271517e-10,8.579641300e-11,2.776770783e-10,1.472872708e-10,1.315380608e-10,2.585321547e-10,2.580290787e-10,2.561166551e-10,2.426892761e-10,2.898939089e-10,2.647140478e-11,1.008096211e-11,4.491415144e-11,1.243188367e-10,1.310151446e-10,6.341596814e-10,9.748119812e-11,3.581367108e-10,6.637276076e-11,2.797184033e-10,3.110298352e-10,4.218403227e-11,1.915300575e-09,1.149627619e-10,1.561905678e-10
0.10938,3.954639384e-10,3.950205413e-10,1.194419135e-09,1.087898345e-10,3.089259652e-11,1.015922559e-10,1.146222687e-10,1.046981214e-10,8.518572489e-11,2.750692593e-10,1.468872339e-10,1.307220858e-10,2.560631672e-10,2.563846191e-10,2.543770811e-10,2.410611895e-10,2.879180542e-10,2.627858805e-11,9.995099635e-12,4.472025531e-11,1.234139795e-10,1.296307812e-10,6.298457913e-10,9.667598168e-11,3.540744416e-10,6.596923218e-11,2.766125704e-10,3.085293889e-10,4.185647611e-11,1.898666138e-09,1.140021176e-10,1.551397687e-10
0.11719,3.935401143e-10,3.914302480e-10,1.181707960e-09,1.078086967e-10,3.067254835e-11,1.005362940e-10,1.135023429e-10,1.036962197e-10,8.452836891e-11,2.722695098e-10,1.464183428e-10,1.298246906e-10,2.534590827e-10,2.545897957e-10,2.524804197e-10,2.392906936e-10,2.857639953e-10,2.607401721e-11,9.904547238e-12,4.449659546e-11,1.224447246e-10,1.281675580e-10,6.251110222e-10,9.580659013e-11,3.497959636e-10,6.552772491e-11,2.733249564e-10,3.058628757e-10,4.150735415e-11,1.880958480e-09,1.129669741e-10,1.539987502e-10
0.125,3.914455466e-10,3.876390200e-10,1.168274291e-09,1.067697645e-10,3.043655947e-11,9.941241692e-11,1.123097215e-10,1.026265861e-10,8.382690979e-11,2.692958065e-10,1.458737793e-10,1.288525765e-10,2.507257951e-10,2.526537355e-10,2.504322112e-10,2.373843990e-10,2.834396473e-10,2.585628462e-11,9.809800894e-12,4.424353086e-11,1.214081121e-10,1.266288403e-10,6.199763028e-10,9.487001596e-11,3.453120679e-10,6.504961540e-11,2.698556298e-10,3.030457096e-10,4.113792556e-11,1.862159619e-09,1.118659512e-10,1.527718376e-10
0.13281,3.892007578e-10,3.836715026e-10,1.154178708e-09,1.056827460e-10,3.018483332e-11,9.822716845e-11,1.110378583e-10,1.014942120e-10,8.308042376e-11,2.661681422e-10,1.452352728e-10,1.278060379e-10,2.478688346e-10,2.505824980e-10,2.482482120e-10,2.353512199e-10,2.809548646e-10,2.562703174e-11,9.710555617e-12,4.396220852e-11,1.203010298e-10,1.250224358e-10,6.144682888e-10,9.387132678e-11,3.406402823e-10,6.453834718e-11,2.662247809e-10,3.000811105e-10,4.074925513e-11,1.842402735e-09,1.107044962e-10,1.514625238e-10
0.14062,3.867698979e-10,3.795122926e-10,1.139373809e-09,1.045427161e-10,2.991718715e-11,9.698915497e-11,1.097145099e-10,1.003005415e-10,8.229088085e-11,2.628850421e-10,1.445170892e-10,1.266857914e-10,2.448931785e-10,2.483816407e-10,2.459320665e-10,2.331963903e-10,2.783115277e-10,2.538521747e-11,9.607062232e-12,4.365061104e-11,1.191286388e-10,1.233463074e-10,6.085793684e-10,9.280846418e-11,3.357999990e-10,6.399250100e-11,2.624433881e-10,2.969835670e-10,4.034272650e-11,1.821722911e-09,1.094766254e-10,1.500700099e-10
0.14844,3.841397734e-10,3.751550599e-10,1.123876977e-09,1.033451056e-10,2.963450087e-11,9.570079467e-11,1.083324551e-10,9.904991018e-11,8.146106995e-11,2.594540727e-10,1.437359633e-10,1.254952764e-10,2.418059417e-10,2.460527334e-10,2.434787224e-10,2.309198075e-10,2.755092279e-10,2.512918824e-11,9.500166593e-12,4.330839083e-11,1.179010743e-10,1.216002051e-10,6.023223060e-10,9.168857876e-11,3.307903619e-10,6.341404901e-11,2.585194577e-10,2.937499513e-10,3.991909301e-11,1.800109391e-09,1.081831665e-10,1.485989916e-10
0.15625,3.813337448e-10,3.706361182e-10,1.107775181e-09,1.021023714e-10,2.933698882e-11,9.436462050e-11,1.068851319e-10,9.774412355e-11,8.059050985e-11,2.558767427e-10,1.428855910e-10,1.242324030e-10,2.386162666e-10,2.435916763e-10,2.408857769e-10,2.285184899e-10,2.725508232e-10,2.486200044e-11,9.390151284e-12,4.293935006e-11,1.166203279e-10,1.197947785e-10,5.957262685e-10,9.052232801e-11,3.256090507e-10,6.280674487e-11,2.544638207e-10,2.903650622e-10,3.948069941e-11,1.777627067e-09,1.068323903e-10,1.470552899e-10
0.16406,3.783543611e-10,3.659662388e-10,1.091081259e-09,1.008201402e-10,2.902548484e-11,9.298457181e-11,1.053991974e-10,9.638353831e-11,7.968092758e-11,2.521544416e-10,1.419591900e-10,1.228998764e-10,2.353275652e-10,2.410047079e-10,2.381631830e-10,2.259988118e-10,2.694468389e-10,2.458564244e-11,9.276994730e-12,4.254249101e-11,1.152846756e-10,1.179334608e-10,5.887997753e-10,8.929763721e-11,3.202720579e-10,6.216957597e-11,2.502728477e-10,2.868452770e-10,3.902896381e-11,1.754321739e-09,1.054284031e-10,1.454398510e-10
0.17188,3.752124709e-10,3.611392092e-10,1.073837355e-09,9.949564303e-11,2.870192808e-11,9.155780596e-11,1.038796598e-10,9.497445304e-11,7.873599944e-11,2.483130917e-10,1.409520732e-10,1.215060085e-10,2.319429299e-10,2.383028937e-10,2.353264540e-10,2.233729458e-10,2.662080857e-10,2.429854870e-11,9.160900878e-12,4.211257962e-11,1.138970020e-10,1.160166874e-10,5.815588853e-10,8.800417115e-11,3.148093300e-10,6.150257503e-11,2.459604341e-10,2.832199812e-10,3.856485021e-11,1.730280552e-09,1.039740976e-10,1.437556271e-10
0.17969,3.719409036e-10,3.561844589e-10,1.056138710e-09,9.813628742e-11,2.836645281e-11,9.008726162e-11,1.023093079e-10,9.352151617e-11,7.775626760e-11,2.443668819e-10,1.398595313e-10,1.200500769e-10,2.284712027e-10,2.354849332e-10,2.323726090e-10,2.206398966e-10,2.628322220e-10,2.400267241e-11,9.041438837e-12,4.165273375e-11,1.124579135e-10,1.140522712e-10,5.740200708e-10,8.665760122e-11,3.092287232e-10,6.080878234e-11,2.415481357e-10,2.794875681e-10,3.808792301e-11,1.705613488e-09,1.024752371e-10,1.420072862e-10
0.1875,3.685571947e-10,3.511293989e-10,1.038019537e-09,9.675042871e-11,2.801902897e-11,8.858510416e-11,1.006853899e-10,9.202794377e-11,7.674337460e-11,2.403258543e-10,1.386921763e-10,1.185364029e-10,2.249198549e-10,2.325599203e-10,2.293083972e-10,2.178054980e-10,2.593288401e-10,2.370178118e-11,8.918599235e-12,4.117346204e-11,1.109687611e-10,1.120451844e-10,5.661930041e-10,8.527696642e-11,3.035083217e-10,6.009035196e-11,2.370257589e-10,2.756390530e-10,3.759415951e-11,1.680352164e-09,1.009404340e-10,1.401979661e-10
0.19531,3.650751633e-10,3.459736663e-10,1.019507043e-09,9.533802650e-11,2.766160238e-11,8.704907657e-11,9.901869392e-11,9.049901894e-11,7.570157368e-11,2.362105217e-10,1.374653170e-10,1.169790232e-10,2.212964312e-10,2.295532089e-10,2.261726355e-10,2.148983537e-10,2.557319207e-10,2.339495196e-11,8.794345587e-12,4.067782603e-11,1.094385724e-10,1.100000524e-10,5.581082945e-10,8.386477621e-11,2.976632373e-10,5.934875669e-11,2.323988240e-10,2.716914523e-10,3.708608969e-11,1.654568228e-09,9.937486893e-11,1.383318054e-10
0.20312,3.615098475e-10,3.407219903e-10,1.000658125e-09,9.389824383e-11,2.729515229e-11,8.547185497e-11,9.732676096e-11,8.893358726e-11,7.463228586e-11,2.320032223e-10,1.361799068e-10,1.153768486e-10,2.176095143e-10,2.264680934e-10,2.229726141e-10,2.119268646e-10,2.520506574e-10,2.308040456e-11,8.669775024e-12,4.015965902e-11,1.078720026e-10,1.079251003e-10,5.497899856e-10,8.240773878e-11,2.917500633e-10,5.858381727e-11,2.277031746e-10,2.676546784e-10,3.657246007e-11,1.628348699e-09,9.777469840e-11,1.364110576e-10
0.21094,3.578647334e-10,3.353945278e-10,9.815300181e-10,9.243377929e-11,2.691940998e-11,8.386625799e-11,9.561003085e-11,8.733292961e-11,7.353573112e-11,2.276940411e-10,1.348307434e-10,1.137231676e-10,2.138627814e-10,2.232913402e-10,2.196761966e-10,2.088702244e-10,2.482626395e-10,2.275957194e-11,8.543646957e-12,3.961773353e-11,1.062669545e-10,1.058226393e-10,5.412446781e-10,8.090104341e-11,2.857814055e-10,5.779589779e-11,2.229467852e-10,2.635111821e-10,3.605133575e-11,1.601710890e-09,9.614205736e-11,1.344370338e-10
0.21875,3.541454161e-10,3.300108385e-10,9.621811819e-10,9.095074722e-11,2.653509463e-11,8.224074549e-11,9.384826200e-11,8.570633537e-11,7.241434029e-11,2.233262702e-10,1.334186400e-10,1.120251907e-10,2.100629687e-10,2.200296848e-10,2.162893255e-10,2.057302677e-10,2.443708129e-10,2.243392015e-11,8.415875975e-12,3.905864396e-11,1.046270918e-10,1.036936344e-10,5.324929802e-10,7.936894833e-11,2.797314615e-10,5.699013326e-11,2.181215381e-10,2.592654784e-10,3.551628196e-11,1.574721610e-09,9.448822278e-11,1.324173539e-10
0.22656,3.503524918e-10,3.245754467e-10,9.426188906e-10,8.945469355e-11,2.614300330e-11,8.058561544e-11,9.205132476e-11,8.405414629e-11,7.127054151e-11,2.189099326e-10,1.319532937e-10,1.102889913e-10,2.062205726e-10,2.167007170e-10,2.128487753e-10,2.025340232e-10,2.404040121e-10,2.210471019e-11,8.287267205e-12,3.848544664e-11,1.029566738e-10,1.015455889e-10,5.235549972e-10,7.782755417e-11,2.736158059e-10,5.616966595e-11,2.132445629e-10,2.549601069e-10,3.497347817e-11,1.547446792e-09,9.281302754e-11,1.303596405e-10
0.23438,3.464820244e-10,3.190874579e-10,9.228443898e-10,8.794736444e-11,2.574349917e-11,7.890685008e-11,9.024879407e-11,8.237620951e-11,7.010618746e-11,2.144334419e-10,1.304438251e-10,1.085169092e-10,2.023380753e-10,2.133110307e-10,2.093617968e-10,1.992894406e-10,2.363702743e-10,2.177441484e-11,8.156655141e-12,3.789640717e-11,1.012546376e-10,9.938520802e-11,5.144439955e-10,7.626209575e-11,2.674764928e-10,5.533205165e-11,2.083424344e-10,2.506171124e-10,3.443183784e-11,1.519897264e-09,9.111259606e-11,1.282635265e-10
0.24219,3.425508341e-10,3.135613087e-10,9.029343836e-10,8.643000944e-11,2.533734865e-11,7.722103025e-11,8.843418994e-11,8.068353973e-11,6.892374469e-11,2.099298540e-10,1.288816963e-10,1.067155356e-10,1.984194507e-10,2.098601161e-10,2.058152915e-10,1.959854504e-10,2.322603144e-10,2.144343881e-11,8.023693885e-12,3.729181454e-11,9.952523111e-11,9.721339856e-11,5.051811972e-10,7.466951020e-11,2.613184843e-10,5.447880989e-11,2.034243385e-10,2.462202375e-10,3.389016868e-11,1.492157040e-09,8.939526714e-11,1.261297447e-10
0.25,3.385784596e-10,3.080128175e-10,8.829437822e-10,8.490481933e-11,2.492541275e-11,7.552461492e-11,8.659473898e-11,7.897854874e-11,6.772597705e-11,2.054081544e-10,1.272548566e-10,1.048860248e-10,1.944774866e-10,2.063505054e-10,2.022087366e-10,1.926246605e-10,2.280809651e-10,2.111037993e-11,7.890444379e-12,3.667364949e-11,9.777563731e-11,9.503133434e-11,4.957842873e-10,7.306209977e-11,2.551332516e-10,5.361536224e-11,1.984841244e-10,2.417669683e-10,3.334497053e-11,1.464295464e-09,8.766652749e-11,1.239657883e-10
0.25781,3.345677683e-10,3.024471039e-10,8.628846652e-10,8.337559719e-11,2.450852569e-11,7.381298959e-11,8.474449170e-11,7.725776160e-11,6.651510391e-11,2.008501655e-10,1.255735305e-10,1.030281187e-10,1.905193926e-10,2.027915244e-10,1.985567971e-10,1.892232685e-10,2.238494193e-10,2.077641900e-11,7.757327805e-12,3.604307528e-11,9.600599828e-11,9.284642070e-11,4.862729167e-10,7.143922308e-11,2.489435264e-10,5.274209093e-11,1.935281625e-10,2.372831749e-10,3.279833135e-11,1.436313552e-09,8.592635148e-11,1.217775050e-10
0.26562,3.305204304e-10,2.968743337e-10,8.427985645e-10,8.184677358e-11,2.408732986e-11,7.209522765e-11,8.289091659e-11,7.552792616e-11,6.529196166e-11,1.962765563e-10,1.238500283e-10,1.011477606e-10,1.865476692e-10,1.991912953e-10,1.948718997e-10,1.857860308e-10,2.195680351e-10,2.044305419e-11,7.623031211e-12,3.539921017e-11,9.421767755e-11,9.066537431e-11,4.766688185e-10,6.980632932e-11,2.427665048e-10,5.185789417e-11,1.885778435e-10,2.327823866e-10,3.225455715e-11,1.408284704e-09,8.417976875e-11,1.195668289e-10
0.27344,3.264389903e-10,2.913051155e-10,8.227069396e-10,8.031803054e-11,2.366220279e-11,7.037419761e-11,8.103438181e-11,7.379282924e-11,6.405829962e-11,1.916975997e-10,1.220784449e-10,9.924806510e-11,1.825705072e-10,1.955537725e-10,1.911538663e-10,1.823119270e-10,2.152379258e-10,2.010926508e-11,7.487862317e-12,3.474110656e-11,9.241650676e-11,8.848693174e-11,4.669790257e-10,6.817449226e-11,2.365975998e-10,5.096552575e-11,1.836372408e-10,2.282611422e-10,3.171440492e-11,1.380266190e-09,8.242867341e-11,1.173372606e-10
0.28125,3.223316039e-10,2.857443504e-10,8.026285037e-10,7.878945535e-11,2.323424979e-11,6.865011555e-11,7.918240854e-11,7.205256749e-11,6.281883754e-11,1.871048201e-10,1.202611867e-10,9.733303682e-11,1.785969007e-10,1.918912090e-10,1.874109259e-10,1.788170824e-10,2.108811549e-10,1.977580019e-11,7.353011077e-12,3.407416851e-11,9.060245223e-11,8.631243051e-11,4.572177967e-10,6.653406034e-11,2.304585509e-10,5.006668567e-11,1.787053577e-10,2.237302191e-10,3.117574036e-11,1.352251070e-09,8.067360317e-11,1.150931118e-10
0.28906,3.182153735e-10,2.802037290e-10,7.826280306e-10,7.726785659e-11,2.280490818e-11,6.692926813e-11,7.732912115e-11,7.031467721e-11,6.157718863e-11,1.825218739e-10,1.184177313e-10,9.541174328e-11,1.746333925e-10,1.882187602e-10,1.836646068e-10,1.753197371e-10,2.065179092e-10,1.944536433e-11,7.219250695e-12,3.340568637e-11,8.877632460e-11,8.414959263e-11,4.474129887e-10,6.488045548e-11,2.243698481e-10,4.916145399e-11,1.737989926e-10,2.192034723e-10,3.063918764e-11,1.324315459e-09,7.892218650e-11,1.128378183e-10
0.29688,3.140931642e-10,2.746938760e-10,7.627346860e-10,7.575719960e-11,2.237475772e-11,6.521221117e-11,7.546981547e-11,6.858206579e-11,6.033422741e-11,1.779611822e-10,1.165557408e-10,9.348768569e-11,1.706851498e-10,1.845399130e-10,1.799206180e-10,1.718199510e-10,2.021486641e-10,1.911798406e-11,7.087449607e-12,3.273505581e-11,8.694921117e-11,8.200111452e-11,4.375825352e-10,6.322992191e-11,2.183061938e-10,4.825280553e-11,1.689240236e-10,2.146757935e-10,3.010760393e-11,1.296527503e-09,7.717860443e-11,1.105765566e-10
0.30469,3.099582190e-10,2.692161170e-10,7.429501565e-10,7.425571363e-11,2.194414071e-11,6.349896750e-11,7.361791366e-11,6.685255643e-11,5.909157363e-11,1.734132547e-10,1.146680505e-10,9.156175723e-11,1.667546203e-10,1.808559546e-10,1.761743796e-10,1.683163258e-10,1.977738892e-10,1.879261851e-11,6.957682951e-12,3.205983303e-11,8.512671608e-11,7.986756577e-11,4.277426443e-10,6.158652413e-11,2.122668323e-10,4.734383215e-11,1.640766780e-10,2.101523470e-10,2.958180251e-11,1.268869374e-09,7.544194774e-11,1.083140347e-10
0.3125,3.058223005e-10,2.637737638e-10,7.233149721e-10,7.276358124e-11,2.151361824e-11,6.179704235e-11,7.177185830e-11,6.513163513e-11,5.785052932e-11,1.688905026e-10,1.127525990e-10,8.963713283e-11,1.628455511e-10,1.771715953e-10,1.724323877e-10,1.648140446e-10,1.933981868e-10,1.846956678e-11,6.829285064e-12,3.138121944e-11,8.330201919e-11,7.775323266e-11,4.179103512e-10,5.994161779e-11,2.062983374e-10,4.643447607e-11,1.592735540e-10,2.056589494e-10,2.906242781e-11,1.241395768e-09,7.371420289e-11,1.060511355e-10
0.32031,3.017060020e-10,2.583717816e-10,7.038625445e-10,7.128082573e-11,2.108355989e-11,6.011013696e-11,6.992652632e-11,6.342438294e-11,5.661102579e-11,1.644028147e-10,1.108118307e-10,8.771325804e-11,1.589630605e-10,1.734879520e-10,1.686988920e-10,1.613140457e-10,1.890233299e-10,1.814877206e-11,6.702326796e-12,3.069874353e-11,8.147490954e-11,7.565974687e-11,4.080958027e-10,5.829780610e-11,2.004081694e-10,4.552493628e-11,1.545290263e-10,2.012003440e-10,2.855084622e-11,1.214199741e-09,7.199659635e-11,1.037892818e-10
0.32812,2.976106333e-10,2.530146307e-10,6.846008504e-10,6.980767894e-11,2.065444426e-11,5.843736104e-11,6.810835087e-11,6.173007194e-11,5.537514344e-11,1.599529846e-10,1.088454451e-10,8.579180529e-11,1.551089805e-10,1.698091731e-10,1.649741564e-10,1.578194860e-10,1.846574818e-10,1.783101309e-11,6.576883174e-12,3.001386009e-11,7.965338931e-11,7.358811077e-11,3.983135416e-10,5.666545108e-11,1.945685722e-10,4.461749497e-11,1.498359787e-10,1.967614700e-10,2.804613823e-11,1.187266393e-09,7.029116318e-11,1.015330524e-10
0.33594,2.935214020e-10,2.477122813e-10,6.655376101e-10,6.835050402e-11,2.022698158e-11,5.678010154e-11,6.632979967e-11,6.004994916e-11,5.414591492e-11,1.555564922e-10,1.068570128e-10,8.387991233e-11,1.512864365e-10,1.661441687e-10,1.612675988e-10,1.543387772e-10,1.803113056e-10,1.751899791e-11,6.452543696e-12,2.933287185e-11,7.783734964e-11,7.154314888e-11,3.885769722e-10,5.505092447e-11,1.887888757e-10,4.371429682e-11,1.451938218e-10,1.923483830e-10,2.754782637e-11,1.160560044e-09,6.860374652e-11,9.928663018e-11
0.34375,2.894421994e-10,2.424726707e-10,6.466926447e-10,6.691412559e-11,1.980181842e-11,5.514087308e-11,6.456263511e-11,5.838706544e-11,5.292413838e-11,1.512121899e-10,1.048571461e-10,8.198008491e-11,1.475017678e-10,1.624975384e-10,1.575870597e-10,1.508762070e-10,1.759888166e-10,1.721370143e-11,6.329777355e-12,2.865757227e-11,7.602465022e-11,6.952795976e-11,3.788975701e-10,5.344980233e-11,1.830966949e-10,4.281641018e-11,1.406178091e-10,1.879800234e-10,2.705894606e-11,1.134137280e-09,6.693627572e-11,9.705304645e-11
0.35156,2.853985668e-10,2.372942086e-10,6.281134103e-10,6.549528507e-11,1.937957804e-11,5.352357230e-11,6.279679040e-11,5.674414273e-11,5.171051574e-11,1.469144485e-10,1.028527321e-10,8.009263597e-11,1.437577908e-10,1.588731989e-10,1.539351498e-10,1.474360310e-10,1.716940516e-10,1.691279147e-11,6.209371354e-12,2.798448877e-11,7.422249997e-11,6.754163905e-11,3.692941759e-10,5.185418761e-11,1.774874614e-10,4.192446788e-11,1.361149251e-10,1.836588306e-10,2.658090987e-11,1.108070997e-09,6.528798663e-11,9.483470401e-11
0.35938,2.813921453e-10,2.321764565e-10,6.098245145e-10,6.409242876e-11,1.896061406e-11,5.192991919e-11,6.105432140e-11,5.512329967e-11,5.050643690e-11,1.426804707e-10,1.008403011e-10,7.822098641e-11,1.400550988e-10,1.552752202e-10,1.503151985e-10,1.440228212e-10,1.674304303e-10,1.661403170e-11,6.091183718e-12,2.731232764e-11,7.243614623e-11,6.558294687e-11,3.597735541e-10,5.027250124e-11,1.719465125e-10,4.103875403e-11,1.316801147e-10,1.793796056e-10,2.611132749e-11,1.082367009e-09,6.366097181e-11,9.263228399e-11
0.36719,2.774052280e-10,2.271281010e-10,5.918136702e-10,6.270956616e-11,1.854481223e-11,5.035789552e-11,5.934567824e-11,5.352481074e-11,4.931259244e-11,1.385151330e-10,9.881536715e-11,7.636580726e-11,1.363972769e-10,1.517020636e-10,1.467223841e-10,1.406338284e-10,1.631986549e-10,1.631827580e-11,5.975090737e-12,2.664200996e-11,7.066264658e-11,6.365512235e-11,3.503375815e-10,4.871674679e-11,1.664927793e-10,4.015871772e-11,1.273206396e-10,1.751490401e-10,2.565001484e-11,1.057026264e-09,6.205575471e-11,9.044681201e-11
0.375,2.734451951e-10,2.221566964e-10,5.741031772e-10,6.134796602e-11,1.813234074e-11,4.881008183e-11,5.766582134e-11,5.194998289e-11,4.813037774e-11,1.344093284e-10,9.677921880e-11,7.452695533e-11,1.327880940e-10,1.481563270e-10,1.431555556e-10,1.372702478e-10,1.590046503e-10,1.602786044e-11,5.861512371e-12,2.597531640e-11,6.890229033e-11,6.176421487e-11,3.410079906e-10,4.717912434e-11,1.611523903e-10,3.928414206e-11,1.230511509e-10,1.709788604e-10,2.519927785e-11,1.032077804e-09,6.047209049e-11,8.828127047e-11
0.38281,2.695250354e-10,2.172608528e-10,5.567188435e-10,6.000645444e-11,1.772420112e-11,4.729000660e-11,5.600826991e-11,5.040049010e-11,4.696146603e-11,1.303686842e-10,9.473341064e-11,7.270800298e-11,1.292292043e-10,1.446478154e-10,1.396332971e-10,1.339428725e-10,1.548565414e-10,1.574328268e-11,5.750667179e-12,2.531487960e-11,6.716010182e-11,5.990947169e-11,3.317989752e-10,4.565237438e-11,1.559120669e-10,3.841725273e-11,1.188650055e-10,1.668647527e-10,2.475847279e-11,1.007517113e-09,5.891369818e-11,8.613801948e-11
0.39062,2.656435165e-10,2.124404051e-10,5.396555295e-10,5.868678036e-11,1.732130445e-11,4.579555827e-11,5.436877900e-11,4.887597771e-11,4.580584428e-11,1.263987238e-10,9.268251539e-11,7.091113407e-11,1.257227621e-10,1.411790418e-10,1.361644091e-10,1.306547778e-10,1.507572614e-10,1.546424377e-11,5.642497711e-12,2.466252942e-11,6.543709159e-11,5.808743559e-11,3.227065795e-10,4.414548006e-11,1.507568730e-10,3.756029889e-11,1.147545601e-10,1.627943825e-10,2.432666076e-11,9.833614597e-10,5.738361120e-11,8.401785322e-11
0.39844,2.618106852e-10,2.077007108e-10,5.229393630e-10,5.738963368e-11,1.692361702e-11,4.432778149e-11,5.275563104e-11,4.737856267e-11,4.466373380e-11,1.225014380e-10,9.063941049e-11,6.913710762e-11,1.222706897e-10,1.377484870e-10,1.327362404e-10,1.274018499e-10,1.467067260e-10,1.519144866e-11,5.536727855e-12,2.401951759e-11,6.373117025e-11,5.630227061e-11,3.137370132e-10,4.266406368e-11,1.457049181e-10,3.671207242e-11,1.107346069e-10,1.587785318e-10,2.390574665e-11,9.596839716e-10,5.588135070e-11,8.192164540e-11
0.40625,2.580315457e-10,2.030441215e-10,5.065926715e-10,5.611362199e-11,1.653090969e-11,4.288986653e-11,5.117866073e-11,4.591153236e-11,4.353657322e-11,1.186836417e-10,8.860863049e-11,6.738892623e-11,1.188724440e-10,1.343620778e-10,1.293504268e-10,1.241882957e-10,1.427052810e-10,1.492468634e-11,5.433026922e-12,2.338655554e-11,6.204283567e-11,5.455742003e-11,3.048993657e-10,4.120771386e-11,1.407601019e-10,3.587126773e-11,1.068079473e-10,1.548370125e-10,2.349493016e-11,9.364731978e-10,5.440723416e-11,7.985077004e-11
0.41406,2.542923701e-10,1.984714434e-10,4.905909789e-10,5.486037247e-11,1.614331717e-11,4.148027340e-11,4.963170215e-11,4.447394631e-11,4.242504227e-11,1.149441001e-10,8.657990530e-11,6.566872824e-11,1.155289364e-10,1.310250200e-10,1.260211446e-10,1.210212731e-10,1.387590521e-10,1.466322318e-11,5.331688183e-12,2.276402520e-11,6.037434788e-11,5.285093735e-11,2.961945916e-10,3.977853878e-11,1.359104111e-10,3.503963437e-11,1.029624318e-10,1.509627336e-10,2.309198822e-11,9.136715056e-10,5.296260794e-11,7.780672697e-11
0.42188,2.505999568e-10,1.939850789e-10,4.749414007e-10,5.363045159e-11,1.576102880e-11,4.010161191e-11,4.810906924e-11,4.306539813e-11,4.132986730e-11,1.112834545e-10,8.455684981e-11,6.397800956e-11,1.122449450e-10,1.277397648e-10,1.227512880e-10,1.179058294e-10,1.348808474e-10,1.440748797e-11,5.233159328e-12,2.215410572e-11,5.872716408e-11,5.118415780e-11,2.876304511e-10,3.837434795e-11,1.311695043e-10,3.421890659e-11,9.920755604e-11,1.471454633e-10,2.270027114e-11,8.913325813e-10,5.154782837e-11,7.579125176e-11
0.42969,2.469719302e-10,1.895864094e-10,4.596809086e-10,5.242216607e-11,1.538446693e-11,3.875922663e-11,4.661699694e-11,4.168844458e-11,4.025263116e-11,1.077106037e-10,8.255906428e-11,6.231931672e-11,1.090230538e-10,1.245121530e-10,1.195448487e-10,1.148490856e-10,1.310774804e-10,1.415700106e-11,5.137225819e-12,2.155829475e-11,5.710312124e-11,4.955892294e-11,2.792192941e-10,3.699355558e-11,1.265496793e-10,3.340947594e-11,9.555613337e-11,1.433999917e-10,2.232246857e-11,8.695124220e-10,5.016424675e-11,7.380612639e-11
0.4375,2.433984561e-10,1.852784291e-10,4.448053377e-10,5.123936855e-11,1.501382459e-11,3.744925305e-11,4.516082568e-11,4.034307270e-11,3.919331768e-11,1.042217080e-10,8.058244492e-11,6.069074503e-11,1.058618015e-10,1.213393136e-10,1.164006182e-10,1.118469802e-10,1.273411565e-10,1.391080416e-11,5.043771873e-12,2.097437767e-11,5.550476056e-11,4.797294492e-11,2.709647326e-10,3.564371445e-11,1.220415402e-10,3.261150491e-11,9.199970656e-11,1.397336323e-10,2.195475588e-11,8.481738933e-10,4.881342228e-11,7.185188427e-11
0.44531,2.398706404e-10,1.810626529e-10,4.302973689e-10,5.008547019e-11,1.464855514e-11,3.616723796e-11,4.374029383e-11,3.902842950e-11,3.815063625e-11,1.008131093e-10,7.860554599e-11,5.908836350e-11,1.027610574e-10,1.182106395e-10,1.133009473e-10,1.088850056e-10,1.236602172e-10,1.367002312e-11,4.953009975e-12,2.040069354e-11,5.393250650e-11,4.642549891e-11,2.628627273e-10,3.433148912e-11,1.176399048e-10,3.182474183e-11,8.853245635e-11,1.361336855e-10,2.159610593e-11,8.273054233e-10,4.749405011e-11,6.992806825e-11
0.45312,2.364021180e-10,1.769374104e-10,4.161677675e-10,4.895668762e-11,1.428874351e-11,3.491649494e-11,4.235330053e-11,3.774655074e-11,3.712481463e-11,9.749624675e-11,7.663470727e-11,5.751497443e-11,9.972119994e-11,1.151294054e-10,1.102481735e-10,1.059653531e-10,1.200352916e-10,1.343599081e-11,4.864443039e-12,1.983877470e-11,5.238507561e-11,4.491883219e-11,2.549157788e-10,3.305646144e-11,1.133476537e-10,3.105023305e-11,8.516003747e-11,1.326040837e-10,2.125088736e-11,8.069316336e-10,4.620568525e-11,6.803598412e-11
0.46094,2.329968760e-10,1.729061539e-10,4.024298196e-10,4.785273362e-11,1.393502995e-11,3.369832575e-11,4.100180358e-11,3.649753920e-11,3.611674490e-11,9.426847851e-11,7.468708095e-11,5.597300148e-11,9.674049145e-11,1.121023935e-10,1.072579230e-10,1.030972252e-10,1.164740573e-10,1.320880818e-11,4.777278469e-12,1.928914277e-11,5.086179581e-11,4.345466665e-11,2.471341208e-10,3.181206636e-11,1.091773986e-10,3.028999239e-11,8.188536882e-11,1.291621429e-10,2.091952137e-11,7.870441251e-10,4.495036973e-11,6.617759939e-11
0.46875,2.296473668e-10,1.689705931e-10,3.890771598e-10,4.677713307e-11,1.358701968e-11,3.251063215e-11,3.968941436e-11,3.527879074e-11,3.512648738e-11,9.111517148e-11,7.275243692e-11,5.445820830e-11,9.381943025e-11,1.091230078e-10,1.043168118e-10,1.002727852e-10,1.129739239e-10,1.298820782e-11,4.691637731e-12,1.874980482e-11,4.936082311e-11,4.203154112e-11,2.395130425e-10,3.059090226e-11,1.051395217e-10,2.954293183e-11,7.870755238e-11,1.257999690e-10,2.059906444e-11,7.676404111e-10,4.372699006e-11,6.435204142e-11
0.47656,2.263588352e-10,1.651254472e-10,3.761039253e-10,4.572783354e-11,1.324459415e-11,3.135365405e-11,3.840754735e-11,3.409116135e-11,3.415466724e-11,8.804327272e-11,7.082512436e-11,5.297178158e-11,9.096200780e-11,1.061930080e-10,1.014204377e-10,9.749217417e-11,1.095328775e-10,1.277335653e-11,4.608429124e-12,1.822138074e-11,4.788150220e-11,4.064636561e-11,2.320422987e-10,2.939953641e-11,1.012127923e-10,2.880713090e-11,7.562539325e-11,1.224986712e-10,2.028976754e-11,7.487416626e-10,4.253369722e-11,6.255857847e-11
0.48438,2.231345507e-10,1.613710634e-10,3.635174801e-10,4.470284010e-11,1.290865573e-11,3.022717047e-11,3.714978284e-11,3.293676984e-11,3.320271244e-11,8.506445122e-11,6.892798789e-11,5.152069836e-11,8.817072292e-11,1.033259902e-10,9.859522648e-11,9.477336726e-11,1.061652714e-10,1.256408859e-11,4.528743003e-12,1.770877096e-11,4.643025632e-11,3.930035674e-11,2.247353707e-10,2.824870393e-11,9.737937297e-11,2.808434225e-11,7.263869255e-11,1.192683247e-10,1.999255255e-11,7.303396862e-10,4.137213233e-11,6.079967260e-11
0.49219,2.199617929e-10,1.577088053e-10,3.513095646e-10,4.370348379e-11,1.257900525e-11,2.913198155e-11,3.592931936e-11,3.181405378e-11,3.227106531e-11,8.217042040e-11,6.706829744e-11,5.010385443e-11,8.544477649e-11,1.005203192e-10,9.584004089e-11,9.211719850e-11,1.028788823e-10,1.236084747e-11,4.453031347e-12,1.721334202e-11,4.501313682e-11,3.799524985e-11,2.176040978e-10,2.713064116e-11,9.365721167e-11,2.737626713e-11,6.974601959e-11,1.161270541e-10,1.970614906e-11,7.123911066e-10,4.024130041e-11,5.907659082e-11
0.5,2.168379878e-10,1.541349146e-10,3.394622424e-10,4.272910136e-11,1.225493710e-11,2.807279738e-11,3.474767203e-11,3.072269159e-11,3.135893140e-11,7.935541486e-11,6.522872011e-11,4.871655360e-11,8.278287707e-11,9.776719340e-11,9.313604273e-11,8.951206724e-11,9.966259720e-11,1.216233278e-11,4.380436068e-12,1.673063789e-11,4.362675530e-11,3.672751365e-11,2.106386425e-10,2.603739140e-11,9.005619380e-11,2.668176085e-11,6.694436487e-11,1.130657650e-10,1.943037458e-11,6.948884348e-10,3.913888497e-11,5.738776315e-11
0.50781,2.137751498e-10,1.506509326e-10,3.279828543e-10,4.177947070e-11,1.193709118e-11,2.704936807e-11,3.358856554e-11,2.966469217e-11,3.046594874e-11,7.662446937e-11,6.341004168e-11,4.736040321e-11,8.018542298e-11,9.507097827e-11,9.049397173e-11,8.696182647e-11,9.651300311e-11,1.196796228e-11,4.310137933e-12,1.626061742e-11,4.226770924e-11,3.549650018e-11,2.038374522e-10,2.497759004e-11,8.656757010e-11,2.600036595e-11,6.423581775e-11,1.100752755e-10,1.916631725e-11,6.778797706e-10,3.806757431e-11,5.573306629e-11
0.51562,2.107709566e-10,1.472552738e-10,3.168707487e-10,4.085495352e-11,1.162616343e-11,2.605439287e-11,3.245939709e-11,2.863808889e-11,2.959320414e-11,7.397517922e-11,6.162519877e-11,4.603780681e-11,7.765265928e-11,9.243673240e-11,8.791986639e-11,8.447072383e-11,9.343749801e-11,1.177965950e-11,4.242575726e-12,1.580837415e-11,4.093922491e-11,3.430558316e-11,1.972061166e-10,2.395550951e-11,8.318922058e-11,2.533270463e-11,6.162153942e-11,1.071661865e-10,1.891356722e-11,6.613624897e-10,3.702809667e-11,5.411428662e-11
0.52344,2.078144803e-10,1.439389521e-10,3.061021189e-10,3.995360697e-11,1.132189801e-11,2.508553440e-11,3.137886340e-11,2.764036835e-11,2.874151992e-11,7.140409276e-11,5.986898494e-11,4.474821730e-11,7.518300026e-11,8.986125041e-11,8.539921953e-11,8.203140175e-11,9.043372028e-11,1.159743742e-11,4.177977599e-12,1.537326917e-11,3.964210392e-11,3.315293092e-11,1.907397149e-10,2.296804063e-11,7.991552819e-11,2.467847574e-11,5.909509447e-11,1.043386724e-10,1.867161935e-11,6.452618817e-10,3.601693946e-11,5.253199689e-11
0.53125,2.049066121e-10,1.407038386e-10,2.956773582e-10,3.907514570e-11,1.102379612e-11,2.414746419e-11,3.034011701e-11,2.667336863e-11,2.790967464e-11,6.891432129e-11,5.813616294e-11,4.349022529e-11,7.277588879e-11,8.734106133e-11,8.293210527e-11,7.964141499e-11,8.749600936e-11,1.141931462e-11,4.115809668e-12,1.495091405e-11,3.837374250e-11,3.203520091e-11,1.844376048e-10,2.201405818e-11,7.674423788e-11,2.403745032e-11,5.665421444e-11,1.015868986e-10,1.844118307e-11,6.295608852e-10,3.503442173e-11,5.098501760e-11
0.53906,2.020458610e-10,1.375562045e-10,2.856010589e-10,3.822086775e-11,1.073159040e-11,2.324263890e-11,2.932994030e-11,2.573790668e-11,2.709644809e-11,6.650499903e-11,5.643760135e-11,4.226238312e-11,7.043170337e-11,8.487535303e-11,8.052470162e-11,7.730527977e-11,8.462761385e-11,1.124539303e-11,4.056151690e-12,1.454154269e-11,3.713422187e-11,3.095276975e-11,1.783016963e-10,2.108799448e-11,7.368452738e-11,2.340984191e-11,5.430001743e-11,9.892107802e-11,1.822177466e-11,6.143066899e-10,3.408229415e-11,4.947224418e-11
0.54688,1.992267067e-10,1.344918462e-10,2.758504535e-10,3.739074623e-11,1.044556903e-11,2.236941221e-11,2.834690452e-11,2.483239913e-11,2.630230153e-11,6.417357719e-11,5.477687458e-11,4.106556795e-11,6.814821221e-11,8.246668564e-11,7.817565423e-11,7.502529493e-11,8.183150009e-11,1.107675836e-11,3.999039120e-12,1.414665940e-11,3.592315203e-11,2.990532510e-11,1.723253634e-10,2.019149317e-11,7.072917757e-11,2.279553606e-11,5.202765429e-11,9.633747390e-11,1.801142879e-11,5.995013926e-10,3.315929299e-11,4.799386069e-11
0.55469,1.964591114e-10,1.315043805e-10,2.664160133e-10,3.658376923e-11,1.016589386e-11,2.152567706e-11,2.739277020e-11,2.395590205e-11,2.552732077e-11,6.191718866e-11,5.314365561e-11,3.990039234e-11,6.592340761e-11,8.011717240e-11,7.588691852e-11,7.279954143e-11,7.910437944e-11,1.091341365e-11,3.943658397e-12,1.376563423e-11,3.473934248e-11,2.889181867e-11,1.665067549e-10,1.933628380e-11,6.786634322e-11,2.219468094e-11,4.983551171e-11,9.381587735e-11,1.780874396e-11,5.851034122e-10,3.226393756e-11,4.655034838e-11
0.5625,1.937516227e-10,1.285899493e-10,2.573041115e-10,3.579700540e-11,9.892080015e-12,2.071018889e-11,2.647342918e-11,2.310693627e-11,2.477110373e-11,5.972883731e-11,5.153669769e-11,3.876490253e-11,6.375852713e-11,7.782463716e-11,7.365574741e-11,7.062491382e-11,7.644527922e-11,1.075495137e-11,3.890110475e-12,1.339905797e-11,3.358492125e-11,2.791199492e-11,1.608488578e-10,1.851716843e-11,6.510563501e-11,2.160758498e-11,4.772658585e-11,9.136451016e-11,1.761399173e-11,5.710896658e-10,3.139462515e-11,4.514138472e-11
0.57031,1.910887663e-10,1.257494283e-10,2.485051201e-10,3.503029011e-11,9.624168409e-12,1.992291099e-11,2.558970752e-11,2.228515593e-11,2.403451017e-11,5.761171603e-11,4.996703367e-11,3.766094016e-11,6.165420994e-11,7.559003032e-11,7.147808415e-11,6.850440331e-11,7.385927850e-11,1.060080105e-11,3.839350678e-12,1.304849584e-11,3.246074754e-11,2.696455857e-11,1.553480360e-10,1.772205670e-11,6.245085488e-11,2.103392092e-11,4.569770459e-11,8.900203647e-11,1.742975669e-11,5.574656894e-10,3.055089358e-11,4.376652161e-11
0.57812,1.884558816e-10,1.229865980e-10,2.400053955e-10,3.428685597e-11,9.362378686e-12,1.916448387e-11,2.473138574e-11,2.149204739e-11,2.331787602e-11,5.557516927e-11,4.843796780e-11,3.659116090e-11,5.960900605e-11,7.341555324e-11,6.935952491e-11,6.644197368e-11,7.134670778e-11,1.045058326e-11,3.791025284e-12,1.271358180e-11,3.136503966e-11,2.604811039e-11,1.499995091e-10,1.695650266e-11,5.988911787e-11,2.047310335e-11,4.374337114e-11,8.671744259e-11,1.725720831e-11,5.442335978e-10,2.973391432e-11,4.242541617e-11
0.58594,1.858653498e-10,1.202935569e-10,2.318011075e-10,3.356176515e-11,9.106077018e-12,1.843526020e-11,2.389823069e-11,2.072659569e-11,2.261983025e-11,5.361173364e-11,4.694273893e-11,3.555127689e-11,5.762134448e-11,7.129594466e-11,6.729807221e-11,6.443134052e-11,6.889858195e-11,1.030381177e-11,3.744177658e-12,1.239215492e-11,3.029894690e-11,2.516177064e-11,1.448031189e-10,1.622415041e-11,5.741543014e-11,1.992475947e-11,4.186244542e-11,8.449938562e-11,1.709204836e-11,5.313728964e-10,2.894120786e-11,4.111762623e-11
0.59375,1.833314468e-10,1.176614687e-10,2.238897379e-10,3.284892483e-11,8.855197529e-12,1.773402034e-11,2.309881812e-11,1.998687784e-11,2.193970863e-11,5.171059195e-11,4.548098372e-11,3.453807967e-11,5.568960730e-11,6.922763290e-11,6.528509946e-11,6.246637983e-11,6.651088975e-11,1.015936751e-11,3.698830969e-12,1.208275100e-11,2.926307443e-11,2.430488453e-11,1.397599232e-10,1.552007684e-11,5.503162707e-11,1.938879820e-11,4.005558331e-11,8.235626608e-11,1.693152603e-11,5.188722221e-10,2.816970857e-11,3.984304487e-11
0.60156,1.808365307e-10,1.150976902e-10,2.162546375e-10,3.215644707e-11,8.610404460e-12,1.705737676e-11,2.233098518e-11,1.927263351e-11,2.127792898e-11,4.987311930e-11,4.405799307e-11,3.355407162e-11,5.381269908e-11,6.721435111e-11,6.332351233e-11,6.055090283e-11,6.418978530e-11,1.001783244e-11,3.655242615e-12,1.178692973e-11,2.825463875e-11,2.347759467e-11,1.348660180e-10,1.484765607e-11,5.273648092e-11,1.886533127e-11,3.832087897e-11,8.028773429e-11,1.677974985e-11,5.067234124e-10,2.742159974e-11,3.860124167e-11
0.60938,1.783588697e-10,1.126066351e-10,2.088709352e-10,3.149139638e-11,8.371494322e-12,1.640426809e-11,2.158917456e-11,1.858283255e-11,2.063431969e-11,4.809797770e-11,4.267153139e-11,3.259975496e-11,5.198980491e-11,6.525743238e-11,6.141878761e-11,5.868923124e-11,6.193917623e-11,9.881642316e-12,3.613461965e-12,1.150718461e-11,2.727388843e-11,2.267945107e-11,1.301136969e-10,1.420891703e-11,5.052800259e-11,1.835405082e-11,3.665264483e-11,7.828510723e-11,1.663879962e-11,4.948902083e-10,2.669857097e-11,3.739113172e-11
0.61719,1.759165395e-10,1.101814557e-10,2.017417176e-10,3.084700305e-11,8.138081027e-12,1.577747534e-11,2.087320514e-11,1.791709339e-11,2.000823873e-11,4.638362953e-11,4.131745829e-11,3.167378720e-11,5.021900770e-11,6.335465584e-11,5.957096424e-11,5.688159221e-11,5.975707284e-11,9.750783659e-12,3.573477903e-12,1.124255643e-11,2.632208090e-11,2.190931492e-11,1.255014013e-10,1.360015031e-11,4.840213695e-11,1.785434904e-11,3.504758969e-11,7.635015139e-11,1.650556142e-11,4.833706367e-10,2.599893055e-11,3.621223684e-11
0.625,1.735348796e-10,1.078169273e-10,1.948842192e-10,3.021698221e-11,7.910281398e-12,1.517638371e-11,2.018444364e-11,1.727586554e-11,1.939917523e-11,4.473454898e-11,3.999838756e-11,3.077538443e-11,4.849927724e-11,6.150320338e-11,5.777672792e-11,5.512435290e-11,5.763895162e-11,9.622511284e-12,3.534825425e-12,1.098978855e-11,2.539622864e-11,2.116571086e-11,1.210295059e-10,1.302206631e-11,4.635648535e-11,1.736638953e-11,3.350693874e-11,7.448542287e-11,1.637908504e-11,4.722023034e-10,2.532109491e-11,3.506462026e-11
0.63281,1.712035843e-10,1.055071759e-10,1.882904370e-10,2.959925683e-11,7.687882170e-12,1.459765293e-11,1.952544611e-11,1.665707592e-11,1.880688545e-11,4.314574877e-11,3.871526423e-11,2.990234715e-11,4.683123193e-11,5.969951385e-11,5.602806695e-11,5.341090979e-11,5.557935330e-11,9.495385807e-12,3.497233192e-12,1.074793636e-11,2.449604499e-11,2.044605974e-11,1.166929689e-10,1.247297161e-11,4.439319618e-11,1.689066294e-11,3.203044280e-11,7.268741040e-11,1.625961342e-11,4.613622613e-10,2.466306390e-11,3.394796667e-11
0.64062,1.689093836e-10,1.032522768e-10,1.819501570e-10,2.899221399e-11,7.470701383e-12,1.404235148e-11,1.889342409e-11,1.605935656e-11,1.823128107e-11,4.160911904e-11,3.746618933e-11,2.905404506e-11,4.521392197e-11,5.794375529e-11,5.432354750e-11,5.174092998e-11,5.357804028e-11,9.370010151e-12,3.460874695e-12,1.051864184e-11,2.362570679e-11,1.975001122e-11,1.124904791e-10,1.194995158e-11,4.250889303e-11,1.642666822e-11,3.061613521e-11,7.095392540e-11,1.614550402e-11,4.508076615e-10,2.402450963e-11,3.286156263e-11
0.64844,1.666558869e-10,1.010626684e-10,1.758512727e-10,2.840208955e-11,7.258827184e-12,1.351092819e-11,1.828111371e-11,1.548365655e-11,1.767179269e-11,4.012727470e-11,3.625448986e-11,2.823128539e-11,4.364487517e-11,5.623763580e-11,5.266836945e-11,5.011824790e-11,5.163766025e-11,9.247162215e-12,3.425493011e-12,1.030249306e-11,2.278454842e-11,1.907931639e-11,1.084215082e-10,1.145471438e-11,4.069434772e-11,1.597363848e-11,2.925945534e-11,6.928298885e-11,1.603698227e-11,4.405564732e-10,2.340793386e-11,3.180422650e-11
0.65625,1.644350971e-10,9.893605814e-11,1.699591569e-10,2.783607102e-11,7.051931927e-12,1.299962794e-11,1.768946670e-11,1.492900963e-11,1.712779812e-11,3.870040624e-11,3.508201923e-11,2.743233918e-11,4.212270206e-11,5.457858825e-11,5.105812105e-11,4.854016768e-11,4.975489327e-11,9.126995227e-12,3.391165280e-12,1.009746289e-11,2.196803657e-11,1.843233316e-11,1.044783310e-10,1.098433230e-11,3.894844859e-11,1.553167452e-11,2.795478865e-11,6.767216558e-11,1.593522785e-11,4.306096548e-10,2.281236638e-11,3.077496150e-11
0.66406,1.622381714e-10,9.686067911e-11,1.642704090e-10,2.728938374e-11,6.849750873e-12,1.250815191e-11,1.712025352e-11,1.439412160e-11,1.659921794e-11,3.732353621e-11,3.394279617e-11,2.665586647e-11,4.064633442e-11,5.296443847e-11,4.948832578e-11,4.700364381e-11,4.792611750e-11,9.008986591e-12,3.358247006e-12,9.901400930e-12,2.117558528e-11,1.780706097e-11,1.006578187e-10,1.053790362e-11,3.727771227e-11,1.510092277e-11,2.670569163e-11,6.612075529e-11,1.583966535e-11,4.209226923e-10,2.223448407e-11,2.977371823e-11
0.67188,1.600741613e-10,9.483850811e-11,1.588129549e-10,2.675526283e-11,6.652469356e-12,1.203827814e-11,1.656917935e-11,1.387920650e-11,1.608556688e-11,3.599645547e-11,3.283351730e-11,2.590195740e-11,3.921376149e-11,5.139464685e-11,4.796376187e-11,4.550967516e-11,4.615217575e-11,8.892681382e-12,3.325559256e-12,9.714201830e-12,2.040874952e-11,1.720458632e-11,9.696107389e-11,1.012170905e-11,3.567980554e-11,1.468125277e-11,2.551562350e-11,6.462591538e-11,1.575038036e-11,4.114809994e-10,2.167475597e-11,2.880048356e-11
0.67969,1.579445364e-10,9.287198227e-11,1.535689162e-10,2.623428883e-11,6.460133051e-12,1.158829321e-11,1.603995378e-11,1.338314133e-11,1.558622872e-11,3.471791094e-11,3.175848414e-11,2.516958355e-11,3.782391217e-11,4.986697843e-11,4.648379861e-11,4.405632990e-11,4.443189725e-11,8.778473747e-12,3.292328709e-12,9.536578269e-12,1.966701031e-11,1.662370182e-11,9.338261469e-11,9.732157101e-12,3.414408280e-11,1.427284099e-11,2.437482164e-11,6.318613767e-11,1.566737204e-11,4.022913587e-10,2.113355402e-11,2.785484761e-11
0.6875,1.558428044e-10,9.095339702e-11,1.485024695e-10,2.572703479e-11,6.272654774e-12,1.115762633e-11,1.553910481e-11,1.290484958e-11,1.510146376e-11,3.348417472e-11,3.072004342e-11,2.445870696e-11,3.647757241e-11,4.838148617e-11,4.504429204e-11,4.264203757e-11,4.276313693e-11,8.666568008e-12,3.260032635e-12,9.368089693e-12,1.894911667e-11,1.606176992e-11,8.991800316e-11,9.362679629e-12,3.266920058e-11,1.387506129e-11,2.327827118e-11,6.180603226e-11,1.558896435e-11,3.933471300e-10,2.060830900e-11,2.693614195e-11
0.69531,1.537747034e-10,8.908043032e-11,1.436181544e-10,2.523225847e-11,6.089915882e-12,1.074678886e-11,1.505986728e-11,1.244448776e-11,1.463105062e-11,3.229477470e-11,2.971419783e-11,2.376953013e-11,3.517408402e-11,4.693901584e-11,4.364591899e-11,4.126784705e-11,4.114514137e-11,8.556216692e-12,3.228752676e-12,9.207586096e-12,1.825449203e-11,1.551925484e-11,8.656590086e-11,9.017985514e-12,3.125896406e-11,1.348644867e-11,2.223171297e-11,6.048315377e-11,1.551446824e-11,3.846425617e-10,2.009819560e-11,2.604292507e-11
0.70312,1.517387545e-10,8.725402963e-11,1.389220042e-10,2.475096712e-11,5.911572471e-12,1.035283573e-11,1.459461017e-11,1.200112989e-11,1.417385646e-11,3.114868481e-11,2.873772826e-11,2.310009117e-11,3.391017217e-11,4.553612255e-11,4.228672468e-11,3.993172978e-11,3.957582376e-11,8.447405955e-12,3.196999064e-12,9.055656397e-12,1.758280951e-11,1.499620978e-11,8.332204767e-11,8.698644951e-12,2.990712604e-11,1.310719353e-11,2.123252393e-11,5.920488624e-11,1.544388415e-11,3.761669867e-10,1.960374108e-11,2.517420109e-11
0.71094,1.497204466e-10,8.547065178e-11,1.344008317e-10,2.428359765e-11,5.737393572e-12,9.974199014e-12,1.414796078e-11,1.157403881e-11,1.372962384e-11,3.004381603e-11,2.779269102e-11,2.244969847e-11,3.268460824e-11,4.417096465e-11,4.096540055e-11,3.863319998e-11,3.805588593e-11,8.341255071e-12,3.165978076e-12,8.914411844e-12,1.693400291e-11,1.449108704e-11,8.018466945e-11,8.398884567e-12,2.860887265e-11,1.273851853e-11,2.027456912e-11,5.797090902e-11,1.537641426e-11,3.679035205e-10,1.912386001e-11,2.433040502e-11
0.71875,1.477220331e-10,8.372974642e-11,1.300475562e-10,2.382805332e-11,5.567438837e-12,9.612814608e-12,1.372524467e-11,1.116327065e-11,1.329857772e-11,2.897959100e-11,2.688058028e-11,2.181891921e-11,3.149912588e-11,4.284516789e-11,3.968456938e-11,3.737489906e-11,3.658809006e-11,8.237508050e-12,3.137196050e-12,8.783612779e-12,1.630874723e-11,1.400347381e-11,7.715318284e-11,8.119795866e-12,2.736951546e-11,1.237994822e-11,1.935954095e-11,5.679088134e-11,1.531213460e-11,3.598499301e-10,1.865778905e-11,2.351140324e-11
0.72656,1.457558471e-10,8.203245140e-11,1.258567323e-10,2.338345193e-11,5.401660625e-12,9.268880462e-12,1.332295423e-11,1.076777462e-11,1.288009965e-11,2.795427545e-11,2.599882141e-11,2.120628701e-11,3.035320840e-11,4.155722687e-11,3.844051227e-11,3.615363012e-11,3.516866332e-11,8.134362526e-12,3.108857525e-12,8.660795600e-12,1.570738882e-11,1.353269731e-11,7.422341336e-11,7.863969646e-12,2.618768960e-11,1.203055639e-11,1.848754800e-11,5.565757502e-11,1.525144552e-11,3.520073657e-10,1.820561001e-11,2.271608410e-11
0.73438,1.438177081e-10,8.037638431e-11,1.218207490e-10,2.295127763e-11,5.239755525e-12,8.941478283e-12,1.293552008e-11,1.038695093e-11,1.247355064e-11,2.696582107e-11,2.514696246e-11,2.061044431e-11,2.924378653e-11,4.030478029e-11,3.722887639e-11,3.496485243e-11,3.379231643e-11,8.031078000e-12,3.079677432e-12,8.545010038e-12,1.512737377e-11,1.307766949e-11,7.139209467e-11,7.631068718e-12,2.505502451e-11,1.169044153e-11,1.765537588e-11,5.456115819e-11,1.519391200e-11,3.443616203e-10,1.776649741e-11,2.194378235e-11
0.74219,1.419010555e-10,7.875971181e-11,1.179355922e-10,2.253167066e-11,5.081540033e-12,8.630673906e-12,1.256293739e-11,1.002111078e-11,1.207870010e-11,2.601290582e-11,2.432738169e-11,2.003135448e-11,2.816915080e-11,3.908832974e-11,3.605329545e-11,3.381083812e-11,3.246032274e-11,7.928016677e-12,3.050500762e-12,8.435907717e-12,1.456520704e-11,1.263817385e-11,6.865457364e-11,7.418772743e-12,2.397228523e-11,1.135919426e-11,1.686163563e-11,5.351367218e-11,1.513979947e-11,3.368980279e-10,1.733965253e-11,2.119357535e-11
0.75,1.400111892e-10,7.718100973e-11,1.141938246e-10,2.212201914e-11,4.927257253e-12,8.334922216e-12,1.220705844e-11,9.669385512e-12,1.169515452e-11,2.509424575e-11,2.353879373e-11,1.946871593e-11,2.712880793e-11,3.790684093e-11,3.491341045e-11,3.269241424e-11,3.117364742e-11,7.825246059e-12,3.021038636e-12,8.332405601e-12,1.402194529e-11,1.221354738e-11,6.600503662e-11,7.223098297e-12,2.294287969e-11,1.103629126e-11,1.610487853e-11,5.251858026e-11,1.508966540e-11,3.296159259e-10,1.692481101e-11,2.046442964e-11
0.75781,1.381460011e-10,7.563789402e-11,1.105889495e-10,2.172087123e-11,4.777092187e-12,8.052094407e-12,1.186743185e-11,9.330799229e-12,1.132268078e-11,2.421098781e-11,2.277851729e-11,1.892271255e-11,2.612206295e-11,3.675784333e-11,3.380332769e-11,3.160535008e-11,2.992865927e-11,7.722881081e-12,2.990623178e-12,8.234617704e-12,1.350118048e-11,1.180308648e-11,6.344467128e-11,7.047565668e-12,2.196105011e-11,1.072215863e-11,1.538405405e-11,5.155651902e-11,1.504263386e-11,3.225128540e-10,1.652107997e-11,1.975656009e-11
0.76562,1.362939355e-10,7.412999023e-11,1.071191182e-10,2.132954956e-11,4.630719676e-12,7.783526544e-12,1.154642699e-11,9.005284808e-12,1.096131168e-11,2.336334172e-11,2.204686934e-11,1.839331077e-11,2.514823514e-11,3.564175780e-11,3.272484367e-11,3.054945820e-11,2.872363495e-11,7.621017908e-12,2.959893053e-12,8.142669741e-12,1.300248497e-11,1.140663337e-11,6.097533933e-11,6.895862743e-12,2.102158586e-11,1.041659170e-11,1.469719185e-11,5.062800656e-11,1.499718068e-11,3.155755371e-10,1.612780932e-11,1.906998009e-11
0.77344,1.344560280e-10,7.265645599e-11,1.037762361e-10,2.094836503e-11,4.487977488e-12,7.531661539e-12,1.124629600e-11,8.692487829e-12,1.061095161e-11,2.254692481e-11,2.134333355e-11,1.787897627e-11,2.420667103e-11,3.455969357e-11,3.168304385e-11,2.952789854e-11,2.756026604e-11,7.519393549e-12,2.929095430e-12,8.055762245e-12,1.252276881e-11,1.102340199e-11,5.859302937e-11,6.758773341e-12,2.012740906e-11,1.011894606e-11,1.404194550e-11,4.974914147e-11,1.495318294e-11,3.087995579e-10,1.574520240e-11,1.840371303e-11
0.78125,1.326417269e-10,7.121417722e-11,1.005494987e-10,2.057591495e-11,4.349163304e-12,7.294056652e-12,1.096015217e-11,8.391697224e-12,1.027147260e-11,2.175874523e-11,2.066621496e-11,1.737867954e-11,2.329692867e-11,3.351019896e-11,3.067491378e-11,2.853925958e-11,2.643863927e-11,7.418112932e-12,2.898070632e-12,7.974324998e-12,1.206115619e-11,1.065308458e-11,5.629456960e-11,6.633782780e-12,1.927913643e-11,9.829669675e-12,1.342063486e-11,4.890732395e-11,1.491234320e-11,3.021864635e-10,1.537272133e-11,1.775759293e-11
0.78906,1.308507232e-10,6.980251400e-11,9.743783703e-11,2.021193215e-11,4.214196132e-12,7.066209066e-12,1.068142094e-11,8.102194058e-12,9.942458072e-12,2.099863106e-11,2.001576069e-11,1.689228518e-11,2.241814268e-11,3.249112518e-11,2.969480695e-11,2.758004828e-11,2.535646069e-11,7.317203744e-12,2.867109718e-12,7.898469652e-12,1.161825727e-11,1.029599740e-11,5.407708100e-11,6.530875680e-12,1.847086469e-11,9.548823858e-12,1.283263129e-11,4.808792276e-11,1.487516725e-11,2.957258567e-10,1.500952073e-11,1.713169292e-11
0.79688,1.290796388e-10,6.842271278e-11,9.444507947e-11,1.985652262e-11,4.082626881e-12,6.849412080e-12,1.041469847e-11,7.823696240e-12,9.623164885e-12,2.026608570e-11,1.939145000e-11,1.641934288e-11,2.156849565e-11,3.150130397e-11,2.874210741e-11,2.664972193e-11,2.431215427e-11,7.216105227e-12,2.835950699e-12,7.826925228e-12,1.119370542e-11,9.951224135e-12,5.193587994e-11,6.447254484e-12,1.770029280e-11,9.275409986e-12,1.227095507e-11,4.730901660e-11,1.483927847e-11,2.894159422e-10,1.465608673e-11,1.652491522e-11
0.80469,1.273305012e-10,6.707368233e-11,9.156585844e-11,1.950930167e-11,3.954460994e-12,6.646420054e-12,1.016600065e-11,7.556320369e-12,9.313445051e-12,1.956234981e-11,1.879192628e-11,1.596003347e-11,2.074714214e-11,3.054006772e-11,2.781759610e-11,2.574783732e-11,2.330436099e-11,7.114855974e-12,2.804268946e-12,7.759527816e-12,1.078631610e-11,9.617888404e-12,4.986942329e-11,6.373980420e-12,1.696872214e-11,9.009200130e-12,1.173516815e-11,4.657921449e-11,1.480333675e-11,2.832651055e-10,1.431291218e-11,1.593641593e-11
0.8125,1.256012459e-10,6.575378688e-11,8.878845874e-11,1.917049961e-11,3.829900145e-12,6.453956382e-12,9.932975556e-12,7.299031097e-12,9.013418290e-12,1.888685278e-11,1.821786855e-11,1.551442478e-11,1.995425624e-11,2.960697593e-11,2.692013986e-11,2.487247896e-11,2.233017914e-11,7.013943490e-12,2.772644561e-12,7.696089325e-12,1.039538212e-11,9.295918165e-12,4.787683879e-11,6.314822013e-12,1.627342549e-11,8.750536996e-12,1.122854657e-11,4.587864164e-11,1.476862765e-11,2.772566752e-10,1.397901687e-11,1.536616978e-11
0.82031,1.238849668e-10,6.446189740e-11,8.611108320e-11,1.883868881e-11,3.708657973e-12,6.269719740e-12,9.707447754e-12,7.050556916e-12,8.722371978e-12,1.823320445e-11,1.766854854e-11,1.508054419e-11,1.918883913e-11,2.870097701e-11,2.604813858e-11,2.402300984e-11,2.138811618e-11,6.913252606e-12,2.741395390e-12,7.635921230e-12,1.002102965e-11,8.984287403e-12,4.595499196e-11,6.271991963e-12,1.561335090e-11,8.499287202e-12,1.074784307e-11,4.519958065e-11,1.473588264e-11,2.713672759e-10,1.365312438e-11,1.481365532e-11
0.82812,1.221815682e-10,6.319585015e-11,8.353442540e-11,1.851140389e-11,3.590363138e-12,6.096238536e-12,9.485180266e-12,6.811299625e-12,8.439696964e-12,1.759788908e-11,1.714129234e-11,1.465677449e-11,1.844958522e-11,2.782045452e-11,2.520014707e-11,2.319935688e-11,2.047912667e-11,6.812519667e-12,2.710059370e-12,7.579369303e-12,9.662670201e-12,8.682153765e-12,4.410203568e-11,6.239926695e-12,1.499093946e-11,8.255313247e-12,1.029125186e-11,4.454970249e-11,1.470508868e-11,2.656021044e-10,1.333490247e-11,1.427812070e-11
0.83594,1.204975173e-10,6.195530208e-11,8.104680288e-11,1.819075662e-11,3.475172423e-12,5.932596796e-12,9.274037805e-12,6.581263907e-12,8.165752086e-12,1.698424211e-11,1.663566563e-11,1.424436359e-11,1.773580149e-11,2.696549752e-11,2.437683111e-11,2.240067242e-11,1.960264703e-11,6.711268402e-12,2.678044686e-12,7.524609909e-12,9.318676734e-12,8.390077023e-12,4.231623861e-11,6.218130576e-12,1.440199682e-11,8.018262050e-12,9.860070061e-12,4.392961142e-11,1.467560929e-11,2.599723465e-10,1.302462987e-11,1.375932408e-11
0.84375,1.188361130e-10,6.074160871e-11,7.864525402e-11,1.787943526e-11,3.363308808e-12,5.776137650e-12,9.081312820e-12,6.359311610e-12,7.900515634e-12,1.639492208e-11,1.615037623e-11,1.384466203e-11,1.704635718e-11,2.613707487e-11,2.358084722e-11,2.162702653e-11,1.875739824e-11,6.608884607e-12,2.645014388e-12,7.469416138e-12,8.988711669e-12,8.107808958e-12,4.059445349e-11,6.208992079e-12,1.384024191e-11,7.787463304e-12,9.450639445e-12,4.333973297e-11,1.464495012e-11,2.544751508e-10,1.272220333e-11,1.325699983e-11
0.85156,1.171969110e-10,5.955304487e-11,7.634351058e-11,1.757362935e-11,3.254505509e-12,5.628603761e-12,8.899171016e-12,6.145586650e-12,7.643221602e-12,1.582962565e-11,1.568297915e-11,1.345675767e-11,1.638070033e-11,2.533404874e-11,2.281103131e-11,2.087894839e-11,1.794434082e-11,6.506104540e-12,2.611381316e-12,7.417119607e-12,8.673547085e-12,7.834101239e-12,3.893444410e-11,6.211923588e-12,1.330663088e-11,7.563049813e-12,9.059958511e-12,4.277980332e-11,1.461300319e-11,2.491012002e-10,1.242730183e-11,1.277067772e-11
0.85938,1.155794159e-10,5.838826539e-11,7.413589759e-11,1.727103956e-11,3.148499229e-12,5.490398302e-12,8.720725253e-12,5.940514826e-12,7.393611269e-12,1.528635712e-11,1.523694217e-11,1.307949499e-11,1.573893034e-11,2.455504358e-11,2.206389053e-11,2.015608316e-11,1.716336507e-11,6.404000744e-12,2.577637010e-12,7.370008251e-12,8.372792856e-12,7.568883711e-12,3.733466426e-11,6.226101473e-12,1.280250746e-11,7.345563298e-12,8.690196490e-12,4.224190990e-11,1.458356405e-11,2.438384137e-10,1.214029608e-11,1.229992223e-11
0.86719,1.139763965e-10,5.724992148e-11,7.199664391e-11,1.697667520e-11,3.045392345e-12,5.358961954e-12,8.551843583e-12,5.743058011e-12,7.151703846e-12,1.476133456e-11,1.481514071e-11,1.271251755e-11,1.511966466e-11,2.379986198e-11,2.133987780e-11,1.945745986e-11,1.641156375e-11,6.301919464e-12,2.543398168e-12,7.324177593e-12,8.085750511e-12,7.312716195e-12,3.579392285e-11,6.250252932e-12,1.232599956e-11,7.134715372e-12,8.341596862e-12,4.172516157e-11,1.455647996e-11,2.386823350e-10,1.186099869e-11,1.184420381e-11
0.875,1.123753215e-10,5.613728519e-11,6.992080823e-11,1.669221771e-11,2.945164445e-12,5.234372834e-12,8.394461570e-12,5.552532140e-12,6.917060059e-12,1.425320695e-11,1.441040202e-11,1.235505089e-11,1.452142153e-11,2.306661507e-11,2.063881931e-11,1.878079814e-11,1.568693976e-11,6.199180822e-12,2.508663473e-12,7.278643269e-12,7.812562349e-12,7.065143621e-12,3.431111361e-11,6.282275733e-12,1.187541013e-11,6.929960469e-12,8.011080426e-12,4.123380311e-11,1.452740380e-11,2.336347174e-10,1.158787639e-11,1.140312990e-11
0.88281,1.107821734e-10,5.504503488e-11,6.792116618e-11,1.641311764e-11,2.847603237e-12,5.117346940e-12,8.243559648e-12,5.369238020e-12,6.689432179e-12,1.376403210e-11,1.401802267e-11,1.200653483e-11,1.394447161e-11,2.235337237e-11,1.995742447e-11,1.812413330e-11,1.498931224e-11,6.096227169e-12,2.474140645e-12,7.235879932e-12,7.552966873e-12,6.825381964e-12,3.288420684e-11,6.321230944e-12,1.144840686e-11,6.731223832e-12,7.697253063e-12,4.076238114e-11,1.449700199e-11,2.286896538e-10,1.132059040e-11,1.097659241e-11
0.89062,1.092187073e-10,5.397150882e-11,6.599564170e-11,1.613804500e-11,2.752687629e-12,5.007358419e-12,8.099701213e-12,5.193086814e-12,6.468925065e-12,1.329378776e-11,1.364355494e-11,1.166733701e-11,1.338868080e-11,2.166105541e-11,1.929576931e-11,1.748817504e-11,1.431835309e-11,5.992754016e-12,2.439619590e-12,7.193900541e-12,7.306041619e-12,6.593330891e-12,3.151185197e-11,6.368232526e-12,1.104536614e-11,6.538378585e-12,7.401474489e-12,4.030746883e-11,1.446870140e-11,2.238459586e-10,1.105999202e-11,1.056414718e-11
0.89844,1.076817404e-10,5.291785686e-11,6.413392206e-11,1.586833569e-11,2.660477299e-12,4.905031951e-12,7.964661365e-12,5.023619260e-12,6.255280280e-12,1.284061485e-11,1.328703896e-11,1.133739918e-11,1.285262373e-11,2.098961434e-11,1.865468515e-11,1.687271818e-11,1.367272875e-11,5.888484418e-12,2.404612449e-12,7.150456510e-12,7.070374138e-12,6.369087701e-12,3.019244586e-11,6.425267185e-12,1.066888543e-11,6.351001180e-12,7.124148043e-12,3.987305287e-11,1.444023713e-11,2.191066900e-10,1.080523595e-11,1.016491447e-11
0.90625,1.061482676e-10,5.188337431e-11,6.233826084e-11,1.560283170e-11,2.570925107e-12,4.809898947e-12,7.835893633e-12,4.860455868e-12,6.047984891e-12,1.240423912e-11,1.294064750e-11,1.101599377e-11,1.233521810e-11,2.033681947e-11,1.803191798e-11,1.627528538e-11,1.305032803e-11,5.784980574e-12,2.369460002e-12,7.107240343e-12,6.843981698e-12,6.152544656e-12,2.892248463e-11,6.490582274e-12,1.031580747e-11,6.168737522e-12,6.862535282e-12,3.945634039e-11,1.440814053e-11,2.144563465e-10,1.055507515e-11,9.778384174e-12
0.91406,1.046221580e-10,5.086790220e-11,6.061172288e-11,1.534101123e-11,2.483942267e-12,4.719842538e-12,7.711506212e-12,4.703312321e-12,5.846793644e-12,1.198409266e-11,1.260441103e-11,1.070269667e-11,1.183602521e-11,1.970222785e-11,1.742773754e-11,1.569578277e-11,1.245029332e-11,5.683329855e-12,2.334117975e-12,7.064936808e-12,6.626508908e-12,5.943470018e-12,2.770042882e-11,6.559381643e-12,9.982131618e-12,5.991420877e-12,6.614775854e-12,3.905225421e-11,1.437366971e-11,2.098835033e-10,1.031002968e-11,9.404665403e-12
0.92188,1.031195052e-10,4.987221110e-11,5.894394115e-11,1.508389224e-11,2.399453775e-12,4.634584985e-12,7.590484007e-12,4.552003592e-12,5.651808234e-12,1.157863000e-11,1.228334545e-11,1.039752286e-11,1.135505240e-11,1.908668028e-11,1.684355830e-11,1.513576937e-11,1.187394524e-11,5.582309913e-12,2.298291052e-12,7.023219128e-12,6.419754212e-12,5.741208626e-12,2.652626544e-11,6.630948117e-12,9.669034338e-12,5.819006650e-12,6.381489752e-12,3.866152128e-11,1.433787547e-11,2.054031609e-10,1.007050335e-11,9.043786224e-12
0.92969,1.016281835e-10,4.889534642e-11,5.732644663e-11,1.483087176e-11,2.317484116e-12,4.554754726e-12,7.473717940e-12,4.406217466e-12,5.463153942e-12,1.118739954e-11,1.197640533e-11,1.010071193e-11,1.089241877e-11,1.849029198e-11,1.627788977e-11,1.459504670e-11,1.132189655e-11,5.480599297e-12,2.262596106e-12,6.982451157e-12,6.224013107e-12,5.545097524e-12,2.539740304e-11,6.707204285e-12,9.375959221e-12,5.651540600e-12,6.161832891e-12,3.828390289e-11,1.429972024e-11,2.010188018e-10,9.835901373e-12,8.695112598e-12
0.9375,1.001358557e-10,4.793555634e-11,5.576314501e-11,1.458130569e-11,2.238061659e-12,4.480208830e-12,7.365186901e-12,4.265753821e-12,5.280520658e-12,1.081032014e-11,1.168240090e-11,9.812136013e-12,1.044735479e-11,1.791312643e-11,1.573080083e-11,1.407332421e-11,1.079286133e-11,5.378594120e-12,2.227568883e-12,6.941656418e-12,6.037501089e-12,5.355382558e-12,2.431196793e-11,6.787653874e-12,9.101066409e-12,5.489002548e-12,5.954628696e-12,3.791919082e-11,1.425958174e-11,1.967121008e-10,9.605993497e-12,8.357801038e-12
0.94531,9.865735402e-11,4.699182623e-11,5.425503643e-11,1.433587985e-11,2.161064926e-12,4.410639631e-12,7.264381065e-12,4.130635803e-12,5.103491685e-12,1.044716190e-11,1.140299310e-11,9.531229881e-12,1.001867335e-11,1.735441935e-11,1.520288386e-11,1.357028291e-11,1.028589350e-11,5.277721416e-12,2.193119230e-12,6.901043605e-12,5.859619968e-12,5.172358923e-12,2.327019747e-11,6.872237051e-12,8.843985581e-12,5.331209498e-12,5.760150055e-12,3.756838396e-11,1.421721725e-11,1.924842235e-10,9.380823990e-12,8.031764590e-12
0.95312,9.720074773e-11,4.606455183e-11,5.279552136e-11,1.409453334e-11,2.086370174e-12,4.345277472e-12,7.166949113e-12,4.000494194e-12,4.932023611e-12,1.009814785e-11,1.113554448e-11,9.257736333e-12,9.605680510e-12,1.681226017e-11,1.469138887e-11,1.308386669e-11,9.800128111e-12,5.178463163e-12,2.159099027e-12,6.862366098e-12,5.690897651e-12,4.995230139e-12,2.227012289e-11,6.961552583e-12,8.600762684e-12,5.178025450e-12,5.576530682e-12,3.722831770e-11,1.417116193e-11,1.883505494e-10,9.160248166e-12,7.717364940e-12
0.96094,9.613549176e-11,4.539019525e-11,5.204108579e-11,1.393619799e-11,2.022725639e-12,4.165467259e-12,6.974622948e-12,3.846114770e-12,4.767591321e-12,9.728263335e-12,1.087056062e-11,9.010512414e-12,9.185877652e-12,1.629264481e-11,1.416776383e-11,1.259329432e-11,9.315235960e-12,5.084039274e-12,2.121908117e-12,6.798885264e-12,5.529259580e-12,4.839451819e-12,2.126022066e-11,6.953756322e-12,8.266842858e-12,5.024718131e-12,5.262426356e-12,3.687438201e-11,1.405201132e-11,1.850644146e-10,9.020717592e-12,7.414510679e-12
0.96875,9.481743775e-11,4.458574619e-11,5.089402212e-11,1.373031219e-11,1.951862594e-12,4.077439005e-12,6.854474604e-12,3.719351205e-12,4.603079395e-12,9.396720697e-12,1.062758060e-11,8.752701001e-12,8.787197742e-12,1.577860839e-11,1.368622722e-11,1.213638724e-11,8.866078059e-12,4.986848815e-12,2.084423924e-12,6.754379238e-12,5.379849962e-12,4.682832036e-12,2.033734755e-11,7.026805500e-12,8.032617278e-12,4.882935990e-12,5.073493365e-12,3.653352864e-11,1.398106119e-11,1.813493566e-10,8.827671435e-12,7.121143203e-12
0.97656,9.327410772e-11,4.365644842e-11,4.935802023e-11,1.348454842e-11,1.877626024e-12,4.059165405e-12,6.784177669e-12,3.611256452e-12,4.441593879e-12,9.092708111e-12,1.039796771e-11,8.482286247e-12,8.417519241e-12,1.526628043e-11,1.321191353e-11,1.169130617e-11,8.430202239e-12,4.883653050e-12,2.049380661e-12,6.711613259e-12,5.234850516e-12,4.511490493e-12,1.945483149e-11,7.135869610e-12,7.848674590e-12,4.746130325e-12,4.945707258e-12,3.621416386e-11,1.394017594e-11,1.772242985e-10,8.600485098e-12,6.836834842e-12
0.98438,9.182720882e-11,4.278425780e-11,4.802256166e-11,1.325399009e-11,1.808594589e-12,4.019782121e-12,6.706965284e-12,3.501969132e-12,4.286992131e-12,8.795427638e-12,1.017272138e-11,8.228098121e-12,8.058044307e-12,1.477526131e-11,1.275537195e-11,1.126083086e-11,8.012859219e-12,4.784580919e-12,2.014026827e-12,6.668124183e-12,5.093972862e-12,4.353512844e-12,1.860502762e-11,7.237434059e-12,7.670631509e-12,4.611281605e-12,4.812381005e-12,3.590951545e-11,1.388742331e-11,1.733350980e-10,8.390392402e-12,6.563136305e-12
0.99219,9.043685348e-11,4.194994165e-11,4.682042540e-11,1.303152667e-11,1.742861386e-12,3.972389641e-12,6.631525545e-12,3.393999864e-12,4.137220634e-12,8.505226311e-12,9.952208394e-12,7.985221362e-12,7.706940520e-12,1.430063566e-11,1.231820661e-11,1.084543911e-11,7.614073491e-12,4.689291890e-12,1.977337744e-12,6.625865500e-12,4.958321539e-12,4.207758455e-12,1.779162507e-11,7.341337839e-12,7.512826419e-12,4.479180386e-12,4.687774021e-12,3.562575332e-11,1.383205137e-11,1.696021176e-10,8.187832249e-12,6.298987916e-12
1,8.900118303e-11,4.110254948e-11,4.554985828e-11,1.280625688e-11,1.678353833e-12,3.942258704e-12,6.562403832e-12,3.292921928e-12,3.991447546e-12,8.231308118e-12,9.739181429e-12,7.740255033e-12,7.375220644e-12,1.383196142e-11,1.187901595e-11,1.043482433e-11,7.223322689e-12,4.590778554e-12,1.941748849e-12,6.575470543e-12,4.827255320e-12,4.056608176e-12,1.700105523e-11,7.434464636e-12,7.360342779e-12,4.349371063e-12,4.563354994e-12,3.535422200e-11,1.377731130e-11,1.658441347e-10,7.988295457e-12,6.043353712e-12
1.0078,8.759129126e-11,4.027176430e-11,4.433607550e-11,1.258458749e-11,1.616921150e-12,3.910614534e-12,6.499607668e-12,3.194562609e-12,3.851783537e-12,7.967495793e-12,9.533814724e-12,7.505206735e-12,7.058014647e-12,1.338147751e-11,1.145665697e-11,1.004040706e-11,6.852345929e-12,4.492813244e-12,1.906729982e-12,6.524794925e-12,4.701768992e-12,3.911699649e-12,1.624294602e-11,7.526441921e-12,7.218374948e-12,4.223080758e-12,4.447617730e-12,3.509182034e-11,1.371930337e-11,1.621764705e-10,7.794224475e-12,5.797226261e-12
1.0156,8.621457003e-11,3.945412648e-11,4.319432667e-11,1.236331049e-11,1.558078994e-12,3.878417345e-12,6.448897571e-12,3.098924181e-12,3.717629840e-12,7.711300720e-12,9.333012776e-12,7.282002568e-12,6.751176338e-12,1.295043809e-11,1.106031675e-11,9.665987850e-12,6.503999757e-12,4.397552521e-12,1.871253045e-12,6.478471766e-12,4.581918863e-12,3.778108544e-12,1.552451744e-11,7.631152159e-12,7.101387345e-12,4.100784334e-12,4.354224851e-12,3.484562575e-11,1.366216563e-11,1.585921704e-10,7.599552814e-12,5.560429865e-12
1.0234,8.484655542e-11,3.864655163e-11,4.207541780e-11,1.214541885e-11,1.501300955e-12,3.849149661e-12,6.392602708e-12,3.006967467e-12,3.587722076e-12,7.466404334e-12,9.137033474e-12,7.060863616e-12,6.459211632e-12,1.252812122e-11,1.066637827e-11,9.297931033e-12,6.164489523e-12,4.301359428e-12,1.836798776e-12,6.425995157e-12,4.467047552e-12,3.643804913e-12,1.482767485e-11,7.722632423e-12,6.981333055e-12,3.980645374e-12,4.251363298e-12,3.460046680e-11,1.359755896e-11,1.550708950e-10,7.413594163e-12,5.331890143e-12
1.0312,8.349080621e-11,3.785452629e-11,4.100164926e-11,1.193027495e-11,1.447097125e-12,3.819509177e-12,6.332046779e-12,2.917794405e-12,3.462708883e-12,7.230712474e-12,8.951651193e-12,6.845859865e-12,6.180404417e-12,1.211934411e-11,1.028385765e-11,8.942781568e-12,5.840430810e-12,4.205689341e-12,1.803315014e-12,6.373268919e-12,4.357968378e-12,3.512546741e-12,1.415726678e-11,7.808814173e-12,6.864901951e-12,3.863483698e-12,4.148698762e-12,3.434867122e-11,1.352947716e-11,1.516195053e-10,7.234329329e-12,5.111783337e-12
1.0391,8.212892658e-11,3.706474524e-11,3.994453233e-11,1.171198621e-11,1.394942078e-12,3.796596547e-12,6.283673421e-12,2.832561112e-12,3.342434743e-12,7.004303714e-12,8.776130095e-12,6.639871111e-12,5.912047311e-12,1.172726447e-11,9.924077569e-12,8.606276437e-12,5.537228133e-12,4.111233172e-12,1.769612790e-12,6.324119560e-12,4.254141629e-12,3.389323080e-12,1.352395814e-11,7.908067230e-12,6.774471630e-12,3.750505582e-12,4.071509648e-12,3.410497415e-11,1.346791330e-11,1.481926687e-10,7.051286513e-12,4.900119346e-12
1.0469,8.078737969e-11,3.629311381e-11,3.892497848e-11,1.149959030e-11,1.344858815e-12,3.773548230e-12,6.233002084e-12,2.749735349e-12,3.226275907e-12,6.787543604e-12,8.605153601e-12,6.438535768e-12,5.655886060e-12,1.134544194e-11,9.569173732e-12,8.276904302e-12,5.244037938e-12,4.015538874e-12,1.736277279e-12,6.267230573e-12,4.154823695e-12,3.268174227e-12,1.291435436e-11,7.994930615e-12,6.683104789e-12,3.640645014e-12,3.989596779e-12,3.386673935e-11,1.339784960e-11,1.448611547e-10,6.875517661e-12,4.696378121e-12
1.0547,7.947355065e-11,3.554068528e-11,3.795737527e-11,1.129309645e-11,1.296754203e-12,3.746664408e-12,6.177245508e-12,2.668479544e-12,3.114586247e-12,6.578020680e-12,8.440282940e-12,6.243376138e-12,5.411648566e-12,1.097628272e-11,9.223882611e-12,7.958817391e-12,4.964148283e-12,3.920365774e-12,1.703835228e-12,6.208471530e-12,4.061420201e-12,3.149978506e-12,1.232840075e-11,8.071745624e-12,6.588353051e-12,3.534311974e-12,3.902517063e-12,3.362448879e-11,1.331748618e-11,1.416284073e-10,6.707130002e-12,4.500539212e-12
1.0625,7.814403328e-11,3.478415514e-11,3.698244892e-11,1.108444483e-11,1.250056126e-12,3.727524358e-12,6.129477827e-12,2.591477759e-12,3.007286183e-12,6.377029580e-12,8.282173395e-12,6.055496366e-12,5.178180497e-12,1.062283433e-11,8.900871357e-12,7.660100672e-12,4.703891086e-12,3.827275183e-12,1.671882920e-12,6.156539029e-12,3.974272595e-12,3.037453064e-12,1.177441949e-11,8.160044209e-12,6.512958905e-12,3.432227263e-12,3.835756985e-12,3.338131053e-11,1.324227945e-11,1.383910760e-10,6.535512538e-12,4.312359172e-12
1.0703,7.683437611e-11,3.404808170e-11,3.604950563e-11,1.088251744e-11,1.205367088e-12,3.708471463e-12,6.077277377e-12,2.517167599e-12,2.903771861e-12,6.183191776e-12,8.127835808e-12,5.872583568e-12,4.954844665e-12,1.028040095e-11,8.587607021e-12,7.371966661e-12,4.455685263e-12,3.734881640e-12,1.640480335e-12,6.102295961e-12,3.892497852e-12,2.928460481e-12,1.124405713e-11,8.242677940e-12,6.440572125e-12,3.333392733e-12,3.769639305e-12,3.313117383e-11,1.316451808e-11,1.352308716e-10,6.370063097e-12,4.131400676e-12
1.0781,7.556576531e-11,3.333959047e-11,3.518861351e-11,1.068666309e-11,1.162450717e-12,3.683514970e-12,6.021034967e-12,2.443902368e-12,2.803856632e-12,5.994847806e-12,7.979683677e-12,5.694779667e-12,4.740840585e-12,9.948134097e-12,8.281395350e-12,7.092478413e-12,4.218281381e-12,3.643481877e-12,1.609918588e-12,6.044319798e-12,3.816077084e-12,2.822937583e-12,1.073545145e-11,8.313058138e-12,6.363755013e-12,3.237740702e-12,3.697332193e-12,3.286745916e-11,1.307799814e-11,1.321860041e-10,6.212507197e-12,3.957575707e-12
1.0859,7.427735205e-11,3.262505066e-11,3.431331022e-11,1.048613519e-11,1.120260119e-12,3.664277660e-12,5.977187429e-12,2.374197803e-12,2.707533187e-12,5.816566809e-12,7.838302081e-12,5.522029714e-12,4.536831986e-12,9.628186539e-12,7.991045212e-12,6.827417467e-12,3.995996826e-12,3.553570242e-12,1.580323397e-12,5.988747904e-12,3.744746221e-12,2.720526513e-12,1.025319969e-11,8.386547389e-12,6.297211745e-12,3.145790452e-12,3.636679234e-12,3.259746858e-11,1.299178308e-11,1.291345350e-10,6.052644966e-12,3.790640068e-12
1.0938,7.298295799e-11,3.192051626e-11,3.345095077e-11,1.028943148e-11,1.079438005e-12,3.645901132e-12,5.933731647e-12,2.307026667e-12,2.614709742e-12,5.646012784e-12,7.700047948e-12,5.354541462e-12,4.342102205e-12,9.319938542e-12,7.713124469e-12,6.574504885e-12,3.786749341e-12,3.464925500e-12,1.551648080e-12,5.933767378e-12,3.678366623e-12,2.621269286e-12,9.793461671e-12,8.461852680e-12,6.233914058e-12,3.057250400e-12,3.580096784e-12,3.232354506e-11,1.290173261e-11,1.261260328e-10,5.895589030e-12,3.630333662e-12
1.1016,7.172318028e-11,3.124513168e-11,3.264823731e-11,1.010175683e-11,1.040290246e-12,3.622598776e-12,5.882247075e-12,2.240799098e-12,2.525045325e-12,5.478518410e-12,7.568495413e-12,5.193254805e-12,4.154768373e-12,9.022736911e-12,7.445717923e-12,6.332592094e-12,3.589297062e-12,3.378103343e-12,1.523533642e-12,5.879034977e-12,3.617237312e-12,2.526736106e-12,9.355374737e-12,8.534189485e-12,6.168973234e-12,2.971839038e-12,3.522227301e-12,3.204198671e-11,1.280424178e-11,1.232369576e-10,5.745317168e-12,3.476383384e-12
1.1094,7.046881170e-11,3.057549211e-11,3.184212721e-11,9.914596467e-12,1.001934223e-12,3.604031233e-12,5.834213242e-12,2.177793927e-12,2.438151216e-12,5.318998547e-12,7.447091278e-12,5.036396930e-12,3.975501559e-12,8.735702217e-12,7.190748374e-12,6.102923264e-12,3.403559313e-12,3.292874123e-12,1.495876039e-12,5.825582804e-12,3.560609527e-12,2.434863991e-12,8.938694870e-12,8.600350422e-12,6.108737686e-12,2.889217583e-12,3.469001154e-12,3.175342319e-11,1.270618076e-11,1.203874194e-10,5.597186281e-12,3.328220967e-12
1.1172,6.921642038e-11,2.991282613e-11,3.104676569e-11,9.728493722e-12,9.644337520e-13,3.588077094e-12,5.786359267e-12,2.117728862e-12,2.354064572e-12,5.167889759e-12,7.330637401e-12,4.883546006e-12,3.804067215e-12,8.458045158e-12,6.946037330e-12,5.883495992e-12,3.228411302e-12,3.209197885e-12,1.468756011e-12,5.772358126e-12,3.507603272e-12,2.345139878e-12,8.540168061e-12,8.660254741e-12,6.050643857e-12,2.809373741e-12,3.417987958e-12,3.146022456e-11,1.260523123e-11,1.175761988e-10,5.451589658e-12,3.185768786e-12
1.125,6.797936194e-11,2.926914858e-11,3.030174454e-11,9.546587833e-12,9.280690991e-13,3.569456866e-12,5.736222947e-12,2.059023168e-12,2.272783845e-12,5.021620446e-12,7.216360698e-12,4.736044187e-12,3.638725702e-12,8.189864016e-12,6.711430126e-12,5.673789476e-12,3.064081546e-12,3.127629159e-12,1.441914096e-12,5.719795589e-12,3.457781118e-12,2.259881492e-12,8.161199886e-12,8.723025398e-12,5.994862254e-12,2.732393783e-12,3.370057042e-12,3.116718712e-11,1.249795065e-11,1.148436030e-10,5.308158562e-12,3.049171330e-12
1.1328,6.674262844e-11,2.863632048e-11,2.956374756e-11,9.368684949e-12,8.926828444e-13,3.552656555e-12,5.692927995e-12,2.002423587e-12,2.193996592e-12,4.882412250e-12,7.106111214e-12,4.592050846e-12,3.480250307e-12,7.929632775e-12,6.485251007e-12,5.472675234e-12,2.908213029e-12,3.047047991e-12,1.415399502e-12,5.664641554e-12,3.410788878e-12,2.177220015e-12,7.800478766e-12,8.782144891e-12,5.942101650e-12,2.657421319e-12,3.323026454e-12,3.087487180e-11,1.238769970e-11,1.121505477e-10,5.167172331e-12,2.917881139e-12
1.1406,6.551289173e-11,2.801530433e-11,2.883131777e-11,9.195638754e-12,8.583680308e-13,3.536943524e-12,5.651353875e-12,1.947865239e-12,2.117588334e-12,4.748633514e-12,7.000375908e-12,4.450841482e-12,3.328958350e-12,7.676647781e-12,6.265619909e-12,5.278756045e-12,2.759233800e-12,2.966861688e-12,1.389485670e-12,5.605606045e-12,3.367263595e-12,2.096352560e-12,7.455498784e-12,8.830339050e-12,5.891622330e-12,2.584352606e-12,3.275478870e-12,3.057686945e-11,1.227537133e-11,1.094967480e-10,5.030698210e-12,2.791508218e-12
1.1484,6.418362707e-11,2.738306701e-11,2.787711690e-11,9.025253997e-12,8.235493359e-13,3.499760437e-12,5.530072842e-12,1.878698270e-12,2.040963194e-12,4.548982797e-12,6.883951535e-12,4.274665281e-12,3.217713241e-12,7.397746828e-12,5.988343151e-12,5.050980031e-12,2.574985206e-12,2.871463398e-12,1.367810196e-12,5.493004909e-12,3.321794198e-12,1.958616739e-12,7.005574830e-12,8.761490748e-12,5.660082820e-12,2.509089346e-12,3.109796701e-12,3.023600619e-11,1.213412418e-11,1.069429212e-10,4.909903873e-12,2.666462305e-12
1.1562,6.297146911e-11,2.679358280e-11,2.717263930e-11,8.859640801e-12,7.912397224e-13,3.475586985e-12,5.445500755e-12,1.823883611e-12,1.973285956e-12,4.404672112e-12,6.802524681e-12,4.137350886e-12,3.102399565e-12,7.165468717e-12,5.777232039e-12,4.876400726e-12,2.443768627e-12,2.785355640e-12,1.345217517e-12,5.424684116e-12,3.300028408e-12,1.863972965e-12,6.677309996e-12,8.776550412e-12,5.538958339e-12,2.442948169e-12,3.030749043e-12,2.987455594e-11,1.200291504e-11,1.045026900e-10,4.785018585e-12,2.551739501e-12
1.1641,6.177721711e-11,2.619646855e-11,2.652718715e-11,8.687091211e-12,7.610134000e-13,3.471898269e-12,5.413543677e-12,1.781955177e-12,1.910505479e-12,4.314111082e-12,6.735628134e-12,4.030277278e-12,2.970472589e-12,6.967928047e-12,5.627969456e-12,4.745425006e-12,2.356129629e-12,2.712155498e-12,1.319990263e-12,5.394128928e-12,3.284788189e-12,1.808757985e-12,6.439963655e-12,8.857790747e-12,5.536033918e-12,2.380971794e-12,3.027618534e-12,2.952910025e-11,1.189063858e-11,1.019234771e-10,4.650066221e-12,2.443519802e-12
1.1719,6.058916524e-11,2.561933927e-11,2.588463098e-11,8.520905068e-12,7.312141130e-13,3.458985302e-12,5.371733112e-12,1.737357762e-12,1.847920267e-12,4.209380999e-12,6.660797950e-12,3.914540837e-12,2.848386399e-12,6.763154499e-12,5.461626280e-12,4.603968223e-12,2.258553413e-12,2.636685185e-12,1.296488005e-12,5.346501429e-12,3.263588758e-12,1.743461906e-12,6.183749560e-12,8.901455231e-12,5.498063653e-12,2.318146874e-12,2.999593737e-12,2.918608941e-11,1.176714509e-11,9.946223287e-11,4.521393742e-12,2.337948097e-12
1.1797,5.941496336e-11,2.506905618e-11,2.526929821e-11,8.362682156e-12,7.022243864e-13,3.436964219e-12,5.318078973e-12,1.690747561e-12,1.787266285e-12,4.095104324e-12,6.583044124e-12,3.794730851e-12,2.737522376e-12,6.557443358e-12,5.284144932e-12,4.457924700e-12,2.156586717e-12,2.559023394e-12,1.275046789e-12,5.285875702e-12,3.242869281e-12,1.670888464e-12,5.920027331e-12,8.925151421e-12,5.430529865e-12,2.256216285e-12,2.953620233e-12,2.884217109e-11,1.163446604e-11,9.714104217e-11,4.399734630e-12,2.235998743e-12
1.1875,5.821838601e-11,2.450930846e-11,2.463678762e-11,8.201169569e-12,6.750524458e-13,3.425745299e-12,5.279062988e-12,1.650269620e-12,1.729578764e-12,4.005085600e-12,6.505131239e-12,3.686923387e-12,2.623697286e-12,6.367524170e-12,5.134436589e-12,4.330673763e-12,2.074478228e-12,2.487490719e-12,1.252776508e-12,5.235800627e-12,3.224445207e-12,1.612614217e-12,5.693814553e-12,8.970855832e-12,5.403209578e-12,2.196472528e-12,2.934161151e-12,2.850937464e-11,1.151181785e-11,9.474433758e-11,4.278432064e-12,2.138556701e-12
1.1953,5.704191618e-11,2.395732703e-11,2.402328469e-11,8.040620326e-12,6.488056238e-13,3.414817549e-12,5.236269735e-12,1.610699065e-12,1.672669209e-12,3.916246738e-12,6.423267481e-12,3.578894490e-12,2.513205262e-12,6.178278962e-12,4.984199014e-12,4.203454907e-12,1.993557473e-12,2.417407018e-12,1.230719084e-12,5.182115980e-12,3.202164546e-12,1.555146225e-12,5.471194494e-12,9.004618032e-12,5.376613797e-12,2.136819494e-12,2.912776603e-12,2.818376052e-11,1.138614358e-11,9.239199020e-11,4.159891117e-12,2.044306610e-12
1.2031,5.590524102e-11,2.342920211e-11,2.346105684e-11,7.884906012e-12,6.234010078e-13,3.396179502e-12,5.184104053e-12,1.569516865e-12,1.616903462e-12,3.819826354e-12,6.341234879e-12,3.467676050e-12,2.410540921e-12,5.987282466e-12,4.823138891e-12,4.070968189e-12,1.907957522e-12,2.346010005e-12,1.209658149e-12,5.118247489e-12,3.176939971e-12,1.493313204e-12,5.242012282e-12,9.018178802e-12,5.333379588e-12,2.076615673e-12,2.877106094e-12,2.786454475e-11,1.125147599e-11,9.017350608e-11,4.045592883e-12,1.953134087e-12
1.2109,5.475050218e-11,2.289815958e-11,2.288516210e-11,7.728110762e-12,5.997859203e-13,3.381651530e-12,5.140563467e-12,1.531233589e-12,1.563481392e-12,3.735020739e-12,6.258596504e-12,3.363145527e-12,2.308874537e-12,5.806245641e-12,4.677039839e-12,3.948096429e-12,1.832625922e-12,2.277851153e-12,1.187792617e-12,5.055532430e-12,3.151146763e-12,1.438297120e-12,5.032334623e-12,9.036299478e-12,5.307041252e-12,2.016934317e-12,2.850328424e-12,2.755852900e-11,1.112203474e-11,8.793811596e-11,3.933276553e-12,1.865709143e-12
1.2188,5.359374755e-11,2.237160710e-11,2.230586139e-11,7.574072249e-12,5.773982872e-13,3.370932375e-12,5.100249611e-12,1.494670554e-12,1.511305658e-12,3.655958361e-12,6.171382325e-12,3.261040459e-12,2.209075359e-12,5.629057209e-12,4.536457411e-12,3.828472584e-12,1.760614814e-12,2.212194865e-12,1.165886519e-12,4.991269181e-12,3.121826540e-12,1.386348112e-12,4.831403742e-12,9.049324621e-12,5.287019684e-12,1.958027883e-12,2.826791061e-12,2.726286565e-11,1.099431372e-11,8.572132488e-11,3.823958660e-12,1.781543331e-12
1.2266,5.247359878e-11,2.186784512e-11,2.177059700e-11,7.427249999e-12,5.556413357e-13,3.356805485e-12,5.055974448e-12,1.457906466e-12,1.460054954e-12,3.575488095e-12,6.082323405e-12,3.157639417e-12,2.113728504e-12,5.451554427e-12,4.390448682e-12,3.706370209e-12,1.686244061e-12,2.147822468e-12,1.145664789e-12,4.921980892e-12,3.088344909e-12,1.333576124e-12,4.628050553e-12,9.049329484e-12,5.260568356e-12,1.899664480e-12,2.797845023e-12,2.697338461e-11,1.086130247e-11,8.361408128e-11,3.718996208e-12,1.700237658e-12
1.2344,5.135675017e-11,2.136625691e-11,2.123896504e-11,7.280480550e-12,5.349921876e-13,3.341414433e-12,5.016037978e-12,1.422409652e-12,1.410461244e-12,3.499225682e-12,5.991908307e-12,3.057830943e-12,2.020548613e-12,5.280057875e-12,4.251678586e-12,3.588797006e-12,1.617570349e-12,2.086323403e-12,1.126009230e-12,4.852313490e-12,3.052827846e-12,1.284227645e-12,4.433375629e-12,9.049074092e-12,5.239054537e-12,1.841685997e-12,2.771346494e-12,2.669009919e-11,1.073007554e-11,8.152581228e-11,3.617192464e-12,1.622124364e-12
1.2422,5.024393437e-11,2.086346899e-11,2.070423224e-11,7.132377898e-12,5.154602555e-13,3.325485974e-12,4.978757967e-12,1.387713387e-12,1.362216060e-12,3.424726532e-12,5.897639493e-12,2.960810126e-12,1.930008382e-12,5.112169388e-12,4.116200692e-12,3.473197933e-12,1.551624936e-12,2.026084527e-12,1.105835068e-12,4.780080512e-12,3.014963503e-12,1.236951875e-12,4.246936282e-12,9.045466446e-12,5.219932687e-12,1.784125080e-12,2.745282096e-12,2.641429547e-11,1.060035765e-11,7.944717939e-11,3.518059202e-12,1.547238649e-12
1.25,4.916579220e-11,2.037727658e-11,2.020769945e-11,6.988060950e-12,4.968284818e-13,3.307478311e-12,4.937087627e-12,1.353193219e-12,1.315003319e-12,3.350647073e-12,5.801121058e-12,2.864382142e-12,1.842696580e-12,4.944400081e-12,3.977053750e-12,3.356107620e-12,1.484268815e-12,1.966545025e-12,1.085826965e-12,4.703437660e-12,2.974194377e-12,1.190761724e-12,4.065095752e-12,9.031336215e-12,5.202601723e-12,1.727508043e-12,2.718155864e-12,2.614811471e-11,1.046848579e-11,7.744570456e-11,3.421975205e-12,1.475266916e-12
1.2578,4.809858759e-11,1.989960399e-11,1.972491911e-11,6.845466491e-12,4.791713750e-13,3.289093713e-12,4.894649421e-12,1.319581169e-12,1.268963537e-12,3.278874848e-12,5.702909340e-12,2.769785159e-12,1.757797745e-12,4.779641668e-12,3.841701731e-12,3.241069123e-12,1.419481849e-12,1.909503587e-12,1.066342566e-12,4.626180158e-12,2.931519766e-12,1.146779244e-12,3.888871990e-12,9.012076621e-12,5.189633061e-12,1.672010254e-12,2.693335981e-12,2.588660364e-11,1.033902264e-11,7.548116982e-11,3.328973503e-12,1.406064484e-12
1.2656,4.703409016e-11,1.942435044e-11,1.923757699e-11,6.703680666e-12,4.622866394e-13,3.269843365e-12,4.856770863e-12,1.286556229e-12,1.224046073e-12,3.207893878e-12,5.602737464e-12,2.676769751e-12,1.676239712e-12,4.618376438e-12,3.710376672e-12,3.128198783e-12,1.357227828e-12,1.854211477e-12,1.047021992e-12,4.548237024e-12,2.887595180e-12,1.103759878e-12,3.716713288e-12,8.989706273e-12,5.174877949e-12,1.617378298e-12,2.667423532e-12,2.562558802e-11,1.021148986e-11,7.353979831e-11,3.239093333e-12,1.339767850e-12
1.2734,4.599853479e-11,1.896147706e-11,1.877549007e-11,6.565961594e-12,4.460052426e-13,3.249064404e-12,4.821697951e-12,1.254048047e-12,1.180364951e-12,3.139496837e-12,5.503018339e-12,2.585923328e-12,1.597787911e-12,4.460782801e-12,3.581531318e-12,3.018281343e-12,1.297275364e-12,1.800458943e-12,1.027870634e-12,4.469517620e-12,2.842695161e-12,1.063194323e-12,3.552025816e-12,8.963268248e-12,5.161709422e-12,1.563947577e-12,2.641692510e-12,2.537168156e-11,1.008224509e-11,7.166251099e-11,3.151633845e-12,1.276459534e-12
1.2812,4.498116251e-11,1.850690709e-11,1.832937135e-11,6.429817973e-12,4.303870169e-13,3.229014237e-12,4.782140789e-12,1.222480521e-12,1.138029505e-12,3.073248767e-12,5.403604545e-12,2.498134982e-12,1.522508309e-12,4.307891059e-12,3.457907685e-12,2.913132353e-12,1.240645086e-12,1.749149294e-12,1.009291806e-12,4.392203712e-12,2.797287033e-12,1.025068281e-12,3.394760321e-12,8.934270778e-12,5.149304095e-12,1.512044707e-12,2.618201480e-12,2.512313450e-11,9.953463683e-12,6.982754682e-11,3.066224483e-12,1.215884282e-12
1.2891,4.396945271e-11,1.805712936e-11,1.788390487e-11,6.293962740e-12,4.154989832e-13,3.208854457e-12,4.735492937e-12,1.191343995e-12,1.096994948e-12,3.006151824e-12,5.303091514e-12,2.412397651e-12,1.451728551e-12,4.158460573e-12,3.336502960e-12,2.810180238e-12,1.185293080e-12,1.699088570e-12,9.911208534e-13,4.314430223e-12,2.751905759e-12,9.869212823e-13,3.240819012e-12,8.902282986e-12,5.130035475e-12,1.461532057e-12,2.592624289e-12,2.487032843e-11,9.825565017e-12,6.801986138e-11,2.984034508e-12,1.157988450e-12
1.2969,4.297846175e-11,1.761935131e-11,1.745860630e-11,6.162578707e-12,4.014452906e-13,3.186843090e-12,4.690672361e-12,1.160538756e-12,1.057297407e-12,2.941673255e-12,5.202238042e-12,2.329295643e-12,1.383851199e-12,4.012829286e-12,3.217311963e-12,2.709522405e-12,1.132527098e-12,1.650014668e-12,9.727165260e-13,4.235110441e-12,2.707250046e-12,9.512658823e-13,3.095677399e-12,8.866925838e-12,5.114700035e-12,1.412555914e-12,2.568233495e-12,2.461729684e-11,9.697298422e-12,6.626086624e-11,2.905007892e-12,1.102921456e-12
1.3047,4.200752149e-11,1.718987928e-11,1.704862530e-11,6.034767205e-12,3.880414736e-13,3.164194503e-12,4.652822378e-12,1.130522338e-12,1.018810390e-12,2.880275647e-12,5.101041610e-12,2.249224469e-12,1.318379302e-12,3.871664418e-12,3.103349745e-12,2.613605534e-12,1.084074117e-12,1.602746102e-12,9.544008196e-13,4.156995893e-12,2.663837770e-12,9.181581818e-13,2.959231064e-12,8.827398641e-12,5.105726417e-12,1.365096490e-12,2.547019611e-12,2.436752507e-11,9.569558712e-12,6.454346445e-11,2.827890691e-12,1.050301443e-12
1.3125,4.104982208e-11,1.676517773e-11,1.664238716e-11,5.907826463e-12,3.750621790e-13,3.140676862e-12,4.614889038e-12,1.101197125e-12,9.816405821e-13,2.818079716e-12,5.001178138e-12,2.171206984e-12,1.257491142e-12,3.734133252e-12,2.992303826e-12,2.521569422e-12,1.037861680e-12,1.556542545e-12,9.367757661e-13,4.080499730e-12,2.621650469e-12,8.840536556e-13,2.824650405e-12,8.783094624e-12,5.087740348e-12,1.318845735e-12,2.522289061e-12,2.411287053e-11,9.441456934e-12,6.286134846e-11,2.753021867e-12,9.998659423e-13
1.3203,4.010511951e-11,1.635160548e-11,1.625207072e-11,5.784255333e-12,3.627065566e-13,3.117342318e-12,4.573037904e-12,1.072708799e-12,9.461280342e-13,2.757595995e-12,4.905043281e-12,2.096203135e-12,1.199946027e-12,3.601645359e-12,2.885246673e-12,2.433711261e-12,9.949747494e-13,1.511375530e-12,9.192298404e-13,4.004379107e-12,2.580174379e-12,8.516159931e-13,2.697896026e-12,8.737309853e-12,5.065574130e-12,1.274107377e-12,2.497199678e-12,2.385249458e-11,9.313175492e-12,6.121547288e-11,2.680626727e-12,9.519547642e-13
1.3281,3.916771994e-11,1.594900168e-11,1.587400629e-11,5.664612753e-12,3.509560984e-13,3.097216645e-12,4.529507610e-12,1.045321883e-12,9.120081630e-13,2.700327233e-12,4.810771894e-12,2.024248871e-12,1.144660314e-12,3.474785876e-12,2.784615979e-12,2.351302685e-12,9.567231329e-13,1.467830148e-12,9.015448324e-13,3.928861452e-12,2.539006351e-12,8.220892017e-13,2.581701884e-12,8.689904364e-12,5.046834257e-12,1.231080448e-12,2.476256130e-12,2.359010124e-11,9.186174033e-12,5.959900590e-11,2.610054353e-12,9.064494114e-13
1.3359,3.824516721e-11,1.555426817e-11,1.550138553e-11,5.546581185e-12,3.395857474e-13,3.076925133e-12,4.485285784e-12,1.018521741e-12,8.791562402e-13,2.643100589e-12,4.720025537e-12,1.954182625e-12,1.093750652e-12,3.352340515e-12,2.688365959e-12,2.273892269e-12,9.213534990e-13,1.425499540e-12,8.845652065e-13,3.855032256e-12,2.498910824e-12,7.919271357e-13,2.468543026e-12,8.637733759e-12,5.021542982e-12,1.189343182e-12,2.453301747e-12,2.332467690e-11,9.058270868e-12,5.802588072e-11,2.541627844e-12,8.629701278e-13
1.3438,3.734233576e-11,1.516783240e-11,1.513953871e-11,5.431066583e-12,3.287769749e-13,3.053368684e-12,4.443967881e-12,9.922987982e-13,8.480340986e-13,2.587776722e-12,4.637549311e-12,1.887714212e-12,1.046459322e-12,3.235866007e-12,2.598281076e-12,2.202456373e-12,8.900642871e-13,1.384595287e-12,8.681481442e-13,3.784167631e-12,2.461065546e-12,7.628092027e-13,2.361453050e-12,8.583159544e-12,4.992312629e-12,1.148835477e-12,2.428909451e-12,2.305854407e-11,8.928808307e-12,5.649610243e-11,2.475335641e-12,8.216607099e-13
1.3516,3.644280712e-11,1.478925797e-11,1.478242970e-11,5.319984902e-12,3.185207686e-13,3.031257549e-12,4.407463767e-12,9.673739444e-13,8.184339770e-13,2.536944050e-12,4.557468499e-12,1.825209481e-12,1.001127655e-12,3.125527340e-12,2.515207731e-12,2.137070804e-12,8.637198825e-13,1.345094869e-12,8.517462161e-13,3.715183734e-12,2.425362204e-12,7.365094612e-13,2.264423223e-12,8.526543359e-12,4.966367133e-12,1.109699185e-12,2.407381784e-12,2.278922063e-11,8.799684930e-12,5.498736689e-11,2.410654103e-12,7.824739506e-13
1.3594,3.555124577e-11,1.442091464e-11,1.443313337e-11,5.212808851e-12,3.085359784e-13,3.011364146e-12,4.370890122e-12,9.434453247e-13,7.899151737e-13,2.487610877e-12,4.473321755e-12,1.764195281e-12,9.591349912e-13,3.018769184e-12,2.434705405e-12,2.075728158e-12,8.403718149e-13,1.306293425e-12,8.359477742e-13,3.646457428e-12,2.391179367e-12,7.103198355e-13,2.171997865e-12,8.465443793e-12,4.935942974e-12,1.071840562e-12,2.385102195e-12,2.250775898e-11,8.670261533e-12,5.350973840e-11,2.348023005e-12,7.451052614e-13
1.3672,3.468566518e-11,1.406253044e-11,1.410035832e-11,5.107671243e-12,2.990392807e-13,2.990185479e-12,4.333785905e-12,9.199392357e-13,7.628251107e-13,2.438177819e-12,4.392454506e-12,1.705217772e-12,9.204811422e-13,2.916533840e-12,2.358263455e-12,2.019089760e-12,8.208652048e-13,1.268906180e-12,8.210574804e-13,3.580070807e-12,2.358716163e-12,6.847577960e-13,2.084583529e-12,8.404579077e-12,4.900676325e-12,1.035396765e-12,2.362401372e-12,2.221951786e-11,8.541507926e-12,5.207061658e-11,2.287531273e-12,7.096061598e-13
1.375,3.383697899e-11,1.370974175e-11,1.377203657e-11,5.003953884e-12,2.902377788e-13,2.970185047e-12,4.298045496e-12,8.973974967e-13,7.373204044e-13,2.390338528e-12,4.319296230e-12,1.649680247e-12,8.839394000e-13,2.819983981e-12,2.288627772e-12,1.967631570e-12,8.057451717e-13,1.233210500e-12,8.066493135e-13,3.516266806e-12,2.328086017e-12,6.611152951e-13,2.004962243e-12,8.346541673e-12,4.866564110e-12,1.000381027e-12,2.342329988e-12,2.193568775e-11,8.414985660e-12,5.065729993e-11,2.228882658e-12,6.759594586e-13
1.3828,3.299726027e-11,1.336633794e-11,1.344743403e-11,4.903192970e-12,2.818506050e-13,2.953084149e-12,4.258156199e-12,8.760568561e-13,7.130910235e-13,2.344488014e-12,4.246537897e-12,1.596131125e-12,8.499761071e-13,2.726990935e-12,2.222053621e-12,1.918939720e-12,7.927308790e-13,1.197926982e-12,7.928871577e-13,3.451454415e-12,2.298266004e-12,6.379016584e-13,1.930069036e-12,8.285219162e-12,4.830119860e-12,9.663870668e-13,2.322024850e-12,2.165311541e-11,8.287891180e-12,4.928471150e-11,2.172118119e-12,6.439755552e-13
1.3906,3.217340048e-11,1.303462717e-11,1.313719906e-11,4.805655065e-12,2.738102737e-13,2.936220548e-12,4.214428565e-12,8.554706256e-13,6.901434779e-13,2.300564504e-12,4.171972877e-12,1.543972078e-12,8.185776186e-13,2.637165948e-12,2.157529050e-12,1.872477302e-12,7.816181237e-13,1.163019463e-12,7.799768606e-13,3.385901825e-12,2.268107619e-12,6.154157654e-13,1.859341225e-12,8.218190401e-12,4.790344667e-12,9.332856584e-13,2.300791620e-12,2.136713102e-11,8.160292717e-12,4.795548713e-11,2.116803210e-12,6.135990955e-13
1.3984,3.136470096e-11,1.270912941e-11,1.283643490e-11,4.710175561e-12,2.663218944e-13,2.919444426e-12,4.177416576e-12,8.356548472e-13,6.685201204e-13,2.258896478e-12,4.100346849e-12,1.494007286e-12,7.892706252e-13,2.551432704e-12,2.096829618e-12,1.829331396e-12,7.732990071e-13,1.129360741e-12,7.675234461e-13,3.322222568e-12,2.238147483e-12,5.943927280e-13,1.793707177e-12,8.149282970e-12,4.749832602e-12,9.013321277e-13,2.280654211e-12,2.108092464e-11,8.035639967e-12,4.664673107e-11,2.063350875e-12,5.847444917e-13
1.4062,3.057197448e-11,1.239193352e-11,1.254666163e-11,4.617633299e-12,2.593580460e-13,2.903297079e-12,4.148527733e-12,8.166127694e-13,6.480730181e-13,2.218866544e-12,4.031827667e-12,1.446080491e-12,7.622038244e-13,2.469283075e-12,2.039100511e-12,1.789365026e-12,7.675251270e-13,1.097093733e-12,7.554155295e-13,3.260352952e-12,2.209746984e-12,5.743375816e-13,1.732383024e-12,8.081538431e-12,4.707716963e-12,8.706404380e-13,2.261623758e-12,2.079619556e-11,7.912706218e-12,4.536926462e-11,2.012683582e-12,5.574270097e-13
1.4141,2.979695278e-11,1.208579302e-11,1.226765245e-11,4.528684599e-12,2.528336295e-13,2.888046960e-12,4.118050672e-12,7.982586830e-13,6.287268269e-13,2.180299137e-12,3.963895376e-12,1.400094642e-12,7.369017117e-13,2.390870583e-12,1.985114764e-12,1.752612538e-12,7.641591877e-13,1.066119581e-12,7.438272966e-13,3.200083180e-12,2.182233721e-12,5.553127420e-13,1.675512318e-12,8.013771788e-12,4.665324190e-12,8.409606121e-13,2.243707157e-12,2.051301188e-11,7.790141318e-12,4.413267631e-11,1.964027709e-12,5.316424944e-13
1.4219,2.903469968e-11,1.178615052e-11,1.198732165e-11,4.442386522e-12,2.467855398e-13,2.874838748e-12,4.081250400e-12,7.807229147e-13,6.103785494e-13,2.143090484e-12,3.896281811e-12,1.356081950e-12,7.131601623e-13,2.316334359e-12,1.935952582e-12,1.719109111e-12,7.624663380e-13,1.036054482e-12,7.326042218e-13,3.140606003e-12,2.153996006e-12,5.367112840e-13,1.621606014e-12,7.941275495e-12,4.623357495e-12,8.120457318e-13,2.225940990e-12,2.023163962e-11,7.670002913e-12,4.292107579e-11,1.917080248e-12,5.070949941e-13
1.4297,2.828781729e-11,1.149464479e-11,1.171596635e-11,4.359201907e-12,2.412009714e-13,2.861643782e-12,4.043125880e-12,7.635830883e-13,5.929764929e-13,2.105909361e-12,3.829623569e-12,1.313660392e-12,6.911749334e-13,2.244890274e-12,1.890078414e-12,1.688247778e-12,7.620600938e-13,1.006716794e-12,7.215166188e-13,3.080314035e-12,2.125593549e-12,5.186744493e-13,1.570141879e-12,7.864851953e-12,4.580871880e-12,7.840823376e-13,2.208655986e-12,1.995250370e-11,7.552165286e-12,4.174400990e-11,1.872750949e-12,4.837803348e-13
1.4375,2.731017309e-11,1.102941798e-11,1.099924563e-11,4.202797354e-12,2.331069429e-13,2.916720997e-12,4.075744429e-12,7.821690206e-13,5.776778381e-13,2.159795632e-12,3.776550613e-12,1.305200805e-12,6.656724077e-13,2.205855540e-12,1.915791857e-12,1.698646188e-12,8.018637502e-13,9.925066202e-13,7.122212687e-13,3.058850360e-12,2.099578063e-12,4.989765624e-13,1.536580054e-12,7.849988041e-12,4.636747721e-12,7.553714462e-13,2.232432422e-12,1.971017468e-11,7.484757116e-12,3.982854620e-11,1.803239704e-12,4.601784124e-13
1.4453,2.651581816e-11,1.068105892e-11,1.059939123e-11,4.093771128e-12,2.283883371e-13,2.927825863e-12,4.074612040e-12,7.765567071e-13,5.604352325e-13,2.152011332e-12,3.702532599e-12,1.269694916e-12,6.443339486e-13,2.137151938e-12,1.884203719e-12,1.670870659e-12,8.051631524e-13,9.711434503e-13,7.024061292e-13,3.007463118e-12,2.065657684e-12,4.818690195e-13,1.494443034e-12,7.791207682e-12,4.632847102e-12,7.305001612e-13,2.233943438e-12,1.948449424e-11,7.391605459e-12,3.846272617e-11,1.754542217e-12,4.402997255e-13
1.4531,2.591127081e-11,1.045972442e-11,1.051964432e-11,4.035948194e-12,2.263582618e-13,2.891285499e-12,4.026951741e-12,7.485899839e-13,5.435452201e-13,2.087034724e-12,3.624731010e-12,1.215783529e-12,6.270092078e-13,2.052918336e-12,1.810201406e-12,1.616612353e-12,7.829032226e-13,9.419996015e-13,6.918116007e-13,2.933468292e-12,2.030148000e-12,4.669211393e-13,1.447100131e-12,7.695602739e-12,4.571120485e-12,7.083691227e-13,2.207230160e-12,1.924607556e-11,7.270154909e-12,3.759281437e-11,1.726319650e-12,4.229800084e-13
1.4609,2.526238617e-11,1.020762414e-11,1.033774464e-11,3.964754493e-12,2.238309248e-13,2.871020961e-12,3.988769276e-12,7.293912637e-13,5.284429353e-13,2.042603304e-12,3.558229166e-12,1.172772141e-12,6.103119139e-13,1.981944336e-12,1.757560811e-12,1.577119925e-12,7.737362451e-13,9.162761724e-13,6.813497040e-13,2.870788046e-12,1.997175449e-12,4.527313815e-13,1.406335892e-12,7.611429403e-12,4.525708356e-12,6.858672010e-13,2.191811664e-12,1.900907649e-11,7.160133582e-12,3.659155242e-11,1.693427830e-12,4.060533901e-13
1.4688,2.457472872e-11,9.927062036e-12,1.006494550e-11,3.882044974e-12,2.210903419e-13,2.864984903e-12,3.963403904e-12,7.159759519e-13,5.141819072e-13,2.012238292e-12,3.496995731e-12,1.135653018e-12,5.943390522e-13,1.917577791e-12,1.715787650e-12,1.544753151e-12,7.701966639e-13,8.926246242e-13,6.707079940e-13,2.813991945e-12,1.965209698e-12,4.373662230e-13,1.366267234e-12,7.532714821e-12,4.489387202e-12,6.633938897e-13,2.182178142e-12,1.877945680e-11,7.058713267e-12,3.549876828e-11,1.656400857e-12,3.897877896e-13
1.4766,2.396564789e-11,9.696547171e-12,9.924692895e-12,3.818331411e-12,2.194563428e-13,2.843178476e-12,3.927320422e-12,6.968864909e-13,5.004773353e-13,1.968494643e-12,3.435471520e-12,1.095156454e-12,5.800076271e-13,1.851363963e-12,1.663717203e-12,1.505050785e-12,7.598405240e-13,8.670593196e-13,6.596843130e-13,2.751306984e-12,1.933401185e-12,4.237849243e-13,1.330714168e-12,7.445279378e-12,4.439752100e-12,6.425423686e-13,2.163231180e-12,1.854610326e-11,6.948782720e-12,3.458972415e-11,1.628608853e-12,3.750620148e-13
1.4844,2.336673837e-11,9.472314135e-12,9.780954878e-12,3.756598929e-12,2.178198441e-13,2.823168051e-12,3.895832384e-12,6.794133957e-13,4.878383857e-13,1.927968123e-12,3.378253082e-12,1.058377322e-12,5.664491502e-13,1.790997776e-12,1.618439208e-12,1.471030376e-12,7.537980942e-13,8.430087359e-13,6.489678883e-13,2.692770801e-12,1.902282661e-12,4.115193573e-13,1.298615378e-12,7.359479238e-12,4.390525426e-12,6.222619045e-13,2.147332875e-12,1.831359250e-11,6.842786896e-12,3.369009201e-11,1.602117858e-12,3.610264444e-13
1.4922,2.274344854e-11,9.231300381e-12,9.564876527e-12,3.688698230e-12,2.158969953e-13,2.813886601e-12,3.873698402e-12,6.657319829e-13,4.761443681e-13,1.895734266e-12,3.328900923e-12,1.025992596e-12,5.540141699e-13,1.736477078e-12,1.581577003e-12,1.444282895e-12,7.525070589e-13,8.206699372e-13,6.385043269e-13,2.639105677e-12,1.871552985e-12,3.980497632e-13,1.264263157e-12,7.274860856e-12,4.342835930e-12,6.018708880e-13,2.136263868e-12,1.808746868e-11,6.744289924e-12,3.273494565e-11,1.572834578e-12,3.473530862e-13
1.5,2.216650894e-11,9.017837374e-12,9.422587080e-12,3.630381890e-12,2.145659654e-13,2.797415661e-12,3.842277872e-12,6.505457473e-13,4.651257786e-13,1.859921527e-12,3.284381128e-12,9.942120856e-13,5.429590363e-13,1.683989674e-12,1.543351006e-12,1.416564109e-12,7.495382019e-13,7.979288629e-13,6.277281557e-13,2.584244504e-12,1.841174585e-12,3.858122987e-13,1.234387343e-12,7.188136626e-12,4.292088264e-12,5.822190261e-13,2.121113152e-12,1.786154896e-11,6.642194362e-12,3.187665219e-11,1.548952399e-12,3.346119820e-13
1.5078,2.160942462e-11,8.816101781e-12,9.301595178e-12,3.575586831e-12,2.133355936e-13,2.778831215e-12,3.809021667e-12,6.355766068e-13,4.547036421e-13,1.823149969e-12,3.239732382e-12,9.647008172e-13,5.325487795e-13,1.635787908e-12,1.509345738e-12,1.392279920e-12,7.486636671e-13,7.761771188e-13,6.169091375e-13,2.532352196e-12,1.811485720e-12,3.751857277e-13,1.208166786e-12,7.104268638e-12,4.243049533e-12,5.630875968e-13,2.106442566e-12,1.763724256e-11,6.541320209e-12,3.105544176e-11,1.527358656e-12,3.223707432e-13
1.5156,2.103576226e-11,8.605057975e-12,9.124405282e-12,3.517717702e-12,2.118725068e-13,2.767083864e-12,3.785147181e-12,6.223755474e-13,4.449092023e-13,1.788248307e-12,3.197889171e-12,9.375768948e-13,5.231506870e-13,1.591693632e-12,1.480075059e-12,1.372782266e-12,7.505555334e-13,7.557706705e-13,6.064982093e-13,2.483760741e-12,1.782419969e-12,3.637034989e-13,1.178209127e-12,7.019438183e-12,4.192915240e-12,5.440597229e-13,2.094923813e-12,1.741648543e-11,6.446057081e-12,3.020960877e-11,1.503814862e-12,3.102922046e-13
1.5234,2.048956428e-11,8.410560683e-12,8.984381420e-12,3.464994813e-12,2.106937876e-13,2.752737773e-12,3.756870503e-12,6.094473089e-13,4.358558461e-13,1.754195118e-12,3.164886472e-12,9.125807321e-13,5.147658737e-13,1.550742034e-12,1.452154043e-12,1.354604215e-12,7.532713123e-13,7.360617676e-13,5.963428084e-13,2.435384232e-12,1.753866485e-12,3.531765742e-13,1.151323063e-12,6.931103586e-12,4.141511812e-12,5.255899747e-13,2.082374208e-12,1.719356587e-11,6.349568843e-12,2.941543422e-11,1.483217859e-12,2.988721157e-13
1.5312,1.996692870e-11,8.227880417e-12,8.872979072e-12,3.415185059e-12,2.095256478e-13,2.736568887e-12,3.719218052e-12,5.974797774e-13,4.272590644e-13,1.723445015e-12,3.133947767e-12,8.901412367e-13,5.066818494e-13,1.513414163e-12,1.428062382e-12,1.340222891e-12,7.581268701e-13,7.173725624e-13,5.862484998e-13,2.389077465e-12,1.725599887e-12,3.441648872e-13,1.128605393e-12,6.843578048e-12,4.090688119e-12,5.075202328e-13,2.069007839e-12,1.697333186e-11,6.252600153e-12,2.865706719e-11,1.464951868e-12,2.879199436e-13
1.5391,1.944001062e-11,8.042609956e-12,8.727011366e-12,3.365773577e-12,2.081689829e-13,2.724628954e-12,3.684121521e-12,5.861952649e-13,4.188392398e-13,1.693158853e-12,3.098081842e-12,8.681859475e-13,4.992899331e-13,1.477901924e-12,1.405914775e-12,1.329464521e-12,7.635603513e-13,6.990277675e-13,5.761893373e-13,2.344016691e-12,1.697479251e-12,3.342856929e-13,1.101882121e-12,6.755348977e-12,4.035530013e-12,4.896433615e-13,2.055745062e-12,1.676186300e-11,6.158572506e-12,2.790349610e-11,1.446158911e-12,2.770583117e-13
1.5469,1.893008054e-11,7.869131107e-12,8.596017057e-12,3.321776019e-12,2.070694104e-13,2.712184442e-12,3.656920294e-12,5.750887736e-13,4.108773430e-13,1.662225536e-12,3.067039310e-12,8.476953886e-13,4.926210744e-13,1.444795810e-12,1.386001400e-12,1.320365380e-12,7.698395295e-13,6.814195431e-13,5.661126149e-13,2.300126420e-12,1.669628823e-12,3.250897338e-13,1.076683704e-12,6.666598921e-12,3.980094187e-12,4.724002429e-13,2.043620098e-12,1.654936297e-11,6.065665842e-12,2.718285575e-11,1.429338266e-12,2.666093520e-13
1.5547,1.844123126e-11,7.705686829e-12,8.489135322e-12,3.279954457e-12,2.060858729e-13,2.698316308e-12,3.633189013e-12,5.651497835e-13,4.034008250e-13,1.634778411e-12,3.044816185e-12,8.303524547e-13,4.862337999e-13,1.415355328e-12,1.370688410e-12,1.314040110e-12,7.789231290e-13,6.656082496e-13,5.562225213e-13,2.259798501e-12,1.641609608e-12,3.174417095e-13,1.056081780e-12,6.578831847e-12,3.927458094e-12,4.556184639e-13,2.032951358e-12,1.633240927e-11,5.974574932e-12,2.648345572e-11,1.414270616e-12,2.565591656e-13
1.5625,1.796061219e-11,7.543634608e-12,8.371759211e-12,3.237677139e-12,2.049536981e-13,2.684975347e-12,3.603874800e-12,5.553639860e-13,3.960793793e-13,1.607159561e-12,3.019791909e-12,8.129580660e-13,4.804774832e-13,1.386671433e-12,1.355184200e-12,1.309101822e-12,7.880733925e-13,6.504528850e-13,5.469171128e-13,2.219924554e-12,1.612969523e-12,3.091174043e-13,1.032444947e-12,6.487490282e-12,3.870708813e-12,4.390810988e-13,2.020893033e-12,1.612127199e-11,5.885663284e-12,2.580793535e-11,1.399195887e-12,2.466725577e-13
1.5703,1.749241181e-11,7.389333574e-12,8.262124803e-12,3.198374064e-12,2.038733497e-13,2.670865167e-12,3.567308010e-12,5.455652073e-13,3.889306537e-13,1.576837210e-12,2.990877371e-12,7.951357550e-13,4.750950365e-13,1.358448611e-12,1.340512563e-12,1.305703429e-12,7.979378991e-13,6.360503612e-13,5.383623662e-13,2.180110645e-12,1.584319915e-12,3.012322910e-13,1.009474708e-12,6.395312300e-12,3.815393005e-12,4.232510575e-13,2.009663286e-12,1.591569529e-11,5.797781259e-12,2.516217653e-11,1.385290140e-12,2.371440568e-13
1.5781,1.703384663e-11,7.241493955e-12,8.159318162e-12,3.161253878e-12,2.028588714e-13,2.658398569e-12,3.534696933e-12,5.373021295e-13,3.819942879e-13,1.549548183e-12,2.966033942e-12,7.792340446e-13,4.698404096e-13,1.332309220e-12,1.330592165e-12,1.305569546e-12,8.107896945e-13,6.235885228e-13,5.306218105e-13,2.143959369e-12,1.556238561e-12,2.947237115e-13,9.906890132e-13,6.307663668e-12,3.765315252e-12,4.080187373e-13,2.001555192e-12,1.570846246e-11,5.712279343e-12,2.451735090e-11,1.372843070e-12,2.279713505e-13
1.5859,1.658916757e-11,7.100051367e-12,8.055611097e-12,3.126186579e-12,2.018639944e-13,2.647394767e-12,3.509279931e-12,5.291764890e-13,3.752470455e-13,1.525123009e-12,2.942294070e-12,7.635498773e-13,4.654864055e-13,1.306382667e-12,1.319475711e-12,1.305096236e-12,8.222558522e-13,6.117281486e-13,5.237524792e-13,2.108259132e-12,1.528380347e-12,2.877425697e-13,9.688510773e-13,6.219635438e-12,3.709229650e-12,3.930513291e-13,1.991601673e-12,1.550233984e-11,5.628162449e-12,2.390309499e-11,1.361716754e-12,2.190824781e-13
1.5938,1.616405768e-11,6.967073781e-12,7.965133988e-12,3.093276146e-12,2.009140526e-13,2.635184892e-12,3.482557233e-12,5.207000463e-13,3.688819536e-13,1.500570799e-12,2.915443135e-12,7.477809312e-13,4.617726446e-13,1.280947708e-12,1.307414849e-12,1.303845829e-12,8.322127773e-13,6.002146690e-13,5.175743117e-13,2.071944768e-12,1.500426470e-12,2.812120722e-13,9.464689062e-13,6.130897116e-12,3.652685974e-12,3.786844066e-13,1.981350638e-12,1.530156568e-11,5.544628423e-12,2.333425745e-11,1.351603814e-12,2.106726802e-13
1.6016,1.574462624e-11,6.834759451e-12,7.873160604e-12,3.059765124e-12,1.999417123e-13,2.625019029e-12,3.453710238e-12,5.137320460e-13,3.627605621e-13,1.476859149e-12,2.889104916e-12,7.335818214e-13,4.580627653e-13,1.257495095e-12,1.299847704e-12,1.305284472e-12,8.449114045e-13,5.905806266e-13,5.118955617e-13,2.039401458e-12,1.472708009e-12,2.760116206e-13,9.286649313e-13,6.045046943e-12,3.606095152e-12,3.649174038e-13,1.975457267e-12,1.510506212e-11,5.464396881e-12,2.276165581e-11,1.341314552e-12,2.026486370e-13
1.6094,1.533728473e-11,6.707850414e-12,7.783618254e-12,3.028882597e-12,1.991340173e-13,2.616662693e-12,3.426103476e-12,5.068661812e-13,3.565731255e-13,1.451642291e-12,2.865405307e-12,7.191327847e-13,4.548490753e-13,1.233779176e-12,1.291423858e-12,1.306657560e-12,8.572394061e-13,5.820574732e-13,5.067119922e-13,2.008791047e-12,1.445479065e-12,2.704864566e-13,9.098067277e-13,5.956855861e-12,3.557217462e-12,3.514874531e-13,1.968359087e-12,1.491304791e-11,5.386429133e-12,2.220854045e-11,1.332240410e-12,1.949163365e-13
1.6172,1.495319633e-11,6.592019086e-12,7.713996024e-12,3.001945863e-12,1.985744487e-13,2.607241905e-12,3.399332599e-12,4.993422951e-13,3.505510791e-13,1.425601055e-12,2.842988789e-12,7.042294774e-13,4.520826593e-13,1.209791215e-12,1.280942525e-12,1.306602800e-12,8.673839541e-13,5.740207281e-13,5.019184777e-13,1.978629109e-12,1.418051218e-12,2.652336715e-13,8.897694840e-13,5.866607642e-12,3.503555341e-12,3.387049384e-13,1.959293132e-12,1.472706958e-11,5.310106041e-12,2.169642666e-11,1.325119627e-12,1.876888592e-13
1.625,1.457449596e-11,6.475765329e-12,7.638222562e-12,2.973241775e-12,1.980081610e-13,2.600406030e-12,3.374971661e-12,4.933684549e-13,3.449175616e-13,1.403636881e-12,2.820311936e-12,6.907895341e-13,4.494987559e-13,1.187358492e-12,1.273808215e-12,1.307984553e-12,8.784606212e-13,5.674176031e-13,4.973907880e-13,1.951628865e-12,1.389765878e-12,2.610878359e-13,8.727480944e-13,5.780357069e-12,3.457446950e-12,3.266624998e-13,1.954989068e-12,1.454681248e-11,5.238924701e-12,2.117441104e-11,1.317747452e-12,1.808978540e-13
1.6328,1.420542616e-11,6.362307382e-12,7.561974321e-12,2.945111384e-12,1.975733189e-13,2.595356809e-12,3.352697421e-12,4.877350922e-13,3.394659624e-13,1.382128272e-12,2.798192507e-12,6.772988435e-13,4.475950389e-13,1.164815234e-12,1.266073839e-12,1.308608999e-12,8.885263026e-13,5.617223424e-13,4.932493651e-13,1.925202896e-12,1.361245560e-12,2.568868759e-13,8.554044562e-13,5.694167631e-12,3.413444023e-12,3.150207886e-13,1.952027349e-12,1.437023697e-11,5.170278494e-12,2.067028815e-11,1.311173989e-12,1.743975567e-13
1.6406,1.386146301e-11,6.259005635e-12,7.507951192e-12,2.920548475e-12,1.974208299e-13,2.587484210e-12,3.329304423e-12,4.809770349e-13,3.340801778e-13,1.358160791e-12,2.779571703e-12,6.630463705e-13,4.462090211e-13,1.141792690e-12,1.255920877e-12,1.307246218e-12,8.962991167e-13,5.565033524e-13,4.895514330e-13,1.897814679e-12,1.332709599e-12,2.529340866e-13,8.369119473e-13,5.605587157e-12,3.364997595e-12,3.038211977e-13,1.946346495e-12,1.419625939e-11,5.100515204e-12,2.022136282e-11,1.306593008e-12,1.683017744e-13
1.6484,1.352283384e-11,6.153558360e-12,7.441632193e-12,2.893668373e-12,1.972543122e-13,2.579403838e-12,3.305682435e-12,4.751667396e-13,3.287874925e-13,1.336725444e-12,2.761244905e-12,6.497010339e-13,4.449578131e-13,1.119730793e-12,1.247912144e-12,1.306268894e-12,9.042992919e-13,5.525187501e-13,4.861344057e-13,1.872362598e-12,1.303029324e-12,2.496287585e-13,8.198509616e-13,5.518658210e-12,3.319583781e-12,2.932154761e-13,1.942718022e-12,1.402757256e-11,5.033487514e-12,1.977041706e-11,1.301244964e-12,1.625876281e-13
1.6562,1.318537553e-11,6.048763098e-12,7.366125587e-12,2.866258503e-12,1.972280147e-13,2.571426541e-12,3.281799063e-12,4.698995735e-13,3.235872823e-13,1.316365476e-12,2.738472927e-12,6.366119051e-13,4.440250013e-13,1.097566350e-12,1.239234503e-12,1.303542589e-12,9.104691952e-13,5.493761100e-13,4.829457342e-13,1.847162600e-12,1.271968157e-12,2.463299256e-13,8.023658513e-13,5.430384822e-12,3.276766717e-12,2.830802022e-13,1.940762048e-12,1.386522932e-11,4.970013770e-12,1.932025994e-11,1.296062432e-12,1.571915016e-13
1.6641,1.286740323e-11,5.955399936e-12,7.320074630e-12,2.843145248e-12,1.976565415e-13,2.561267034e-12,3.255798140e-12,4.636994582e-13,3.185104394e-13,1.293311796e-12,2.717219598e-12,6.231961999e-13,4.432379827e-13,1.075094939e-12,1.227760434e-12,1.298092617e-12,9.134609770e-13,5.466909764e-13,4.800656777e-13,1.821514938e-12,1.240548714e-12,2.435769860e-13,7.842004325e-13,5.338287576e-12,3.232212825e-12,2.733945949e-13,1.937329262e-12,1.370664838e-11,4.907555963e-12,1.891209983e-11,1.293690343e-12,1.521504234e-13
1.6719,1.256192670e-11,5.861613620e-12,7.275990801e-12,2.818472933e-12,1.981779054e-13,2.552654956e-12,3.230940337e-12,4.581186474e-13,3.135230536e-13,1.271357839e-12,2.702902044e-12,6.104547485e-13,4.426073782e-13,1.053469893e-12,1.216945495e-12,1.292964414e-12,9.163822870e-13,5.451017543e-13,4.775092692e-13,1.798945001e-12,1.209530578e-12,2.413960644e-13,7.670222878e-13,5.247840984e-12,3.189436609e-12,2.642867586e-13,1.935365630e-12,1.355482055e-11,4.848116278e-12,1.851103229e-11,1.291422422e-12,1.473974673e-13
1.6797,1.226641322e-11,5.766153949e-12,7.221747807e-12,2.791368687e-12,1.986801819e-13,2.544863474e-12,3.209895461e-12,4.531647268e-13,3.086019070e-13,1.251279627e-12,2.691444531e-12,5.980280750e-13,4.423524972e-13,1.032175116e-12,1.205921981e-12,1.287553161e-12,9.188325857e-13,5.445574912e-13,4.752605979e-13,1.778495415e-12,1.179065682e-12,2.392798989e-13,7.499464706e-13,5.160669837e-12,3.149570994e-12,2.557799755e-13,1.935156841e-12,1.341356261e-11,4.791401330e-12,1.811715127e-11,1.288429108e-12,1.429534485e-13
1.6875,1.198932078e-11,5.681272305e-12,7.188460400e-12,2.767979037e-12,1.995609710e-13,2.534575032e-12,3.189773400e-12,4.476303963e-13,3.037723615e-13,1.230167745e-12,2.681480025e-12,5.856045016e-13,4.421068487e-13,1.011089776e-12,1.193888443e-12,1.280747342e-12,9.190474947e-13,5.446319471e-13,4.732508636e-13,1.758344561e-12,1.148214432e-12,2.377886838e-13,7.329754942e-13,5.073103189e-12,3.111511776e-12,2.477791580e-13,1.934473601e-12,1.327664248e-11,4.735301280e-12,1.776129788e-11,1.287546720e-12,1.388523810e-13
1.6953,1.171827564e-11,5.599524613e-12,7.155619570e-12,2.746071342e-12,2.007187522e-13,2.527135488e-12,3.168602759e-12,4.425746116e-13,2.989407818e-13,1.209415493e-12,2.674211389e-12,5.736580665e-13,4.420262985e-13,9.905708579e-13,1.182404512e-12,1.273481429e-12,9.179050303e-13,5.452933412e-13,4.713163945e-13,1.739843458e-12,1.116416391e-12,2.364935176e-13,7.161705677e-13,4.983959951e-12,3.074810673e-12,2.402067574e-13,1.934989693e-12,1.314006917e-11,4.682708554e-12,1.741123370e-11,1.287544668e-12,1.349764986e-13
1.7031,1.145334418e-11,5.516426845e-12,7.110098824e-12,2.723004724e-12,2.018985767e-13,2.523382693e-12,3.147669852e-12,4.381353814e-13,2.941165471e-13,1.189880810e-12,2.667036255e-12,5.620992873e-13,4.424826707e-13,9.704651179e-13,1.170459349e-12,1.265122773e-12,9.156336647e-13,5.467504279e-13,4.694468463e-13,1.722616568e-12,1.085653393e-12,2.351949736e-13,6.992256239e-13,4.895896776e-12,3.037098794e-12,2.330724869e-13,1.936430832e-12,1.300998104e-11,4.633694426e-12,1.706412289e-11,1.287035577e-12,1.314084945e-13
1.7109,1.120902726e-11,5.440960964e-12,7.083888589e-12,2.701699649e-12,2.032486219e-13,2.516508667e-12,3.128509668e-12,4.333483883e-13,2.894262989e-13,1.170237079e-12,2.660167761e-12,5.512133379e-13,4.430466618e-13,9.514331598e-13,1.158736588e-12,1.256717475e-12,9.129732117e-13,5.494005392e-13,4.678934189e-13,1.706748274e-12,1.056957873e-12,2.350691689e-13,6.837261050e-13,4.811609354e-12,3.000062366e-12,2.263159224e-13,1.936886804e-12,1.288811276e-11,4.584489571e-12,1.675018987e-11,1.288002931e-12,1.281856959e-13
1.7188,1.097431791e-11,5.368939901e-12,7.065949245e-12,2.681101463e-12,2.047545200e-13,2.507483165e-12,3.110350651e-12,4.286632672e-13,2.848058118e-13,1.150984752e-12,2.655706048e-12,5.409902348e-13,4.438675774e-13,9.333162596e-13,1.148035674e-12,1.250050243e-12,9.110148719e-13,5.530095895e-13,4.668057477e-13,1.693678531e-12,1.028334460e-12,2.352218585e-13,6.685242005e-13,4.728441287e-12,2.965682109e-12,2.197766360e-13,1.938024291e-12,1.276943009e-11,4.536205486e-12,1.644543596e-11,1.289749488e-12,1.250096945e-13
1.7266,1.074172379e-11,5.295362401e-12,7.036565729e-12,2.659382887e-12,2.062535502e-13,2.499537578e-12,3.090651423e-12,4.242383467e-13,2.803225682e-13,1.133114234e-12,2.653660498e-12,5.309965982e-13,4.453231035e-13,9.157083824e-13,1.136971240e-12,1.243749919e-12,9.089890037e-13,5.573266937e-13,4.659655139e-13,1.682746596e-12,9.994669467e-13,2.347887278e-13,6.521216901e-13,4.643684730e-12,2.930924721e-12,2.134622091e-13,1.940412243e-12,1.265162221e-11,4.490611770e-12,1.613874663e-11,1.290593000e-12,1.218864038e-13
1.7344,1.052339962e-11,5.226382455e-12,7.017422205e-12,2.638370462e-12,2.078296606e-13,2.490514198e-12,3.069764555e-12,4.199158010e-13,2.762030506e-13,1.116366127e-12,2.655969405e-12,5.220458861e-13,4.469026728e-13,8.999977797e-13,1.127499049e-12,1.237490023e-12,9.069740496e-13,5.629333179e-13,4.651518007e-13,1.673414009e-12,9.718759585e-13,2.353672793e-13,6.378489917e-13,4.561082650e-12,2.896918925e-12,2.075253269e-13,1.942213610e-12,1.253501731e-11,4.446235091e-12,1.585379971e-11,1.292008766e-12,1.190714041e-13
1.7422,1.031632695e-11,5.161461588e-12,7.008037529e-12,2.617885502e-12,2.095049177e-13,2.480437049e-12,3.050324390e-12,4.159384851e-13,2.722521843e-13,1.098650107e-12,2.661195268e-12,5.141184435e-13,4.487525018e-13,8.857702667e-13,1.119763447e-12,1.231823266e-12,9.050598742e-13,5.695682190e-13,4.646887643e-13,1.665050075e-12,9.454310787e-13,2.366785775e-13,6.256794600e-13,4.480958155e-12,2.865368287e-12,2.019646956e-13,1.942732088e-12,1.242253447e-11,4.402514628e-12,1.558814559e-11,1.294364133e-12,1.164323153e-13
1.75,1.011301013e-11,5.096699906e-12,6.992377749e-12,2.596420109e-12,2.111370676e-13,2.469822872e-12,3.032834142e-12,4.117408039e-13,2.682921854e-13,1.079014602e-12,2.662548265e-12,5.060073764e-13,4.513637832e-13,8.714804918e-13,1.110994917e-12,1.226120419e-12,9.027951087e-13,5.768655052e-13,4.651808543e-13,1.657117929e-12,9.204278556e-13,2.375887454e-13,6.123151780e-13,4.399453008e-12,2.832173760e-12,1.966194512e-13,1.941711554e-12,1.231645808e-11,4.358517446e-12,1.533715205e-11,1.296107306e-12,1.138159905e-13
1.7578,9.918807601e-12,5.033620198e-12,6.979499846e-12,2.574457292e-12,2.127195534e-13,2.457564594e-12,3.016570845e-12,4.073741889e-13,2.646762442e-13,1.060472877e-12,2.661382582e-12,4.983341208e-13,4.543187460e-13,8.586794391e-13,1.104282206e-12,1.221949304e-12,9.023566280e-13,5.860428842e-13,4.665780948e-13,1.652568068e-12,8.975596230e-13,2.393593894e-13,6.000611400e-13,4.318853074e-12,2.797693328e-12,1.914223513e-13,1.939979706e-12,1.221071008e-11,4.313420528e-12,1.509765261e-11,1.297326605e-12,1.113577064e-13
1.7656,9.734280790e-12,4.973740881e-12,6.972791517e-12,2.553472254e-12,2.143717579e-13,2.445497380e-12,3.000180051e-12,4.036150321e-13,2.614963186e-13,1.043805808e-12,2.665653447e-12,4.918500992e-13,4.576967089e-13,8.481964696e-13,1.100819603e-12,1.219884701e-12,9.038749806e-13,5.970821544e-13,4.681833087e-13,1.651958168e-12,8.751370510e-13,2.419755508e-13,5.902558698e-13,4.240083225e-12,2.764042356e-12,1.864612665e-13,1.938434332e-12,1.210020594e-11,4.269268284e-12,1.485890214e-11,1.298966209e-12,1.090896892e-13
1.7734,9.556628254e-12,4.918357315e-12,6.967832370e-12,2.534171409e-12,2.161278293e-13,2.433634762e-12,2.982846692e-12,3.999774614e-13,2.583986590e-13,1.026691616e-12,2.674258839e-12,4.857898895e-13,4.618984231e-13,8.384461755e-13,1.096272799e-12,1.217933115e-12,9.043321555e-13,6.084073411e-13,4.697280470e-13,1.651795404e-12,8.528500584e-13,2.441626407e-13,5.799187479e-13,4.159970023e-12,2.728767158e-12,1.818106274e-13,1.935970108e-12,1.198963248e-11,4.226747533e-12,1.463517089e-11,1.301242466e-12,1.069291115e-13
1.7812,9.385926056e-12,4.865657239e-12,6.966083481e-12,2.514954883e-12,2.178670283e-13,2.419920883e-12,2.966422142e-12,3.963545968e-13,2.554411658e-13,1.009775653e-12,2.679625716e-12,4.801359482e-13,4.664864888e-13,8.297978474e-13,1.092768941e-12,1.217435959e-12,9.051927471e-13,6.202646708e-13,4.714689466e-13,1.653019002e-12,8.330098616e-13,2.466834603e-13,5.704009955e-13,4.081888167e-12,2.694135038e-12,1.775049806e-13,1.933639247e-12,1.188115287e-11,4.184847310e-12,1.442849146e-11,1.303717580e-12,1.048763305e-13
1.7891,9.221127865e-12,4.813012959e-12,6.963575200e-12,2.495449787e-12,2.195132159e-13,2.406563446e-12,2.950837113e-12,3.932566515e-13,2.529378978e-13,9.931352413e-13,2.681335021e-12,4.750860924e-13,4.714026580e-13,8.229802005e-13,1.092841160e-12,1.219463851e-12,9.084557769e-13,6.332237922e-13,4.734021812e-13,1.657150304e-12,8.150335553e-13,2.498929806e-13,5.634812552e-13,4.007241910e-12,2.661826696e-12,1.735877891e-13,1.932627085e-12,1.177137023e-11,4.144110612e-12,1.421993046e-11,1.305958145e-12,1.029728497e-13
