Time,Fp1,AF3,F7,F3,FC1,FC5,T7,C3,CP1,CP5,P7,P3,Pz,PO3,O1,Oz,O2,PO4,P4,P8,CP6,CP2,C4,T8,FC6,FC2,F4,F8,AF4,Fp2,Fz,Cz,
0,8.469286644e-10,2.285703313e-09,1.500902427e-10,1.666902273e-10,2.228614854e-10,2.626407867e-10,7.436069769e-11,3.787287897e-10,3.162523512e-10,1.465822660e-09,7.433001938e-11,2.321337336e-10,1.615157920e-10,8.119020250e-10,2.018085386e-12,8.215599616e-12,4.692593408e-11,3.393860945e-11,6.759709859e-10,5.258291892e-10,9.232987472e-11,3.613723189e-09,1.790741125e-10,5.090910286e-10,4.847050126e-11,2.957690276e-11,1.369291326e-11,2.317623703e-09,2.947275952e-09,2.549184247e-11,5.711028347e-10,1.263869269e-09
0.0078125,8.512942672e-10,2.292002584e-09,1.509696873e-10,1.672116097e-10,2.230511613e-10,2.636073484e-10,7.459225726e-11,3.793450799e-10,3.161607161e-10,1.472838850e-09,7.453342259e-11,2.316131306e-10,1.610907720e-10,8.156263905e-10,2.071775668e-12,8.326368264e-12,4.692179484e-11,3.403571567e-11,6.779265817e-10,5.233697315e-10,9.200947764e-11,3.624486485e-09,1.797136211e-10,5.099423129e-10,4.872330908e-11,2.939752042e-11,1.367965411e-11,2.315283165e-09,2.939946649e-09,2.552496367e-11,5.722987498e-10,1.270079869e-09
0.015625,8.533302520e-10,2.291933340e-09,1.514390769e-10,1.672653266e-10,2.226173070e-10,2.638517448e-10,7.462110171e-11,3.789384051e-10,3.152124005e-10,1.475823120e-09,7.453026180e-11,2.304444419e-10,1.602033372e-10,8.171364500e-10,2.122872412e-12,8.418149870e-12,4.679248743e-11,3.403935422e-11,6.780072137e-10,5.193813053e-10,9.142554733e-11,3.625192501e-09,1.798385491e-10,5.094071288e-10,4.884655590e-11,2.913198431e-11,1.362695190e-11,2.306387803e-09,2.924100776e-09,2.548454500e-11,5.718950226e-10,1.272820587e-09
0.023438,8.530334461e-10,2.285491085e-09,1.514987917e-10,1.668514143e-10,2.215433777e-10,2.633644396e-10,7.443441617e-11,3.775060194e-10,3.134047888e-10,1.474691914e-09,7.431206935e-11,2.286365899e-10,1.588537159e-10,8.163798006e-10,2.171257602e-12,8.490134369e-12,4.654260882e-11,3.395038165e-11,6.762148724e-10,5.139099591e-10,9.058394476e-11,3.615788532e-09,1.794431224e-10,5.074239907e-10,4.884393888e-11,2.878391809e-11,1.353409099e-11,2.290969652e-09,2.899939920e-09,2.537161345e-11,5.698909336e-10,1.272041830e-09
0.03125,8.503666751e-10,2.272764512e-09,1.511427251e-10,1.659859687e-10,2.198257801e-10,2.621441242e-10,7.402855892e-11,3.750174126e-10,3.107079814e-10,1.469428181e-09,7.388179023e-11,2.261847412e-10,1.570567273e-10,8.133394147e-10,2.216816093e-12,8.543237304e-12,4.616809842e-11,3.376499068e-11,6.725633914e-10,5.070089451e-10,8.949292300e-11,3.596397572e-09,1.785556436e-10,5.039540525e-10,4.870917267e-11,2.835624269e-11,1.340156394e-11,2.269187965e-09,2.867798678e-09,2.518913750e-11,5.663218857e-10,1.267753579e-09
0.039062,8.452737499e-10,2.253798548e-09,1.503622261e-10,1.646716791e-10,2.174693127e-10,2.601880379e-10,7.340599971e-11,3.714649335e-10,3.071264616e-10,1.460037736e-09,7.324252638e-11,2.231033126e-10,1.548352513e-10,8.080208895e-10,2.259786443e-12,8.578385668e-12,4.566190783e-11,3.347820167e-11,6.670520396e-10,4.987291824e-10,8.816102265e-11,3.567156115e-09,1.772013637e-10,4.990355884e-10,4.843633246e-11,2.785580439e-11,1.323204860e-11,2.241292291e-09,2.828051129e-09,2.493548550e-11,5.612283162e-10,1.259945084e-09
0.046875,8.377444727e-10,2.228622168e-09,1.491498086e-10,1.629006168e-10,2.144876833e-10,2.574940851e-10,7.257025324e-11,3.668764529e-10,3.027022105e-10,1.446515247e-09,7.239909618e-11,2.194257338e-10,1.522163526e-10,8.004242598e-10,2.300762574e-12,8.594661206e-12,4.502478790e-11,3.309086139e-11,6.596850366e-10,4.891601140e-10,8.660195070e-11,3.528136664e-09,1.753748107e-10,4.927089033e-10,4.802687957e-11,2.729075588e-11,1.303026388e-11,2.207481890e-09,2.781046556e-09,2.461024394e-11,5.546131684e-10,1.248601997e-09
0.054688,8.278223633e-10,2.197398269e-09,1.475093421e-10,1.606791665e-10,2.109152520e-10,2.540767637e-10,7.153123075e-11,3.613002087e-10,2.974900489e-10,1.428921547e-09,7.136198349e-11,2.151964336e-10,1.492266428e-10,7.905796425e-10,2.339855023e-12,8.590726814e-12,4.426487888e-11,3.260709593e-11,6.505094203e-10,4.784211497e-10,8.483868764e-11,3.479563701e-09,1.730720790e-10,4.850328507e-10,4.748396579e-11,2.666422489e-11,1.279807421e-11,2.168057761e-09,2.727181215e-09,2.421727051e-11,5.464964849e-10,1.233787280e-09
0.0625,8.156189232e-10,2.160376402e-09,1.454616525e-10,1.580253823e-10,2.068022816e-10,2.499675658e-10,7.029546606e-11,3.547909383e-10,2.915446069e-10,1.407396320e-09,7.013912337e-11,2.104645154e-10,1.458876293e-10,7.785729146e-10,2.376562059e-12,8.565594406e-12,4.339123194e-11,3.203309026e-11,6.396010927e-10,4.666266189e-10,8.289299223e-11,3.421828855e-09,1.703086527e-10,4.760895953e-10,4.681343484e-11,2.598023410e-11,1.253372786e-11,2.123401700e-09,2.666921094e-09,2.376065219e-11,5.369430766e-10,1.215624147e-09
0.070312,8.012839444e-10,2.117881724e-09,1.430279690e-10,1.549702892e-10,2.021986889e-10,2.452086967e-10,6.886980505e-11,3.473992978e-10,2.849081879e-10,1.382127000e-09,6.873988527e-11,2.052685071e-10,1.422301328e-10,7.645220860e-10,2.410361848e-12,8.519264469e-12,4.241253725e-11,3.137689834e-11,6.270584687e-10,4.538869096e-10,8.078136743e-11,3.355431923e-09,1.671128133e-10,4.659404587e-10,4.602245159e-11,2.524533334e-11,1.223727784e-11,2.073876547e-09,2.600818355e-09,2.324926273e-11,5.260456245e-10,1.194280001e-09
0.078125,7.849591124e-10,2.070282657e-09,1.402295139e-10,1.515478926e-10,1.971509306e-10,2.398405464e-10,6.727837997e-11,3.391747340e-10,2.776162333e-10,1.353346805e-09,6.717331715e-11,1.996339185e-10,1.383030085e-10,7.485554172e-10,2.440716194e-12,8.453186554e-12,4.133913671e-11,3.064482296e-11,6.129932037e-10,4.403175487e-10,7.851742631e-11,3.280922322e-09,1.635191292e-10,4.547005925e-10,4.511775581e-11,2.446647663e-11,1.191330658e-11,2.019866710e-09,2.529442909e-09,2.269271406e-11,5.139151669e-10,1.169940208e-09
0.085938,7.667992019e-10,2.017967670e-09,1.371017769e-10,1.477793910e-10,1.917055315e-10,2.339064212e-10,6.554512445e-11,3.302004289e-10,2.697401795e-10,1.321335610e-09,6.544919047e-11,1.936042741e-10,1.341572158e-10,7.308319089e-10,2.467429027e-12,8.369578297e-12,4.018411939e-11,2.984066971e-11,5.975220546e-10,4.260571319e-10,7.611643461e-11,3.198925474e-09,1.595635846e-10,4.425428228e-10,4.410803709e-11,2.365445578e-11,1.157006010e-11,1.961813519e-09,2.453390813e-09,2.208980075e-11,5.006550552e-10,1.142811018e-09
0.09375,7.469665033e-10,1.961370233e-09,1.336754783e-10,1.436873571e-10,1.859155775e-10,2.274650969e-10,6.368069213e-11,3.205761449e-10,2.613740927e-10,1.286396120e-09,6.358939585e-11,1.872441053e-10,1.298282677e-10,7.115161840e-10,2.491433345e-12,8.271594965e-12,3.895696213e-11,2.896851683e-11,5.807624053e-10,4.112581100e-10,7.360036906e-11,3.110139474e-09,1.552766653e-10,4.295957123e-10,4.299937280e-11,2.281695054e-11,1.121460240e-11,1.900160247e-09,2.373236378e-09,2.143964506e-11,4.863378942e-10,1.113147727e-09
0.10156,7.256491350e-10,1.900969466e-09,1.299737819e-10,1.393089069e-10,1.798439052e-10,2.205830402e-10,6.170031509e-11,3.103751660e-10,2.525846940e-10,1.248880568e-09,6.161636353e-11,1.806071907e-10,1.253336741e-10,6.907665396e-10,2.513971926e-12,8.161611110e-12,3.766413512e-11,2.803904931e-11,5.628498964e-10,3.960338599e-10,7.098943671e-11,3.015309810e-09,1.506825970e-10,4.159734818e-10,4.180026655e-11,2.195527990e-11,1.084737224e-11,1.835342110e-09,2.289432970e-09,2.075292198e-11,4.710637119e-10,1.081239457e-09
0.10938,7.030880413e-10,1.837332932e-09,1.260380426e-10,1.346908453e-10,1.735477127e-10,2.133243962e-10,5.962414869e-11,2.996729863e-10,2.434308859e-10,1.209187490e-09,5.954473745e-11,1.737416474e-10,1.206946802e-10,6.687834609e-10,2.535139233e-12,8.039239873e-12,3.631858968e-11,2.706790409e-11,5.439685018e-10,3.804757396e-10,6.829975069e-11,2.915331812e-09,1.458149158e-10,4.018031568e-10,4.052947273e-11,2.107650594e-11,1.046680815e-11,1.767894748e-09,2.202585947e-09,2.004052225e-11,4.550019909e-10,1.047404487e-09
0.11719,6.795140409e-10,1.771005580e-09,1.219143127e-10,1.298728565e-10,1.670694241e-10,2.057455559e-10,5.747153111e-11,2.885491460e-10,2.339677997e-10,1.167661313e-09,5.739160961e-11,1.666894982e-10,1.159495283e-10,6.457757935e-10,2.554142653e-12,7.904437367e-12,3.493275994e-11,2.606422449e-11,5.242922953e-10,3.646739189e-10,6.554910671e-11,2.811073676e-09,1.407166156e-10,3.871789284e-10,3.920486891e-11,2.018912132e-11,1.007581761e-11,1.698330021e-09,2.113377645e-09,1.930861791e-11,4.383003647e-10,1.011971314e-09
0.125,6.551323936e-10,1.702508821e-09,1.176383755e-10,1.248879595e-10,1.604496990e-10,1.979096241e-10,5.526491498e-11,2.770838244e-10,2.242501661e-10,1.124638584e-09,5.517340961e-11,1.594847462e-10,1.111354696e-10,6.219454886e-10,2.570540853e-12,7.758675396e-12,3.351681965e-11,2.503390116e-11,5.039735300e-10,3.486968623e-10,6.275399170e-11,2.703355008e-09,1.354323002e-10,3.722021326e-10,3.783773760e-11,1.929397384e-11,9.678639022e-12,1.627092681e-09,2.022346093e-09,1.856237163e-11,4.210753535e-10,9.752605055e-10
0.13281,6.301079588e-10,1.632412259e-09,1.132423729e-10,1.197812200e-10,1.537304738e-10,1.898895892e-10,5.301925417e-11,2.653831852e-10,2.143655245e-10,1.080470876e-09,5.290206578e-11,1.521792414e-10,1.062797528e-10,5.974936288e-10,2.584473520e-12,7.602498411e-12,3.208665324e-11,2.398540630e-11,4.831780110e-10,3.326355927e-10,5.992767608e-11,2.593044762e-09,1.300080764e-10,3.569925290e-10,3.643491638e-11,1.839421291e-11,9.277418616e-12,1.554696383e-09,1.930092321e-09,1.780417717e-11,4.034695494e-10,9.375382372e-10
0.14062,6.045639445e-10,1.561160345e-09,1.087511637e-10,1.145943984e-10,1.469417688e-10,1.817395735e-10,5.074251313e-11,2.535364554e-10,2.043962064e-10,1.035440920e-09,5.059388374e-11,1.448283851e-10,1.013990087e-10,5.725730939e-10,2.595818168e-12,7.437666127e-12,3.065332487e-11,2.292307478e-11,4.620384595e-10,3.165925377e-10,5.707974588e-11,2.480832833e-09,1.244813128e-10,3.416259108e-10,3.500062108e-11,1.749794221e-11,8.873735223e-12,1.481580965e-09,1.837136868e-09,1.703670919e-11,3.855996484e-10,8.990135432e-10
0.14844,5.786823281e-10,1.489190442e-09,1.041900216e-10,1.093524734e-10,1.401035560e-10,1.735014384e-10,4.844755901e-11,2.416048238e-10,1.943993727e-10,9.898466326e-10,4.827146848e-11,1.374771939e-10,9.650469351e-11,5.473354725e-10,2.604455326e-12,7.268097240e-12,2.922157828e-11,2.185068842e-11,4.406873425e-10,3.006325092e-10,5.422384284e-11,2.367452722e-09,1.188858815e-10,3.261473115e-10,3.354600212e-11,1.661198954e-11,8.470740903e-12,1.408188137e-09,1.743967484e-09,1.626470475e-11,3.675733880e-10,8.599627045e-10
0.15625,5.526377129e-10,1.416995144e-09,9.958774675e-11,1.040826405e-10,1.332461481e-10,1.652218691e-10,4.614458802e-11,2.296533795e-10,1.844259851e-10,9.439687608e-10,4.595240151e-11,1.301652854e-10,9.162021096e-11,5.219398002e-10,2.611482576e-12,7.095175813e-12,2.779869177e-11,2.077672310e-11,4.192695801e-10,2.848205309e-10,5.138231471e-11,2.253704325e-09,1.132578512e-10,3.106186652e-10,3.208405998e-11,1.573961151e-11,8.071652074e-12,1.335012356e-09,1.651211389e-09,1.549106232e-11,3.495111310e-10,8.206616473e-10
0.16406,5.265155227e-10,1.344928366e-09,9.496876151e-11,9.882101575e-11,1.264121263e-10,1.569504796e-10,4.384132578e-11,2.177491465e-10,1.745184117e-10,8.980038331e-10,4.364269460e-11,1.229211175e-10,8.676881272e-11,4.965185294e-10,2.617821306e-12,6.916717712e-12,2.639228467e-11,1.970938502e-11,3.978894867e-10,2.692128983e-10,4.857110322e-11,2.140123400e-09,1.076278805e-10,2.951189687e-10,3.062060472e-11,1.487971043e-11,7.675486282e-12,1.262383966e-09,1.559297420e-09,1.471914569e-11,3.315030090e-10,7.812854582e-10
0.17188,5.004279749e-10,1.273369939e-09,9.035776005e-11,9.360470614e-11,1.196333257e-10,1.487397601e-10,4.155111767e-11,2.059682203e-10,1.647375022e-10,8.521834423e-10,4.134644665e-11,1.157843887e-10,8.196635078e-11,4.712179358e-10,2.622290941e-12,6.730779012e-12,2.501350133e-11,1.865554201e-11,3.766650627e-10,2.538574185e-10,4.579991651e-11,2.027288844e-09,1.020277188e-10,2.797167504e-10,2.916296885e-11,1.403527054e-11,7.280896149e-12,1.190674587e-09,1.468661614e-09,1.395366428e-11,3.136517281e-10,7.420228954e-10
0.17969,4.744974883e-10,1.202669215e-09,8.577478894e-11,8.845544991e-11,1.129260041e-10,1.406224888e-10,3.928459356e-11,1.943625924e-10,1.551417964e-10,8.067136161e-10,3.907542880e-11,1.087986618e-10,7.723766030e-11,4.461372061e-10,2.623958849e-12,6.538635824e-12,2.367240513e-11,1.761831900e-11,3.556988249e-10,2.388376937e-10,4.308118451e-11,1.915739001e-09,9.648288302e-11,2.644554390e-10,2.771768854e-11,1.321401679e-11,6.891657526e-12,1.120267045e-09,1.379821623e-09,1.319756032e-11,2.960409555e-10,7.030438030e-10
0.1875,4.488004020e-10,1.133041248e-09,8.123357679e-11,8.338003517e-11,1.063105145e-10,1.326195390e-10,3.704691646e-11,1.829596714e-10,1.457622541e-10,7.617671312e-10,3.684634175e-11,1.019911632e-10,7.260254768e-11,4.213417943e-10,2.624192211e-12,6.344270332e-12,2.236949089e-11,1.659724921e-11,3.350501032e-10,2.242229841e-10,4.042618919e-11,1.805832627e-09,9.101395661e-11,2.493821737e-10,2.628507798e-11,1.241785202e-11,6.510872889e-12,1.051385961e-09,1.293054565e-09,1.245288952e-11,2.787111781e-10,6.644794592e-10
0.19531,4.234312057e-10,1.064792711e-09,7.674674666e-11,7.839524829e-11,9.981927518e-11,1.247653331e-10,3.484321404e-11,1.718157386e-10,1.366387252e-10,7.175565437e-10,3.467060339e-11,9.539142750e-11,6.807602927e-11,3.969516674e-10,2.624350119e-12,6.150480337e-12,2.110541137e-11,1.559529858e-11,3.148115062e-10,2.100532577e-10,3.784817618e-11,1.698091658e-09,8.564996132e-11,2.345695168e-10,2.486733265e-11,1.164801893e-11,6.138899985e-12,9.843464012e-10,1.208727294e-09,1.172069810e-11,2.617409261e-10,6.265001558e-10
0.20312,3.984909150e-10,9.981702756e-10,7.232536252e-11,7.352473523e-11,9.348465706e-11,1.170853470e-10,3.268114628e-11,1.609744686e-10,1.277963962e-10,6.742161984e-10,3.255178267e-11,8.901386166e-11,6.368787663e-11,3.730522042e-10,2.624762441e-12,5.957529945e-12,1.988462444e-11,1.461747603e-11,2.950527820e-10,1.963700086e-10,3.535809784e-11,1.592898754e-09,8.040874499e-11,2.200940004e-10,2.346970781e-11,1.090847519e-11,5.778170921e-12,9.193812001e-10,1.127187712e-09,1.100210043e-11,2.451972642e-10,5.892378809e-10
0.21094,3.740778707e-10,9.333581296e-10,6.799233308e-11,6.878777076e-11,8.732998982e-11,1.096017685e-10,3.057180103e-11,1.504595318e-10,1.192513375e-10,6.318818785e-10,3.049577785e-11,8.286645707e-11,5.946160272e-11,3.497075658e-10,2.626066314e-12,5.765447939e-12,1.871295433e-11,1.366832821e-11,2.758246231e-10,1.832031524e-10,3.296025070e-11,1.490524677e-09,7.530488579e-11,2.060189970e-10,2.209951797e-11,1.019989041e-11,5.430781341e-12,8.566128780e-10,1.048575643e-09,1.030090565e-11,2.291238188e-10,5.528227787e-10
0.21875,3.502918430e-10,8.706241613e-10,6.377302002e-11,6.420137371e-11,8.137603731e-11,1.023461860e-10,2.852349998e-11,1.403125768e-10,1.110433968e-10,5.907366538e-10,2.850998959e-11,7.697808699e-11,5.540457626e-11,3.270206422e-10,2.628430396e-12,5.574680987e-12,1.759668581e-11,1.275288380e-11,2.572124204e-10,1.705935793e-10,3.066104828e-11,1.391393097e-09,7.036360567e-11,1.923915365e-10,2.076444139e-11,9.524104771e-12,5.097111458e-12,7.962945229e-10,9.731762617e-10,9.620812782e-12,2.135882417e-10,5.174045976e-10
0.22656,3.272113452e-10,8.101058407e-10,5.967554193e-11,5.977436658e-11,7.564186196e-11,9.534062750e-11,2.654382416e-11,1.305538426e-10,1.031866536e-10,5.508851620e-10,2.659868549e-11,7.135892363e-11,5.152254032e-11,3.050588446e-10,2.630849328e-12,5.386121634e-12,1.653565390e-11,1.187352499e-11,2.392583223e-10,1.585775895e-10,2.846386976e-11,1.295718163e-09,6.559511480e-11,1.792411978e-10,1.946734780e-11,8.883322642e-12,4.778614625e-12,7.385236190e-10,9.011347049e-10,8.964192784e-12,1.986174137e-10,4.830750309e-10
0.23438,3.049223782e-10,7.519339641e-10,5.571051514e-11,5.551441785e-11,7.013921017e-11,8.860677169e-11,2.464541927e-11,1.211967217e-10,9.568346215e-11,5.124549716e-10,2.476995916e-11,6.600993528e-11,4.782019130e-11,2.838882868e-10,2.632721590e-12,5.201421577e-12,1.552789047e-11,1.103084260e-11,2.219946252e-10,1.471596392e-10,2.637029672e-11,1.203712167e-09,6.100557768e-11,1.665962532e-10,1.821105683e-11,8.275968090e-12,4.476159880e-12,6.833403651e-10,8.324470398e-10,8.332767835e-12,1.842307332e-10,4.499575438e-10
0.24219,2.834931055e-10,6.962804402e-10,5.189432223e-11,5.143237024e-11,6.488274971e-11,8.216018103e-11,2.283556172e-11,1.122703655e-10,8.855401777e-11,4.755656154e-10,2.302914105e-11,6.094504650e-11,4.430639700e-11,2.635775746e-10,2.634579305e-12,5.022272610e-12,1.457608543e-11,1.022666073e-11,2.054739698e-10,1.363533547e-10,2.438643621e-11,1.115662812e-09,5.660841558e-11,1.544964840e-10,1.700028848e-11,7.702563342e-12,4.189646657e-12,6.308975895e-10,7.672686371e-10,7.726646859e-12,1.704723457e-10,4.181530274e-10
0.25,2.629629231e-10,6.431935928e-10,4.823752877e-11,4.753786656e-11,5.989047866e-11,7.600713465e-11,2.111423257e-11,1.037909316e-10,8.180423302e-11,4.402655380e-10,2.137329317e-11,5.616019680e-11,4.098943415e-11,2.441552288e-10,2.637314906e-12,4.850058542e-12,1.368355458e-11,9.463965997e-12,1.897192184e-10,1.261644580e-10,2.251137144e-11,1.031645610e-09,5.241008184e-11,1.429749962e-10,1.583762091e-11,7.164429652e-12,3.919502175e-12,5.811968863e-10,7.056105781e-10,7.147675226e-12,1.573590306e-10,3.876886153e-10
0.25781,2.433874314e-10,5.927924970e-10,4.475222875e-11,4.384489386e-11,5.516843439e-11,7.016641579e-11,1.948218273e-11,9.577347241e-11,7.544178526e-11,4.066618660e-10,1.980237632e-11,5.165304683e-11,3.786486885e-11,2.256691205e-10,2.641525422e-12,4.685151232e-12,1.285341660e-11,8.746392164e-12,1.747671878e-10,1.165775818e-10,2.074141095e-11,9.518284944e-10,4.842037153e-11,1.320458263e-10,1.472567286e-11,6.659990274e-12,3.665122683e-12,5.342544303e-10,6.474502762e-10,6.599207908e-12,1.449207366e-10,3.586489851e-10
0.26562,2.248007261e-10,5.451512120e-10,4.144224330e-11,4.035852771e-11,5.071455485e-11,6.464491102e-11,1.793976596e-11,8.821417698e-11,6.946519431e-11,3.748096837e-10,1.831815658e-11,4.742665700e-11,3.492536228e-11,2.081467675e-10,2.647528674e-12,4.527448479e-12,1.208492187e-11,8.075068230e-12,1.606373575e-10,1.075874537e-10,1.907631910e-11,8.763053701e-10,4.464301526e-11,1.217170625e-10,1.366692398e-11,6.188255567e-12,3.425220024e-12,4.900926510e-10,5.928142944e-10,6.081051025e-12,1.331780174e-10,3.310789291e-10
0.27344,2.072142743e-10,5.002088840e-10,3.830521015e-11,3.707087590e-11,4.652400450e-11,5.943560060e-11,1.648991691e-11,8.109037797e-11,6.385083554e-11,3.446895543e-10,1.692126958e-11,4.346765569e-11,3.216791882e-11,1.915824275e-10,2.655701202e-12,4.378661918e-12,1.137345884e-11,7.448001948e-12,1.473128746e-10,9.918010771e-11,1.751171312e-11,8.049835384e-10,4.107191304e-11,1.119887465e-10,1.266327239e-11,5.749029500e-12,3.200452153e-12,4.486008354e-10,5.415736818e-10,5.592224593e-12,1.221116214e-10,3.049712851e-10
0.28125,1.906391627e-10,4.580061249e-10,3.534863521e-11,3.398014981e-11,4.258870596e-11,5.454287156e-11,1.513627494e-11,7.440460419e-11,5.859581801e-11,3.163356884e-10,1.561327450e-11,3.977196089e-11,2.959308555e-11,1.759971529e-10,2.665891574e-12,4.240538670e-12,1.071656823e-11,6.863420638e-12,1.348048517e-10,9.133717282e-11,1.604649064e-11,7.379587970e-10,3.771206959e-11,1.028475103e-10,1.171689203e-11,5.341558066e-12,2.992397131e-12,4.097878066e-10,4.937045934e-10,5.133199954e-12,1.117239207e-10,2.803782464e-10
0.28906,1.750541960e-10,4.185081124e-10,3.257279080e-11,3.108568840e-11,3.890712191e-11,4.996271631e-11,1.387439931e-11,6.815681301e-11,5.369844515e-11,2.897266574e-10,1.439082357e-11,3.633450993e-11,2.720000881e-11,1.613827718e-10,2.677445171e-12,4.112499027e-12,1.011086788e-11,6.320730967e-12,1.231037491e-10,8.403845841e-11,1.468122939e-11,6.751964016e-10,3.456360451e-11,9.428069770e-11,1.082668525e-11,4.963614878e-12,2.799930845e-12,3.736166373e-10,4.491519686e-10,4.702575838e-12,1.020055602e-10,2.572792391e-10
0.29688,1.604359858e-10,3.815995758e-10,2.996597355e-11,2.838435049e-11,3.547819870e-11,4.568599791e-11,1.269923442e-11,6.233552788e-11,4.914534661e-11,2.648081960e-10,1.324934351e-11,3.313900852e-11,2.497780333e-11,1.477105420e-10,2.690986935e-12,3.994198988e-12,9.553584795e-12,5.820265185e-12,1.121817842e-10,7.724604006e-11,1.340945505e-11,6.165093781e-10,3.161823075e-11,8.627473774e-11,9.989400959e-12,4.612324823e-12,2.620452131e-12,3.399344646e-10,4.077039981e-10,4.299011129e-12,9.293067107e-11,2.356081103e-10
0.30469,1.467638217e-10,3.472614916e-10,2.752419606e-11,2.587555512e-11,3.229082899e-11,4.170885034e-11,1.160908211e-11,5.693215262e-11,4.493003191e-11,2.415641357e-10,1.218742476e-11,3.018093881e-11,2.291579221e-11,1.349642694e-10,2.707981161e-12,3.886446112e-12,9.045519844e-12,5.361377007e-12,1.020304184e-10,7.094133927e-11,1.222740668e-11,5.618562556e-10,2.887351934e-11,7.880840295e-11,9.202861096e-12,4.287438256e-12,2.454154023e-12,3.087092973e-10,3.693127980e-10,3.923142500e-12,8.449678748e-11,2.153565885e-10
0.3125,1.340018737e-10,3.153996547e-10,2.524819721e-11,2.355126740e-11,2.933330595e-11,3.801733384e-11,1.059843868e-11,5.192046007e-11,4.103075880e-11,2.199337617e-10,1.120143043e-11,2.745050673e-11,2.100846604e-11,1.231012505e-10,2.728576862e-12,3.789467666e-12,8.584473424e-12,4.941610629e-12,9.261517856e-11,6.510962212e-11,1.113293863e-11,5.110869686e-10,2.632179372e-11,7.185767341e-11,8.466009441e-12,3.988229635e-12,2.301597065e-12,2.798403659e-10,3.338884965e-10,3.574556406e-12,7.667965782e-11,1.964822051e-10
0.32031,1.221325742e-10,2.858958387e-10,2.313115537e-11,2.139841305e-11,2.659513058e-11,3.459842830e-11,9.663537143e-12,4.728190266e-11,3.742649733e-11,1.998547060e-10,1.028731607e-11,2.493242080e-11,1.924590491e-11,1.120893925e-10,2.752389260e-12,3.703246332e-12,8.166693707e-12,4.559049719e-12,8.390463586e-11,5.970992189e-11,1.012009117e-11,4.640263010e-10,2.395515592e-11,6.539321513e-11,7.779021979e-12,3.711544193e-12,2.160492945e-12,2.531788179e-10,3.012353530e-10,3.251587073e-12,6.944641169e-11,1.789306415e-10
0.32812,1.111210228e-10,2.586594918e-10,2.116192277e-11,1.940786877e-11,2.406494366e-11,3.144045499e-11,8.804593110e-12,4.300650839e-11,3.410820019e-11,1.812563986e-10,9.441423709e-12,2.261945489e-11,1.762107393e-11,1.019005677e-10,2.779638916e-12,3.627521821e-12,7.789845345e-12,4.211454897e-12,7.587190626e-11,5.471743079e-11,9.185683653e-12,4.205415336e-10,2.176836965e-11,5.939007952e-11,7.140218969e-12,3.456223780e-12,2.029210182e-12,2.286607370e-10,2.712501283e-10,2.952756309e-12,6.277468083e-11,1.626506948e-10
0.33594,1.009088343e-10,2.335427254e-10,1.933509082e-11,1.757536972e-11,2.173536555e-11,2.852729011e-11,8.016892245e-12,3.906717088e-11,3.105677278e-11,1.640447595e-10,8.659459944e-12,2.049781072e-11,1.613131961e-11,9.247923967e-11,2.810240219e-12,3.561668554e-12,7.450615427e-12,3.895986145e-12,6.846913739e-11,5.011697937e-11,8.326424895e-12,3.803981006e-10,1.975121875e-11,5.383657835e-11,6.545733323e-12,3.221944119e-12,1.907725840e-12,2.061527395e-10,2.437672118e-10,2.676234133e-12,5.662969999e-11,1.475626608e-10
0.34375,9.146308309e-11,2.104672778e-10,1.764712581e-11,1.589815587e-11,1.959596061e-11,2.585002514e-11,7.294186663e-12,3.544779562e-11,2.826089325e-11,1.481813443e-10,7.939427585e-12,1.855591310e-11,1.476808375e-11,8.378901842e-11,2.844031065e-12,3.506222365e-12,7.147014640e-12,3.611050436e-12,6.167555228e-11,4.588372063e-11,7.536058148e-12,3.434644065e-10,1.789772128e-11,4.871676299e-11,5.992898389e-12,3.006935846e-12,1.795618742e-12,1.855418031e-10,2.186411119e-10,2.420250732e-12,5.099177030e-11,1.336227843e-10
0.35156,8.274047898e-11,1.893313525e-10,1.608763302e-11,1.436362273e-11,1.763171658e-11,2.339422152e-11,6.634852973e-12,3.213339921e-11,2.570874161e-11,1.335985337e-10,7.278001458e-12,1.678589905e-11,1.352062881e-11,7.578976867e-11,2.881329139e-12,3.462099457e-12,6.876535158e-12,3.354272003e-12,5.545924826e-11,4.200155964e-11,6.809602396e-12,3.095770161e-10,1.619780511e-11,4.400402341e-11,5.479202193e-12,2.809447012e-12,1.692843285e-12,1.667337758e-10,1.957653489e-10,2.184342594e-12,4.583360630e-11,1.207774714e-10
0.35938,7.469508004e-11,1.699564264e-10,1.464837921e-11,1.295665661e-11,1.583410489e-11,2.114119054e-11,6.036192404e-12,2.909526641e-11,2.337409162e-11,1.201912916e-10,6.670404407e-12,1.517226790e-11,1.237916002e-11,6.843074304e-11,2.921968356e-12,3.428362844e-12,6.634505134e-12,3.122857388e-12,4.976372055e-11,3.844646368e-11,6.143515624e-12,2.784612449e-10,1.463563557e-11,3.966936894e-11,5.002899698e-12,2.627321110e-12,1.598843259e-12,1.495613339e-10,1.749295479e-10,1.968398743e-12,4.110766193e-11,1.089449399e-10
0.36719,6.731047724e-11,1.522707126e-10,1.332499510e-11,1.167313421e-11,1.419769191e-11,1.908313551e-11,5.492823786e-12,2.632046371e-11,2.124347450e-11,1.079117977e-10,6.114251171e-12,1.370460984e-11,1.133663075e-11,6.169156842e-11,2.965498416e-12,3.403719641e-12,6.418931514e-12,2.916069335e-12,4.457134016e-11,3.519116809e-11,5.535881693e-12,2.500082821e-10,1.320675506e-11,3.568842790e-11,4.563581790e-12,2.459196803e-12,1.512208297e-12,1.339405078e-10,1.560166218e-10,1.770816193e-12,3.679599399e-11,9.808369094e-11
0.375,6.054857099e-11,1.361903628e-10,1.210913283e-11,1.050755341e-11,1.271132517e-11,1.720792982e-11,5.001577172e-12,2.379619878e-11,1.930593556e-11,9.669762144e-11,5.605711156e-12,1.237299422e-11,1.039180120e-11,5.553927543e-11,3.012178727e-12,3.388606878e-12,6.228135677e-12,2.732646655e-12,3.985753946e-11,3.221981121e-11,4.983681997e-12,2.240879162e-10,1.190682857e-11,3.204670345e-11,4.158685607e-12,2.305088405e-12,1.432735260e-12,1.197898337e-10,1.389358375e-10,1.589865619e-12,3.288035417e-11,8.814074236e-11
0.38281,5.435863897e-11,1.215663229e-10,1.099620654e-11,9.449599274e-12,1.136175822e-11,1.549960947e-11,4.559800429e-12,2.149768788e-11,1.754221344e-11,8.646986931e-11,5.139586956e-12,1.116265558e-11,9.539598638e-12,4.992346736e-11,3.061878394e-12,3.383213915e-12,6.058379384e-12,2.569830485e-12,3.557464502e-11,2.950542198e-11,4.480879562e-12,2.004708424e-10,1.072505638e-11,2.872711604e-11,3.785262767e-12,2.163827544e-12,1.359923464e-12,1.069527955e-10,1.234846967e-10,1.425378299e-12,2.932346049e-11,7.904841047e-11
0.39062,4.871143069e-11,1.083118901e-10,9.983686228e-12,8.491978870e-12,1.013890436e-11,1.394842813e-11,4.162824878e-12,1.940823779e-11,1.594025251e-11,7.717785063e-11,4.712946895e-12,1.006580396e-11,8.768748123e-12,4.481022563e-11,3.113180470e-12,3.386291428e-12,5.907676089e-12,2.425430794e-12,3.169671649e-11,2.702596896e-11,4.023248933e-12,1.790186894e-10,9.653450043e-12,2.570667083e-11,3.442148136e-12,2.034447162e-12,1.292255298e-12,9.534000028e-11,1.095493598e-10,1.276429944e-12,2.610303682e-11,7.076379074e-11
0.39844,4.357326466e-11,9.633008685e-11,9.061886736e-12,7.625970248e-12,9.034890644e-12,1.254258112e-11,3.807082384e-12,1.751254475e-11,1.448677592e-11,6.875190475e-11,4.324050928e-12,9.074674696e-12,8.070465092e-12,4.016233884e-11,3.165115247e-12,3.397061557e-12,5.774198638e-12,2.297315864e-12,2.819290051e-11,2.477543708e-11,3.608315567e-12,1.595765528e-10,8.683119806e-12,2.296728886e-11,3.127412165e-12,1.917123895e-12,1.229828450e-12,8.486914629e-11,9.704232402e-11,1.140979412e-12,2.319492203e-11,6.323265685e-11
0.40625,3.891132096e-11,8.551557428e-11,8.222809780e-12,6.843420784e-12,8.041047583e-12,1.127145899e-11,3.490609301e-12,1.579456389e-11,1.316745533e-11,6.113054640e-11,3.970928320e-12,8.178557614e-12,7.438159735e-12,3.594676600e-11,3.218030662e-12,3.415007555e-12,5.655007293e-12,2.183752279e-12,2.503096824e-11,2.273379781e-11,3.232844838e-12,1.419873095e-10,7.806893973e-12,2.048413236e-11,2.839249709e-12,1.810181698e-12,1.173101868e-12,7.543297963e-11,8.580749950e-11,1.018773789e-12,2.057136394e-11,5.640379079e-11
0.41406,3.469733093e-11,7.579103896e-11,7.462446774e-12,6.139741303e-12,7.147847622e-12,1.012602052e-11,3.210905406e-12,1.424039127e-11,1.197214610e-11,5.426288857e-11,3.649550191e-12,7.368959350e-12,6.867189113e-12,3.213883335e-11,3.271958307e-12,3.438927202e-12,5.548661142e-12,2.084443811e-12,2.219330745e-11,2.087745814e-11,2.893717428e-12,1.261320752e-10,7.018752056e-12,1.822941799e-11,2.577074567e-12,1.710900195e-12,1.120791064e-12,6.695178517e-11,7.573658901e-11,9.100089110e-13,1.821313200e-11,5.022860123e-11
0.42188,3.089154774e-11,6.705228570e-11,6.774151699e-12,5.508983574e-12,6.347184330e-12,9.094017416e-12,2.965189980e-12,1.283412168e-11,1.088836891e-11,4.807616769e-11,3.355728919e-12,6.636770563e-12,6.354827184e-12,2.870416078e-11,3.326129390e-12,3.467977374e-12,5.453561073e-12,1.998458930e-12,1.965150558e-11,1.919319451e-11,2.587535513e-12,1.118437462e-10,6.308263848e-12,1.619345027e-11,2.339295417e-12,1.618255239e-12,1.072017824e-12,5.933067409e-11,6.673587963e-11,8.130220909e-13,1.609634920e-11,4.464267860e-11
0.42969,2.745943586e-11,5.922096742e-11,6.152204771e-12,4.944831799e-12,5.632172692e-12,8.167297520e-12,2.750215601e-12,1.156676546e-11,9.908846571e-12,4.251913177e-11,3.088815806e-12,5.976609167e-12,5.894303600e-12,2.561357429e-11,3.379959610e-12,3.501464669e-12,5.367351099e-12,1.923344956e-12,1.737857995e-11,1.766330862e-11,2.311587250e-12,9.900302032e-11,5.669541027e-12,1.436738825e-11,2.123369224e-12,1.532228235e-12,1.027162100e-12,5.250086469e-11,5.870935561e-11,7.261700753e-13,1.420257414e-11,3.960522453e-11
0.4375,2.437197694e-11,5.222991709e-11,5.592099820e-12,4.440890501e-12,4.995212242e-12,7.337946874e-12,2.562420385e-12,1.042992460e-11,9.027487115e-12,3.754495505e-11,2.847572238e-12,5.384268866e-12,5.476829065e-12,2.283813808e-11,3.432973278e-12,3.538735612e-12,5.289466314e-12,1.857299681e-12,1.535190601e-11,1.627297453e-11,2.063896472e-12,8.750446913e-11,5.098872788e-12,1.272945085e-11,1.927084300e-12,1.452488128e-12,9.860645418e-13,4.640802741e-11,5.157222357e-11,6.486009353e-13,1.251422795e-11,3.507837852e-11
0.44531,2.159620260e-11,4.597699975e-11,5.087737551e-12,3.990079031e-12,4.427982929e-12,6.594560922e-12,2.399220209e-12,9.407918339e-12,8.230857529e-12,3.308880675e-11,2.628218713e-12,4.850881109e-12,5.097354504e-12,2.034244600e-11,3.484562023e-12,3.579765150e-12,5.219364902e-12,1.799560052e-12,1.354091088e-11,1.501321045e-11,1.841157389e-12,7.718441578e-11,4.588008490e-12,1.126059949e-11,1.748643147e-12,1.378410940e-12,9.480728853e-13,4.095595937e-11,4.521441191e-11,5.794107016e-13,1.100445929e-11,3.100836100e-11
0.45312,1.910764807e-11,4.040056412e-11,4.634196055e-12,3.587850675e-12,3.923232471e-12,5.930282785e-12,2.258136631e-12,8.490266581e-12,7.510328744e-12,2.910974711e-11,2.428671204e-12,4.370899879e-12,4.752628848e-12,1.810499856e-11,3.534230354e-12,3.623589734e-12,5.154681518e-12,1.748969894e-12,1.192777172e-11,1.387136706e-11,1.640804896e-12,6.795168422e-11,4.132077632e-12,9.945236948e-12,1.586824848e-12,1.309532002e-12,9.129294789e-13,3.608734859e-11,3.956714510e-11,5.181907614e-13,9.658716680e-12,2.736386355e-11
0.46094,1.688586140e-11,3.545632176e-11,4.227539947e-12,3.230795009e-12,3.475351325e-12,5.339166156e-12,2.136662937e-12,7.669664540e-12,6.861201415e-12,2.557221338e-11,2.247780465e-12,3.940911809e-12,4.439123982e-12,1.610693784e-11,3.581408222e-12,3.668459036e-12,5.093796425e-12,1.704090103e-12,1.050096444e-11,1.283881232e-11,1.461668617e-12,5.974033480e-11,3.727424001e-12,8.768180338e-12,1.440874504e-12,1.245532993e-12,8.804691486e-13,3.176927980e-11,3.458591871e-11,4.644437797e-13,8.467591869e-12,2.411364934e-11
0.46875,1.490462240e-11,3.106772205e-11,3.863265546e-12,2.914398831e-12,3.078694469e-12,4.812416501e-12,2.033347639e-12,6.935442392e-12,6.274841471e-12,2.242762071e-11,2.083685117e-12,3.553870680e-12,4.153537222e-12,1.432145385e-11,3.625418609e-12,3.713649620e-12,5.036182789e-12,1.663516309e-12,9.238497135e-12,1.190784934e-11,1.301402962e-12,5.242770434e-11,3.367305949e-12,7.718877372e-12,1.309676368e-12,1.185636554e-12,8.505431496e-13,2.792935356e-11,3.018071335e-11,4.169157816e-13,7.412056904e-12,2.121077374e-11
0.47656,1.313634977e-11,2.717443142e-11,3.536851044e-12,2.633612917e-12,2.727333205e-12,4.343002245e-12,1.946450295e-12,6.278565300e-12,5.744956775e-12,1.963764960e-11,1.935081207e-12,3.204854547e-12,3.892046475e-12,1.272668246e-11,3.665578890e-12,3.758366117e-12,4.980406727e-12,1.625536333e-12,8.121202516e-12,1.106536954e-11,1.157739859e-12,4.592090090e-11,3.047352508e-12,6.786757673e-12,1.191195785e-12,1.128635972e-12,8.230142045e-13,2.451574999e-11,2.628292877e-11,3.747926918e-13,6.477056826e-12,1.862108029e-11
0.48438,1.155815065e-11,2.373252179e-11,3.244069991e-12,2.384251628e-12,2.416525099e-12,3.925379201e-12,1.873631508e-12,5.691447749e-12,5.267479177e-12,1.716913958e-11,1.800285872e-12,2.891330915e-12,3.651050377e-12,1.130411548e-11,3.701330194e-12,3.801654378e-12,4.925257939e-12,1.589308924e-12,7.135330563e-12,1.030352247e-11,1.029430588e-12,4.015026676e-11,2.764314740e-12,5.960908460e-12,1.083639177e-12,1.073898838e-12,7.975115991e-13,2.149800634e-11,2.285601705e-11,3.377061938e-13,5.651577752e-12,1.631761170e-11
0.49219,1.015617752e-11,2.069658826e-11,2.982365434e-12,2.164101718e-12,2.142054356e-12,3.555094358e-12,1.813229055e-12,5.168105645e-12,4.836913507e-12,1.499204313e-11,1.677639339e-12,2.609332841e-12,3.429619653e-12,1.003812547e-11,3.732806259e-12,3.843700247e-12,4.870524250e-12,1.555352863e-12,6.267832389e-12,9.616101126e-12,9.148868286e-13,3.504132412e-11,2.514542764e-12,5.230528415e-12,9.865628688e-13,1.021663985e-12,7.739880909e-13,1.882890949e-11,1.984749022e-11,3.051461482e-13,4.924059559e-12,1.427565739e-11
0.5,8.915302812e-12,1.802314599e-11,2.749641359e-12,1.969772123e-12,1.899529450e-12,3.227246509e-12,1.763231632e-12,4.703143091e-12,4.448964074e-12,1.307790508e-11,1.566943443e-12,2.355717081e-12,3.227798889e-12,8.914247959e-12,3.760258163e-12,3.884274261e-12,4.815645410e-12,1.523653441e-12,5.505911487e-12,8.992819708e-12,8.129137077e-13,3.053015033e-11,2.294992426e-12,4.582318657e-12,8.993708636e-13,9.719660294e-13,7.526784530e-13,1.646884988e-11,1.720608885e-11,2.770281145e-13,4.283967390e-12,1.247122550e-11
0.50781,7.813819508e-12,1.566612200e-11,2.542093206e-12,1.797018251e-12,1.685394857e-12,2.935329839e-12,1.721595136e-12,4.288591609e-12,4.099611360e-12,1.139290061e-11,1.467471470e-12,2.128180234e-12,3.042916943e-12,7.914891021e-12,3.783132472e-12,3.922295472e-12,4.760278703e-12,1.493485250e-12,4.836321407e-12,8.428406323e-12,7.227439041e-13,2.654489250e-11,2.101252358e-12,4.007277374e-12,8.208759486e-13,9.244485688e-13,7.333995614e-13,1.438556533e-11,1.488977339e-11,2.532304891e-13,3.720174996e-12,1.087351203e-11
0.51562,6.837689377e-12,1.359548316e-11,2.356662010e-12,1.644797722e-12,1.496393560e-12,2.676488972e-12,1.688533217e-12,3.919540485e-12,3.784204906e-12,9.913444571e-12,1.377747129e-12,1.923808401e-12,2.871416532e-12,7.029523161e-12,3.801142440e-12,3.957327702e-12,4.704424496e-12,1.464428905e-12,4.251102216e-12,7.917737057e-12,6.432208914e-13,2.303328438e-11,1.930149961e-12,3.499775877e-12,7.506773353e-13,8.790484149e-13,7.161068073e-13,1.255026348e-11,1.286529336e-11,2.328868601e-13,3.225436324e-12,9.462829540e-12
0.52344,5.977033305e-12,1.178646478e-11,2.191712711e-12,1.511941861e-12,1.329331067e-12,2.449502381e-12,1.664348398e-12,3.593921653e-12,3.499742072e-12,8.621241493e-12,1.297068637e-12,1.740285897e-12,2.711131662e-12,6.248860997e-12,3.814500087e-12,3.989116143e-12,4.647831215e-12,1.435873768e-12,3.742165461e-12,7.451618715e-12,5.734859180e-13,1.995636171e-11,1.780512879e-12,3.050673036e-12,6.879185624e-13,8.354341423e-13,7.009939979e-13,1.094132671e-11,1.110200412e-11,2.152385951e-13,2.793028876e-12,8.225732032e-12
0.53125,5.217534652e-12,1.020013340e-11,2.044885128e-12,1.395457970e-12,1.182512388e-12,2.249692148e-12,1.646357135e-12,3.306080743e-12,3.243536366e-12,7.490811352e-12,1.224165889e-12,1.575267451e-12,2.560069038e-12,5.556455855e-12,3.822846891e-12,4.017551679e-12,4.591299226e-12,1.407558890e-12,3.296475175e-12,7.026267571e-12,5.125842017e-13,1.724935461e-11,1.649790000e-12,2.653416882e-12,6.309747935e-13,7.931325379e-13,6.876889420e-13,9.526075892e-12,9.560282911e-12,2.002210243e-13,2.413651501e-12,7.137371481e-12
0.53906,4.549344061e-12,8.811644332e-12,1.913834399e-12,1.294194048e-12,1.054636683e-12,2.073474274e-12,1.631879605e-12,3.051032093e-12,3.012435335e-12,6.504927799e-12,1.157385696e-12,1.426382413e-12,2.417449716e-12,4.942319501e-12,3.826432112e-12,4.043262683e-12,4.535788154e-12,1.380251877e-12,2.907770014e-12,6.639688142e-12,4.592411063e-13,1.487007008e-11,1.535752620e-12,2.304958476e-12,5.797807489e-13,7.525629615e-13,6.758086942e-13,8.278573404e-12,8.217237806e-12,1.879139535e-13,2.083517857e-12,6.180334262e-12
0.54688,3.903193057e-12,7.326966134e-12,1.780426967e-12,1.181822939e-12,9.467379206e-13,1.891219503e-12,1.614424259e-12,2.820070523e-12,2.816961922e-12,5.671032786e-12,1.088008554e-12,1.319826946e-12,2.274984361e-12,4.264674604e-12,3.833297897e-12,4.071038994e-12,4.450640327e-12,1.343824011e-12,2.514269747e-12,6.251046146e-12,4.186294862e-13,1.261739631e-11,1.437380171e-12,1.998785139e-12,5.299366855e-13,7.025871485e-13,6.644678143e-13,7.177613018e-12,6.874988626e-12,1.779345504e-13,1.665969592e-12,5.309114110e-12
0.55469,3.412303073e-12,6.281973252e-12,1.680432108e-12,1.110810055e-12,8.638790281e-13,1.757605718e-12,1.615905081e-12,2.628668889e-12,2.641824446e-12,4.936768956e-12,1.031579878e-12,1.214597032e-12,2.129136938e-12,3.792803343e-12,3.830285011e-12,4.088326116e-12,4.397027581e-12,1.322847219e-12,2.229886205e-12,5.914198535e-12,3.794740495e-13,1.082415983e-11,1.357243637e-12,1.734843907e-12,4.908995038e-13,6.621536891e-13,6.554607187e-13,6.265496392e-12,5.878328159e-12,1.733315732e-13,1.416204256e-12,4.586395299e-12
0.5625,3.024639015e-12,5.483122715e-12,1.606334291e-12,1.058217724e-12,7.884752560e-13,1.657463384e-12,1.626053374e-12,2.452957289e-12,2.458670107e-12,4.256007250e-12,9.859311580e-13,1.090108931e-12,1.999783080e-12,3.453611079e-12,3.819140910e-12,4.101624539e-12,4.357681903e-12,1.310105953e-12,2.006137081e-12,5.630298512e-12,3.439752199e-13,9.317753434e-12,1.267482636e-12,1.499630679e-12,4.649154526e-13,6.305681330e-13,6.493006166e-13,5.413444748e-12,5.057454843e-12,1.701809771e-13,1.253395024e-12,3.976155051e-12
0.57031,2.659262312e-12,4.739473875e-12,1.531690438e-12,1.009462534e-12,7.163537376e-13,1.560824060e-12,1.630920500e-12,2.300390724e-12,2.303944737e-12,3.689932196e-12,9.435132143e-13,9.896555812e-13,1.871731302e-12,3.113042461e-12,3.806615530e-12,4.116083471e-12,4.310094031e-12,1.290642736e-12,1.802431265e-12,5.370784191e-12,3.143199331e-13,7.985922403e-12,1.195984203e-12,1.289741368e-12,4.387054106e-13,6.001551155e-13,6.456490597e-13,4.688952295e-12,4.337800996e-12,1.669848606e-13,1.089526597e-12,3.443555545e-12
0.57812,2.324307288e-12,4.073387680e-12,1.459631217e-12,9.685441596e-13,6.491842787e-13,1.470783031e-12,1.633354018e-12,2.167362676e-12,2.170364850e-12,3.213652584e-12,9.036260233e-13,9.055971879e-13,1.743908759e-12,2.790032355e-12,3.791527926e-12,4.129698847e-12,4.259853058e-12,1.267094866e-12,1.622885919e-12,5.136344072e-12,2.880527923e-13,6.811858039e-12,1.140090115e-12,1.104780888e-12,4.132273639e-13,5.724774121e-13,6.442339440e-13,4.065633886e-12,3.721162861e-12,1.640422797e-13,9.434560048e-13,2.977731768e-12
0.58594,2.029482654e-12,3.495739523e-12,1.395568112e-12,9.332589497e-13,5.854111418e-13,1.393915493e-12,1.634815283e-12,2.050509111e-12,2.044300590e-12,2.801524237e-12,8.689850839e-13,8.231839132e-13,1.632421040e-12,2.502924226e-12,3.773185411e-12,4.142511260e-12,4.209590320e-12,1.243459204e-12,1.469062837e-12,4.930893692e-12,2.684463721e-13,5.807062294e-12,1.079820428e-12,9.429916805e-13,3.927957871e-13,5.477642890e-13,6.441280767e-13,3.514653677e-12,3.189397565e-12,1.613196242e-13,8.116394361e-13,2.585994101e-12
0.59375,1.755724586e-12,2.984002293e-12,1.331388163e-12,9.046572029e-13,5.256393993e-13,1.322966140e-12,1.632107208e-12,1.949960049e-12,1.934080797e-12,2.459794765e-12,8.372388328e-13,7.509518476e-13,1.532435842e-12,2.233890422e-12,3.752859690e-12,4.155298194e-12,4.159615862e-12,1.218134772e-12,1.335404333e-12,4.746114250e-12,2.533525946e-13,4.930249594e-12,1.029941510e-12,8.027019288e-13,3.715057067e-13,5.255184659e-13,6.457664161e-13,3.038926631e-12,2.734155354e-12,1.591740626e-13,6.950888369e-13,2.246431974e-12
0.60156,1.503303287e-12,2.544699522e-12,1.268783082e-12,8.841505266e-13,4.708346811e-13,1.258465981e-12,1.626002654e-12,1.861645090e-12,1.835542099e-12,2.176419163e-12,8.072586627e-13,6.853364798e-13,1.443145845e-12,1.991696225e-12,3.730676723e-12,4.168360954e-12,4.112562892e-12,1.191963760e-12,1.222936417e-12,4.580611510e-12,2.411013140e-13,4.167412141e-12,9.922810819e-13,6.827207272e-13,3.491065887e-13,5.064304449e-13,6.488999754e-13,2.623092124e-12,2.355674303e-12,1.578589909e-13,6.043764003e-13,1.949776629e-12
0.60938,1.253186283e-12,2.026418570e-12,1.194506629e-12,8.247750405e-13,4.245450360e-13,1.165392683e-12,1.614984788e-12,1.746738435e-12,1.755048808e-12,1.890904344e-12,7.941374821e-13,6.405397195e-13,1.335889189e-12,1.710359867e-12,3.710795519e-12,4.183876142e-12,4.059122345e-12,1.155455184e-12,1.051463019e-12,4.380578159e-12,2.481985246e-13,3.403069864e-12,9.716994537e-13,5.814702849e-13,3.223408548e-13,4.803846080e-13,6.491883919e-13,2.261614799e-12,1.814151218e-12,1.578214237e-13,4.806182955e-13,1.692061986e-12
0.61719,1.052249633e-12,1.699789347e-12,1.141015748e-12,8.143311029e-13,3.903494030e-13,1.117538681e-12,1.598485594e-12,1.684488108e-12,1.684803140e-12,1.714053001e-12,7.691302045e-13,5.957435769e-13,1.246900326e-12,1.514320810e-12,3.689683644e-12,4.199943719e-12,4.018960420e-12,1.130828956e-12,9.688393226e-13,4.232022029e-12,2.521693956e-13,2.856511086e-12,9.428071633e-13,4.932765546e-13,3.015416796e-13,4.602609801e-13,6.473086199e-13,1.981763885e-12,1.505412583e-12,1.605038685e-13,4.108901645e-13,1.486413706e-12
0.625,8.741756059e-13,1.442709001e-12,1.089971788e-12,8.288569820e-13,3.609932538e-13,1.084732809e-12,1.573253634e-12,1.635854729e-12,1.601366785e-12,1.621880130e-12,7.318717135e-13,5.418978773e-13,1.184986716e-12,1.356918184e-12,3.669985484e-12,4.219226849e-12,3.974689618e-12,1.107478703e-12,9.385367228e-13,4.119100309e-12,2.497201857e-13,2.412231879e-12,9.213861641e-13,4.224563321e-13,2.819162055e-13,4.458644510e-13,6.468321910e-13,1.700416916e-12,1.323355129e-12,1.656252046e-13,3.731114348e-13,1.309183031e-12
0.63281,7.169053207e-13,1.220382566e-12,1.038645706e-12,8.408002288e-13,3.367813001e-13,1.052439163e-12,1.547943556e-12,1.594357101e-12,1.536598937e-12,1.540310809e-12,7.031964853e-13,4.994552843e-13,1.127464016e-12,1.216673947e-12,3.651598144e-12,4.239154124e-12,3.938765250e-12,1.082645954e-12,9.044465347e-13,4.027509388e-12,2.528027493e-13,2.028935640e-12,9.032512131e-13,3.681476585e-13,2.613236890e-13,4.319957631e-13,6.469880039e-13,1.470536332e-12,1.146235830e-12,1.729580000e-13,3.427594470e-13,1.162139330e-12
0.64062,5.851418943e-13,1.039340505e-12,9.909527099e-13,8.555285301e-13,3.176075127e-13,1.025733574e-12,1.522396085e-12,1.563245181e-12,1.486591858e-12,1.466981017e-12,6.801346859e-13,4.651378220e-13,1.071189546e-12,1.102281666e-12,3.635460767e-12,4.260551588e-12,3.912814135e-12,1.058775837e-12,8.739458914e-13,3.963996732e-12,2.586717858e-13,1.698675542e-12,8.856697470e-13,3.271511290e-13,2.423614144e-13,4.197249475e-13,6.476756355e-13,1.277344180e-12,9.868640458e-13,1.827328856e-13,3.239561896e-13,1.040221254e-12
0.64844,4.767061078e-13,8.784058126e-13,9.437586533e-13,8.690181486e-13,3.029606317e-13,9.979150724e-13,1.495851357e-12,1.527338943e-12,1.430648259e-12,1.429379252e-12,6.569427176e-13,4.319639683e-13,1.022471375e-12,1.003876641e-12,3.623688435e-12,4.285528493e-12,3.881531605e-12,1.034050269e-12,8.563087895e-13,3.907983735e-12,2.660772246e-13,1.439415050e-12,8.755651431e-13,2.974299267e-13,2.270443557e-13,4.094067697e-13,6.500719518e-13,1.104013866e-12,8.618302385e-13,1.943554728e-13,3.130083419e-13,9.539736691e-13
0.65625,3.932510325e-13,7.475843637e-13,9.008780592e-13,8.835964161e-13,2.928936039e-13,9.740977193e-13,1.474509979e-12,1.496953827e-12,1.382270854e-12,1.393438722e-12,6.384215315e-13,4.041552290e-13,9.757560369e-13,9.270665368e-13,3.614406024e-12,4.311348742e-12,3.855670660e-12,1.011545275e-12,8.422118267e-13,3.860966571e-12,2.752108703e-13,1.227914923e-12,8.651634441e-13,2.751385685e-13,2.148907640e-13,4.014844973e-13,6.540470069e-13,9.578519840e-13,7.574959849e-13,2.073326127e-13,3.100304367e-13,8.917462965e-13
0.66406,3.345180963e-13,6.539838291e-13,8.645218533e-13,9.037477803e-13,2.847534310e-13,9.590237082e-13,1.458321747e-12,1.478003102e-12,1.343201145e-12,1.348422360e-12,6.243926828e-13,3.794322657e-13,9.307745103e-13,8.762017614e-13,3.607351574e-12,4.337919092e-12,3.840049114e-12,9.927372139e-13,8.333476002e-13,3.831242083e-12,2.832690041e-13,1.052156859e-12,8.501040036e-13,2.575247101e-13,2.067160451e-13,3.973851494e-13,6.598866451e-13,8.304698124e-13,6.843112971e-13,2.209699418e-13,3.180696479e-13,8.453354813e-13
0.67188,2.919101287e-13,5.633235760e-13,8.302519192e-13,9.194242021e-13,2.780720034e-13,9.424531215e-13,1.445488085e-12,1.456826113e-12,1.305622995e-12,1.308533958e-12,6.141397394e-13,3.589174455e-13,8.875704779e-13,8.271713197e-13,3.605091385e-12,4.367140140e-12,3.824565712e-12,9.744605950e-13,8.220322992e-13,3.798513420e-12,2.930471111e-13,9.150948056e-13,8.348452559e-13,2.431982726e-13,2.027255224e-13,3.953510116e-13,6.680321844e-13,7.240381491e-13,6.196814335e-13,2.339398859e-13,3.214355884e-13,8.257489344e-13
0.67969,2.600631609e-13,5.317061404e-13,8.223340520e-13,9.867474676e-13,2.706971574e-13,9.752037864e-13,1.444088328e-12,1.498667477e-12,1.294347642e-12,1.211671789e-12,6.012925859e-13,3.302075386e-13,8.555980549e-13,8.434472682e-13,3.599250023e-12,4.391937593e-12,3.860411755e-12,9.766935966e-13,8.676703266e-13,3.895870172e-12,2.782209392e-13,5.933217810e-13,7.766861041e-13,2.283960695e-13,2.044708007e-13,4.123534347e-13,6.806756224e-13,4.975712750e-13,6.232482553e-13,2.454748101e-13,3.467902682e-13,6.795975407e-13
0.6875,2.432314544e-13,4.941235312e-13,7.955408492e-13,1.014727417e-12,2.573745358e-13,9.712554813e-13,1.440492142e-12,1.497472599e-12,1.266430084e-12,1.164988817e-12,5.962018714e-13,3.114042632e-13,8.348423025e-13,8.187262923e-13,3.605735024e-12,4.427138628e-12,3.860857235e-12,9.616039740e-13,8.736626846e-13,3.946128565e-12,2.796942581e-13,5.086107735e-13,7.514622368e-13,2.232957361e-13,2.068935181e-13,4.265025904e-13,6.979027676e-13,4.032295102e-13,6.661071926e-13,2.538099622e-13,3.630312733e-13,6.891088538e-13
0.69531,2.291347104e-13,3.978550442e-13,7.640109571e-13,1.011464843e-12,2.509514487e-13,9.500828542e-13,1.445851597e-12,1.480075220e-12,1.247087572e-12,1.083048541e-12,6.027764042e-13,3.043389013e-13,8.083638795e-13,7.653560853e-13,3.619512894e-12,4.461946888e-12,3.854134233e-12,9.415259889e-13,8.150410777e-13,3.908278331e-12,2.976098498e-13,4.839419137e-13,7.385016112e-13,2.167898208e-13,2.081407091e-13,4.329082306e-13,7.151873873e-13,3.832786087e-13,6.123379517e-13,2.590974023e-13,3.501904043e-13,7.600211769e-13
0.70312,2.186750576e-13,3.387148280e-13,7.448849390e-13,1.024977274e-12,2.525284062e-13,9.465318738e-13,1.458271835e-12,1.478407434e-12,1.231799828e-12,1.002023083e-12,6.067587006e-13,2.976433236e-13,7.882709698e-13,7.354493235e-13,3.636299866e-12,4.492961944e-12,3.860820569e-12,9.313825298e-13,7.835116816e-13,3.858976503e-12,3.127994394e-13,4.443552107e-13,7.152941368e-13,2.039690381e-13,2.117078949e-13,4.425206715e-13,7.319436106e-13,3.508102268e-13,5.983425176e-13,2.623990836e-13,3.474592067e-13,8.006875929e-13
0.71094,2.073096993e-13,2.970491352e-13,7.325379495e-13,1.048899686e-12,2.617449686e-13,9.525014287e-13,1.474940425e-12,1.480327916e-12,1.209520003e-12,9.308555126e-13,6.071726968e-13,2.885426004e-13,7.802955062e-13,7.167203209e-13,3.656343802e-12,4.520977775e-12,3.870462107e-12,9.271403675e-13,7.725787120e-13,3.792694510e-12,3.268063930e-13,4.016664563e-13,6.872036722e-13,1.870135957e-13,2.164349365e-13,4.544998096e-13,7.492839043e-13,3.047953788e-13,6.205133738e-13,2.635328621e-13,3.500695591e-13,8.235049597e-13
0.71875,1.940661578e-13,2.570701682e-13,7.258306262e-13,1.076207416e-12,2.803220780e-13,9.698605816e-13,1.496521924e-12,1.501035826e-12,1.205115542e-12,8.324873423e-13,6.118230801e-13,2.854655073e-13,7.705189304e-13,7.122671798e-13,3.676202489e-12,4.543666493e-12,3.892021657e-12,9.277586158e-13,7.462428201e-13,3.695969611e-12,3.446674259e-13,3.510801727e-13,6.568053798e-13,1.672352230e-13,2.191549244e-13,4.651373893e-13,7.652897842e-13,2.857716139e-13,6.144402352e-13,2.634523395e-13,3.509510081e-13,8.322406231e-13
0.72656,1.787461983e-13,2.361826578e-13,7.234796755e-13,1.112438560e-12,3.071580833e-13,9.958970910e-13,1.515416778e-12,1.529904586e-12,1.204260528e-12,7.459524282e-13,6.135688849e-13,2.842418128e-13,7.622707937e-13,7.224867708e-13,3.698022532e-12,4.564560530e-12,3.918435313e-12,9.331192156e-13,7.315456714e-13,3.581163401e-12,3.637526318e-13,3.003531511e-13,6.258227643e-13,1.453149391e-13,2.211811564e-13,4.762056841e-13,7.790541651e-13,2.691669158e-13,6.147931102e-13,2.634687950e-13,3.608280122e-13,8.260845882e-13
0.73438,1.585806465e-13,2.177066621e-13,7.211153833e-13,1.151563665e-12,3.429113863e-13,1.021069849e-12,1.528514396e-12,1.549795098e-12,1.193847375e-12,6.922915357e-13,6.094915664e-13,2.844969519e-13,7.582853020e-13,7.330756862e-13,3.725607846e-12,4.586085275e-12,3.939352845e-12,9.400764498e-13,7.315127902e-13,3.444070945e-12,3.870647859e-13,2.590180178e-13,5.978294021e-13,1.230578890e-13,2.226999110e-13,4.865225886e-13,7.906847016e-13,2.490682180e-13,6.199706637e-13,2.639725947e-13,3.736883944e-13,8.167378925e-13
0.74219,1.373745029e-13,2.137178209e-13,7.225259907e-13,1.198596067e-12,3.861913772e-13,1.057393322e-12,1.538056030e-12,1.582778908e-12,1.192351534e-12,6.420454515e-13,6.037618475e-13,2.878184960e-13,7.508252477e-13,7.651724179e-13,3.755666439e-12,4.605236100e-12,3.968489927e-12,9.502104100e-13,7.373051110e-13,3.305263606e-12,4.124534955e-13,2.091288253e-13,5.688934085e-13,1.015168168e-13,2.228300138e-13,4.966993980e-13,7.989446197e-13,2.356637011e-13,6.188533260e-13,2.661324719e-13,3.944645523e-13,7.870671511e-13
0.75,1.171514646e-13,2.276133183e-13,7.248371178e-13,1.250716267e-12,4.323962932e-13,1.099542461e-12,1.539257282e-12,1.619930451e-12,1.190970996e-12,6.123231755e-13,5.954818055e-13,2.910541580e-13,7.405558349e-13,8.141801820e-13,3.788518379e-12,4.624291755e-12,3.998646252e-12,9.608209654e-13,7.546685645e-13,3.173110594e-12,4.377937728e-13,1.643900812e-13,5.418221839e-13,8.172639218e-14,2.231168156e-13,5.072592915e-13,8.035485453e-13,2.216575494e-13,6.236640243e-13,2.708927365e-13,4.260442099e-13,7.466316738e-13
0.75781,9.617798146e-14,2.372584724e-13,7.225902897e-13,1.298217423e-12,4.807895776e-13,1.133729479e-12,1.530109096e-12,1.642980365e-12,1.180173124e-12,6.151971147e-13,5.846924907e-13,2.970006467e-13,7.268479235e-13,8.580530719e-13,3.825466238e-12,4.645059272e-12,4.018060693e-12,9.682417449e-13,7.752627602e-13,3.034111808e-12,4.665238293e-13,1.380036493e-13,5.218494508e-13,6.485876296e-14,2.239847364e-13,5.162009422e-13,8.052151517e-13,2.126005133e-13,6.185540905e-13,2.780359053e-13,4.590018512e-13,7.167713006e-13
0.76562,6.933566349e-14,2.111885231e-13,6.880680872e-13,1.316201694e-12,5.308235720e-13,1.111370620e-12,1.506574409e-12,1.576351262e-12,1.084773897e-12,6.505221027e-13,5.580997754e-13,2.615977586e-13,7.275581158e-13,8.569684952e-13,3.870868708e-12,4.672647800e-12,3.984735489e-12,9.626861348e-13,7.417341716e-13,2.792668626e-12,5.056407489e-13,2.021171844e-13,5.265716347e-13,5.206902534e-14,2.192774085e-13,5.224931721e-13,8.058183744e-13,1.704579793e-13,6.288147890e-13,2.876047111e-13,5.228776673e-13,7.859170696e-13
0.77344,5.795285703e-14,2.443777880e-13,6.890398052e-13,1.362228125e-12,5.797054030e-13,1.143950144e-12,1.486294719e-12,1.586868243e-12,1.058343353e-12,6.919911872e-13,5.443745870e-13,2.593940992e-13,7.182674343e-13,9.200059085e-13,3.910789675e-12,4.691010526e-12,3.995503190e-12,9.707336072e-13,7.717917716e-13,2.609461609e-12,5.370133097e-13,2.201736177e-13,5.139767919e-13,3.502825236e-14,2.232588813e-13,5.324928590e-13,8.042410064e-13,1.783672610e-13,6.662090942e-13,2.987095706e-13,5.747300919e-13,7.576883246e-13
0.78125,5.445922545e-14,2.789979554e-13,6.990108262e-13,1.416823888e-12,6.197982390e-13,1.191004989e-12,1.457398648e-12,1.619693586e-12,1.062971598e-12,7.546582372e-13,5.357453919e-13,2.830681433e-13,6.956973799e-13,9.852306952e-13,3.948354254e-12,4.709765485e-12,4.023724421e-12,9.813398208e-13,8.402544252e-13,2.514392848e-12,5.605974992e-13,1.588973999e-13,4.870853878e-13,2.254206351e-14,2.335274005e-13,5.454549487e-13,8.009405744e-13,1.628333847e-13,6.555880619e-13,3.119569325e-13,6.065071509e-13,6.831809511e-13
0.78906,5.327870223e-14,3.089983360e-13,6.934270184e-13,1.455958134e-12,6.491300844e-13,1.216054576e-12,1.417718566e-12,1.628355068e-12,1.051297189e-12,8.287580458e-13,5.240928500e-13,2.992254715e-13,6.717953871e-13,1.035464333e-12,3.987359893e-12,4.732148240e-12,4.033445765e-12,9.825815953e-13,8.853460986e-13,2.432134607e-12,5.831566755e-13,1.514410946e-13,4.698770831e-13,1.763658762e-14,2.441344042e-13,5.591424898e-13,7.965081100e-13,1.601413688e-13,6.615429961e-13,3.260249554e-13,6.459334292e-13,6.584312232e-13
0.79688,5.358044513e-14,3.255401050e-13,6.795665754e-13,1.483297187e-12,6.685094712e-13,1.226560322e-12,1.370947173e-12,1.622743628e-12,1.030852664e-12,9.069881215e-13,5.124842033e-13,3.108275900e-13,6.488751786e-13,1.070334953e-12,4.029078982e-12,4.756610003e-12,4.031885525e-12,9.771795613e-13,9.149323309e-13,2.364685061e-12,6.037664132e-13,1.651161907e-13,4.566051866e-13,1.810153082e-14,2.561182224e-13,5.746691549e-13,7.915578998e-13,1.615611548e-13,6.777326951e-13,3.400285659e-13,6.825571789e-13,6.607013508e-13
0.80469,5.949670124e-14,3.435173567e-13,6.614153269e-13,1.505343301e-12,6.785859045e-13,1.229357194e-12,1.321076095e-12,1.609147737e-12,1.009633050e-12,9.944001007e-13,5.036109573e-13,3.293355472e-13,6.261544661e-13,1.087229828e-12,4.071699520e-12,4.780398353e-12,4.026934244e-12,9.682850420e-13,9.495078711e-13,2.341868524e-12,6.214830737e-13,1.750071087e-13,4.390446874e-13,2.359163747e-14,2.699600055e-13,5.941887227e-13,7.878146884e-13,1.546317114e-13,6.921398086e-13,3.531776764e-13,7.143904363e-13,6.775519964e-13
0.8125,6.566861834e-14,3.544509733e-13,6.364134343e-13,1.517610057e-12,6.796411736e-13,1.222986369e-12,1.272034218e-12,1.587811555e-12,9.849591041e-13,1.066047535e-12,4.967841172e-13,3.467239535e-13,6.064522835e-13,1.094223109e-12,4.111737093e-12,4.799701196e-12,4.013771992e-12,9.548540915e-13,9.682451945e-13,2.341248549e-12,6.359465369e-13,1.965149733e-13,4.219244961e-13,3.399151093e-14,2.834304391e-13,6.170754218e-13,7.854381974e-13,1.512305379e-13,7.131029481e-13,3.638994571e-13,7.444595041e-13,7.146474773e-13
0.82031,6.864273566e-14,3.474632251e-13,6.077941537e-13,1.520444261e-12,6.745090271e-13,1.208420213e-12,1.225313656e-12,1.560130200e-12,9.598567768e-13,1.115927495e-12,4.919383639e-13,3.640550465e-13,5.908339112e-13,1.089353219e-12,4.148260979e-12,4.813254159e-12,3.993256929e-12,9.377387226e-13,9.684096294e-13,2.347573859e-12,6.474581391e-13,2.190047728e-13,4.061395065e-13,4.794769622e-14,2.958722840e-13,6.412654694e-13,7.840242967e-13,1.524784837e-13,7.321191766e-13,3.715443960e-13,7.656360544e-13,7.644376643e-13
0.82812,7.283815779e-14,3.423249533e-13,5.776107245e-13,1.519604835e-12,6.671400570e-13,1.188644347e-12,1.182464904e-12,1.524856841e-12,9.317458419e-13,1.152251135e-12,4.883597636e-13,3.826171139e-13,5.819779532e-13,1.074194155e-12,4.180623084e-12,4.819427732e-12,3.968286375e-12,9.188186440e-13,9.619748638e-13,2.365650381e-12,6.567236666e-13,2.457758513e-13,3.888375245e-13,6.327696786e-14,3.068335916e-13,6.671476724e-13,7.847690088e-13,1.511785873e-13,7.580562775e-13,3.761072878e-13,7.859529115e-13,8.266739652e-13
0.83594,7.619249547e-14,3.365864985e-13,5.473394243e-13,1.515743013e-12,6.602820002e-13,1.168976897e-12,1.145892838e-12,1.489857501e-12,9.043835991e-13,1.162517275e-12,4.868451858e-13,4.005724571e-13,5.807907591e-13,1.059724216e-12,4.209037628e-12,4.815833114e-12,3.941612705e-12,8.994539054e-13,9.448204495e-13,2.388871023e-12,6.643324391e-13,2.710079709e-13,3.697112684e-13,7.820014766e-14,3.158608766e-13,6.952158299e-13,7.878831427e-13,1.507453428e-13,7.907051653e-13,3.772902397e-13,8.062486063e-13,8.905035934e-13
0.84375,7.687050524e-14,3.232850378e-13,5.191599390e-13,1.509074034e-12,6.569848414e-13,1.152121116e-12,1.115872662e-12,1.460184388e-12,8.829131057e-13,1.144262555e-12,4.878531233e-13,4.217626341e-13,5.838110084e-13,1.047874340e-12,4.234786718e-12,4.801766419e-12,3.916220815e-12,8.806808608e-13,9.170476156e-13,2.409834892e-12,6.720933261e-13,2.827803221e-13,3.503794183e-13,9.240384779e-14,3.227850446e-13,7.242759436e-13,7.921159041e-13,1.539726198e-13,8.143868232e-13,3.756044577e-13,8.220209067e-13,9.472634479e-13
0.85156,7.728104938e-14,3.166386153e-13,4.927240555e-13,1.501885027e-12,6.596946781e-13,1.137106955e-12,1.091974499e-12,1.430476525e-12,8.586318287e-13,1.108474552e-12,4.886213313e-13,4.418689139e-13,5.911856713e-13,1.040406106e-12,4.255950837e-12,4.775452677e-12,3.888592487e-12,8.622068231e-13,8.838646062e-13,2.421949280e-12,6.806535839e-13,2.967649887e-13,3.317926819e-13,1.051440266e-13,3.268458632e-13,7.531653349e-13,7.963957347e-13,1.569213604e-13,8.417792241e-13,3.715207431e-13,8.421440196e-13,1.002475178e-12
0.85938,7.646059767e-14,3.143454287e-13,4.702046614e-13,1.495181729e-12,6.689558545e-13,1.127102573e-12,1.075056472e-12,1.403163817e-12,8.327098362e-13,1.054551335e-12,4.880273118e-13,4.601439620e-13,6.020800036e-13,1.042450869e-12,4.270318021e-12,4.735684043e-12,3.858091058e-12,8.445132717e-13,8.464446591e-13,2.419206659e-12,6.886012862e-13,3.067405067e-13,3.128752371e-13,1.150800164e-13,3.279917667e-13,7.797296707e-13,7.992978850e-13,1.585116695e-13,8.711405945e-13,3.648993382e-13,8.643796302e-13,1.044915543e-12
0.86719,7.542123052e-14,3.144596056e-13,4.535557886e-13,1.489491831e-12,6.844575961e-13,1.125268851e-12,1.064416986e-12,1.382216601e-12,8.119857235e-13,9.828268011e-13,4.864192225e-13,4.823014805e-13,6.127067586e-13,1.056824125e-12,4.277403341e-12,4.684036077e-12,3.829136216e-12,8.290570421e-13,8.088621355e-13,2.402614490e-12,6.951251269e-13,3.008018829e-13,2.939184602e-13,1.222038553e-13,3.270861815e-13,8.026763206e-13,8.002073679e-13,1.606887996e-13,8.886374122e-13,3.568107395e-13,8.854501875e-13,1.064736876e-12
0.875,7.476885933e-14,3.227104099e-13,4.399179832e-13,1.483774446e-12,7.058207265e-13,1.127464723e-12,1.057199811e-12,1.362385876e-12,7.900558110e-13,9.038190827e-13,4.828930013e-13,5.033935801e-13,6.232010679e-13,1.084241916e-12,4.276412780e-12,4.621562706e-12,3.798529096e-12,8.150647990e-13,7.718764071e-13,2.366878177e-12,7.011169547e-13,2.954729204e-13,2.771420567e-13,1.264486620e-13,3.244323591e-13,8.231776921e-13,8.001037396e-13,1.628422973e-13,9.056443105e-13,3.487106217e-13,9.120105989e-13,1.071557444e-12
0.88281,7.287603483e-14,3.353874868e-13,4.295403907e-13,1.478174926e-12,7.321801805e-13,1.132372040e-12,1.052130556e-12,1.342799732e-12,7.658066262e-13,8.250142691e-13,4.776852579e-13,5.222348217e-13,6.329118866e-13,1.122607631e-12,4.268217630e-12,4.549106768e-12,3.764999735e-12,8.021465540e-13,7.366564338e-13,2.311342456e-12,7.074018477e-13,2.898902476e-13,2.625184069e-13,1.271827548e-13,3.203893803e-13,8.415226506e-13,7.992192809e-13,1.632090600e-13,9.238421248e-13,3.408268804e-13,9.422648281e-13,1.065103588e-12
0.89062,7.198874334e-14,3.540906434e-13,4.240150674e-13,1.473831834e-12,7.611768390e-13,1.142616667e-12,1.048330239e-12,1.326280816e-12,7.437144469e-13,7.472965461e-13,4.716214175e-13,5.436712390e-13,6.395531581e-13,1.169556688e-12,4.254159379e-12,4.468840490e-12,3.733209739e-12,7.913556379e-13,7.086079368e-13,2.250282671e-12,7.134355227e-13,2.739545389e-13,2.481146890e-13,1.255821234e-13,3.160752631e-13,8.573686032e-13,7.967430696e-13,1.620692913e-13,9.367032129e-13,3.332923380e-13,9.740379552e-13,1.039367381e-12
0.89844,7.198425378e-14,3.766268671e-13,4.207390361e-13,1.468137280e-12,7.903635052e-13,1.154653349e-12,1.043048102e-12,1.309605519e-12,7.204863528e-13,6.732079304e-13,4.642650422e-13,5.645438943e-13,6.434784459e-13,1.221886339e-12,4.235206571e-12,4.383233563e-12,3.700308651e-12,7.811747017e-13,6.851803559e-13,2.185339256e-12,7.192340567e-13,2.561740828e-13,2.346282953e-13,1.231017936e-13,3.120527362e-13,8.714548034e-13,7.923622382e-13,1.605410872e-13,9.478345924e-13,3.265538788e-13,1.008020483e-12,1.001204063e-12
0.90625,7.107324608e-14,3.973017737e-13,4.191495720e-13,1.460350200e-12,8.181708375e-13,1.165612611e-12,1.035259323e-12,1.288900948e-12,6.936642298e-13,6.094235035e-13,4.553231889e-13,5.834923360e-13,6.442965431e-13,1.275274955e-12,4.214839918e-12,4.295295477e-12,3.663215166e-12,7.702915740e-13,6.646291017e-13,2.111986379e-12,7.251331584e-13,2.402652681e-13,2.238978301e-13,1.196462329e-13,3.081822992e-13,8.843762849e-13,7.866095823e-13,1.575380729e-13,9.571849367e-13,3.205478557e-13,1.041619190e-12,9.572570457e-13
0.91406,7.078918727e-14,4.196674509e-13,4.196946000e-13,1.452173060e-12,8.420450524e-13,1.176513006e-12,1.025534077e-12,1.264275265e-12,6.651852521e-13,5.579067160e-13,4.456141804e-13,6.026422293e-13,6.419744903e-13,1.327033531e-12,4.194771208e-12,4.207204143e-12,3.624352539e-12,7.603527255e-13,6.509053411e-13,2.040135352e-12,7.297787379e-13,2.220705142e-13,2.142271864e-13,1.158658555e-13,3.046194980e-13,8.966626522e-13,7.806526036e-13,1.522358369e-13,9.671892193e-13,3.150673590e-13,1.074631882e-12,9.071542505e-13
0.92188,7.057811824e-14,4.401416159e-13,4.204877052e-13,1.441418146e-12,8.597680209e-13,1.185246886e-12,1.012514539e-12,1.237560579e-12,6.369061398e-13,5.151941529e-13,4.362892227e-13,6.207612299e-13,6.381450056e-13,1.374082848e-12,4.172676644e-12,4.119164374e-12,3.583128872e-12,7.517391246e-13,6.410675812e-13,1.973979138e-12,7.325571707e-13,2.014414862e-13,2.041281601e-13,1.127897536e-13,3.017513257e-13,9.088562820e-13,7.749237573e-13,1.461117819e-13,9.788229703e-13,3.100226899e-13,1.105150672e-12,8.538755497e-13
0.92969,6.962614327e-14,4.541778925e-13,4.211409493e-13,1.426128575e-12,8.713885098e-13,1.189787316e-12,9.949037911e-13,1.208153593e-12,6.083510699e-13,4.813872926e-13,4.275169300e-13,6.374956771e-13,6.329335805e-13,1.412311369e-12,4.148344884e-12,4.031909038e-12,3.538998335e-12,7.432197382e-13,6.320269422e-13,1.910299182e-12,7.345669821e-13,1.809534209e-13,1.947739669e-13,1.104339328e-13,2.998180308e-13,9.212174004e-13,7.686040234e-13,1.400655645e-13,9.868911431e-13,3.049014116e-13,1.130244000e-12,8.044027781e-13
0.9375,6.887144603e-14,4.644855970e-13,4.213914553e-13,1.407130138e-12,8.770294255e-13,1.189730033e-12,9.735043220e-13,1.173553549e-12,5.778408960e-13,4.576682670e-13,4.188233440e-13,6.527992267e-13,6.274109785e-13,1.439003942e-12,4.123937840e-12,3.946806032e-12,3.493206251e-12,7.341897126e-13,6.247301959e-13,1.853245415e-12,7.359651222e-13,1.623316196e-13,1.858109711e-13,1.094003256e-13,2.985379645e-13,9.340342260e-13,7.617126853e-13,1.334611868e-13,9.942970966e-13,2.993047567e-13,1.150591222e-12,7.617453641e-13
0.94531,6.835783860e-14,4.698852852e-13,4.207653608e-13,1.384812277e-12,8.764094618e-13,1.185363200e-12,9.495335278e-13,1.135516787e-12,5.476502544e-13,4.414297271e-13,4.105559711e-13,6.670737121e-13,6.234390721e-13,1.453746337e-12,4.100551517e-12,3.864334419e-12,3.446152319e-12,7.241147966e-13,6.175808512e-13,1.804660016e-12,7.360175542e-13,1.435542525e-13,1.766707183e-13,1.100598541e-13,2.974125158e-13,9.470836333e-13,7.553547549e-13,1.257680779e-13,1.002885936e-12,2.934177317e-13,1.165471532e-12,7.247104203e-13
0.95312,6.904357524e-14,4.705674034e-13,4.204701067e-13,1.359277044e-12,8.704826094e-13,1.178466100e-12,9.235721499e-13,1.097382620e-12,5.205282302e-13,4.289904427e-13,4.032490703e-13,6.822311755e-13,6.200253988e-13,1.456716497e-12,4.078871357e-12,3.785183255e-12,3.400185381e-12,7.132597307e-13,6.095916795e-13,1.763241185e-12,7.346339732e-13,1.235913970e-13,1.677495116e-13,1.117984055e-13,2.960770663e-13,9.602927167e-13,7.498778823e-13,1.186328968e-13,1.007390766e-12,2.870529169e-13,1.174286168e-12,6.933904389e-13
0.96094,7.108453837e-14,4.681600309e-13,4.203665984e-13,1.331156233e-12,8.610454841e-13,1.168592232e-12,8.967059875e-13,1.058061289e-12,4.939404366e-13,4.189086315e-13,3.965891325e-13,6.962587494e-13,6.164829066e-13,1.448240648e-12,4.059411394e-12,3.710468155e-12,3.356454864e-12,7.026544831e-13,6.002014688e-13,1.728838812e-12,7.325897620e-13,1.059915275e-13,1.587433642e-13,1.143703714e-13,2.936709236e-13,9.740008838e-13,7.448841980e-13,1.131684909e-13,1.008603321e-12,2.798252373e-13,1.178876428e-12,6.715080745e-13
0.96875,7.411963429e-14,4.632911378e-13,4.194970926e-13,1.301942964e-12,8.499833778e-13,1.156645547e-12,8.708985908e-13,1.017693956e-12,4.667894424e-13,4.114074631e-13,3.903509612e-13,7.071861696e-13,6.139687303e-13,1.431217906e-12,4.042008434e-12,3.640567268e-12,3.314971684e-12,6.930291398e-13,5.896674593e-13,1.699291222e-12,7.303294074e-13,9.208491531e-14,1.500077674e-13,1.171450790e-13,2.898794902e-13,9.874115701e-13,7.396919681e-13,1.076908228e-13,1.009210529e-12,2.718738296e-13,1.180330644e-12,6.603512868e-13
0.97656,7.966566977e-14,4.589790398e-13,4.180328492e-13,1.272783210e-12,8.387937419e-13,1.146204673e-12,8.461147847e-13,9.807195138e-13,4.431550157e-13,4.028983477e-13,3.846814170e-13,7.180113708e-13,6.122515810e-13,1.408286223e-12,4.025407853e-12,3.574743461e-12,3.278361797e-12,6.850979237e-13,5.794069127e-13,1.676698091e-12,7.272964574e-13,7.807223882e-14,1.413756995e-13,1.198862646e-13,2.854770302e-13,9.996047905e-13,7.335808943e-13,1.027951797e-13,1.005872474e-12,2.632505446e-13,1.178625148e-12,6.550308045e-13
0.98438,8.730679871e-14,4.547294696e-13,4.161081180e-13,1.242803603e-12,8.278263341e-13,1.135557292e-12,8.209807091e-13,9.468166386e-13,4.227525400e-13,3.906132277e-13,3.791530906e-13,7.285560322e-13,6.106537293e-13,1.380328845e-12,4.008050714e-12,3.511924780e-12,3.245754850e-12,6.784144978e-13,5.673188647e-13,1.661466729e-12,7.235506756e-13,6.487525342e-14,1.328341744e-13,1.234878943e-13,2.805158229e-13,1.011089200e-12,7.269339539e-13,1.000905459e-13,9.976053565e-13,2.541018953e-13,1.174445832e-12,6.547481955e-13
0.99219,9.621199114e-14,4.499233655e-13,4.141382489e-13,1.211376824e-12,8.170175907e-13,1.123217947e-12,7.968637717e-13,9.125135368e-13,4.017405628e-13,3.779952745e-13,3.734530042e-13,7.359634223e-13,6.091063866e-13,1.350046686e-12,3.991164775e-12,3.452880401e-12,3.215138583e-12,6.721741918e-13,5.534071992e-13,1.647104629e-12,7.195888241e-13,5.695751094e-14,1.259341045e-13,1.274964965e-13,2.745599016e-13,1.022258917e-12,7.205815557e-13,9.839700723e-14,9.872701677e-13,2.449789213e-13,1.169529393e-12,6.616016042e-13
1,1.074250380e-13,4.480269519e-13,4.124452407e-13,1.180138543e-12,8.070402905e-13,1.113010092e-12,7.751377637e-13,8.813811451e-13,3.826890692e-13,3.649250716e-13,3.676475481e-13,7.416164809e-13,6.068047082e-13,1.319839936e-12,3.977345607e-12,3.399859338e-12,3.190157303e-12,6.676143443e-13,5.407116298e-13,1.635298419e-12,7.147690500e-13,5.112246073e-14,1.199730316e-13,1.313046314e-13,2.674703092e-13,1.032525642e-12,7.140839307e-13,9.713605263e-14,9.755745841e-13,2.360664693e-13,1.164945654e-12,6.706744126e-13
1.0078,1.199504687e-13,4.488070651e-13,4.106324950e-13,1.150374909e-12,7.988824141e-13,1.105324184e-12,7.549913477e-13,8.568324793e-13,3.677447693e-13,3.484847048e-13,3.614581285e-13,7.459923687e-13,6.032435912e-13,1.290580806e-12,3.966878450e-12,3.353752662e-12,3.172563148e-12,6.659248329e-13,5.279325944e-13,1.630700457e-12,7.092577164e-13,4.544383604e-14,1.139169423e-13,1.357653537e-13,2.592109148e-13,1.041567261e-12,7.065552574e-13,9.640621383e-14,9.626785519e-13,2.271500744e-13,1.160893370e-12,6.805515516e-13
1.0156,1.328024034e-13,4.500030494e-13,4.082598213e-13,1.121540443e-12,7.929279812e-13,1.098531544e-12,7.363553290e-13,8.367378935e-13,3.545316214e-13,3.297763953e-13,3.551084659e-13,7.477761941e-13,5.984596300e-13,1.263285705e-12,3.959585070e-12,3.314768848e-12,3.161240540e-12,6.671030651e-13,5.144785518e-13,1.631888684e-12,7.044680100e-13,4.308081835e-14,1.088803535e-13,1.409281995e-13,2.502615847e-13,1.049876213e-12,6.980092894e-13,9.619710882e-14,9.478698047e-13,2.179224439e-13,1.157396448e-12,6.944066972e-13
1.0234,1.464748414e-13,4.521356343e-13,4.055720443e-13,1.093818651e-12,7.885548584e-13,1.093538061e-12,7.181090117e-13,8.206160374e-13,3.431519152e-13,3.102017765e-13,3.490491431e-13,7.479598615e-13,5.926042371e-13,1.237544576e-12,3.956416297e-12,3.284224029e-12,3.157490172e-12,6.714547068e-13,5.025251088e-13,1.642258916e-12,7.001262807e-13,4.238014707e-14,1.045354328e-13,1.467370269e-13,2.407441074e-13,1.057724797e-12,6.888855402e-13,9.656775667e-14,9.317833989e-13,2.083476900e-13,1.154024851e-12,7.105006830e-13
1.0312,1.594144874e-13,4.552965349e-13,4.039936838e-13,1.068220434e-12,7.850085632e-13,1.090081757e-12,6.989315687e-13,8.086526192e-13,3.335506787e-13,2.910747074e-13,3.430170621e-13,7.460803330e-13,5.863556648e-13,1.213393479e-12,3.958412388e-12,3.263239092e-12,3.161628583e-12,6.789697686e-13,4.920639903e-13,1.664783439e-12,6.951466264e-13,4.227753098e-14,1.004567976e-13,1.539192953e-13,2.304305799e-13,1.064859452e-12,6.793455997e-13,9.657575850e-14,9.183816811e-13,1.988705941e-13,1.150670231e-12,7.276743016e-13
1.0391,1.710993945e-13,4.585790927e-13,4.035711469e-13,1.044743114e-12,7.822936111e-13,1.088179883e-12,6.812875121e-13,8.013692798e-13,3.257366778e-13,2.722260166e-13,3.370913764e-13,7.415702335e-13,5.793656492e-13,1.191900508e-12,3.966453803e-12,3.251331962e-12,3.173071468e-12,6.891301068e-13,4.826798845e-13,1.697249597e-12,6.896339332e-13,4.285684296e-14,9.701837308e-14,1.622722140e-13,2.198948493e-13,1.071788610e-12,6.694611174e-13,9.648650892e-14,9.057953475e-13,1.895775017e-13,1.147412754e-12,7.453514050e-13
1.0469,1.825763651e-13,4.609009948e-13,4.027356198e-13,1.022665587e-12,7.800569613e-13,1.087821344e-12,6.658557851e-13,7.988489255e-13,3.202000390e-13,2.530912750e-13,3.315615121e-13,7.354630443e-13,5.714400821e-13,1.171630538e-12,3.980228771e-12,3.247301694e-12,3.190075504e-12,7.012606934e-13,4.737558452e-13,1.739176797e-12,6.837691479e-13,4.323175110e-14,9.364533669e-14,1.717056514e-13,2.092671655e-13,1.079062412e-12,6.594168088e-13,9.680762154e-14,8.917175864e-13,1.802188110e-13,1.143763391e-12,7.640478711e-13
1.0547,1.929532299e-13,4.608805266e-13,4.027596793e-13,1.001642580e-12,7.778196392e-13,1.087605280e-12,6.496891676e-13,7.983718815e-13,3.149120997e-13,2.363001599e-13,3.263443136e-13,7.266912672e-13,5.639655905e-13,1.151157422e-12,3.998889962e-12,3.251389968e-12,3.210828160e-12,7.155371089e-13,4.651745928e-13,1.788953924e-12,6.776209141e-13,4.512417068e-14,9.056732985e-14,1.828309652e-13,1.982585405e-13,1.085761581e-12,6.491102115e-13,9.669141945e-14,8.795342589e-13,1.708156794e-13,1.138390722e-12,7.866062096e-13
1.0625,2.028721825e-13,4.599382622e-13,4.055653378e-13,9.831357070e-13,7.764006280e-13,1.089434202e-12,6.329211700e-13,8.019042933e-13,3.119684640e-13,2.212628467e-13,3.216794402e-13,7.154540248e-13,5.566589415e-13,1.131072298e-12,4.022749681e-12,3.264798728e-12,3.239117220e-12,7.336607640e-13,4.588247652e-13,1.848297744e-12,6.715755882e-13,4.644073016e-14,8.803486054e-14,1.950403614e-13,1.874304452e-13,1.091446290e-12,6.384672039e-13,9.609113795e-14,8.681325507e-13,1.614089741e-13,1.130530136e-12,8.106771609e-13
1.0703,2.131016192e-13,4.593311332e-13,4.099404685e-13,9.678017780e-13,7.763693661e-13,1.094291462e-12,6.170423558e-13,8.113570080e-13,3.131075634e-13,2.061857538e-13,3.180081145e-13,7.032472292e-13,5.488717552e-13,1.111301883e-12,4.051943264e-12,3.286995168e-12,3.275467992e-12,7.553874653e-13,4.540550765e-13,1.919036846e-12,6.660282242e-13,4.616370925e-14,8.567446804e-14,2.068134316e-13,1.770864977e-13,1.097119722e-12,6.279519301e-13,9.527165951e-14,8.552894065e-13,1.521905494e-13,1.121237729e-12,8.362933736e-13
1.0781,2.220441096e-13,4.561741177e-13,4.153185959e-13,9.533945006e-13,7.772135474e-13,1.099322768e-12,6.019419042e-13,8.232280062e-13,3.151433740e-13,1.930671109e-13,3.155783089e-13,6.896907778e-13,5.416126795e-13,1.091311963e-12,4.086303114e-12,3.316879953e-12,3.315186056e-12,7.789348263e-13,4.494010042e-13,1.993851734e-12,6.613286863e-13,4.742928576e-14,8.370555622e-14,2.174009657e-13,1.669133207e-13,1.102903827e-12,6.175809968e-13,9.484266073e-14,8.401571652e-13,1.432791886e-13,1.110094277e-12,8.664563935e-13
1.0859,2.312475541e-13,4.514167621e-13,4.226092159e-13,9.401802005e-13,7.788871330e-13,1.105478467e-12,5.885779779e-13,8.387813190e-13,3.195946956e-13,1.821259853e-13,3.139333570e-13,6.754425526e-13,5.345081522e-13,1.071745808e-12,4.125884725e-12,3.354429585e-12,3.360378106e-12,8.050128220e-13,4.465391245e-13,2.072266858e-12,6.570413349e-13,4.805261976e-14,8.172308664e-14,2.269914852e-13,1.568814075e-13,1.107652469e-12,6.067688750e-13,9.460328940e-14,8.209874512e-13,1.344985786e-13,1.096075441e-12,8.971789112e-13
1.0938,2.419790355e-13,4.484652816e-13,4.316847551e-13,9.303283821e-13,7.823744419e-13,1.114832720e-12,5.771639041e-13,8.593686073e-13,3.275450929e-13,1.726516632e-13,3.124147627e-13,6.604708693e-13,5.272254198e-13,1.054469233e-12,4.170100585e-12,3.399237823e-12,3.413090870e-12,8.345359093e-13,4.457973876e-13,2.158856665e-12,6.528676836e-13,4.784788392e-14,7.987003370e-14,2.350911112e-13,1.472418025e-13,1.110434652e-12,5.953657158e-13,9.360821700e-14,8.005422592e-13,1.261421708e-13,1.081028547e-12,9.269519896e-13
1.1016,2.532428547e-13,4.459706893e-13,4.428413793e-13,9.236470343e-13,7.896380654e-13,1.126989863e-12,5.663526483e-13,8.831594626e-13,3.370907604e-13,1.641836853e-13,3.115518572e-13,6.442155477e-13,5.203216629e-13,1.040293746e-12,4.220057580e-12,3.451882433e-12,3.472207828e-12,8.676084645e-13,4.465323982e-13,2.248599942e-12,6.499668435e-13,4.866186606e-14,7.882884373e-14,2.402156543e-13,1.381688552e-13,1.111294680e-12,5.835725605e-13,9.316533691e-14,7.774077592e-13,1.184587427e-13,1.066088320e-12,9.567529026e-13
1.1094,2.674889519e-13,4.444265234e-13,4.560067612e-13,9.202233392e-13,8.017234386e-13,1.142720157e-12,5.560075360e-13,9.117701590e-13,3.496727034e-13,1.561881665e-13,3.118888079e-13,6.281677099e-13,5.127895879e-13,1.027618120e-12,4.278224368e-12,3.514300755e-12,3.540751766e-12,9.053161819e-13,4.502818294e-13,2.339793940e-12,6.490315999e-13,4.815094805e-14,7.767033945e-14,2.426336565e-13,1.294472195e-13,1.111015037e-12,5.718252317e-13,9.366241329e-14,7.487914239e-13,1.111204986e-13,1.051133045e-12,9.846060320e-13
1.1172,2.849422748e-13,4.450169559e-13,4.697259432e-13,9.197837389e-13,8.171046260e-13,1.160928282e-12,5.461919746e-13,9.444319765e-13,3.647874085e-13,1.499446833e-13,3.128867349e-13,6.118442809e-13,5.042090571e-13,1.016157272e-12,4.343220696e-12,3.585666520e-12,3.617966384e-12,9.474940562e-13,4.573787797e-13,2.434176614e-12,6.495707280e-13,4.737990367e-14,7.631515916e-14,2.440575611e-13,1.208938037e-13,1.109637712e-12,5.602470796e-13,9.440324505e-14,7.197081020e-13,1.042110646e-13,1.036632268e-12,1.011346357e-12
1.125,3.035257977e-13,4.467534172e-13,4.842654689e-13,9.219333869e-13,8.346645416e-13,1.180137280e-12,5.365010109e-13,9.799713427e-13,3.822452673e-13,1.446535714e-13,3.138438125e-13,5.946798111e-13,4.945287462e-13,1.006765292e-12,4.411837437e-12,3.663451674e-12,3.700691512e-12,9.929786536e-13,4.666469930e-13,2.529940865e-12,6.510153678e-13,4.707497939e-14,7.564137314e-14,2.446584922e-13,1.127774528e-13,1.106417470e-12,5.479504243e-13,9.612712309e-14,6.888047383e-13,9.798224885e-14,1.022174034e-12,1.036360691e-12
1.1328,3.250020422e-13,4.506352907e-13,5.001440109e-13,9.280597264e-13,8.552244123e-13,1.201660952e-12,5.264875274e-13,1.019369989e-12,4.028905414e-13,1.396659028e-13,3.146433436e-13,5.777280417e-13,4.827717529e-13,9.981834176e-13,4.484393400e-12,3.747542419e-12,3.790027099e-12,1.041608261e-12,4.776934977e-13,2.628383034e-12,6.531087404e-13,4.569382050e-14,7.523012588e-14,2.442854494e-13,1.053087401e-13,1.101536034e-12,5.349260138e-13,9.864445003e-14,6.535299989e-13,9.217476763e-14,1.007901166e-12,1.058541130e-12
1.1406,3.499772958e-13,4.553279304e-13,5.161580345e-13,9.377124115e-13,8.788201329e-13,1.224670714e-12,5.154146475e-13,1.060042901e-12,4.238693601e-13,1.366972768e-13,3.159167687e-13,5.602986843e-13,4.697063635e-13,9.901367950e-13,4.561979059e-12,3.838528676e-12,3.885212576e-12,1.093299406e-12,4.904134992e-13,2.729549519e-12,6.563031877e-13,4.421107237e-14,7.479368425e-14,2.442546584e-13,9.851521231e-14,1.095548873e-12,5.225497646e-13,1.021177800e-13,6.188256116e-13,8.664788971e-14,9.943173876e-13,1.079228656e-12
1.1484,3.783133210e-13,4.605583895e-13,5.320855492e-13,9.503553488e-13,9.041679988e-13,1.247952841e-12,5.033881394e-13,1.102242949e-12,4.463203418e-13,1.353660099e-13,3.176934351e-13,5.431171439e-13,4.560768001e-13,9.835321088e-13,4.643254408e-12,3.935742672e-12,3.985879023e-12,1.147609369e-12,5.046962592e-13,2.834441253e-12,6.602853068e-13,4.239049212e-14,7.436597547e-14,2.457492125e-13,9.223404423e-14,1.088381160e-12,5.109221692e-13,1.062407028e-13,5.854712824e-13,8.146850989e-14,9.813083143e-13,1.097858639e-12
1.1562,4.097244402e-13,4.677428050e-13,5.477944055e-13,9.662565402e-13,9.302304833e-13,1.271342333e-12,4.901754986e-13,1.148161606e-12,4.724278694e-13,1.357720731e-13,3.195314077e-13,5.272696405e-13,4.415858922e-13,9.767453384e-13,4.727209072e-12,4.038959044e-12,4.092590510e-12,1.203548967e-12,5.194295114e-13,2.947685026e-12,6.637740960e-13,4.118257284e-14,7.373818370e-14,2.492200866e-13,8.624738358e-14,1.080255024e-12,4.990943689e-13,1.100578799e-13,5.534774180e-13,7.642459792e-14,9.687106228e-13,1.118042266e-12
1.1641,4.413774524e-13,4.731710364e-13,5.627802502e-13,9.839066803e-13,9.562178853e-13,1.293251364e-12,4.753300576e-13,1.195515472e-12,4.997728289e-13,1.386235842e-13,3.222762316e-13,5.113528005e-13,4.272789133e-13,9.677404201e-13,4.815217746e-12,4.149016059e-12,4.203204424e-12,1.260602526e-12,5.336383440e-13,3.069361480e-12,6.667803390e-13,4.144484238e-14,7.303964112e-14,2.548185612e-13,8.081340825e-14,1.071626214e-12,4.873430169e-13,1.154461794e-13,5.230276551e-13,7.133468298e-14,9.552023439e-13,1.143659742e-12
1.1719,4.742154177e-13,4.774498197e-13,5.780056135e-13,1.004020435e-12,9.810284317e-13,1.314347519e-12,4.608317111e-13,1.242529313e-12,5.280639160e-13,1.436086399e-13,3.263041080e-13,4.955277873e-13,4.135994592e-13,9.564737769e-13,4.908627471e-12,4.265928923e-12,4.317994547e-12,1.319256226e-12,5.482552532e-13,3.201100743e-12,6.694546427e-13,4.142803345e-14,7.234736598e-14,2.622414094e-13,7.611663709e-14,1.062824820e-12,4.766558721e-13,1.220694121e-13,4.934752660e-13,6.633780324e-14,9.408551015e-13,1.172174716e-12
1.1797,5.089330965e-13,4.831335533e-13,5.935578222e-13,1.027267400e-12,1.003575735e-12,1.334972973e-12,4.474785896e-13,1.287307803e-12,5.568545646e-13,1.514472619e-13,3.308623449e-13,4.803712973e-13,4.006483447e-13,9.439247901e-13,5.005425801e-12,4.387330389e-12,4.435852613e-12,1.378399198e-12,5.628939648e-13,3.344485126e-12,6.712337878e-13,4.259322644e-14,7.177420275e-14,2.714065105e-13,7.180579883e-14,1.054474572e-12,4.673263310e-13,1.278154658e-13,4.693693049e-13,6.156011102e-14,9.273373003e-13,1.203984314e-12
1.1875,5.422153096e-13,4.871771391e-13,6.092383737e-13,1.051551192e-12,1.023148435e-12,1.352677866e-12,4.333821285e-13,1.328969723e-12,5.853010789e-13,1.614077839e-13,3.360167077e-13,4.656175035e-13,3.894313004e-13,9.302657752e-13,5.102527671e-12,4.511159864e-12,4.553213491e-12,1.436541669e-12,5.759820087e-13,3.495789328e-12,6.722400009e-13,4.548048568e-14,7.114292382e-14,2.822480085e-13,6.773033026e-14,1.046785252e-12,4.591407561e-13,1.338415265e-13,4.493554404e-13,5.704742995e-14,9.138422912e-13,1.241155617e-12
1.1953,5.745370190e-13,4.902627578e-13,6.262726606e-13,1.077086592e-12,1.039774547e-12,1.367907115e-12,4.189541895e-13,1.370475991e-12,6.150555323e-13,1.730260782e-13,3.420731531e-13,4.514982376e-13,3.794484709e-13,9.141578987e-13,5.200835605e-12,4.638872336e-12,4.672385927e-12,1.494612571e-12,5.879328024e-13,3.657178336e-12,6.725814000e-13,4.886883417e-14,7.004141866e-14,2.935681972e-13,6.402100593e-14,1.039714917e-12,4.520855735e-13,1.402715182e-13,4.292995370e-13,5.286838734e-14,8.994257049e-13,1.283588859e-12
1.2031,6.060609054e-13,4.930167395e-13,6.447197444e-13,1.104233759e-12,1.054835842e-12,1.382086424e-12,4.056643231e-13,1.411925307e-12,6.453788975e-13,1.865557615e-13,3.491824850e-13,4.370554840e-13,3.704376783e-13,8.962568226e-13,5.302102066e-12,4.771298190e-12,4.795797834e-12,1.553620300e-12,5.992733848e-13,3.831311153e-12,6.723447876e-13,5.378770530e-14,6.888321624e-14,3.037213111e-13,6.060787586e-14,1.033422639e-12,4.461997350e-13,1.467307193e-13,4.124985165e-13,4.897482460e-14,8.847135447e-13,1.331187367e-12
1.2109,6.345875503e-13,4.952360137e-13,6.647300199e-13,1.132890213e-12,1.069795758e-12,1.395343134e-12,3.932830020e-13,1.451281762e-12,6.753986306e-13,1.994363680e-13,3.570019216e-13,4.226519464e-13,3.634739546e-13,8.796927661e-13,5.403930861e-12,4.904327839e-12,4.920587484e-12,1.612658561e-12,6.101441329e-13,4.013524286e-12,6.716472745e-13,5.960641896e-14,6.823369315e-14,3.118572267e-13,5.733259612e-14,1.026950539e-12,4.411313175e-13,1.534090738e-13,3.987673964e-13,4.544029830e-14,8.707465156e-13,1.379693761e-12
1.2188,6.608229105e-13,5.003186220e-13,6.871174494e-13,1.164370341e-12,1.084865598e-12,1.408201374e-12,3.818920782e-13,1.487888876e-12,7.050732591e-13,2.105408397e-13,3.645571109e-13,4.100389846e-13,3.584478067e-13,8.657991179e-13,5.503916971e-12,5.033739002e-12,5.043592116e-12,1.670401046e-12,6.213251485e-13,4.199572536e-12,6.703776490e-13,6.546213528e-14,6.818367705e-14,3.174290334e-13,5.417823118e-14,1.019504196e-12,4.367262111e-13,1.593520316e-13,3.861162431e-13,4.251515460e-14,8.590091487e-13,1.424782889e-12
1.2266,6.860118834e-13,5.067835609e-13,7.111361234e-13,1.197449541e-12,1.100648929e-12,1.419960058e-12,3.718444557e-13,1.521061313e-12,7.327795549e-13,2.201222985e-13,3.724059629e-13,3.985182598e-13,3.551998895e-13,8.548712863e-13,5.602446872e-12,5.159479635e-12,5.163788602e-12,1.727196306e-12,6.332701840e-13,4.384833041e-12,6.696646449e-13,7.101534116e-14,6.847781056e-14,3.193880846e-13,5.122824652e-14,1.011861973e-12,4.334003784e-13,1.653281078e-13,3.747559603e-13,4.017939383e-14,8.494603571e-13,1.466177795e-12
1.2344,7.120125388e-13,5.142443069e-13,7.367754593e-13,1.231154541e-12,1.118436257e-12,1.431251511e-12,3.634515518e-13,1.552555767e-12,7.599703913e-13,2.269142491e-13,3.810044997e-13,3.873942048e-13,3.534743387e-13,8.485208673e-13,5.699082410e-12,5.282043341e-12,5.282354603e-12,1.784123388e-12,6.464331123e-13,4.564570664e-12,6.700978815e-13,7.536695997e-14,6.882881045e-14,3.168743894e-13,4.847526687e-14,1.003444933e-12,4.309869645e-13,1.716744587e-13,3.630401727e-13,3.835282571e-14,8.413449909e-13,1.501877568e-12
1.2422,7.390524023e-13,5.256432228e-13,7.650351745e-13,1.266160860e-12,1.138858828e-12,1.443874954e-12,3.566373494e-13,1.584526311e-12,7.886119869e-13,2.306481785e-13,3.889218931e-13,3.768277679e-13,3.523156100e-13,8.473771019e-13,5.791876593e-12,5.399955462e-12,5.399552694e-12,1.840742519e-12,6.610200589e-13,4.736033597e-12,6.705460823e-13,7.939186372e-14,6.953902167e-14,3.104798700e-13,4.584738440e-14,9.927765472e-13,4.283227350e-13,1.780471088e-13,3.515732064e-13,3.708392985e-14,8.348622196e-13,1.529776446e-12
1.25,7.653116342e-13,5.390697287e-13,7.959973699e-13,1.301377457e-12,1.162769431e-12,1.456468308e-12,3.499366144e-13,1.615683414e-12,8.173800075e-13,2.311195752e-13,3.960019857e-13,3.665810738e-13,3.520982041e-13,8.494868760e-13,5.878501489e-12,5.511350805e-12,5.514354820e-12,1.897051417e-12,6.772176993e-13,4.895353100e-12,6.712365140e-13,8.211110227e-14,7.054485427e-14,3.012111422e-13,4.344401342e-14,9.807766557e-13,4.246927443e-13,1.855463221e-13,3.388828375e-13,3.619260994e-14,8.300637780e-13,1.549791909e-12
1.2578,7.942252830e-13,5.555351612e-13,8.292080958e-13,1.337416457e-12,1.191055071e-12,1.468386515e-12,3.432208680e-13,1.643946047e-12,8.451925354e-13,2.287254579e-13,4.027208229e-13,3.570280377e-13,3.530667234e-13,8.531987107e-13,5.957176215e-12,5.613976223e-12,5.626191878e-12,1.953399779e-12,6.957538832e-13,5.039224960e-12,6.729212679e-13,8.232482936e-14,7.149767526e-14,2.890023359e-13,4.140306089e-14,9.683219635e-13,4.203804443e-13,1.930053764e-13,3.228092401e-13,3.545070513e-14,8.276630691e-13,1.560052769e-12
1.2656,8.294244182e-13,5.768931058e-13,8.631845874e-13,1.375162621e-12,1.223085983e-12,1.480741038e-12,3.377771535e-13,1.668104517e-12,8.709635569e-13,2.250829591e-13,4.084046053e-13,3.475186600e-13,3.545507680e-13,8.583471078e-13,6.028795333e-12,5.706094279e-12,5.732101114e-12,2.007757533e-12,7.158228021e-13,5.163603009e-12,6.752404504e-13,8.172196274e-14,7.257784784e-14,2.741682293e-13,3.972276931e-14,9.539034314e-13,4.156611141e-13,1.995264500e-13,3.069286876e-13,3.483579482e-14,8.279137503e-13,1.558665426e-12
1.2734,8.706100447e-13,6.009867290e-13,8.969425282e-13,1.412902777e-12,1.257479643e-12,1.492712374e-12,3.331789146e-13,1.689286859e-12,8.950442143e-13,2.206243367e-13,4.132386779e-13,3.377657380e-13,3.567142124e-13,8.637181699e-13,6.095634117e-12,5.789558001e-12,5.830660088e-12,2.059076790e-12,7.360919728e-13,5.265704004e-12,6.782364283e-13,8.024958594e-14,7.338789362e-14,2.580422413e-13,3.839570342e-14,9.367284842e-13,4.105813533e-13,2.064365949e-13,2.908996263e-13,3.438573318e-14,8.293237758e-13,1.547809828e-12
1.2812,9.178743403e-13,6.277996952e-13,9.306493566e-13,1.450312817e-12,1.292833008e-12,1.503386684e-12,3.287155670e-13,1.710173159e-12,9.199841395e-13,2.168955751e-13,4.174789548e-13,3.298924629e-13,3.600268011e-13,8.681644431e-13,6.158611864e-12,5.867568097e-12,5.923985973e-12,2.108174223e-12,7.563522450e-13,5.349091921e-12,6.816360242e-13,7.832575876e-14,7.369549340e-14,2.416990273e-13,3.743282068e-14,9.183793270e-13,4.051539476e-13,2.132384761e-13,2.726742460e-13,3.415749920e-14,8.309924624e-13,1.532187708e-12
1.2891,9.689168968e-13,6.549195311e-13,9.634770985e-13,1.486439551e-12,1.326910927e-12,1.511522500e-12,3.241633215e-13,1.729055301e-12,9.452436832e-13,2.158437895e-13,4.205777503e-13,3.244010088e-13,3.654167934e-13,8.714627278e-13,6.216194093e-12,5.939348679e-12,6.010254170e-12,2.153859689e-12,7.755002466e-13,5.415904774e-12,6.844754075e-13,7.753269927e-14,7.387185203e-14,2.264255402e-13,3.685478194e-14,9.000020005e-13,3.990657010e-13,2.192317513e-13,2.546885556e-13,3.418364641e-14,8.322536321e-13,1.514953499e-12
1.2969,1.021783036e-12,6.797806989e-13,9.949077402e-13,1.518790299e-12,1.356838392e-12,1.514809234e-12,3.186180261e-13,1.741339839e-12,9.684199929e-13,2.173177687e-13,4.222711490e-13,3.197648206e-13,3.732027170e-13,8.717003835e-13,6.264629251e-12,6.001869235e-12,6.086244632e-12,2.195216095e-12,7.925647827e-13,5.465664157e-12,6.859137555e-13,7.744154366e-14,7.376224779e-14,2.137207244e-13,3.664127544e-14,8.809243110e-13,3.921191878e-13,2.245554027e-13,2.371476487e-13,3.453448131e-14,8.324081470e-13,1.497010955e-12
1.3047,1.076749385e-12,7.041477132e-13,1.024938600e-12,1.547983536e-12,1.380999250e-12,1.513073436e-12,3.120510083e-13,1.746375653e-12,9.887120673e-13,2.216633479e-13,4.223571633e-13,3.154442307e-13,3.820002459e-13,8.674979846e-13,6.303651260e-12,6.055288246e-12,6.152139612e-12,2.233159653e-12,8.079019852e-13,5.503494500e-12,6.854558474e-13,7.867658584e-14,7.358650039e-14,2.041082260e-13,3.665298917e-14,8.618019411e-13,3.849486082e-13,2.290071017e-13,2.204592747e-13,3.523647869e-14,8.320944389e-13,1.479959919e-12
1.3125,1.130090970e-12,7.261964272e-13,1.052925311e-12,1.575290703e-12,1.399695722e-12,1.506639304e-12,3.051758126e-13,1.745777874e-12,1.005860726e-12,2.294904327e-13,4.221343377e-13,3.116775432e-13,3.915118712e-13,8.585671142e-13,6.337576864e-12,6.101823026e-12,6.207730345e-12,2.266935874e-12,8.208119275e-13,5.537188420e-12,6.841928276e-13,8.207593786e-14,7.360251717e-14,1.977106782e-13,3.681446974e-14,8.448287732e-13,3.787178464e-13,2.328769520e-13,2.057961484e-13,3.611884341e-14,8.313835874e-13,1.467260591e-12
1.3203,1.178712742e-12,7.434205701e-13,1.078391897e-12,1.599405656e-12,1.412456747e-12,1.494225876e-12,2.979943675e-13,1.739827461e-12,1.020876246e-12,2.401684482e-13,4.234204755e-13,3.088907237e-13,4.019701417e-13,8.434050612e-13,6.366047160e-12,6.140878333e-12,6.252029607e-12,2.294281020e-12,8.296612950e-13,5.571999399e-12,6.828651532e-13,8.745137643e-14,7.353782540e-14,1.943627815e-13,3.706932359e-14,8.295244350e-13,3.739050309e-13,2.360571097e-13,1.921234125e-13,3.718052858e-14,8.288620099e-13,1.460518908e-12
1.3281,1.222447234e-12,7.560517894e-13,1.100141001e-12,1.618341310e-12,1.416877516e-12,1.475278593e-12,2.906375955e-13,1.727924963e-12,1.034735935e-12,2.526474660e-13,4.250381789e-13,3.070947290e-13,4.126190933e-13,8.224224110e-13,6.384852745e-12,6.170033802e-12,6.283961039e-12,2.313894907e-12,8.336409560e-13,5.610373203e-12,6.799261665e-13,9.546998262e-14,7.367795077e-14,1.931153281e-13,3.721557807e-14,8.144437918e-13,3.697287594e-13,2.384495355e-13,1.806298962e-13,3.862032058e-14,8.237435690e-13,1.459094884e-12
1.3359,1.257576440e-12,7.625660888e-13,1.118076108e-12,1.630741517e-12,1.411851864e-12,1.449695973e-12,2.835388608e-13,1.708424116e-12,1.046394334e-12,2.655178210e-13,4.257695283e-13,3.059989339e-13,4.236636466e-13,7.980028856e-13,6.393667726e-12,6.188800740e-12,6.301830939e-12,2.326513679e-12,8.332347164e-13,5.651939641e-12,6.749121943e-13,1.050666690e-13,7.401884314e-14,1.935765877e-13,3.715585184e-14,8.007367664e-13,3.656591079e-13,2.409537541e-13,1.711081003e-13,4.046820991e-14,8.161400243e-13,1.463793354e-12
1.3438,1.280218204e-12,7.629018812e-13,1.134171242e-12,1.636975884e-12,1.399125481e-12,1.417707840e-12,2.767993308e-13,1.681317129e-12,1.055224823e-12,2.775869762e-13,4.265417670e-13,3.057499097e-13,4.353273860e-13,7.719558359e-13,6.392386221e-12,6.196859286e-12,6.304675416e-12,2.333771319e-12,8.300347753e-13,5.694418544e-12,6.684202018e-13,1.147730861e-13,7.444906359e-14,1.961495030e-13,3.692373373e-14,7.887085567e-13,3.621646514e-13,2.434567904e-13,1.619070390e-13,4.269603507e-14,8.064073388e-13,1.473066695e-12
1.3516,1.290409202e-12,7.589773758e-13,1.148437478e-12,1.638779696e-12,1.381259514e-12,1.381291836e-12,2.705254985e-13,1.650407468e-12,1.061627026e-12,2.878863491e-13,4.274152877e-13,3.059850376e-13,4.472073228e-13,7.460599112e-13,6.380008447e-12,6.192918758e-12,6.292963152e-12,2.335643750e-12,8.249330647e-13,5.736052085e-12,6.600624677e-13,1.251196103e-13,7.545105815e-14,2.001168650e-13,3.654274870e-14,7.768411354e-13,3.591717455e-13,2.446757635e-13,1.553042711e-13,4.518799804e-14,7.956515469e-13,1.482394751e-12
1.3594,1.289678255e-12,7.513517059e-13,1.161362328e-12,1.636954515e-12,1.360146515e-12,1.342049248e-12,2.650703366e-13,1.618882828e-12,1.066890165e-12,2.949331577e-13,4.285861535e-13,3.064679756e-13,4.592092467e-13,7.209979431e-13,6.359345490e-12,6.178551569e-12,6.270232426e-12,2.332015691e-12,8.178175290e-13,5.777962531e-12,6.507721434e-13,1.349178531e-13,7.677247090e-14,2.037701832e-13,3.613225234e-14,7.656931026e-13,3.563330242e-13,2.453074383e-13,1.510024635e-13,4.777014540e-14,7.850354102e-13,1.491130239e-12
1.3672,1.279820070e-12,7.410152653e-13,1.175574848e-12,1.631230788e-12,1.336661738e-12,1.300384104e-12,2.607012884e-13,1.586384281e-12,1.072538282e-12,2.977479592e-13,4.309673047e-13,3.076864838e-13,4.705462325e-13,6.975222005e-13,6.332210832e-12,6.155920292e-12,6.239436450e-12,2.323922892e-12,8.093326536e-13,5.818444420e-12,6.417302061e-13,1.429201665e-13,7.833051922e-14,2.064280929e-13,3.577795819e-14,7.561955719e-13,3.540563678e-13,2.466095338e-13,1.468554465e-13,5.055051410e-14,7.743582814e-13,1.498569596e-12
1.375,1.261504063e-12,7.292924649e-13,1.190291919e-12,1.621051930e-12,1.311133943e-12,1.256855461e-12,2.573077835e-13,1.550758844e-12,1.077409460e-12,2.963394356e-13,4.334265163e-13,3.096294792e-13,4.809436401e-13,6.768060760e-13,6.295314974e-12,6.121632044e-12,6.196682122e-12,2.310409323e-12,8.000204906e-13,5.847588334e-12,6.318989324e-13,1.500350943e-13,8.059071116e-14,2.083530960e-13,3.538516044e-14,7.464495575e-13,3.519888621e-13,2.473260258e-13,1.439930059e-13,5.358348613e-14,7.628839247e-13,1.500137840e-12
1.3828,1.235921689e-12,7.170944922e-13,1.203956199e-12,1.605892402e-12,1.284475533e-12,1.211720620e-12,2.549080664e-13,1.511550193e-12,1.080371443e-12,2.905975535e-13,4.344952917e-13,3.122905660e-13,4.913811106e-13,6.587517111e-13,6.244886957e-12,6.070891448e-12,6.137806971e-12,2.290222704e-12,7.900634275e-13,5.856970840e-12,6.206194597e-13,1.554967634e-13,8.317280426e-14,2.092410664e-13,3.488996966e-14,7.346820614e-13,3.488454341e-13,2.467704375e-13,1.420335954e-13,5.673647405e-14,7.510304698e-13,1.492854649e-12
1.3906,1.207112508e-12,7.060443864e-13,1.217938056e-12,1.586192732e-12,1.258163960e-12,1.165882273e-12,2.538363920e-13,1.471578877e-12,1.082955357e-12,2.806474871e-13,4.342827636e-13,3.157154642e-13,5.021395723e-13,6.442507533e-13,6.180403945e-12,6.004171663e-12,6.064754533e-12,2.265154647e-12,7.809158535e-13,5.844973191e-12,6.085071072e-13,1.581522971e-13,8.572208897e-14,2.086320171e-13,3.446351499e-14,7.217923299e-13,3.443149617e-13,2.455982183e-13,1.404462585e-13,6.007518729e-14,7.400241772e-13,1.475598826e-12
1.3984,1.178307430e-12,6.972100300e-13,1.232773362e-12,1.563295135e-12,1.233671960e-12,1.121045323e-12,2.541030051e-13,1.432401716e-12,1.085345099e-12,2.678264628e-13,4.331380327e-13,3.193544731e-13,5.128732575e-13,6.330558208e-13,6.104425123e-12,5.923989653e-12,5.979800361e-12,2.237083591e-12,7.734241251e-13,5.809083121e-12,5.961906525e-13,1.588610302e-13,8.821296009e-14,2.069024118e-13,3.440977642e-14,7.087075380e-13,3.388435711e-13,2.437368945e-13,1.396531368e-13,6.353320192e-14,7.302311098e-13,1.448469289e-12
1.4062,1.151552591e-12,6.909635042e-13,1.248982113e-12,1.538510620e-12,1.212056251e-12,1.077555575e-12,2.555346937e-13,1.393498896e-12,1.087177277e-12,2.537241159e-13,4.316641512e-13,3.229689819e-13,5.232271431e-13,6.224664229e-13,6.018792880e-12,5.831138735e-12,5.884299298e-12,2.206606844e-12,7.670625902e-13,5.747409770e-12,5.843727209e-13,1.581848022e-13,9.055689957e-14,2.045943096e-13,3.482426065e-14,6.946884759e-13,3.324282495e-13,2.416046892e-13,1.382011224e-13,6.690632570e-14,7.212508138e-13,1.412810309e-12
1.4141,1.129935209e-12,6.882119791e-13,1.266747172e-12,1.512371109e-12,1.193048604e-12,1.035077424e-12,2.579292537e-13,1.355657028e-12,1.089631182e-12,2.398841160e-13,4.303467811e-13,3.267562644e-13,5.335941768e-13,6.121715292e-13,5.923704613e-12,5.726957227e-12,5.781027048e-12,2.174444733e-12,7.620417680e-13,5.662451765e-12,5.730513441e-13,1.570596213e-13,9.306296501e-14,2.015144871e-13,3.557888092e-14,6.797075361e-13,3.248829292e-13,2.386198290e-13,1.372629350e-13,7.033118943e-14,7.131024573e-13,1.369641129e-12
1.4219,1.113939677e-12,6.881497688e-13,1.283594646e-12,1.484240210e-12,1.175250524e-12,9.934975006e-13,2.611600057e-13,1.318294929e-12,1.092107895e-12,2.275249282e-13,4.289411955e-13,3.308622527e-13,5.452478512e-13,6.022430494e-13,5.821128667e-12,5.613222610e-12,5.670488846e-12,2.140459314e-12,7.578055922e-13,5.555311076e-12,5.619967952e-13,1.560831642e-13,9.579214426e-14,1.971698648e-13,3.659003991e-14,6.652329797e-13,3.164385724e-13,2.344512744e-13,1.376846068e-13,7.383028423e-14,7.055471913e-13,1.321423022e-12
1.4297,1.102171177e-12,6.889761631e-13,1.299434828e-12,1.453389418e-12,1.157282553e-12,9.519264226e-13,2.656799238e-13,1.279781902e-12,1.093256006e-12,2.171006785e-13,4.273042652e-13,3.349164496e-13,5.580932501e-13,5.911032562e-13,5.711079748e-12,5.489262617e-12,5.550361450e-12,2.103810595e-12,7.528993986e-13,5.426187206e-12,5.515469143e-13,1.547870926e-13,9.853898051e-14,1.918264138e-13,3.779779870e-14,6.516360318e-13,3.074591523e-13,2.305852244e-13,1.373403698e-13,7.732720386e-14,6.983156733e-13,1.270423726e-12
1.4375,1.094991412e-12,6.902901061e-13,1.314937681e-12,1.419437559e-12,1.138176211e-12,9.092944497e-13,2.715692722e-13,1.241091695e-12,1.093886129e-12,2.099104045e-13,4.251270466e-13,3.385785678e-13,5.713932708e-13,5.777286047e-13,5.590355523e-12,5.354149012e-12,5.418883100e-12,2.063840142e-12,7.468179214e-13,5.277044262e-12,5.413118450e-13,1.550634072e-13,1.012820790e-13,1.864658323e-13,3.904204429e-14,6.380057613e-13,2.977206546e-13,2.258411707e-13,1.379005134e-13,8.121994619e-14,6.912965322e-13,1.218265307e-12
1.4453,1.091065007e-12,6.903481362e-13,1.326909791e-12,1.382460949e-12,1.117617043e-12,8.660995879e-13,2.782314442e-13,1.203198766e-12,1.094956665e-12,2.064251956e-13,4.220485947e-13,3.427119600e-13,5.855259933e-13,5.612211180e-13,5.460855447e-12,5.210793322e-12,5.277103025e-12,2.020364416e-12,7.388286841e-13,5.110673428e-12,5.307506154e-13,1.575817985e-13,1.038732512e-13,1.814552235e-13,4.007962268e-14,6.246153975e-13,2.868885392e-13,2.193520893e-13,1.398407780e-13,8.564313365e-14,6.830695187e-13,1.167708158e-12
1.4531,1.088474500e-12,6.880995022e-13,1.335196568e-12,1.343973448e-12,1.095194923e-12,8.238126517e-13,2.857539214e-13,1.165078108e-12,1.095486804e-12,2.054948644e-13,4.186564268e-13,3.472565417e-13,6.000953489e-13,5.421105662e-13,5.327312232e-12,5.063889473e-12,5.129630629e-12,1.974656787e-12,7.287301437e-13,4.935048103e-12,5.201453764e-13,1.612398416e-13,1.066316620e-13,1.765382989e-13,4.082108899e-14,6.125309011e-13,2.755648676e-13,2.130721981e-13,1.409699084e-13,9.017678226e-14,6.732738684e-13,1.119698744e-12
1.4609,1.087675642e-12,6.843614928e-13,1.342287949e-12,1.304296864e-12,1.069323329e-12,7.819930118e-13,2.943053506e-13,1.125116266e-12,1.093812916e-12,2.077195735e-13,4.157399345e-13,3.510865847e-13,6.137220122e-13,5.209970312e-13,5.189875112e-12,4.915198238e-12,4.979314850e-12,1.927489722e-12,7.166581829e-13,4.758553467e-12,5.095806157e-13,1.685093979e-13,1.101674293e-13,1.723539532e-13,4.138074566e-14,6.016238688e-13,2.645484695e-13,2.073687327e-13,1.432346526e-13,9.496465065e-14,6.628621033e-13,1.075582462e-12
1.4688,1.087218826e-12,6.772849988e-13,1.346779245e-12,1.261574640e-12,1.038761668e-12,7.393128658e-13,3.034095968e-13,1.082803357e-12,1.089973231e-12,2.128964860e-13,4.134731182e-13,3.548849610e-13,6.257633641e-13,4.970788306e-13,5.047625017e-12,4.763278437e-12,4.823489863e-12,1.877259019e-12,7.014854217e-13,4.581897187e-12,4.988707357e-13,1.798846700e-13,1.144051633e-13,1.699234935e-13,4.170271900e-14,5.913571274e-13,2.537958027e-13,2.020804525e-13,1.471596625e-13,1.006997342e-13,6.510583294e-13,1.037801987e-12
1.4766,1.084123440e-12,6.660910709e-13,1.347687496e-12,1.215769746e-12,1.003976931e-12,6.961447388e-13,3.127999359e-13,1.039657860e-12,1.085094082e-12,2.189553627e-13,4.119071673e-13,3.591556814e-13,6.358291603e-13,4.714103899e-13,4.900247674e-12,4.606492656e-12,4.659579703e-12,1.822652007e-12,6.832759915e-13,4.406063418e-12,4.878886500e-13,1.929642407e-13,1.190965143e-13,1.690947708e-13,4.160834202e-14,5.818298629e-13,2.429828416e-13,1.966882484e-13,1.517718887e-13,1.074949448e-13,6.378604513e-13,1.005341921e-12
1.4844,1.076311682e-12,6.513907608e-13,1.345299497e-12,1.167372256e-12,9.657414739e-13,6.522206530e-13,3.223167156e-13,9.965950261e-13,1.079233100e-12,2.258388972e-13,4.112141038e-13,3.631033557e-13,6.434808022e-13,4.448476413e-13,4.746821118e-12,4.445156092e-12,4.488321962e-12,1.763965338e-12,6.621519710e-13,4.234059416e-12,4.766251348e-13,2.083534868e-13,1.241336182e-13,1.696476371e-13,4.103966770e-14,5.726805989e-13,2.320087419e-13,1.909263571e-13,1.579355340e-13,1.149370494e-13,6.235454120e-13,9.776811056e-13
1.4922,1.062332100e-12,6.317268552e-13,1.338917748e-12,1.115565111e-12,9.242329120e-13,6.069943170e-13,3.318374478e-13,9.528881252e-13,1.071959189e-12,2.333614887e-13,4.111182508e-13,3.669389291e-13,6.489181187e-13,4.175415900e-13,4.588425804e-12,4.281150512e-12,4.311620262e-12,1.701719627e-12,6.372552122e-13,4.066008555e-12,4.650884224e-13,2.255516521e-13,1.293552708e-13,1.723657313e-13,4.000811392e-14,5.630443300e-13,2.208266819e-13,1.862850014e-13,1.639872189e-13,1.228869830e-13,6.068800335e-13,9.547036723e-13
1.5,1.043349459e-12,6.090003149e-13,1.330279263e-12,1.061457141e-12,8.801438763e-13,5.621602166e-13,3.412257374e-13,9.084568889e-13,1.063028105e-12,2.404990223e-13,4.112146463e-13,3.708457816e-13,6.523928717e-13,3.916953765e-13,4.426719083e-12,4.116163656e-12,4.131295336e-12,1.636510690e-12,6.103434057e-13,3.902919609e-12,4.530220379e-13,2.432165263e-13,1.348300320e-13,1.774803871e-13,3.872519185e-14,5.527435376e-13,2.094619256e-13,1.818716593e-13,1.702433750e-13,1.312997465e-13,5.892234372e-13,9.335323147e-13
1.5078,1.020187093e-12,5.856281172e-13,1.320442355e-12,1.007220867e-12,8.354387043e-13,5.191425256e-13,3.499187645e-13,8.646200991e-13,1.052622489e-12,2.466446978e-13,4.121990496e-13,3.744969826e-13,6.535944963e-13,3.683295250e-13,4.263136944e-12,3.951370129e-12,3.949047283e-12,1.569871618e-12,5.835721091e-13,3.745182309e-12,4.409189230e-13,2.614523359e-13,1.405705161e-13,1.843840442e-13,3.741891036e-14,5.422080784e-13,1.981859313e-13,1.771322162e-13,1.785202059e-13,1.399529272e-13,5.725060331e-13,9.136179486e-13
1.5156,9.919601657e-13,5.610696211e-13,1.307835631e-12,9.537328960e-13,7.918799259e-13,4.781465878e-13,3.579719816e-13,8.228754770e-13,1.041600239e-12,2.507784426e-13,4.149195406e-13,3.780087096e-13,6.520199712e-13,3.469332142e-13,4.100581091e-12,3.787603921e-12,3.767005991e-12,1.503740002e-12,5.573392374e-13,3.592195101e-12,4.296749461e-13,2.787327895e-13,1.463336969e-13,1.929803085e-13,3.599089043e-14,5.317334094e-13,1.874066312e-13,1.736392179e-13,1.871802826e-13,1.490305277e-13,5.566636329e-13,8.953127826e-13
1.5234,9.602671079e-13,5.368824556e-13,1.293679387e-12,9.009932569e-13,7.497336756e-13,4.391482386e-13,3.658291353e-13,7.826688443e-13,1.029922936e-12,2.537828736e-13,4.191560388e-13,3.811933741e-13,6.473060485e-13,3.273126400e-13,3.939617774e-12,3.624355112e-12,3.585504556e-12,1.437801821e-12,5.318456759e-13,3.444222521e-12,4.191832497e-13,2.952829074e-13,1.519407079e-13,2.034146216e-13,3.436097430e-14,5.211248257e-13,1.770420068e-13,1.705904135e-13,1.971730306e-13,1.587704371e-13,5.424682187e-13,8.770716067e-13
1.5312,9.263995333e-13,5.137113615e-13,1.280210392e-12,8.488620539e-13,7.091418816e-13,4.019314344e-13,3.729755243e-13,7.430125631e-13,1.017140898e-12,2.563741426e-13,4.247504393e-13,3.841016069e-13,6.398281975e-13,3.090056014e-13,3.778274417e-12,3.460679679e-12,3.403495764e-12,1.370576003e-12,5.066531099e-13,3.298364201e-12,4.094099253e-13,3.112654082e-13,1.571631944e-13,2.152163121e-13,3.267317286e-14,5.102084341e-13,1.667334775e-13,1.678790764e-13,2.095664681e-13,1.687951028e-13,5.299364651e-13,8.576942398e-13
1.5391,8.905535443e-13,4.914983805e-13,1.267397264e-12,7.982488747e-13,6.707094578e-13,3.671221140e-13,3.790909647e-13,7.052542971e-13,1.003683160e-12,2.574685878e-13,4.317378721e-13,3.869357631e-13,6.307831084e-13,2.925804069e-13,3.616687399e-12,3.297287651e-12,3.223440120e-12,1.303421033e-12,4.824867324e-13,3.153730584e-12,4.006081748e-13,3.242556404e-13,1.620083034e-13,2.269407180e-13,3.105718627e-14,4.992025483e-13,1.567616482e-13,1.660889698e-13,2.226334970e-13,1.788797697e-13,5.186527124e-13,8.353843304e-13
1.5469,8.543431311e-13,4.717556711e-13,1.255047573e-12,7.497095245e-13,6.346099382e-13,3.349786446e-13,3.843585905e-13,6.699375485e-13,9.891356964e-13,2.582015332e-13,4.398891750e-13,3.890959589e-13,6.210687057e-13,2.782827498e-13,3.456281688e-12,3.135799443e-12,3.047781662e-12,1.238248575e-12,4.605636280e-13,3.012365187e-12,3.925990088e-13,3.355523450e-13,1.668822228e-13,2.372408702e-13,2.959362195e-14,4.879032768e-13,1.473490495e-13,1.644200940e-13,2.369903795e-13,1.889544194e-13,5.092897484e-13,8.102049010e-13
1.5547,8.184849537e-13,4.534037132e-13,1.243391806e-12,7.024541482e-13,6.009814932e-13,3.050021900e-13,3.888491685e-13,6.363640224e-13,9.728597239e-13,2.591648065e-13,4.491362912e-13,3.904683590e-13,6.106484437e-13,2.649431109e-13,3.298671079e-12,2.977622631e-12,2.875969638e-12,1.175009581e-12,4.401298861e-13,2.872349302e-12,3.854146094e-13,3.459882699e-13,1.716738086e-13,2.469305941e-13,2.833467936e-14,4.761476924e-13,1.381113512e-13,1.633093445e-13,2.523198430e-13,1.984581811e-13,5.011757892e-13,7.836140567e-13
1.5625,7.848868451e-13,4.366816029e-13,1.233409252e-12,6.566100462e-13,5.696805823e-13,2.775839667e-13,3.937263352e-13,6.051171700e-13,9.560065354e-13,2.596415858e-13,4.592653677e-13,3.915561999e-13,5.987033547e-13,2.521781818e-13,3.145556437e-12,2.823796996e-12,2.709448399e-12,1.114089126e-12,4.210166922e-13,2.733197720e-12,3.788543340e-13,3.537166733e-13,1.760079590e-13,2.572197333e-13,2.724899151e-14,4.645335457e-13,1.290507710e-13,1.621898611e-13,2.677891556e-13,2.073259258e-13,4.936474976e-13,7.544223109e-13
1.5703,7.556365479e-13,4.229387899e-13,1.226120338e-12,6.129437391e-13,5.400457674e-13,2.527263453e-13,3.999122240e-13,5.757773262e-13,9.394842015e-13,2.609973897e-13,4.703694753e-13,3.924941122e-13,5.852667905e-13,2.399392876e-13,2.996542164e-12,2.674118861e-12,2.549316455e-12,1.055548669e-12,4.030763649e-13,2.595565502e-12,3.728425806e-13,3.607899537e-13,1.801358793e-13,2.668346236e-13,2.618895853e-14,4.530820137e-13,1.203417513e-13,1.607974354e-13,2.843706864e-13,2.161677495e-13,4.867549739e-13,7.232545337e-13
1.5781,7.287347708e-13,4.104505872e-13,1.220903282e-12,5.722131743e-13,5.123812743e-13,2.301205440e-13,4.063251061e-13,5.471916630e-13,9.224228496e-13,2.638348982e-13,4.827803578e-13,3.933037231e-13,5.721687659e-13,2.283212592e-13,2.851085152e-12,2.528256932e-12,2.394448953e-12,9.988840377e-13,3.858504987e-13,2.458578181e-12,3.682552364e-13,3.681110160e-13,1.843131016e-13,2.739789829e-13,2.507982178e-14,4.413242195e-13,1.119896749e-13,1.605146512e-13,3.009967662e-13,2.250625322e-13,4.803050205e-13,6.918415932e-13
1.5859,7.042926616e-13,4.000696224e-13,1.217320985e-12,5.351722029e-13,4.872711958e-13,2.099644752e-13,4.125762863e-13,5.195132646e-13,9.035788013e-13,2.686925918e-13,4.957796706e-13,3.935973752e-13,5.601038545e-13,2.175704594e-13,2.710375041e-12,2.387187711e-12,2.245652688e-12,9.450976759e-13,3.704962309e-13,2.325623327e-12,3.653590473e-13,3.743972532e-13,1.885447621e-13,2.783996064e-13,2.405614460e-14,4.292171318e-13,1.044752065e-13,1.601315525e-13,3.175059548e-13,2.338297334e-13,4.749884803e-13,6.591844520e-13
1.5938,6.850066210e-13,3.930348006e-13,1.215822726e-12,5.010145974e-13,4.638987451e-13,1.917596310e-13,4.195478624e-13,4.928963907e-13,8.828570559e-13,2.767621479e-13,5.087696567e-13,3.931606530e-13,5.482765005e-13,2.073642709e-13,2.574663674e-12,2.251341629e-12,2.103007719e-12,8.940876006e-13,3.566501008e-13,2.198042497e-12,3.637386334e-13,3.814020220e-13,1.929439161e-13,2.806271145e-13,2.315444052e-14,4.166661950e-13,9.801141812e-14,1.594049482e-13,3.347297625e-13,2.426067894e-13,4.707010175e-13,6.259917067e-13
1.6016,6.699306454e-13,3.875948958e-13,1.216133359e-12,4.685136334e-13,4.413577505e-13,1.752185378e-13,4.268226192e-13,4.675551100e-13,8.614994336e-13,2.875649832e-13,5.219191537e-13,3.928295532e-13,5.372544712e-13,1.980120518e-13,2.443754340e-12,2.120513448e-12,1.965313821e-12,8.443061707e-13,3.431968596e-13,2.073719865e-12,3.632900946e-13,3.897081734e-13,1.975197453e-13,2.816411094e-13,2.227961744e-14,4.039581235e-13,9.211202139e-14,1.596604968e-13,3.514806478e-13,2.514752630e-13,4.667612274e-13,5.939744399e-13
1.6094,6.580087659e-13,3.839358119e-13,1.217583182e-12,4.377306735e-13,4.199420139e-13,1.605187870e-13,4.338820884e-13,4.432563276e-13,8.397638054e-13,3.019622898e-13,5.348735804e-13,3.926497543e-13,5.277520559e-13,1.897107991e-13,2.318799634e-12,1.995806633e-12,1.833526571e-12,7.960867273e-13,3.307229752e-13,1.954875405e-12,3.638331019e-13,3.994612919e-13,2.023367682e-13,2.821460764e-13,2.144096340e-14,3.914441557e-13,8.658574044e-14,1.600199551e-13,3.675380984e-13,2.604657681e-13,4.633974886e-13,5.637627082e-13
1.6172,6.495397635e-13,3.820123690e-13,1.219853557e-12,4.093244997e-13,4.002499716e-13,1.476546915e-13,4.416422587e-13,4.195094374e-13,8.168408470e-13,3.203602257e-13,5.474145326e-13,3.918770122e-13,5.193972035e-13,1.820328540e-13,2.200708017e-12,1.878373523e-12,1.708305163e-12,7.500772511e-13,3.191388640e-13,1.842350322e-12,3.653690286e-13,4.116351011e-13,2.073849211e-13,2.820121653e-13,2.061540411e-14,3.788391243e-13,8.154068676e-14,1.606116940e-13,3.827921612e-13,2.697821489e-13,4.603016863e-13,5.362703120e-13
1.625,6.439106925e-13,3.810664514e-13,1.222894188e-12,3.833973437e-13,3.820942240e-13,1.369075408e-13,4.503545876e-13,3.973712853e-13,7.935855372e-13,3.408205943e-13,5.597741776e-13,3.910645276e-13,5.117772543e-13,1.755189831e-13,2.089328500e-12,1.767995252e-12,1.589283873e-12,7.058751866e-13,3.088036924e-13,1.734584488e-12,3.678039892e-13,4.249595312e-13,2.124641271e-13,2.811599896e-13,1.975904948e-14,3.664427606e-13,7.713017096e-14,1.614149603e-13,3.973244801e-13,2.796873957e-13,4.578174190e-13,5.109274268e-13
1.6328,6.412555784e-13,3.821755565e-13,1.226275146e-12,3.588796586e-13,3.646795824e-13,1.276896404e-13,4.588132023e-13,3.766756012e-13,7.703197091e-13,3.636735631e-13,5.718711311e-13,3.905748543e-13,5.045849566e-13,1.705932030e-13,1.984084677e-12,1.664019901e-12,1.476195761e-12,6.633247150e-13,3.001722775e-13,1.632620686e-12,3.707531203e-13,4.406730562e-13,2.177558785e-13,2.797821723e-13,1.891143928e-14,3.544880828e-13,7.366366994e-14,1.614732479e-13,4.125639075e-13,2.901772853e-13,4.568213632e-13,4.878440690e-13
1.6406,6.407683363e-13,3.848109174e-13,1.229103212e-12,3.353592527e-13,3.480278662e-13,1.191508224e-13,4.662655637e-13,3.557786135e-13,7.455113772e-13,3.890347920e-13,5.837013784e-13,3.898203604e-13,4.984090115e-13,1.666580472e-13,1.884883967e-12,1.566381135e-12,1.368740405e-12,6.220259277e-13,2.917289313e-13,1.537558179e-12,3.745184325e-13,4.597858678e-13,2.231619059e-13,2.780944187e-13,1.804444373e-14,3.423200974e-13,7.120116821e-14,1.621883820e-13,4.276171943e-13,3.007638164e-13,4.568194231e-13,4.681798875e-13
1.6484,6.406824458e-13,3.884855765e-13,1.231073676e-12,3.137724348e-13,3.331936673e-13,1.117638037e-13,4.730287128e-13,3.349490694e-13,7.192120967e-13,4.155193266e-13,5.951383852e-13,3.888256975e-13,4.938738194e-13,1.632300710e-13,1.792643511e-12,1.475920075e-12,1.268148828e-12,5.820967203e-13,2.834731572e-13,1.450480509e-12,3.793493291e-13,4.788099923e-13,2.281769952e-13,2.765528791e-13,1.714735052e-14,3.300548670e-13,6.957977790e-14,1.635459460e-13,4.414131932e-13,3.109018207e-13,4.576525359e-13,4.505446662e-13
1.6562,6.416069429e-13,3.942004396e-13,1.231944385e-12,2.939887767e-13,3.203641060e-13,1.056490351e-13,4.791950544e-13,3.147322884e-13,6.919892774e-13,4.434218494e-13,6.059160786e-13,3.873906461e-13,4.903110941e-13,1.602529751e-13,1.707850572e-12,1.393084056e-12,1.175256627e-12,5.445877627e-13,2.765241309e-13,1.371197851e-12,3.848628870e-13,4.979783737e-13,2.331079899e-13,2.755161015e-13,1.632422757e-14,3.182463432e-13,6.874469811e-14,1.645270181e-13,4.552921381e-13,3.204825003e-13,4.595256447e-13,4.342925450e-13
1.6641,6.441043072e-13,4.008665906e-13,1.231136252e-12,2.751329090e-13,3.085132028e-13,1.004385893e-13,4.844022893e-13,2.955439970e-13,6.638725959e-13,4.720471421e-13,6.162505040e-13,3.854073174e-13,4.875411160e-13,1.578357040e-13,1.630384213e-12,1.317410159e-12,1.089198819e-12,5.094189701e-13,2.702680478e-13,1.298178374e-12,3.908200623e-13,5.187659303e-13,2.383030055e-13,2.745939704e-13,1.561648622e-14,3.069912012e-13,6.869844614e-14,1.664406321e-13,4.693340371e-13,3.297718346e-13,4.618961843e-13,4.201974206e-13
1.6719,6.468945118e-13,4.076000535e-13,1.229073965e-12,2.570950516e-13,2.973250996e-13,9.630179753e-14,4.888934786e-13,2.784416757e-13,6.360993775e-13,5.004196759e-13,6.261272864e-13,3.837555846e-13,4.858909392e-13,1.559369285e-13,1.560639391e-12,1.249207320e-12,1.010215560e-12,4.761114595e-13,2.643052225e-13,1.232223736e-12,3.969619113e-13,5.390058505e-13,2.432634895e-13,2.730749874e-13,1.499025553e-14,2.964936098e-13,6.944369152e-14,1.689070624e-13,4.823821095e-13,3.389800328e-13,4.643596755e-13,4.081093457e-13
1.6797,6.490849753e-13,4.152866586e-13,1.226493833e-12,2.401190018e-13,2.875140005e-13,9.314117274e-14,4.931107872e-13,2.630895506e-13,6.091706414e-13,5.286642765e-13,6.352317591e-13,3.826239023e-13,4.851920121e-13,1.545965782e-13,1.498272674e-12,1.188776195e-12,9.385575745e-13,4.452671179e-13,2.589297486e-13,1.172926003e-12,4.031995172e-13,5.587597557e-13,2.475401542e-13,2.709487388e-13,1.443559398e-14,2.868002685e-13,7.094819791e-14,1.711789356e-13,4.945859631e-13,3.478358857e-13,4.669968986e-13,3.983463120e-13
1.6875,6.505353080e-13,4.238676752e-13,1.223078774e-12,2.244217071e-13,2.793849592e-13,9.079288740e-14,4.968377172e-13,2.487853786e-13,5.826995737e-13,5.555885266e-13,6.436853766e-13,3.819021401e-13,4.854834260e-13,1.538487911e-13,1.442254930e-12,1.135279558e-12,8.735119753e-13,4.173329201e-13,2.542755241e-13,1.118611587e-12,4.097897970e-13,5.775774146e-13,2.509537541e-13,2.684506415e-13,1.397840367e-14,2.780345969e-13,7.339657677e-14,1.743388281e-13,5.064988729e-13,3.559762235e-13,4.701104953e-13,3.899930583e-13
1.6953,6.513681966e-13,4.328221679e-13,1.218220603e-12,2.099553197e-13,2.726627777e-13,8.933664425e-14,4.999755851e-13,2.351958516e-13,5.566846577e-13,5.811103101e-13,6.514958162e-13,3.815771798e-13,4.866199955e-13,1.532843529e-13,1.392645553e-12,1.088588699e-12,8.150477497e-13,3.921127849e-13,2.502778658e-13,1.069675757e-12,4.167036324e-13,5.940257447e-13,2.536040691e-13,2.653170012e-13,1.365948709e-14,2.701734485e-13,7.708323831e-14,1.775595836e-13,5.171218399e-13,3.634178354e-13,4.731617757e-13,3.819028233e-13
1.7031,6.517495570e-13,4.417116056e-13,1.211786435e-12,1.966484020e-13,2.670601478e-13,8.869769227e-14,5.028311306e-13,2.219685280e-13,5.307116381e-13,6.059522921e-13,6.584572310e-13,3.810280204e-13,4.885245281e-13,1.526068025e-13,1.349310567e-12,1.048848673e-12,7.630639206e-13,3.691925345e-13,2.463048345e-13,1.025947768e-12,4.238373341e-13,6.098229572e-13,2.558117123e-13,2.615961617e-13,1.347832292e-14,2.623677769e-13,8.178790099e-14,1.806074464e-13,5.253827692e-13,3.701485097e-13,4.750862804e-13,3.749992292e-13
1.7109,6.520578935e-13,4.502880044e-13,1.204398954e-12,1.843718525e-13,2.622063541e-13,8.889809088e-14,5.055620551e-13,2.100898794e-13,5.055022399e-13,6.295568954e-13,6.645782446e-13,3.806875529e-13,4.917905847e-13,1.517552464e-13,1.311262589e-12,1.015085775e-12,7.172624373e-13,3.480688801e-13,2.422408110e-13,9.873379377e-13,4.309800283e-13,6.244049296e-13,2.575093990e-13,2.573346219e-13,1.339187022e-14,2.545682675e-13,8.719542553e-14,1.848480774e-13,5.318014352e-13,3.763328257e-13,4.759677114e-13,3.687523634e-13
1.7188,6.527720018e-13,4.591376427e-13,1.196707680e-12,1.724766448e-13,2.578898502e-13,8.983420883e-14,5.083435624e-13,1.997697388e-13,4.820134303e-13,6.525972652e-13,6.694636895e-13,3.812841560e-13,4.967963081e-13,1.509186813e-13,1.278583057e-12,9.871182850e-13,6.775485984e-13,3.286963971e-13,2.387025139e-13,9.534867471e-13,4.376537828e-13,6.369884951e-13,2.586557543e-13,2.519001217e-13,1.339916678e-14,2.477969267e-13,9.340480131e-14,1.892987832e-13,5.365626258e-13,3.824050884e-13,4.764004235e-13,3.623858620e-13
1.7266,6.534854052e-13,4.680938723e-13,1.188337745e-12,1.608133329e-13,2.544775091e-13,9.139141687e-14,5.115499156e-13,1.900808652e-13,4.595808300e-13,6.752025352e-13,6.726399175e-13,3.824032822e-13,5.035877201e-13,1.507013409e-13,1.251953354e-12,9.659177771e-13,6.437479740e-13,3.115053056e-13,2.358904223e-13,9.227390962e-13,4.438420872e-13,6.492801300e-13,2.593687411e-13,2.456096085e-13,1.358280940e-14,2.423755176e-13,1.003630282e-13,1.935027108e-13,5.392433570e-13,3.879843236e-13,4.765384310e-13,3.568980231e-13
1.7344,6.540471754e-13,4.766313201e-13,1.179406875e-12,1.500271385e-13,2.525153826e-13,9.390811136e-14,5.155289993e-13,1.817875853e-13,4.385336765e-13,6.966255789e-13,6.745027237e-13,3.840937060e-13,5.116880179e-13,1.512347929e-13,1.231306860e-12,9.516593268e-13,6.161507682e-13,2.967859129e-13,2.337196211e-13,8.957620742e-13,4.497112790e-13,6.601332044e-13,2.595242785e-13,2.397161718e-13,1.396312220e-14,2.379812126e-13,1.079071579e-13,1.981710590e-13,5.396882891e-13,3.925680374e-13,4.759324137e-13,3.522378632e-13
1.7422,6.550248245e-13,4.855026679e-13,1.170837094e-12,1.404258603e-13,2.520953273e-13,9.740582006e-14,5.199024472e-13,1.753500923e-13,4.195679671e-13,7.181761245e-13,6.753510233e-13,3.864708866e-13,5.200739820e-13,1.521863134e-13,1.216176978e-12,9.438051552e-13,5.946005853e-13,2.844095179e-13,2.321168189e-13,8.725536948e-13,4.550390443e-13,6.698770895e-13,2.592624652e-13,2.342081627e-13,1.441954223e-14,2.343001429e-13,1.162360113e-13,2.026544949e-13,5.379237508e-13,3.967813263e-13,4.742330610e-13,3.481854044e-13
1.75,6.563499480e-13,4.951866729e-13,1.162180448e-12,1.318937163e-13,2.529282138e-13,1.015703718e-13,5.235324222e-13,1.699154753e-13,4.018034537e-13,7.401329743e-13,6.747677818e-13,3.891565666e-13,5.283102482e-13,1.534122191e-13,1.205609898e-12,9.418143883e-13,5.784613640e-13,2.740670880e-13,2.310446367e-13,8.514510899e-13,4.598712477e-13,6.804343160e-13,2.587804864e-13,2.286086797e-13,1.498797734e-14,2.314217013e-13,1.255808042e-13,2.072928669e-13,5.346324016e-13,4.009116290e-13,4.722415018e-13,3.447923722e-13
1.7578,6.585385520e-13,5.054913603e-13,1.152576128e-12,1.242271838e-13,2.549295806e-13,1.063993070e-13,5.264316377e-13,1.651188717e-13,3.845139522e-13,7.617507846e-13,6.726626529e-13,3.920225159e-13,5.365765870e-13,1.548640626e-13,1.198689007e-12,9.449665636e-13,5.677499417e-13,2.655479241e-13,2.304643710e-13,8.339022992e-13,4.646250972e-13,6.904865826e-13,2.580467858e-13,2.235265659e-13,1.586022376e-14,2.297334387e-13,1.358677193e-13,2.121523473e-13,5.300461606e-13,4.043886510e-13,4.703469099e-13,3.415609045e-13
1.7656,6.622200114e-13,5.164524022e-13,1.142204820e-12,1.171826572e-13,2.582393809e-13,1.118296006e-13,5.298941490e-13,1.607448806e-13,3.677087952e-13,7.838901164e-13,6.692337191e-13,3.947882201e-13,5.451559833e-13,1.569063565e-13,1.195626759e-12,9.528397971e-13,5.620511563e-13,2.586855544e-13,2.303504685e-13,8.209689312e-13,4.692357675e-13,7.006994927e-13,2.571869988e-13,2.188061411e-13,1.701265432e-14,2.289968592e-13,1.468262885e-13,2.161760206e-13,5.245687017e-13,4.074126681e-13,4.682369139e-13,3.389395165e-13
1.7734,6.665635565e-13,5.278933122e-13,1.131120325e-12,1.106371406e-13,2.628444110e-13,1.179035738e-13,5.340498512e-13,1.570358788e-13,3.518926160e-13,8.061993333e-13,6.642783895e-13,3.977065324e-13,5.541373950e-13,1.599196037e-13,1.196734558e-12,9.657271479e-13,5.608759093e-13,2.537672642e-13,2.309701059e-13,8.118347060e-13,4.731353199e-13,7.117371365e-13,2.560212398e-13,2.133765983e-13,1.838718023e-14,2.289861701e-13,1.582852362e-13,2.201698674e-13,5.190583616e-13,4.104395829e-13,4.662176623e-13,3.370151925e-13
1.7812,6.715990132e-13,5.399221553e-13,1.119577621e-12,1.048315051e-13,2.687525850e-13,1.248388958e-13,5.378982110e-13,1.543551611e-13,3.373397237e-13,8.275791153e-13,6.575635554e-13,4.011769581e-13,5.631901127e-13,1.634520021e-13,1.201717723e-12,9.837814463e-13,5.644517091e-13,2.513464976e-13,2.322092946e-13,8.065662299e-13,4.761094509e-13,7.221084048e-13,2.545217498e-13,2.077516113e-13,2.006821598e-14,2.301802339e-13,1.704497418e-13,2.244427371e-13,5.127645672e-13,4.128956392e-13,4.640328545e-13,3.354289100e-13
1.7891,6.776527629e-13,5.524920458e-13,1.108088606e-12,1.002352412e-13,2.759090561e-13,1.324084336e-13,5.409687071e-13,1.523422383e-13,3.236301512e-13,8.481250851e-13,6.493601374e-13,4.044979167e-13,5.719182607e-13,1.669275101e-13,1.210529615e-12,1.006665192e-12,5.724873326e-13,2.510108698e-13,2.334511313e-13,8.045598443e-13,4.783181456e-13,7.333088134e-13,2.532407381e-13,2.024144567e-13,2.202792586e-14,2.327897494e-13,1.835742009e-13,2.285904825e-13,5.061858711e-13,4.142147125e-13,4.611002479e-13,3.351250261e-13
