Time,Fp1,AF3,F7,F3,FC1,FC5,T7,C3,CP1,CP5,P7,P3,Pz,PO3,O1,Oz,O2,PO4,P4,P8,CP6,CP2,C4,T8,FC6,FC2,F4,F8,AF4,Fp2,Fz,Cz,
0,3.338597846e-09,1.980378118e-09,3.095867759e-09,9.247126922e-10,1.545961640e-10,7.655428125e-10,3.008962799e-09,4.614413654e-10,9.028986769e-11,8.855221788e-10,3.880291089e-09,7.343684352e-10,8.941603170e-11,9.858816977e-10,1.645435659e-09,3.017987955e-09,3.154301634e-09,2.283790363e-09,1.630233081e-09,4.025966813e-09,2.290088196e-09,3.974840482e-10,3.006609457e-10,4.105502213e-09,2.571533596e-09,7.737131974e-12,1.769542738e-09,2.652923620e-09,2.276966792e-09,8.480098758e-09,3.009139462e-11,7.099260888e-10
0.0078125,3.315925742e-09,1.969551676e-09,3.077172053e-09,9.191502456e-10,1.538869813e-10,7.602091561e-10,2.990807978e-09,4.612815917e-10,9.000428536e-11,8.782890979e-10,3.852219738e-09,7.286238553e-10,8.976457564e-11,9.853139191e-10,1.632719109e-09,2.993971903e-09,3.130004226e-09,2.270741673e-09,1.622589378e-09,3.995205032e-09,2.277229971e-09,3.962069957e-10,3.019408768e-10,4.080745775e-09,2.563277725e-09,7.749050277e-12,1.764167588e-09,2.636725958e-09,2.267528403e-09,8.420068044e-09,2.997904278e-11,7.087106661e-10
0.015625,3.267275422e-09,1.943196093e-09,3.034197999e-09,9.063310024e-10,1.519664918e-10,7.489215371e-10,2.949088061e-09,4.577756084e-10,8.900326896e-11,8.642089540e-10,3.793831798e-09,7.171234427e-10,8.946425875e-11,9.769029286e-10,1.607134414e-09,2.946404093e-09,3.081046005e-09,2.239642933e-09,1.602002304e-09,3.933049706e-09,2.246321329e-09,3.917721252e-10,3.008854606e-10,4.023798209e-09,2.534675150e-09,7.705556663e-12,1.744796270e-09,2.599642817e-09,2.240162051e-09,8.294053361e-09,2.961642050e-11,7.017941342e-10
0.023438,3.193995596e-09,1.902085819e-09,2.968242515e-09,8.866219393e-10,1.488909405e-10,7.320132725e-10,2.885067260e-09,4.510048829e-10,8.731754616e-11,8.436899819e-10,3.706799782e-09,7.002096166e-10,8.852791330e-11,9.609414973e-10,1.569404880e-09,2.876601385e-09,3.008792661e-09,2.191402750e-09,1.569095770e-09,3.841177170e-09,2.198252143e-09,3.843226114e-10,2.975282114e-10,3.936247046e-09,2.486574446e-09,7.606646868e-12,1.712007394e-09,2.542680722e-09,2.195647411e-09,8.105374778e-09,2.901791751e-11,6.894281740e-10
0.03125,3.097103391e-09,1.846835602e-09,2.880369815e-09,8.603256214e-10,1.447028937e-10,7.097404099e-10,2.799714234e-09,4.411114159e-10,8.497380870e-11,8.170419079e-10,3.592554182e-09,6.781724103e-10,8.698023383e-11,9.376816032e-10,1.520166522e-09,2.785721276e-09,2.914422474e-09,2.126805432e-09,1.524400717e-09,3.721074298e-09,2.133797047e-09,3.739829270e-10,2.919350752e-10,3.819446686e-09,2.419728000e-09,7.451746124e-12,1.666312828e-09,2.466759429e-09,2.134684549e-09,7.856734127e-09,2.819976790e-11,6.718268977e-10
0.039062,2.979325318e-09,1.779025465e-09,2.773072763e-09,8.282160418e-10,1.395254502e-10,6.827201957e-10,2.695434626e-09,4.282542108e-10,8.204992328e-11,7.849736595e-10,3.454296285e-09,6.516135509e-10,8.485430872e-11,9.078806221e-10,1.460783922e-09,2.676264603e-09,2.800522792e-09,2.047683587e-09,1.469205591e-09,3.576033361e-09,2.054794483e-09,3.610846598e-10,2.842348029e-10,3.676735319e-09,2.336123605e-09,7.245265656e-12,1.609110342e-09,2.374129833e-09,2.059056041e-09,7.555176871e-09,2.718896882e-11,6.495337419e-10
0.046875,2.843965120e-09,1.700564078e-09,2.649367378e-09,7.911838510e-10,1.335005122e-10,6.517082063e-10,2.575091889e-09,4.126901668e-10,7.862723605e-11,7.483647075e-10,3.295730804e-09,6.212406991e-10,8.218333453e-11,8.723266780e-10,1.392826912e-09,2.551148303e-09,2.670131987e-09,1.956128518e-09,1.404971126e-09,3.409905058e-09,1.963336167e-09,3.459821332e-10,2.745940867e-10,3.511913730e-09,2.237949066e-09,6.993136420e-12,1.541926310e-09,2.267352886e-09,1.970812365e-09,7.209181487e-09,2.601133357e-11,6.231358302e-10
0.054688,2.694039270e-09,1.613188914e-09,2.512013937e-09,7.500460323e-10,1.267641301e-10,6.173853762e-10,2.441371726e-09,3.947790446e-10,7.478088052e-11,7.080224324e-10,3.120380643e-09,5.877389284e-10,7.902247089e-11,8.318238532e-10,1.317837669e-09,2.413234112e-09,2.526254557e-09,1.854278055e-09,1.333214621e-09,3.226526132e-09,1.861552234e-09,3.290064179e-10,2.632534257e-10,3.328747618e-09,2.127477746e-09,6.701967023e-12,1.466297591e-09,2.148879625e-09,1.872021760e-09,6.826780665e-09,2.469541906e-11,5.932334900e-10
0.0625,2.532740020e-09,1.518681601e-09,2.363847551e-09,7.056619884e-10,1.194627069e-10,5.804635889e-10,2.297089997e-09,3.749015899e-10,7.059350948e-11,6.648032128e-10,2.932012169e-09,5.518139215e-10,7.544539362e-11,7.872371171e-10,1.237429303e-09,2.265502669e-09,2.371986842e-09,1.744302561e-09,1.255461887e-09,3.029876924e-09,1.751634091e-09,3.105099593e-10,2.504510212e-10,3.131212984e-09,2.007066489e-09,6.379993043e-12,1.383836398e-09,2.021284913e-09,1.764794263e-09,6.416454016e-09,2.326600581e-11,5.604381185e-10
0.070312,2.363396378e-09,1.419001061e-09,2.207844907e-09,6.589166750e-10,1.117427105e-10,5.416926402e-10,2.145154157e-09,3.535016177e-10,6.614585699e-11,6.195902419e-10,2.734396138e-09,5.141710810e-10,7.153182232e-11,7.394157321e-10,1.153190314e-09,2.110855120e-09,2.210356050e-09,1.628315629e-09,1.173192616e-09,2.823838650e-09,1.635708296e-09,2.908492179e-10,2.364616167e-10,2.923242244e-09,1.879081737e-09,6.035400914e-12,1.296160432e-09,1.887177118e-09,1.651286267e-09,5.986685426e-09,2.174503747e-11,5.253767935e-10
0.078125,2.189509136e-09,1.316241516e-09,2.047188898e-09,6.107874129e-10,1.037660269e-10,5.018685604e-10,1.988735571e-09,3.310729988e-10,6.152856592e-11,5.733092172e-10,2.531617609e-09,4.756012037e-10,6.736837571e-11,6.893820628e-10,1.066898314e-09,1.952515196e-09,2.044767906e-09,1.508822633e-09,1.088202382e-09,2.612720952e-09,1.516252913e-09,2.704357221e-10,2.216344897e-10,2.709252575e-09,1.746363482e-09,5.676618537e-12,1.205202430e-09,1.749319668e-09,1.533989505e-09,5.546338359e-09,2.016470282e-11,4.888219917e-10
0.085938,2.014194894e-09,1.212244468e-09,1.884792432e-09,5.621752691e-10,9.568343611e-11,4.617152457e-10,1.830713618e-09,3.080762305e-10,5.682903947e-11,5.267925313e-10,2.327391124e-09,4.368115831e-10,6.304547410e-11,6.381373560e-10,9.801574414e-10,1.793399229e-09,1.878295301e-09,1.388115582e-09,1.002152445e-09,2.400397129e-09,1.395557213e-09,2.496536600e-10,2.062922157e-10,2.493284655e-09,1.611518897e-09,5.311098531e-12,1.112747957e-09,1.610181123e-09,1.415088156e-09,5.103111805e-09,1.855459221e-11,4.515012000e-10
0.09375,1.839818035e-09,1.108507307e-09,1.722909506e-09,5.137387968e-10,8.760748825e-11,4.217737141e-10,1.673243692e-09,2.849116350e-10,5.211414528e-11,4.806381302e-10,2.124370825e-09,3.982912050e-10,5.864620770e-11,5.864801271e-10,8.940555048e-10,1.635467928e-09,1.713015764e-09,1.267810398e-09,9.162289856e-10,2.189549668e-09,1.275248983e-09,2.287958673e-10,1.907207170e-10,2.278233005e-09,1.476495805e-09,4.944126010e-12,1.020116573e-09,1.471612161e-09,1.296186602e-09,4.662339064e-09,1.693645549e-11,4.139802809e-10
0.10156,1.668879704e-09,1.006598301e-09,1.563910469e-09,4.661749295e-10,7.965414587e-11,3.826122790e-10,1.518616127e-09,2.619076788e-10,4.745455006e-11,4.354796808e-10,1.925405407e-09,3.605855987e-10,5.423847922e-11,5.352312912e-10,8.097997565e-10,1.480897179e-09,1.551235694e-09,1.149695243e-09,8.317368796e-10,1.983132159e-09,1.157095686e-09,2.081805336e-10,1.751845099e-10,2.067219863e-09,1.343385076e-09,4.580405120e-12,9.287284461e-10,1.335566004e-09,1.179058701e-09,4.229823385e-09,1.533853808e-11,3.768643930e-10
0.10938,1.503723509e-09,9.079531188e-10,1.410092175e-09,4.201767501e-10,7.193570633e-11,3.447937445e-10,1.369059243e-09,2.393475624e-10,4.292009565e-11,3.919515205e-10,1.733320419e-09,3.242412619e-10,4.987912397e-11,4.851687480e-10,7.285955275e-10,1.331894946e-09,1.395260521e-09,1.035488928e-09,7.499218052e-10,1.784031067e-09,1.042804618e-09,1.881227239e-10,1.598990733e-10,1.863250631e-09,1.214124737e-09,4.223853075e-12,8.399148850e-10,1.203953999e-09,1.065373249e-09,3.811547894e-09,1.378871233e-11,3.407260609e-10
0.11719,1.346027401e-09,8.136371576e-10,1.263070533e-09,3.762369902e-10,6.453847004e-11,3.086988768e-10,1.226178046e-09,2.174683446e-10,3.856619832e-11,3.504825306e-10,1.550141515e-09,2.896381664e-10,4.561855002e-11,4.369496092e-10,6.512786790e-10,1.190004021e-09,1.246712990e-09,9.264726822e-10,6.717333184e-10,1.594297619e-09,9.336448568e-10,1.688659597e-10,1.450657299e-10,1.668536266e-09,1.090252894e-09,3.878990430e-12,7.547453560e-10,1.078236782e-09,9.564297976e-10,3.411802354e-09,1.230813647e-11,3.060202755e-10
0.125,1.197199069e-09,7.245181897e-10,1.124200494e-09,3.347644361e-10,5.753577895e-11,2.746398982e-10,1.091272629e-09,1.964327869e-10,3.443756316e-11,3.114253436e-10,1.377544315e-09,2.570855882e-10,4.149512742e-11,3.910894430e-10,5.785496455e-10,1.056525601e-09,1.106965107e-09,8.237144143e-10,5.979529983e-10,1.415714367e-09,8.306843511e-10,1.506047136e-10,1.308313961e-10,1.484960511e-09,9.730475778e-10,3.550263322e-12,6.741298926e-10,9.596376872e-10,8.533494102e-10,3.034153439e-09,1.091218983e-11,2.731035165e-10
0.13281,1.058095106e-09,6.411028065e-10,9.943266669e-10,2.959976065e-10,5.097291727e-11,2.428168580e-10,9.651237159e-10,1.763891913e-10,3.055936684e-11,2.750029786e-10,1.216462385e-09,2.267517971e-10,3.753882959e-11,3.478663868e-10,5.107794902e-10,9.321671463e-10,9.767430511e-10,7.277456073e-10,5.289670340e-10,1.249239321e-09,7.344836844e-10,1.334528223e-10,1.172878793e-10,1.313504400e-09,8.631508336e-10,3.239537628e-12,5.985085844e-10,8.488889280e-10,7.567702246e-10,2.681223468e-09,9.607445101e-12,2.421679578e-10
0.14062,9.296298629e-10,5.639258027e-10,8.742048995e-10,2.601640016e-10,4.489559266e-11,2.134037515e-10,8.485070954e-10,1.574761658e-10,2.695914606e-11,2.414179172e-10,1.067823090e-09,1.988010318e-10,3.377580362e-11,3.076041895e-10,4.483365478e-10,8.176172027e-10,8.567803486e-10,6.391505223e-10,4.652119258e-10,1.095836232e-09,6.456323201e-10,1.175290862e-10,1.045403368e-10,1.155188803e-09,7.612692092e-10,2.949450686e-12,5.283652371e-10,7.466999488e-10,6.673529869e-10,2.355551154e-09,8.401699863e-12,2.134259701e-10
0.14844,8.123274725e-10,4.933309055e-10,7.643654684e-10,2.274338109e-10,3.933346313e-11,1.865263476e-10,7.419074657e-10,1.397997350e-10,2.365569779e-11,2.107949510e-10,9.322484122e-10,1.733376669e-10,3.022870230e-11,2.705130693e-10,3.914604479e-10,7.133194581e-10,7.475499437e-10,5.583012467e-10,4.069597316e-10,9.561501338e-10,5.645110661e-10,1.029134801e-10,9.265956957e-11,1.010689873e-09,6.678659509e-10,2.681832531e-12,4.640490890e-10,6.534621216e-10,5.854910901e-10,2.058380868e-09,7.299990491e-12,1.870149996e-10
0.15625,7.059683445e-10,4.292194901e-10,6.646709095e-10,1.977593095e-10,3.427968211e-11,1.621542338e-10,6.451871011e-10,1.234419839e-10,2.064717497e-11,1.830726055e-10,8.094835295e-10,1.503063414e-10,2.691792894e-11,2.365928128e-10,3.400136601e-10,6.190078917e-10,6.487746864e-10,4.850306921e-10,3.541029325e-10,8.298220566e-10,4.909594542e-10,8.960079851e-11,8.168842997e-11,8.797025600e-10,5.828502080e-10,2.435901666e-12,4.054876597e-10,5.690063218e-10,5.110723435e-10,1.789254479e-09,6.302349226e-12,1.629363264e-10
0.16406,6.104769983e-10,3.715180491e-10,5.749658914e-10,1.710761337e-10,2.972621026e-11,1.402454523e-10,5.582287508e-10,1.084405092e-10,1.793012516e-11,1.582047477e-10,6.993203798e-10,1.296679293e-10,2.385264371e-11,2.058392818e-10,2.938925397e-10,5.344914719e-10,5.602623012e-10,4.192331874e-10,3.065740345e-10,7.165921680e-10,4.248601321e-10,7.758248590e-11,7.164964003e-11,7.620195661e-10,5.061490580e-10,2.211082725e-12,3.526149092e-10,4.931844215e-10,4.440244876e-10,1.547868245e-09,5.408742840e-12,1.411845661e-10
0.17188,5.253736080e-10,3.199619162e-10,4.948711562e-10,1.472521695e-10,2.565195258e-11,1.206997249e-10,4.805977969e-10,9.480740432e-11,1.549170690e-11,1.360677104e-10,6.011961304e-10,1.113161535e-10,2.103680887e-11,1.781415146e-10,2.528505186e-10,4.593225878e-10,4.815373310e-10,3.605832407e-10,2.641482979e-10,6.158661836e-10,3.658904571e-10,6.680698759e-11,6.254105505e-11,6.570531030e-10,4.374284975e-10,2.006488824e-12,3.052001863e-10,4.255582794e-10,3.840306143e-10,1.332955568e-09,4.615529842e-12,1.216732829e-10
0.17969,4.500417018e-10,2.742497154e-10,4.239106759e-10,1.261524398e-10,2.203592720e-11,1.033958646e-10,4.118305011e-10,8.252490445e-11,1.332238900e-11,1.165078363e-10,5.144679524e-10,9.512628120e-11,1.847595995e-11,1.534199792e-10,2.166111319e-10,3.929769075e-10,4.120528564e-10,3.087298237e-10,2.265938986e-10,5.269243210e-10,3.136991449e-10,5.722792804e-11,5.435852092e-11,5.641477412e-10,3.763841837e-10,1.821710031e-12,2.630306310e-10,3.657069514e-10,3.307752137e-10,1.143064876e-09,3.919826688e-12,1.043324590e-10
0.1875,3.838621598e-10,2.340328016e-10,3.614938959e-10,1.076139631e-10,1.885123063e-11,8.818949396e-11,3.513794419e-10,7.153757707e-11,1.140804580e-11,9.935605522e-11,4.383876176e-10,8.095272402e-11,1.616673098e-11,1.315361021e-10,1.848446571e-10,3.348568101e-10,3.511828785e-10,2.632324380e-10,1.935976518e-10,4.489691440e-10,2.678494027e-10,4.878316952e-11,4.705741950e-11,4.825349589e-10,3.225689824e-10,1.655721251e-12,2.258121343e-10,3.131375748e-10,2.838599427e-10,9.764649840e-10,3.315131507e-12,8.904372596e-11
0.19531,3.259750677e-10,1.987940988e-10,3.068236209e-10,9.138878103e-11,1.605780454e-11,7.487975874e-11,2.984415959e-10,6.177568065e-11,9.724762924e-12,8.437416984e-11,3.719058929e-10,6.859504452e-11,1.409669615e-11,1.122472007e-10,1.571039360e-10,2.841425707e-10,2.980645832e-10,2.234752183e-10,1.647246663e-10,3.809188505e-10,2.277338155e-10,4.137167021e-11,4.057939722e-11,4.111121749e-10,2.753030100e-10,1.506366203e-12,1.930786798e-10,2.671261347e-10,2.426733104e-10,8.308660479e-10,2.792715841e-12,7.562556396e-11
0.20312,2.757195066e-10,1.681458939e-10,2.592969360e-10,7.728607904e-11,1.362603337e-11,6.331219833e-11,2.524342491e-10,5.315185945e-11,8.256340773e-12,7.138075559e-11,3.142541445e-10,5.790220490e-11,1.224974151e-11,9.537929376e-11,1.330666048e-10,2.402276397e-10,2.520647424e-10,1.890078407e-10,1.396596807e-10,3.219689145e-10,1.929084125e-10,3.491864765e-11,3.487298416e-11,3.490733219e-10,2.341060657e-10,1.373349580e-12,1.645159959e-10,2.271393073e-10,2.067735693e-10,7.044710245e-10,2.345747362e-12,6.394230109e-11
0.21094,2.322930320e-10,1.416501198e-10,2.182194035e-10,6.509880131e-11,1.152104877e-11,5.331643270e-11,2.126805523e-10,4.557551965e-11,6.983013250e-12,6.017582618e-11,2.645320771e-10,4.870071404e-11,1.061126468e-11,8.071765606e-11,1.123391903e-10,2.023979881e-10,2.124336449e-10,1.592856609e-10,1.180139653e-10,2.711860358e-10,1.628388770e-10,2.933396716e-11,2.987430276e-11,2.954605701e-10,1.984023069e-10,1.255547307e-12,1.397460258e-10,1.925664822e-10,1.756638887e-10,5.952138226e-10,1.965734119e-12,5.382674036e-11
0.21875,1.948719020e-10,1.188470588e-10,1.828805119e-10,5.462660969e-11,9.708040327e-12,4.472067476e-11,1.784803940e-10,3.895533660e-11,5.885568985e-12,5.055539058e-11,2.218462601e-10,4.082320058e-11,9.166728795e-12,6.804799437e-11,9.454004666e-11,1.699566215e-10,1.784395533e-10,1.337784525e-10,9.941188265e-11,2.276344234e-10,1.369952550e-10,2.453243564e-11,2.551816411e-11,2.493140078e-10,1.675991911e-10,1.149931935e-12,1.183371291e-10,1.628116159e-10,1.488125802e-10,5.013036356e-10,1.646914966e-12,4.512499276e-11
0.22656,1.628185122e-10,9.931691484e-11,1.526343627e-10,4.567156434e-11,8.153854355e-12,3.736645508e-11,1.492191025e-10,3.319507763e-11,4.944737855e-12,4.234171650e-11,1.854169261e-10,3.412055112e-11,7.898141054e-12,5.715561501e-11,7.934497793e-11,1.423010718e-10,1.494503687e-10,1.120084620e-10,8.350777021e-11,1.904905907e-10,1.148987139e-10,2.042916611e-11,2.173858770e-11,2.097980228e-10,1.411422227e-10,1.055327939e-12,9.990812808e-11,1.373155878e-10,1.257099019e-10,4.209527040e-10,1.382585243e-12,3.768048912e-11
0.23438,1.355006516e-10,8.265690705e-11,1.268521214e-10,3.802968614e-11,6.824811624e-12,3.109448227e-11,1.242890289e-10,2.820575562e-11,4.140072405e-12,3.535557973e-11,1.544402143e-10,2.844001237e-11,6.789607186e-12,4.782566799e-11,6.641240135e-11,1.188020703e-10,1.248082435e-10,9.349844511e-11,6.995951432e-11,1.589214779e-10,9.607440039e-11,1.693279643e-11,1.847684200e-11,1.760718861e-10,1.185131221e-10,9.712647069e-13,8.412691850e-11,1.155075051e-10,1.059035255e-10,3.522303585e-10,1.164536748e-12,3.133463699e-11
0.24219,1.123022859e-10,6.853386992e-11,1.050050958e-10,3.155410616e-11,5.695573866e-12,2.577664403e-11,1.031634406e-10,2.390144302e-11,3.457320034e-12,2.944289348e-11,1.282460488e-10,2.365301759e-11,5.826219378e-12,3.988983693e-11,5.545821700e-11,9.893963867e-11,1.039709169e-10,7.785188646e-11,5.848561299e-11,1.322344755e-10,8.012926983e-11,1.397565375e-11,1.567585655e-11,1.474308512e-10,9.927519808e-11,8.964437485e-13,7.068846784e-11,9.694395015e-11,8.902323667e-11,2.937814770e-10,9.863484456e-13,2.596278265e-11
0.25,9.264564656e-11,5.659514933e-11,8.654695317e-11,2.608418846e-11,4.738861403e-12,2.128189293e-11,8.530488772e-11,2.019985074e-11,2.879516346e-12,2.445268553e-11,1.061574166e-10,1.963185126e-11,4.993379562e-12,3.316041102e-11,4.620466180e-11,8.220066017e-11,8.640138387e-11,6.466009589e-11,4.879167175e-11,1.097356634e-10,6.665547817e-11,1.148276443e-11,1.327712329e-11,1.231547607e-10,8.295164813e-11,8.299738689e-13,5.926273083e-11,8.116356617e-11,7.465090186e-11,2.441527337e-10,8.413088354e-13,2.142798227e-11
0.25781,7.605615052e-11,4.655054801e-11,7.102721773e-11,2.148154040e-11,3.930938568e-12,1.750003242e-11,7.027934095e-11,1.702476325e-11,2.392210852e-12,2.025986296e-11,8.760724098e-11,1.627063312e-11,4.277354471e-12,2.747931643e-11,3.841472047e-11,6.814410174e-11,7.163665368e-11,5.357845252e-11,4.062774429e-11,9.083091499e-11,5.530944032e-11,9.391631999e-12,1.122705860e-11,1.026391916e-10,6.915326081e-11,7.704973057e-13,4.959318992e-11,6.777818886e-11,6.244382988e-11,2.020673800e-10,7.241392886e-13,1.761829365e-11
0.26562,6.207444885e-11,3.814328411e-11,5.803823070e-11,1.763729147e-11,3.252349772e-12,1.433555244e-11,5.770186672e-11,1.430719331e-11,1.983955825e-12,1.675333831e-11,7.211150403e-11,1.347506641e-11,3.661108667e-12,2.270271227e-11,3.189459969e-11,5.640462571e-11,5.929801988e-11,4.431733537e-11,3.378565278e-11,7.503143999e-11,4.580227494e-11,7.649015559e-12,9.478821321e-12,8.537935219e-11,5.753312914e-11,7.166266991e-13,4.143512176e-11,5.648413385e-11,5.211526622e-11,1.665709068e-10,6.304321509e-13,1.443468399e-11
0.27344,5.038125254e-11,3.111465064e-11,4.719561602e-11,1.442693422e-11,2.683367850e-12,1.169245107e-11,4.720505209e-11,1.198670740e-11,1.642267595e-12,1.382946864e-11,5.921242798e-11,1.116007653e-11,3.129921909e-12,1.869124459e-11,2.646581460e-11,4.664365514e-11,4.903128286e-11,3.661153010e-11,2.807555908e-11,6.188049679e-11,3.786420106e-11,6.199168288e-12,7.994107952e-12,7.090259369e-11,4.777148048e-11,6.679788145e-13,3.456479081e-11,4.698501157e-11,4.342325477e-11,1.367705450e-10,5.559692294e-13,1.178084192e-11
0.28125,4.072994740e-11,2.528038560e-11,3.820621253e-11,1.174989368e-11,2.208406107e-12,9.495706510e-12,3.848422313e-11,1.000915355e-11,1.358501429e-12,1.139979028e-11,4.850527207e-11,9.247365152e-12,2.673665779e-12,1.534315733e-11,2.194254370e-11,3.852953773e-11,4.048267483e-11,3.020156957e-11,2.331033443e-11,5.093704450e-11,3.124549444e-11,5.001799734e-12,6.733643298e-12,5.878169165e-11,3.959796060e-11,6.237938274e-13,2.880066072e-11,3.902141953e-11,3.614272119e-11,1.119150201e-10,4.967160954e-13,9.577839918e-12
0.28906,3.274710163e-11,2.047672097e-11,3.078170124e-11,9.534060095e-12,1.813911446e-12,7.679076888e-12,3.125331830e-11,8.329000601e-12,1.124045731e-12,9.382497494e-12,3.962296919e-11,7.664619076e-12,2.281787226e-12,1.255599080e-11,1.816544293e-11,3.178014343e-11,3.336620524e-11,2.486777109e-11,1.933280086e-11,4.184165544e-11,2.573141109e-11,4.017780986e-12,5.663678889e-12,4.864314021e-11,3.275394536e-11,5.830039006e-13,2.395863290e-11,3.236464262e-11,3.002901228e-11,9.126773566e-11,4.494801809e-13,7.754256335e-12
0.29688,2.615911342e-11,1.653664621e-11,2.468076687e-11,7.715943497e-12,1.488655185e-12,6.185983723e-12,2.529184896e-11,6.907250837e-12,9.310913213e-13,7.715986774e-12,3.230354816e-11,6.363887534e-12,1.945590152e-12,1.024406841e-11,1.504057257e-11,2.621603763e-11,2.749996317e-11,2.046615909e-11,1.603594231e-11,3.435135732e-11,2.116892472e-11,3.214350813e-12,4.757790134e-12,4.021491278e-11,2.704934199e-11,5.449027542e-13,1.990768496e-11,2.682104440e-11,2.492609740e-11,7.423453541e-11,4.115287128e-13,6.255303123e-12
0.30469,2.078568877e-11,1.331151812e-11,1.968980194e-11,6.223624804e-12,1.221703097e-12,4.961681379e-12,2.039148740e-11,5.708939870e-12,7.733308848e-13,6.339325342e-12,2.628558114e-11,5.294567006e-12,1.658779990e-12,8.335685884e-12,1.246020984e-11,2.163404760e-11,2.266308888e-11,1.683412642e-11,1.330175735e-11,2.818160446e-11,1.739601423e-11,2.562390119e-12,3.992019551e-12,3.321732893e-11,2.230503049e-11,5.092268396e-13,1.652581511e-11,2.220724977e-11,2.068110849e-11,6.026704204e-11,3.798938377e-13,5.026445031e-12
0.3125,1.641665625e-11,1.068772466e-11,1.562021359e-11,4.997320194e-12,1.002677240e-12,3.959223595e-12,1.637306862e-11,4.703889056e-12,6.441424887e-13,5.204240189e-12,2.134515259e-11,4.416740608e-12,1.415648746e-12,6.761859007e-12,1.032877587e-11,1.786073273e-11,1.867483211e-11,1.383986240e-11,1.103621653e-11,2.310356568e-11,1.427873894e-11,2.033236525e-12,3.346576720e-12,2.740939715e-11,1.836184483e-11,4.760673488e-13,1.370352973e-11,1.837180038e-11,1.714462849e-11,4.882200546e-11,3.535586172e-13,4.020951316e-12
0.32031,1.276217522e-11,8.415748822e-12,1.220162742e-11,3.944333160e-12,7.992608460e-13,3.119559934e-12,1.307723944e-11,3.866936533e-12,5.192754104e-13,4.316425355e-12,1.748624623e-11,3.797242529e-12,1.205532051e-12,5.306479100e-12,8.712401936e-12,1.496422385e-11,1.558381046e-11,1.151758237e-11,9.235334912e-12,1.903627231e-11,1.169055728e-11,1.558211388e-12,2.800841353e-12,2.248301385e-11,1.494445593e-11,4.418998343e-13,1.127006962e-11,1.500569988e-11,1.409715617e-11,3.907225748e-11,3.407622516e-13,3.184042946e-12
0.32812,9.909131013e-12,6.698357908e-12,9.545134679e-12,3.142618746e-12,6.517871187e-13,2.470819649e-12,1.045297101e-11,3.180158284e-12,4.336261257e-13,3.579764985e-12,1.429916494e-11,3.250222846e-12,1.043251104e-12,4.256928889e-12,7.324062379e-12,1.249327757e-11,1.295102018e-11,9.520043778e-12,7.689778173e-12,1.565460874e-11,9.588493985e-12,1.225363526e-12,2.345126153e-12,1.854581173e-11,1.226476104e-11,4.123075593e-13,9.348809358e-12,1.239636394e-11,1.169472611e-11,3.143533262e-11,3.226076444e-13,2.534839593e-12
0.33594,7.628106251e-12,5.392723415e-12,7.447496479e-12,2.505613136e-12,5.414064269e-13,1.942451175e-12,8.304042691e-12,2.612347471e-12,3.664719345e-13,2.951675360e-12,1.161117412e-11,2.750345339e-12,9.001437574e-13,3.444147118e-12,6.136884172e-12,1.042696329e-11,1.076532353e-11,7.868981349e-12,6.428163796e-12,1.291710374e-11,7.891616932e-12,9.579366696e-13,1.973255969e-12,1.530680437e-11,1.008072821e-11,3.864190756e-13,7.760745715e-12,1.023184684e-11,9.706024630e-12,2.527177904e-11,3.009679573e-13,1.995755245e-12
0.34375,5.795693860e-12,4.336317345e-12,5.763506261e-12,1.992913588e-12,4.485637766e-13,1.520491354e-12,6.572604455e-12,2.143011647e-12,3.113925272e-13,2.440048322e-12,9.434845977e-12,2.347013148e-12,7.761524131e-13,2.773164591e-12,5.159675788e-12,8.725312273e-12,8.960500822e-12,6.507402003e-12,5.373272386e-12,1.064990784e-11,6.485776355e-12,7.483689749e-13,1.660236595e-12,1.262816467e-11,8.276059744e-12,3.606405247e-13,6.448538097e-12,8.436839607e-12,8.060460527e-12,2.019216904e-11,2.834101532e-13,1.568214139e-12
0.35156,4.352517168e-12,3.495385225e-12,4.429462305e-12,1.583869324e-12,3.730267287e-13,1.185399123e-12,5.168805369e-12,1.757931676e-12,2.681924473e-13,2.012577977e-12,7.625630040e-12,2.000466543e-12,6.705993344e-13,2.241565167e-12,4.323707007e-12,7.281222589e-12,7.427400894e-12,5.351706152e-12,4.473507852e-12,8.747106974e-12,5.314786671e-12,5.883969582e-13,1.396504793e-12,1.040545676e-11,6.792855857e-12,3.356167379e-13,5.364367304e-12,6.966963528e-12,6.696947456e-12,1.602789775e-11,2.671590550e-13,1.227483696e-12
0.35938,3.292694009e-12,2.937834422e-12,3.428815994e-12,1.265622221e-12,3.213437153e-13,9.103725564e-13,3.971838719e-12,1.443533209e-12,2.426859130e-13,1.600609556e-12,5.891472252e-12,1.604564198e-12,5.867097851e-13,1.847286133e-12,3.553028750e-12,5.983060440e-12,6.065130592e-12,4.302821796e-12,3.641282339e-12,7.039963247e-12,4.272198262e-12,4.639954551e-13,1.167323995e-12,8.560567183e-12,5.551831812e-12,3.123133962e-13,4.438493999e-12,5.855240246e-12,5.558030263e-12,1.269459792e-11,2.422311046e-13,9.294333163e-13
0.36719,2.485377129e-12,2.516702145e-12,2.687940408e-12,1.029346069e-12,2.769697154e-13,7.076083815e-13,3.118763885e-12,1.183892471e-12,2.140264862e-13,1.314479392e-12,4.725563226e-12,1.352729201e-12,5.124022014e-13,1.512443263e-12,3.029344761e-12,5.101685162e-12,5.131705298e-12,3.586288102e-12,3.065095327e-12,5.878309937e-12,3.532494509e-12,3.663072645e-13,9.841523564e-13,7.135789301e-12,4.583953797e-12,2.893504804e-13,3.725887696e-12,4.900830008e-12,4.654556392e-12,1.006805110e-11,2.264759156e-13,7.200516773e-13
0.375,1.804162260e-12,2.081463976e-12,2.064247894e-12,8.172899183e-13,2.294322078e-13,5.422592259e-13,2.443088153e-12,9.727292169e-13,1.851546315e-13,1.107415715e-12,3.877604192e-12,1.198388136e-12,4.581676046e-13,1.215832965e-12,2.619873229e-12,4.429086822e-12,4.404694587e-12,3.037951894e-12,2.613555737e-12,4.971499961e-12,2.931041023e-12,2.830039566e-13,8.277163226e-13,5.892934515e-12,3.768879836e-12,2.663480948e-13,3.118220000e-12,4.045300444e-12,3.867060221e-12,7.906721637e-12,2.194970214e-13,5.621652998e-13
0.38281,1.311088635e-12,1.778135758e-12,1.588919320e-12,6.561957686e-13,1.939714200e-13,4.140982645e-13,1.910337634e-12,8.032229918e-13,1.627569069e-13,9.390506323e-13,3.196482123e-12,1.068092948e-12,4.216403739e-13,9.918966088e-13,2.289335272e-12,3.881458695e-12,3.808990307e-12,2.577032310e-12,2.226405669e-12,4.219226912e-12,2.432968712e-12,2.220358605e-13,6.957836005e-13,4.880458989e-12,3.107209458e-12,2.453071928e-13,2.627956893e-12,3.362480073e-12,3.238639084e-12,6.218679269e-12,2.093865811e-13,4.370110850e-13
0.39062,9.453493881e-13,1.556840672e-12,1.213375916e-12,5.338235974e-13,1.667179319e-13,3.135668678e-13,1.486870244e-12,6.675206709e-13,1.433054172e-13,8.045755090e-13,2.667723945e-12,9.664346403e-13,3.929349771e-13,8.139464037e-13,2.026949909e-12,3.437532321e-12,3.321804289e-12,2.198085038e-12,1.907534105e-12,3.605259139e-12,2.028653012e-12,1.741798184e-13,5.880233309e-13,4.044927362e-12,2.561783772e-12,2.255006568e-13,2.225755001e-12,2.793820786e-12,2.730903091e-12,4.883889765e-12,1.973981409e-13,3.353993125e-13
0.39844,6.995479826e-13,1.383191050e-12,9.385577765e-13,4.368033315e-13,1.441920924e-13,2.384043130e-13,1.163960997e-12,5.588943464e-13,1.277898784e-13,6.982753214e-13,2.252957834e-12,8.869709863e-13,3.669649379e-13,6.737829691e-13,1.814687215e-12,3.085126649e-12,2.929374830e-12,1.898532127e-12,1.646153641e-12,3.090943461e-12,1.693135828e-12,1.384350781e-13,5.006553235e-13,3.359797162e-12,2.121607628e-12,2.067922724e-13,1.892147756e-12,2.352803074e-12,2.316551632e-12,3.899410080e-12,1.864667955e-13,2.569830834e-13
0.40625,5.376084158e-13,1.261288292e-12,7.329088342e-13,3.641219450e-13,1.274584839e-13,1.816703806e-13,9.067369136e-13,4.702543699e-13,1.151110208e-13,6.057531272e-13,1.899145386e-12,8.128158009e-13,3.381371727e-13,5.675984288e-13,1.622272746e-12,2.767178865e-12,2.578684006e-12,1.639748951e-12,1.422839811e-12,2.638855303e-12,1.413042068e-12,1.126086319e-13,4.315721000e-13,2.790099772e-12,1.763745376e-12,1.901357508e-13,1.624177197e-12,1.996068149e-12,1.984458261e-12,3.134569790e-12,1.756898898e-13,1.943490865e-13
0.41406,2.644112282e-13,9.095050044e-13,3.941083469e-13,2.291177019e-13,9.361947479e-14,1.061592145e-13,5.918390530e-13,3.961136531e-13,8.999216810e-14,5.327874381e-13,1.659067589e-12,8.068466485e-13,3.014553143e-13,4.070074471e-13,1.466549361e-12,2.489289712e-12,2.293367157e-12,1.435112053e-12,1.288637871e-12,2.369537257e-12,1.216631012e-12,6.188264856e-14,3.805513530e-13,2.336461000e-12,1.441476404e-12,1.754710739e-13,1.340835772e-12,1.656906010e-12,1.623063397e-12,2.291212082e-12,1.741100045e-13,1.261780875e-13
0.42188,2.079402340e-13,7.837193490e-13,2.812092218e-13,1.732290300e-13,7.879625718e-14,7.511132039e-14,4.533435386e-13,3.381919889e-13,7.884923944e-14,4.807325212e-13,1.469663680e-12,7.720370588e-13,2.768638850e-13,3.365915936e-13,1.341815921e-12,2.310024918e-12,2.093885721e-12,1.292653969e-12,1.159579621e-12,2.129229528e-12,1.054116586e-12,4.760489512e-14,3.317870697e-13,1.994380481e-12,1.224661797e-12,1.614623240e-13,1.171594347e-12,1.457161140e-12,1.406921081e-12,1.918680868e-12,1.684775248e-13,9.546443284e-14
0.42969,2.509527144e-13,8.229696214e-13,2.623696400e-13,1.693797189e-13,7.783451803e-14,5.962528811e-14,3.432846298e-13,2.900683728e-13,7.418744236e-14,4.070076285e-13,1.210366238e-12,6.794118698e-13,2.539070356e-13,3.115726874e-13,1.198725527e-12,2.084965307e-12,1.852194217e-12,1.117826160e-12,9.992069414e-13,1.827504303e-12,8.852521997e-13,4.736478758e-14,2.904108415e-13,1.666737263e-12,1.015904370e-12,1.493826782e-13,1.045013150e-12,1.264797885e-12,1.245342959e-12,1.589940625e-12,1.565770123e-13,6.794320010e-14
0.4375,2.968117238e-13,8.207738759e-13,2.632457891e-13,1.575876878e-13,7.303596689e-14,4.853834111e-14,2.724228662e-13,2.463513747e-13,6.773207634e-14,3.521177720e-13,1.014155952e-12,6.047024854e-13,2.295058557e-13,2.757868458e-13,1.094613809e-12,1.952211388e-12,1.700594582e-12,1.005840192e-12,8.851745538e-13,1.624666461e-12,7.580190373e-13,4.500179583e-14,2.557448842e-13,1.416681326e-12,8.541392769e-13,1.383382944e-13,9.386119397e-13,1.126726495e-12,1.106074157e-12,1.377741591e-12,1.502498263e-13,5.088318730e-14
0.44531,3.660033770e-13,8.285416667e-13,2.899673457e-13,1.526643378e-13,6.916685837e-14,4.231831968e-14,2.357629068e-13,2.100994712e-13,6.227567840e-14,3.094602327e-13,8.466455341e-13,5.315169108e-13,2.098617514e-13,2.478516630e-13,1.019795086e-12,1.886083109e-12,1.608071301e-12,9.286072508e-13,7.940925598e-13,1.474220567e-12,6.550381962e-13,4.425419089e-14,2.263821384e-13,1.215438943e-12,7.294891253e-13,1.287254874e-13,8.630789217e-13,1.028343635e-12,1.001798116e-12,1.260344382e-12,1.456760275e-13,3.989899568e-14
0.45312,4.569451347e-13,8.448521785e-13,3.154310133e-13,1.551107304e-13,6.604071043e-14,3.882338901e-14,1.975339077e-13,1.803339765e-13,5.694817278e-14,2.692273556e-13,7.165681257e-13,4.668334115e-13,1.958013184e-13,2.323062515e-13,9.653496362e-13,1.822470059e-12,1.524595315e-12,8.574353968e-13,7.201385937e-13,1.358490078e-12,5.792255251e-13,4.421532456e-14,2.032753745e-13,1.055296311e-12,6.208072335e-13,1.204893905e-13,7.981231751e-13,9.252170359e-13,9.080245574e-13,1.105619367e-12,1.420659822e-13,3.117928364e-14
0.46094,5.583385478e-13,8.681086670e-13,3.407338914e-13,1.626209385e-13,6.425887948e-14,3.772532998e-14,1.761701863e-13,1.550819494e-13,5.325942932e-14,2.374634784e-13,6.153933628e-13,4.105026116e-13,1.866703802e-13,2.263344888e-13,9.312248855e-13,1.786311562e-12,1.463316019e-12,7.993821708e-13,6.551980206e-13,1.252592815e-12,5.116430332e-13,4.658705137e-14,1.826195164e-13,9.202429023e-13,5.354627745e-13,1.133995956e-13,7.535847124e-13,8.376556864e-13,8.382637267e-13,9.766858128e-13,1.393439594e-13,2.601763566e-14
0.46875,6.705803558e-13,9.098505765e-13,3.704418168e-13,1.815964286e-13,6.490820951e-14,4.037589801e-14,1.689748080e-13,1.344947155e-13,5.089577304e-14,2.127253091e-13,5.323951573e-13,3.572245420e-13,1.798948504e-13,2.279241967e-13,9.141273815e-13,1.766139689e-12,1.412197501e-12,7.513012373e-13,5.952473286e-13,1.141903005e-12,4.503102092e-13,5.012920568e-14,1.646883359e-13,7.971848456e-13,4.654748653e-13,1.079753874e-13,7.327497255e-13,7.534426071e-13,7.957873779e-13,8.749666143e-13,1.368574897e-13,2.224027402e-14
0.47656,7.851556852e-13,9.072938694e-13,3.791900003e-13,1.913140552e-13,6.300083656e-14,4.200498566e-14,1.569277899e-13,1.173128697e-13,4.819597769e-14,1.950042146e-13,4.832784417e-13,3.237199765e-13,1.739304919e-13,2.301947969e-13,9.034432246e-13,1.743246945e-12,1.363130522e-12,7.133180045e-13,5.515607616e-13,1.053520861e-12,4.046979027e-13,5.211696306e-14,1.498736105e-13,6.979789878e-13,4.122225288e-13,1.039558983e-13,7.149429709e-13,6.743516015e-13,7.552547654e-13,7.733198236e-13,1.375750254e-13,1.971807780e-14
0.48438,1.180443662e-12,9.778173318e-13,5.382677321e-13,2.164920785e-13,6.690470386e-14,7.419688704e-14,1.727832600e-13,1.026163387e-13,5.270929037e-14,1.561733291e-13,2.670774861e-13,2.426550925e-13,1.729069035e-13,3.036519164e-13,6.904846919e-13,1.367366192e-12,1.001713784e-12,5.109144408e-13,3.624266547e-13,6.362138730e-13,2.158278333e-13,7.980443321e-14,1.153284087e-13,3.641215790e-13,2.291996750e-13,9.561312022e-14,5.374676649e-13,4.879034943e-13,5.395061919e-13,8.289049755e-13,1.419536608e-13,2.165243494e-14
0.49219,1.478404463e-12,1.001852649e-12,6.098590513e-13,2.339825892e-13,6.929444990e-14,9.023994123e-14,1.768276089e-13,8.700436338e-14,5.453597583e-14,1.273045630e-13,1.917622643e-13,2.017074794e-13,1.586033902e-13,3.397879142e-13,6.120430969e-13,1.193513952e-12,8.396972897e-13,4.319800665e-13,3.000700156e-13,4.819266082e-13,1.633287085e-13,9.416222315e-14,1.139270989e-13,2.514463632e-13,1.763980886e-13,9.366700562e-14,5.142601897e-13,3.996470701e-13,4.821558034e-13,8.916567041e-13,1.456186252e-13,2.310114710e-14
0.5,1.506398009e-12,9.400160948e-13,5.480986526e-13,2.421406985e-13,6.585709261e-14,8.446138140e-14,1.514346717e-13,6.661266511e-14,4.923895818e-14,1.229390230e-13,2.067457310e-13,1.974403896e-13,1.423482231e-13,3.093162619e-13,6.612572627e-13,1.253152231e-12,8.770217064e-13,4.686432632e-13,3.296758632e-13,5.057562167e-13,1.905863834e-13,8.350755483e-14,1.227860011e-13,2.718888846e-13,2.067756429e-13,9.553188251e-14,6.119849512e-13,3.904909730e-13,5.573123113e-13,8.104442083e-13,1.513164818e-13,2.063657180e-14
0.50781,1.635355827e-12,8.965557665e-13,5.302295859e-13,2.477947280e-13,6.394299320e-14,8.209250123e-14,1.348324575e-13,4.662447183e-14,4.735158787e-14,1.111759319e-13,1.986152365e-13,1.844389292e-13,1.354034140e-13,3.063139360e-13,6.822090144e-13,1.267945443e-12,8.773471294e-13,4.751877375e-13,3.309281168e-13,5.124056794e-13,1.968209221e-13,8.135161082e-14,1.222462307e-13,2.604529720e-13,2.039551925e-13,9.754692686e-14,6.746035805e-13,3.709755693e-13,5.925810140e-13,8.312177595e-13,1.585270455e-13,1.991672918e-14
0.51562,1.842098418e-12,8.358278961e-13,5.233004389e-13,2.398643670e-13,6.116745237e-14,7.695005961e-14,1.078471950e-13,2.803103632e-14,4.742416099e-14,9.164808769e-14,1.874676030e-13,1.728365124e-13,1.349397275e-13,3.189037734e-13,6.917508790e-13,1.258441954e-12,8.607394318e-13,4.587614455e-13,3.194113874e-13,5.345699480e-13,1.964084476e-13,8.313845997e-14,1.194199104e-13,2.368402425e-13,1.784530675e-13,1.009164543e-13,7.122039920e-13,3.458071291e-13,5.979826199e-13,9.501243711e-13,1.681857005e-13,1.788120037e-14
0.52344,1.986801466e-12,7.828192986e-13,5.119317575e-13,2.455940007e-13,5.892592580e-14,7.465861929e-14,9.712916967e-14,1.420726135e-14,4.627096971e-14,8.852830497e-14,1.991745559e-13,1.677771522e-13,1.406052480e-13,3.292015175e-13,7.343930695e-13,1.318917467e-12,8.972000811e-13,4.720115652e-13,3.212851743e-13,5.741648235e-13,2.090046397e-13,7.998421618e-14,1.179153484e-13,2.375727487e-13,1.729547272e-13,1.053281291e-13,7.808513948e-13,3.482289391e-13,6.443620121e-13,1.086226640e-12,1.799457331e-13,2.019717328e-14
0.53125,2.134664598e-12,7.453640736e-13,5.001511220e-13,2.574927986e-13,5.781016340e-14,7.336568129e-14,9.101528001e-14,8.295225985e-15,4.601779666e-14,9.050918491e-14,2.219839250e-13,1.653136633e-13,1.523590695e-13,3.483945343e-13,7.940905463e-13,1.401269747e-12,9.443783794e-13,4.809377886e-13,3.163867666e-13,6.047504046e-13,2.172415457e-13,7.809233772e-14,1.163936440e-13,2.301679586e-13,1.598889388e-13,1.106884162e-13,8.488675959e-13,3.455885609e-13,6.968921268e-13,1.227328673e-12,1.921919920e-13,2.311252323e-14
0.53906,2.293865095e-12,6.965977844e-13,4.714316482e-13,2.621700782e-13,5.621473020e-14,6.648977636e-14,8.136633434e-14,9.326472210e-15,4.647838461e-14,9.563866104e-14,2.634222397e-13,1.709496113e-13,1.675623233e-13,3.687736087e-13,8.825452974e-13,1.531771518e-12,1.029253256e-12,4.997573101e-13,3.213378330e-13,6.687995426e-13,2.332272929e-13,7.476487980e-14,1.161511423e-13,2.355853154e-13,1.500022563e-13,1.173676627e-13,9.148158348e-13,3.505039217e-13,7.576913204e-13,1.370159464e-12,2.047283043e-13,2.295822107e-14
0.54688,2.468811161e-12,6.648057883e-13,4.560005903e-13,2.762228568e-13,5.591261520e-14,6.514186171e-14,8.302944379e-14,1.654791719e-14,4.752981887e-14,1.067310080e-13,3.064514600e-13,1.768638232e-13,1.854112113e-13,4.018086008e-13,9.712099927e-13,1.653058817e-12,1.100524470e-12,5.146411921e-13,3.197323360e-13,7.004131399e-13,2.436505161e-13,7.307326492e-14,1.138129793e-13,2.330070125e-13,1.381707384e-13,1.238926609e-13,9.653120052e-13,3.491892569e-13,8.106716663e-13,1.481681327e-12,2.182197084e-13,2.511034196e-14
0.55469,2.671916625e-12,6.371509232e-13,4.421952572e-13,2.972467445e-13,5.623909517e-14,6.754578805e-14,8.130716465e-14,2.746224265e-14,4.935074406e-14,1.189859606e-13,3.493833084e-13,1.850495978e-13,2.031084375e-13,4.448195457e-13,1.052988616e-12,1.740243508e-12,1.140415317e-12,5.176887269e-13,3.124344827e-13,7.020294973e-13,2.508121804e-13,7.303587001e-14,1.100528298e-13,2.178912619e-13,1.220029079e-13,1.308000341e-13,1.001726514e-12,3.272902147e-13,8.561447699e-13,1.520445595e-12,2.329779979e-13,2.764796812e-14
0.5625,2.846066234e-12,6.163050892e-13,4.098469911e-13,3.273436173e-13,5.722911263e-14,6.980954376e-14,7.996516030e-14,3.931463539e-14,5.090279685e-14,1.385648201e-13,4.125122303e-13,2.002999810e-13,2.191326622e-13,4.775247683e-13,1.165751063e-12,1.866750437e-12,1.210343375e-12,5.426868585e-13,3.210381738e-13,7.253153411e-13,2.722715995e-13,6.941435134e-14,1.063581336e-13,2.184461320e-13,1.191100524e-13,1.388286410e-13,1.059736904e-12,3.054313500e-13,9.359377948e-13,1.463772609e-12,2.475394389e-13,2.833096752e-14
0.57031,3.043724573e-12,6.025016526e-13,3.842176951e-13,3.590647291e-13,5.881366739e-14,7.566771972e-14,7.911330497e-14,5.098508667e-14,5.353176743e-14,1.586486037e-13,4.760806715e-13,2.174442295e-13,2.350677133e-13,5.162834600e-13,1.275605386e-12,1.963399643e-12,1.254186873e-12,5.594564162e-13,3.220427483e-13,7.236735886e-13,2.860867651e-13,6.817594121e-14,1.004870365e-13,2.066591871e-13,1.108708045e-13,1.473608469e-13,1.108062658e-12,2.729622708e-13,1.007739480e-12,1.398997490e-12,2.628853011e-13,2.865657152e-14
0.57812,3.306254506e-12,5.777986818e-13,3.727102284e-13,3.835376285e-13,5.963478304e-14,8.292516561e-14,7.397126039e-14,5.999986350e-14,5.750559740e-14,1.740463538e-13,5.334615114e-13,2.367322753e-13,2.501608482e-13,5.634847419e-13,1.373724774e-12,2.020917447e-12,1.271377939e-12,5.679197671e-13,3.191164302e-13,7.118171053e-13,2.936292624e-13,6.881545252e-14,9.575997478e-14,1.898906511e-13,9.923241807e-14,1.566576483e-13,1.141238036e-12,2.399964416e-13,1.057456397e-12,1.387120923e-12,2.799928870e-13,2.749131677e-14
0.58594,3.558568341e-12,5.568787108e-13,3.656034900e-13,4.160365977e-13,5.998168128e-14,9.501891905e-14,7.131105927e-14,6.571203135e-14,6.099176554e-14,1.944302096e-13,6.075964580e-13,2.624768146e-13,2.642057403e-13,6.057322456e-13,1.488136055e-12,2.087961296e-12,1.297193291e-12,5.899743685e-13,3.233613821e-13,7.017765653e-13,3.074798463e-13,6.769521592e-14,9.582646277e-14,1.807481962e-13,9.526599004e-14,1.664223710e-13,1.190379759e-12,2.146766861e-13,1.115365249e-12,1.390886274e-12,2.980027336e-13,2.721673813e-14
0.59375,3.841759697e-12,5.359125513e-13,3.681612678e-13,4.480983868e-13,5.990963658e-14,1.094303274e-13,6.607459300e-14,6.912363882e-14,6.519641816e-14,2.136390505e-13,6.841695238e-13,2.914205094e-13,2.781226917e-13,6.531891741e-13,1.603509709e-12,2.137685796e-12,1.311287505e-12,6.095751828e-13,3.265939575e-13,6.855683497e-13,3.201412284e-13,6.739674256e-14,1.018118133e-13,1.671836218e-13,9.142177560e-14,1.764532240e-13,1.243219630e-12,1.935206667e-13,1.163723633e-12,1.498933409e-12,3.166957722e-13,2.689919071e-14
0.60156,4.186754697e-12,5.156405453e-13,3.747395271e-13,4.718351088e-13,5.972418275e-14,1.198424433e-13,6.158132353e-14,6.973560914e-14,7.047497734e-14,2.283701943e-13,7.579276464e-13,3.215131279e-13,2.914399944e-13,7.037805759e-13,1.730254268e-12,2.197774900e-12,1.337124508e-12,6.321377036e-13,3.323934097e-13,6.813353349e-13,3.304207334e-13,6.724546447e-14,1.145834973e-13,1.567815091e-13,9.130397273e-14,1.868424795e-13,1.303368055e-12,1.870208946e-13,1.205957480e-12,1.753011699e-12,3.349543115e-13,2.486632257e-14
0.60938,4.578292211e-12,4.957007142e-13,3.905610486e-13,4.930480777e-13,5.914603648e-14,1.315417433e-13,5.957448710e-14,6.779684991e-14,7.594678866e-14,2.419727714e-13,8.306957930e-13,3.536126646e-13,3.040295074e-13,7.625082329e-13,1.860184927e-12,2.250080493e-12,1.356344218e-12,6.515496344e-13,3.346644055e-13,6.608475236e-13,3.345462091e-13,6.772525200e-14,1.314014074e-13,1.422104393e-13,9.197461124e-14,1.964124061e-13,1.354764367e-12,1.844555149e-13,1.232215800e-12,2.102771062e-12,3.531392727e-13,2.483999233e-14
0.61719,5.029981879e-12,4.719094162e-13,4.165472895e-13,5.085166755e-13,5.825691845e-14,1.428151590e-13,5.775579406e-14,6.373081568e-14,8.188293307e-14,2.525090665e-13,9.000609713e-13,3.869145347e-13,3.152499601e-13,8.303112179e-13,1.991812138e-12,2.294192012e-12,1.370487221e-12,6.681922378e-13,3.361495650e-13,6.361992973e-13,3.354177190e-13,6.888310224e-14,1.498463037e-13,1.267451571e-13,9.114979929e-14,2.047192432e-13,1.387739454e-12,1.843232285e-13,1.239929251e-12,2.548237551e-12,3.707184025e-13,2.604920239e-14
0.625,5.481816499e-12,4.593968466e-13,4.279170072e-13,5.281101617e-13,5.842191737e-14,1.493976445e-13,5.756399882e-14,5.770771773e-14,8.753736538e-14,2.653735286e-13,9.846290466e-13,4.240688768e-13,3.257718391e-13,8.932086088e-13,2.162906449e-12,2.390915985e-12,1.423268925e-12,7.022711931e-13,3.482190555e-13,6.363328588e-13,3.447973584e-13,6.832753980e-14,1.677563894e-13,1.187393145e-13,9.506083229e-14,2.122693711e-13,1.432909705e-12,1.887994448e-13,1.271414379e-12,3.024227535e-12,3.857398119e-13,2.782702391e-14
0.63281,5.965604048e-12,4.519963333e-13,4.388685777e-13,5.479142165e-13,5.956352527e-14,1.532410673e-13,5.833964377e-14,5.051345409e-14,9.395509372e-14,2.770561050e-13,1.066115795e-12,4.612704719e-13,3.381905310e-13,9.686868868e-13,2.347003705e-12,2.497858162e-12,1.480443027e-12,7.354680920e-13,3.586894238e-13,6.365866879e-13,3.516113657e-13,6.863128708e-14,1.796212113e-13,1.081266198e-13,9.728345754e-14,2.184940073e-13,1.461222383e-12,1.912606115e-13,1.304263283e-12,3.537279113e-12,3.984670938e-13,3.048091754e-14
0.64062,6.482164607e-12,4.458507615e-13,4.511098264e-13,5.612188860e-13,6.151436454e-14,1.536075132e-13,6.134622565e-14,4.263793550e-14,1.014307528e-13,2.866300312e-13,1.142643940e-12,4.979148536e-13,3.531757036e-13,1.057976509e-12,2.543147691e-12,2.616136835e-12,1.543710505e-12,7.658700619e-13,3.657639039e-13,6.414864841e-13,3.519316916e-13,7.021910509e-14,1.835067256e-13,9.778208704e-14,9.646943294e-14,2.230241716e-13,1.463584544e-12,1.962265201e-13,1.332021135e-12,4.092335771e-12,4.082553722e-13,3.244295122e-14
0.64844,6.917705719e-12,4.435108469e-13,4.539375738e-13,5.846310832e-13,6.382817105e-14,1.555249996e-13,6.368751640e-14,3.546310000e-14,1.081315761e-13,3.049463497e-13,1.248383140e-12,5.430484935e-13,3.721820370e-13,1.149559696e-12,2.781253165e-12,2.784437901e-12,1.642033164e-12,8.145288714e-13,3.810645449e-13,6.653183375e-13,3.602392631e-13,7.016339205e-14,1.799284553e-13,9.311137992e-14,9.646230763e-14,2.260455875e-13,1.460928008e-12,2.004003041e-13,1.379668476e-12,4.586978807e-12,4.155654057e-13,3.566234425e-14
0.65625,7.298243376e-12,4.408229732e-13,4.583015297e-13,6.116979414e-13,6.615384748e-14,1.587404243e-13,6.575760847e-14,3.089383638e-14,1.149452969e-13,3.284013275e-13,1.371813072e-12,5.935208751e-13,3.972948297e-13,1.251938983e-12,3.044706675e-12,2.979880811e-12,1.759051969e-12,8.700901699e-13,3.975170077e-13,7.000006839e-13,3.695476016e-13,7.019092516e-14,1.692996074e-13,9.084035119e-14,9.359533202e-14,2.275480184e-13,1.438522175e-12,2.077542488e-13,1.427234373e-12,5.073603893e-12,4.206722506e-13,3.868566423e-14
0.66406,7.619071023e-12,4.443983760e-13,4.539651843e-13,6.370653757e-13,6.886805255e-14,1.593475976e-13,6.856210947e-14,2.993292805e-14,1.219729260e-13,3.548773395e-13,1.503925931e-12,6.449246724e-13,4.280319230e-13,1.360698961e-12,3.333234847e-12,3.209277847e-12,1.899001747e-12,9.287776551e-13,4.136533636e-13,7.506365664e-13,3.785944847e-13,7.040545697e-14,1.556466550e-13,9.011303803e-14,9.118876184e-14,2.279099745e-13,1.409939455e-12,2.262040795e-13,1.483996624e-12,5.604752627e-12,4.225868918e-13,3.932709885e-14
0.67188,7.853243624e-12,4.465647244e-13,4.579631609e-13,6.666506744e-13,7.066286921e-14,1.641958409e-13,7.222980825e-14,3.349168162e-14,1.285468243e-13,3.858635487e-13,1.641496324e-12,6.980191767e-13,4.641363705e-13,1.481981872e-12,3.626133615e-12,3.444664412e-12,2.044012254e-12,9.879119512e-13,4.289344812e-13,8.000977014e-13,3.872312648e-13,7.048281530e-14,1.410254503e-13,9.012877166e-14,8.984482401e-14,2.266995270e-13,1.369563460e-12,2.480682160e-13,1.534463667e-12,6.131775651e-12,4.229823162e-13,3.966313081e-14
0.67969,8.037980477e-12,4.445575885e-13,4.747318667e-13,6.962661573e-13,7.132300556e-14,1.716541537e-13,7.773298549e-14,4.151155682e-14,1.349115018e-13,4.174317409e-13,1.778136405e-12,7.509677471e-13,5.041141665e-13,1.613033669e-12,3.917734040e-12,3.679026074e-12,2.192375105e-12,1.045419631e-12,4.420125874e-13,8.448305114e-13,3.909686304e-13,7.118459332e-14,1.274467821e-13,9.077046403e-14,8.837407721e-14,2.236791354e-13,1.317398183e-12,2.734749826e-13,1.571445589e-12,6.695993539e-12,4.212904527e-13,3.874698946e-14
0.6875,8.135786049e-12,4.458395632e-13,4.879695087e-13,7.347237232e-13,7.144418713e-14,1.804639652e-13,8.230888559e-14,5.289244968e-14,1.399416770e-13,4.523055416e-13,1.929506930e-12,8.057516475e-13,5.451366249e-13,1.734324798e-12,4.231765565e-12,3.947154906e-12,2.370262633e-12,1.116792063e-12,4.630886912e-13,9.043320489e-13,4.017089562e-13,7.059815776e-14,1.178116436e-13,9.467072245e-14,8.963944190e-14,2.193529541e-13,1.278439584e-12,3.027890222e-13,1.626122359e-12,7.310311844e-12,4.164926954e-13,3.707111287e-14
0.69531,8.205373871e-12,4.429209900e-13,5.142294238e-13,7.727730620e-13,7.063249360e-14,1.914148602e-13,8.963165707e-14,6.642428516e-14,1.447411841e-13,4.833101677e-13,2.064265976e-12,8.548057577e-13,5.857916298e-13,1.858141032e-12,4.526532178e-12,4.192240909e-12,2.534722327e-12,1.181776079e-12,4.814352596e-13,9.499672063e-13,4.084069082e-13,7.079294438e-14,1.115172444e-13,9.822672386e-14,9.151371003e-14,2.132817280e-13,1.230925829e-12,3.331847027e-13,1.668973126e-12,7.973094855e-12,4.089547344e-13,3.515277854e-14
0.70312,8.287019064e-12,4.403126362e-13,5.486237682e-13,8.046566948e-13,6.982807891e-14,2.004625155e-13,1.007657862e-13,7.958612249e-14,1.500008079e-13,5.049850877e-13,2.165500109e-12,8.930708129e-13,6.229093831e-13,1.982733971e-12,4.791245065e-12,4.400756366e-12,2.675996222e-12,1.234160581e-12,4.947119674e-13,9.791223018e-13,4.078434769e-13,7.230933762e-14,1.085685009e-13,1.000815192e-13,9.575718536e-14,2.057477899e-13,1.179269173e-12,3.650262023e-13,1.704272063e-12,8.696527869e-12,3.982219114e-13,3.191893393e-14
0.71094,8.323209663e-12,4.378048175e-13,5.895617261e-13,8.450614499e-13,6.919636854e-14,2.129485825e-13,1.135928886e-13,9.029123397e-14,1.537363623e-13,5.242835147e-13,2.259893298e-12,9.284527975e-13,6.535108107e-13,2.091527989e-12,5.041995601e-12,4.598699537e-12,2.815790006e-12,1.292396502e-12,5.142190577e-13,1.007714035e-12,4.114991528e-13,7.244912209e-14,1.075599800e-13,1.054572334e-13,1.016148107e-13,1.974012346e-13,1.132637795e-12,3.900565891e-13,1.747916245e-12,9.406226259e-12,3.859247296e-13,2.982656341e-14
0.71875,8.344986046e-12,4.300877241e-13,6.334933532e-13,8.827990586e-13,6.881199467e-14,2.248763826e-13,1.271916305e-13,9.772780720e-14,1.566718198e-13,5.372725323e-13,2.333797533e-12,9.573239362e-13,6.774395182e-13,2.187444768e-12,5.265077004e-12,4.766558652e-12,2.937352016e-12,1.345176772e-12,5.325732016e-13,1.025152315e-12,4.111415230e-13,7.282194678e-14,1.072546180e-13,1.111673294e-13,1.066459887e-13,1.885047401e-13,1.080040350e-12,4.152473809e-13,1.788071805e-12,1.015668580e-11,3.717264550e-13,2.803594466e-14
0.72656,8.320974434e-12,4.245016745e-13,6.653551834e-13,9.176578083e-13,6.932150276e-14,2.322065172e-13,1.383024651e-13,1.008317961e-13,1.592497230e-13,5.446338799e-13,2.393239095e-12,9.801091654e-13,6.953347384e-13,2.266762492e-12,5.476701104e-12,4.926274066e-12,3.054712223e-12,1.397159486e-12,5.521965864e-13,1.043927698e-12,4.111741418e-13,7.352551855e-14,1.074383910e-13,1.161682056e-13,1.124417968e-13,1.795597711e-13,1.031684685e-12,4.482207450e-13,1.840067064e-12,1.099064437e-11,3.553602060e-13,2.597204317e-14
0.73438,8.245132473e-12,4.156547977e-13,7.028428355e-13,9.536289925e-13,6.991439094e-14,2.409664621e-13,1.520427826e-13,9.985674660e-14,1.611884858e-13,5.475058406e-13,2.434874047e-12,9.978808565e-13,7.089473357e-13,2.339556868e-12,5.656178384e-12,5.059304708e-12,3.156395248e-12,1.443454627e-12,5.710622559e-13,1.054621496e-12,4.092307836e-13,7.418824189e-14,1.059607634e-13,1.233828322e-13,1.192961427e-13,1.706353270e-13,9.768067954e-13,4.794926918e-13,1.882076884e-12,1.180236793e-11,3.388985043e-13,2.502083540e-14
0.74219,8.131247373e-12,4.059853985e-13,7.408900820e-13,9.864845001e-13,7.076921588e-14,2.477891297e-13,1.671589050e-13,9.569513479e-14,1.627901566e-13,5.433280379e-13,2.451659342e-12,1.007189548e-12,7.189078469e-13,2.407068920e-12,5.798622797e-12,5.163172928e-12,3.239769928e-12,1.478502776e-12,5.860978696e-13,1.058852651e-12,4.030706456e-13,7.528805886e-14,1.032512991e-13,1.304605566e-13,1.277793417e-13,1.621792259e-13,9.197622062e-13,5.139974949e-13,1.919360085e-12,1.266149697e-11,3.218736108e-13,2.386957601e-14
0.75,7.913567037e-12,4.006249409e-13,7.678310366e-13,1.026884773e-12,7.181023990e-14,2.536703436e-13,1.774887950e-13,8.981095560e-14,1.627568137e-13,5.408934261e-13,2.479709665e-12,1.017151193e-12,7.263506003e-13,2.454331240e-12,5.940624637e-12,5.288216055e-12,3.343561020e-12,1.523242122e-12,6.075776485e-13,1.082701375e-12,4.044296505e-13,7.511689260e-14,9.972259231e-14,1.386733715e-13,1.358817614e-13,1.543983601e-13,8.717221827e-13,5.508624371e-13,1.978518511e-12,1.360858175e-11,3.044815150e-13,2.336817526e-14
0.75781,7.636842695e-12,3.933280546e-13,7.922089899e-13,1.066340971e-12,7.214928716e-14,2.590764941e-13,1.872135786e-13,8.461570334e-14,1.622048963e-13,5.358951231e-13,2.491626598e-12,1.021178790e-12,7.344165126e-13,2.498632388e-12,6.049012394e-12,5.392122147e-12,3.436130219e-12,1.558168020e-12,6.244802523e-13,1.105077720e-12,4.029848065e-13,7.524611881e-14,9.526661544e-14,1.474419362e-13,1.459654376e-13,1.471115621e-13,8.201171368e-13,5.891990024e-13,2.032951757e-12,1.459312626e-11,2.870687978e-13,2.289229748e-14
0.76562,7.301922955e-12,3.867649103e-13,8.081643171e-13,1.102980833e-12,7.213421862e-14,2.624325580e-13,1.961838948e-13,8.107720390e-14,1.617135885e-13,5.266584431e-13,2.481750796e-12,1.015955527e-12,7.431757837e-13,2.540129465e-12,6.120383480e-12,5.470673084e-12,3.511828303e-12,1.578976251e-12,6.351966972e-13,1.126860972e-12,3.992784060e-13,7.647124728e-14,9.101182526e-14,1.565547244e-13,1.592969111e-13,1.405949499e-13,7.725524733e-13,6.339764749e-13,2.085181703e-12,1.563432566e-11,2.691549314e-13,2.176368728e-14
0.77344,6.898813373e-12,3.804069112e-13,8.241683759e-13,1.145842414e-12,7.184293851e-14,2.689600802e-13,2.055904991e-13,8.025020670e-14,1.602084022e-13,5.198837522e-13,2.475761931e-12,1.009996359e-12,7.526057953e-13,2.571012742e-12,6.167136492e-12,5.545996395e-12,3.592663810e-12,1.601321114e-12,6.494674362e-13,1.163772272e-12,4.024294985e-13,7.691341008e-14,8.689430905e-14,1.715935457e-13,1.739032477e-13,1.345272022e-13,7.308188147e-13,6.699143812e-13,2.141116559e-12,1.662128598e-11,2.509409057e-13,2.137660924e-14
0.78125,6.479896988e-12,3.734088269e-13,8.377507450e-13,1.184754896e-12,7.147187991e-14,2.750495240e-13,2.151261947e-13,8.281747183e-14,1.586941407e-13,5.103539967e-13,2.453824002e-12,9.979865100e-13,7.633318000e-13,2.596581837e-12,6.173523124e-12,5.593873821e-12,3.659448671e-12,1.613692605e-12,6.604274353e-13,1.203632857e-12,4.056810229e-13,7.814195641e-14,8.363401483e-14,1.888184479e-13,1.896928871e-13,1.287552255e-13,6.894796679e-13,7.015185064e-13,2.194026439e-12,1.755699312e-11,2.322741160e-13,2.039054138e-14
0.78906,6.028525131e-12,3.679083267e-13,8.362977817e-13,1.220784823e-12,7.143718300e-14,2.794589403e-13,2.194616173e-13,8.797670692e-14,1.568528294e-13,5.015142652e-13,2.432857755e-12,9.846095474e-13,7.741768141e-13,2.605384508e-12,6.160974877e-12,5.637775020e-12,3.727708676e-12,1.625927792e-12,6.721593660e-13,1.253877549e-12,4.125003598e-13,8.019303315e-14,8.184838262e-14,2.071224511e-13,2.047414443e-13,1.239535101e-13,6.538954257e-13,7.359297985e-13,2.253346439e-12,1.847317787e-11,2.145507143e-13,1.890956220e-14
0.79688,5.596847370e-12,3.617247664e-13,8.344544222e-13,1.253071256e-12,7.153978764e-14,2.861040586e-13,2.256527053e-13,9.508881548e-14,1.555223637e-13,4.913964335e-13,2.400064932e-12,9.685836821e-13,7.854931009e-13,2.610107597e-12,6.108156416e-12,5.650444094e-12,3.779137130e-12,1.630897083e-12,6.821137962e-13,1.304376186e-12,4.201436684e-13,8.291334923e-14,8.138664678e-14,2.320437145e-13,2.239484799e-13,1.204856825e-13,6.211066281e-13,7.639012466e-13,2.298112077e-12,1.919560661e-11,1.987960771e-13,1.748342953e-14
0.80469,5.193912969e-12,3.552223515e-13,8.275431926e-13,1.277523681e-12,7.184729843e-14,2.923897892e-13,2.330046841e-13,1.023860043e-13,1.550655658e-13,4.772119954e-13,2.350013001e-12,9.479676645e-13,7.957211983e-13,2.607633426e-12,6.013886986e-12,5.626946024e-12,3.807238509e-12,1.625431520e-12,6.886769409e-13,1.350980151e-12,4.265758210e-13,8.707238092e-14,8.246397695e-14,2.601802182e-13,2.453932141e-13,1.184254657e-13,5.925099111e-13,7.926628808e-13,2.329626023e-12,1.975027202e-11,1.848960523e-13,1.572907436e-14
0.8125,4.787360293e-12,3.508951333e-13,8.120894962e-13,1.301689715e-12,7.254441074e-14,2.990188860e-13,2.359038835e-13,1.086750772e-13,1.538925307e-13,4.662963093e-13,2.312931307e-12,9.316496124e-13,8.027680230e-13,2.581269453e-12,5.906009166e-12,5.606788380e-12,3.844929214e-12,1.628461723e-12,7.027308730e-13,1.411640682e-12,4.398517337e-13,9.083179610e-14,8.506913853e-14,2.910633209e-13,2.642834538e-13,1.180142821e-13,5.724461775e-13,8.180206159e-13,2.364016454e-12,2.018149931e-11,1.732374940e-13,1.440834308e-14
0.82031,4.420919787e-12,3.464309075e-13,7.937637249e-13,1.317410928e-12,7.308916835e-14,3.057887177e-13,2.385101213e-13,1.139200393e-13,1.535414382e-13,4.524169725e-13,2.260053169e-12,9.123557636e-13,8.078037020e-13,2.550163308e-12,5.762236315e-12,5.552869417e-12,3.861739557e-12,1.622447923e-12,7.142725544e-13,1.464594430e-12,4.508669979e-13,9.591768574e-14,8.965526866e-14,3.221454787e-13,2.851741825e-13,1.192456731e-13,5.554150932e-13,8.424480896e-13,2.381116356e-12,2.046600203e-11,1.637338024e-13,1.298649306e-14
0.82812,4.081514146e-12,3.397964336e-13,7.644153495e-13,1.322434008e-12,7.310710762e-14,3.110938642e-13,2.386997322e-13,1.172033433e-13,1.540461932e-13,4.361177505e-13,2.199281410e-12,8.921619565e-13,8.105594279e-13,2.510554386e-12,5.599481427e-12,5.481916340e-12,3.869228445e-12,1.613948302e-12,7.261814351e-13,1.514120775e-12,4.612021317e-13,1.027556157e-13,9.659010977e-14,3.516453106e-13,3.071019302e-13,1.220406046e-13,5.426400677e-13,8.726837105e-13,2.389016130e-12,2.067532137e-11,1.561996806e-13,1.147522561e-14
0.83594,3.776237669e-12,3.343712338e-13,7.351907737e-13,1.325769939e-12,7.293641961e-14,3.177900513e-13,2.390042061e-13,1.187721590e-13,1.548039828e-13,4.208512567e-13,2.140608433e-12,8.744723974e-13,8.108678316e-13,2.461604989e-12,5.420208697e-12,5.404337928e-12,3.879845003e-12,1.610945134e-12,7.453964414e-13,1.573037977e-12,4.775462352e-13,1.095710794e-13,1.056862143e-13,3.873196770e-13,3.322368983e-13,1.262870132e-13,5.386715362e-13,8.928957731e-13,2.392026227e-12,2.073292613e-11,1.500636662e-13,1.065052296e-14
0.84375,3.514679245e-12,3.285252772e-13,7.043597093e-13,1.322267355e-12,7.252222080e-14,3.240814791e-13,2.400475946e-13,1.195353761e-13,1.564331566e-13,4.037785436e-13,2.071027830e-12,8.562911371e-13,8.091182458e-13,2.410162335e-12,5.219119723e-12,5.303068204e-12,3.874828407e-12,1.601484584e-12,7.633580440e-13,1.624157895e-12,4.924200646e-13,1.176767320e-13,1.168221030e-13,4.228324010e-13,3.578887881e-13,1.314735939e-13,5.380027880e-13,9.097226172e-13,2.383939127e-12,2.068991003e-11,1.452114957e-13,1.000437804e-14
0.85156,3.278141157e-12,3.241851097e-13,6.667013808e-13,1.313350916e-12,7.200395617e-14,3.295199014e-13,2.383351018e-13,1.201976414e-13,1.581822468e-13,3.894092117e-13,2.011024022e-12,8.435291257e-13,8.058069794e-13,2.348783177e-12,5.023211992e-12,5.211013020e-12,3.879730677e-12,1.597911272e-12,7.853534509e-13,1.678622979e-12,5.094967470e-13,1.262152946e-13,1.297329103e-13,4.552499207e-13,3.799682724e-13,1.375620607e-13,5.413260710e-13,9.274551343e-13,2.381450574e-12,2.061279262e-11,1.419065724e-13,9.542483085e-15
0.85938,3.090040080e-12,3.223567242e-13,6.318356964e-13,1.299909725e-12,7.133422116e-14,3.368362932e-13,2.398194479e-13,1.213897307e-13,1.610302565e-13,3.744776388e-13,1.943511057e-12,8.299749117e-13,8.031650194e-13,2.293811740e-12,4.816375769e-12,5.105792244e-12,3.878165691e-12,1.590564426e-12,8.070090417e-13,1.732657606e-12,5.272013413e-13,1.357490188e-13,1.438515666e-13,4.904903570e-13,4.061531439e-13,1.445355189e-13,5.500859337e-13,9.392870539e-13,2.369996509e-12,2.037969460e-11,1.397141613e-13,9.391547520e-15
0.86719,2.946244211e-12,3.196727884e-13,5.916221772e-13,1.277950171e-12,7.038056279e-14,3.430015163e-13,2.408026447e-13,1.224180571e-13,1.648511904e-13,3.596877725e-13,1.876356800e-12,8.174200314e-13,8.017256159e-13,2.241905256e-12,4.614019277e-12,5.001464780e-12,3.881884698e-12,1.584998320e-12,8.300678136e-13,1.791685968e-12,5.463434400e-13,1.465346652e-13,1.584974093e-13,5.274352325e-13,4.332080827e-13,1.521908668e-13,5.621419825e-13,9.572559776e-13,2.354533080e-12,2.006508903e-11,1.387100553e-13,9.249125852e-15
0.875,2.846191728e-12,3.210481004e-13,5.487685354e-13,1.252572364e-12,6.965603359e-14,3.478268350e-13,2.387838249e-13,1.229902513e-13,1.689246177e-13,3.499751526e-13,1.832446682e-12,8.126620155e-13,8.022338108e-13,2.186908698e-12,4.436074537e-12,4.929918459e-12,3.920458659e-12,1.596575154e-12,8.636633264e-13,1.877127639e-12,5.751755461e-13,1.570113541e-13,1.727543175e-13,5.720321833e-13,4.587832161e-13,1.609198089e-13,5.824557483e-13,9.836978683e-13,2.352308425e-12,1.968564420e-11,1.391131355e-13,9.436934417e-15
0.88281,2.791090477e-12,3.232236609e-13,5.066288508e-13,1.219537817e-12,6.867206290e-14,3.531729248e-13,2.375549753e-13,1.227894523e-13,1.743075066e-13,3.407411414e-13,1.789765832e-12,8.092866391e-13,8.053948725e-13,2.143745576e-12,4.265252629e-12,4.858402123e-12,3.961284352e-12,1.606624547e-12,8.954292574e-13,1.965987330e-12,6.035754359e-13,1.692439304e-13,1.857822021e-13,6.181625168e-13,4.844982102e-13,1.705428631e-13,6.058128278e-13,1.018003054e-12,2.344777939e-12,1.919947375e-11,1.410727321e-13,9.635518602e-15
0.89062,2.773200594e-12,3.254288429e-13,4.617760359e-13,1.178125840e-12,6.751233314e-14,3.572266921e-13,2.341474976e-13,1.207874945e-13,1.805076823e-13,3.332182497e-13,1.756682319e-12,8.091896028e-13,8.096573312e-13,2.104983276e-12,4.113855050e-12,4.799107789e-12,4.012908547e-12,1.620147911e-12,9.269638503e-13,2.058573765e-12,6.311280637e-13,1.828314019e-13,1.976413811e-13,6.610438138e-13,5.072973680e-13,1.806653269e-13,6.306354666e-13,1.062634280e-12,2.341001224e-12,1.867697140e-11,1.443107370e-13,9.599684720e-15
0.89844,2.803666678e-12,3.319041884e-13,4.190210314e-13,1.134583983e-12,6.663926594e-14,3.602365890e-13,2.296476016e-13,1.170616348e-13,1.876172146e-13,3.268690739e-13,1.732541405e-12,8.105743208e-13,8.141442936e-13,2.070029256e-12,3.977170824e-12,4.749003827e-12,4.076437934e-12,1.639494202e-12,9.615399082e-13,2.161580326e-12,6.620585425e-13,1.968511484e-13,2.091891078e-13,7.091476259e-13,5.320746725e-13,1.913787701e-13,6.635834597e-13,1.112984693e-12,2.345632908e-12,1.809040707e-11,1.483400068e-13,9.745362358e-15
0.90625,2.861100050e-12,3.403948529e-13,3.764182859e-13,1.087282736e-12,6.557400268e-14,3.627413734e-13,2.242085473e-13,1.117401789e-13,1.951349598e-13,3.200124272e-13,1.707488391e-12,8.111173104e-13,8.169163760e-13,2.037049421e-12,3.849162394e-12,4.694958076e-12,4.135731550e-12,1.657374068e-12,9.936175506e-13,2.256896154e-12,6.902213609e-13,2.117338847e-13,2.214835132e-13,7.549176818e-13,5.561497850e-13,2.025133270e-13,6.984659853e-13,1.170372933e-12,2.354281585e-12,1.750898921e-11,1.536019266e-13,9.669541702e-15
0.91406,2.933374740e-12,3.538529295e-13,3.379347944e-13,1.040333796e-12,6.473378735e-14,3.651746833e-13,2.180408797e-13,1.056051593e-13,2.019948526e-13,3.151663279e-13,1.689947939e-12,8.138547728e-13,8.168718436e-13,1.997319645e-12,3.735344896e-12,4.649820755e-12,4.198676995e-12,1.679619857e-12,1.026424146e-12,2.345322203e-12,7.175447384e-13,2.264208668e-13,2.352731009e-13,7.966988198e-13,5.765579115e-13,2.138876216e-13,7.348084839e-13,1.232094321e-12,2.377564906e-12,1.696285034e-11,1.600961498e-13,9.496470611e-15
0.92188,3.019773006e-12,3.695545461e-13,3.064771440e-13,9.962345480e-13,6.417764932e-14,3.696822906e-13,2.154145310e-13,1.001797994e-13,2.093233980e-13,3.086251394e-13,1.661542105e-12,8.128710015e-13,8.149571330e-13,1.962304941e-12,3.617710944e-12,4.584202084e-12,4.238182922e-12,1.692454951e-12,1.052032074e-12,2.412150654e-12,7.383025627e-13,2.421875554e-13,2.506962398e-13,8.317659203e-13,5.964263439e-13,2.251584298e-13,7.723642632e-13,1.288148917e-12,2.401072934e-12,1.635965203e-11,1.675635014e-13,9.398864660e-15
0.92969,3.108261227e-12,3.867029195e-13,2.791679884e-13,9.542852852e-13,6.369464966e-14,3.748392232e-13,2.142843063e-13,9.593197065e-14,2.160989696e-13,3.018236575e-13,1.630106392e-12,8.107812976e-13,8.099611317e-13,1.926277629e-12,3.504484629e-12,4.507903836e-12,4.261202462e-12,1.699047207e-12,1.071800772e-12,2.459281028e-12,7.533333347e-13,2.575062469e-13,2.679409793e-13,8.592920259e-13,6.139746412e-13,2.360167269e-13,8.097037236e-13,1.343799295e-12,2.427652162e-12,1.575905387e-11,1.755908697e-13,9.127699037e-15
0.9375,3.210101685e-12,4.076266664e-13,2.553713658e-13,9.149262410e-13,6.338403684e-14,3.782418540e-13,2.126283793e-13,9.338219862e-14,2.210428831e-13,2.972186854e-13,1.609164791e-12,8.102599405e-13,8.013710024e-13,1.880830525e-12,3.403336833e-12,4.440184937e-12,4.287042639e-12,1.709120503e-12,1.092832777e-12,2.506041790e-12,7.708357568e-13,2.696300174e-13,2.861808751e-13,8.912984896e-13,6.329720849e-13,2.463519019e-13,8.527639528e-13,1.407024432e-12,2.466576473e-12,1.518292285e-11,1.835350766e-13,8.980151345e-15
0.94531,3.319413346e-12,4.258958865e-13,2.329451825e-13,8.748830899e-13,6.266494537e-14,3.811696398e-13,2.135036910e-13,9.261329117e-14,2.247370649e-13,2.929113791e-13,1.582203091e-12,8.071877669e-13,7.903436414e-13,1.834158227e-12,3.300154186e-12,4.358862067e-12,4.292708461e-12,1.709149428e-12,1.105950368e-12,2.534998276e-12,7.820082483e-13,2.800423039e-13,3.029566151e-13,9.174801903e-13,6.486955467e-13,2.557017599e-13,8.932584115e-13,1.473943641e-12,2.502468810e-12,1.461904953e-11,1.920244592e-13,8.815382790e-15
0.95312,3.437872365e-12,4.438557645e-13,2.124064955e-13,8.347928037e-13,6.164354056e-14,3.822691266e-13,2.147635592e-13,9.275850590e-14,2.267817815e-13,2.909843138e-13,1.559085142e-12,8.042880069e-13,7.773127290e-13,1.782671502e-12,3.203489611e-12,4.279960733e-12,4.292008882e-12,1.705612960e-12,1.114619196e-12,2.555222410e-12,7.901596836e-13,2.881713215e-13,3.170134344e-13,9.391402508e-13,6.584322844e-13,2.640594427e-13,9.319594396e-13,1.550648489e-12,2.544096157e-12,1.410919327e-11,2.007511253e-13,8.729205612e-15
0.96094,3.586706636e-12,4.650787818e-13,1.937350289e-13,7.948337227e-13,6.064950449e-14,3.799082001e-13,2.133589654e-13,9.280712295e-14,2.275336204e-13,2.893132520e-13,1.538824467e-12,7.981680293e-13,7.621379670e-13,1.727991702e-12,3.110468561e-12,4.200926557e-12,4.285496070e-12,1.698749392e-12,1.119373965e-12,2.576250086e-12,7.983973658e-13,2.936337829e-13,3.272889516e-13,9.643174359e-13,6.694398752e-13,2.715783412e-13,9.776129138e-13,1.642548742e-12,2.599297919e-12,1.364162377e-11,2.087531661e-13,8.928629278e-15
0.96875,3.761399049e-12,4.877490226e-13,1.777049644e-13,7.535109480e-13,5.936444698e-14,3.744458698e-13,2.106848888e-13,9.165358733e-14,2.269152639e-13,2.878503218e-13,1.518199641e-12,7.900946291e-13,7.437657712e-13,1.670329555e-12,3.017454619e-12,4.116038732e-12,4.265280215e-12,1.684031505e-12,1.116605447e-12,2.587501914e-12,8.021499243e-13,2.962558518e-13,3.327829756e-13,9.874464927e-13,6.775994798e-13,2.778414605e-13,1.023137970e-12,1.750774453e-12,2.663898019e-12,1.325970213e-11,2.163969784e-13,9.084738175e-15
0.97656,3.957610230e-12,5.126304682e-13,1.649243035e-13,7.118357349e-13,5.786470961e-14,3.647257046e-13,2.060386015e-13,8.876221024e-14,2.246934926e-13,2.879869628e-13,1.507601561e-12,7.835609825e-13,7.221138773e-13,1.605314978e-12,2.932271532e-12,4.039215904e-12,4.244679361e-12,1.669451136e-12,1.111760478e-12,2.598313901e-12,8.064604937e-13,2.949308649e-13,3.342001297e-13,1.013773423e-12,6.832188685e-13,2.827224477e-13,1.069253570e-12,1.874661243e-12,2.741354824e-12,1.295406276e-11,2.231167111e-13,9.315095598e-15
0.98438,4.164432065e-12,5.378619016e-13,1.564528206e-13,6.717336960e-13,5.652141282e-14,3.542846147e-13,2.020781824e-13,8.379586891e-14,2.220222741e-13,2.852027083e-13,1.486808755e-12,7.709451443e-13,6.975496241e-13,1.541380187e-12,2.836621721e-12,3.939121317e-12,4.192685494e-12,1.640840202e-12,1.096130231e-12,2.588697092e-12,8.029571618e-13,2.925854791e-13,3.321619046e-13,1.032572295e-12,6.851017260e-13,2.862502303e-13,1.114069643e-12,2.000689920e-12,2.820780166e-12,1.263915182e-11,2.286450244e-13,9.735872637e-15
0.99219,4.370463763e-12,5.651802897e-13,1.531093821e-13,6.356836426e-13,5.552779420e-14,3.437206290e-13,1.979529929e-13,7.700583213e-14,2.186825712e-13,2.804443650e-13,1.458318789e-12,7.546411399e-13,6.693319899e-13,1.474064674e-12,2.733065785e-12,3.820174909e-12,4.112947060e-12,1.602648979e-12,1.073148174e-12,2.558273634e-12,7.933168942e-13,2.894946840e-13,3.290555488e-13,1.044608632e-12,6.829038238e-13,2.885316701e-13,1.157198403e-12,2.128978956e-12,2.906291841e-12,1.233444869e-11,2.333759111e-13,1.021574201e-14
1,4.555728927e-12,5.940964607e-13,1.524783406e-13,6.043555040e-13,5.501718875e-14,3.302495346e-13,1.903973984e-13,6.936812567e-14,2.148036466e-13,2.744147508e-13,1.429658189e-12,7.366062906e-13,6.380022955e-13,1.401000977e-12,2.629332037e-12,3.694697891e-12,4.020097269e-12,1.563959235e-12,1.049378868e-12,2.520767778e-12,7.841781854e-13,2.849553467e-13,3.268810181e-13,1.057754288e-12,6.831833413e-13,2.897471620e-13,1.204578760e-12,2.252648787e-12,3.000803746e-12,1.198898276e-11,2.367799094e-13,1.081424983e-14
1.0078,4.686225795e-12,6.180190523e-13,1.547466132e-13,5.770309589e-13,5.465304848e-14,3.173155594e-13,1.849222352e-13,6.154841670e-14,2.104313535e-13,2.664962886e-13,1.388511182e-12,7.149831478e-13,6.042929645e-13,1.328321733e-12,2.513746556e-12,3.545951865e-12,3.894249121e-12,1.513784538e-12,1.017714368e-12,2.457578218e-12,7.675076745e-13,2.803260121e-13,3.257846143e-13,1.059656795e-12,6.811591780e-13,2.897191988e-13,1.246437354e-12,2.355782898e-12,3.078914092e-12,1.152423566e-11,2.393910313e-13,1.129537352e-14
1.0156,4.760682118e-12,6.366780414e-13,1.575470012e-13,5.536604773e-13,5.418330235e-14,3.050682881e-13,1.805559995e-13,5.463712146e-14,2.048675872e-13,2.586817550e-13,1.343463129e-12,6.929804378e-13,5.687343569e-13,1.251958251e-12,2.394703396e-12,3.388786452e-12,3.750679135e-12,1.459933065e-12,9.836904623e-13,2.379817154e-12,7.481398342e-13,2.745593311e-13,3.268564077e-13,1.056014019e-12,6.783924263e-13,2.884535114e-13,1.284106509e-12,2.440297346e-12,3.138950881e-12,1.096292327e-11,2.413534692e-13,1.165761970e-14
1.0234,4.778314069e-12,6.468804536e-13,1.601437655e-13,5.340175734e-13,5.363961104e-14,2.928705892e-13,1.764641845e-13,4.951843948e-14,1.988384910e-13,2.498057127e-13,1.289392313e-12,6.674170618e-13,5.328038961e-13,1.176727784e-12,2.268452813e-12,3.216687611e-12,3.585898786e-12,1.399581624e-12,9.455754178e-13,2.288994243e-12,7.251706768e-13,2.686732973e-13,3.293977993e-13,1.045189326e-12,6.763756418e-13,2.860289353e-13,1.320467460e-12,2.497087046e-12,3.177562986e-12,1.028848441e-11,2.421185954e-13,1.232217313e-14
1.0312,4.757092258e-12,6.489648685e-13,1.649520071e-13,5.141281326e-13,5.232492607e-14,2.806873091e-13,1.748974445e-13,4.621494700e-14,1.914174302e-13,2.415585963e-13,1.229353750e-12,6.401815588e-13,4.962373523e-13,1.101175608e-12,2.135002680e-12,3.034405635e-12,3.404300216e-12,1.332619123e-12,9.030622873e-13,2.185785414e-12,6.985165490e-13,2.612600064e-13,3.326160546e-13,1.028911619e-12,6.747576094e-13,2.828284376e-13,1.353091035e-12,2.534464823e-12,3.190287962e-12,9.562977050e-12,2.422862004e-13,1.290647344e-14
1.0391,4.736592395e-12,6.489938449e-13,1.710624734e-13,4.929928321e-13,5.016065280e-14,2.673840590e-13,1.732397455e-13,4.476912818e-14,1.820995277e-13,2.351204819e-13,1.173430513e-12,6.132195120e-13,4.591764628e-13,1.022089968e-12,2.003190188e-12,2.858032393e-12,3.223332545e-12,1.266352905e-12,8.604141148e-13,2.085342229e-12,6.732448513e-13,2.503255587e-13,3.349119526e-13,1.015324658e-12,6.753020373e-13,2.791279841e-13,1.387065247e-12,2.565093247e-12,3.191041434e-12,8.873195920e-12,2.420854845e-13,1.335509863e-14
1.0469,4.724477933e-12,6.421408337e-13,1.794213973e-13,4.718168648e-13,4.742128826e-14,2.553178437e-13,1.735096722e-13,4.475221834e-14,1.721463821e-13,2.294014359e-13,1.111131205e-12,5.840529991e-13,4.234242304e-13,9.483001960e-13,1.865687832e-12,2.675376715e-12,3.030086637e-12,1.192716553e-12,8.122990328e-13,1.977203211e-12,6.431092845e-13,2.383205770e-13,3.337830427e-13,9.923688458e-13,6.690695413e-13,2.742819644e-13,1.412651865e-12,2.577567069e-12,3.167536846e-12,8.224961466e-12,2.413205629e-13,1.394366340e-14
1.0547,4.728857737e-12,6.316901722e-13,1.894539435e-13,4.500701475e-13,4.409057069e-14,2.425882731e-13,1.730548205e-13,4.524236047e-14,1.610382929e-13,2.246347594e-13,1.051789641e-12,5.558868026e-13,3.887067211e-13,8.763477476e-13,1.731796157e-12,2.501420694e-12,2.841344096e-12,1.119890356e-12,7.643304165e-13,1.872897020e-12,6.136222138e-13,2.243285838e-13,3.299186105e-13,9.695816249e-13,6.609453143e-13,2.683847579e-13,1.434996027e-12,2.591377053e-12,3.133745657e-12,7.712786274e-12,2.389780228e-13,1.453847928e-14
1.0625,4.762086801e-12,6.225025160e-13,2.009756893e-13,4.314145303e-13,4.079790598e-14,2.284513096e-13,1.700686351e-13,4.545543226e-14,1.492300993e-13,2.187679542e-13,9.956390128e-13,5.274335294e-13,3.551012389e-13,8.061711353e-13,1.602231047e-12,2.336989821e-12,2.658568843e-12,1.048410599e-12,7.165462870e-13,1.774756692e-12,5.858867072e-13,2.085560858e-13,3.225412771e-13,9.507650068e-13,6.533007279e-13,2.614452654e-13,1.459758582e-12,2.618829403e-12,3.111834521e-12,7.377952875e-12,2.342139293e-13,1.545742754e-14
1.0703,4.832009035e-12,6.120257169e-13,2.168781745e-13,4.138857049e-13,3.749677344e-14,2.149323531e-13,1.684874946e-13,4.482909488e-14,1.375944055e-13,2.124469105e-13,9.387605931e-13,4.995153693e-13,3.239039603e-13,7.412539418e-13,1.473857289e-12,2.176878668e-12,2.475097347e-12,9.747295240e-13,6.672470877e-13,1.673717396e-12,5.561732344e-13,1.927593447e-13,3.115765284e-13,9.292779472e-13,6.396737824e-13,2.529213359e-13,1.470596181e-12,2.652480815e-12,3.087444471e-12,7.175266461e-12,2.275496367e-13,1.628304621e-14
1.0781,4.895924412e-12,6.044504285e-13,2.337629813e-13,3.963147744e-13,3.441449488e-14,2.008083293e-13,1.652702434e-13,4.317844772e-14,1.260341997e-13,2.056682275e-13,8.885726337e-13,4.734284945e-13,2.950285011e-13,6.785601725e-13,1.355754993e-12,2.031522181e-12,2.306296615e-12,9.076875598e-13,6.230160225e-13,1.585151343e-12,5.302721997e-13,1.769634279e-13,2.991699889e-13,9.125399464e-13,6.261306323e-13,2.434958726e-13,1.473855260e-12,2.694632354e-12,3.072094049e-12,7.071772382e-12,2.189510322e-13,1.699361368e-14
1.0859,4.908668521e-12,5.919123437e-13,2.470024256e-13,3.837022692e-13,3.208199758e-14,1.875364674e-13,1.608220407e-13,4.073854744e-14,1.153545397e-13,1.969156265e-13,8.361588341e-13,4.463005401e-13,2.687843817e-13,6.215049490e-13,1.242753528e-12,1.890394379e-12,2.143143609e-12,8.432885443e-13,5.816867578e-13,1.506305712e-12,5.060252532e-13,1.629296348e-13,2.856092829e-13,8.939227186e-13,6.103370174e-13,2.333189638e-13,1.470546664e-12,2.728470623e-12,3.065602389e-12,6.973660031e-12,2.086901206e-13,1.811700886e-14
1.0938,4.903196657e-12,5.719663089e-13,2.577989001e-13,3.745977662e-13,3.009246780e-14,1.750302826e-13,1.570997973e-13,3.812196036e-14,1.055329326e-13,1.879778013e-13,7.866064363e-13,4.217198981e-13,2.456019229e-13,5.685920159e-13,1.137570046e-12,1.758142958e-12,1.989543540e-12,7.845076965e-13,5.454325023e-13,1.436529838e-12,4.851243109e-13,1.502822323e-13,2.728922146e-13,8.778780544e-13,5.951694823e-13,2.226609587e-13,1.456851207e-12,2.752414913e-12,3.059143467e-12,6.828885388e-12,1.974717896e-13,1.905770255e-14
1.1016,4.844094483e-12,5.534479997e-13,2.657229108e-13,3.682043576e-13,2.854088316e-14,1.624558583e-13,1.525282756e-13,3.606030097e-14,9.629993792e-14,1.782501240e-13,7.425509357e-13,3.988067522e-13,2.249051916e-13,5.187172728e-13,1.041566330e-12,1.634851573e-12,1.848217928e-12,7.327835260e-13,5.148134219e-13,1.379969246e-12,4.691933313e-13,1.384166258e-13,2.619662915e-13,8.676144877e-13,5.855382380e-13,2.125005288e-13,1.442351261e-12,2.762252680e-12,3.055755093e-12,6.594155008e-12,1.860125169e-13,1.992990336e-14
1.1094,4.696747320e-12,5.296404783e-13,2.702073465e-13,3.638232707e-13,2.726010960e-14,1.516990251e-13,1.493396576e-13,3.511945251e-14,8.779202277e-14,1.682140496e-13,6.961945382e-13,3.752133223e-13,2.062046931e-13,4.747488111e-13,9.485058853e-13,1.511217560e-12,1.708234544e-12,6.810285421e-13,4.847448929e-13,1.328753461e-12,4.527079734e-13,1.280130234e-13,2.518032105e-13,8.512850232e-13,5.735625933e-13,2.021539781e-13,1.418914358e-12,2.737050990e-12,3.030613303e-12,6.234771304e-12,1.750759790e-13,2.075831217e-14
1.1172,4.525941510e-12,4.996812262e-13,2.731754666e-13,3.617505480e-13,2.607799200e-14,1.422924857e-13,1.474066431e-13,3.555636483e-14,7.962268286e-14,1.588789023e-13,6.531624727e-13,3.530016189e-13,1.889930044e-13,4.335262041e-13,8.609621935e-13,1.392288595e-12,1.574785515e-12,6.332733333e-13,4.578089981e-13,1.286033244e-12,4.384916254e-13,1.182905847e-13,2.435220214e-13,8.364198136e-13,5.639424198e-13,1.915691677e-13,1.390352954e-12,2.687371586e-12,2.986479758e-12,5.817422755e-12,1.643823029e-13,2.146994430e-14
1.125,4.332157688e-12,4.687280207e-13,2.749723459e-13,3.623106214e-13,2.516806375e-14,1.340776698e-13,1.459269519e-13,3.721243479e-14,7.192373803e-14,1.491105848e-13,6.104005551e-13,3.306319737e-13,1.730881130e-13,3.960396952e-13,7.769956768e-13,1.273954484e-12,1.446083732e-12,5.883068165e-13,4.334733892e-13,1.252350279e-12,4.265001887e-13,1.094267782e-13,2.369504940e-13,8.231868040e-13,5.578554636e-13,1.815947332e-13,1.364350384e-12,2.613320548e-12,2.929307710e-12,5.362029672e-12,1.541203239e-13,2.240495708e-14
1.1328,4.114311850e-12,4.365068378e-13,2.774613065e-13,3.601543073e-13,2.405930184e-14,1.274729385e-13,1.465215072e-13,3.965769036e-14,6.477700466e-14,1.400740164e-13,5.679803503e-13,3.093106920e-13,1.583590507e-13,3.632593934e-13,6.992667900e-13,1.163211806e-12,1.325642650e-12,5.446640291e-13,4.099125267e-13,1.223551948e-12,4.134987246e-13,1.012033699e-13,2.312964718e-13,8.055233737e-13,5.498253024e-13,1.720024972e-13,1.334511411e-12,2.517527815e-12,2.844934403e-12,4.897130993e-12,1.446375111e-13,2.287424867e-14
1.1406,3.919763797e-12,4.035387086e-13,2.819725394e-13,3.575923514e-13,2.285798147e-14,1.222618293e-13,1.476659269e-13,4.219378525e-14,5.812044001e-14,1.314995093e-13,5.295786765e-13,2.892563752e-13,1.443749768e-13,3.334564367e-13,6.301970637e-13,1.064807636e-12,1.217582951e-12,5.051281329e-13,3.889976864e-13,1.203751683e-12,4.022153440e-13,9.312864369e-14,2.268071065e-13,7.894115343e-13,5.429151062e-13,1.626935849e-13,1.304524671e-12,2.417072016e-12,2.745621761e-12,4.490827418e-12,1.355704930e-13,2.320828490e-14
1.1484,3.753647329e-12,3.705151847e-13,2.886826493e-13,3.566303774e-13,2.166528376e-14,1.188526032e-13,1.492401662e-13,4.399677992e-14,5.234875656e-14,1.230734896e-13,4.922862198e-13,2.693001929e-13,1.316585620e-13,3.088445538e-13,5.666064692e-13,9.723985664e-13,1.116366258e-12,4.671191956e-13,3.698162095e-13,1.193170701e-12,3.919856225e-13,8.602449493e-14,2.229979224e-13,7.732349974e-13,5.348062256e-13,1.533059332e-13,1.268777053e-12,2.308270875e-12,2.627888489e-12,4.124578911e-12,1.265174325e-13,2.382160184e-14
1.1562,3.602492712e-12,3.414077737e-13,2.953056166e-13,3.545754409e-13,2.023190480e-14,1.161567670e-13,1.528792874e-13,4.465127196e-14,4.741762288e-14,1.153389458e-13,4.613244833e-13,2.524159075e-13,1.209674964e-13,2.888953571e-13,5.140296436e-13,8.954363089e-13,1.030065496e-12,4.341028367e-13,3.541560531e-13,1.188570805e-12,3.833305349e-13,7.965621610e-14,2.203800131e-13,7.597690159e-13,5.278714446e-13,1.437754097e-13,1.227633896e-12,2.204768249e-12,2.497232864e-12,3.785789646e-12,1.171852576e-13,2.428490876e-14
1.1641,3.456962172e-12,3.138000267e-13,2.982753929e-13,3.528685667e-13,1.874929749e-14,1.134010884e-13,1.569627202e-13,4.420749229e-14,4.312860679e-14,1.075618248e-13,4.368137252e-13,2.377150521e-13,1.121225810e-13,2.726925339e-13,4.725611919e-13,8.328754955e-13,9.586583409e-13,4.071224441e-13,3.430205666e-13,1.189507573e-12,3.776848373e-13,7.376911214e-14,2.190503467e-13,7.513177953e-13,5.243618831e-13,1.346600299e-13,1.186642649e-12,2.112416431e-12,2.374350967e-12,3.487732039e-12,1.081349735e-13,2.491778013e-14
1.1719,3.322623721e-12,2.860819376e-13,3.007535408e-13,3.490810697e-13,1.720240698e-14,1.112202005e-13,1.612497182e-13,4.306385908e-14,3.948945024e-14,1.002141706e-13,4.153498741e-13,2.240651400e-13,1.048897957e-13,2.609230663e-13,4.364964044e-13,7.774827255e-13,8.934317248e-13,3.813591250e-13,3.330068906e-13,1.190784782e-12,3.722724326e-13,6.869874301e-14,2.183146361e-13,7.426819555e-13,5.192773391e-13,1.257625637e-13,1.136159477e-12,2.022285150e-12,2.249360678e-12,3.216861453e-12,9.956930275e-14,2.530544860e-14
1.1797,3.186683912e-12,2.632737390e-13,3.017142378e-13,3.435429313e-13,1.577275053e-14,1.092991140e-13,1.668919042e-13,4.210048259e-14,3.632256908e-14,9.327161645e-14,4.000954075e-13,2.124557804e-13,9.938511951e-14,2.517271191e-13,4.072394996e-13,7.314687465e-13,8.385316671e-13,3.598413119e-13,3.262943567e-13,1.194576243e-12,3.698486481e-13,6.405298805e-14,2.191568480e-13,7.403654426e-13,5.183030922e-13,1.175397104e-13,1.084871986e-12,1.944955910e-12,2.131027802e-12,2.978150957e-12,9.140327345e-14,2.552709458e-14
1.1875,3.038357197e-12,2.436688389e-13,3.000489265e-13,3.394676992e-13,1.477181483e-14,1.077620060e-13,1.739961463e-13,4.229889825e-14,3.358585226e-14,8.701951928e-14,3.901840800e-13,2.018150320e-13,9.554445472e-14,2.456192401e-13,3.850676060e-13,6.917080938e-13,7.935214027e-13,3.425636029e-13,3.232582593e-13,1.205075546e-12,3.705474678e-13,5.990815998e-14,2.211600770e-13,7.436740093e-13,5.214758032e-13,1.103950502e-13,1.037858660e-12,1.881206155e-12,2.029862859e-12,2.799278314e-12,8.406807559e-14,2.596495673e-14
1.1953,2.892357354e-12,2.269895602e-13,2.984682812e-13,3.346994490e-13,1.414257767e-14,1.070517792e-13,1.836282537e-13,4.418325676e-14,3.121881124e-14,8.193082430e-14,3.849383143e-13,1.929502029e-13,9.318042713e-14,2.433354779e-13,3.691310140e-13,6.587501549e-13,7.560593272e-13,3.267506900e-13,3.204697190e-13,1.214536814e-12,3.702845263e-13,5.622776438e-14,2.229314919e-13,7.467241807e-13,5.235932855e-13,1.037071685e-13,9.866127048e-13,1.833250800e-12,1.936937478e-12,2.694201816e-12,7.739289905e-14,2.584956532e-14
1.2031,2.737045102e-12,2.138252532e-13,2.946162280e-13,3.286993015e-13,1.385778600e-14,1.070551222e-13,1.951372129e-13,4.781702293e-14,2.915323199e-14,7.756633628e-14,3.866256480e-13,1.859967047e-13,9.234034075e-14,2.441563539e-13,3.610329267e-13,6.351462424e-13,7.306276272e-13,3.150711552e-13,3.197827780e-13,1.228829967e-12,3.717561857e-13,5.281903932e-14,2.244214437e-13,7.555748720e-13,5.275795544e-13,9.769547894e-14,9.364877076e-13,1.802556586e-12,1.857175192e-12,2.655932429e-12,7.121149255e-14,2.541752626e-14
1.2109,2.584612856e-12,2.027359873e-13,2.926590217e-13,3.213718247e-13,1.378241570e-14,1.083413090e-13,2.084291189e-13,5.272858592e-14,2.762025369e-14,7.431421421e-14,3.943899916e-13,1.798348353e-13,9.301119305e-14,2.498211141e-13,3.608012710e-13,6.200460763e-13,7.161002065e-13,3.065054793e-13,3.205270839e-13,1.252667010e-12,3.749496765e-13,5.015607110e-14,2.248358724e-13,7.689420924e-13,5.308797133e-13,9.242204271e-14,8.864688920e-13,1.781175134e-12,1.785904443e-12,2.671238449e-12,6.550508383e-14,2.472972686e-14
1.2188,2.450828317e-12,1.954893402e-13,2.939874716e-13,3.130213004e-13,1.380785559e-14,1.107815773e-13,2.249484422e-13,5.797755279e-14,2.658348245e-14,7.204028408e-14,4.099193953e-13,1.754071482e-13,9.476047972e-14,2.587310887e-13,3.695589189e-13,6.156369849e-13,7.132490015e-13,3.013947507e-13,3.224718060e-13,1.283297249e-12,3.790940551e-13,4.795258558e-14,2.240735249e-13,7.865153575e-13,5.344338561e-13,8.740907791e-14,8.363288728e-13,1.770964852e-12,1.719619108e-12,2.717524827e-12,6.011917057e-14,2.364555594e-14
1.2266,2.320952546e-12,1.920815484e-13,2.969992372e-13,3.045379659e-13,1.394476555e-14,1.143750016e-13,2.431359168e-13,6.262366120e-14,2.597874633e-14,7.028396844e-14,4.319540552e-13,1.714745265e-13,9.684633351e-14,2.686446093e-13,3.847433331e-13,6.180364026e-13,7.197595944e-13,2.996774856e-13,3.261023023e-13,1.324006496e-12,3.851070930e-13,4.620865021e-14,2.225410938e-13,8.096041402e-13,5.401164081e-13,8.274863353e-14,7.895238669e-13,1.760006455e-12,1.657455465e-12,2.754856665e-12,5.506654305e-14,2.254060027e-14
1.2344,2.190115898e-12,1.928993377e-13,3.042637408e-13,2.949461367e-13,1.410522316e-14,1.193432010e-13,2.613315803e-13,6.582459267e-14,2.588054126e-14,6.867083422e-14,4.552533602e-13,1.671638123e-13,9.876778346e-14,2.802360359e-13,4.018531417e-13,6.229700777e-13,7.270342609e-13,2.971978229e-13,3.277354790e-13,1.363382336e-12,3.897576599e-13,4.529410638e-14,2.203275410e-13,8.308542836e-13,5.436863576e-13,7.842415837e-14,7.421573303e-13,1.737135721e-12,1.586423577e-12,2.747233259e-12,5.062099560e-14,2.106301840e-14
1.2422,2.053521331e-12,1.977519835e-13,3.125743345e-13,2.859072674e-13,1.435284240e-14,1.246031207e-13,2.797274492e-13,6.713318524e-14,2.620583564e-14,6.728757675e-14,4.837212721e-13,1.641091221e-13,1.007102533e-13,2.922638075e-13,4.246214817e-13,6.349114921e-13,7.409521203e-13,2.981575039e-13,3.310201546e-13,1.404615186e-12,3.959543657e-13,4.500958209e-14,2.192398516e-13,8.545223221e-13,5.490793705e-13,7.457352491e-14,6.996212510e-13,1.712774481e-12,1.512819205e-12,2.702057401e-12,4.706481481e-14,1.966376547e-14
1.25,1.925793239e-12,2.052621037e-13,3.256368412e-13,2.776281370e-13,1.475800771e-14,1.314982444e-13,2.996064886e-13,6.677764719e-14,2.698292900e-14,6.639206228e-14,5.167578487e-13,1.617117965e-13,1.027897272e-13,3.057810825e-13,4.530871459e-13,6.527870907e-13,7.619543257e-13,3.033543600e-13,3.372502217e-13,1.451725930e-12,4.045407789e-13,4.559525700e-14,2.198056653e-13,8.807272340e-13,5.555255545e-13,7.126673615e-14,6.618521430e-13,1.689473983e-12,1.440872891e-12,2.639075086e-12,4.417858621e-14,1.859951702e-14
1.2578,1.813434940e-12,2.176606587e-13,3.458791560e-13,2.681856074e-13,1.524412006e-14,1.414522716e-13,3.223436182e-13,6.535355919e-14,2.794297740e-14,6.579956093e-14,5.500903916e-13,1.602152394e-13,1.046328896e-13,3.210190708e-13,4.835249173e-13,6.720567602e-13,7.791654786e-13,3.073926279e-13,3.415299470e-13,1.482824244e-12,4.090372214e-13,4.658986073e-14,2.213023611e-13,9.000540702e-13,5.590523721e-13,6.809710957e-14,6.240130220e-13,1.665303188e-12,1.363768870e-12,2.564168537e-12,4.194122879e-14,1.755530854e-14
1.2656,1.715627010e-12,2.347627671e-13,3.713633849e-13,2.582807016e-13,1.579143023e-14,1.530212012e-13,3.477260534e-13,6.363249205e-14,2.891159935e-14,6.585669022e-14,5.845011212e-13,1.597399561e-13,1.060817213e-13,3.362983175e-13,5.145908931e-13,6.903522873e-13,7.924232114e-13,3.108768352e-13,3.447409125e-13,1.498071547e-12,4.099757512e-13,4.755820598e-14,2.238903212e-13,9.131630143e-13,5.617053555e-13,6.509708491e-14,5.907821683e-13,1.642934567e-12,1.287366191e-12,2.492943581e-12,4.024532360e-14,1.687651664e-14
1.2734,1.649135293e-12,2.549408481e-13,4.043798608e-13,2.495054699e-13,1.636324212e-14,1.665760970e-13,3.756223650e-13,6.234661111e-14,3.013707017e-14,6.645257968e-14,6.164485784e-13,1.590482040e-13,1.074216281e-13,3.527698200e-13,5.431334954e-13,7.050461930e-13,8.017347231e-13,3.131189535e-13,3.462682048e-13,1.500942267e-12,4.075615533e-13,4.878166664e-14,2.267634554e-13,9.176394380e-13,5.599311608e-13,6.236381983e-14,5.598887014e-13,1.623276819e-12,1.212244757e-12,2.425509531e-12,3.908422828e-14,1.627757625e-14
1.2812,1.615625380e-12,2.814845443e-13,4.424228155e-13,2.430801146e-13,1.685498758e-14,1.826603206e-13,4.091815226e-13,6.208987029e-14,3.154566722e-14,6.826303716e-14,6.500017694e-13,1.592306610e-13,1.091833001e-13,3.687358238e-13,5.714469560e-13,7.199045263e-13,8.092698460e-13,3.150751712e-13,3.468365750e-13,1.489756163e-12,4.019548947e-13,4.988081566e-14,2.297139939e-13,9.167772968e-13,5.563848688e-13,5.981340292e-14,5.305382092e-13,1.611398380e-12,1.139179348e-12,2.362002366e-12,3.874483050e-14,1.580343360e-14
1.2891,1.611066656e-12,3.143638957e-13,4.887233802e-13,2.375721355e-13,1.721592143e-14,2.003691669e-13,4.490516740e-13,6.310441710e-14,3.317830188e-14,7.157252405e-14,6.854727388e-13,1.593982861e-13,1.116766197e-13,3.841105659e-13,5.996155930e-13,7.348900996e-13,8.165748654e-13,3.174662758e-13,3.474639272e-13,1.471635492e-12,3.953736329e-13,5.104207239e-14,2.321394285e-13,9.139433893e-13,5.530056474e-13,5.756159813e-14,5.056020715e-13,1.600057942e-12,1.072005691e-12,2.291651690e-12,3.884270067e-14,1.551736114e-14
1.2969,1.625910499e-12,3.510944713e-13,5.442712606e-13,2.324639240e-13,1.757904949e-14,2.199762919e-13,4.923725036e-13,6.513595914e-14,3.524144340e-14,7.549966558e-14,7.182108536e-13,1.590183209e-13,1.152435337e-13,4.012722170e-13,6.268841484e-13,7.492832731e-13,8.221680380e-13,3.182743835e-13,3.455484725e-13,1.443914824e-12,3.856076441e-13,5.269356710e-14,2.323919198e-13,9.028801794e-13,5.436531512e-13,5.548787863e-14,4.810829933e-13,1.578276014e-12,1.007481688e-12,2.194668441e-12,3.948693272e-14,1.492167421e-14
1.3047,1.667755955e-12,3.950377915e-13,6.076468717e-13,2.302301004e-13,1.813892662e-14,2.426214099e-13,5.431491476e-13,6.785000491e-14,3.773858131e-14,8.104118156e-14,7.581569123e-13,1.599941097e-13,1.205802240e-13,4.195070200e-13,6.599085575e-13,7.709175258e-13,8.344537769e-13,3.220186595e-13,3.445187414e-13,1.416914155e-12,3.760112972e-13,5.498375585e-14,2.309237718e-13,8.922254252e-13,5.326174921e-13,5.350838853e-14,4.576887750e-13,1.550346733e-12,9.481846548e-13,2.094330507e-12,4.076910257e-14,1.433750266e-14
1.3125,1.742205602e-12,4.472465675e-13,6.833058291e-13,2.300121254e-13,1.893061885e-14,2.690377662e-13,6.026476581e-13,7.071554121e-14,4.060837504e-14,8.815357448e-14,8.042955835e-13,1.615865718e-13,1.274948220e-13,4.385987945e-13,6.968405631e-13,7.969725880e-13,8.512437111e-13,3.287514574e-13,3.447360537e-13,1.395552961e-12,3.676618483e-13,5.827440629e-14,2.278188787e-13,8.839368727e-13,5.213474480e-13,5.187059793e-14,4.359016852e-13,1.509940873e-12,8.948916499e-13,1.988417832e-12,4.251464539e-14,1.374310538e-14
1.3203,1.837636150e-12,5.066829018e-13,7.667932358e-13,2.307499611e-13,1.998414797e-14,2.981828379e-13,6.682477108e-13,7.314953845e-14,4.367302389e-14,9.633277076e-14,8.518527894e-13,1.636515431e-13,1.353198297e-13,4.565225091e-13,7.344058440e-13,8.231176820e-13,8.665857539e-13,3.358187863e-13,3.441470040e-13,1.372755458e-12,3.580298552e-13,6.220172698e-14,2.229073837e-13,8.736525414e-13,5.082180045e-13,5.057935988e-14,4.139677101e-13,1.456025717e-12,8.455693026e-13,1.872024243e-12,4.517600195e-14,1.297558191e-14
1.3281,1.960685837e-12,5.743885570e-13,8.589451746e-13,2.348063265e-13,2.143877304e-14,3.300383457e-13,7.422899180e-13,7.499901685e-14,4.686747345e-14,1.061601678e-13,9.021652535e-13,1.661999237e-13,1.439367174e-13,4.730367786e-13,7.718363591e-13,8.493513715e-13,8.831398453e-13,3.448864539e-13,3.444894568e-13,1.353209179e-12,3.496433736e-13,6.667591534e-14,2.170316140e-13,8.651835494e-13,4.949825499e-13,4.964079298e-14,3.942425411e-13,1.393228383e-12,8.013757996e-13,1.760519447e-12,4.864538219e-14,1.228362822e-14
1.3359,2.103905478e-12,6.482325298e-13,9.645382309e-13,2.426595432e-13,2.322983848e-14,3.656521314e-13,8.244358510e-13,7.618023265e-14,5.003358121e-14,1.173071205e-13,9.488218526e-13,1.681314737e-13,1.528021355e-13,4.895800416e-13,8.047226755e-13,8.702680744e-13,8.969424171e-13,3.539780214e-13,3.438815348e-13,1.331738303e-12,3.400804876e-13,7.162727555e-14,2.098141868e-13,8.525418420e-13,4.779900391e-13,4.923434621e-14,3.754558693e-13,1.319924658e-12,7.604293551e-13,1.649605787e-12,5.300578602e-14,1.159772440e-14
1.3438,2.270122496e-12,7.269144418e-13,1.079247503e-12,2.529027960e-13,2.506405102e-14,4.037255639e-13,9.167855840e-13,7.659488111e-14,5.295043965e-14,1.307311334e-13,9.957689762e-13,1.702970089e-13,1.612497706e-13,5.026657241e-13,8.345407266e-13,8.873207814e-13,9.079680214e-13,3.631919920e-13,3.426550588e-13,1.306874212e-12,3.290086096e-13,7.638158737e-14,2.013234530e-13,8.374782765e-13,4.586349133e-13,4.918198134e-14,3.573690526e-13,1.251285261e-12,7.234618350e-13,1.559724573e-12,5.835785017e-14,1.124533427e-14
1.3516,2.457724978e-12,8.101547694e-13,1.201552875e-12,2.655405353e-13,2.681714716e-14,4.441506721e-13,1.017782642e-12,7.637106259e-14,5.562351838e-14,1.459445855e-13,1.039416708e-12,1.716326147e-13,1.692533500e-13,5.122155314e-13,8.584023203e-13,8.988487520e-13,9.160248633e-13,3.734453847e-13,3.417816640e-13,1.279301435e-12,3.182364079e-13,8.128355035e-14,1.925764279e-13,8.202852781e-13,4.372508818e-13,4.934869150e-14,3.416230228e-13,1.185466207e-12,6.894177777e-13,1.481341670e-12,6.444814702e-14,1.127607587e-14
1.3594,2.647943696e-12,8.960927115e-13,1.331114654e-12,2.813125628e-13,2.847762418e-14,4.883163518e-13,1.122596941e-12,7.583380092e-14,5.802010901e-14,1.612862856e-13,1.069682212e-12,1.707322103e-13,1.770442362e-13,5.194412289e-13,8.728761526e-13,9.023269143e-13,9.198305357e-13,3.843725150e-13,3.407225900e-13,1.244782368e-12,3.065177327e-13,8.653635224e-14,1.841746074e-13,7.950399937e-13,4.124654471e-13,4.970155848e-14,3.259843949e-13,1.117724280e-12,6.559319323e-13,1.404837644e-12,7.159538199e-14,1.147608039e-14
1.3672,2.862691777e-12,9.855689172e-13,1.468248833e-12,3.005019706e-13,3.002401759e-14,5.363421706e-13,1.235462120e-12,7.528375667e-14,6.026492631e-14,1.778419332e-13,1.092076600e-12,1.687351699e-13,1.847318411e-13,5.229820968e-13,8.803216934e-13,9.007380550e-13,9.206751071e-13,3.965147059e-13,3.404711628e-13,1.207635505e-12,2.953868089e-13,9.185488461e-14,1.759563080e-13,7.664806132e-13,3.872994883e-13,5.003881049e-14,3.102877185e-13,1.058164002e-12,6.249020813e-13,1.349479142e-12,7.930126236e-14,1.207395958e-14
1.375,3.105030904e-12,1.077806630e-12,1.611606120e-12,3.213819620e-13,3.141851519e-14,5.874805668e-13,1.353266114e-12,7.478073446e-14,6.247688800e-14,1.952801472e-13,1.104291329e-12,1.650151359e-13,1.924879079e-13,5.237008094e-13,8.785862130e-13,8.908094667e-13,9.158295307e-13,4.086753523e-13,3.400467498e-13,1.165914695e-12,2.843014904e-13,9.762984545e-14,1.677127315e-13,7.326851039e-13,3.604832910e-13,5.046229762e-14,2.955129629e-13,9.980932268e-13,5.962155931e-13,1.295069315e-12,8.702313012e-14,1.288276973e-14
1.3828,3.360896531e-12,1.168775102e-12,1.754680124e-12,3.432488147e-13,3.275859734e-14,6.406375122e-13,1.472430051e-12,7.443518818e-14,6.476724051e-14,2.131109175e-13,1.107922382e-12,1.597537700e-13,2.012896208e-13,5.207770320e-13,8.713723423e-13,8.770539467e-13,9.107433470e-13,4.229062317e-13,3.408630246e-13,1.123095684e-12,2.738020134e-13,1.042989052e-13,1.600983525e-13,6.957172671e-13,3.336418462e-13,5.107950555e-14,2.811348741e-13,9.389376689e-13,5.713151240e-13,1.248145713e-12,9.499313385e-14,1.399380751e-14
1.3906,3.631297093e-12,1.257195523e-12,1.896030358e-12,3.689040968e-13,3.441857507e-14,6.957606203e-13,1.594393975e-12,7.447444560e-14,6.742292819e-14,2.314655870e-13,1.105325608e-12,1.535151223e-13,2.119177520e-13,5.151680636e-13,8.601907723e-13,8.620920429e-13,9.068849861e-13,4.402537409e-13,3.439659630e-13,1.082755969e-12,2.651115696e-13,1.121362167e-13,1.533206086e-13,6.597797493e-13,3.081840271e-13,5.185057012e-14,2.667992993e-13,8.819284406e-13,5.506959664e-13,1.215437914e-12,1.027665825e-13,1.541657819e-14
1.3984,3.907230176e-12,1.343754442e-12,2.037818531e-12,3.971865029e-13,3.640007969e-14,7.525753144e-13,1.715946145e-12,7.501218371e-14,7.038803324e-14,2.494921041e-13,1.091728078e-12,1.456302728e-13,2.243668204e-13,5.086137564e-13,8.430352275e-13,8.432075764e-13,9.031592391e-13,4.601943584e-13,3.489458347e-13,1.043814308e-12,2.577046461e-13,1.211402305e-13,1.475944205e-13,6.229799153e-13,2.832686907e-13,5.284423454e-14,2.526240440e-13,8.200271466e-13,5.324211377e-13,1.186231089e-12,1.099391559e-13,1.688044382e-14
1.4062,4.188260587e-12,1.429563778e-12,2.181621748e-12,4.255610455e-13,3.869599793e-14,8.108493495e-13,1.841029294e-12,7.619085030e-14,7.358438023e-14,2.686615565e-13,1.076852695e-12,1.379215015e-13,2.385678848e-13,4.997310243e-13,8.249141750e-13,8.247736248e-13,9.034804628e-13,4.835642345e-13,3.567675395e-13,1.012300390e-12,2.525796067e-13,1.313783160e-13,1.431620100e-13,5.898651487e-13,2.616042733e-13,5.404687913e-14,2.403006536e-13,7.597343654e-13,5.186644737e-13,1.177939047e-12,1.165176584e-13,1.874773174e-14
1.4141,4.455424613e-12,1.511896143e-12,2.323904488e-12,4.554198587e-13,4.147914009e-14,8.698654369e-13,1.967871743e-12,7.818387415e-14,7.683712825e-14,2.891929463e-13,1.060113658e-12,1.305229240e-13,2.539718026e-13,4.894428605e-13,8.038737393e-13,8.049585631e-13,9.045702986e-13,5.097168486e-13,3.665850523e-13,9.850411163e-13,2.492081196e-13,1.425743383e-13,1.398343281e-13,5.593537715e-13,2.420838585e-13,5.560432293e-14,2.299526264e-13,6.979575782e-13,5.092240000e-13,1.179319596e-12,1.228024782e-13,2.078626882e-14
1.4219,4.693929240e-12,1.588105013e-12,2.459549214e-12,4.865951162e-13,4.448187971e-14,9.280584654e-13,2.091398728e-12,8.105094339e-14,7.991690692e-14,3.105255906e-13,1.039270472e-12,1.231973171e-13,2.704841738e-13,4.780129031e-13,7.803271221e-13,7.858748673e-13,9.096861659e-13,5.403724930e-13,3.794996364e-13,9.627585817e-13,2.479998326e-13,1.542933633e-13,1.377809547e-13,5.310771421e-13,2.233065351e-13,5.761253364e-14,2.196141132e-13,6.359543905e-13,5.013833997e-13,1.182823271e-12,1.294429924e-13,2.289253907e-14
1.4297,4.911110991e-12,1.660460058e-12,2.592890308e-12,5.194463063e-13,4.770293688e-14,9.867650634e-13,2.215228981e-12,8.464507207e-14,8.292130125e-14,3.334909997e-13,1.019743920e-12,1.173284103e-13,2.879420429e-13,4.660385721e-13,7.568856109e-13,7.697787964e-13,9.189539750e-13,5.745949409e-13,3.956130888e-13,9.473465760e-13,2.492476869e-13,1.664786475e-13,1.364129719e-13,5.066380589e-13,2.055932478e-13,5.983745433e-14,2.090989436e-13,5.779922493e-13,4.939436814e-13,1.195863156e-12,1.364247094e-13,2.529132600e-14
1.4375,5.081503881e-12,1.724517035e-12,2.719690256e-12,5.537955497e-13,5.101794811e-14,1.045188530e-12,2.332611141e-12,8.857982929e-14,8.557931270e-14,3.566927535e-13,9.955880874e-13,1.119011045e-13,3.048617001e-13,4.539299731e-13,7.297718600e-13,7.521958575e-13,9.270441125e-13,6.095196950e-13,4.128204478e-13,9.338005757e-13,2.518724709e-13,1.783137083e-13,1.353734939e-13,4.823975878e-13,1.887819308e-13,6.232551834e-14,1.992890887e-13,5.188324281e-13,4.843306405e-13,1.193522102e-12,1.438487512e-13,2.760849483e-14
1.4453,5.203473993e-12,1.778220498e-12,2.831875158e-12,5.880635486e-13,5.412112152e-14,1.100741232e-12,2.440733370e-12,9.243951002e-14,8.784422216e-14,3.798754810e-13,9.705694201e-13,1.069413388e-13,3.207134668e-13,4.396850906e-13,7.013951032e-13,7.359876839e-13,9.373241319e-13,6.453859308e-13,4.313796376e-13,9.260003394e-13,2.562330425e-13,1.896674336e-13,1.352038853e-13,4.607649626e-13,1.745967741e-13,6.532884173e-14,1.910094354e-13,4.643771356e-13,4.731744784e-13,1.166809752e-12,1.520116218e-13,2.984905558e-14
1.4531,5.289662156e-12,1.822707750e-12,2.929847032e-12,6.231203453e-13,5.709452887e-14,1.153696181e-12,2.539095720e-12,9.589172552e-14,8.980581153e-14,4.027302927e-13,9.438031473e-13,1.025836369e-13,3.356769285e-13,4.244890726e-13,6.721672207e-13,7.215785224e-13,9.494638217e-13,6.826660795e-13,4.519045088e-13,9.246324657e-13,2.632845231e-13,2.005447473e-13,1.357728553e-13,4.432493394e-13,1.627841151e-13,6.894692123e-14,1.840681599e-13,4.154601779e-13,4.608027386e-13,1.118751221e-12,1.607998348e-13,3.187149928e-14
1.4609,5.323236327e-12,1.854997997e-12,3.010170778e-12,6.577276223e-13,5.990023817e-14,1.203328178e-12,2.619211312e-12,9.860954739e-14,9.149986242e-14,4.232059239e-13,9.082637937e-13,9.803100043e-14,3.497845786e-13,4.085795591e-13,6.407740550e-13,7.082168442e-13,9.629036896e-13,7.219278170e-13,4.745977586e-13,9.282674265e-13,2.732598347e-13,2.106807787e-13,1.367086886e-13,4.283631911e-13,1.520079435e-13,7.323254327e-14,1.779384053e-13,3.678411123e-13,4.443578398e-13,1.042933565e-12,1.704798473e-13,3.369006254e-14
1.4688,5.327438831e-12,1.880425651e-12,3.078548938e-12,6.910204432e-13,6.285445278e-14,1.249480869e-12,2.685706867e-12,1.003938498e-13,9.360623952e-14,4.412703477e-13,8.688288434e-13,9.371766757e-14,3.639794560e-13,3.921401779e-13,6.088916234e-13,6.964167976e-13,9.772656608e-13,7.612367681e-13,4.981565861e-13,9.366519357e-13,2.846720330e-13,2.213228828e-13,1.378955957e-13,4.150872041e-13,1.423826503e-13,7.799392897e-14,1.729409855e-13,3.252122043e-13,4.269391979e-13,9.612879431e-13,1.807573086e-13,3.577815700e-14
1.4766,5.314883005e-12,1.896783844e-12,3.134326306e-12,7.223095148e-13,6.601213019e-14,1.290524042e-12,2.737780818e-12,1.014237965e-13,9.603870559e-14,4.563460712e-13,8.236116020e-13,8.936798305e-14,3.787887127e-13,3.768140640e-13,5.768096156e-13,6.864627562e-13,9.946205485e-13,8.020654851e-13,5.233120348e-13,9.501580082e-13,2.981949945e-13,2.322359027e-13,1.396353226e-13,4.032190753e-13,1.334199830e-13,8.294850032e-14,1.679087838e-13,2.863682691e-13,4.093403924e-13,8.862742820e-13,1.912393060e-13,3.790520148e-14
1.4844,5.271706213e-12,1.899930969e-12,3.168904146e-12,7.501023681e-13,6.924185663e-14,1.324286860e-12,2.771766179e-12,1.021126808e-13,9.855617996e-14,4.683506081e-13,7.741409112e-13,8.530288475e-14,3.940232292e-13,3.620034304e-13,5.471171094e-13,6.812271710e-13,1.017855781e-12,8.459676089e-13,5.509536486e-13,9.709730823e-13,3.142690228e-13,2.427745401e-13,1.420969010e-13,3.951961227e-13,1.252169200e-13,8.794933099e-14,1.626498579e-13,2.519935852e-13,3.899862227e-13,8.151721681e-13,2.017487424e-13,4.000202810e-14
1.4922,5.213076736e-12,1.895791289e-12,3.188140001e-12,7.762595228e-13,7.293812716e-14,1.351033763e-12,2.791590391e-12,1.027999110e-13,1.014778896e-13,4.778860522e-13,7.232092652e-13,8.191787150e-14,4.095321068e-13,3.488276819e-13,5.195781544e-13,6.794598023e-13,1.042149056e-12,8.896554237e-13,5.787749387e-13,9.946419978e-13,3.315347609e-13,2.532622546e-13,1.448166891e-13,3.897591867e-13,1.183257374e-13,9.276176456e-14,1.581234253e-13,2.244264945e-13,3.730630863e-13,7.682989671e-13,2.115270411e-13,4.220455350e-14
1.5,5.138489119e-12,1.883489403e-12,3.191820190e-12,7.995801941e-13,7.706017989e-14,1.369353910e-12,2.794246811e-12,1.036540188e-13,1.046809705e-13,4.844230114e-13,6.692329532e-13,7.904935674e-14,4.252983629e-13,3.377171283e-13,4.940406277e-13,6.806140522e-13,1.068729646e-12,9.337146070e-13,6.066829600e-13,1.020005499e-12,3.496157248e-13,2.630890556e-13,1.475292179e-13,3.843424639e-13,1.116247169e-13,9.730789842e-14,1.533991236e-13,2.006750958e-13,3.587535890e-13,7.491982084e-13,2.208932503e-13,4.430387029e-14
1.5078,5.045427809e-12,1.865495073e-12,3.182276994e-12,8.190601169e-13,8.173765013e-14,1.380342716e-12,2.783976858e-12,1.046584711e-13,1.083780945e-13,4.887001911e-13,6.175674645e-13,7.721145270e-14,4.412475999e-13,3.283189560e-13,4.712765145e-13,6.834408251e-13,1.096759706e-12,9.761522864e-13,6.337140882e-13,1.046503977e-12,3.668301958e-13,2.727440459e-13,1.505092372e-13,3.786824504e-13,1.052017729e-13,1.017702505e-13,1.490574596e-13,1.809957488e-13,3.473650319e-13,7.541314381e-13,2.302057891e-13,4.645513162e-14
1.5156,4.927311853e-12,1.841048666e-12,3.158329895e-12,8.353716425e-13,8.688851166e-14,1.383323600e-12,2.758217556e-12,1.055633746e-13,1.123717071e-13,4.898864628e-13,5.674324794e-13,7.636741908e-14,4.566282840e-13,3.208317299e-13,4.510488887e-13,6.888148304e-13,1.126262416e-12,1.017671065e-12,6.608536883e-13,1.075098399e-12,3.849089078e-13,2.816943824e-13,1.541597591e-13,3.752863435e-13,1.000050097e-13,1.061655984e-13,1.455496562e-13,1.656918577e-13,3.396642151e-13,7.783391646e-13,2.392467253e-13,4.835621991e-14
1.5234,4.773691096e-12,1.807011115e-12,3.112322154e-12,8.470317669e-13,9.205014203e-14,1.376090244e-12,2.712790241e-12,1.059144721e-13,1.161842192e-13,4.876965858e-13,5.192158956e-13,7.666119102e-14,4.708651273e-13,3.147317824e-13,4.358507856e-13,6.992749934e-13,1.160666733e-12,1.059744694e-12,6.887343907e-13,1.107790579e-12,4.040004136e-13,2.887567485e-13,1.577483007e-13,3.744268264e-13,9.507165021e-14,1.103087271e-13,1.419580351e-13,1.532184504e-13,3.327876150e-13,8.013090458e-13,2.484066683e-13,4.960105265e-14
1.5312,4.602325065e-12,1.768430876e-12,3.052558960e-12,8.551709727e-13,9.728073010e-14,1.361824089e-12,2.655952720e-12,1.054992435e-13,1.199032371e-13,4.834615247e-13,4.758556065e-13,7.786656358e-14,4.832682044e-13,3.108679385e-13,4.235274374e-13,7.097920500e-13,1.191465547e-12,1.095155116e-12,7.124657465e-13,1.136475753e-12,4.200851286e-13,2.944223256e-13,1.603208530e-13,3.726539994e-13,9.081153993e-14,1.142409352e-13,1.393861918e-13,1.438216269e-13,3.281306281e-13,8.209743735e-13,2.574688663e-13,5.064705778e-14
1.5391,4.411131375e-12,1.722104240e-12,2.979122296e-12,8.580592064e-13,1.020244057e-13,1.340530554e-12,2.585906615e-12,1.042533536e-13,1.230703316e-13,4.763866630e-13,4.348712112e-13,7.939055008e-14,4.931678413e-13,3.081634738e-13,4.131567992e-13,7.209314623e-13,1.219531706e-12,1.125658883e-12,7.332877785e-13,1.163572998e-12,4.348175829e-13,2.979009196e-13,1.622032303e-13,3.717375317e-13,8.723308347e-14,1.180309938e-13,1.374220797e-13,1.359739690e-13,3.237739840e-13,8.259241033e-13,2.661376276e-13,5.140818091e-14
1.5469,4.200149693e-12,1.670389740e-12,2.891916388e-12,8.552833674e-13,1.059983443e-13,1.311905732e-12,2.504748851e-12,1.020485863e-13,1.256153754e-13,4.671336421e-13,3.978672835e-13,8.154153293e-14,5.011065824e-13,3.062968384e-13,4.069513542e-13,7.343830398e-13,1.248600727e-12,1.152971807e-12,7.523126568e-13,1.193207732e-12,4.486818251e-13,2.992571895e-13,1.632978646e-13,3.722336342e-13,8.323871688e-14,1.212537669e-13,1.347066995e-13,1.292380314e-13,3.166708570e-13,8.053709494e-13,2.744120561e-13,5.175376327e-14
1.5547,3.982499527e-12,1.617089002e-12,2.793036715e-12,8.498198492e-13,1.093588492e-13,1.277182927e-12,2.412662443e-12,9.912294561e-14,1.276873446e-13,4.558425217e-13,3.637998724e-13,8.405775669e-14,5.071209897e-13,3.058967360e-13,4.037432973e-13,7.489459281e-13,1.275674946e-12,1.174555645e-12,7.679669388e-13,1.222014316e-12,4.611198413e-13,2.988604198e-13,1.631817769e-13,3.739456808e-13,8.016485909e-14,1.236948020e-13,1.323648951e-13,1.259700901e-13,3.087351891e-13,7.716693673e-13,2.822394840e-13,5.184187201e-14
1.5625,3.757575989e-12,1.557791754e-12,2.680465654e-12,8.397045473e-13,1.116775499e-13,1.236333831e-12,2.308934032e-12,9.574959599e-14,1.289977868e-13,4.422123480e-13,3.310779091e-13,8.654578434e-14,5.111166223e-13,3.061382528e-13,4.037819517e-13,7.652426334e-13,1.302377028e-12,1.192501357e-12,7.810759809e-13,1.251369123e-12,4.723845412e-13,2.962180712e-13,1.619073199e-13,3.769395932e-13,7.782284031e-14,1.256166594e-13,1.308770696e-13,1.256963526e-13,2.990855614e-13,7.210608851e-13,2.897198293e-13,5.149793552e-14
1.5703,3.537092564e-12,1.496751989e-12,2.564125374e-12,8.255599151e-13,1.131611232e-13,1.190906850e-12,2.204254115e-12,9.218628965e-14,1.297933331e-13,4.275163508e-13,3.016115851e-13,8.901924417e-14,5.137293662e-13,3.084069730e-13,4.064050377e-13,7.797962122e-13,1.324852088e-12,1.204018468e-12,7.892050979e-13,1.276739726e-12,4.795971422e-13,2.925464341e-13,1.596407865e-13,3.775213166e-13,7.560717636e-14,1.271230919e-13,1.302364876e-13,1.266986942e-13,2.883464643e-13,6.595334819e-13,2.964553562e-13,5.097035225e-14
1.5781,3.320523004e-12,1.432399853e-12,2.441876540e-12,8.073972843e-13,1.139629083e-13,1.139756700e-12,2.095642073e-12,8.878113756e-14,1.299666404e-13,4.112757792e-13,2.745913385e-13,9.174435469e-14,5.150915519e-13,3.114543861e-13,4.119136115e-13,7.952614032e-13,1.345999359e-12,1.212492233e-12,7.951650502e-13,1.300978805e-12,4.855347455e-13,2.877133358e-13,1.572497546e-13,3.786863572e-13,7.460667679e-14,1.282885525e-13,1.306872258e-13,1.289773602e-13,2.775880100e-13,5.972889045e-13,3.024940687e-13,5.022038888e-14
1.5859,3.105728236e-12,1.363624699e-12,2.312048703e-12,7.845558869e-13,1.141051859e-13,1.084308444e-12,1.982923445e-12,8.551453476e-14,1.295562916e-13,3.940069363e-13,2.506304747e-13,9.483648274e-14,5.157438684e-13,3.145778826e-13,4.202431124e-13,8.116116269e-13,1.367320697e-12,1.219404541e-12,8.003557242e-13,1.326039672e-12,4.910700102e-13,2.817377192e-13,1.550239266e-13,3.806570258e-13,7.431521960e-14,1.289874997e-13,1.317944315e-13,1.317755859e-13,2.662576875e-13,5.330866673e-13,3.076518122e-13,4.921326751e-14
1.5938,2.904750130e-12,1.297796690e-12,2.181890071e-12,7.605304526e-13,1.140963289e-13,1.027108222e-12,1.869991472e-12,8.234891262e-14,1.291006645e-13,3.762113612e-13,2.302223038e-13,9.788047763e-14,5.160226264e-13,3.195643442e-13,4.289888646e-13,8.238591424e-13,1.381558199e-12,1.219810998e-12,8.009919330e-13,1.343551606e-12,4.929080629e-13,2.757833283e-13,1.525131611e-13,3.794376494e-13,7.454603117e-14,1.290541380e-13,1.337074477e-13,1.340629310e-13,2.566363956e-13,4.796266075e-13,3.111134337e-13,4.828730236e-14
1.6016,2.715442835e-12,1.232653406e-12,2.050865093e-12,7.339400135e-13,1.139403055e-13,9.676754535e-13,1.753933777e-12,7.923639334e-14,1.284070465e-13,3.579130008e-13,2.129713418e-13,1.013433330e-13,5.155639614e-13,3.247618147e-13,4.389803485e-13,8.341954205e-13,1.391574037e-12,1.217600650e-12,7.994489182e-13,1.355691616e-12,4.925264613e-13,2.693251067e-13,1.499340634e-13,3.763342756e-13,7.539510098e-14,1.289198188e-13,1.363103203e-13,1.362111150e-13,2.491651452e-13,4.383363412e-13,3.136038428e-13,4.741247515e-14
1.6094,2.543261091e-12,1.169156437e-12,1.923591605e-12,7.048998167e-13,1.137021586e-13,9.086937102e-13,1.640492484e-12,7.606741892e-14,1.274665476e-13,3.399652420e-13,1.997633985e-13,1.051980729e-13,5.145230559e-13,3.300996155e-13,4.491874054e-13,8.407988358e-13,1.395733347e-12,1.211755229e-12,7.953438765e-13,1.361274472e-12,4.888289380e-13,2.627310677e-13,1.471905820e-13,3.696596452e-13,7.638937834e-14,1.287729067e-13,1.393195867e-13,1.376307116e-13,2.441188041e-13,4.078923992e-13,3.154799784e-13,4.676943540e-14
1.6172,2.389663128e-12,1.110927632e-12,1.797616732e-12,6.752718614e-13,1.133463405e-13,8.499832433e-13,1.528657691e-12,7.292931441e-14,1.263174814e-13,3.218309355e-13,1.903185539e-13,1.090125033e-13,5.125142216e-13,3.353069410e-13,4.593118103e-13,8.449343103e-13,1.393576595e-12,1.201979810e-12,7.885616967e-13,1.360639884e-12,4.823606560e-13,2.559955192e-13,1.437913220e-13,3.610426635e-13,7.804079612e-14,1.283276679e-13,1.432063364e-13,1.377438673e-13,2.432601632e-13,3.921763721e-13,3.162358089e-13,4.634539181e-14
1.625,2.243425050e-12,1.055963779e-12,1.670834321e-12,6.447035738e-13,1.128103623e-13,7.913529488e-13,1.416754562e-12,6.982968024e-14,1.248284601e-13,3.042290722e-13,1.842714284e-13,1.130784978e-13,5.091137959e-13,3.396538989e-13,4.696245001e-13,8.479466925e-13,1.387570689e-12,1.190023370e-12,7.801635897e-13,1.356133503e-12,4.742771756e-13,2.485461877e-13,1.393601213e-13,3.521475977e-13,8.038894898e-14,1.278414562e-13,1.483097798e-13,1.381838334e-13,2.464560691e-13,3.845181363e-13,3.166706932e-13,4.594962094e-14
1.6328,2.107859866e-12,1.005121684e-12,1.547858222e-12,6.159207578e-13,1.123442724e-13,7.353470695e-13,1.309176155e-12,6.694306699e-14,1.232488772e-13,2.877992768e-13,1.818770982e-13,1.169509671e-13,5.044091351e-13,3.445051718e-13,4.776982785e-13,8.454165535e-13,1.373153344e-12,1.171951395e-12,7.672928873e-13,1.342436638e-12,4.620315893e-13,2.410835454e-13,1.338028141e-13,3.400430125e-13,8.323267499e-14,1.277797366e-13,1.551811928e-13,1.386972552e-13,2.541084311e-13,3.852847312e-13,3.171623291e-13,4.568392192e-14
1.6406,1.983767917e-12,9.572994403e-13,1.425669241e-12,5.875668346e-13,1.113401281e-13,6.807391776e-13,1.204281333e-12,6.454452479e-14,1.213329663e-13,2.721608261e-13,1.828266623e-13,1.207446809e-13,4.979950171e-13,3.482596146e-13,4.854867082e-13,8.414663726e-13,1.355330895e-12,1.151706264e-12,7.521542861e-13,1.325761333e-12,4.483663546e-13,2.331049011e-13,1.277246100e-13,3.279980219e-13,8.732091305e-14,1.281940286e-13,1.642856856e-13,1.395734904e-13,2.670272200e-13,3.947828627e-13,3.175716804e-13,4.540919288e-14
1.6484,1.870145263e-12,9.129826069e-13,1.307861761e-12,5.584247190e-13,1.096172797e-13,6.280578844e-13,1.103659009e-12,6.267830815e-14,1.190607220e-13,2.578889671e-13,1.868778496e-13,1.246337047e-13,4.901728286e-13,3.511702827e-13,4.936413987e-13,8.367569328e-13,1.335849986e-12,1.130227832e-12,7.352186304e-13,1.308378499e-12,4.336296279e-13,2.247321249e-13,1.214111273e-13,3.160069080e-13,9.241246013e-14,1.290998010e-13,1.754021433e-13,1.415136128e-13,2.842243255e-13,4.090709447e-13,3.182292445e-13,4.507740443e-14
1.6562,1.773365109e-12,8.731372729e-13,1.197237880e-12,5.305318808e-13,1.075504463e-13,5.782753149e-13,1.008691411e-12,6.141790809e-14,1.168266910e-13,2.451869178e-13,1.944564295e-13,1.282719318e-13,4.816724467e-13,3.551397053e-13,5.014967405e-13,8.302279430e-13,1.313061482e-12,1.105892203e-12,7.156500804e-13,1.287690695e-12,4.165813636e-13,2.166821297e-13,1.149715307e-13,3.025472752e-13,9.815719734e-14,1.305672772e-13,1.887220047e-13,1.429564874e-13,3.048468198e-13,4.289803107e-13,3.191286924e-13,4.470362274e-14
1.6641,1.691080395e-12,8.345348893e-13,1.092829160e-12,5.023852739e-13,1.048519257e-13,5.311041674e-13,9.195094719e-13,6.075851377e-14,1.145416470e-13,2.344635252e-13,2.052245969e-13,1.323658465e-13,4.725814444e-13,3.592093562e-13,5.105370766e-13,8.242202169e-13,1.289839815e-12,1.081594832e-12,6.952781600e-13,1.265930227e-12,3.991019314e-13,2.083527899e-13,1.088265442e-13,2.896127490e-13,1.051109547e-13,1.325375892e-13,2.043178395e-13,1.455198730e-13,3.293236496e-13,4.549664800e-13,3.205136096e-13,4.409091103e-14
1.6719,1.619756679e-12,7.990293790e-13,9.972278175e-13,4.750371906e-13,1.017565376e-13,4.876040323e-13,8.372589556e-13,6.050488097e-14,1.123485027e-13,2.252859465e-13,2.184001593e-13,1.369086976e-13,4.631088994e-13,3.635201668e-13,5.194538934e-13,8.161582582e-13,1.263428874e-12,1.055910042e-12,6.731648353e-13,1.240422474e-12,3.802072236e-13,2.002598239e-13,1.031532175e-13,2.752318159e-13,1.126106510e-13,1.349441173e-13,2.216816177e-13,1.487868199e-13,3.575524644e-13,4.861079229e-13,3.225882907e-13,4.333545583e-14
1.6797,1.561364149e-12,7.673492498e-13,9.082853433e-13,4.500021139e-13,9.861140913e-14,4.469679455e-13,7.602002565e-13,6.032731042e-14,1.103759580e-13,2.168338056e-13,2.335450258e-13,1.415384463e-13,4.533544922e-13,3.676049863e-13,5.286936653e-13,8.087671351e-13,1.237474512e-12,1.031480619e-12,6.517060131e-13,1.215565941e-12,3.616594626e-13,1.928561696e-13,9.787535738e-14,2.606436454e-13,1.205779687e-13,1.377826066e-13,2.411141165e-13,1.524789901e-13,3.899043187e-13,5.243367042e-13,3.253666078e-13,4.258632198e-14
1.6875,1.513312533e-12,7.370293887e-13,8.267124827e-13,4.265662452e-13,9.541672302e-14,4.097523563e-13,6.895716584e-13,6.005003690e-14,1.084923910e-13,2.094062161e-13,2.499626218e-13,1.464851268e-13,4.431053551e-13,3.707792920e-13,5.372971624e-13,8.006957644e-13,1.210667368e-12,1.008588008e-12,6.313481988e-13,1.189429139e-12,3.436840840e-13,1.857858780e-13,9.252235720e-14,2.458391210e-13,1.291778608e-13,1.411186754e-13,2.623982385e-13,1.581556653e-13,4.267032170e-13,5.719531041e-13,3.294236342e-13,4.171811214e-14
1.6953,1.475459436e-12,7.098052893e-13,7.548979592e-13,4.055772079e-13,9.242170139e-14,3.770827725e-13,6.259075393e-13,5.983784348e-14,1.068279053e-13,2.026233221e-13,2.667178004e-13,1.512920899e-13,4.321183852e-13,3.731005175e-13,5.417662274e-13,7.867468834e-13,1.175978247e-12,9.833083580e-13,6.098742944e-13,1.154899156e-12,3.245970998e-13,1.795654954e-13,8.700522019e-14,2.286680302e-13,1.377543974e-13,1.450850768e-13,2.852056532e-13,1.634751791e-13,4.676115548e-13,6.271006593e-13,3.350500318e-13,4.090712387e-14
1.7031,1.451847426e-12,6.851253056e-13,6.907174015e-13,3.864157254e-13,8.970896680e-14,3.469471083e-13,5.663732485e-13,5.973651871e-14,1.053999096e-13,1.959023229e-13,2.818604518e-13,1.558514779e-13,4.202529126e-13,3.727079414e-13,5.423471602e-13,7.698870933e-13,1.137766234e-12,9.585463719e-13,5.896267428e-13,1.116674079e-12,3.067932980e-13,1.743223378e-13,8.161339500e-14,2.117421459e-13,1.472384949e-13,1.498383204e-13,3.107592311e-13,1.703368402e-13,5.139423565e-13,6.909662492e-13,3.424126417e-13,4.016073408e-14
1.7109,1.438467950e-12,6.623147510e-13,6.322779788e-13,3.694222697e-13,8.741604593e-14,3.189269708e-13,5.103566095e-13,5.990985351e-14,1.042731646e-13,1.895386065e-13,2.957619054e-13,1.603746947e-13,4.078558195e-13,3.697821138e-13,5.383465598e-13,7.485257029e-13,1.095873519e-12,9.344979206e-13,5.707398886e-13,1.074223688e-12,2.898347490e-13,1.700176557e-13,7.616570139e-14,1.947296415e-13,1.575477568e-13,1.554089683e-13,3.387898053e-13,1.790741869e-13,5.644105529e-13,7.624483801e-13,3.518106280e-13,3.924455874e-14
1.7188,1.434274227e-12,6.428434186e-13,5.791049529e-13,3.557340268e-13,8.564654788e-14,2.938773264e-13,4.590783581e-13,6.076611226e-14,1.036595987e-13,1.841014737e-13,3.109930017e-13,1.648754561e-13,3.953945500e-13,3.657442477e-13,5.304202168e-13,7.225428659e-13,1.050081853e-12,9.110481610e-13,5.532011637e-13,1.028166510e-12,2.736078687e-13,1.670736266e-13,7.076122777e-14,1.778813447e-13,1.671118884e-13,1.614098172e-13,3.675165952e-13,1.876565622e-13,6.152370471e-13,8.362835201e-13,3.626531710e-13,3.845122604e-14
1.7266,1.441473390e-12,6.243089001e-13,5.316751049e-13,3.435227955e-13,8.419522544e-14,2.711613526e-13,4.126282954e-13,6.245439374e-14,1.034310292e-13,1.796449662e-13,3.268756674e-13,1.697561172e-13,3.831827817e-13,3.604817070e-13,5.206407768e-13,6.949132909e-13,1.003673754e-12,8.903737613e-13,5.378738943e-13,9.813652835e-13,2.591494764e-13,1.651547144e-13,6.578713253e-14,1.621500460e-13,1.760906051e-13,1.674299434e-13,3.965167776e-13,1.982247789e-13,6.662586067e-13,9.101460806e-13,3.742250291e-13,3.747280353e-14
1.7344,1.455137549e-12,6.072392198e-13,4.903039228e-13,3.326773367e-13,8.306589405e-14,2.511446569e-13,3.712057977e-13,6.514919741e-14,1.036352252e-13,1.764670556e-13,3.438828218e-13,1.752471011e-13,3.720938697e-13,3.553214107e-13,5.092832825e-13,6.653295931e-13,9.567959980e-13,8.722762190e-13,5.247719323e-13,9.338743850e-13,2.458842490e-13,1.644135143e-13,6.133123351e-14,1.466137891e-13,1.848266619e-13,1.733986699e-13,4.258914757e-13,2.097613436e-13,7.182783422e-13,9.817181470e-13,3.864556985e-13,3.599644725e-14
1.7422,1.477607292e-12,5.931565532e-13,4.556359946e-13,3.242085281e-13,8.239428649e-14,2.341987666e-13,3.354806266e-13,6.875579900e-14,1.046191071e-13,1.748156041e-13,3.636910091e-13,1.817876715e-13,3.634071129e-13,3.518688191e-13,5.000163921e-13,6.390317367e-13,9.157680413e-13,8.600537012e-13,5.165916943e-13,8.924406063e-13,2.355830972e-13,1.657974833e-13,5.757190699e-14,1.332979901e-13,1.925378480e-13,1.790217741e-13,4.548336197e-13,2.226918149e-13,7.699130530e-13,1.055460169e-12,3.990705345e-13,3.445146012e-14
1.75,1.512749340e-12,5.807590932e-13,4.272839087e-13,3.177831047e-13,8.214369997e-14,2.195009446e-13,3.040906372e-13,7.263938474e-14,1.062365314e-13,1.738509596e-13,3.849992577e-13,1.896584496e-13,3.572788847e-13,3.502483064e-13,4.943930128e-13,6.180044092e-13,8.826571510e-13,8.550526728e-13,5.134822333e-13,8.572518554e-13,2.282273023e-13,1.689139467e-13,5.458023722e-14,1.219274869e-13,1.984971410e-13,1.839506101e-13,4.818640917e-13,2.371341752e-13,8.196524733e-13,1.135169226e-12,4.117281821e-13,3.269339749e-14
1.7578,1.555635591e-12,5.709775329e-13,4.036748163e-13,3.137847001e-13,8.226089549e-14,2.067478952e-13,2.762666805e-13,7.635986561e-14,1.082723329e-13,1.731916268e-13,4.071591354e-13,1.982797765e-13,3.531134749e-13,3.500533467e-13,4.909446619e-13,6.001185539e-13,8.544640292e-13,8.547242676e-13,5.137929557e-13,8.258214592e-13,2.223057629e-13,1.732511386e-13,5.194316747e-14,1.115495499e-13,2.024589506e-13,1.883074653e-13,5.063570180e-13,2.507495242e-13,8.680986994e-13,1.217053059e-12,4.244793897e-13,3.080323025e-14
1.7656,1.599986897e-12,5.612933134e-13,3.835097556e-13,3.112454112e-13,8.274971748e-14,1.949348098e-13,2.517387347e-13,7.936326385e-14,1.107122902e-13,1.724053651e-13,4.281858281e-13,2.073078615e-13,3.507530979e-13,3.511713715e-13,4.905658848e-13,5.870842283e-13,8.328566151e-13,8.591427050e-13,5.178884679e-13,8.005666154e-13,2.189213411e-13,1.790048422e-13,4.967651891e-14,1.037506444e-13,2.050637162e-13,1.922435121e-13,5.287366902e-13,2.653698178e-13,9.154493237e-13,1.302013219e-12,4.372492770e-13,2.893565126e-14
1.7734,1.643080298e-12,5.506584622e-13,3.664005427e-13,3.094705100e-13,8.355019324e-14,1.833524579e-13,2.298342779e-13,8.105455562e-14,1.132290610e-13,1.705868295e-13,4.452664291e-13,2.162536782e-13,3.495123927e-13,3.534472242e-13,4.924168242e-13,5.782748715e-13,8.169800125e-13,8.674503510e-13,5.247922870e-13,7.790542884e-13,2.180260836e-13,1.858254373e-13,4.806988127e-14,9.853859191e-14,2.068693646e-13,1.958023120e-13,5.490954281e-13,2.804853080e-13,9.590287634e-13,1.386413893e-12,4.497240058e-13,2.709164507e-14
1.7812,1.687756450e-12,5.407272558e-13,3.522632134e-13,3.093350734e-13,8.461191316e-14,1.724103552e-13,2.094895245e-13,8.146325506e-14,1.155828420e-13,1.672178588e-13,4.565472007e-13,2.243411416e-13,3.484506633e-13,3.559014387e-13,4.948700790e-13,5.722924675e-13,8.044325945e-13,8.776398879e-13,5.334411867e-13,7.597671402e-13,2.186446021e-13,1.933457647e-13,4.703238739e-14,9.569927176e-14,2.083861701e-13,1.992186817e-13,5.680367543e-13,2.950644058e-13,9.985389409e-13,1.461626453e-12,4.618327221e-13,2.561814802e-14
1.7891,1.728650197e-12,5.298887188e-13,3.391275042e-13,3.105630564e-13,8.585276581e-14,1.619968226e-13,1.893205725e-13,8.066153291e-14,1.175564217e-13,1.623221969e-13,4.609809294e-13,2.318301382e-13,3.473592782e-13,3.577477400e-13,4.971699039e-13,5.675589832e-13,7.936284421e-13,8.893050743e-13,5.436904407e-13,7.418428492e-13,2.208207711e-13,2.009372581e-13,4.648878588e-14,9.520931492e-14,2.099646758e-13,2.024035730e-13,5.848020147e-13,3.095578805e-13,1.032265224e-12,1.522148869e-12,4.736908433e-13,2.426794938e-14
