Time,Fp1,AF3,F7,F3,FC1,FC5,T7,C3,CP1,CP5,P7,P3,Pz,PO3,O1,Oz,O2,PO4,P4,P8,CP6,CP2,C4,T8,FC6,FC2,F4,F8,AF4,Fp2,Fz,Cz,
0,1.010897547e-09,9.059790793e-10,4.282555002e-09,2.347046615e-10,3.044769684e-11,3.483095317e-10,2.460200767e-10,3.551969015e-10,2.963916141e-11,9.160887130e-10,3.193825058e-11,2.148189865e-10,1.810671519e-10,1.988362962e-10,4.861696483e-10,2.593049786e-10,3.598688817e-10,3.171655279e-11,7.455484279e-12,8.406227105e-11,3.812244042e-11,4.125965102e-10,1.407232857e-09,2.960968125e-10,8.900281156e-10,3.387060279e-11,1.084992649e-09,9.562033840e-11,1.287120365e-10,5.793216428e-09,3.332611092e-10,7.682612887e-11
0.0078125,1.008272546e-09,9.004108807e-10,4.269741772e-09,2.330785027e-10,3.051158525e-11,3.474454394e-10,2.444008437e-10,3.542589056e-10,2.971214336e-11,9.127326204e-10,3.169769150e-11,2.147283451e-10,1.793767506e-10,1.992008452e-10,4.860120225e-10,2.595746549e-10,3.605034253e-10,3.134811698e-11,7.478430066e-12,8.395889745e-11,3.826354420e-11,4.107415409e-10,1.408499581e-09,2.953750396e-10,8.851502105e-10,3.412824684e-11,1.081993567e-09,9.492874554e-11,1.282545555e-10,5.771234111e-09,3.318026745e-10,7.724374414e-11
0.015625,9.977035598e-10,8.877520047e-10,4.223034244e-09,2.296117623e-10,3.033671211e-11,3.438379615e-10,2.408088876e-10,3.504778502e-10,2.956138793e-11,9.021399940e-10,3.121367179e-11,2.129256921e-10,1.763218673e-10,1.979907687e-10,4.820138008e-10,2.577963099e-10,3.582778929e-10,3.074093178e-11,7.448753707e-12,8.318295731e-11,3.812345782e-11,4.056141322e-10,1.398492089e-09,2.922821631e-10,8.732856194e-10,3.412591411e-11,1.070371902e-09,9.354511592e-11,1.267740617e-10,5.703514521e-09,3.277104571e-10,7.706385647e-11
0.023438,9.795632851e-10,8.683998937e-10,4.143921339e-09,2.244076093e-10,2.992734972e-11,3.376049809e-10,2.352866552e-10,3.439958355e-10,2.919000184e-11,8.847475625e-10,3.050088092e-11,2.094828178e-10,1.719714760e-10,1.952517469e-10,4.743232001e-10,2.540454117e-10,3.532858021e-10,2.991060359e-11,7.367612728e-12,8.175927722e-11,3.770208899e-11,3.973637772e-10,1.377595690e-09,2.869129836e-10,8.548119699e-10,3.386736585e-11,1.050481594e-09,9.148573988e-11,1.243121437e-10,5.592401586e-09,3.211147280e-10,7.629503749e-11
0.03125,9.541141212e-10,8.426221859e-10,4.033680897e-09,2.175395876e-10,2.928682741e-11,3.288032906e-10,2.279948975e-10,3.349227614e-10,2.860405523e-11,8.606963290e-10,2.958015376e-11,2.044467763e-10,1.663881487e-10,1.910331367e-10,4.630833108e-10,2.483880608e-10,3.456185894e-10,2.887042677e-11,7.237189848e-12,7.971768904e-11,3.701000618e-11,3.861311784e-10,1.346212061e-09,2.793372022e-10,8.300201623e-10,3.336308007e-11,1.022658963e-09,8.879080502e-11,1.209227287e-10,5.439497115e-09,3.121022862e-10,7.495749156e-11
0.039062,9.220974624e-10,8.111397877e-10,3.895610780e-09,2.092021677e-10,2.843263043e-11,3.177329688e-10,2.192227407e-10,3.235296618e-10,2.781468376e-11,8.306763763e-10,2.847781574e-11,1.979604780e-10,1.597123457e-10,1.854408645e-10,4.486018724e-10,2.409651159e-10,3.354889647e-10,2.764597119e-11,7.060998631e-12,7.712471623e-11,3.605548568e-11,3.722525910e-10,1.305301868e-09,2.697922374e-10,7.995738054e-10,3.262231425e-11,9.877506296e-10,8.549945396e-11,1.167004580e-10,5.249250540e-09,3.009445412e-10,7.307946145e-11
0.046875,8.842553201e-10,7.747699336e-10,3.733291960e-09,1.996140900e-10,2.738308810e-11,3.047172719e-10,2.091188793e-10,3.101225039e-10,2.683651066e-11,7.955558496e-10,2.720992263e-11,1.901837084e-10,1.521306638e-10,1.785924865e-10,4.312192269e-10,2.319387884e-10,3.231181073e-10,2.626477133e-11,6.845677117e-12,7.404056156e-11,3.485534379e-11,3.560855926e-10,1.255870479e-09,2.585537985e-10,7.643187766e-10,3.166149370e-11,9.467015997e-10,8.167365043e-11,1.117738159e-10,5.026575604e-09,2.879363282e-10,7.069753351e-11
0.054688,8.413306433e-10,7.342787115e-10,3.550371225e-09,1.889780896e-10,2.616286527e-11,2.900378557e-10,1.979185324e-10,2.950089057e-10,2.569238238e-11,7.560883649e-10,2.578664216e-11,1.812963312e-10,1.438133712e-10,1.706623754e-10,4.113706052e-10,2.215401349e-10,3.088132441e-10,2.475691625e-11,6.598784912e-12,7.053731615e-11,3.343966612e-11,3.379994860e-10,1.199093188e-09,2.458591491e-10,7.250921361e-10,3.050588686e-11,9.004935962e-10,7.742988347e-11,1.062854467e-10,4.776252291e-09,2.733549328e-10,6.787199938e-11
0.0625,7.942196602e-10,6.905166523e-10,3.350716390e-09,1.775138295e-10,2.480033371e-11,2.740149183e-10,1.859605326e-10,2.785032599e-10,2.440757202e-11,7.131321913e-10,2.423478459e-11,1.714899832e-10,1.349440393e-10,1.618202910e-10,3.894602955e-10,2.099903862e-10,2.928813723e-10,2.315528779e-11,6.326069655e-12,6.668703457e-11,3.183645766e-11,3.183804392e-10,1.136143762e-09,2.319740093e-10,6.827040259e-10,2.917569863e-11,8.501145666e-10,7.286961879e-11,1.003532996e-10,4.503586501e-09,2.575063274e-10,6.465952976e-11
0.070312,7.438400596e-10,6.443550240e-10,3.138203025e-09,1.654531681e-10,2.332493991e-11,2.569402240e-10,1.733758977e-10,2.609171253e-10,2.300970131e-11,6.675608306e-10,2.260299206e-11,1.609497008e-10,1.257151938e-10,1.522262908e-10,3.658844808e-10,1.975032700e-10,2.756126443e-10,2.149032531e-11,6.034119145e-12,6.255410676e-11,3.008324032e-11,2.975995147e-10,1.068210059e-09,2.171939759e-10,6.379999693e-10,2.769799890e-11,7.965214729e-10,6.809151599e-11,9.409863533e-11,4.213791271e-09,2.406983361e-10,6.112436690e-11
0.078125,6.913749101e-10,5.968000297e-10,2.917490527e-09,1.530575052e-10,2.177219650e-11,2.391648715e-10,1.603294532e-10,2.426284804e-10,2.153465969e-11,6.202553308e-10,2.092431228e-11,1.499001187e-10,1.163201050e-10,1.421106904e-10,3.412072122e-10,1.843798621e-10,2.574107457e-10,1.979344791e-11,5.731018271e-12,5.822706855e-11,2.822605073e-11,2.760973748e-10,9.968341468e-10,2.018065307e-10,5.919315874e-10,2.610768403e-11,7.408424265e-10,6.322656721e-11,8.764631953e-11,3.913218927e-09,2.232959492e-10,5.735508437e-11
0.085938,6.380377841e-10,5.488036059e-10,2.692960863e-09,1.405632759e-10,2.017687276e-11,2.210412457e-10,1.471881619e-10,2.240006810e-10,2.001918944e-11,5.721216253e-10,1.924116899e-11,1.385933160e-10,1.069096769e-10,1.317292539e-10,3.160005975e-10,1.709406530e-10,2.387108224e-10,1.810496882e-11,5.418810574e-12,5.380845929e-11,2.630336088e-11,2.543032625e-10,9.234833201e-10,1.860957005e-10,5.452955920e-10,2.443609947e-11,6.841269537e-10,5.835267788e-11,8.107705950e-11,3.608293783e-09,2.056545648e-10,5.343686119e-11
0.09375,5.847150775e-10,5.010544967e-10,2.467903759e-09,1.281522758e-10,1.856852684e-11,2.028156629e-10,1.341731979e-10,2.053129066e-10,1.848880042e-11,5.239582127e-10,1.759434312e-11,1.272348188e-10,9.757856190e-11,1.212701810e-10,2.906704502e-10,1.574204867e-10,2.198470963e-10,1.645432976e-11,5.097652653e-12,4.937766858e-11,2.434597235e-11,2.325276669e-10,8.493436416e-10,1.703328151e-10,4.986997872e-10,2.271453245e-11,6.271620974e-10,5.351435991e-11,7.445845205e-11,3.303561034e-09,1.880454600e-10,4.944213454e-11
0.10156,5.322782070e-10,4.542913600e-10,2.245891533e-09,1.160222387e-10,1.697313562e-11,1.847810541e-10,1.213800595e-10,1.868599260e-10,1.696373211e-11,4.764992971e-10,1.599463396e-11,1.159903762e-10,8.844865881e-11,1.108826052e-10,2.655831010e-10,1.440119233e-10,2.010995588e-10,1.485440731e-11,4.773045645e-12,4.499697877e-11,2.238634742e-11,2.110853101e-10,7.756616229e-10,1.547697489e-10,4.528540667e-10,2.097556882e-11,5.708114063e-10,4.876859308e-11,6.788124560e-11,3.003613737e-09,1.707488096e-10,4.543910476e-11
0.10938,4.814841557e-10,4.091914584e-10,2.030260575e-09,1.043444395e-10,1.541263493e-11,1.672210354e-10,1.090365365e-10,1.689194210e-10,1.546661269e-11,4.304102032e-10,1.448202246e-11,1.050251342e-10,7.964143493e-11,1.007236431e-10,2.411166331e-10,1.309159979e-10,1.827511926e-10,1.332461945e-11,4.448085645e-12,4.073223010e-11,2.045753308e-11,1.903003908e-10,7.036005100e-10,1.396262139e-10,4.084465730e-10,1.924827761e-11,5.159510986e-10,4.414868037e-11,6.144760318e-11,2.712880938e-09,1.540101933e-10,4.148781771e-11
0.11719,4.328345356e-10,3.662016768e-10,1.823436134e-09,9.323327551e-11,1.390723574e-11,1.503437789e-10,9.733389076e-11,1.517116878e-10,1.401551416e-11,3.862529840e-10,1.309033679e-11,9.448975310e-11,7.122573772e-11,9.093433128e-11,2.175944638e-10,1.183127710e-10,1.650681127e-10,1.188423284e-11,4.124005778e-12,3.664881116e-11,1.857713148e-11,1.704251423e-10,6.341263495e-10,1.251081180e-10,3.659683410e-10,1.755579541e-11,4.632674374e-10,3.969617454e-11,5.524909527e-11,2.434509950e-09,1.380170168e-10,3.764051548e-11
0.125,3.867458357e-10,3.257031882e-10,1.627514153e-09,8.279005507e-11,1.247098784e-11,1.343339475e-10,8.631107400e-11,1.354108951e-10,1.262077973e-11,3.444730759e-10,1.181149995e-11,8.448606304e-11,6.327300038e-11,8.159820723e-11,1.952285109e-10,1.063039248e-10,1.482052747e-10,1.054199597e-11,3.805765846e-12,3.278143305e-11,1.675306238e-11,1.516501352e-10,5.679599656e-10,1.113859618e-10,3.258097908e-10,1.591646819e-11,4.133197006e-10,3.545524457e-11,4.935816977e-11,2.171204814e-09,1.229273512e-10,3.393464147e-11
0.13281,3.433932401e-10,2.878776259e-10,1.443653227e-09,7.306187106e-11,1.111125591e-11,1.192786648e-10,7.603982614e-11,1.201058756e-10,1.129158854e-11,3.052974614e-10,1.065005706e-11,7.506501854e-11,5.583968570e-11,7.276121313e-11,1.741300675e-10,9.494301787e-11,1.322331089e-10,9.299963170e-12,3.497271461e-12,2.913683571e-11,1.499870669e-11,1.340784281e-10,5.055065645e-10,9.852059608e-11,2.882343889e-10,1.434667136e-11,3.664486719e-10,3.144360385e-11,4.383689929e-11,1.924291943e-09,1.088026865e-10,3.039765874e-11
0.14062,3.029810295e-10,2.529090839e-10,1.272898279e-09,6.409210447e-11,9.838006081e-12,1.052826667e-10,6.660575219e-11,1.058984971e-10,1.003764062e-11,2.689529486e-10,9.625052457e-12,6.628169683e-11,4.897309788e-11,6.448238132e-11,1.544477060e-10,8.431461211e-11,1.172783313e-10,8.162810262e-12,3.201793649e-12,2.574677710e-11,1.333017024e-11,1.178219195e-10,4.472241204e-10,8.657669268e-11,2.534777977e-10,1.285898108e-11,3.229695662e-10,2.769668554e-11,3.873804560e-11,1.695035660e-09,9.571779973e-11,2.705922555e-11
0.14844,2.657355379e-10,2.209439380e-10,1.116081460e-09,5.591325781e-11,8.658645219e-12,9.243343450e-11,5.799469638e-11,9.285900964e-11,8.867260711e-12,2.356216350e-10,8.747870538e-12,5.817858521e-11,4.271239145e-11,5.680255771e-11,1.362661516e-10,7.446622933e-11,1.034196370e-10,7.132799518e-12,2.923680817e-12,2.263272128e-11,1.176795809e-11,1.029512667e-10,3.934006087e-10,7.563055823e-11,2.216713974e-10,1.146092523e-11,2.830879040e-10,2.425127579e-11,3.407790605e-11,1.484637085e-09,8.373447386e-11,2.393876471e-11
0.15625,2.316923239e-10,1.919428076e-10,9.731951849e-10,4.851174021e-11,7.576961390e-12,8.071699067e-11,5.020677247e-11,8.097955158e-11,7.787045021e-12,2.052939525e-10,8.013150170e-12,5.076977299e-11,3.704994716e-11,4.974871043e-11,1.195977273e-10,6.541657225e-11,9.068567679e-11,6.205202875e-12,2.664523807e-12,1.978939724e-11,1.032414290e-11,8.944744387e-11,3.440982402e-10,6.570004281e-11,1.928054432e-10,1.015861609e-11,2.467846158e-10,2.111253677e-11,2.985031909e-11,1.293033073e-09,7.284142999e-11,2.105032991e-11
0.16406,2.008856991e-10,1.658829966e-10,8.441257379e-10,4.187783331e-11,6.594772830e-12,7.012279942e-11,4.323979018e-11,7.024953142e-11,6.799724781e-12,1.779167456e-10,7.422209169e-12,4.405808573e-11,3.197229539e-11,4.333591899e-11,1.044647430e-10,5.718690362e-11,7.910923713e-11,5.380249868e-12,2.423888622e-12,1.722017941e-11,8.996992072e-12,7.729661835e-11,2.993487723e-10,5.674996226e-11,1.668535473e-10,8.956220609e-12,2.140156935e-10,1.828025223e-11,2.604544949e-11,1.120115952e-09,6.303230205e-11,1.840331635e-11
0.17188,1.732579822e-10,1.426436552e-10,7.284167008e-10,3.597762623e-11,5.710045112e-12,6.061652824e-11,3.704941763e-11,6.062996628e-11,5.905565878e-12,1.534077505e-10,6.978122133e-12,3.802700753e-11,2.745697922e-11,3.754752831e-11,9.081884781e-11,4.975580323e-11,6.865988188e-11,4.654399401e-12,2.202669302e-12,1.491717953e-11,7.791157352e-12,6.644264703e-11,2.590210627e-10,4.872655593e-11,1.436689847e-10,7.856686307e-12,1.846507757e-10,1.574773515e-11,2.264071628e-11,9.653519556e-10,5.426517477e-11,1.599854099e-11
0.17969,1.487121326e-10,1.220956025e-10,6.255912865e-10,3.077515644e-11,4.921191243e-12,5.216200794e-11,3.160842850e-11,5.208248557e-11,5.103054272e-12,1.316640323e-10,6.664881209e-12,3.265336246e-11,2.347180476e-11,3.236881213e-11,7.861111655e-11,4.310178016e-11,5.931176283e-11,4.017944301e-12,2.002040788e-12,1.287064630e-11,6.711368611e-12,5.682739411e-11,2.230262080e-10,4.163006824e-11,1.231131561e-10,6.861143445e-12,1.585549709e-10,1.349966076e-11,1.961653044e-11,8.279999264e-10,4.649713864e-11,1.383615461e-11
0.1875,1.270977564e-10,1.040837964e-10,5.349204606e-10,2.622749187e-11,4.223511773e-12,4.469463948e-11,2.683675179e-11,4.453925092e-11,4.388544244e-12,1.124769906e-10,6.486472954e-12,2.789695631e-11,1.998071996e-11,2.777425627e-11,6.777823534e-11,3.719403528e-11,5.102193006e-11,3.463658185e-12,1.819430719e-12,1.107044383e-11,5.754343753e-12,4.838009613e-11,1.911602315e-10,3.540100442e-11,1.050440667e-10,5.966163752e-12,1.355280986e-10,1.152350026e-11,1.694241149e-11,7.070087419e-10,3.966960015e-11,1.190741591e-11
0.19531,1.081705993e-10,8.835419620e-11,4.553437949e-10,2.226725451e-11,3.609735566e-12,3.812296683e-11,2.268255091e-11,3.791142362e-11,3.757715253e-12,9.562730920e-11,6.436182224e-12,2.371687345e-11,1.693178220e-11,2.372830685e-11,5.822518227e-11,3.198405886e-11,4.371870630e-11,2.984998674e-12,1.650647505e-12,9.497230935e-12,4.908636999e-12,4.099607663e-11,1.630899851e-10,2.994834613e-11,8.922713939e-11,5.167287102e-12,1.153083511e-10,9.793387484e-12,1.458481941e-11,6.009434508e-10,3.369334226e-11,1.019905164e-11
0.20312,9.170201221e-11,7.471478421e-11,3.860255420e-10,1.884156582e-11,3.073237503e-12,3.239392591e-11,1.912669623e-11,3.213652964e-11,3.203806788e-12,8.095940659e-11,6.488308121e-12,2.007310350e-11,1.428587568e-11,2.018934977e-11,4.985676510e-11,2.741863902e-11,3.733239966e-11,2.574972375e-12,1.494357641e-12,8.130724331e-12,4.158958500e-12,3.459259554e-11,1.385493129e-10,2.523137846e-11,7.547423071e-11,4.459457598e-12,9.770129216e-11,8.277504537e-12,1.252792468e-11,5.087078361e-10,2.850283043e-11,8.697362913e-12
0.21094,7.741582123e-11,6.295600125e-11,3.259631597e-10,1.589849414e-11,2.607206646e-12,2.742857913e-11,1.607126217e-11,2.713054155e-11,2.719543115e-12,6.825608581e-11,6.639960409e-12,1.691052847e-11,1.200439244e-11,1.710265913e-11,4.254274366e-11,2.342683234e-11,3.176212610e-11,2.223423030e-12,1.350052106e-12,6.947887156e-12,3.501686750e-12,2.907027150e-11,1.172175917e-10,2.116641386e-11,6.359855817e-11,3.836010253e-12,8.245656108e-11,6.957344346e-12,1.074832928e-11,4.288773433e-10,2.402032035e-11,7.384705758e-12
0.21875,6.508636978e-11,5.286881383e-11,2.742124331e-10,1.338607946e-11,2.205376988e-12,2.314702687e-11,1.344418145e-11,2.281603436e-11,2.298829072e-12,5.733074074e-11,6.872654272e-12,1.418310182e-11,1.004513776e-11,1.442508942e-11,3.618378227e-11,1.995213981e-11,2.692690166e-11,1.922078506e-12,1.217223559e-12,5.931232962e-12,2.931107525e-12,2.433386453e-11,9.879254438e-11,1.768325518e-11,5.340146227e-11,3.289573013e-12,6.933229806e-11,5.817530551e-12,9.217751757e-12,3.600860945e-10,2.017172266e-11,6.243779290e-12
0.22656,5.451299297e-11,4.425927053e-11,2.298579310e-10,1.124886652e-11,1.860258789e-12,1.947594017e-11,1.121050039e-11,1.911742007e-11,1.935085956e-12,4.797980687e-11,7.171968998e-12,1.184354015e-11,8.371935349e-12,1.211488244e-11,3.068864690e-11,1.694418965e-11,2.275889344e-11,1.665929521e-12,1.095453499e-12,5.062156236e-12,2.436880257e-12,2.029399425e-11,8.295673077e-11,1.472347023e-11,4.469213064e-11,2.813026703e-12,5.809810859e-11,4.841665367e-12,7.909371468e-12,3.011523293e-10,1.688640587e-11,5.256734280e-12
0.23438,4.547197878e-11,3.693364076e-11,1.919685045e-10,9.435829634e-12,1.564985313e-12,1.633849448e-11,9.328915461e-12,1.595662300e-11,1.622360153e-12,3.999262292e-11,7.529190764e-12,9.846730163e-12,6.948192111e-12,1.013123872e-11,2.595233757e-11,1.434933103e-11,1.917858982e-11,1.447431272e-12,9.832322202e-13,4.320229468e-12,2.014560108e-12,1.686220546e-11,6.940837959e-11,1.221403683e-11,3.728983167e-11,2.400944460e-12,4.852264823e-11,4.011981896e-12,6.798949764e-12,2.508488683e-10,1.409120144e-11,4.407909980e-12
0.24219,3.779193193e-11,3.073445105e-11,1.598001001e-10,7.906586125e-12,1.313839617e-12,1.367869501e-11,7.760717392e-12,1.327302170e-11,1.355034132e-12,3.322089949e-11,7.905898256e-12,8.153387044e-12,5.743828186e-12,8.440305565e-12,2.189926608e-11,1.212594534e-11,1.612170188e-11,1.261418863e-12,8.808814334e-13,3.689639696e-12,1.655218766e-12,1.396634891e-11,5.789518942e-11,1.010700464e-11,3.103352418e-11,2.046919071e-12,4.041753909e-11,3.310145816e-12,5.865970272e-12,2.081759789e-10,1.172577884e-11,3.682718062e-12
0.25,3.129606871e-11,2.550004097e-11,1.325713130e-10,6.618178849e-12,1.100930297e-12,1.143079134e-11,6.454596763e-12,1.100109491e-11,1.127262636e-12,2.749762605e-11,8.286418411e-12,6.721298521e-12,4.729277437e-12,7.004297459e-12,1.844479126e-11,1.023076250e-11,1.352760609e-11,1.105252028e-12,7.903165196e-13,3.156656126e-12,1.353073670e-12,1.152830575e-11,4.813397018e-11,8.344149973e-12,2.574923744e-11,1.743095896e-12,3.357568034e-11,2.725189220e-12,5.082321121e-12,1.720967921e-10,9.728166203e-12,3.065171158e-12
0.25781,2.582576287e-11,2.109892040e-11,1.096232074e-10,5.536977668e-12,9.211573821e-13,9.536722748e-12,5.373403936e-12,9.086333607e-12,9.337875973e-13,2.269028251e-11,8.670915953e-12,5.517072875e-12,3.879690333e-12,5.789412190e-12,1.550836814e-11,8.621229701e-12,1.133625337e-11,9.739247692e-13,7.113228191e-13,2.709139605e-12,1.104708816e-12,9.483572082e-12,3.989593454e-11,6.875301267e-12,2.130738200e-11,1.483664333e-12,2.782308646e-11,2.242804815e-12,4.425251679e-12,1.417194711e-10,8.048398697e-12,2.541360866e-12
0.26562,2.124605615e-11,1.741621057e-11,9.037863398e-11,4.632468982e-12,7.699866566e-13,7.945084751e-12,4.486640411e-12,7.479655626e-12,7.701569291e-13,1.867307963e-11,9.042826886e-12,4.508577933e-12,3.173818238e-12,4.767827717e-12,1.302963692e-11,7.262918514e-12,9.495284448e-12,8.633120435e-13,6.427676548e-13,2.334366155e-12,9.004727152e-13,7.778260528e-12,3.297820561e-11,5.661689234e-12,1.760550149e-11,1.263702757e-12,2.301331183e-11,1.842627022e-12,3.878308075e-12,1.162767768e-10,6.642089229e-12,2.099276847e-12
0.27344,1.742726466e-11,1.434547667e-11,7.428854705e-11,3.878520828e-12,6.437791725e-13,6.610959314e-12,3.764231431e-12,6.135181843e-12,6.324390059e-13,1.531683622e-11,9.381808028e-12,3.667714547e-12,2.588739364e-12,3.911768362e-12,1.093712514e-11,6.117736051e-12,7.953292218e-12,7.702271404e-13,5.836838284e-13,2.021319800e-12,7.334048625e-13,6.360373799e-12,2.718062994e-11,4.659980174e-12,1.451448278e-11,1.076696557e-12,1.899815127e-11,1.510514814e-12,3.421026438e-12,9.504974984e-11,5.470491212e-12,1.727518200e-12
0.28125,1.425509916e-11,1.179622112e-11,6.088399706e-11,3.253478132e-12,5.388087416e-13,5.502633641e-12,3.176280751e-12,5.016748860e-12,5.167515321e-13,1.253126348e-11,9.679189847e-12,2.970516055e-12,2.107232111e-12,3.194053310e-12,9.164042151e-12,5.146660821e-12,6.657814774e-12,6.904269607e-13,5.323017221e-13,1.758912010e-12,5.977465042e-13,5.184039643e-12,2.233348308e-11,3.839791310e-12,1.193305877e-11,9.174018623e-13,1.565476085e-11,1.233731595e-12,3.038855938e-12,7.741401250e-11,4.500786696e-12,1.415230010e-12
0.28906,1.162635066e-11,9.681270770e-12,4.973793353e-11,2.735032003e-12,4.515038340e-13,4.578540795e-12,2.694583810e-12,4.086913861e-12,4.199650006e-13,1.022220207e-11,9.943662695e-12,2.393953086e-12,1.712580741e-12,2.594213889e-12,7.668032105e-12,4.324131910e-12,5.569046815e-12,6.217008802e-13,4.870983995e-13,1.538936885e-12,4.890576013e-13,4.210714108e-12,1.829369328e-11,3.172458402e-12,9.802195975e-12,7.827448605e-13,1.288001093e-11,1.002447828e-12,2.721157825e-12,6.276917760e-11,3.698602600e-12,1.153922424e-12
0.29688,9.469026998e-12,7.940421523e-12,4.053696329e-11,2.307767322e-12,3.792469008e-13,3.809124985e-12,2.308543949e-12,3.317084378e-12,3.396725283e-13,8.319778418e-12,1.016784536e-11,1.923133687e-12,1.389220653e-12,2.096626959e-12,6.412449863e-12,3.629396016e-12,4.657114543e-12,5.629542930e-13,4.466450795e-13,1.355464335e-12,4.038577275e-13,3.413194183e-12,1.494579979e-11,2.630332009e-12,8.057152153e-12,6.689426703e-13,1.059151576e-11,8.139205302e-13,2.456857156e-12,5.070365813e-11,3.040225330e-12,9.364750703e-13
0.30469,7.705010393e-12,6.510350417e-12,3.295935442e-11,1.955130120e-12,3.192072386e-13,3.174059134e-12,2.000192473e-12,2.683179233e-12,2.734587651e-13,6.763237351e-12,1.034185270e-11,1.541463913e-12,1.125341266e-12,1.684898304e-12,5.358401258e-12,3.040657922e-12,3.891379563e-12,5.118442066e-13,4.094046481e-13,1.199302409e-12,3.361711587e-13,2.760358047e-12,1.217421572e-11,2.193845031e-12,6.626540969e-12,5.727032815e-13,8.711643357e-12,6.622223798e-13,2.238589044e-12,4.082068960e-11,2.501333309e-12,7.562114893e-13
0.3125,6.260290039e-12,5.334122699e-12,2.671836659e-11,1.663419607e-12,2.691290624e-13,2.646721652e-12,1.753895849e-12,2.161749622e-12,2.194104483e-13,5.487712455e-12,1.045766718e-11,1.233268006e-12,9.105436357e-13,1.346254243e-12,4.476720167e-12,2.543047910e-12,3.249076996e-12,4.675111731e-13,3.754332840e-13,1.064853711e-12,2.834984194e-13,2.226077409e-12,9.883908872e-12,1.845132928e-12,5.457563702e-12,4.913183733e-13,7.168088666e-12,5.412136741e-13,2.057560414e-12,3.272116227e-11,2.059858358e-12,6.079180083e-13
0.32031,5.016625708e-12,4.371088657e-12,2.139908644e-11,1.444458036e-12,2.248984084e-13,2.170748367e-12,1.599378283e-12,1.727968643e-12,1.749018872e-13,4.529043386e-12,1.052572638e-11,9.900376383e-13,7.499951646e-13,1.042690971e-12,3.614776250e-12,2.060210869e-12,2.619357203e-12,4.072584957e-13,3.498551910e-13,9.357411341e-13,2.436078601e-13,1.753326649e-12,7.923421804e-12,1.547152667e-12,4.394680702e-12,4.200217368e-13,5.807655103e-12,4.511440099e-13,1.878770505e-12,2.555696117e-11,1.686271174e-12,4.848949500e-13
0.32812,4.088362216e-12,3.606101003e-12,1.727943829e-11,1.257526805e-12,1.911030610e-13,1.822221397e-12,1.465931999e-12,1.387036596e-12,1.408620512e-13,3.742931781e-12,1.043535339e-11,7.989795192e-13,6.209020242e-13,8.262022820e-13,3.020242571e-12,1.720927516e-12,2.185234695e-12,3.681442535e-13,3.256853331e-13,8.297599677e-13,2.179615376e-13,1.402848342e-12,6.392819168e-12,1.333978515e-12,3.610550788e-12,3.634028453e-13,4.777158272e-12,3.706819182e-13,1.744632663e-12,2.030394140e-11,1.402742121e-12,3.863704745e-13
0.33594,3.335071566e-12,2.966798047e-12,1.394584908e-11,1.085819058e-12,1.647782427e-13,1.520112456e-12,1.315246791e-12,1.102451736e-12,1.127392319e-13,2.990907998e-12,1.027239293e-11,6.280867957e-13,5.069675330e-13,6.510118606e-13,2.550328095e-12,1.453899173e-12,1.858808182e-12,3.468259880e-13,3.012668942e-13,7.570237724e-13,2.032566936e-13,1.131384587e-12,5.164815179e-12,1.184321952e-12,3.026417620e-12,3.181465944e-13,3.988833307e-12,3.053424694e-13,1.650885275e-12,1.608084880e-11,1.166630142e-12,3.075140796e-13
0.34375,2.735137380e-12,2.453284767e-12,1.122062109e-11,9.495945138e-13,1.419109574e-13,1.278982372e-12,1.210767668e-12,8.751983764e-13,9.018040471e-14,2.422181437e-12,1.005222680e-11,5.005960741e-13,4.163332786e-13,5.062307907e-13,2.145020819e-12,1.212927010e-12,1.561186561e-12,3.259848901e-13,2.812622340e-13,6.840524368e-13,1.956856070e-13,9.086615000e-13,4.151217014e-12,1.065002561e-12,2.535785149e-12,2.779182453e-13,3.327211021e-12,2.545083186e-13,1.561953089e-12,1.268751778e-11,9.806505522e-13,2.437490826e-13
0.35156,2.263923656e-12,2.037519863e-12,9.007998808e-12,8.383419293e-13,1.226988334e-13,1.088306215e-12,1.125268960e-12,6.925820714e-13,7.220000759e-14,1.973575925e-12,9.774893483e-12,4.042391362e-13,3.414597263e-13,3.913993628e-13,1.816175118e-12,1.009241976e-12,1.308483639e-12,3.087487854e-13,2.640138100e-13,6.174652069e-13,1.950085232e-13,7.298863493e-13,3.320335542e-12,9.726688615e-13,2.133040939e-12,2.432676844e-13,2.781678009e-12,2.173651223e-13,1.481821176e-12,1.000840077e-11,8.346065423e-13,1.922870615e-13
0.35938,1.857663720e-12,1.665641140e-12,6.975628239e-12,7.271803211e-13,1.050429232e-13,9.563469390e-13,1.012351997e-12,5.391357215e-13,5.875974702e-14,1.563394630e-12,9.431396984e-12,3.183549378e-13,2.725301934e-13,2.994058519e-13,1.553745178e-12,8.369216890e-13,1.097387202e-12,2.979020415e-13,2.465402210e-13,5.572103726e-13,1.993637310e-13,5.812299864e-13,2.600805238e-12,9.222436484e-13,1.823298095e-12,2.118015558e-13,2.330298798e-12,1.896184765e-13,1.422267232e-12,7.848724442e-12,7.157143303e-13,1.506379730e-13
0.36719,1.561717501e-12,1.392826266e-12,5.565203639e-12,6.434002978e-13,9.227845095e-14,8.265630067e-13,9.415751405e-13,4.259538517e-13,4.814875224e-14,1.262072633e-12,9.074994977e-12,2.632161204e-13,2.213814057e-13,2.305897138e-13,1.325954515e-12,6.949449959e-13,9.186799849e-13,2.869206614e-13,2.304715872e-13,5.109912439e-13,2.001577954e-13,4.746194197e-13,2.083080735e-12,8.991939375e-13,1.604633611e-12,1.872270738e-13,2.013209749e-12,1.754818991e-13,1.373159320e-12,6.191552045e-12,6.209981196e-13,1.178287800e-13
0.375,1.340228782e-12,1.190334107e-12,4.460954486e-12,5.914342634e-13,8.199901271e-14,7.033724227e-13,9.104540338e-13,3.346306183e-13,4.161071123e-14,1.051056484e-12,8.665299071e-12,2.334126574e-13,1.853115299e-13,1.831487508e-13,1.138009351e-12,5.688733122e-13,7.542780180e-13,2.683667289e-13,2.186928170e-13,4.632571646e-13,1.982008106e-13,3.804312507e-13,1.640246571e-12,8.516069762e-13,1.367679754e-12,1.633174141e-13,1.702644768e-12,1.724818037e-13,1.306163648e-12,4.766053422e-12,5.524733377e-13,9.104104368e-14
0.38281,1.162281612e-12,1.019526885e-12,3.564102468e-12,5.433342883e-13,7.378209823e-14,6.090206862e-13,8.844311353e-13,2.631690075e-13,3.787994730e-14,8.761042668e-13,8.186502033e-12,2.079403241e-13,1.599523027e-13,1.526356337e-13,9.947427429e-13,4.748360483e-13,6.337977772e-13,2.516162349e-13,2.083834058e-13,4.218388193e-13,2.007189664e-13,3.079808694e-13,1.291110573e-12,8.350404231e-13,1.192564855e-12,1.431128366e-13,1.467551841e-12,1.690031896e-13,1.250033906e-12,3.678773251e-12,4.966817186e-13,7.018997940e-14
0.39062,1.014173826e-12,8.725625449e-13,2.848634909e-12,4.981596921e-13,6.773563622e-14,5.288909023e-13,8.672331541e-13,2.061411994e-13,3.566477053e-14,7.252709284e-13,7.653687370e-12,1.828712547e-13,1.439754571e-13,1.311910995e-13,8.786082152e-13,4.035715071e-13,5.454705426e-13,2.364895013e-13,1.997696226e-13,3.889511098e-13,2.073941709e-13,2.513393596e-13,1.020108394e-12,8.374020297e-13,1.065815268e-12,1.269492500e-13,1.292294657e-12,1.631860577e-13,1.201010838e-12,2.816207825e-12,4.484932894e-13,5.421052412e-14
0.39844,8.996393727e-13,7.591450767e-13,2.265116248e-12,4.638306931e-13,6.316739140e-14,4.651684630e-13,8.576164000e-13,1.620129740e-13,3.399631277e-14,6.132026606e-13,7.089623759e-12,1.610200219e-13,1.352300247e-13,1.146328086e-13,7.879535949e-13,3.452965581e-13,4.739335906e-13,2.205864265e-13,1.941595913e-13,3.607541257e-13,2.195692922e-13,2.052350204e-13,8.010213736e-13,8.415229388e-13,9.465029926e-13,1.131819587e-13,1.136601564e-12,1.513594887e-13,1.144807167e-12,2.152504113e-12,4.144196571e-13,4.257981112e-14
0.40625,8.034103091e-13,6.637353762e-13,1.795526231e-12,4.328464944e-13,5.973812579e-14,4.140655881e-13,8.475134748e-13,1.271810332e-13,3.144799028e-14,5.134247572e-13,6.525152993e-12,1.379109678e-13,1.290412479e-13,9.811261492e-14,7.097659661e-13,2.985029775e-13,4.194453766e-13,2.076028569e-13,1.904686581e-13,3.409647374e-13,2.382447336e-13,1.698004796e-13,6.337909682e-13,8.584706433e-13,8.512297176e-13,1.030203362e-13,1.011707926e-12,1.346197349e-13,1.087505944e-12,1.646766839e-12,3.859825613e-13,3.432840086e-14
0.41406,6.663296852e-13,5.794855928e-13,1.478538975e-12,4.153078643e-13,5.793353879e-14,3.367519630e-13,8.257153257e-13,8.851900586e-14,2.678458205e-14,3.924750785e-13,5.997874810e-12,1.119623854e-13,1.295633041e-13,7.627816534e-14,6.477402401e-13,2.612381990e-13,3.672702667e-13,1.904137312e-13,1.893123701e-13,3.315735324e-13,2.602271644e-13,1.252349802e-13,4.740690088e-13,8.131530389e-13,7.080472958e-13,9.721890656e-14,8.554984973e-13,1.228857971e-13,1.013590178e-12,9.591562033e-13,3.548990276e-13,2.632217977e-14
0.42188,6.043388749e-13,5.336734013e-13,1.239391232e-12,4.016816375e-13,5.508251726e-14,2.969377231e-13,8.332757280e-13,6.945175423e-14,2.371472256e-14,3.418910647e-13,5.495043562e-12,9.799169132e-14,1.280542890e-13,5.869626279e-14,5.812823656e-13,2.221283790e-13,3.176139929e-13,1.765470710e-13,1.884921623e-13,3.158255285e-13,2.894840255e-13,1.044418389e-13,3.819965038e-13,8.253932752e-13,6.103120243e-13,9.113191458e-14,7.554413639e-13,1.097621975e-13,9.450402889e-13,6.823062703e-13,3.404045814e-13,2.284152652e-14
0.42969,5.329603384e-13,4.609493511e-13,9.641163081e-13,3.681853950e-13,5.116291180e-14,2.880916805e-13,8.323558049e-13,5.850528429e-14,2.034696458e-14,3.017495714e-13,5.023029900e-12,8.392415996e-14,1.201706416e-13,4.423833186e-14,4.996859815e-13,1.873307108e-13,2.747589639e-13,1.694117204e-13,1.847722914e-13,2.976624479e-13,3.183229630e-13,8.987561266e-14,3.318734296e-13,8.930214845e-13,5.988295678e-13,8.744749560e-14,7.219765479e-13,9.735278188e-14,8.990937715e-13,5.117260850e-13,3.127796310e-13,2.001979767e-14
0.4375,4.837055498e-13,4.175097764e-13,7.744397845e-13,3.476343509e-13,4.841130357e-14,2.725901490e-13,8.381514368e-13,4.900249215e-14,1.697177824e-14,2.775960268e-13,4.597046828e-12,7.960922305e-14,1.113019872e-13,3.489704565e-14,4.363486845e-13,1.575232968e-13,2.304042971e-13,1.604876717e-13,1.798664036e-13,2.806988082e-13,3.367455518e-13,7.844054817e-14,2.819614222e-13,9.332922338e-13,5.594904195e-13,8.336298043e-14,6.655691545e-13,8.714362939e-14,8.442205706e-13,3.808864092e-13,2.973816632e-13,1.670996299e-14
0.44531,4.534120426e-13,3.905489606e-13,6.256826630e-13,3.329746164e-13,4.662103328e-14,2.553317652e-13,8.515760232e-13,4.007489523e-14,1.438356459e-14,2.561563709e-13,4.210492051e-12,8.088577906e-14,1.006942670e-13,3.266625435e-14,3.910246398e-13,1.336768900e-13,1.911711650e-13,1.516911854e-13,1.727015837e-13,2.629333978e-13,3.449512614e-13,7.147066665e-14,2.341188671e-13,9.699328219e-13,5.165511520e-13,7.840601458e-14,6.042443865e-13,7.798220409e-14,7.907069586e-13,3.030374262e-13,2.901841883e-13,1.302431450e-14
0.45312,4.127098027e-13,3.541048184e-13,5.197535558e-13,3.134857291e-13,4.540696599e-14,2.479413580e-13,8.560368355e-13,3.464237686e-14,1.282908055e-14,2.400621985e-13,3.848730081e-12,8.588984033e-14,9.170309061e-14,3.879024374e-14,3.650747672e-13,1.186273045e-13,1.625894788e-13,1.444715312e-13,1.629021531e-13,2.461027907e-13,3.419725872e-13,6.404402401e-14,2.002811496e-13,1.006186277e-12,5.106965164e-13,7.326239091e-14,5.688387507e-13,7.320046026e-14,7.513939520e-13,2.234377816e-13,2.782436365e-13,9.041976546e-15
0.46094,3.861525983e-13,3.243738470e-13,4.349926573e-13,2.955373154e-13,4.508711100e-14,2.427378943e-13,8.690547812e-13,3.045550044e-14,1.257275997e-14,2.292994779e-13,3.499770193e-12,9.248680997e-14,8.471529461e-14,4.851017419e-14,3.574283017e-13,1.083942588e-13,1.416611032e-13,1.380693833e-13,1.524150984e-13,2.321793270e-13,3.298800034e-13,5.873799680e-14,1.658516311e-13,1.036726085e-12,5.088620170e-13,6.641962242e-14,5.358508281e-13,7.039997005e-14,7.177401082e-13,1.891576536e-13,2.712646399e-13,5.727247713e-15
0.46875,3.692703525e-13,2.981610845e-13,3.485297181e-13,2.778663614e-13,4.529990601e-14,2.401065680e-13,8.907484952e-13,2.657555888e-14,1.312340879e-14,2.157429455e-13,3.174124480e-12,9.698895367e-14,7.865252948e-14,5.829445383e-14,3.554020743e-13,9.939748495e-14,1.258323176e-13,1.337191755e-13,1.420067456e-13,2.234535952e-13,3.146014404e-13,5.682994773e-14,1.366726250e-13,1.073754029e-12,5.234166770e-13,5.863819893e-14,5.103939785e-13,6.990062136e-14,6.903786769e-13,1.803469109e-13,2.666421639e-13,3.457292098e-15
0.47656,3.536025674e-13,2.783323177e-13,2.963338265e-13,2.644257323e-13,4.593513538e-14,2.380771363e-13,9.073890509e-13,2.345015493e-14,1.398418891e-14,2.071988526e-13,2.875401829e-12,1.012117712e-13,7.606111125e-14,6.714145575e-14,3.668963107e-13,9.368633932e-14,1.144782910e-13,1.292437253e-13,1.333289233e-13,2.200447913e-13,2.989053386e-13,5.370710475e-14,1.080886554e-13,1.096258455e-12,5.300055071e-13,5.073057692e-14,4.800994621e-13,7.503581433e-14,6.622163870e-13,1.653019381e-13,2.642403736e-13,2.299074232e-15
0.48438,3.799728148e-13,2.312196556e-13,1.257123932e-13,2.322489338e-13,4.071510017e-14,2.677777799e-13,9.340918624e-13,1.767974639e-14,1.592873998e-14,2.335103819e-13,2.616961942e-12,1.227358725e-13,5.920781094e-14,8.220077082e-14,3.458413198e-13,7.284334718e-14,8.779888415e-14,1.364994314e-13,1.231201711e-13,2.290418824e-13,2.892862316e-13,5.922250761e-14,7.058646315e-14,1.129321309e-12,5.926746374e-13,4.310688722e-14,4.557129529e-13,8.368907413e-14,6.265232123e-13,3.259520024e-13,2.320028227e-13,2.292044106e-15
0.49219,3.637949368e-13,1.977073922e-13,9.362829940e-14,2.094321794e-13,4.187006425e-14,2.877904032e-13,9.672614254e-13,2.005835910e-14,1.483762529e-14,2.414864331e-13,2.389094559e-12,1.224505794e-13,5.611516087e-14,8.157486306e-14,3.539680050e-13,7.383624202e-14,8.537617483e-14,1.386299184e-13,1.158930269e-13,2.329240760e-13,2.763267259e-13,5.940084787e-14,6.944472314e-14,1.167030014e-12,6.426111309e-13,3.747853625e-14,4.626833030e-13,9.861386126e-14,6.068416993e-13,3.982019210e-13,2.171804299e-13,3.638432878e-15
0.5,3.553866488e-13,1.983702662e-13,9.755413041e-14,2.073178419e-13,4.692962675e-14,2.703405980e-13,1.000516606e-12,1.510501877e-14,1.359829240e-14,2.140409665e-13,2.206627443e-12,1.090675536e-13,5.892940012e-14,7.121400830e-14,3.600525442e-13,7.588788224e-14,8.173802882e-14,1.333460155e-13,1.128057596e-13,2.347903962e-13,2.686123174e-13,5.830853530e-14,8.163841909e-14,1.203122521e-12,6.366809102e-13,3.191525358e-14,4.209108334e-13,1.188654503e-13,5.735272583e-13,3.573296328e-13,2.291792412e-13,5.857206683e-15
0.50781,3.413041639e-13,1.895420399e-13,8.537303466e-14,1.991894602e-13,4.935804100e-14,2.671938110e-13,1.032782418e-12,1.324726225e-14,1.331355083e-14,2.015820348e-13,2.068225479e-12,1.024262436e-13,6.237280276e-14,6.486804391e-14,3.546045822e-13,7.701584279e-14,7.810932656e-14,1.307447058e-13,1.100309080e-13,2.345260314e-13,2.683606252e-13,5.695057238e-14,9.619302937e-14,1.246631667e-12,6.371373259e-13,2.815573335e-14,3.974338312e-13,1.391792356e-13,5.452660259e-13,3.577224622e-13,2.297951998e-13,8.210343756e-15
0.51562,3.081957221e-13,1.694786657e-13,7.924151350e-14,1.876337145e-13,5.042408739e-14,2.744349892e-13,1.069632985e-12,1.433940111e-14,1.353118879e-14,2.029728279e-13,1.971661930e-12,1.012824942e-13,6.948155893e-14,6.295490038e-14,3.489833332e-13,7.951439223e-14,7.662823922e-14,1.293274167e-13,1.076724281e-13,2.308576656e-13,2.714227508e-13,5.059880064e-14,1.062075542e-13,1.283066325e-12,6.322683262e-13,2.604180926e-14,3.886639590e-13,1.574599138e-13,5.242479391e-13,3.457300767e-13,2.217483454e-13,9.724198273e-15
0.52344,3.005968214e-13,1.635229123e-13,7.339686564e-14,1.827745805e-13,5.155439590e-14,2.728355324e-13,1.113023386e-12,1.254945680e-14,1.460630170e-14,1.998001998e-13,1.900154797e-12,1.034861635e-13,7.367438474e-14,6.563849178e-14,3.324386775e-13,7.692306520e-14,7.132925581e-14,1.283084178e-13,1.064816107e-13,2.277297463e-13,2.773559433e-13,5.018556235e-14,1.333651019e-13,1.327426219e-12,6.309450207e-13,2.473761220e-14,3.656657451e-13,1.722154203e-13,4.985748783e-13,3.531518270e-13,2.214171309e-13,1.053244063e-14
0.53125,2.893323570e-13,1.559212612e-13,6.598392564e-14,1.772651567e-13,5.190973327e-14,2.741435188e-13,1.156564997e-12,1.176701800e-14,1.604411645e-14,2.003334780e-13,1.847791534e-12,1.092857984e-13,7.648177534e-14,7.383409273e-14,3.170745096e-13,7.569171670e-14,6.977292698e-14,1.292164430e-13,1.059218918e-13,2.233090242e-13,2.825715227e-13,5.002891453e-14,1.611003399e-13,1.371450637e-12,6.363043515e-13,2.467401256e-14,3.499634011e-13,1.792910546e-13,4.802738100e-13,3.644949846e-13,2.193980400e-13,1.021528945e-14
0.53906,2.643476889e-13,1.509589944e-13,6.848177351e-14,1.750305438e-13,5.213079572e-14,2.743474012e-13,1.202386946e-12,1.181184333e-14,1.756882013e-14,2.012937164e-13,1.810971424e-12,1.159304546e-13,8.161516121e-14,8.535607445e-14,3.184366441e-13,7.950933826e-14,7.459644674e-14,1.302172022e-13,1.067939127e-13,2.200681899e-13,2.858587384e-13,4.612996150e-14,1.733503432e-13,1.396932851e-12,6.200951408e-13,2.533486794e-14,3.346394511e-13,1.803729571e-13,4.704727199e-13,3.431340485e-13,2.198628540e-13,8.883845836e-15
0.54688,2.498421955e-13,1.489434447e-13,7.006593566e-14,1.741299201e-13,5.135716850e-14,2.781417223e-13,1.247048997e-12,1.157780781e-14,1.950825229e-14,2.047650447e-13,1.792121890e-12,1.269397858e-13,8.366021841e-14,1.023979024e-13,3.269717348e-13,8.441800988e-14,8.053085615e-14,1.337044788e-13,1.085734910e-13,2.214590758e-13,2.896038341e-13,4.572632900e-14,1.893679749e-13,1.415376338e-12,6.219078836e-13,2.685158560e-14,3.232428358e-13,1.816796286e-13,4.657265865e-13,3.400951332e-13,2.202812312e-13,7.149738809e-15
0.55469,2.351307560e-13,1.457236504e-13,7.815716279e-14,1.737088665e-13,5.009804803e-14,2.868496067e-13,1.281152927e-12,1.217180807e-14,2.129335028e-14,2.149028257e-13,1.802449004e-12,1.409695155e-13,8.363872561e-14,1.220993458e-13,3.460495122e-13,9.405183982e-14,9.036188942e-14,1.403609916e-13,1.120848183e-13,2.255434215e-13,2.909187239e-13,4.553393514e-14,2.007291208e-13,1.421532761e-12,6.384770051e-13,2.918220582e-14,3.177780345e-13,1.858198691e-13,4.666812732e-13,3.401012340e-13,2.200370677e-13,5.316713409e-15
0.5625,2.205660339e-13,1.503904062e-13,8.441406623e-14,1.784014917e-13,4.956011227e-14,2.879465083e-13,1.319902240e-12,1.174045180e-14,2.257830036e-14,2.200163171e-13,1.833327606e-12,1.515972786e-13,8.270888554e-14,1.383221344e-13,3.716967322e-13,1.102078102e-13,1.047054875e-13,1.492632334e-13,1.184967917e-13,2.300217083e-13,2.891289273e-13,4.614387815e-14,2.035932534e-13,1.424819144e-12,6.486495622e-13,3.174631142e-14,3.080995626e-13,1.968578305e-13,4.702803382e-13,3.237127262e-13,2.266207139e-13,4.040710023e-15
0.57031,2.073671732e-13,1.540935633e-13,9.367817786e-14,1.828656830e-13,4.875668749e-14,2.911067729e-13,1.361028160e-12,1.183970590e-14,2.340562058e-14,2.309204633e-13,1.881013274e-12,1.627373470e-13,7.962776795e-14,1.523738904e-13,4.021786587e-13,1.329762806e-13,1.234185479e-13,1.618445466e-13,1.270297722e-13,2.328952802e-13,2.848636430e-13,4.743497557e-14,2.003924735e-13,1.425984173e-12,6.690665019e-13,3.488753976e-14,3.045485443e-13,2.160126898e-13,4.771974569e-13,3.262134388e-13,2.321362714e-13,3.490820403e-15
0.57812,1.914994390e-13,1.553911028e-13,1.122197794e-13,1.863129331e-13,4.830542538e-14,2.982701021e-13,1.386800631e-12,1.281989626e-14,2.342836052e-14,2.483599161e-13,1.954871454e-12,1.733142890e-13,7.592321679e-14,1.614749421e-13,4.375276792e-13,1.613578300e-13,1.469007711e-13,1.771026290e-13,1.376203322e-13,2.350136661e-13,2.773532985e-13,4.716582165e-14,1.871405498e-13,1.419199379e-12,6.889685931e-13,3.850043492e-14,3.062116962e-13,2.409963464e-13,4.862911031e-13,3.374897505e-13,2.359395120e-13,3.625830647e-15
0.58594,1.841064743e-13,1.599629672e-13,1.256317449e-13,1.914569315e-13,4.901960115e-14,3.020122807e-13,1.413138556e-12,1.258038254e-14,2.258497399e-14,2.636475199e-13,2.045950619e-12,1.798845296e-13,7.038327048e-14,1.629690690e-13,4.589159786e-13,1.888559587e-13,1.707844174e-13,1.944512176e-13,1.502280490e-13,2.361978224e-13,2.683429214e-13,4.929803697e-14,1.794060637e-13,1.421921447e-12,7.186769217e-13,4.211625885e-14,3.052623204e-13,2.717592700e-13,4.930752620e-13,3.513668178e-13,2.432730071e-13,4.329347023e-15
0.59375,1.771664713e-13,1.624259553e-13,1.385528204e-13,1.961172299e-13,5.051478449e-14,3.070409032e-13,1.438636418e-12,1.260417289e-14,2.088416178e-14,2.844826228e-13,2.140314734e-12,1.837101625e-13,6.484524419e-14,1.591170292e-13,4.715473581e-13,2.172803244e-13,1.981109802e-13,2.152492218e-13,1.650981833e-13,2.349627696e-13,2.584091238e-13,5.172645708e-14,1.739523457e-13,1.427351727e-12,7.541094161e-13,4.600033182e-14,3.067926951e-13,3.028614904e-13,5.008173589e-13,3.663230868e-13,2.508127733e-13,5.317892321e-15
0.60156,1.652299156e-13,1.644497560e-13,1.500598773e-13,2.013594250e-13,5.305590981e-14,3.109529601e-13,1.452269711e-12,1.275255578e-14,1.856096457e-14,3.048590523e-13,2.247034718e-12,1.833445846e-13,6.219279530e-14,1.503228194e-13,4.801544432e-13,2.479368118e-13,2.302146020e-13,2.386523031e-13,1.824299144e-13,2.318650541e-13,2.489624245e-13,5.341773171e-14,1.668353746e-13,1.437051322e-12,7.705964617e-13,5.020570880e-14,3.129515865e-13,3.266565128e-13,5.146135556e-13,3.731145178e-13,2.595432230e-13,6.568596593e-15
0.60938,1.605311924e-13,1.662787262e-13,1.618197159e-13,2.078323089e-13,5.595771622e-14,3.156708221e-13,1.467405451e-12,1.257594223e-14,1.629176360e-14,3.268957380e-13,2.377212259e-12,1.830092386e-13,6.167863042e-14,1.404642041e-13,4.748449469e-13,2.741573338e-13,2.601600881e-13,2.642289587e-13,2.021470997e-13,2.294791866e-13,2.430283098e-13,5.613935842e-14,1.700630821e-13,1.452233946e-12,7.858046561e-13,5.450018608e-14,3.224706813e-13,3.421431647e-13,5.327147431e-13,3.851981786e-13,2.694622995e-13,7.631552979e-15
0.61719,1.572443181e-13,1.679311174e-13,1.769535968e-13,2.154894506e-13,5.885491230e-14,3.220524223e-13,1.479641989e-12,1.257670529e-14,1.434270491e-14,3.521760866e-13,2.523598938e-12,1.837350560e-13,6.427601861e-14,1.330079769e-13,4.672195583e-13,2.990116773e-13,2.900556337e-13,2.935884014e-13,2.252124418e-13,2.283153867e-13,2.417990089e-13,5.904242709e-14,1.809418345e-13,1.458350645e-12,7.990891956e-13,5.902500308e-14,3.357926764e-13,3.502720090e-13,5.551736597e-13,3.906194870e-13,2.801989063e-13,8.498996455e-15
0.625,1.534985023e-13,1.750958394e-13,1.894181700e-13,2.274524468e-13,6.215116324e-14,3.244473165e-13,1.480776687e-12,1.177855029e-14,1.297094850e-14,3.703468698e-13,2.681294590e-12,1.829595015e-13,6.968706909e-14,1.282917634e-13,4.593561959e-13,3.233923292e-13,3.202796919e-13,3.263445021e-13,2.517838847e-13,2.268234305e-13,2.462888642e-13,6.327932943e-14,1.995809656e-13,1.465932598e-12,8.024175527e-13,6.379424111e-14,3.484772043e-13,3.503547417e-13,5.825226581e-13,3.738659488e-13,2.963520853e-13,9.294367605e-15
0.63281,1.533017923e-13,1.842884224e-13,2.058496211e-13,2.412816794e-13,6.463604340e-14,3.300152755e-13,1.480013615e-12,1.122937050e-14,1.255639206e-14,3.909624857e-13,2.843963672e-12,1.856356080e-13,7.675425888e-14,1.281504334e-13,4.507162494e-13,3.456781589e-13,3.481147862e-13,3.624236101e-13,2.810506556e-13,2.274899554e-13,2.555120971e-13,6.787039985e-14,2.212324707e-13,1.469036858e-12,8.023609279e-13,6.912693678e-14,3.661664538e-13,3.446561950e-13,6.163633677e-13,3.562370470e-13,3.134715850e-13,9.749119984e-15
0.64062,1.526490909e-13,1.950260790e-13,2.291342786e-13,2.560376875e-13,6.598398201e-14,3.392590232e-13,1.475242773e-12,1.144540533e-14,1.300546241e-14,4.181476830e-13,3.002299453e-12,1.920417564e-13,8.512440862e-14,1.315907336e-13,4.471143388e-13,3.690045582e-13,3.745727567e-13,4.019799043e-13,3.123057347e-13,2.302957699e-13,2.667859250e-13,7.186817549e-14,2.381604007e-13,1.459701237e-12,7.921006811e-13,7.515567424e-14,3.918700102e-13,3.397600321e-13,6.579031381e-13,3.446904592e-13,3.294815034e-13,1.006511296e-14
0.64844,1.577400347e-13,2.121793252e-13,2.591647280e-13,2.756108696e-13,6.672452609e-14,3.487680244e-13,1.452098393e-12,1.155871491e-14,1.408791050e-14,4.482044343e-13,3.159149883e-12,2.005422354e-13,9.202551068e-14,1.367114976e-13,4.423823653e-13,3.898298523e-13,3.952063865e-13,4.424196425e-13,3.447920861e-13,2.344039145e-13,2.792288634e-13,7.652406443e-14,2.560019264e-13,1.447081724e-12,7.818403861e-13,8.148249080e-14,4.139838279e-13,3.393674225e-13,6.991041168e-13,3.308873536e-13,3.494930038e-13,1.016690877e-14
0.65625,1.655120394e-13,2.317981404e-13,2.945716583e-13,2.973078465e-13,6.639286931e-14,3.605736735e-13,1.419699698e-12,1.203196441e-14,1.541769403e-14,4.804949091e-13,3.312517546e-12,2.104167595e-13,9.627685624e-14,1.413226394e-13,4.409882754e-13,4.120139936e-13,4.149349352e-13,4.837398670e-13,3.778814652e-13,2.407651580e-13,2.915785225e-13,8.128756865e-14,2.681240120e-13,1.426544699e-12,7.711928294e-13,8.886849044e-14,4.386442115e-13,3.426782728e-13,7.393519294e-13,3.239853793e-13,3.693936816e-13,1.018247033e-14
0.66406,1.711290779e-13,2.525125619e-13,3.299975770e-13,3.198024087e-13,6.530855040e-14,3.720228220e-13,1.393307731e-12,1.270915549e-14,1.663739769e-14,5.102369715e-13,3.457895624e-12,2.189052741e-13,9.842547917e-14,1.428990524e-13,4.447164509e-13,4.398037104e-13,4.395316883e-13,5.271168593e-13,4.115069834e-13,2.469859049e-13,3.022521322e-13,8.601691648e-14,2.700747500e-13,1.402863274e-12,7.509164019e-13,9.780816676e-14,4.681903748e-13,3.491748121e-13,7.812901582e-13,3.175980165e-13,3.878375407e-13,1.036993570e-14
0.67188,1.811889887e-13,2.725823169e-13,3.665202928e-13,3.419331543e-13,6.360577288e-14,3.869032985e-13,1.362941050e-12,1.384272664e-14,1.759338933e-14,5.474826375e-13,3.584123588e-12,2.280932165e-13,9.827603145e-14,1.419502563e-13,4.496946603e-13,4.696060927e-13,4.645702119e-13,5.707242304e-13,4.462451412e-13,2.542623350e-13,3.120550951e-13,9.041155450e-14,2.684731468e-13,1.379834647e-12,7.369693139e-13,1.081229521e-13,4.986629001e-13,3.566967208e-13,8.198307985e-13,3.159208684e-13,4.050396969e-13,1.072631917e-14
0.67969,1.903459591e-13,2.901940929e-13,4.025439937e-13,3.627559426e-13,6.166843365e-14,4.047761045e-13,1.328066028e-12,1.550520782e-14,1.782934166e-14,5.904220054e-13,3.670645624e-12,2.350345820e-13,9.690192381e-14,1.369135740e-13,4.591944376e-13,5.058292357e-13,4.945534993e-13,6.136484992e-13,4.816758900e-13,2.627219107e-13,3.215520338e-13,9.394490287e-14,2.614297848e-13,1.355266770e-12,7.254530542e-13,1.199860412e-13,5.339758489e-13,3.617465296e-13,8.550358674e-13,3.215785980e-13,4.201342943e-13,1.169338942e-14
0.6875,1.981601724e-13,3.111989494e-13,4.376279642e-13,3.867099318e-13,6.046626627e-14,4.198398626e-13,1.293479179e-12,1.654173980e-14,1.727308000e-14,6.214887432e-13,3.722170054e-12,2.358904280e-13,9.477165796e-14,1.281709019e-13,4.720966432e-13,5.496578365e-13,5.317119355e-13,6.555161940e-13,5.164948899e-13,2.705689861e-13,3.297732091e-13,9.779267373e-14,2.527810422e-13,1.334620601e-12,7.112324166e-13,1.326837294e-13,5.660913181e-13,3.647966647e-13,8.860908599e-13,3.135443208e-13,4.379913760e-13,1.330679767e-14
0.69531,2.053951634e-13,3.311981783e-13,4.696302305e-13,4.097432488e-13,5.955357013e-14,4.354446293e-13,1.256313994e-12,1.734107680e-14,1.623979753e-14,6.473155283e-13,3.744295809e-12,2.339161483e-13,9.290581482e-14,1.184901556e-13,4.922624251e-13,5.994118846e-13,5.738498291e-13,6.951998766e-13,5.499706572e-13,2.807455207e-13,3.374905767e-13,1.017863716e-13,2.455118384e-13,1.317459124e-12,7.028006830e-13,1.459464656e-13,6.010137839e-13,3.663579860e-13,9.151482371e-13,3.056004926e-13,4.542907969e-13,1.555102285e-14
0.70312,2.091136211e-13,3.485630521e-13,4.983556908e-13,4.302632346e-13,5.926393859e-14,4.511738044e-13,1.217637595e-12,1.805679507e-14,1.476510565e-14,6.736161830e-13,3.734747169e-12,2.290643222e-13,9.257693901e-14,1.078907052e-13,5.168132197e-13,6.527195278e-13,6.200320451e-13,7.320677405e-13,5.811369029e-13,2.944468171e-13,3.450556825e-13,1.056057094e-13,2.381075035e-13,1.302759818e-12,6.952984167e-13,1.594158478e-13,6.420595472e-13,3.653493144e-13,9.467008990e-13,2.979947714e-13,4.685789035e-13,1.848015416e-14
0.71094,2.183679417e-13,3.685111516e-13,5.319195017e-13,4.518922031e-13,6.017840203e-14,4.665632293e-13,1.169094861e-12,1.834119116e-14,1.312600346e-14,6.967482902e-13,3.713312375e-12,2.230330844e-13,9.304585084e-14,9.811290341e-14,5.351751471e-13,7.009395924e-13,6.621633150e-13,7.641452538e-13,6.091029387e-13,3.121856606e-13,3.514864723e-13,1.090418433e-13,2.345536478e-13,1.286281188e-12,6.936640073e-13,1.718526904e-13,6.781267504e-13,3.654916051e-13,9.770808821e-13,2.864378234e-13,4.868253902e-13,2.160423505e-14
0.71875,2.309398912e-13,3.876831758e-13,5.683779731e-13,4.723476004e-13,6.185201176e-14,4.827153997e-13,1.113771564e-12,1.847549726e-14,1.152407425e-14,7.178998831e-13,3.686123686e-12,2.168673126e-13,9.417154791e-14,8.936043488e-14,5.520499831e-13,7.454059683e-13,7.009129523e-13,7.919103658e-13,6.338395519e-13,3.338870686e-13,3.583580254e-13,1.119743562e-13,2.327571322e-13,1.265618191e-12,6.969253027e-13,1.832074107e-13,7.135682900e-13,3.691306653e-13,1.005961600e-12,2.815554841e-13,5.050814987e-13,2.487727392e-14
0.72656,2.439718848e-13,4.088101930e-13,6.079412335e-13,4.941504814e-13,6.437840045e-14,4.967646775e-13,1.061673402e-12,1.811908322e-14,1.008819774e-14,7.371087565e-13,3.647677689e-12,2.090863791e-13,9.553121463e-14,8.164081457e-14,5.699704041e-13,7.876253587e-13,7.377951359e-13,8.180702170e-13,6.554605012e-13,3.586960403e-13,3.657503840e-13,1.157897148e-13,2.322757056e-13,1.240636940e-12,6.954419972e-13,1.930024353e-13,7.460270066e-13,3.717160181e-13,1.033032138e-12,2.735415062e-13,5.239141052e-13,2.818756505e-14
0.73438,2.628066466e-13,4.296415276e-13,6.500156311e-13,5.155361203e-13,6.712908197e-14,5.116277386e-13,1.006504796e-12,1.783801645e-14,9.215309437e-15,7.588416975e-13,3.607681013e-12,2.030072215e-13,9.709140598e-14,7.654514540e-14,5.848398984e-13,8.214529857e-13,7.655827855e-13,8.407545534e-13,6.731182320e-13,3.884855883e-13,3.712765022e-13,1.191234569e-13,2.341388110e-13,1.208717692e-12,6.945422630e-13,2.008922796e-13,7.767320668e-13,3.715403287e-13,1.058073345e-12,2.718912398e-13,5.426584434e-13,3.112981401e-14
0.74219,2.850512193e-13,4.471347278e-13,6.899037183e-13,5.336329396e-13,6.973658790e-14,5.259818050e-13,9.497352384e-13,1.798698236e-14,8.952895468e-15,7.842088592e-13,3.563232748e-12,1.989105815e-13,9.832312477e-14,7.283063893e-14,5.969464195e-13,8.469757158e-13,7.852950334e-13,8.577759253e-13,6.852430215e-13,4.227341690e-13,3.749928858e-13,1.212182250e-13,2.348142671e-13,1.173837413e-12,6.915240021e-13,2.074644172e-13,8.064481316e-13,3.701085403e-13,1.078990713e-12,2.772965234e-13,5.591003495e-13,3.388610639e-14
0.75,3.095678817e-13,4.670812191e-13,7.337847506e-13,5.521643172e-13,7.243008538e-14,5.368881199e-13,8.991249125e-13,1.818001009e-14,9.278549674e-15,8.125596564e-13,3.502735969e-12,1.957872954e-13,9.793703723e-14,7.012565917e-14,6.041115392e-13,8.636435820e-13,7.970861959e-13,8.692499849e-13,6.925949881e-13,4.607873374e-13,3.784914431e-13,1.230676486e-13,2.359834975e-13,1.133647548e-12,6.840289911e-13,2.124114678e-13,8.242683354e-13,3.658390286e-13,1.088209857e-12,2.824659244e-13,5.763306013e-13,3.656968717e-14
0.75781,3.319477662e-13,4.857465392e-13,7.760477082e-13,5.690357468e-13,7.452879172e-14,5.494978871e-13,8.526167549e-13,1.869908275e-14,1.016597023e-14,8.416345409e-13,3.426119691e-12,1.931897328e-13,9.714014122e-14,6.841772135e-14,6.101561249e-13,8.750120614e-13,8.038673103e-13,8.771019509e-13,6.966619102e-13,5.039934291e-13,3.824641041e-13,1.245683687e-13,2.383908568e-13,1.093276846e-12,6.763248497e-13,2.163573403e-13,8.403148281e-13,3.594525551e-13,1.092215405e-12,2.907712905e-13,5.898806958e-13,3.926529406e-14
0.76562,3.525143279e-13,5.053350054e-13,8.134900150e-13,5.858621122e-13,7.622419050e-14,5.637731508e-13,8.056525746e-13,1.927493255e-14,1.140661510e-14,8.693819661e-13,3.337941910e-12,1.902966105e-13,9.592500321e-14,6.749707857e-14,6.180117455e-13,8.847949799e-13,8.105262097e-13,8.818249914e-13,6.963556504e-13,5.515731742e-13,3.861101410e-13,1.263748114e-13,2.414552659e-13,1.061997210e-12,6.668603350e-13,2.200018984e-13,8.579737620e-13,3.546112386e-13,1.096329610e-12,2.983620946e-13,6.003558408e-13,4.214952225e-14
0.77344,3.770484769e-13,5.277511182e-13,8.485110311e-13,6.036507840e-13,7.780964246e-14,5.786804665e-13,7.623104424e-13,1.999924522e-14,1.295675502e-14,9.017785242e-13,3.240324598e-12,1.890580762e-13,9.415824977e-14,6.757059717e-14,6.209417749e-13,8.869044781e-13,8.113806522e-13,8.793590066e-13,6.913236376e-13,6.037948728e-13,3.900816540e-13,1.278824233e-13,2.469913258e-13,1.031995027e-12,6.621455330e-13,2.232927939e-13,8.733971733e-13,3.526567280e-13,1.098267566e-12,3.116755075e-13,6.108621169e-13,4.510200195e-14
0.78125,4.070115119e-13,5.520172047e-13,8.853777274e-13,6.203556417e-13,7.910993171e-14,5.926432484e-13,7.250641450e-13,2.080539215e-14,1.462038920e-14,9.341994678e-13,3.134880249e-12,1.878089460e-13,9.237858267e-14,6.817344670e-14,6.225622397e-13,8.846947794e-13,8.091559909e-13,8.707464882e-13,6.817746975e-13,6.610397022e-13,3.945769035e-13,1.296235799e-13,2.533975426e-13,1.002949851e-12,6.612045257e-13,2.266315139e-13,8.899882949e-13,3.551638152e-13,1.102399099e-12,3.318374589e-13,6.197679887e-13,4.817774060e-14
0.78906,4.477842853e-13,5.820475201e-13,9.335321563e-13,6.382854588e-13,8.053020676e-14,6.043255947e-13,6.867858752e-13,2.118603187e-14,1.621102840e-14,9.625675452e-13,3.030292049e-12,1.854317787e-13,8.991789204e-14,6.944797381e-14,6.250197281e-13,8.806576684e-13,8.058305104e-13,8.575900126e-13,6.667180999e-13,7.231067201e-13,3.969800634e-13,1.321254591e-13,2.590640332e-13,9.781101060e-13,6.571888772e-13,2.294107756e-13,9.001942851e-13,3.629732790e-13,1.105401029e-12,3.580639554e-13,6.293431858e-13,5.129256697e-14
0.79688,4.982735443e-13,6.087481632e-13,9.757214139e-13,6.534623751e-13,8.194337460e-14,6.190383028e-13,6.498420980e-13,2.139757469e-14,1.775351802e-14,9.893190895e-13,2.931688712e-12,1.833440347e-13,8.783752741e-14,7.080974948e-14,6.234608183e-13,8.704091936e-13,7.975306602e-13,8.375986234e-13,6.463885639e-13,7.908260013e-13,3.968785315e-13,1.344954413e-13,2.654950487e-13,9.540190823e-13,6.580741581e-13,2.313133233e-13,9.093953655e-13,3.753284458e-13,1.107160577e-12,3.938182863e-13,6.363986613e-13,5.424124548e-14
0.80469,5.600568080e-13,6.329018781e-13,1.014884458e-12,6.657658226e-13,8.357676313e-14,6.321582845e-13,6.181561034e-13,2.138360736e-14,1.926370507e-14,1.014487327e-12,2.834395334e-12,1.814595956e-13,8.623418200e-14,7.319572435e-14,6.207197802e-13,8.569215845e-13,7.889345192e-13,8.123970665e-13,6.216383385e-13,8.611443750e-13,3.944245248e-13,1.376612527e-13,2.717814025e-13,9.275156237e-13,6.627895909e-13,2.324658832e-13,9.179052458e-13,3.931542458e-13,1.110928102e-12,4.442713630e-13,6.419185156e-13,5.702582016e-14
0.8125,6.358047889e-13,6.584492630e-13,1.062788151e-12,6.768652083e-13,8.568599729e-14,6.398573288e-13,5.865404378e-13,2.139581362e-14,2.099192814e-14,1.043174975e-12,2.739814052e-12,1.809297043e-13,8.495641736e-14,7.797643247e-14,6.166513871e-13,8.405847760e-13,7.799365471e-13,7.832736779e-13,5.941653180e-13,9.319073820e-13,3.898224206e-13,1.411499322e-13,2.762379123e-13,8.997646454e-13,6.648127015e-13,2.322015431e-13,9.157361932e-13,4.141354317e-13,1.108354059e-12,5.127229871e-13,6.488766796e-13,5.963529995e-14
0.82031,7.125276418e-13,6.790055246e-13,1.103735831e-12,6.829885783e-13,8.757718688e-14,6.463215093e-13,5.566832797e-13,2.150444421e-14,2.307609873e-14,1.069921300e-12,2.649884920e-12,1.802193959e-13,8.513911466e-14,8.401513643e-14,6.124004592e-13,8.235830134e-13,7.716212990e-13,7.529894541e-13,5.669386468e-13,1.003908972e-12,3.846879483e-13,1.447543598e-13,2.795327263e-13,8.776566536e-13,6.643171268e-13,2.302940683e-13,9.078056491e-13,4.343891133e-13,1.097557436e-12,5.896245758e-13,6.521285662e-13,6.226298032e-14
0.82812,7.835431308e-13,6.976387356e-13,1.143416142e-12,6.860454137e-13,8.922508298e-14,6.492353118e-13,5.338963611e-13,2.145196159e-14,2.553277271e-14,1.090370278e-12,2.561486915e-12,1.782693574e-13,8.662598467e-14,9.158519828e-14,6.108428289e-13,8.094305536e-13,7.681004893e-13,7.241681125e-13,5.410829127e-13,1.077690284e-12,3.795043832e-13,1.492829833e-13,2.827280472e-13,8.589190806e-13,6.606544819e-13,2.268902979e-13,8.936470615e-13,4.549437280e-13,1.081041975e-12,6.686315408e-13,6.530219150e-13,6.511235842e-14
0.83594,8.498166178e-13,7.125904645e-13,1.179751545e-12,6.859501246e-13,9.064059482e-14,6.517349433e-13,5.161215413e-13,2.161858359e-14,2.860737529e-14,1.110790930e-12,2.480022644e-12,1.767856587e-13,8.966766584e-14,1.010188735e-13,6.117211625e-13,7.974710556e-13,7.684189132e-13,6.956213933e-13,5.163086312e-13,1.157450134e-12,3.751532199e-13,1.548712122e-13,2.890053232e-13,8.431777937e-13,6.579537687e-13,2.224886499e-13,8.765843455e-13,4.759085180e-13,1.058730180e-12,7.457134665e-13,6.514521816e-13,6.843439554e-14
0.84375,9.144668495e-13,7.271773486e-13,1.217347073e-12,6.839142677e-13,9.171116309e-14,6.545227632e-13,4.994257749e-13,2.183157968e-14,3.232215583e-14,1.127189684e-12,2.411070262e-12,1.752706525e-13,9.398791376e-14,1.115253449e-13,6.143160205e-13,7.880033239e-13,7.726470307e-13,6.692581136e-13,4.933567775e-13,1.241355985e-12,3.722376271e-13,1.613923961e-13,2.966706129e-13,8.340888065e-13,6.527179916e-13,2.170440207e-13,8.582275908e-13,4.951995599e-13,1.033398915e-12,8.224654654e-13,6.469895946e-13,7.211559704e-14
0.85156,9.854849123e-13,7.472854773e-13,1.269566991e-12,6.829573220e-13,9.273145678e-14,6.543011188e-13,4.839504150e-13,2.207870293e-14,3.654767785e-14,1.134605602e-12,2.352751977e-12,1.734470944e-13,9.925474179e-14,1.229495506e-13,6.136406317e-13,7.780478984e-13,7.782847213e-13,6.461947512e-13,4.733195071e-13,1.324752814e-12,3.704585610e-13,1.682200954e-13,3.025799371e-13,8.286867156e-13,6.419454412e-13,2.103019819e-13,8.345837831e-13,5.142166279e-13,1.008517888e-12,8.992931446e-13,6.434070434e-13,7.565439803e-14
0.85938,1.068470318e-12,7.685093073e-13,1.322007950e-12,6.814869989e-13,9.372213743e-14,6.570028318e-13,4.678769103e-13,2.239518777e-14,4.106881331e-14,1.134925444e-12,2.308604394e-12,1.709881853e-13,1.060215334e-13,1.339711212e-13,6.111803393e-13,7.679487450e-13,7.842104286e-13,6.260801227e-13,4.557463210e-13,1.409178656e-12,3.683400326e-13,1.760694290e-13,3.092248307e-13,8.267152481e-13,6.311967709e-13,2.030390240e-13,8.138159937e-13,5.352797043e-13,9.896956525e-13,9.723148426e-13,6.387977960e-13,7.905399164e-14
0.86719,1.173769715e-12,7.961481009e-13,1.385461242e-12,6.817511469e-13,9.502683505e-14,6.615132560e-13,4.493910302e-13,2.258560987e-14,4.558575667e-14,1.133118597e-12,2.284351016e-12,1.687131957e-13,1.131658795e-13,1.438130200e-13,6.066177339e-13,7.570260069e-13,7.892811996e-13,6.083001957e-13,4.391496910e-13,1.490294245e-12,3.647734437e-13,1.848786812e-13,3.148972066e-13,8.268420785e-13,6.178027104e-13,1.952786618e-13,7.949140925e-13,5.594685541e-13,9.783120353e-13,1.054277939e-12,6.349574506e-13,8.208920939e-14
0.875,1.307896143e-12,8.302527319e-13,1.464427040e-12,6.829109035e-13,9.661169245e-14,6.662688005e-13,4.340027301e-13,2.282108582e-14,5.008961673e-14,1.128629715e-12,2.276473883e-12,1.679303133e-13,1.200801130e-13,1.532347049e-13,5.963871507e-13,7.418553322e-13,7.915296649e-13,5.914781118e-13,4.238391609e-13,1.565842687e-12,3.618504352e-13,1.946008388e-13,3.196936277e-13,8.299761197e-13,6.031388840e-13,1.868616024e-13,7.764697382e-13,5.879304069e-13,9.721498376e-13,1.153700347e-12,6.324284007e-13,8.442058328e-14
0.88281,1.469149548e-12,8.684392010e-13,1.550836878e-12,6.844311582e-13,9.818934759e-14,6.750920534e-13,4.229462641e-13,2.317587333e-14,5.455907222e-14,1.120304348e-12,2.274962412e-12,1.675103127e-13,1.277733323e-13,1.624604063e-13,5.859670411e-13,7.259931095e-13,7.931257947e-13,5.780632328e-13,4.114984947e-13,1.636272736e-12,3.601306009e-13,2.051588433e-13,3.230263104e-13,8.374952629e-13,5.868039851e-13,1.782217793e-13,7.592150536e-13,6.196291900e-13,9.708227054e-13,1.271183723e-12,6.291125609e-13,8.605384153e-14
0.89062,1.658325109e-12,9.141158696e-13,1.656632573e-12,6.888741181e-13,1.001733007e-13,6.867732120e-13,4.136869824e-13,2.386168600e-14,5.900020746e-14,1.112413201e-12,2.274013690e-12,1.677607245e-13,1.365077563e-13,1.720877754e-13,5.764316173e-13,7.109830496e-13,7.954408223e-13,5.688566775e-13,4.023553443e-13,1.698511860e-12,3.597145517e-13,2.159073732e-13,3.228912518e-13,8.507239519e-13,5.659754923e-13,1.697078029e-13,7.386509187e-13,6.536690635e-13,9.722072861e-13,1.407338266e-12,6.275081951e-13,8.715167685e-14
0.89844,1.871371701e-12,9.616534265e-13,1.774752277e-12,6.925031497e-13,1.023659970e-13,7.038099182e-13,4.069805964e-13,2.456926816e-14,6.356168802e-14,1.097264094e-12,2.275383841e-12,1.686860820e-13,1.460713548e-13,1.822524254e-13,5.670232109e-13,6.971971646e-13,8.013107968e-13,5.627426033e-13,3.962974496e-13,1.756153143e-12,3.616601874e-13,2.281788483e-13,3.244043948e-13,8.741660361e-13,5.477220656e-13,1.618152663e-13,7.192391440e-13,6.899100210e-13,9.748191784e-13,1.552856708e-12,6.250694773e-13,8.806143080e-14
0.90625,2.102222873e-12,1.011080707e-12,1.904368245e-12,6.953987902e-13,1.045831184e-13,7.268443220e-13,3.997334514e-13,2.546031857e-14,6.830800481e-14,1.074519114e-12,2.275521533e-12,1.695569032e-13,1.568612591e-13,1.928413277e-13,5.601511447e-13,6.873660514e-13,8.117802902e-13,5.612608129e-13,3.947306802e-13,1.808729151e-12,3.659144695e-13,2.409897425e-13,3.257391137e-13,9.023336948e-13,5.288314405e-13,1.544352484e-13,6.981870769e-13,7.243912795e-13,9.755214178e-13,1.706262929e-12,6.209831992e-13,8.881496305e-14
0.91406,2.346790504e-12,1.064054019e-12,2.050877127e-12,6.992739924e-13,1.070897639e-13,7.525006622e-13,3.915576648e-13,2.689630611e-14,7.347931081e-14,1.052206765e-12,2.268768968e-12,1.706487743e-13,1.694514082e-13,2.045321170e-13,5.578926288e-13,6.844996946e-13,8.284518439e-13,5.662703899e-13,3.989533199e-13,1.856488804e-12,3.744196678e-13,2.541731998e-13,3.260998351e-13,9.372882835e-13,5.061487703e-13,1.473821969e-13,6.728906080e-13,7.547451682e-13,9.709806223e-13,1.867502243e-12,6.165300714e-13,8.972695784e-14
0.92188,2.604695989e-12,1.118080819e-12,2.206821714e-12,7.032014643e-13,1.096784474e-13,7.831829516e-13,3.857093976e-13,2.845167670e-14,7.917246685e-14,1.024799538e-12,2.263510363e-12,1.706057736e-13,1.843822786e-13,2.160945144e-13,5.608924787e-13,6.906136606e-13,8.538775915e-13,5.791110623e-13,4.092629440e-13,1.903890653e-12,3.875949683e-13,2.684413948e-13,3.277948092e-13,9.850082499e-13,4.844802315e-13,1.407030456e-13,6.476973784e-13,7.818218841e-13,9.635883892e-13,2.026395646e-12,6.097607078e-13,9.090046569e-14
0.92969,2.889179836e-12,1.177545878e-12,2.383893623e-12,7.093765332e-13,1.125284973e-13,8.188283528e-13,3.810868538e-13,3.030702254e-14,8.516000322e-14,9.922483952e-13,2.269989009e-12,1.690667893e-13,2.013633981e-13,2.269115861e-13,5.678783885e-13,7.045921837e-13,8.864549743e-13,5.994254881e-13,4.255602338e-13,1.948409478e-12,4.041753736e-13,2.827378246e-13,3.283805464e-13,1.037705988e-12,4.620283046e-13,1.341573554e-13,6.204975705e-13,8.034212707e-13,9.555664337e-13,2.183833880e-12,6.029913631e-13,9.213414284e-14
0.9375,3.211634614e-12,1.244283441e-12,2.592523923e-12,7.182325876e-13,1.158532566e-13,8.584776109e-13,3.763687708e-13,3.226071626e-14,9.131680613e-14,9.573705889e-13,2.281862186e-12,1.671146627e-13,2.197704404e-13,2.374866442e-13,5.795079658e-13,7.256229503e-13,9.266558648e-13,6.264675586e-13,4.476572487e-13,1.992054395e-12,4.244698119e-13,2.985727337e-13,3.299967997e-13,1.098118063e-12,4.386354734e-13,1.276648828e-13,5.936185614e-13,8.170292269e-13,9.470859303e-13,2.341506497e-12,5.970089989e-13,9.359034634e-14
0.94531,3.572219567e-12,1.319462307e-12,2.825529453e-12,7.313453818e-13,1.197250199e-13,9.062302306e-13,3.708112768e-13,3.459229441e-14,9.768530602e-14,9.202213955e-13,2.292466072e-12,1.650564815e-13,2.407680042e-13,2.471908925e-13,5.934763304e-13,7.515197363e-13,9.719922012e-13,6.596575270e-13,4.757122647e-13,2.031765304e-12,4.482198101e-13,3.143056260e-13,3.300228401e-13,1.168404233e-12,4.153453390e-13,1.213565050e-13,5.689298783e-13,8.242750298e-13,9.412365114e-13,2.501928656e-12,5.925797721e-13,9.467427565e-14
0.95312,3.978461715e-12,1.406853468e-12,3.088068065e-12,7.512863871e-13,1.246042463e-13,9.614135010e-13,3.674499563e-13,3.734901654e-14,1.043898963e-13,8.816672055e-13,2.310782987e-12,1.634837544e-13,2.641495942e-13,2.571821679e-13,6.100817884e-13,7.812057459e-13,1.021917148e-12,6.985033782e-13,5.091129922e-13,2.063759287e-12,4.752065203e-13,3.297709567e-13,3.283592580e-13,1.242905814e-12,3.929104547e-13,1.156689782e-13,5.466769495e-13,8.281362257e-13,9.428089153e-13,2.679688570e-12,5.928172215e-13,9.536505665e-14
0.96094,4.436203942e-12,1.506037720e-12,3.387432140e-12,7.766297176e-13,1.303635154e-13,1.022313824e-12,3.694309981e-13,3.975043377e-14,1.112283145e-13,8.431489028e-13,2.339839203e-12,1.631119808e-13,2.884859666e-13,2.676176718e-13,6.305104453e-13,8.134359778e-13,1.077003542e-12,7.426254435e-13,5.461252869e-13,2.093537493e-12,5.029233376e-13,3.472474756e-13,3.282628140e-13,1.326799165e-12,3.725277422e-13,1.108038407e-13,5.291396285e-13,8.294654421e-13,9.515554765e-13,2.878026476e-12,5.969156421e-13,9.603602580e-14
0.96875,4.935666273e-12,1.616681427e-12,3.715299366e-12,8.073606401e-13,1.367676288e-13,1.090444637e-12,3.722389657e-13,4.256158522e-14,1.178044188e-13,8.100659413e-13,2.375435614e-12,1.644564598e-13,3.138268223e-13,2.777815906e-13,6.521776969e-13,8.452119853e-13,1.132088375e-12,7.896463592e-13,5.855376745e-13,2.115769234e-12,5.288898574e-13,3.640575827e-13,3.262848413e-13,1.418149100e-12,3.533983344e-13,1.067249288e-13,5.141462703e-13,8.301010972e-13,9.651899575e-13,3.088653620e-12,6.049142836e-13,9.619098785e-14
0.97656,5.467236402e-12,1.735981332e-12,4.068227451e-12,8.433586495e-13,1.436128035e-13,1.165026866e-12,3.720691230e-13,4.571406011e-14,1.240910304e-13,7.796236978e-13,2.420050886e-12,1.672598953e-13,3.392432887e-13,2.886860583e-13,6.776090102e-13,8.775905206e-13,1.188144728e-12,8.384353818e-13,6.264556079e-13,2.129209975e-12,5.540854966e-13,3.808359102e-13,3.252221360e-13,1.511509305e-12,3.366677115e-13,1.036093272e-13,5.011435715e-13,8.305981469e-13,9.832966215e-13,3.310710196e-12,6.156049996e-13,9.598425230e-14
0.98438,6.019336529e-12,1.858890895e-12,4.437921801e-12,8.818862286e-13,1.502466764e-13,1.246287346e-12,3.706541295e-13,4.886675883e-14,1.302421522e-13,7.534349414e-13,2.465506264e-12,1.709398885e-13,3.645272165e-13,2.996957729e-13,7.075176740e-13,9.109677011e-13,1.245630568e-12,8.895797359e-13,6.683732962e-13,2.139489000e-12,5.784384299e-13,3.979809237e-13,3.252119160e-13,1.610529735e-12,3.212449858e-13,1.015074990e-13,4.896563592e-13,8.277195268e-13,1.003221249e-12,3.549584471e-12,6.261061569e-13,9.560332551e-14
0.99219,6.586658773e-12,1.989521272e-12,4.822844572e-12,9.240693165e-13,1.568548661e-13,1.331344693e-12,3.687704376e-13,5.223144155e-14,1.362428450e-13,7.354862594e-13,2.505593688e-12,1.754735623e-13,3.890607353e-13,3.104038336e-13,7.405544624e-13,9.451352151e-13,1.303189596e-12,9.429404667e-13,7.110643791e-13,2.143940699e-12,6.019678921e-13,4.149760978e-13,3.256556872e-13,1.715669319e-12,3.058532706e-13,1.004542750e-13,4.794643290e-13,8.229230635e-13,1.024378450e-12,3.796569859e-12,6.380399106e-13,9.512885212e-14
1,7.177092409e-12,2.129875634e-12,5.232175657e-12,9.705716343e-13,1.635885796e-13,1.418115971e-12,3.671864293e-13,5.519732819e-14,1.418199785e-13,7.185294145e-13,2.550759403e-12,1.802963756e-13,4.111551682e-13,3.203301826e-13,7.747822470e-13,9.782035922e-13,1.359476947e-12,9.966143680e-13,7.524510961e-13,2.140578632e-12,6.226859571e-13,4.328790960e-13,3.292124905e-13,1.823514623e-12,2.925818880e-13,1.003479211e-13,4.718273254e-13,8.167895094e-13,1.046944107e-12,4.041945174e-12,6.516264723e-13,9.461913865e-14
1.0078,7.783108675e-12,2.273513237e-12,5.645458646e-12,1.017933381e-12,1.700206135e-13,1.510786472e-12,3.691508707e-13,5.824825413e-14,1.469173711e-13,7.047860528e-13,2.602253978e-12,1.844414340e-13,4.324507522e-13,3.282189163e-13,8.079412349e-13,1.008715725e-12,1.410353290e-12,1.047937777e-12,7.912813536e-13,2.130147198e-12,6.386016592e-13,4.481605446e-13,3.310458220e-13,1.927054841e-12,2.818180345e-13,1.011187711e-13,4.661530769e-13,8.056697908e-13,1.070900077e-12,4.290643398e-12,6.653451479e-13,9.375935393e-14
1.0156,8.406918045e-12,2.423316409e-12,6.061571058e-12,1.068510956e-12,1.767226541e-13,1.606643836e-12,3.764119381e-13,6.135716783e-14,1.518866025e-13,6.982459926e-13,2.656951073e-12,1.879008807e-13,4.537726379e-13,3.358059379e-13,8.447945648e-13,1.042251200e-12,1.461715778e-12,1.098695722e-12,8.296232710e-13,2.121032749e-12,6.547551832e-13,4.620778863e-13,3.327986401e-13,2.027011158e-12,2.725292609e-13,1.027471736e-13,4.639968110e-13,7.909863484e-13,1.101658219e-12,4.541914256e-12,6.815310462e-13,9.305126048e-14
1.0234,9.065144090e-12,2.580685052e-12,6.494812914e-12,1.123906774e-12,1.841464639e-13,1.702064881e-12,3.880979253e-13,6.385246076e-14,1.570010551e-13,6.971959177e-13,2.726233881e-12,1.916559103e-13,4.748738031e-13,3.449053402e-13,8.875875649e-13,1.079841949e-12,1.516675231e-12,1.149487991e-12,8.679189556e-13,2.115744921e-12,6.726868022e-13,4.763805487e-13,3.365556724e-13,2.130923906e-12,2.645333019e-13,1.048584153e-13,4.651879175e-13,7.710146719e-13,1.139803660e-12,4.805714634e-12,7.011055449e-13,9.265348508e-14
1.0312,9.746136460e-12,2.738653412e-12,6.931872359e-12,1.179728794e-12,1.920972892e-13,1.798531149e-12,3.996922901e-13,6.611504117e-14,1.625226819e-13,7.019825559e-13,2.820893200e-12,1.960629166e-13,4.971837506e-13,3.555529099e-13,9.340777503e-13,1.119335713e-12,1.570692635e-12,1.196762843e-12,9.044821771e-13,2.106241598e-12,6.903555741e-13,4.881132051e-13,3.391930654e-13,2.235011371e-12,2.583676472e-13,1.070019653e-13,4.667134238e-13,7.433625654e-13,1.179821245e-12,5.089959072e-12,7.225431906e-13,9.235324679e-14
1.0391,1.042666205e-11,2.893673639e-12,7.364804401e-12,1.235111085e-12,2.002990736e-13,1.894713554e-12,4.135715051e-13,6.802652202e-14,1.684868154e-13,7.114682683e-13,2.935667196e-12,2.005497896e-13,5.204305780e-13,3.675122297e-13,9.830042117e-13,1.161109043e-12,1.625675709e-12,1.240104577e-12,9.390047441e-13,2.095632526e-12,7.096272137e-13,4.987168085e-13,3.435854470e-13,2.336692926e-12,2.536195854e-13,1.089461488e-13,4.681050802e-13,7.141440915e-13,1.220145714e-12,5.371592356e-12,7.445813441e-13,9.263047516e-14
1.0469,1.108355989e-11,3.037341834e-12,7.773343757e-12,1.287623253e-12,2.079691350e-13,1.987928465e-12,4.348647540e-13,6.962371533e-14,1.745293726e-13,7.279628861e-13,3.061417699e-12,2.052021767e-13,5.439185590e-13,3.797682597e-13,1.032193929e-12,1.201254721e-12,1.678185740e-12,1.277922114e-12,9.701253388e-13,2.083271960e-12,7.278497218e-13,5.067084230e-13,3.488187284e-13,2.434732069e-12,2.493806537e-13,1.107431130e-13,4.691939099e-13,6.833814084e-13,1.259423007e-12,5.628142472e-12,7.643665665e-13,9.328231532e-14
1.0547,1.171028783e-11,3.169022871e-12,8.160426984e-12,1.335042875e-12,2.147995159e-13,2.072772147e-12,4.561796995e-13,7.067142975e-14,1.804858936e-13,7.506720991e-13,3.200469797e-12,2.103573314e-13,5.661014910e-13,3.920443987e-13,1.082910435e-12,1.238582803e-12,1.723722476e-12,1.308230144e-12,9.957758283e-13,2.064601163e-12,7.427009067e-13,5.112757393e-13,3.545066651e-13,2.524434001e-12,2.452057480e-13,1.125977559e-13,4.690092499e-13,6.466775671e-13,1.294093024e-12,5.871677143e-12,7.823543661e-13,9.400675128e-14
1.0625,1.230324648e-11,3.292038864e-12,8.533774645e-12,1.378129814e-12,2.205677324e-13,2.149175645e-12,4.788721772e-13,7.082451964e-14,1.861309124e-13,7.766085201e-13,3.353489935e-12,2.151790669e-13,5.851991531e-13,4.041970740e-13,1.135240395e-12,1.272977302e-12,1.763077190e-12,1.333357186e-12,1.016548330e-12,2.044555570e-12,7.560904813e-13,5.153997429e-13,3.628988323e-13,2.609503596e-12,2.413033035e-13,1.149361375e-13,4.687324617e-13,6.092285938e-13,1.323713829e-12,6.111751408e-12,7.994782571e-13,9.493632029e-14
1.0703,1.282637783e-11,3.396643682e-12,8.851120435e-12,1.414398430e-12,2.246890433e-13,2.219020567e-12,5.106132761e-13,7.073665576e-14,1.910033775e-13,8.081699539e-13,3.511221480e-12,2.185751588e-13,6.015755121e-13,4.140848769e-13,1.182094578e-12,1.299056253e-12,1.790498752e-12,1.352865485e-12,1.032661097e-12,2.021368986e-12,7.647639003e-13,5.162084999e-13,3.691608899e-13,2.689814470e-12,2.365086656e-13,1.180075756e-13,4.680021092e-13,5.766703419e-13,1.349497354e-12,6.312758009e-12,8.132996829e-13,9.562044547e-14
1.0781,1.326839992e-11,3.483369815e-12,9.114141829e-12,1.443631110e-12,2.271130742e-13,2.274030365e-12,5.488091983e-13,6.998334101e-14,1.947053392e-13,8.432441267e-13,3.674751057e-12,2.207497111e-13,6.127163104e-13,4.206359835e-13,1.221866672e-12,1.315779822e-12,1.803831816e-12,1.365173511e-12,1.042394880e-12,1.993641916e-12,7.663560310e-13,5.136083052e-13,3.733634426e-13,2.759058988e-12,2.304729737e-13,1.218021125e-13,4.661472930e-13,5.470589760e-13,1.370782208e-12,6.475096497e-12,8.242512339e-13,9.576960121e-14
1.0859,1.363501107e-11,3.553567035e-12,9.329614218e-12,1.465118710e-12,2.277702386e-13,2.315494425e-12,5.919679327e-13,6.860954075e-14,1.966770631e-13,8.787536993e-13,3.849591862e-12,2.214958987e-13,6.167954083e-13,4.238072198e-13,1.255711541e-12,1.323372212e-12,1.804417774e-12,1.371109723e-12,1.045646031e-12,1.963214213e-12,7.619739204e-13,5.093271276e-13,3.771251631e-13,2.813656674e-12,2.263169453e-13,1.262604565e-13,4.654379742e-13,5.187207845e-13,1.387289465e-12,6.620802360e-12,8.315239110e-13,9.530588935e-14
1.0938,1.392032107e-11,3.605750890e-12,9.484212308e-12,1.477715170e-12,2.269002880e-13,2.345879048e-12,6.409864065e-13,6.696870068e-14,1.967397491e-13,9.195189719e-13,4.024389354e-12,2.201662814e-13,6.154824599e-13,4.235814729e-13,1.282250041e-12,1.322583111e-12,1.792191685e-12,1.371419670e-12,1.043760759e-12,1.926961513e-12,7.505024343e-13,5.021189355e-13,3.768918213e-13,2.851174215e-12,2.229170306e-13,1.308994095e-13,4.631961203e-13,4.940839480e-13,1.397054474e-12,6.739359447e-12,8.354756651e-13,9.407882646e-14
1.1016,1.412568476e-11,3.642313408e-12,9.586248037e-12,1.482252339e-12,2.246603502e-13,2.359143187e-12,6.929224043e-13,6.459232532e-14,1.950964449e-13,9.676174951e-13,4.195947396e-12,2.171240332e-13,6.085970884e-13,4.216731883e-13,1.308116983e-12,1.318943878e-12,1.772113378e-12,1.367241361e-12,1.037715096e-12,1.888276578e-12,7.331649002e-13,4.935054677e-13,3.740877955e-13,2.870656435e-12,2.199785860e-13,1.354024206e-13,4.590747467e-13,4.738238314e-13,1.400088907e-12,6.834701484e-12,8.374477708e-13,9.228575288e-14
1.1094,1.423489959e-11,3.652910645e-12,9.612575942e-12,1.476986367e-12,2.209174395e-13,2.363017208e-12,7.442044127e-13,6.232858830e-14,1.919362617e-13,1.015827578e-12,4.375077563e-12,2.122674613e-13,5.979708165e-13,4.182089245e-13,1.332862422e-12,1.311583177e-12,1.744162492e-12,1.357593489e-12,1.027804461e-12,1.849550216e-12,7.133076776e-13,4.825710675e-13,3.684317358e-13,2.873218723e-12,2.193566012e-13,1.391171938e-13,4.549249236e-13,4.569689110e-13,1.399367613e-12,6.884761319e-12,8.334821625e-13,8.993678397e-14
1.1172,1.425440358e-11,3.639967146e-12,9.579857480e-12,1.463255708e-12,2.163599844e-13,2.357733613e-12,8.033667214e-13,5.984208412e-14,1.878155264e-13,1.065633962e-12,4.548449090e-12,2.062778103e-13,5.849462465e-13,4.129673749e-13,1.350144566e-12,1.298269701e-12,1.707482678e-12,1.340495100e-12,1.012645959e-12,1.806815688e-12,6.916753827e-13,4.692783447e-13,3.597898185e-13,2.864762738e-12,2.184868903e-13,1.413162573e-13,4.475021402e-13,4.438878659e-13,1.390816896e-12,6.897061520e-12,8.248691459e-13,8.720475872e-14
1.125,1.419035287e-11,3.604884305e-12,9.499931847e-12,1.439855777e-12,2.110771057e-13,2.335530506e-12,8.693013918e-13,5.675941531e-14,1.828181262e-13,1.120390377e-12,4.705740719e-12,1.990721693e-13,5.681359643e-13,4.065402375e-13,1.363056590e-12,1.281156005e-12,1.664467707e-12,1.315791884e-12,9.916949259e-13,1.760272429e-12,6.675411467e-13,4.548106847e-13,3.506894238e-13,2.840992448e-12,2.186621531e-13,1.423353287e-13,4.390643106e-13,4.313258092e-13,1.372132430e-12,6.893151806e-12,8.128337623e-13,8.439429958e-14
1.1328,1.401221171e-11,3.536549265e-12,9.335326799e-12,1.404742040e-12,2.049041340e-13,2.301615405e-12,9.249476666e-13,5.396493202e-14,1.769860584e-13,1.171070079e-12,4.863238208e-12,1.897625772e-13,5.499898143e-13,3.988692146e-13,1.371490847e-12,1.260889486e-12,1.616145216e-12,1.285201230e-12,9.673445318e-13,1.712594488e-12,6.413780378e-13,4.369286617e-13,3.386286417e-13,2.796986653e-12,2.198657915e-13,1.419706253e-13,4.284701532e-13,4.174634623e-13,1.345162428e-12,6.825263006e-12,7.947163177e-13,8.144096510e-14
1.1406,1.373264093e-11,3.442314459e-12,9.107948965e-12,1.360573882e-12,1.981586204e-13,2.255079961e-12,9.823307306e-13,5.088747041e-14,1.710981999e-13,1.217970678e-12,5.006244164e-12,1.800628282e-13,5.320938626e-13,3.912659629e-13,1.374710723e-12,1.238714262e-12,1.566254681e-12,1.252534849e-12,9.417680260e-13,1.664897728e-12,6.151005974e-13,4.178988236e-13,3.266911624e-13,2.744288546e-12,2.211791202e-13,1.403122900e-13,4.142395304e-13,4.050559263e-13,1.309320927e-12,6.698313845e-12,7.729038239e-13,7.862741546e-14
1.1484,1.337076057e-11,3.323733014e-12,8.822941830e-12,1.306098928e-12,1.905415782e-13,2.194501187e-12,1.053931409e-12,4.780938713e-14,1.653181719e-13,1.263238313e-12,5.110621547e-12,1.698342391e-13,5.141424513e-13,3.834515176e-13,1.374225942e-12,1.214540079e-12,1.514508861e-12,1.219868422e-12,9.163959386e-13,1.616387002e-12,5.892901339e-13,3.987904196e-13,3.172742441e-13,2.679952719e-12,2.243472945e-13,1.382603888e-13,4.012796072e-13,3.910474787e-13,1.266589643e-12,6.532550403e-12,7.478351630e-13,7.607865798e-14
1.1562,1.292740055e-11,3.185999276e-12,8.485058805e-12,1.245574308e-12,1.822379499e-13,2.124466189e-12,1.116406348e-12,4.511712771e-14,1.596672784e-13,1.304377816e-12,5.192230514e-12,1.588062965e-13,4.969980754e-13,3.755737851e-13,1.370820035e-12,1.189847643e-12,1.462105982e-12,1.188908643e-12,8.930240563e-13,1.568448272e-12,5.634191743e-13,3.782116596e-13,3.073368106e-13,2.603308320e-12,2.265252392e-13,1.358642349e-13,3.875265072e-13,3.739089280e-13,1.216841171e-12,6.324740484e-12,7.204994298e-13,7.376100533e-14
1.1641,1.242106379e-11,3.039812562e-12,8.120647458e-12,1.183506268e-12,1.735521933e-13,2.048095065e-12,1.162554512e-12,4.251382058e-14,1.543547149e-13,1.343890440e-12,5.254439654e-12,1.481848816e-13,4.804551810e-13,3.688204347e-13,1.366724309e-12,1.166436456e-12,1.412416246e-12,1.161188130e-12,8.720534539e-13,1.523099363e-12,5.378898904e-13,3.581726746e-13,2.993469074e-13,2.522935520e-12,2.292710536e-13,1.337921396e-13,3.745568430e-13,3.579400715e-13,1.162847775e-12,6.085724514e-12,6.929696653e-13,7.202026287e-14
1.1719,1.186357011e-11,2.880508730e-12,7.712793552e-12,1.117503999e-12,1.643180418e-13,1.966656739e-12,1.205454777e-12,4.040160541e-14,1.491195007e-13,1.377331952e-12,5.282771670e-12,1.372231728e-13,4.646842133e-13,3.623627871e-13,1.361363182e-12,1.143597637e-12,1.364348412e-12,1.135022885e-12,8.522937882e-13,1.479861090e-12,5.130133772e-13,3.376878411e-13,2.922685682e-13,2.426560337e-12,2.335981199e-13,1.326890075e-13,3.640316756e-13,3.427898986e-13,1.109001843e-12,5.809635631e-12,6.640240855e-13,7.075697542e-14
1.1797,1.127073216e-11,2.716555089e-12,7.283030509e-12,1.050144082e-12,1.546814636e-13,1.876909083e-12,1.243788792e-12,3.843167408e-14,1.438144938e-13,1.402012369e-12,5.279494851e-12,1.264494739e-13,4.488069197e-13,3.567655402e-13,1.353213395e-12,1.123076128e-12,1.320727856e-12,1.110309960e-12,8.334012504e-13,1.439283340e-12,4.891607002e-13,3.168966476e-13,2.851787242e-13,2.319753726e-12,2.369010595e-13,1.321237510e-13,3.533756184e-13,3.277641774e-13,1.051530620e-12,5.526775709e-12,6.348265399e-13,6.986679294e-14
1.1875,1.064860281e-11,2.552089694e-12,6.842073763e-12,9.824899336e-13,1.446688693e-13,1.783095156e-12,1.272774074e-12,3.659806905e-14,1.382641133e-13,1.417357003e-12,5.249646975e-12,1.158171619e-13,4.321487461e-13,3.515268827e-13,1.339845782e-12,1.102612155e-12,1.280133338e-12,1.086691756e-12,8.158232013e-13,1.400829947e-12,4.677643255e-13,2.975642751e-13,2.800493346e-13,2.214165791e-12,2.418286624e-13,1.320024035e-13,3.451871296e-13,3.150825653e-13,9.915424662e-13,5.238749114e-12,6.052954772e-13,6.946038685e-14
1.1953,1.000165068e-11,2.385212589e-12,6.380487945e-12,9.156892690e-13,1.345693980e-13,1.687389484e-12,1.290838519e-12,3.508825021e-14,1.324459338e-13,1.421302707e-12,5.197131881e-12,1.050053971e-13,4.158874042e-13,3.458074236e-13,1.320767583e-12,1.079352578e-12,1.237979801e-12,1.061432797e-12,7.981468411e-13,1.361893565e-12,4.488679063e-13,2.783279030e-13,2.740121649e-13,2.100565840e-12,2.479655246e-13,1.320967333e-13,3.382803067e-13,3.054359954e-13,9.319845902e-13,4.929248391e-12,5.757091965e-13,6.924308911e-14
1.2031,9.351022778e-12,2.222437301e-12,5.924597221e-12,8.520569054e-13,1.248144016e-13,1.587687638e-12,1.300847326e-12,3.377696812e-14,1.264836652e-13,1.417926849e-12,5.124295420e-12,9.509263808e-14,3.989084286e-13,3.404682863e-13,1.297967519e-12,1.055530895e-12,1.197028013e-12,1.034966740e-12,7.786372010e-13,1.320292366e-12,4.308048688e-13,2.600107722e-13,2.679543697e-13,1.983844971e-12,2.552986092e-13,1.323556303e-13,3.335966465e-13,2.974300439e-13,8.720668297e-13,4.626048652e-12,5.480607932e-13,6.908004844e-14
1.2109,8.698951851e-12,2.061129412e-12,5.472282561e-12,7.900437894e-13,1.156008066e-13,1.491678418e-12,1.306070910e-12,3.305185821e-14,1.201855483e-13,1.409578246e-12,5.033751382e-12,8.570605030e-14,3.806621199e-13,3.342421810e-13,1.270059980e-12,1.030152883e-12,1.156941798e-12,1.008052506e-12,7.576031237e-13,1.276022144e-12,4.139187765e-13,2.431569086e-13,2.622715153e-13,1.866577823e-12,2.653032877e-13,1.327495617e-13,3.328346725e-13,2.899451107e-13,8.137261933e-13,4.321856453e-12,5.217359398e-13,6.882411202e-14
1.2188,8.049947620e-12,1.905277209e-12,5.028804916e-12,7.310792798e-13,1.070650657e-13,1.397354913e-12,1.304581897e-12,3.259594677e-14,1.137721315e-13,1.395578579e-12,4.924025559e-12,7.743965203e-14,3.622617965e-13,3.267688711e-13,1.235024253e-12,1.001131585e-12,1.114678578e-12,9.804379318e-13,7.358097255e-13,1.228902542e-12,3.989287443e-13,2.271599373e-13,2.548053615e-13,1.748852785e-12,2.758314510e-13,1.326464222e-13,3.337802514e-13,2.839301134e-13,7.571751190e-13,4.020640809e-12,4.974938518e-13,6.816608852e-14
1.2266,7.414611232e-12,1.756203547e-12,4.602801782e-12,6.747487309e-13,9.915879032e-14,1.300327631e-12,1.296625595e-12,3.226707837e-14,1.073828465e-13,1.372117049e-12,4.798229894e-12,7.034746165e-14,3.433180376e-13,3.192913438e-13,1.196874586e-12,9.712634233e-13,1.072965586e-12,9.544704967e-13,7.140623134e-13,1.180097128e-12,3.849360538e-13,2.128705489e-13,2.472190932e-13,1.636269489e-12,2.884423933e-13,1.322366046e-13,3.383970052e-13,2.783213643e-13,7.037150457e-13,3.723753056e-12,4.759251709e-13,6.706064781e-14
1.2344,6.797434186e-12,1.609100438e-12,4.186901142e-12,6.200220084e-13,9.203175574e-14,1.207247815e-12,1.278549598e-12,3.244483942e-14,1.008124422e-13,1.342145751e-12,4.672667102e-12,6.370663442e-14,3.240093859e-13,3.104685460e-13,1.157648282e-12,9.412228656e-13,1.032269587e-12,9.302841539e-13,6.931695807e-13,1.133123060e-12,3.723531590e-13,1.994854167e-13,2.392151665e-13,1.518673221e-12,3.046412340e-13,1.320460452e-13,3.462200605e-13,2.715944035e-13,6.549298198e-13,3.416344300e-12,4.566440809e-13,6.543402178e-14
1.2422,6.209385155e-12,1.469589239e-12,3.795598357e-12,5.685072625e-13,8.559487058e-14,1.118514953e-12,1.253995139e-12,3.280385647e-14,9.439136181e-14,1.309084728e-12,4.539679133e-12,5.835936706e-14,3.048820874e-13,2.994605687e-13,1.111350037e-12,9.082788962e-13,9.904342378e-13,9.065138554e-13,6.733203537e-13,1.085536211e-12,3.622194715e-13,1.873349750e-13,2.319128748e-13,1.398352775e-12,3.242492251e-13,1.321811414e-13,3.579367382e-13,2.628111237e-13,6.101591111e-13,3.121142407e-12,4.401891012e-13,6.351970001e-14
1.25,5.651879559e-12,1.338450392e-12,3.428861767e-12,5.202701644e-13,7.978677913e-14,1.031547940e-12,1.230022410e-12,3.306250567e-14,8.831126377e-14,1.266754668e-12,4.397713379e-12,5.402945779e-14,2.862457738e-13,2.881227183e-13,1.060949747e-12,8.745828845e-13,9.500612516e-13,8.844533511e-13,6.547579284e-13,1.037736550e-12,3.545953633e-13,1.768943395e-13,2.264241404e-13,1.285921436e-12,3.455707016e-13,1.329979419e-13,3.749827487e-13,2.519835614e-13,5.711793809e-13,2.833842735e-12,4.271057267e-13,6.155684270e-14
1.2578,5.125653309e-12,1.216278282e-12,3.083741446e-12,4.771163640e-13,7.484753478e-14,9.458796213e-13,1.202302016e-12,3.305468472e-14,8.255186174e-14,1.219654361e-12,4.267457560e-12,5.065544773e-14,2.689311650e-13,2.763258351e-13,1.009376472e-12,8.407212714e-13,9.104591995e-13,8.623757647e-13,6.367590505e-13,9.934821638e-13,3.490527328e-13,1.664784646e-13,2.211026136e-13,1.179474845e-12,3.646839643e-13,1.349194731e-13,3.949776077e-13,2.435116088e-13,5.396959972e-13,2.551834129e-12,4.181477818e-13,5.947121183e-14
1.2656,4.638037209e-12,1.105077496e-12,2.768202711e-12,4.393852816e-13,7.057852513e-14,8.632454022e-13,1.176363724e-12,3.276439078e-14,7.744237149e-14,1.171082478e-12,4.138677388e-12,4.858258744e-14,2.531531562e-13,2.639462991e-13,9.536523745e-13,8.056817358e-13,8.709955859e-13,8.386039940e-13,6.178628540e-13,9.495292986e-13,3.453799327e-13,1.570087108e-13,2.187387656e-13,1.079552857e-12,3.839983447e-13,1.383210592e-13,4.191934767e-13,2.362898460e-13,5.166807366e-13,2.290431007e-12,4.134301388e-13,5.776444223e-14
1.2734,4.188521410e-12,1.003700266e-12,2.479681645e-12,4.067960320e-13,6.698616277e-14,7.875546234e-13,1.152699280e-12,3.241156701e-14,7.309460120e-14,1.118233162e-12,4.006968358e-12,4.734163430e-14,2.393052392e-13,2.526068456e-13,8.987017763e-13,7.717689871e-13,8.348567299e-13,8.146445631e-13,5.984370338e-13,9.058506424e-13,3.442025904e-13,1.489808172e-13,2.199953539e-13,9.838966614e-13,4.047038582e-13,1.435674391e-13,4.482043125e-13,2.267931702e-13,5.023932461e-13,2.042516772e-12,4.130776735e-13,5.680891352e-14
1.2812,3.775265610e-12,9.149670374e-13,2.219663945e-12,3.803912981e-13,6.406288250e-14,7.172164413e-13,1.125329102e-12,3.173832299e-14,6.942180145e-14,1.063451130e-12,3.885972916e-12,4.736322604e-14,2.269966733e-13,2.418722768e-13,8.438328081e-13,7.371770397e-13,7.996180513e-13,7.890236181e-13,5.787090830e-13,8.630537615e-13,3.452488603e-13,1.414697222e-13,2.236845783e-13,8.945284331e-13,4.244136350e-13,1.503802986e-13,4.816448721e-13,2.195760413e-13,4.964036486e-13,1.812560582e-12,4.159960659e-13,5.643879985e-14
1.2891,3.399234311e-12,8.388435766e-13,1.988359430e-12,3.588839956e-13,6.164752788e-14,6.521715543e-13,1.106663541e-12,3.096672472e-14,6.633792994e-14,1.007601635e-12,3.773940167e-12,4.856258927e-14,2.155241841e-13,2.319058268e-13,7.885149790e-13,7.015990314e-13,7.647735515e-13,7.614252638e-13,5.579433553e-13,8.201727120e-13,3.470374375e-13,1.350601263e-13,2.301387364e-13,8.147734121e-13,4.431361213e-13,1.580338876e-13,5.181375295e-13,2.157095928e-13,4.982618170e-13,1.604752434e-12,4.212362511e-13,5.659543195e-14
1.2969,3.059408041e-12,7.743590572e-13,1.781039275e-12,3.423610892e-13,5.993620730e-14,5.945861559e-13,1.098746744e-12,3.057023538e-14,6.377772002e-14,9.546778583e-13,3.673884510e-12,5.049970408e-14,2.057688917e-13,2.233455862e-13,7.365713904e-13,6.673478767e-13,7.327235260e-13,7.341984802e-13,5.375030870e-13,7.797799647e-13,3.495654989e-13,1.297195189e-13,2.376484835e-13,7.404165510e-13,4.605118335e-13,1.666150482e-13,5.556501829e-13,2.115918964e-13,5.067816298e-13,1.419687204e-12,4.292721105e-13,5.715916607e-14
1.3047,2.753958129e-12,7.215453040e-13,1.599183523e-12,3.300143709e-13,5.875264059e-14,5.414440081e-13,1.093995345e-12,3.027802959e-14,6.168323894e-14,9.035257757e-13,3.587354097e-12,5.329408706e-14,1.970193186e-13,2.153373685e-13,6.859920076e-13,6.339075121e-13,7.029407032e-13,7.078517855e-13,5.190668178e-13,7.410664100e-13,3.544938524e-13,1.260888693e-13,2.475679326e-13,6.756977158e-13,4.805561569e-13,1.760275287e-13,5.960903293e-13,2.083101483e-13,5.217858562e-13,1.260175895e-12,4.390261867e-13,5.802754775e-14
1.3125,2.482050572e-12,6.774769080e-13,1.441694715e-12,3.194310160e-13,5.795176072e-14,4.923969099e-13,1.097643666e-12,3.014718410e-14,5.968006460e-14,8.528492223e-13,3.510304934e-12,5.627953647e-14,1.882457951e-13,2.073571691e-13,6.373043585e-13,6.009408883e-13,6.748251173e-13,6.828995684e-13,5.031426285e-13,7.044155749e-13,3.613499128e-13,1.243263438e-13,2.591870934e-13,6.194428024e-13,5.047859989e-13,1.853909120e-13,6.377097212e-13,2.080872361e-13,5.426327709e-13,1.115649083e-12,4.501264274e-13,5.890034841e-14
1.3203,2.242923385e-12,6.410414913e-13,1.305297888e-12,3.107881604e-13,5.757016763e-14,4.491918677e-13,1.108418464e-12,3.014145022e-14,5.764535331e-14,8.076455694e-13,3.439597015e-12,5.947952876e-14,1.800278639e-13,1.997531793e-13,5.921088961e-13,5.692006138e-13,6.485004646e-13,6.609230380e-13,4.904854374e-13,6.712229396e-13,3.675489455e-13,1.237096549e-13,2.693907150e-13,5.669920060e-13,5.285091544e-13,1.945088337e-13,6.789076426e-13,2.092414446e-13,5.685163629e-13,9.861188051e-13,4.621393913e-13,5.946346703e-14
1.3281,2.035852048e-12,6.117981191e-13,1.191236003e-12,3.038145852e-13,5.737304002e-14,4.105523270e-13,1.121388016e-12,2.989299372e-14,5.569788073e-14,7.647085538e-13,3.371486422e-12,6.310702312e-14,1.722962531e-13,1.930540318e-13,5.514432692e-13,5.401750783e-13,6.256380273e-13,6.432316051e-13,4.816618875e-13,6.390057857e-13,3.732563385e-13,1.247262940e-13,2.788911799e-13,5.238452740e-13,5.513923396e-13,2.031133106e-13,7.188374372e-13,2.102985586e-13,5.984482930e-13,8.778790289e-13,4.743779896e-13,5.976773260e-14
1.3359,1.857760039e-12,5.869413161e-13,1.093691117e-12,2.975440316e-13,5.729673887e-14,3.759589662e-13,1.142274674e-12,2.948697509e-14,5.368072574e-14,7.242029862e-13,3.312962519e-12,6.672938041e-14,1.652056845e-13,1.868692852e-13,5.142667740e-13,5.125057143e-13,6.049229267e-13,6.292516836e-13,4.768828169e-13,6.082664614e-13,3.800783774e-13,1.271113395e-13,2.878083700e-13,4.877362445e-13,5.762817339e-13,2.111998779e-13,7.553769944e-13,2.134151525e-13,6.306897173e-13,7.839307643e-13,4.873242419e-13,5.973334736e-14
1.3438,1.702255429e-12,5.645055441e-13,1.006991301e-12,2.918952288e-13,5.724039111e-14,3.444230854e-13,1.174501461e-12,2.882571051e-14,5.176470872e-14,6.892462733e-13,3.264126885e-12,7.113138275e-14,1.589442812e-13,1.823383661e-13,4.808737753e-13,4.867837085e-13,5.859089880e-13,6.189899939e-13,4.757548349e-13,5.800015118e-13,3.873093650e-13,1.310596087e-13,2.974860481e-13,4.562942888e-13,6.039118551e-13,2.194198941e-13,7.928624273e-13,2.188213222e-13,6.658301986e-13,7.002627830e-13,4.997637047e-13,5.945756851e-14
1.3516,1.565273962e-12,5.460103048e-13,9.333889142e-13,2.880186119e-13,5.712983406e-14,3.155278930e-13,1.214527643e-12,2.786135648e-14,5.017328232e-14,6.579000541e-13,3.216385110e-12,7.624334163e-14,1.538431230e-13,1.803034569e-13,4.548790427e-13,4.656234070e-13,5.716399179e-13,6.138965800e-13,4.781258058e-13,5.529287055e-13,3.945339362e-13,1.366161803e-13,3.077873658e-13,4.323005539e-13,6.299179306e-13,2.275181068e-13,8.298916161e-13,2.249199594e-13,7.034545463e-13,6.277158317e-13,5.120584217e-13,5.917999793e-14
1.3594,1.450045151e-12,5.328468024e-13,8.721465693e-13,2.865955061e-13,5.701588865e-14,2.907099078e-13,1.254056549e-12,2.677827245e-14,4.882317500e-14,6.310102948e-13,3.169788904e-12,8.136851273e-14,1.504629540e-13,1.796286554e-13,4.333458823e-13,4.469699950e-13,5.610744397e-13,6.133814269e-13,4.843535347e-13,5.276693621e-13,4.021622480e-13,1.429005123e-13,3.174312246e-13,4.131892190e-13,6.526576457e-13,2.355362473e-13,8.626184357e-13,2.321549704e-13,7.428739902e-13,5.659989404e-13,5.250227342e-13,5.893822699e-14
1.3672,1.356252679e-12,5.244415956e-13,8.237385798e-13,2.871784148e-13,5.680967589e-14,2.695272040e-13,1.291128449e-12,2.566117082e-14,4.783873666e-14,6.070749958e-13,3.124212291e-12,8.709359617e-14,1.483530139e-13,1.810028863e-13,4.155546864e-13,4.313415357e-13,5.540507222e-13,6.167068353e-13,4.936573580e-13,5.051295943e-13,4.089982756e-13,1.499146080e-13,3.281063944e-13,3.995255700e-13,6.734157042e-13,2.434849173e-13,8.934233878e-13,2.410951928e-13,7.850796517e-13,5.184279859e-13,5.373472166e-13,5.884854973e-14
1.375,1.274258501e-12,5.207396400e-13,7.859920911e-13,2.908972671e-13,5.648223255e-14,2.516014392e-13,1.334647428e-12,2.456149309e-14,4.735156994e-14,5.852546229e-13,3.080590207e-12,9.352415194e-14,1.476683530e-13,1.847395774e-13,4.037740938e-13,4.199218992e-13,5.510798795e-13,6.235429694e-13,5.054320621e-13,4.847378312e-13,4.151669435e-13,1.575405965e-13,3.390317616e-13,3.905508400e-13,6.899216846e-13,2.507834908e-13,9.208405488e-13,2.510767712e-13,8.286209902e-13,4.813503412e-13,5.490028237e-13,5.892325335e-14
1.3828,1.202023770e-12,5.200748609e-13,7.533981124e-13,2.972336067e-13,5.597164222e-14,2.369497063e-13,1.383157402e-12,2.347256615e-14,4.735196829e-14,5.678068316e-13,3.040641413e-12,1.006341104e-13,1.484476629e-13,1.906070286e-13,3.973844318e-13,4.119039604e-13,5.508924798e-13,6.336085512e-13,5.197585079e-13,4.655730448e-13,4.210625524e-13,1.659384277e-13,3.502934952e-13,3.824562844e-13,7.044983990e-13,2.576043107e-13,9.457548727e-13,2.610517384e-13,8.722924021e-13,4.486327727e-13,5.591167269e-13,5.918958789e-14
1.3906,1.141844374e-12,5.220356040e-13,7.285042614e-13,3.053849379e-13,5.535320778e-14,2.240453782e-13,1.430970676e-12,2.254038162e-14,4.770782676e-14,5.517436991e-13,2.998690879e-12,1.077360506e-13,1.501662807e-13,1.982934536e-13,3.966930923e-13,4.086452510e-13,5.552558199e-13,6.475702973e-13,5.362614235e-13,4.474078142e-13,4.243932262e-13,1.745184139e-13,3.608343834e-13,3.763233517e-13,7.155199149e-13,2.633332205e-13,9.666876813e-13,2.703418366e-13,9.145074692e-13,4.233568643e-13,5.675224209e-13,5.958023189e-14
1.3984,1.090069110e-12,5.267504501e-13,7.112588088e-13,3.157598771e-13,5.470986781e-14,2.119317871e-13,1.475630156e-12,2.178932288e-14,4.821805058e-14,5.372190296e-13,2.949355050e-12,1.141116225e-13,1.526768921e-13,2.064569868e-13,4.005554466e-13,4.096899969e-13,5.643196094e-13,6.645305063e-13,5.544706924e-13,4.309131062e-13,4.259329183e-13,1.825124996e-13,3.680901442e-13,3.725076781e-13,7.184454709e-13,2.674606762e-13,9.805424452e-13,2.780802038e-13,9.540875419e-13,4.046285810e-13,5.746930041e-13,5.986363159e-14
1.4062,1.044000829e-12,5.292834086e-13,6.953072439e-13,3.257306489e-13,5.384843745e-14,2.004140853e-13,1.510534105e-12,2.122324308e-14,4.880852081e-14,5.267384906e-13,2.893805902e-12,1.203791111e-13,1.551518813e-13,2.151569467e-13,4.082365502e-13,4.140303307e-13,5.761429089e-13,6.831176988e-13,5.733964652e-13,4.159918952e-13,4.276207968e-13,1.905079629e-13,3.743960925e-13,3.718125232e-13,7.196009977e-13,2.702171196e-13,9.914662657e-13,2.851179143e-13,9.921700269e-13,3.889721922e-13,5.785288127e-13,6.008644380e-14
1.4141,9.995470059e-13,5.281355405e-13,6.787235953e-13,3.350297349e-13,5.283931698e-14,1.895547612e-13,1.537787051e-12,2.077989939e-14,4.933989223e-14,5.158122041e-13,2.832696729e-12,1.261371237e-13,1.574536463e-13,2.243087296e-13,4.192765006e-13,4.222844785e-13,5.911232980e-13,7.033524945e-13,5.921479686e-13,4.022663893e-13,4.279244108e-13,1.981796107e-13,3.784824237e-13,3.741147210e-13,7.203289077e-13,2.707840412e-13,9.958355494e-13,2.927962229e-13,1.024323000e-12,3.749554589e-13,5.790061169e-13,6.022667981e-14
1.4219,9.552068258e-13,5.248660085e-13,6.618709683e-13,3.448587626e-13,5.185377891e-14,1.800248133e-13,1.564598149e-12,2.024963534e-14,4.971740971e-14,5.039687428e-13,2.764290649e-12,1.312136696e-13,1.598828507e-13,2.337560980e-13,4.338173549e-13,4.346859809e-13,6.098064713e-13,7.252775613e-13,6.104900583e-13,3.904636753e-13,4.270302257e-13,2.054288818e-13,3.788494910e-13,3.763956091e-13,7.167578008e-13,2.693211843e-13,9.920911483e-13,3.010559816e-13,1.047819074e-12,3.607781234e-13,5.770263876e-13,6.027301772e-14
1.4297,9.167191259e-13,5.190263768e-13,6.463435166e-13,3.537861285e-13,5.092403634e-14,1.718668442e-13,1.590394861e-12,1.974934960e-14,4.988198359e-14,4.923457391e-13,2.691547257e-12,1.357683458e-13,1.618470446e-13,2.431428934e-13,4.512659823e-13,4.497388683e-13,6.302420608e-13,7.471789964e-13,6.271431397e-13,3.805749716e-13,4.249807193e-13,2.117386594e-13,3.771542309e-13,3.797864893e-13,7.109778336e-13,2.663315316e-13,9.840877082e-13,3.112400405e-13,1.066300509e-12,3.506524644e-13,5.728549544e-13,6.023618322e-14
1.4375,8.845465228e-13,5.119773692e-13,6.330048370e-13,3.625643905e-13,5.006914614e-14,1.650152039e-13,1.611509599e-12,1.923425402e-14,4.972328712e-14,4.786851234e-13,2.616767708e-12,1.392361600e-13,1.631670404e-13,2.514009847e-13,4.688613478e-13,4.658541317e-13,6.497778199e-13,7.663079976e-13,6.404052914e-13,3.721903336e-13,4.203291952e-13,2.163292404e-13,3.723603145e-13,3.844256779e-13,7.040721744e-13,2.617708040e-13,9.698465527e-13,3.229787804e-13,1.079994796e-12,3.443471517e-13,5.675287113e-13,6.008829119e-14
1.4453,8.543679966e-13,5.032684108e-13,6.197598241e-13,3.712397044e-13,4.922392913e-14,1.601037513e-13,1.632471222e-12,1.869579094e-14,4.932942962e-14,4.656912025e-13,2.540698135e-12,1.423299280e-13,1.637832584e-13,2.594349154e-13,4.883513849e-13,4.844856594e-13,6.692790412e-13,7.823065108e-13,6.498902824e-13,3.653988905e-13,4.139448690e-13,2.202563327e-13,3.660538850e-13,3.906205977e-13,6.956189763e-13,2.563738798e-13,9.536400909e-13,3.350034705e-13,1.090056237e-12,3.356435569e-13,5.603352893e-13,6.005678209e-14
1.4531,8.262603479e-13,4.937083214e-13,6.094633312e-13,3.791530936e-13,4.846584533e-14,1.564459121e-13,1.652078262e-12,1.825646176e-14,4.876721541e-14,4.533198559e-13,2.464609220e-12,1.450983535e-13,1.637270977e-13,2.671527490e-13,5.099094524e-13,5.064706224e-13,6.906867785e-13,7.958290706e-13,6.559636434e-13,3.596209780e-13,4.055620187e-13,2.226261541e-13,3.569341630e-13,4.007310633e-13,6.817760052e-13,2.493500375e-13,9.340441526e-13,3.475950159e-13,1.095958572e-12,3.280611478e-13,5.513281610e-13,5.991562781e-14
1.4609,7.995540699e-13,4.848878674e-13,6.009013665e-13,3.874021773e-13,4.779249757e-14,1.530925174e-13,1.659465217e-12,1.794163737e-14,4.808621834e-14,4.403406431e-13,2.386587119e-12,1.471042570e-13,1.631752143e-13,2.736366972e-13,5.309928996e-13,5.304996174e-13,7.132089256e-13,8.066146560e-13,6.589929232e-13,3.544448949e-13,3.943919268e-13,2.228170302e-13,3.432006157e-13,4.115381279e-13,6.610154550e-13,2.403085601e-13,9.061621528e-13,3.596137160e-13,1.093662974e-12,3.217071700e-13,5.413420067e-13,5.954747679e-14
1.4688,7.736826367e-13,4.750259623e-13,5.899998423e-13,3.960115055e-13,4.716184056e-14,1.508204461e-13,1.668924676e-12,1.782864531e-14,4.736932625e-14,4.272583446e-13,2.310803925e-12,1.489523948e-13,1.620253354e-13,2.795692596e-13,5.533684346e-13,5.566491898e-13,7.360522270e-13,8.142766631e-13,6.591167960e-13,3.493484342e-13,3.813977483e-13,2.220319752e-13,3.285948503e-13,4.212718039e-13,6.378911009e-13,2.307357301e-13,8.766349483e-13,3.708764809e-13,1.086142380e-12,3.117384940e-13,5.304777402e-13,5.931071656e-14
1.4766,7.519100131e-13,4.661182003e-13,5.818449684e-13,4.062440733e-13,4.677037397e-14,1.500907270e-13,1.691998482e-12,1.757307656e-14,4.660764825e-14,4.124977393e-13,2.240272952e-12,1.505063261e-13,1.604120636e-13,2.847294796e-13,5.773727629e-13,5.853870510e-13,7.596296886e-13,8.184143073e-13,6.566281575e-13,3.442468810e-13,3.675039427e-13,2.198226868e-13,3.124533928e-13,4.307197727e-13,6.116059472e-13,2.205427886e-13,8.449706764e-13,3.812025034e-13,1.075214931e-12,3.030737573e-13,5.198231486e-13,5.904918619e-14
1.4844,7.360415558e-13,4.585872942e-13,5.765750975e-13,4.174607557e-13,4.656424434e-14,1.507064787e-13,1.712914816e-12,1.721318033e-14,4.592328646e-14,3.986231218e-13,2.171815308e-12,1.519085783e-13,1.582794615e-13,2.890322142e-13,6.004249385e-13,6.148742104e-13,7.822990963e-13,8.188398077e-13,6.516780797e-13,3.397976829e-13,3.533840491e-13,2.165929977e-13,2.950655938e-13,4.388845849e-13,5.821546197e-13,2.096688400e-13,8.096952326e-13,3.886944692e-13,1.058538891e-12,2.966096044e-13,5.093912115e-13,5.876591611e-14
1.4922,7.263278813e-13,4.507140190e-13,5.726010013e-13,4.272195794e-13,4.642291644e-14,1.524527076e-13,1.732873933e-12,1.708377347e-14,4.534779172e-14,3.850785858e-13,2.106971138e-12,1.533398517e-13,1.557407900e-13,2.928773566e-13,6.228289834e-13,6.446998850e-13,8.018238553e-13,8.144973727e-13,6.429719048e-13,3.349258606e-13,3.379390142e-13,2.122572787e-13,2.777003984e-13,4.468690153e-13,5.518884853e-13,1.984865341e-13,7.733312910e-13,3.932874886e-13,1.036765562e-12,2.918654389e-13,4.990913308e-13,5.854473069e-14
1.5,7.184081127e-13,4.444323024e-13,5.709645575e-13,4.370840195e-13,4.645062896e-14,1.547127673e-13,1.759399952e-12,1.693529546e-14,4.478594725e-14,3.699563172e-13,2.044034438e-12,1.544528972e-13,1.527601113e-13,2.962153867e-13,6.478339023e-13,6.766956666e-13,8.192806619e-13,8.046091332e-13,6.291356892e-13,3.296275313e-13,3.211640707e-13,2.060686920e-13,2.586963282e-13,4.532081776e-13,5.194608578e-13,1.867908519e-13,7.346734018e-13,3.947516074e-13,1.010915151e-12,2.907324254e-13,4.893663932e-13,5.822067959e-14
1.5078,7.092863132e-13,4.385199277e-13,5.688506940e-13,4.470193673e-13,4.668024231e-14,1.570506547e-13,1.788767589e-12,1.676520639e-14,4.425189710e-14,3.560440213e-13,1.984965600e-12,1.555731692e-13,1.488008424e-13,2.989380558e-13,6.733789316e-13,7.078077021e-13,8.328128467e-13,7.885996905e-13,6.100378252e-13,3.244774928e-13,3.048803801e-13,1.987066895e-13,2.399156528e-13,4.567096020e-13,4.850363574e-13,1.752798744e-13,6.966046961e-13,3.918725987e-13,9.821450127e-13,2.893657037e-13,4.799824990e-13,5.797444913e-14
1.5156,7.030656607e-13,4.318166154e-13,5.689069016e-13,4.557543174e-13,4.715326279e-14,1.594709805e-13,1.824732426e-12,1.664681923e-14,4.377319601e-14,3.428864576e-13,1.935788235e-12,1.566594673e-13,1.442596340e-13,3.008842615e-13,6.963903893e-13,7.372320074e-13,8.409912145e-13,7.663365129e-13,5.860391675e-13,3.179453573e-13,2.883392239e-13,1.899519533e-13,2.214174263e-13,4.584216360e-13,4.497656495e-13,1.639345740e-13,6.576188066e-13,3.858645001e-13,9.497126922e-13,2.902653077e-13,4.717256310e-13,5.775364657e-14
1.5234,6.982969197e-13,4.250281794e-13,5.707759567e-13,4.636383409e-13,4.784352271e-14,1.624898277e-13,1.869217701e-12,1.657061187e-14,4.342272955e-14,3.305914784e-13,1.889801732e-12,1.577305587e-13,1.395023546e-13,3.027545319e-13,7.214801873e-13,7.693419841e-13,8.489893573e-13,7.402146146e-13,5.580766635e-13,3.105739828e-13,2.717453638e-13,1.803486996e-13,2.028102034e-13,4.568418815e-13,4.161271570e-13,1.526883402e-13,6.179107527e-13,3.790709667e-13,9.145753551e-13,2.931361427e-13,4.650017974e-13,5.751900364e-14
1.5312,6.926370406e-13,4.175319776e-13,5.705901782e-13,4.699169994e-13,4.872598087e-14,1.662816693e-13,1.917248221e-12,1.664490074e-14,4.310172483e-14,3.210455282e-13,1.843783045e-12,1.589909637e-13,1.342003149e-13,3.040581882e-13,7.473003489e-13,8.003599653e-13,8.552171367e-13,7.100720783e-13,5.267604326e-13,3.024992646e-13,2.567009242e-13,1.701896570e-13,1.854990416e-13,4.549802413e-13,3.855566267e-13,1.423395083e-13,5.834401685e-13,3.720359149e-13,8.808586300e-13,2.931192418e-13,4.597530409e-13,5.737547322e-14
1.5391,6.876364942e-13,4.107129486e-13,5.710850302e-13,4.759663466e-13,4.987922436e-14,1.703368968e-13,1.963842758e-12,1.676942353e-14,4.272757085e-14,3.149837692e-13,1.803121207e-12,1.602371391e-13,1.283334299e-13,3.040279596e-13,7.686868510e-13,8.271430754e-13,8.565274789e-13,6.755232765e-13,4.929231334e-13,2.933059465e-13,2.428565171e-13,1.591037887e-13,1.682565802e-13,4.548656083e-13,3.558169948e-13,1.325876839e-13,5.511899195e-13,3.639572609e-13,8.471973449e-13,2.939375513e-13,4.563480800e-13,5.712840871e-14
1.5469,6.830681150e-13,4.044732331e-13,5.723249221e-13,4.825061175e-13,5.114070764e-14,1.747059158e-13,2.012205869e-12,1.698524134e-14,4.251718272e-14,3.106478891e-13,1.767995072e-12,1.617359582e-13,1.224310288e-13,3.044088644e-13,7.906989744e-13,8.546838237e-13,8.575261854e-13,6.407433641e-13,4.593940989e-13,2.856352318e-13,2.305605923e-13,1.485336320e-13,1.515658466e-13,4.526682346e-13,3.277230086e-13,1.234291900e-13,5.203010553e-13,3.551167850e-13,8.128475854e-13,2.960175862e-13,4.544620591e-13,5.693491469e-14
1.5547,6.805816940e-13,3.983701834e-13,5.741527124e-13,4.883513540e-13,5.240267962e-14,1.794142718e-13,2.073176649e-12,1.723642998e-14,4.242902137e-14,3.063387743e-13,1.737521470e-12,1.633550286e-13,1.170665494e-13,3.058886012e-13,8.164030470e-13,8.832486492e-13,8.594711339e-13,6.073119706e-13,4.276145719e-13,2.799411158e-13,2.200334533e-13,1.387080337e-13,1.365494897e-13,4.484148437e-13,3.035285663e-13,1.152238806e-13,4.923586271e-13,3.469801005e-13,7.799409276e-13,2.975678850e-13,4.539251621e-13,5.693185512e-14
1.5625,6.799439761e-13,3.930373032e-13,5.770274428e-13,4.937153112e-13,5.372083279e-14,1.840121765e-13,2.142860326e-12,1.734924519e-14,4.232579035e-14,3.044446577e-13,1.713890740e-12,1.649527707e-13,1.118829501e-13,3.078944689e-13,8.420584491e-13,9.098809530e-13,8.608256761e-13,5.741641768e-13,3.966545993e-13,2.758400080e-13,2.106742771e-13,1.291456517e-13,1.223688537e-13,4.431036787e-13,2.810090295e-13,1.076836322e-13,4.654566425e-13,3.396538238e-13,7.480009068e-13,2.997929225e-13,4.539762635e-13,5.685825294e-14
1.5703,6.794768489e-13,3.865471331e-13,5.790482919e-13,4.972686743e-13,5.500982642e-14,1.886447185e-13,2.210725162e-12,1.750041055e-14,4.237556386e-14,3.052426945e-13,1.699975116e-12,1.672734290e-13,1.068637311e-13,3.112899624e-13,8.682981948e-13,9.349101898e-13,8.606218384e-13,5.419315573e-13,3.671555189e-13,2.734134767e-13,2.031698765e-13,1.202614923e-13,1.092137688e-13,4.374716212e-13,2.588959246e-13,1.010123772e-13,4.415812911e-13,3.320597445e-13,7.168161389e-13,3.025907582e-13,4.541817698e-13,5.665785615e-14
1.5781,6.816972406e-13,3.801491993e-13,5.842017229e-13,4.994881035e-13,5.626057065e-14,1.938642856e-13,2.282326723e-12,1.771092489e-14,4.267249866e-14,3.085406957e-13,1.695417977e-12,1.704694661e-13,1.025188330e-13,3.167204042e-13,8.971986229e-13,9.586707326e-13,8.592142219e-13,5.112611541e-13,3.398408026e-13,2.713183466e-13,1.974603463e-13,1.121579799e-13,9.776236948e-14,4.326941399e-13,2.391297322e-13,9.538593063e-14,4.199409651e-13,3.238189643e-13,6.849748264e-13,3.075436972e-13,4.555670717e-13,5.646951581e-14
1.5859,6.869224175e-13,3.752225075e-13,5.929331344e-13,5.016047939e-13,5.745289588e-14,1.998909924e-13,2.359574900e-12,1.791732549e-14,4.320665255e-14,3.150354765e-13,1.697158712e-12,1.742408266e-13,9.864762460e-14,3.235252512e-13,9.262078140e-13,9.802567176e-13,8.578200649e-13,4.818454301e-13,3.137708500e-13,2.703015493e-13,1.930264532e-13,1.046902686e-13,8.781731223e-14,4.267856845e-13,2.206726330e-13,9.073510320e-14,3.994450012e-13,3.145361019e-13,6.522409236e-13,3.153963975e-13,4.572742063e-13,5.634989756e-14
1.5938,6.925784731e-13,3.690824850e-13,6.003599739e-13,5.011773120e-13,5.851110533e-14,2.061632534e-13,2.435716276e-12,1.824124699e-14,4.402059693e-14,3.240031504e-13,1.703162766e-12,1.784965037e-13,9.548285987e-14,3.314793739e-13,9.549629684e-13,1.000534793e-12,8.573507911e-13,4.543191630e-13,2.891670473e-13,2.710800901e-13,1.903514758e-13,9.764390925e-14,7.932328435e-14,4.198673760e-13,2.033058449e-13,8.699581994e-14,3.815929527e-13,3.038108328e-13,6.201889076e-13,3.241181099e-13,4.580660775e-13,5.614501564e-14
1.6016,6.981227256e-13,3.617879530e-13,6.088824562e-13,4.976365311e-13,5.944908597e-14,2.119991299e-13,2.512788836e-12,1.858183208e-14,4.511520394e-14,3.354489060e-13,1.713110294e-12,1.829277631e-13,9.332545783e-14,3.410729507e-13,9.844873955e-13,1.019955135e-12,8.597335404e-13,4.304075402e-13,2.668999483e-13,2.741802666e-13,1.891356169e-13,9.123184044e-14,7.228236189e-14,4.123855794e-13,1.884623965e-13,8.397728980e-14,3.651847902e-13,2.924691668e-13,5.878731914e-13,3.331850417e-13,4.581724801e-13,5.580145972e-14
1.6094,7.030801833e-13,3.532592231e-13,6.174293971e-13,4.908431462e-13,6.027591184e-14,2.176216084e-13,2.589687276e-12,1.894176550e-14,4.649515759e-14,3.486702991e-13,1.730283367e-12,1.876653102e-13,9.208499756e-14,3.524032294e-13,1.013281159e-12,1.037566188e-12,8.634146495e-13,4.101755019e-13,2.471367042e-13,2.813708038e-13,1.896646912e-13,8.557399572e-14,6.643217286e-14,4.033869451e-13,1.755754532e-13,8.178940410e-14,3.511466649e-13,2.810155080e-13,5.558017795e-13,3.428115459e-13,4.572896961e-13,5.543585566e-14
1.6172,7.082937441e-13,3.424552538e-13,6.237764715e-13,4.797455402e-13,6.097588081e-14,2.231197913e-13,2.663199302e-12,1.947597525e-14,4.821037850e-14,3.645810390e-13,1.757525654e-12,1.932584255e-13,9.204038811e-14,3.660907144e-13,1.043979769e-12,1.056425640e-12,8.698627777e-13,3.943488895e-13,2.305866475e-13,2.933647859e-13,1.927191455e-13,8.085266815e-14,6.217799729e-14,3.957292518e-13,1.654594737e-13,8.034812927e-14,3.384289824e-13,2.694928574e-13,5.241503885e-13,3.524620855e-13,4.554542622e-13,5.510340620e-14
1.625,7.125033462e-13,3.304535552e-13,6.305992157e-13,4.655306301e-13,6.142421288e-14,2.284448026e-13,2.733162429e-12,2.007310249e-14,5.015586794e-14,3.838465250e-13,1.790921590e-12,1.994099131e-13,9.304074059e-14,3.821195285e-13,1.077546845e-12,1.077585467e-12,8.822886427e-13,3.835779765e-13,2.171320754e-13,3.101698821e-13,1.971141277e-13,7.691647281e-14,5.919945339e-14,3.902198680e-13,1.583331617e-13,7.958900903e-14,3.257916813e-13,2.592193258e-13,4.922958977e-13,3.607414748e-13,4.525368695e-13,5.492734705e-14
1.6328,7.121832218e-13,3.180412929e-13,6.340533199e-13,4.498254454e-13,6.167922105e-14,2.341456383e-13,2.792810701e-12,2.075979954e-14,5.215695924e-14,4.051695891e-13,1.826756102e-12,2.055656121e-13,9.462430079e-14,3.992947831e-13,1.110915967e-12,1.099030754e-12,8.992712469e-13,3.765501536e-13,2.058588533e-13,3.319855455e-13,2.027748488e-13,7.325959709e-14,5.697154816e-14,3.850802950e-13,1.540419888e-13,7.965183655e-14,3.165345468e-13,2.502228325e-13,4.621523837e-13,3.652446235e-13,4.488949753e-13,5.483867245e-14
1.6406,7.133252784e-13,3.063098430e-13,6.355813894e-13,4.338634837e-13,6.182165371e-14,2.408834165e-13,2.844984019e-12,2.157069141e-14,5.426313989e-14,4.281045146e-13,1.868258463e-12,2.118646954e-13,9.692920017e-14,4.181837186e-13,1.145678471e-12,1.123124725e-12,9.239455498e-13,3.752148649e-13,1.979422364e-13,3.605814146e-13,2.109959123e-13,7.065155839e-14,5.607035650e-14,3.820181168e-13,1.531001072e-13,8.021804275e-14,3.089468172e-13,2.405092679e-13,4.333197065e-13,3.691808949e-13,4.453998799e-13,5.473670589e-14
1.6484,7.201449956e-13,2.948038387e-13,6.393230844e-13,4.166972246e-13,6.164052072e-14,2.489633999e-13,2.894529201e-12,2.245677382e-14,5.649698696e-14,4.530923258e-13,1.917760019e-12,2.187573107e-13,1.001232748e-13,4.394821671e-13,1.182094321e-12,1.149477135e-12,9.555923409e-13,3.802403003e-13,1.938743964e-13,3.957081785e-13,2.213784617e-13,6.917169630e-14,5.616125353e-14,3.827096111e-13,1.556291254e-13,8.125384785e-14,3.015722249e-13,2.305703884e-13,4.055444616e-13,3.751694931e-13,4.410954752e-13,5.478211276e-14
1.6562,7.284547521e-13,2.829578437e-13,6.419953802e-13,3.979352617e-13,6.122282615e-14,2.571345865e-13,2.935535080e-12,2.349980538e-14,5.870269130e-14,4.805073436e-13,1.975199332e-12,2.263330051e-13,1.038345130e-13,4.627903066e-13,1.219097328e-12,1.176692431e-12,9.902709682e-13,3.889336198e-13,1.920389079e-13,4.355893431e-13,2.336271372e-13,6.815928808e-14,5.687572317e-14,3.863759581e-13,1.618983961e-13,8.291466789e-14,2.961995579e-13,2.219425781e-13,3.798454046e-13,3.789727578e-13,4.362495495e-13,5.488111292e-14
1.6641,7.397594233e-13,2.721778751e-13,6.462733285e-13,3.794006300e-13,6.060055472e-14,2.648640816e-13,2.975220197e-12,2.450548095e-14,6.076462799e-14,5.068064866e-13,2.045507347e-12,2.339831564e-13,1.079073457e-13,4.885232382e-13,1.259748901e-12,1.208389760e-12,1.031882689e-12,4.021456948e-13,1.923752307e-13,4.822168572e-13,2.482820876e-13,6.768577292e-14,5.845022881e-14,3.915012472e-13,1.704925994e-13,8.490370175e-14,2.918494275e-13,2.129983630e-13,3.543223762e-13,3.832641795e-13,4.308487691e-13,5.485347581e-14
1.6719,7.544749889e-13,2.618929964e-13,6.528564517e-13,3.607706371e-13,5.963661015e-14,2.731124011e-13,3.015040370e-12,2.552694178e-14,6.267851227e-14,5.312607649e-13,2.129264496e-12,2.418246420e-13,1.123157632e-13,5.165415018e-13,1.303903075e-12,1.244229572e-12,1.080533027e-12,4.202328208e-13,1.949639092e-13,5.356453558e-13,2.658414838e-13,6.757868307e-14,6.085888333e-14,3.990943163e-13,1.812047570e-13,8.705143362e-14,2.882789918e-13,2.025053179e-13,3.291884089e-13,3.894480264e-13,4.235417860e-13,5.473110409e-14
1.6797,7.694638965e-13,2.520252525e-13,6.584455040e-13,3.419439192e-13,5.857684519e-14,2.812010178e-13,3.041791935e-12,2.683842381e-14,6.458789894e-14,5.575258488e-13,2.218098296e-12,2.504894822e-13,1.168512436e-13,5.461029390e-13,1.347380714e-12,1.281274959e-12,1.134817602e-12,4.421374063e-13,1.992954396e-13,5.956344346e-13,2.863938313e-13,6.800672094e-14,6.441332855e-14,4.123262485e-13,1.949288283e-13,8.924948476e-14,2.847658667e-13,1.917447472e-13,3.057596848e-13,3.928817210e-13,4.154879241e-13,5.445929433e-14
1.6875,7.848868823e-13,2.430445291e-13,6.631791665e-13,3.228019276e-13,5.743636076e-14,2.891792533e-13,3.060926388e-12,2.827774690e-14,6.656471042e-14,5.836451011e-13,2.311166712e-12,2.594959679e-13,1.218873108e-13,5.770773850e-13,1.388423918e-12,1.320249965e-12,1.195750020e-12,4.681730891e-13,2.055918607e-13,6.655472645e-13,3.094394647e-13,6.871792710e-14,6.901123303e-14,4.320460471e-13,2.124527154e-13,9.130779222e-14,2.822227030e-13,1.803263749e-13,2.831314926e-13,3.955926306e-13,4.066860591e-13,5.391017330e-14
1.6953,8.025581294e-13,2.340196828e-13,6.665415981e-13,3.027812922e-13,5.612183611e-14,2.970781995e-13,3.081713236e-12,2.979944931e-14,6.853135568e-14,6.073781004e-13,2.413592750e-12,2.686586529e-13,1.274657686e-13,6.090599882e-13,1.427979825e-12,1.361546732e-12,1.260090938e-12,4.963919991e-13,2.127301034e-13,7.437179488e-13,3.354539796e-13,6.905434820e-14,7.442460773e-14,4.577690595e-13,2.346156609e-13,9.309938844e-14,2.822686184e-13,1.681264345e-13,2.620296185e-13,3.991323854e-13,3.965212470e-13,5.305646204e-14
1.7031,8.245514375e-13,2.251485005e-13,6.719704879e-13,2.832420979e-13,5.480096706e-14,3.038802231e-13,3.099573316e-12,3.148888240e-14,7.059657085e-14,6.294899798e-13,2.526142037e-12,2.784067206e-13,1.334043561e-13,6.425167284e-13,1.468335669e-12,1.405648589e-12,1.327808669e-12,5.257058808e-13,2.197603896e-13,8.262513903e-13,3.652029116e-13,6.938276068e-14,8.111814869e-14,4.886524874e-13,2.615181689e-13,9.461871820e-14,2.829332608e-13,1.584465984e-13,2.429052660e-13,4.045841075e-13,3.857626807e-13,5.206085455e-14
1.7109,8.472916034e-13,2.158950104e-13,6.780072949e-13,2.636607660e-13,5.349044597e-14,3.107729053e-13,3.112493439e-12,3.336706999e-14,7.295902775e-14,6.493110303e-13,2.653028405e-12,2.889473030e-13,1.402863243e-13,6.792170306e-13,1.512359852e-12,1.455135721e-12,1.401506822e-12,5.576186771e-13,2.273568554e-13,9.134246795e-13,3.983084703e-13,6.970569271e-14,8.877561169e-14,5.248375155e-13,2.930786212e-13,9.596810810e-14,2.845245562e-13,1.512696999e-13,2.248637291e-13,4.115449437e-13,3.739113050e-13,5.098727501e-14
1.7188,8.687915590e-13,2.061679427e-13,6.795476835e-13,2.438357991e-13,5.215114607e-14,3.173237947e-13,3.122724308e-12,3.543259903e-14,7.555655530e-14,6.667266239e-13,2.798099816e-12,3.002821330e-13,1.479782950e-13,7.186833730e-13,1.558773365e-12,1.509496058e-12,1.480760449e-12,5.918840872e-13,2.357465436e-13,1.006394516e-12,4.342223265e-13,6.992822322e-14,9.687244748e-14,5.688273554e-13,3.282464751e-13,9.691237247e-14,2.866377242e-13,1.446391263e-13,2.084457176e-13,4.167864063e-13,3.614022109e-13,4.973348377e-14
1.7266,8.927799554e-13,1.970903188e-13,6.809866492e-13,2.257354204e-13,5.069195019e-14,3.222181077e-13,3.132066478e-12,3.756261561e-14,7.815759477e-14,6.816124671e-13,2.957613508e-12,3.116406296e-13,1.560265792e-13,7.582585885e-13,1.602684735e-12,1.564558144e-12,1.563321055e-12,6.268352253e-13,2.447986110e-13,1.105346495e-12,4.727995680e-13,7.017393371e-14,1.058959506e-13,6.217752377e-13,3.688928284e-13,9.721397533e-14,2.885954152e-13,1.413490451e-13,1.939172601e-13,4.224563646e-13,3.483657468e-13,4.845122927e-14
1.7344,9.175549335e-13,1.881179946e-13,6.822524986e-13,2.093051586e-13,4.907344647e-14,3.262764657e-13,3.142148369e-12,3.984478495e-14,8.069802723e-14,6.935956931e-13,3.129220920e-12,3.230747374e-13,1.643041880e-13,7.974734179e-13,1.643667363e-12,1.619483951e-12,1.646215259e-12,6.610917811e-13,2.538223832e-13,1.207915419e-12,5.136022761e-13,7.007017094e-14,1.156553469e-13,6.808909510e-13,4.150461226e-13,9.710607225e-14,2.921250145e-13,1.415000689e-13,1.808326005e-13,4.277907935e-13,3.345732328e-13,4.729127456e-14
1.7422,9.421892820e-13,1.793277957e-13,6.798051067e-13,1.944808250e-13,4.743714653e-14,3.289302819e-13,3.153920357e-12,4.240477590e-14,8.319403688e-14,7.036754841e-13,3.314002611e-12,3.354816868e-13,1.723112543e-13,8.374505625e-13,1.684174760e-12,1.676716315e-12,1.731049510e-12,6.949698180e-13,2.620354287e-13,1.312525971e-12,5.554298730e-13,6.973830705e-14,1.254702200e-13,7.436257268e-13,4.631779809e-13,9.693801300e-14,2.954219564e-13,1.433034772e-13,1.692531668e-13,4.345257906e-13,3.213960583e-13,4.621463365e-14
1.75,9.672402600e-13,1.709432577e-13,6.758510751e-13,1.817672732e-13,4.582287371e-14,3.294952053e-13,3.173024632e-12,4.515903548e-14,8.547526478e-14,7.115504327e-13,3.515105163e-12,3.484143268e-13,1.800219326e-13,8.778831882e-13,1.724832650e-12,1.736242118e-12,1.818899229e-12,7.293972798e-13,2.699458572e-13,1.419677454e-12,5.978817816e-13,6.915876453e-14,1.353315443e-13,8.124138331e-13,5.134327749e-13,9.687589925e-14,2.986845314e-13,1.480194265e-13,1.589367516e-13,4.463726437e-13,3.084368218e-13,4.522915306e-14
1.7578,9.893938939e-13,1.627590265e-13,6.696768368e-13,1.707123950e-13,4.423393851e-14,3.282193764e-13,3.199103878e-12,4.808876768e-14,8.743364640e-14,7.156307536e-13,3.732611501e-12,3.613993815e-13,1.871998319e-13,9.173835079e-13,1.764568856e-12,1.795505997e-12,1.905371876e-12,7.635065764e-13,2.778140433e-13,1.527412035e-12,6.429066650e-13,6.830923986e-14,1.457732415e-13,8.869289190e-13,5.654024790e-13,9.665911969e-14,3.026852465e-13,1.542016531e-13,1.497595883e-13,4.579739458e-13,2.953044224e-13,4.430754562e-14
1.7656,1.011232438e-12,1.558197659e-13,6.616398686e-13,1.617055440e-13,4.271932343e-14,3.251982735e-13,3.223129624e-12,5.122320568e-14,8.912094605e-14,7.169383856e-13,3.957365228e-12,3.741252133e-13,1.932718902e-13,9.541082454e-13,1.800723356e-12,1.852281751e-12,1.987672985e-12,7.961897136e-13,2.853007414e-13,1.633634245e-12,6.919257989e-13,6.762766688e-14,1.576133265e-13,9.659610667e-13,6.187421695e-13,9.599586682e-14,3.051582088e-13,1.611091165e-13,1.419221125e-13,4.695479485e-13,2.825699652e-13,4.342017863e-14
1.7734,1.035647456e-12,1.500513631e-13,6.529468659e-13,1.549106205e-13,4.134296607e-14,3.213992228e-13,3.255326471e-12,5.464918029e-14,9.053451143e-14,7.181031267e-13,4.184556895e-12,3.859456388e-13,1.981859335e-13,9.869891745e-13,1.832670277e-12,1.905381037e-12,2.063523194e-12,8.263408656e-13,2.920653135e-13,1.735599177e-12,7.427976058e-13,6.680123833e-14,1.701513390e-13,1.050859516e-12,6.715916877e-13,9.493386990e-14,3.070522291e-13,1.697892912e-13,1.349545869e-13,4.819361848e-13,2.699870123e-13,4.250237917e-14
1.7812,1.058324999e-12,1.451473834e-13,6.418893769e-13,1.497580246e-13,4.017877866e-14,3.170186513e-13,3.302938822e-12,5.842712539e-14,9.168237661e-14,7.192057762e-13,4.414947525e-12,3.971339862e-13,2.016755525e-13,1.015690399e-12,1.859609710e-12,1.952607476e-12,2.130187536e-12,8.527153474e-13,2.975231474e-13,1.830587175e-12,7.944693678e-13,6.580891494e-14,1.827856283e-13,1.137201406e-12,7.226169513e-13,9.347280098e-14,3.085004427e-13,1.787553609e-13,1.288917761e-13,4.922734199e-13,2.583529083e-13,4.146385073e-14
1.7891,1.079251977e-12,1.415271860e-13,6.307843098e-13,1.464433351e-13,3.925374897e-14,3.114361061e-13,3.347506231e-12,6.239799905e-14,9.262729527e-14,7.185617089e-13,4.642848619e-12,4.074170367e-13,2.042253931e-13,1.039197340e-12,1.879020530e-12,1.991798339e-12,2.185455645e-12,8.752403604e-13,3.020308277e-13,1.917129808e-12,8.468992056e-13,6.498096062e-14,1.962113009e-13,1.225390998e-12,7.743474056e-13,9.166614739e-14,3.094920364e-13,1.872873443e-13,1.243616830e-13,5.052952583e-13,2.480397471e-13,4.030699879e-14
