Time,Fp1,AF3,F7,F3,FC1,FC5,T7,C3,CP1,CP5,P7,P3,Pz,PO3,O1,Oz,O2,PO4,P4,P8,CP6,CP2,C4,T8,FC6,FC2,F4,F8,AF4,Fp2,Fz,Cz,
0,7.803321040e-10,3.588526892e-09,1.504320975e-10,2.534972006e-10,1.291586223e-10,3.750483387e-10,6.047009139e-11,6.391804815e-10,5.731693470e-10,1.843750143e-09,1.081059476e-10,4.144216186e-10,1.233255264e-10,1.079310798e-09,1.374228456e-12,4.247999806e-12,8.395813756e-11,4.135674978e-11,1.041891583e-09,4.935242083e-10,1.322929564e-10,5.609504575e-09,2.739342616e-10,3.322949895e-10,5.112342402e-11,3.924912217e-11,8.715322616e-12,3.961445226e-09,4.795358520e-09,1.632597635e-11,9.344675195e-10,1.633481090e-09
0.0078125,7.838843697e-10,3.588290060e-09,1.509121734e-10,2.533771962e-10,1.288201284e-10,3.758745551e-10,6.080505653e-11,6.399000099e-10,5.736387717e-10,1.849148705e-09,1.080698951e-10,4.136122020e-10,1.216838188e-10,1.081447390e-09,1.361973325e-12,4.236412077e-12,8.423747652e-11,4.161117112e-11,1.042300431e-09,4.891777518e-10,1.311215807e-10,5.609488293e-09,2.738956488e-10,3.332424725e-10,5.130492915e-11,3.899024403e-11,8.637255218e-12,3.950167809e-09,4.771348557e-09,1.630279130e-11,9.342751800e-10,1.636216758e-09
0.015625,7.812935982e-10,3.559188151e-09,1.501937840e-10,2.512073145e-10,1.275586831e-10,3.736906567e-10,6.067701653e-11,6.355413042e-10,5.695796567e-10,1.839830295e-09,1.071688730e-10,4.095258860e-10,1.191544138e-10,1.074864532e-09,1.338338509e-12,4.190045961e-12,8.385485679e-11,4.153594017e-11,1.034346504e-09,4.811779534e-10,1.289093866e-10,5.564376679e-09,2.716645273e-10,3.318005319e-10,5.107773738e-11,3.842766197e-11,8.496071161e-12,3.907383908e-09,4.709408777e-09,1.615830082e-11,9.265744318e-10,1.625808326e-09
0.023438,7.726891229e-10,3.502325140e-09,1.482982135e-10,2.470819334e-10,1.254044923e-10,3.686023650e-10,6.009523644e-11,6.262829886e-10,5.611644074e-10,1.816242587e-09,1.054352939e-10,4.023147707e-10,1.157801843e-10,1.059817775e-09,1.304411489e-12,4.109895304e-12,8.283140859e-11,4.113600437e-11,1.018339587e-09,4.697225850e-10,1.257104315e-10,5.475868410e-09,2.673235310e-10,3.279957263e-10,5.044230824e-11,3.757946519e-11,8.296978178e-12,3.834459195e-09,4.611358701e-09,1.589464451e-11,9.116480763e-10,1.602671338e-09
0.03125,7.582988500e-10,3.418776482e-09,1.452785553e-10,2.410853306e-10,1.224051636e-10,3.607259702e-10,5.907790113e-11,6.123020086e-10,5.485249411e-10,1.778830245e-09,1.028967494e-10,3.920886445e-10,1.116155984e-10,1.036665735e-09,1.260344359e-12,3.996950622e-12,8.118170843e-11,4.042214080e-11,9.945906086e-10,4.549565382e-10,1.215876994e-10,5.345741095e-09,2.609642649e-10,3.218836257e-10,4.941522074e-11,3.645039132e-11,8.042137603e-12,3.732625606e-09,4.478784226e-09,1.551753103e-11,8.897593412e-10,1.567309026e-09
0.039062,7.384961106e-10,3.311150194e-09,1.412159407e-10,2.334009315e-10,1.186174101e-10,3.502974894e-10,5.764015019e-11,5.940573981e-10,5.320691360e-10,1.728703296e-09,9.963203243e-11,3.791607807e-10,1.067715673e-10,1.006116044e-09,1.207524351e-12,3.852842118e-12,7.896763825e-11,3.941830018e-11,9.638517277e-10,4.372300326e-10,1.166618801e-10,5.178033957e-09,2.527788338e-10,3.135885163e-10,4.802612513e-11,3.507096621e-11,7.736061607e-12,3.605071201e-09,4.315679875e-09,1.503357860e-11,8.616240045e-10,1.520745935e-09
0.046875,7.137061489e-10,3.182154643e-09,1.361992013e-10,2.242301235e-10,1.141100254e-10,3.375637759e-10,5.580618025e-11,5.720040983e-10,5.122173347e-10,1.667052753e-09,9.572358772e-11,3.638864050e-10,1.013772739e-10,9.688575815e-10,1.147601834e-12,3.681800724e-12,7.625093966e-11,3.814330855e-11,9.269011284e-10,4.170461348e-10,1.110543209e-10,4.976921673e-09,2.429694982e-10,3.032642871e-10,4.630353521e-11,3.348642161e-11,7.386801186e-12,3.455158055e-09,4.126429370e-09,1.445195963e-11,8.279750711e-10,1.464062136e-09
0.054688,6.845179972e-10,3.034803924e-09,1.303574934e-10,2.137830487e-10,1.089709203e-10,3.228334128e-10,5.363191704e-11,5.466412879e-10,4.894070622e-10,1.595322774e-09,9.125788426e-11,3.465966254e-10,9.555259569e-11,9.257843889e-10,1.082405483e-12,3.488641810e-12,7.308911991e-11,3.662314174e-11,8.846062014e-10,3.948574847e-10,1.048934593e-10,4.747169090e-09,2.317725979e-10,2.911370592e-10,4.429382382e-11,3.173219356e-11,7.004420112e-12,3.286271493e-09,3.915345307e-09,1.378189031e-11,7.895787232e-10,1.398641454e-09
0.0625,6.514399278e-10,2.872099522e-09,1.237984507e-10,2.022696148e-10,1.033092946e-10,3.064068811e-10,5.115820559e-11,5.185269493e-10,4.641538411e-10,1.514928927e-09,8.633087975e-11,3.276686700e-10,8.943505578e-11,8.777618098e-10,1.014032868e-12,3.277371794e-12,6.954070853e-11,3.488940113e-11,8.378179244e-10,3.711538471e-10,9.832009146e-11,4.493480004e-09,2.194193941e-10,2.774714095e-10,4.203521400e-11,2.984427040e-11,6.598445921e-12,3.102053450e-09,3.686907513e-09,1.303530586e-11,7.472085374e-10,1.325801189e-09
0.070312,6.151302875e-10,2.697091873e-09,1.166462323e-10,1.899105297e-10,9.725020085e-11,2.885909678e-10,4.842442186e-11,4.881950453e-10,4.369548355e-10,1.427425600e-09,8.104465601e-11,3.074927925e-10,8.315222632e-11,8.256970833e-10,9.445837112e-13,3.053325016e-12,6.567295222e-11,3.297704375e-11,7.874080390e-10,3.464638849e-10,9.145990547e-11,4.220580392e-09,2.061402267e-10,2.625622835e-10,3.956908444e-11,2.786184743e-11,6.175082935e-12,2.906041432e-09,3.445489504e-09,1.223334089e-11,7.016533801e-10,1.246921291e-09
0.078125,5.765347403e-10,2.513773704e-09,1.090808025e-10,1.769829086e-10,9.092925371e-11,2.698088828e-10,4.550650579e-11,4.562870300e-10,4.083507561e-10,1.334910021e-09,7.552233733e-11,2.864713114e-10,7.682489820e-11,7.708552578e-10,8.759813981e-13,2.822099875e-12,6.157676618e-11,3.093006833e-11,7.345164610e-10,3.212802575e-10,8.445325249e-11,3.934701498e-09,1.922391319e-10,2.467566906e-10,3.696092050e-11,2.582577940e-11,5.744110608e-12,2.702381819e-09,3.196241385e-09,1.139553755e-11,6.539433146e-10,1.163903248e-09
0.085938,5.364741572e-10,2.325907619e-09,1.012578899e-10,1.637488114e-10,8.448232991e-11,2.504523824e-10,4.246709899e-11,4.234509972e-10,3.789058481e-10,1.239355691e-09,6.988288819e-11,2.650062093e-10,7.056720603e-11,7.143854368e-10,8.101602760e-13,2.589077920e-12,5.733490212e-11,2.879450608e-11,6.802201915e-10,2.960148433e-10,7.743226926e-11,3.641702417e-09,1.780050904e-10,2.303837890e-10,3.426468715e-11,2.377067100e-11,5.314760753e-12,2.495081922e-09,2.943883492e-09,1.053576387e-11,6.050529690e-10,1.078505664e-09
0.09375,4.956597969e-10,2.136449473e-09,9.331657921e-11,1.504178193e-10,7.802041044e-11,2.308418190e-10,3.935871621e-11,3.902342524e-10,3.491233852e-10,1.142429432e-09,6.421787740e-11,2.434431838e-10,6.444640928e-11,6.572330391e-10,7.493468693e-13,2.358412613e-12,5.301489338e-11,2.661222876e-11,6.253913452e-10,2.709819962e-10,7.048554745e-11,3.346196222e-09,1.636575954e-10,2.137469844e-10,3.152573628e-11,2.172152512e-11,4.890667607e-12,2.287185609e-09,2.691792332e-09,9.670827374e-12,5.557371723e-10,9.921533476e-10
0.10156,4.548327571e-10,1.948541882e-09,8.541195142e-11,1.372081824e-10,7.162882650e-11,2.113311414e-10,3.625318333e-11,3.571882702e-10,3.194782765e-10,1.045822632e-09,5.861978322e-11,2.221026004e-10,5.852651690e-11,6.004394325e-10,6.947320441e-13,2.132240437e-12,4.869687994e-11,2.442148881e-11,5.709415804e-10,2.465003348e-10,6.371027193e-11,3.053067653e-09,1.494169849e-10,1.971144277e-10,2.879976513e-11,1.970691801e-11,4.479114594e-12,2.081825865e-09,2.443711946e-09,8.817057495e-12,5.067968778e-10,9.063563706e-10
0.10938,4.146297314e-10,1.765076855e-09,7.766425448e-11,1.243178398e-10,6.539093564e-11,1.922211386e-10,3.319355261e-11,3.248126735e-10,2.904118944e-10,9.509960873e-10,5.317771722e-11,2.012988017e-10,5.287109716e-11,5.448787611e-10,6.475605366e-13,1.914282138e-12,4.445308081e-11,2.225716589e-11,5.177156945e-10,2.228863183e-10,5.720125673e-11,2.766797590e-09,1.354934975e-10,1.806912594e-10,2.613228416e-11,1.775310504e-11,4.085350094e-12,1.882078518e-09,2.203270935e-09,7.984498765e-12,4.589841413e-10,8.224316985e-10
0.11719,3.756120214e-10,1.588501697e-09,7.017435957e-11,1.119220681e-10,5.937266201e-11,1.737601708e-10,3.020441865e-11,2.935360608e-10,2.623211848e-10,8.592621731e-10,4.796042974e-11,1.813092262e-10,4.751136734e-11,4.912863947e-10,6.095514027e-13,1.708214426e-12,4.033948816e-11,2.015332547e-11,4.664475166e-10,2.003490193e-10,5.102301432e-11,2.491246812e-09,1.220827348e-10,1.646549971e-10,2.355805414e-11,1.587926052e-11,3.708780491e-12,1.690481392e-09,1.973272727e-09,7.181356547e-12,4.129534329e-10,7.414919949e-10
0.125,3.381680435e-10,1.420693186e-09,6.301981581e-11,1.001549095e-10,5.360811536e-11,1.561387163e-10,2.732038519e-11,2.636805081e-10,2.355052307e-10,7.716299429e-10,4.301417937e-11,1.623399257e-10,4.248815427e-11,4.402278861e-10,5.811880750e-13,1.515822492e-12,3.639924126e-11,1.813226474e-11,4.176779107e-10,1.790679369e-10,4.522981774e-11,2.229361210e-09,1.093387348e-10,1.491394939e-10,2.110193051e-11,1.410552563e-11,3.352982373e-12,1.508983744e-09,1.756057755e-09,6.415773058e-12,3.692088682e-10,6.643844813e-10
0.13281,3.025208242e-10,1.262558535e-09,5.623858797e-11,8.906698297e-11,4.813041647e-11,1.394518537e-10,2.456584900e-11,2.354236487e-10,2.101381639e-10,6.886160337e-10,3.836818214e-11,1.445014421e-10,3.783523062e-11,3.919831360e-10,5.628607212e-13,1.338540767e-12,3.265725444e-11,1.620657433e-11,3.716727971e-10,1.591860724e-10,3.984924119e-11,1.982542058e-09,9.732520181e-11,1.342691289e-10,1.878102414e-11,1.244497064e-11,3.022480938e-12,1.338583890e-09,1.552794333e-09,5.691944656e-12,3.279808390e-10,5.915434770e-10
0.14062,2.689470825e-10,1.115224895e-09,4.988122138e-11,7.873341507e-11,4.297724185e-11,1.238309916e-10,2.196376583e-11,2.090044388e-10,1.864463950e-10,6.108219098e-10,3.405658495e-11,1.279346749e-10,3.356513831e-11,3.469159651e-10,5.548730805e-13,1.176627360e-12,2.914938166e-11,1.439527309e-11,3.287647509e-10,1.408275070e-10,3.491187405e-11,1.752528193e-09,8.611668891e-11,1.201714939e-10,1.661421169e-11,1.090878091e-11,2.717793707e-12,1.180465662e-09,1.364748972e-09,5.012770484e-12,2.895556547e-10,5.234863842e-10
0.14844,2.376560697e-10,9.794826327e-10,4.398896201e-11,6.922092837e-11,3.817729168e-11,1.093669146e-10,1.952919118e-11,1.845688526e-10,1.645615217e-10,5.386824648e-10,3.009198593e-11,1.127315205e-10,2.968402423e-11,3.052679345e-10,5.565264649e-13,1.031421275e-12,2.589688622e-11,1.271115871e-11,2.891786347e-10,1.240846522e-10,3.043624050e-11,1.540510571e-09,7.577772125e-11,1.069109380e-10,1.461154699e-11,9.504032154e-12,2.437177076e-12,1.035391264e-09,1.192802228e-09,4.386173289e-12,2.541469779e-10,4.605829867e-10
0.15625,2.087757594e-10,8.554256449e-10,3.858132350e-11,6.053803756e-11,3.374639659e-11,9.607516372e-11,1.726854837e-11,1.621005901e-10,1.444595430e-10,4.723890026e-10,2.647286006e-11,9.886517423e-11,2.619222118e-11,2.671189024e-10,5.679290822e-13,9.050317263e-13,2.289760341e-11,1.116026339e-11,2.529554937e-10,1.089152935e-10,2.640588337e-11,1.346662697e-09,6.632502435e-11,9.454377739e-11,1.277974684e-11,8.230015790e-12,2.180186552e-12,9.032450959e-10,1.036755947e-09,3.817426572e-12,2.217962442e-10,4.029627160e-10
0.16406,1.823576698e-10,7.430417342e-10,3.365734923e-11,5.267394351e-11,2.968911207e-11,8.396702635e-11,1.519600694e-11,1.416101201e-10,1.261558264e-10,4.120187607e-10,2.319775608e-11,8.632334984e-11,2.309097555e-11,2.325126242e-10,5.894165354e-13,7.971224341e-13,2.015497640e-11,9.744892790e-12,2.201013369e-10,9.527488240e-11,2.280625724e-11,1.171000534e-09,5.776158382e-11,8.314798235e-11,1.111928153e-11,7.089084792e-12,1.950263389e-12,7.839311551e-10,8.964404437e-10,3.302575888e-12,1.925075102e-10,3.506424272e-10
0.17188,1.583737428e-10,6.419223478e-10,2.920353113e-11,4.559176771e-11,2.600790635e-11,7.301793778e-11,1.331693809e-11,1.230824763e-10,1.096335905e-10,3.574245276e-10,2.025109520e-11,7.507040907e-11,2.036256909e-11,2.013373968e-10,6.198930139e-13,7.064831382e-13,1.766382577e-11,8.462068960e-12,1.905001264e-10,8.311139762e-11,1.961509924e-11,1.012864355e-09,5.005177978e-11,7.276253985e-11,9.625819877e-12,6.074301771e-12,1.748581515e-12,6.769386890e-10,7.711279243e-10,2.839210126e-12,1.661494553e-10,3.034598918e-10
0.17969,1.368250694e-10,5.517850360e-10,2.522147701e-11,3.926985977e-11,2.269652785e-11,6.320688389e-11,1.162665153e-11,1.064882737e-10,9.486440951e-11,3.085486002e-10,1.762446581e-11,6.507177747e-11,1.797362926e-11,1.735127341e-10,6.573449865e-13,6.316044534e-13,1.542246036e-11,7.312960495e-12,1.640780888e-10,7.232615748e-11,1.681142865e-11,8.718271942e-10,4.316591785e-11,6.337749092e-11,8.299782258e-12,5.173988570e-12,1.571101622e-12,5.818334009e-10,6.600863954e-10,2.428324877e-12,1.426331127e-10,2.613421721e-10
0.1875,1.176350699e-10,4.720691585e-10,2.169041546e-11,3.366876870e-11,1.973863921e-11,5.448283907e-11,1.011892059e-11,9.172186727e-11,8.176660713e-11,2.651427649e-10,1.530076114e-11,5.626647167e-11,1.588684751e-11,1.488788082e-10,6.991042912e-13,5.710137927e-13,1.342529134e-11,6.294173602e-12,1.406778271e-10,6.283270489e-11,1.436614654e-11,7.470229638e-10,3.706318791e-11,5.494574536e-11,7.132347799e-12,4.381679414e-12,1.414573304e-12,4.979487471e-10,5.624496217e-10,2.068335755e-12,1.218242289e-10,2.240452658e-10
0.19531,1.006649302e-10,4.019423102e-10,1.857848514e-11,2.873247033e-11,1.711613718e-11,4.676979453e-11,8.784121581e-12,7.863575645e-11,7.019149522e-11,2.268028560e-10,1.325428314e-11,4.853557244e-11,1.406881101e-11,1.272168759e-10,7.436898393e-13,5.243232322e-13,1.165207392e-11,5.398224450e-12,1.200590840e-10,5.451494717e-11,1.223803854e-11,6.371312458e-10,3.168618718e-11,4.741307246e-11,6.111379980e-12,3.688814942e-12,1.278976482e-12,4.242514954e-10,4.769743607e-10,1.756307175e-12,1.035159685e-10,1.912021244e-10
0.20312,8.575676169e-11,3.407443440e-10,1.586164154e-11,2.441881380e-11,1.480572829e-11,4.000265062e-11,7.612803202e-12,6.714325813e-11,6.004574047e-11,1.931951143e-10,1.146090350e-11,4.179788714e-11,1.248971415e-11,1.083282849e-10,7.912405997e-13,4.904400916e-13,1.009030348e-11,4.618856735e-12,1.020402428e-10,4.727872959e-11,1.039657024e-11,5.411426395e-10,2.698575483e-11,4.074195170e-11,5.226663694e-12,3.088901792e-12,1.163003984e-12,3.600320148e-10,4.027546717e-10,1.487049770e-12,8.754659839e-11,1.624936941e-10
0.21094,7.273443158e-11,2.876169869e-10,1.350604568e-11,2.066958793e-11,1.277954669e-11,3.410099087e-11,6.592228884e-12,5.711942020e-11,5.121442489e-11,1.638972297e-10,9.890787833e-12,3.596075136e-11,1.111364444e-11,9.194985075e-11,8.411160647e-13,4.673295354e-13,8.724833997e-12,3.947327325e-12,8.638182650e-11,4.103167025e-11,8.809666946e-12,4.577212282e-10,2.289394453e-11,3.487820129e-11,4.466015337e-12,2.573579909e-12,1.062870505e-12,3.043626572e-10,3.386665712e-10,1.255041315e-12,7.368360173e-11,1.375234266e-10
0.21875,6.143379946e-11,2.417948914e-10,1.147437863e-11,1.743286308e-11,1.101084827e-11,2.898594337e-11,5.704968054e-12,4.841737552e-11,4.356842444e-11,1.385277570e-10,8.523544589e-12,3.093104660e-11,9.915943607e-12,7.784032127e-11,8.916200715e-13,4.538387781e-13,7.533291201e-12,3.373096236e-12,7.285367859e-11,3.565193043e-11,7.449014645e-12,3.856697479e-10,1.935403834e-11,2.974554943e-11,3.815631165e-12,2.131550941e-12,9.760432941e-13,2.563496586e-10,2.836143698e-10,1.057673043e-12,6.171925006e-11,1.159580871e-10
0.22656,5.166928134e-11,2.024748809e-10,9.726532571e-12,1.465239640e-11,9.474827689e-12,2.456602382e-11,4.935740978e-12,4.089177402e-11,3.698398032e-11,1.166739212e-10,7.336617406e-12,2.662923577e-11,8.877860049e-12,6.572954717e-11,9.408716358e-13,4.491927270e-13,6.495383623e-12,2.884668198e-12,6.122494214e-11,3.103984953e-11,6.285189604e-12,3.237726603e-10,1.630970026e-11,2.527605362e-11,3.259868639e-12,1.755456011e-12,9.014996901e-13,2.151979188e-10,2.365903254e-10,8.919444329e-13,5.146170147e-11,9.742218133e-11
0.23438,4.328844146e-11,1.688659045e-10,8.232234442e-12,1.227108757e-11,8.146666508e-12,2.075884673e-11,4.273624264e-12,3.440593767e-11,3.132453629e-11,9.793107506e-11,6.306744850e-12,2.295399269e-11,7.982114327e-12,5.538364134e-11,9.874788724e-13,4.517507575e-13,5.594811607e-12,2.473271436e-12,5.127325837e-11,2.708386904e-11,5.290092176e-12,2.708051131e-10,1.370105800e-11,2.140205251e-11,2.787353891e-12,1.438639446e-12,8.382613447e-13,1.800435027e-10,1.965875469e-10,7.530743418e-13,4.270860149e-11,8.155903777e-11
0.24219,3.614179497e-11,1.403293605e-10,6.966747422e-12,1.024387790e-11,7.003216832e-12,1.750121157e-11,3.709140267e-12,2.885054440e-11,2.648520415e-11,8.195226341e-11,5.417301441e-12,1.982235032e-11,7.217620849e-12,4.660835116e-11,1.030280303e-12,4.601699985e-13,4.818653742e-12,2.130159094e-12,4.280832827e-11,2.366943961e-11,4.445864284e-12,2.257699273e-10,1.148097597e-11,1.806140321e-11,2.387052960e-12,1.172646847e-12,7.846335958e-13,1.501848811e-10,1.627772326e-10,6.363856784e-13,3.528604773e-11,6.807332046e-11
0.25,3.006437839e-11,1.161643987e-10,5.899896293e-12,8.522615264e-12,6.022757560e-12,1.472544862e-11,3.230518929e-12,2.411230878e-11,2.236926910e-11,6.836386956e-11,4.649067314e-12,1.715978364e-11,6.571126009e-12,3.918480568e-11,1.068775538e-12,4.740264579e-13,4.153533462e-12,1.847052629e-12,3.562781062e-11,2.070603805e-11,3.731351403e-12,1.875647329e-10,9.595810772e-12,1.520165637e-11,2.047917425e-12,9.496269274e-13,7.392865740e-13,1.248913306e-10,1.342588788e-10,5.383802758e-13,2.900863732e-11,5.662310188e-11
0.25781,2.492061394e-11,9.580262555e-11,5.003623308e-12,7.069764515e-12,5.183646027e-12,1.237291043e-11,2.826093725e-12,2.009049212e-11,1.888428766e-11,5.685572830e-11,3.986097787e-12,1.490232697e-11,6.028782628e-12,3.293592728e-11,1.104138180e-12,4.934174331e-13,3.586636961e-12,1.616566366e-12,2.956719338e-11,1.812342735e-11,3.127737133e-12,1.552866234e-10,8.000724571e-12,1.275620211e-11,1.759916509e-12,7.644631423e-13,7.021312788e-13,1.035440168e-10,1.103137026e-10,4.569175006e-13,2.372819580e-11,4.693501197e-11
0.26562,2.058256998e-11,7.871901547e-11,4.256442653e-12,5.849459562e-12,4.468043464e-12,1.038728911e-11,2.487844446e-12,1.668870206e-11,1.593939725e-11,4.714651551e-11,3.415243098e-12,1.299491266e-11,5.570656970e-12,2.769922674e-11,1.137160138e-12,5.190347555e-13,3.103791294e-12,1.430663866e-12,2.447387301e-11,1.586667307e-11,2.619426216e-12,1.281422827e-10,6.658372416e-12,1.066266901e-11,1.514808282e-12,6.125159391e-13,6.723170820e-13,8.562267678e-11,9.031895479e-11,3.900453230e-13,1.931044972e-11,3.877239656e-11
0.27344,1.694334362e-11,6.442957212e-11,3.640880167e-12,4.827273605e-12,3.862178654e-12,8.719285160e-12,2.206571169e-12,1.381892596e-11,1.344824973e-11,3.898346373e-11,2.924986691e-12,1.137757526e-11,5.175057922e-12,2.333978637e-11,1.167212878e-12,5.505358266e-13,2.690828332e-12,1.285298224e-12,2.020823762e-11,1.388416877e-11,2.192281361e-12,1.053919526e-10,5.530389758e-12,8.876628992e-12,1.309533577e-12,4.884456123e-13,6.478348366e-13,7.061425998e-11,7.367187898e-11,3.353999006e-13,1.562541716e-11,3.192147928e-11
0.28125,1.389663101e-11,5.252991211e-11,3.134704337e-12,3.978184095e-12,3.354462234e-12,7.327414379e-12,1.971972512e-12,1.141147065e-11,1.134508309e-11,3.213848672e-11,2.503983758e-12,1.000533127e-11,4.826342528e-12,1.973315019e-11,1.193482466e-12,5.869563050e-13,2.338090448e-12,1.176560851e-12,1.665028201e-11,1.214183146e-11,1.834855872e-12,8.639198799e-11,4.583775379e-12,7.359645466e-12,1.138321670e-12,3.873122246e-13,6.261380346e-13,5.809156792e-11,5.987259611e-11,2.914306141e-13,1.256497262e-11,2.619195012e-11
0.28906,1.134586886e-11,4.264072212e-11,2.719919353e-12,3.278639899e-12,2.932065370e-12,6.170186887e-12,1.776031060e-12,9.398471384e-12,9.572789641e-12,2.640550979e-11,2.140753372e-12,8.840895594e-12,4.511205043e-12,1.676530030e-11,1.216053356e-12,6.287324379e-13,2.038365113e-12,1.099665885e-12,1.369026486e-11,1.062371062e-11,1.533908001e-12,7.054043117e-11,3.791311851e-12,6.079183914e-12,9.947101006e-13,3.058126903e-13,6.056424924e-13,4.766494429e-11,4.845391596e-11,2.571860563e-13,1.003339443e-11,2.140344952e-11
0.29688,9.225351990e-12,3.447689604e-11,2.383225964e-12,2.705456940e-12,2.579989781e-12,5.211790858e-12,1.611255771e-12,7.720664016e-12,8.083086157e-12,2.163365362e-11,1.828839511e-12,7.852954909e-12,4.219285453e-12,1.435054138e-11,1.236657273e-12,6.762182769e-13,1.784069081e-12,1.049746541e-12,1.124122128e-11,9.316574518e-12,1.279486872e-12,5.739780899e-11,3.132587036e-12,5.003533134e-12,8.751329674e-13,2.420096875e-13,5.861925263e-13,3.902696641e-11,3.907673432e-11,2.310473857e-13,7.958250067e-12,1.742774658e-11
0.30469,7.467697463e-12,2.775728270e-11,2.110787379e-12,2.236368473e-12,2.286985413e-12,4.421094598e-12,1.472084894e-12,6.322968642e-12,6.827448469e-12,1.767649745e-11,1.563837108e-12,7.012211456e-12,3.945060186e-12,1.239887210e-11,1.257427845e-12,7.299926089e-13,1.568052607e-12,1.021971927e-12,9.215447931e-12,8.195995316e-12,1.065630696e-12,4.654213952e-11,2.586829469e-12,4.107501942e-12,7.753083744e-13,1.924042126e-13,5.665678496e-13,3.189256017e-11,3.139790470e-11,2.113180734e-13,6.265150743e-12,1.414536306e-11
0.3125,6.015589684e-12,2.223764914e-11,1.892284136e-12,1.855059591e-12,2.045383500e-12,3.771362723e-12,1.353799003e-12,5.160214646e-12,5.764427451e-12,1.440571962e-11,1.339064345e-12,6.288349393e-12,3.690373417e-12,1.083636038e-11,1.280126358e-12,7.914261711e-13,1.384828356e-12,1.013999874e-12,7.541571060e-12,7.227964312e-12,8.865535814e-13,3.759736307e-11,2.134462518e-12,3.372213644e-12,6.917752141e-13,1.538090087e-13,5.454496973e-13,2.600255649e-11,2.511256926e-11,1.965755997e-13,4.889323146e-12,1.144638263e-11
0.32031,4.790147625e-12,1.776443600e-11,1.731670497e-12,1.589496293e-12,1.846365727e-12,3.262348858e-12,1.251651663e-12,4.111627957e-12,4.690885841e-12,1.168322991e-11,1.168978172e-12,5.461796664e-12,3.563916314e-12,9.842029920e-12,1.309371941e-12,8.597486337e-13,1.204726645e-12,1.042908949e-12,6.122366191e-12,6.192040822e-12,7.678465964e-13,3.020535014e-11,1.727328214e-12,2.774534887e-12,6.357255228e-13,1.262758010e-13,5.291988812e-13,2.075238576e-11,2.004205937e-11,1.857145665e-13,3.770422413e-12,9.272327298e-12
0.32812,3.836488023e-12,1.411957862e-11,1.590804873e-12,1.342643504e-12,1.686368806e-12,2.826533375e-12,1.168969289e-12,3.323937593e-12,3.949017169e-12,9.483724643e-12,1.005137597e-12,4.926995822e-12,3.409087109e-12,8.832554819e-12,1.339711223e-12,9.357032733e-13,1.081335468e-12,1.058554589e-12,5.002560184e-12,5.362982585e-12,6.471210234e-13,2.426608307e-11,1.421785336e-12,2.297108597e-12,5.700548670e-13,1.100032428e-13,5.158442899e-13,1.681956371e-11,1.601162439e-11,1.741684645e-13,2.900322373e-12,7.470000481e-12
0.33594,3.072290857e-12,1.114815522e-11,1.490254429e-12,1.145607098e-12,1.565923477e-12,2.493521565e-12,1.106387255e-12,2.720947634e-12,3.361667941e-12,7.674368299e-12,8.626838786e-13,4.496567176e-12,3.212112749e-12,7.986803577e-12,1.373163685e-12,1.019780715e-12,9.931293400e-13,1.085633439e-12,4.117269508e-12,4.748227018e-12,5.350323497e-13,1.936481687e-11,1.177838868e-12,1.917357469e-12,5.181940861e-13,9.491842331e-14,4.986633792e-13,1.368088029e-11,1.262028931e-11,1.672136748e-13,2.186750633e-12,5.979930891e-12
0.34375,2.447629424e-12,8.754204178e-12,1.416877169e-12,9.956599716e-13,1.477385393e-12,2.224196766e-12,1.049321827e-12,2.208698520e-12,2.852693436e-12,6.211128277e-12,7.465268890e-13,4.115323781e-12,3.031870632e-12,7.392513786e-12,1.415642089e-12,1.110250824e-12,9.200208872e-13,1.128785387e-12,3.383159582e-12,4.205304498e-12,4.431518390e-13,1.541415810e-11,9.761048285e-13,1.622141838e-12,4.738481973e-13,8.688358656e-14,4.795522054e-13,1.110098883e-11,9.933911649e-12,1.640778339e-13,1.637882374e-12,4.788430932e-12
0.35156,1.946144451e-12,6.809568742e-12,1.363893631e-12,8.768788205e-13,1.417300863e-12,2.006171609e-12,9.997179052e-13,1.788883292e-12,2.431763607e-12,5.022995387e-12,6.489521054e-13,3.796499107e-12,2.857246543e-12,6.955773097e-12,1.465458496e-12,1.206572334e-12,8.643632703e-13,1.180260017e-12,2.783165984e-12,3.742588811e-12,3.640166008e-13,1.221391543e-11,8.136917527e-13,1.394636520e-12,4.330275378e-13,8.302571853e-14,4.593828138e-13,9.022006466e-12,7.776678654e-12,1.633766467e-13,1.215864176e-12,3.824267144e-12
0.35938,1.529382554e-12,4.963357956e-12,1.297285709e-12,7.249672098e-13,1.386492333e-12,1.744105904e-12,9.487697636e-13,1.392763086e-12,2.122722118e-12,4.055106848e-12,5.617658468e-13,3.657506244e-12,2.631652439e-12,6.315517828e-12,1.528350580e-12,1.312510824e-12,8.241763826e-13,1.217686038e-12,2.164467272e-12,3.367884329e-12,2.908684560e-13,9.369330926e-12,6.795699501e-13,1.224489843e-12,3.838889100e-13,7.572476952e-14,4.364538029e-13,7.378621625e-12,5.725112009e-12,1.640252106e-13,8.117900986e-13,3.015774467e-12
0.36719,1.226601561e-12,3.799498664e-12,1.289592516e-12,6.734618174e-13,1.385131275e-12,1.637500406e-12,9.170411919e-13,1.126413096e-12,1.822799744e-12,3.302796104e-12,4.983705672e-13,3.415377010e-12,2.445815431e-12,6.212928947e-12,1.598858680e-12,1.425904389e-12,8.032711016e-13,1.292575553e-12,1.808907079e-12,3.064234203e-12,2.390988649e-13,7.378362635e-12,5.737856329e-13,1.062376297e-12,3.556293904e-13,7.362764996e-14,4.109367771e-13,6.054789992e-12,4.339677177e-12,1.693646130e-13,5.876741620e-13,2.418448419e-12
0.375,9.964771952e-13,2.954542113e-12,1.294819978e-12,6.601469263e-13,1.386503938e-12,1.583704216e-12,8.868743410e-13,9.224761173e-13,1.517592353e-12,2.695050588e-12,4.421096400e-13,3.104325000e-12,2.353738902e-12,6.335932190e-12,1.683021925e-12,1.552316268e-12,7.860287656e-13,1.372745600e-12,1.554178834e-12,2.722670216e-12,2.054274370e-13,5.900517177e-12,4.981768156e-13,9.366064686e-13,3.311713053e-13,7.757089122e-14,3.891174945e-13,4.880940328e-12,3.381607848e-12,1.723690998e-13,4.615528785e-13,1.959546497e-12
0.38281,8.260064299e-13,2.257986383e-12,1.297702900e-12,6.486318274e-13,1.388930158e-12,1.534281467e-12,8.601375316e-13,7.609753926e-13,1.281789715e-12,2.209488554e-12,3.947970124e-13,2.859203392e-12,2.301762853e-12,6.398252701e-12,1.780512930e-12,1.689037119e-12,7.894540908e-13,1.444723151e-12,1.349339672e-12,2.401814892e-12,1.777582037e-13,4.689010645e-12,4.390730369e-13,8.515599814e-13,3.028844501e-13,8.482080745e-14,3.722095119e-13,3.959543695e-12,2.609804017e-12,1.714281520e-13,3.743481990e-13,1.580763684e-12
0.39062,7.018129080e-13,1.714813923e-12,1.307419725e-12,6.499759148e-13,1.391994605e-12,1.508378304e-12,8.407961135e-13,6.443431166e-13,1.088936681e-12,1.815973699e-12,3.572834566e-13,2.639669906e-12,2.286272820e-12,6.471967855e-12,1.890543676e-12,1.834869469e-12,8.093081613e-13,1.514393602e-12,1.203842073e-12,2.100576338e-12,1.558916307e-13,3.700599320e-12,3.925467312e-13,8.009195253e-13,2.769156631e-13,9.625451032e-14,3.601721819e-13,3.214717447e-12,2.005565248e-12,1.680073071e-13,3.226857052e-13,1.266047117e-12
0.39844,6.102322384e-13,1.279805380e-12,1.318976438e-12,6.530823814e-13,1.400294874e-12,1.484077059e-12,8.270734000e-13,5.473422691e-13,9.240249990e-13,1.522877459e-12,3.250117937e-13,2.453852752e-12,2.307210706e-12,6.527517594e-12,2.015151829e-12,1.990910309e-12,8.345548471e-13,1.579318703e-12,1.073466016e-12,1.787694950e-12,1.411285677e-13,2.922845005e-12,3.615635067e-13,7.855712140e-13,2.534349454e-13,1.114180184e-13,3.529048342e-13,2.615963312e-12,1.558830013e-12,1.635014047e-13,2.928831385e-13,1.027650540e-12
0.40625,5.437216711e-13,9.517582304e-13,1.341777939e-12,6.676466570e-13,1.420484752e-12,1.480234927e-12,8.234914330e-13,4.786016227e-13,7.902331999e-13,1.294308782e-12,3.000562129e-13,2.299056252e-12,2.342667553e-12,6.618458820e-12,2.152537063e-12,2.154874365e-12,8.726150502e-13,1.650069663e-12,9.804487205e-13,1.500942275e-12,1.285357215e-13,2.294650356e-12,3.387562843e-13,7.950737686e-13,2.355908350e-13,1.287327924e-13,3.481398971e-13,2.140980285e-12,1.219884135e-12,1.600342305e-13,2.871263849e-13,8.354634024e-13
0.41406,5.119545597e-13,8.386675927e-13,1.420311283e-12,7.407201628e-13,1.447081937e-12,1.580985867e-12,8.391179068e-13,4.571090057e-13,6.214259485e-13,1.046175644e-12,2.769668645e-13,2.008413546e-12,2.437658633e-12,7.111650225e-12,2.296749232e-12,2.325242061e-12,9.204148858e-13,1.745419078e-12,1.039661928e-12,1.277620396e-12,1.040948718e-13,1.810822000e-12,3.415623990e-13,8.161364891e-13,2.320219341e-13,1.516649754e-13,3.473516303e-13,1.485585005e-12,1.091893336e-12,1.592770088e-13,3.369308573e-13,5.955650490e-13
0.42188,4.660325637e-13,7.150905096e-13,1.456860014e-12,7.803930090e-13,1.488974326e-12,1.613553737e-12,8.414416094e-13,4.252289426e-13,5.147755730e-13,9.248270967e-13,2.658370108e-13,1.868172488e-12,2.508058248e-12,7.321209339e-12,2.464248230e-12,2.503709000e-12,9.743443255e-13,1.832404102e-12,1.009900957e-12,1.059274905e-12,9.625816579e-14,1.479694167e-12,3.320624948e-13,8.791040827e-13,2.233759132e-13,1.722281391e-13,3.481923152e-13,1.173029859e-12,1.009054108e-12,1.591095538e-13,3.821881534e-13,5.034823919e-13
0.42969,4.345703789e-13,6.118143639e-13,1.511891023e-12,8.329926193e-13,1.565936809e-12,1.666686858e-12,8.569222566e-13,4.146593484e-13,4.563942702e-13,7.993455241e-13,2.738039690e-13,1.811526280e-12,2.522584797e-12,7.560645414e-12,2.643599810e-12,2.679043779e-12,1.059736952e-12,1.936447107e-12,9.866361904e-13,8.917318041e-13,9.234741431e-14,1.148076338e-12,3.083703983e-13,9.144332411e-13,2.158785205e-13,1.903340841e-13,3.467171087e-13,9.988382914e-13,8.390595064e-13,1.635141074e-13,4.492085918e-13,4.239529487e-13
0.4375,4.240336663e-13,5.821234219e-13,1.581499467e-12,8.902763455e-13,1.663882194e-12,1.736031452e-12,8.828004712e-13,4.101944194e-13,3.884335060e-13,6.977987947e-13,2.777887118e-13,1.741953913e-12,2.519691640e-12,7.930350988e-12,2.834925686e-12,2.857595934e-12,1.136715729e-12,2.042574698e-12,9.910378193e-13,7.547876434e-13,9.139890390e-14,9.442672762e-13,3.015721573e-13,9.101008713e-13,2.127747591e-13,2.060375189e-13,3.435516154e-13,8.275242679e-13,7.479553169e-13,1.708488365e-13,5.307217780e-13,3.635140704e-13
0.44531,4.297214338e-13,5.639113344e-13,1.657548850e-12,9.412561129e-13,1.781648962e-12,1.803839377e-12,9.156793816e-13,4.128440350e-13,3.289278433e-13,6.095972007e-13,2.779571212e-13,1.693370103e-12,2.489512975e-12,8.329535178e-12,3.037745256e-12,3.038724237e-12,1.211917328e-12,2.145179671e-12,9.984553186e-13,6.483468815e-13,9.488266020e-14,7.955862888e-13,3.037728551e-13,8.715089841e-13,2.101931335e-13,2.186056092e-13,3.386016646e-13,6.996240664e-13,6.601131654e-13,1.785657134e-13,6.115630311e-13,3.155421487e-13
0.45312,4.656234859e-13,6.274894122e-13,1.755466764e-12,1.014538077e-12,1.901445030e-12,1.908768965e-12,9.560819367e-13,4.484216817e-13,2.827003373e-13,5.124877310e-13,2.813081549e-13,1.634881703e-12,2.450599535e-12,8.857064434e-12,3.247232520e-12,3.221524228e-12,1.304121417e-12,2.251123833e-12,1.058377554e-12,5.903641363e-13,9.754396112e-14,7.239438533e-13,3.168326564e-13,8.098349814e-13,2.093020411e-13,2.328904103e-13,3.336398559e-13,5.788580147e-13,6.214201157e-13,1.842175642e-13,7.286562288e-13,2.547225941e-13
0.46094,5.075487778e-13,6.752735724e-13,1.840686823e-12,1.077479637e-12,2.005908710e-12,1.992930688e-12,9.914832187e-13,4.835852059e-13,2.469666862e-13,4.480426868e-13,2.798528478e-13,1.597624001e-12,2.412247345e-12,9.307535763e-12,3.467944390e-12,3.412319955e-12,1.391967179e-12,2.341056141e-12,1.101157289e-12,5.538448219e-13,1.031299180e-13,6.840703626e-13,3.385208594e-13,7.512483455e-13,2.069089012e-13,2.476294667e-13,3.300725491e-13,4.952953589e-13,5.880956635e-13,1.860429586e-13,8.367708833e-13,2.140613551e-13
0.46875,5.488356528e-13,6.954807487e-13,1.914992420e-12,1.129604079e-12,2.090634651e-12,2.051531379e-12,1.023035234e-12,5.130830167e-13,2.227011841e-13,4.145932320e-13,2.755133712e-13,1.585752113e-12,2.378893134e-12,9.648501416e-12,3.698403772e-12,3.610121832e-12,1.477366392e-12,2.413364555e-12,1.115650100e-12,5.243277662e-13,1.125804735e-13,6.371849324e-13,3.642226267e-13,7.113316117e-13,2.036337534e-13,2.630234062e-13,3.297494283e-13,4.478410402e-13,5.402264904e-13,1.848433741e-13,9.290260432e-13,1.934085173e-13
0.47656,5.942209922e-13,7.341051668e-13,1.984343829e-12,1.181166375e-12,2.147896086e-12,2.101036068e-12,1.050785870e-12,5.441141039e-13,1.983716002e-13,4.097650535e-13,2.669847858e-13,1.562816772e-12,2.375042609e-12,9.947487972e-12,3.933277377e-12,3.812774461e-12,1.559652745e-12,2.468317802e-12,1.130605372e-12,4.954302263e-13,1.214771929e-13,6.319779931e-13,4.010010789e-13,7.037539436e-13,2.009672597e-13,2.822659017e-13,3.357920395e-13,3.915773150e-13,5.525270697e-13,1.804205094e-13,1.021666985e-12,1.851587117e-13
0.48438,6.490763004e-13,8.640497687e-13,2.052440674e-12,1.275794606e-12,2.175064831e-12,2.159191446e-12,1.073598893e-12,5.879765537e-13,1.721010028e-13,3.346236378e-13,2.544458847e-13,1.527090056e-12,2.400841514e-12,1.024569396e-11,4.162251732e-12,4.009497512e-12,1.683060781e-12,2.523675114e-12,1.146798891e-12,4.815222746e-13,1.137941130e-13,5.259030428e-13,4.340466885e-13,7.327705283e-13,1.956929238e-13,3.192094934e-13,3.503032717e-13,2.270268716e-13,6.394504805e-13,1.735944148e-13,1.229594189e-12,1.419108378e-13
0.49219,6.535901866e-13,9.292459716e-13,2.094217833e-12,1.334544398e-12,2.153796415e-12,2.185286636e-12,1.082893841e-12,6.247389030e-13,1.673888343e-13,3.790084718e-13,2.502361906e-13,1.509832733e-12,2.457966582e-12,1.038362544e-11,4.400038166e-12,4.220903549e-12,1.775114627e-12,2.550924944e-12,1.156571965e-12,4.841284632e-13,1.174719554e-13,5.362994330e-13,4.717381976e-13,7.804403389e-13,1.918771999e-13,3.536009772e-13,3.713664561e-13,2.032280251e-13,7.623471946e-13,1.636179983e-13,1.336378145e-12,1.670003533e-13
0.5,5.960196634e-13,8.370195075e-13,2.096934070e-12,1.349670150e-12,2.121840666e-12,2.145345143e-12,1.080876340e-12,6.206821167e-13,1.761150037e-13,4.927061553e-13,2.471497560e-13,1.531731627e-12,2.511323699e-12,1.027480678e-11,4.647467567e-12,4.435625110e-12,1.835767810e-12,2.554786154e-12,1.093486042e-12,4.708355661e-13,1.322073219e-13,4.614913075e-13,5.089702220e-13,8.542372138e-13,1.828269296e-13,3.768205465e-13,3.961140292e-13,2.387028353e-13,7.682882382e-13,1.537850993e-13,1.325188369e-12,2.292216225e-13
0.50781,5.540632347e-13,8.036120829e-13,2.115264074e-12,1.383467040e-12,2.106117942e-12,2.127603317e-12,1.086348981e-12,6.239182141e-13,1.814189747e-13,5.634671879e-13,2.487819564e-13,1.546065002e-12,2.562598879e-12,1.022631723e-11,4.887079678e-12,4.632406987e-12,1.910661458e-12,2.565524624e-12,1.050431783e-12,4.659581204e-13,1.457391658e-13,4.034088909e-13,5.417952674e-13,9.275469533e-13,1.757434599e-13,4.010618800e-13,4.226652461e-13,2.612286993e-13,8.054497197e-13,1.467237746e-13,1.355451778e-12,2.829064588e-13
0.51562,5.302937884e-13,8.344658965e-13,2.157967514e-12,1.438604614e-12,2.109480353e-12,2.146675458e-12,1.103138510e-12,6.445519439e-13,1.809292291e-13,5.838852824e-13,2.540388721e-13,1.535573522e-12,2.612862612e-12,1.030842691e-11,5.116578048e-12,4.810533991e-12,1.995946180e-12,2.584685720e-12,1.047945634e-12,4.764142290e-13,1.572556573e-13,3.867021685e-13,5.756815059e-13,9.807025765e-13,1.712614199e-13,4.265514736e-13,4.500755146e-13,2.563132784e-13,8.899300581e-13,1.420960868e-13,1.423108162e-12,3.106277674e-13
0.52344,5.073612353e-13,8.623498652e-13,2.209184414e-12,1.500387418e-12,2.148647031e-12,2.167792680e-12,1.129861356e-12,6.670471377e-13,1.958146705e-13,5.827641068e-13,2.618368972e-13,1.547056323e-12,2.626226631e-12,1.039829894e-11,5.338137496e-12,4.969631754e-12,2.084453216e-12,2.606082444e-12,1.038287496e-12,4.840584045e-13,1.721979942e-13,3.338779056e-13,6.114540114e-13,1.004546686e-12,1.648585993e-13,4.473161354e-13,4.765722197e-13,2.773940242e-13,9.296722054e-13,1.401332201e-13,1.489012851e-12,3.264748785e-13
0.53125,5.159281735e-13,9.255293869e-13,2.286711165e-12,1.574144345e-12,2.225921796e-12,2.212756007e-12,1.172549268e-12,6.967427863e-13,2.137647550e-13,5.438916296e-13,2.724168294e-13,1.559728207e-12,2.604681661e-12,1.058231022e-11,5.544957211e-12,5.105688114e-12,2.177181288e-12,2.630848648e-12,1.049477942e-12,4.917589421e-13,1.904394968e-13,3.050469101e-13,6.493186675e-13,9.867301513e-13,1.619713859e-13,4.659595013e-13,5.010104104e-13,3.014072787e-13,9.525182860e-13,1.414726839e-13,1.574589265e-12,3.240316158e-13
0.53906,5.595350720e-13,1.000318849e-12,2.382760717e-12,1.645686066e-12,2.329243832e-12,2.269122694e-12,1.231993645e-12,7.251269876e-13,2.253235722e-13,4.884928600e-13,2.795728605e-13,1.564884292e-12,2.556326882e-12,1.083080352e-11,5.737033674e-12,5.223019222e-12,2.260450015e-12,2.648304569e-12,1.072653602e-12,4.981006254e-13,2.128192843e-13,3.207477435e-13,6.940751169e-13,9.339909319e-13,1.637653552e-13,4.820887881e-13,5.229313899e-13,3.187414212e-13,9.595308694e-13,1.459989487e-13,1.656808246e-12,3.106540919e-13
0.54688,6.357656307e-13,1.114456315e-12,2.494468571e-12,1.728109420e-12,2.448126824e-12,2.337754447e-12,1.306840025e-12,7.580195285e-13,2.399502437e-13,4.184503407e-13,2.846858978e-13,1.567028275e-12,2.478527625e-12,1.113211931e-11,5.911736454e-12,5.322697144e-12,2.344773998e-12,2.658834662e-12,1.105769569e-12,5.023017112e-13,2.360758620e-13,3.574166095e-13,7.479996102e-13,8.587662288e-13,1.679219242e-13,4.979311520e-13,5.421334239e-13,3.301095761e-13,9.654774493e-13,1.532491186e-13,1.758943908e-12,2.851002382e-13
0.55469,7.370166654e-13,1.258477620e-12,2.614775386e-12,1.817790153e-12,2.561022363e-12,2.413320025e-12,1.387906279e-12,7.935099179e-13,2.542996434e-13,3.448278873e-13,2.878479083e-13,1.556875183e-12,2.385906167e-12,1.146516682e-11,6.067832040e-12,5.409589831e-12,2.425731474e-12,2.657487717e-12,1.151211829e-12,5.076595473e-13,2.585845968e-13,4.276676577e-13,8.086377539e-13,7.743311655e-13,1.752538443e-13,5.153811723e-13,5.603361502e-13,3.297995520e-13,9.903274536e-13,1.617418750e-13,1.874624353e-12,2.530163011e-13
0.5625,8.329133466e-13,1.345756681e-12,2.711435023e-12,1.889219977e-12,2.654198208e-12,2.455316134e-12,1.465792951e-12,8.064002502e-13,2.680910460e-13,3.021106999e-13,2.880608993e-13,1.556439695e-12,2.280279577e-12,1.168451747e-11,6.207692149e-12,5.489882295e-12,2.485756966e-12,2.632630466e-12,1.165419837e-12,5.079232828e-13,2.849532869e-13,4.831734945e-13,8.677202935e-13,6.974404951e-13,1.836770787e-13,5.318578714e-13,5.788457620e-13,3.470260906e-13,9.743364343e-13,1.708894304e-13,1.949709885e-12,2.412803622e-13
0.57031,9.256955404e-13,1.420619506e-12,2.783102757e-12,1.955161015e-12,2.717498705e-12,2.475986488e-12,1.538764052e-12,8.069707266e-13,2.791474335e-13,2.759571222e-13,2.879885240e-13,1.550770987e-12,2.176693179e-12,1.182664242e-11,6.324267540e-12,5.562902326e-12,2.535008231e-12,2.589909806e-12,1.170230206e-12,5.125234588e-13,3.108208297e-13,5.433991879e-13,9.231220908e-13,6.355211507e-13,1.935250063e-13,5.526894185e-13,5.987660045e-13,3.599688222e-13,9.661262682e-13,1.804905133e-13,2.016713283e-12,2.442912558e-13
0.57812,1.003918431e-12,1.482136266e-12,2.824048471e-12,2.012391020e-12,2.738227533e-12,2.473047441e-12,1.598166620e-12,7.980051873e-13,2.850368812e-13,2.692015353e-13,2.873986528e-13,1.528609507e-12,2.090023582e-12,1.187879940e-11,6.417907816e-12,5.632201017e-12,2.573342614e-12,2.529724142e-12,1.169817775e-12,5.335977391e-13,3.336249828e-13,6.143756255e-13,9.734863849e-13,5.924102895e-13,2.043990439e-13,5.800382674e-13,6.215892350e-13,3.560398104e-13,9.897454439e-13,1.889625409e-13,2.075239832e-12,2.631520157e-13
0.58594,1.042707805e-12,1.490555302e-12,2.823231451e-12,2.056114946e-12,2.718651319e-12,2.435234210e-12,1.640164199e-12,7.761125730e-13,2.972508640e-13,2.837753965e-13,2.904589362e-13,1.507160742e-12,2.012142895e-12,1.178961626e-11,6.493576538e-12,5.697586519e-12,2.601430391e-12,2.454258496e-12,1.143166845e-12,5.703727418e-13,3.562264192e-13,6.373413228e-13,1.013410816e-12,5.685769865e-13,2.130104472e-13,6.116093284e-13,6.470745366e-13,3.639210238e-13,1.005226394e-12,1.954354291e-13,2.104939110e-12,3.010094051e-13
0.59375,1.051112376e-12,1.470685367e-12,2.792248788e-12,2.092951764e-12,2.665724215e-12,2.378296156e-12,1.667327229e-12,7.515444929e-13,3.119681980e-13,3.039939056e-13,2.976471249e-13,1.476553592e-12,1.949959401e-12,1.160896863e-11,6.550626141e-12,5.756597125e-12,2.624721523e-12,2.371025623e-12,1.109992282e-12,6.289415706e-13,3.766714060e-13,6.354289135e-13,1.042394913e-12,5.571745935e-13,2.211254848e-13,6.485969693e-13,6.741036627e-13,3.718221332e-13,1.031391365e-12,1.996188391e-13,2.120050915e-12,3.521274585e-13
0.60156,1.028059779e-12,1.408295568e-12,2.732891640e-12,2.117714561e-12,2.594278087e-12,2.300806825e-12,1.680313899e-12,7.201482045e-13,3.238227333e-13,3.339944631e-13,3.083488233e-13,1.442481540e-12,1.903740870e-12,1.132966925e-11,6.591352394e-12,5.809206770e-12,2.639648353e-12,2.282235016e-12,1.064187585e-12,7.080344400e-13,3.974299873e-13,6.114036731e-13,1.058803570e-12,5.469892133e-13,2.284794971e-13,6.888250545e-13,7.011835709e-13,3.835513878e-13,1.042727091e-12,2.008957459e-13,2.108464787e-12,4.226394148e-13
0.60938,9.826577683e-13,1.347917079e-12,2.657499106e-12,2.148420188e-12,2.520758908e-12,2.223604849e-12,1.686936974e-12,6.964267327e-13,3.412702551e-13,3.530844291e-13,3.257178177e-13,1.402520732e-12,1.866754006e-12,1.103264296e-11,6.609661265e-12,5.846202298e-12,2.658200429e-12,2.196430544e-12,1.022955796e-12,8.079833217e-13,4.176517809e-13,5.667491744e-13,1.068385340e-12,5.299448991e-13,2.330398999e-13,7.330957023e-13,7.265316365e-13,3.930150757e-13,1.059554954e-12,1.998259727e-13,2.100532947e-12,4.895425677e-13
0.61719,9.288428697e-13,1.306660040e-12,2.581993604e-12,2.184592517e-12,2.450137526e-12,2.152607492e-12,1.692211326e-12,6.817870316e-13,3.619683376e-13,3.568344272e-13,3.483734162e-13,1.349413418e-12,1.838618320e-12,1.075347256e-11,6.601223478e-12,5.864161499e-12,2.682006623e-12,2.117129914e-12,9.941662414e-13,9.284075637e-13,4.364743958e-13,5.240014632e-13,1.076717065e-12,5.062771958e-13,2.361689831e-13,7.807448585e-13,7.481532422e-13,3.888719499e-13,1.089621457e-12,1.978804623e-13,2.101767109e-12,5.452702359e-13
0.625,8.693310724e-13,1.248869088e-12,2.508357005e-12,2.216604747e-12,2.394961045e-12,2.078919633e-12,1.699625365e-12,6.671238968e-13,3.874051333e-13,3.547221599e-13,3.768083459e-13,1.298721176e-12,1.809750366e-12,1.046108566e-11,6.573360192e-12,5.867422559e-12,2.708490050e-12,2.045812343e-12,9.607310955e-13,1.051360055e-12,4.598941442e-13,4.653016476e-13,1.079339278e-12,4.746124600e-13,2.380750975e-13,8.261752901e-13,7.643056293e-13,3.976186453e-13,1.080257870e-12,1.965765385e-13,2.087131930e-12,5.983774649e-13
0.63281,8.295353903e-13,1.223364192e-12,2.442781750e-12,2.259235074e-12,2.364185160e-12,2.021461282e-12,1.715700484e-12,6.632242633e-13,4.149396432e-13,3.353352962e-13,4.084647745e-13,1.240283107e-12,1.778235616e-12,1.022406588e-11,6.527661766e-12,5.854621732e-12,2.745129395e-12,1.985587670e-12,9.471212608e-13,1.175203927e-12,4.854939444e-13,4.218711338e-13,1.081326652e-12,4.343025796e-13,2.397333119e-13,8.703674401e-13,7.744778464e-13,4.002437409e-13,1.069003834e-12,1.967850727e-13,2.089834486e-12,6.331360942e-13
0.64062,8.134904146e-13,1.224822792e-12,2.385261895e-12,2.307616980e-12,2.355575771e-12,1.975889264e-12,1.738779958e-12,6.650837070e-13,4.391485327e-13,3.059195249e-13,4.415675572e-13,1.174438067e-12,1.741355644e-12,1.002695856e-11,6.468132610e-12,5.829500287e-12,2.788193337e-12,1.934158102e-12,9.507141688e-13,1.297254477e-12,5.135284324e-13,4.036432693e-13,1.082526753e-12,3.908551893e-13,2.420847246e-13,9.129770620e-13,7.786708593e-13,3.902238530e-13,1.053941811e-12,1.986992637e-13,2.105212777e-12,6.519529908e-13
0.64844,8.166120464e-13,1.241086341e-12,2.334277151e-12,2.362769835e-12,2.367289387e-12,1.940967244e-12,1.767480661e-12,6.752205378e-13,4.697275687e-13,2.689404649e-13,4.791022605e-13,1.111062535e-12,1.692895925e-12,9.856320976e-12,6.398324962e-12,5.796514599e-12,2.841484289e-12,1.892957752e-12,9.662022277e-13,1.408617333e-12,5.453864596e-13,3.906741091e-13,1.080340424e-12,3.487669397e-13,2.447683404e-13,9.528385886e-13,7.778921831e-13,3.828271682e-13,1.025130597e-12,2.030600828e-13,2.125637286e-12,6.550770076e-13
0.65625,8.455354397e-13,1.275865941e-12,2.280652915e-12,2.419723575e-12,2.390368185e-12,1.912581540e-12,1.798934746e-12,6.908909834e-13,5.018420179e-13,2.293007201e-13,5.177296415e-13,1.045012547e-12,1.638613566e-12,9.704763920e-12,6.316661989e-12,5.758946676e-12,2.902075884e-12,1.859357966e-12,9.962536009e-13,1.511967191e-12,5.782068293e-13,3.964660372e-13,1.075984908e-12,3.110779326e-13,2.499688761e-13,9.907497849e-13,7.734694164e-13,3.668429739e-13,9.994851117e-13,2.101250858e-13,2.155401934e-12,6.486867267e-13
0.66406,8.912732098e-13,1.292062356e-12,2.215538590e-12,2.466404449e-12,2.418456676e-12,1.874131322e-12,1.824150280e-12,7.032978005e-13,5.315525455e-13,1.988875763e-13,5.555829283e-13,9.837327202e-13,1.582991589e-12,9.512715221e-12,6.231768102e-12,5.727636671e-12,2.966208747e-12,1.833364628e-12,1.026294348e-12,1.603871849e-12,6.148080878e-13,4.056050325e-13,1.063296516e-12,2.787358260e-13,2.594028628e-13,1.025453539e-12,7.671453081e-13,3.560453702e-13,9.512627040e-13,2.195519667e-13,2.173235267e-12,6.516062109e-13
0.67188,9.537534105e-13,1.318642321e-12,2.143489419e-12,2.517897188e-12,2.446793334e-12,1.836265665e-12,1.838813566e-12,7.256822371e-13,5.650832863e-13,1.719970559e-13,5.928896192e-13,9.222548579e-13,1.529914268e-12,9.302844203e-12,6.149693068e-12,5.707632113e-12,3.046596840e-12,1.818268501e-12,1.071337072e-12,1.701751678e-12,6.520377777e-13,4.199775876e-13,1.048227507e-12,2.508898471e-13,2.725351747e-13,1.062734191e-12,7.620267925e-13,3.412312048e-13,9.187083195e-13,2.309186651e-13,2.201132355e-12,6.560451702e-13
0.67969,1.018795326e-12,1.340971754e-12,2.058431853e-12,2.566146174e-12,2.465222618e-12,1.793027606e-12,1.840626287e-12,7.526293041e-13,5.984750032e-13,1.552285173e-13,6.312165147e-13,8.588042790e-13,1.481469359e-12,9.047720140e-12,6.071186520e-12,5.697353105e-12,3.136921546e-12,1.806956586e-12,1.121858288e-12,1.819334613e-12,6.896201688e-13,4.387431628e-13,1.030129558e-12,2.270577842e-13,2.892664791e-13,1.104681592e-12,7.586947294e-13,3.192989742e-13,8.995325546e-13,2.428913548e-13,2.230036100e-12,6.720850805e-13
0.6875,1.067036795e-12,1.327759339e-12,1.960325190e-12,2.603099623e-12,2.470016503e-12,1.737698969e-12,1.829181674e-12,7.767608684e-13,6.338493451e-13,1.534941580e-13,6.738054587e-13,8.023866441e-13,1.437326956e-12,8.721073670e-12,5.998730105e-12,5.696657057e-12,3.231395896e-12,1.798516494e-12,1.159172216e-12,1.949337068e-12,7.301055015e-13,4.402750902e-13,1.004513322e-12,2.053847147e-13,3.091227485e-13,1.146228548e-12,7.563655917e-13,3.093547202e-13,8.657726550e-13,2.548520511e-13,2.236208176e-12,7.104085645e-13
0.69531,1.103384035e-12,1.306722039e-12,1.855040671e-12,2.635129841e-12,2.458375129e-12,1.678575027e-12,1.805871941e-12,8.020889361e-13,6.696151017e-13,1.625382242e-13,7.168827899e-13,7.486770661e-13,1.404795522e-12,8.359128203e-12,5.930287794e-12,5.704515775e-12,3.332350458e-12,1.795299458e-12,1.193833147e-12,2.102197726e-12,7.683522771e-13,4.405638476e-13,9.797149161e-13,1.836950237e-13,3.320136262e-13,1.189026939e-12,7.564957121e-13,2.955720014e-13,8.466901080e-13,2.669410694e-13,2.238043827e-12,7.619596544e-13
0.70312,1.121952054e-12,1.266583838e-12,1.745093527e-12,2.657009273e-12,2.430746923e-12,1.613139649e-12,1.772897390e-12,8.259550570e-13,7.049279877e-13,1.829989380e-13,7.590211989e-13,7.010627549e-13,1.386897253e-12,7.958687576e-12,5.867438473e-12,5.719584327e-12,3.436259256e-12,1.796946220e-12,1.220446943e-12,2.276161043e-12,8.053400527e-13,4.380036015e-13,9.537447747e-13,1.625215577e-13,3.580384615e-13,1.233883097e-12,7.598754218e-13,2.827088216e-13,8.299555510e-13,2.791497184e-13,2.228341318e-12,8.295469739e-13
0.71094,1.121097114e-12,1.221218099e-12,1.640654271e-12,2.678446919e-12,2.394145588e-12,1.550325915e-12,1.736302741e-12,8.559095460e-13,7.505013163e-13,2.059041266e-13,8.021715520e-13,6.612192205e-13,1.381662095e-12,7.556105255e-12,5.810216514e-12,5.737501442e-12,3.548799970e-12,1.806526998e-12,1.242608684e-12,2.464163234e-12,8.406863422e-13,4.268474208e-13,9.289457545e-13,1.433673553e-13,3.862221848e-13,1.279845510e-12,7.659914346e-13,2.729010402e-13,8.223928636e-13,2.919725851e-13,2.213110563e-12,8.986769260e-13
0.71875,1.105664236e-12,1.175682851e-12,1.540476587e-12,2.696587553e-12,2.353931588e-12,1.490459062e-12,1.697484724e-12,8.906144976e-13,8.003743776e-13,2.302848368e-13,8.454173129e-13,6.250247038e-13,1.388552187e-12,7.156968467e-12,5.754440872e-12,5.754111803e-12,3.666747193e-12,1.821139256e-12,1.260858188e-12,2.662009069e-12,8.751387374e-13,4.179112797e-13,9.073537693e-13,1.250261038e-13,4.167080817e-13,1.325473518e-12,7.738195758e-13,2.600929212e-13,8.221340270e-13,3.051784127e-13,2.194700111e-12,9.681856439e-13
0.72656,1.075667151e-12,1.116350082e-12,1.446170854e-12,2.707124326e-12,2.317775151e-12,1.432255232e-12,1.656911030e-12,9.257755467e-13,8.509373986e-13,2.573415208e-13,8.878101396e-13,5.948580410e-13,1.403896754e-12,6.751677103e-12,5.701962753e-12,5.767549505e-12,3.786392003e-12,1.839032513e-12,1.268322005e-12,2.852544546e-12,9.129820280e-13,4.061873240e-13,8.865362507e-13,1.087120551e-13,4.484015328e-13,1.366652386e-12,7.824117148e-13,2.551447485e-13,8.072181365e-13,3.189226642e-13,2.162082093e-12,1.040445668e-12
0.73438,1.046320800e-12,1.076704093e-12,1.365072943e-12,2.721949137e-12,2.288952945e-12,1.386624941e-12,1.618966342e-12,9.712927991e-13,9.084906035e-13,2.769208481e-13,9.245913757e-13,5.694718257e-13,1.428443998e-12,6.383857838e-12,5.650147629e-12,5.772382445e-12,3.910781952e-12,1.861619469e-12,1.281570338e-12,3.032856913e-12,9.483255560e-13,3.968108615e-13,8.736213106e-13,9.656156933e-14,4.808333528e-13,1.402807812e-12,7.921592664e-13,2.450410731e-13,8.042943301e-13,3.348563943e-13,2.138587856e-12,1.091061898e-12
0.74219,1.021793432e-12,1.050002994e-12,1.292490533e-12,2.734004856e-12,2.266408890e-12,1.348619009e-12,1.583515344e-12,1.022984218e-12,9.698307310e-13,2.898416347e-13,9.543405893e-13,5.492627907e-13,1.463285470e-12,6.043070122e-12,5.593256184e-12,5.765228005e-12,4.031899608e-12,1.887115065e-12,1.299051068e-12,3.191486978e-12,9.799665265e-13,3.911417869e-13,8.663684783e-13,8.733977987e-14,5.156848583e-13,1.431871434e-12,8.023192425e-13,2.319780804e-13,8.049455591e-13,3.535035234e-13,2.119261689e-12,1.125172304e-12
0.75,9.985028582e-13,1.027721743e-12,1.229318300e-12,2.742316696e-12,2.252968797e-12,1.316989709e-12,1.548492922e-12,1.077724453e-12,1.038776784e-12,2.980401524e-13,9.787513145e-13,5.376361026e-13,1.505663795e-12,5.727514027e-12,5.530693435e-12,5.746879676e-12,4.148038359e-12,1.915488345e-12,1.315219292e-12,3.317671922e-12,1.010290100e-12,3.845167135e-13,8.622428767e-13,8.247508815e-14,5.515037297e-13,1.452306093e-12,8.123608848e-13,2.244642198e-13,7.992208832e-13,3.748073665e-13,2.095504889e-12,1.148371952e-12
0.75781,9.821497465e-13,1.020378233e-12,1.173873111e-12,2.745981650e-12,2.246285158e-12,1.292109677e-12,1.512423154e-12,1.139088672e-12,1.112266920e-12,3.033374697e-13,9.944052943e-13,5.329717538e-13,1.558046077e-12,5.441978028e-12,5.460489800e-12,5.716150201e-12,4.255092008e-12,1.941249967e-12,1.334932686e-12,3.419689325e-12,1.037466368e-12,3.849216316e-13,8.637772777e-13,8.199724342e-14,5.883786191e-13,1.466004579e-12,8.237925365e-13,2.134659003e-13,8.005335037e-13,3.991130230e-13,2.079118188e-12,1.161938645e-12
0.76562,9.675991886e-13,1.011488652e-12,1.120353798e-12,2.736097671e-12,2.240812678e-12,1.267849089e-12,1.474237280e-12,1.203817900e-12,1.185296805e-12,3.112646175e-13,1.001995057e-12,5.341811305e-13,1.618949434e-12,5.159733489e-12,5.380012967e-12,5.669812055e-12,4.344208910e-12,1.957465744e-12,1.348401614e-12,3.495402424e-12,1.062128521e-12,3.886243536e-13,8.694433325e-13,8.479804186e-14,6.276873915e-13,1.471660433e-12,8.360910224e-13,2.038995763e-13,7.979262379e-13,4.262624573e-13,2.059592232e-12,1.174885173e-12
0.77344,9.532695023e-13,1.008727516e-12,1.070152921e-12,2.718772406e-12,2.231699554e-12,1.247561487e-12,1.433709288e-12,1.277410127e-12,1.265106043e-12,3.182430679e-13,1.002345510e-12,5.422031383e-13,1.682929484e-12,4.890867240e-12,5.286821888e-12,5.604598395e-12,4.416465032e-12,1.964203621e-12,1.358432951e-12,3.552762237e-12,1.080094685e-12,3.909481471e-13,8.807968429e-13,9.136353535e-14,6.678401667e-13,1.469410935e-12,8.484343064e-13,1.927440349e-13,7.995117734e-13,4.564706734e-13,2.039946751e-12,1.176628617e-12
0.78125,9.383604175e-13,1.006454160e-12,1.020332371e-12,2.687800045e-12,2.213672206e-12,1.227764792e-12,1.389911125e-12,1.352793071e-12,1.342846960e-12,3.312837519e-13,9.953307679e-13,5.546035512e-13,1.749224047e-12,4.630786098e-12,5.179739126e-12,5.520011994e-12,4.463125702e-12,1.960017228e-12,1.363358183e-12,3.590975368e-12,1.090529418e-12,3.997230335e-13,8.947245846e-13,9.859396146e-14,7.090226884e-13,1.459576885e-12,8.620781703e-13,1.799033312e-13,8.038888102e-13,4.900226009e-13,2.016392991e-12,1.180497558e-12
0.78906,9.170208297e-13,9.916880517e-13,9.696380417e-13,2.638617826e-12,2.185594955e-12,1.205417212e-12,1.344478032e-12,1.421498326e-12,1.415243824e-12,3.567713868e-13,9.839578790e-13,5.704370461e-13,1.817272917e-12,4.372948343e-12,5.059780127e-12,5.417509385e-12,4.479845860e-12,1.944926585e-12,1.354798226e-12,3.599871447e-12,1.096961942e-12,4.154736959e-13,9.077712876e-13,1.059339929e-13,7.511210388e-13,1.442160396e-12,8.774902759e-13,1.722472191e-13,8.005261748e-13,5.270549415e-13,1.977924244e-12,1.196766000e-12
0.79688,8.923153641e-13,9.792251210e-13,9.197637718e-13,2.578398680e-12,2.145946916e-12,1.184632275e-12,1.298758522e-12,1.494156166e-12,1.488629890e-12,3.886706693e-13,9.662761798e-13,5.907825978e-13,1.890242865e-12,4.129162685e-12,4.925210415e-12,5.296673658e-12,4.471551860e-12,1.919378339e-12,1.340460231e-12,3.592081948e-12,1.097111338e-12,4.354859217e-13,9.222998973e-13,1.143530084e-13,7.927772906e-13,1.420047019e-12,8.947328635e-13,1.627363011e-13,8.030708766e-13,5.678599045e-13,1.937542744e-12,1.213979403e-12
0.80469,8.633069503e-13,9.602336419e-13,8.699938290e-13,2.503180319e-12,2.094212864e-12,1.161726249e-12,1.250561515e-12,1.565314969e-12,1.558512888e-12,4.302371138e-13,9.446172724e-13,6.149125412e-13,1.971226202e-12,3.887696007e-12,4.774506840e-12,5.155611024e-12,4.432707643e-12,1.880955486e-12,1.316965409e-12,3.563238942e-12,1.091689041e-12,4.602820311e-13,9.343390585e-13,1.227373496e-13,8.342969065e-13,1.392505608e-12,9.141066046e-13,1.550856115e-13,8.057954882e-13,6.119105436e-13,1.888970327e-12,1.234911642e-12
0.8125,8.299987167e-13,9.349648083e-13,8.208965719e-13,2.417131488e-12,2.032134871e-12,1.137484370e-12,1.199832431e-12,1.631801621e-12,1.628408896e-12,4.800016731e-13,9.228793454e-13,6.432651189e-13,2.057291019e-12,3.651461742e-12,4.607497742e-12,4.993014523e-12,4.363687982e-12,1.831150809e-12,1.285617998e-12,3.507430957e-12,1.080987485e-12,4.854460255e-13,9.416989216e-13,1.316868153e-13,8.744495772e-13,1.358925725e-12,9.354532234e-13,1.513128397e-13,8.075581129e-13,6.587239993e-13,1.829995590e-12,1.251706811e-12
0.82031,7.935126855e-13,9.105142960e-13,7.709759961e-13,2.321797154e-12,1.958587057e-12,1.113585260e-12,1.149500247e-12,1.698937181e-12,1.695233272e-12,5.376007035e-13,8.993204899e-13,6.729739974e-13,2.148852340e-12,3.423537930e-12,4.424636572e-12,4.811193216e-12,4.265828005e-12,1.770261138e-12,1.250997998e-12,3.428644209e-12,1.065375883e-12,5.145248429e-13,9.471205230e-13,1.406827248e-13,9.119786213e-13,1.320717653e-12,9.582557850e-13,1.461625718e-13,8.176944717e-13,7.082089407e-13,1.768674048e-12,1.265460612e-12
0.82812,7.519692757e-13,8.790073774e-13,7.220415500e-13,2.215666720e-12,1.876452936e-12,1.088148935e-12,1.100640558e-12,1.764928218e-12,1.756271032e-12,6.028696140e-13,8.754075882e-13,7.025791886e-13,2.246649484e-12,3.200181990e-12,4.230756552e-12,4.615552953e-12,4.142353260e-12,1.699447703e-12,1.207944245e-12,3.325049580e-12,1.047043797e-12,5.461985468e-13,9.481782377e-13,1.505385841e-13,9.460224267e-13,1.277409616e-12,9.817919030e-13,1.433300749e-13,8.294888708e-13,7.588618035e-13,1.699389652e-12,1.277851110e-12
0.83594,7.081917365e-13,8.483247240e-13,6.761143124e-13,2.108202494e-12,1.791215507e-12,1.064550843e-12,1.052731516e-12,1.838432571e-12,1.821281012e-12,6.647463717e-13,8.506507543e-13,7.354596433e-13,2.346968379e-12,2.992635136e-12,4.030229821e-12,4.409727689e-12,4.003403422e-12,1.623792821e-12,1.162119704e-12,3.209220295e-12,1.023442801e-12,5.666134600e-13,9.456465150e-13,1.635354736e-13,9.731441152e-13,1.230526112e-12,1.006886494e-12,1.404944859e-13,8.446732010e-13,8.091860711e-13,1.630556115e-12,1.273387862e-12
0.84375,6.627183728e-13,8.177358431e-13,6.306458711e-13,1.998357923e-12,1.705661369e-12,1.042360872e-12,1.007985391e-12,1.915298961e-12,1.884210969e-12,7.283986605e-13,8.263548373e-13,7.693623154e-13,2.447880754e-12,2.801424964e-12,3.824891833e-12,4.196087213e-12,3.847783605e-12,1.545326086e-12,1.116127081e-12,3.082118745e-12,9.969892757e-13,5.845624427e-13,9.399145771e-13,1.793503502e-13,9.930528971e-13,1.183185188e-12,1.035669173e-12,1.372744103e-13,8.660985362e-13,8.603331899e-13,1.564189810e-12,1.261496331e-12
0.85156,6.169558230e-13,7.874666949e-13,5.873025448e-13,1.888048806e-12,1.623245276e-12,1.022355298e-12,9.682020892e-13,1.991942417e-12,1.943521022e-12,7.936976172e-13,8.053873327e-13,8.037339824e-13,2.544730243e-12,2.628826530e-12,3.616845422e-12,3.976354534e-12,3.678143562e-12,1.464083973e-12,1.070132817e-12,2.943667718e-12,9.704944177e-13,6.029728395e-13,9.289588165e-13,1.966316913e-13,1.006917874e-12,1.137767796e-12,1.067335092e-12,1.355411432e-13,8.915643396e-13,9.124292816e-13,1.499202066e-12,1.245498144e-12
0.85938,5.740247059e-13,7.645169833e-13,5.473918752e-13,1.782663615e-12,1.545732283e-12,1.007215156e-12,9.315489812e-13,2.079621045e-12,2.003289113e-12,8.521671427e-13,7.849884955e-13,8.395590963e-13,2.631883344e-12,2.477379738e-12,3.406569587e-12,3.750018694e-12,3.498644757e-12,1.379492694e-12,1.024745476e-12,2.801878508e-12,9.425134813e-13,6.155466760e-13,9.153712408e-13,2.131402683e-13,1.013223775e-12,1.093279995e-12,1.099720477e-12,1.330219241e-13,9.208089877e-13,9.631980798e-13,1.443763558e-12,1.221112878e-12
0.86719,5.383766088e-13,7.446933212e-13,5.109691133e-13,1.679820030e-12,1.473239657e-12,9.944000651e-13,8.980199999e-13,2.172780483e-12,2.059252181e-12,9.106761445e-13,7.664210313e-13,8.755418762e-13,2.706625169e-12,2.342010636e-12,3.195214512e-12,3.518626570e-12,3.308890178e-12,1.293982960e-12,9.784673489e-13,2.650492290e-12,9.144578455e-13,6.290032704e-13,8.970686098e-13,2.280919267e-13,1.012300917e-12,1.047609724e-12,1.134370052e-12,1.326545075e-13,9.497994368e-13,1.013569374e-12,1.393049382e-12,1.194204512e-12
0.875,5.127969205e-13,7.300185214e-13,4.783683321e-13,1.582626436e-12,1.406313909e-12,9.849995968e-13,8.687861262e-13,2.272855675e-12,2.115209422e-12,9.701890472e-13,7.505612209e-13,9.134231375e-13,2.762969062e-12,2.225172813e-12,2.985848237e-12,3.287040013e-12,3.115925344e-12,1.210304384e-12,9.350595769e-13,2.492941564e-12,8.869678611e-13,6.366869628e-13,8.747075577e-13,2.403187732e-13,1.003810270e-12,1.002829496e-12,1.171864616e-12,1.347580453e-13,9.756658241e-13,1.065394338e-12,1.348705024e-12,1.156608515e-12
0.88281,4.958660207e-13,7.249857871e-13,4.483984985e-13,1.491300616e-12,1.345758916e-12,9.796815866e-13,8.432615823e-13,2.380622390e-12,2.164532243e-12,1.036941304e-12,7.352500254e-13,9.479019532e-13,2.802952687e-12,2.125115451e-12,2.781443630e-12,3.059949620e-12,2.920813261e-12,1.128300599e-12,8.953559320e-13,2.330380276e-12,8.616667922e-13,6.493301470e-13,8.515440077e-13,2.480363842e-13,9.886040759e-13,9.600816102e-13,1.209123849e-12,1.373592396e-13,1.005807766e-12,1.117139688e-12,1.316054687e-12,1.116153004e-12
0.89062,4.889924209e-13,7.277673937e-13,4.226070373e-13,1.404975764e-12,1.292675386e-12,9.748216746e-13,8.205564219e-13,2.489192473e-12,2.207456810e-12,1.113910798e-12,7.219162874e-13,9.785484756e-13,2.833763083e-12,2.037427559e-12,2.584833587e-12,2.840990112e-12,2.725997509e-12,1.050635890e-12,8.591375709e-13,2.161821998e-12,8.396663925e-13,6.712884237e-13,8.242591773e-13,2.546069687e-13,9.686294067e-13,9.185770892e-13,1.245441347e-12,1.413192329e-13,1.039425891e-12,1.168622348e-12,1.290479910e-12,1.078767223e-12
0.89844,4.908408118e-13,7.352867205e-13,4.003951578e-13,1.326040120e-12,1.245851502e-12,9.686162177e-13,7.980874020e-13,2.609040533e-12,2.255745611e-12,1.193015155e-12,7.108403249e-13,1.012020088e-12,2.855010730e-12,1.959317775e-12,2.396544991e-12,2.631021480e-12,2.535729825e-12,9.774351728e-13,8.248149307e-13,1.995037997e-12,8.200808981e-13,6.867675964e-13,7.936897188e-13,2.620507789e-13,9.425703600e-13,8.797295500e-13,1.282868558e-12,1.483681855e-13,1.068927268e-12,1.221639723e-12,1.272765187e-12,1.037058711e-12
0.90625,4.993469212e-13,7.476943927e-13,3.799693672e-13,1.253873783e-12,1.204179462e-12,9.587208500e-13,7.744959706e-13,2.733406647e-12,2.300060797e-12,1.282640904e-12,7.028316092e-13,1.043179332e-12,2.867241148e-12,1.881852238e-12,2.215945527e-12,2.429957347e-12,2.346358053e-12,9.064636136e-13,7.914762383e-13,1.829661386e-12,8.032556908e-13,7.073504785e-13,7.620489860e-13,2.686571177e-13,9.120309587e-13,8.455572195e-13,1.321887238e-12,1.573156764e-13,1.104880365e-12,1.275168640e-12,1.263328360e-12,1.000102227e-12
0.91406,5.132376925e-13,7.627820177e-13,3.630605903e-13,1.189205052e-12,1.167938458e-12,9.437084131e-13,7.518556207e-13,2.853918397e-12,2.340743652e-12,1.378989616e-12,6.986370401e-13,1.070778960e-12,2.871140049e-12,1.802081856e-12,2.044638421e-12,2.240717202e-12,2.162310471e-12,8.395126487e-13,7.596690614e-13,1.673169371e-12,7.890477096e-13,7.298815762e-13,7.311627009e-13,2.747815536e-13,8.787317478e-13,8.169254569e-13,1.361435303e-12,1.663692818e-13,1.147583170e-12,1.326324559e-12,1.259919760e-12,9.674225033e-13
0.92188,5.324296985e-13,7.830585076e-13,3.509671887e-13,1.133482746e-12,1.134858941e-12,9.267131830e-13,7.311775038e-13,2.978659419e-12,2.382802886e-12,1.472772931e-12,6.956057878e-13,1.095866096e-12,2.869599283e-12,1.727032530e-12,1.884608209e-12,2.065870757e-12,1.989312171e-12,7.783899743e-13,7.287104133e-13,1.533233301e-12,7.778099504e-13,7.529142418e-13,7.011017785e-13,2.816903787e-13,8.427939977e-13,7.937350079e-13,1.402018224e-12,1.775841345e-13,1.197961103e-12,1.374562241e-12,1.264932187e-12,9.417610614e-13
0.92969,5.583510904e-13,8.077562470e-13,3.435444899e-13,1.086277493e-12,1.103339689e-12,9.081645879e-13,7.126487648e-13,3.106915175e-12,2.425060715e-12,1.565888223e-12,6.944535098e-13,1.117348109e-12,2.861020215e-12,1.654942744e-12,1.736337083e-12,1.904718794e-12,1.826000999e-12,7.232652381e-13,6.988127596e-13,1.409090023e-12,7.690081510e-13,7.787480260e-13,6.674310854e-13,2.905854646e-13,8.051580163e-13,7.758213031e-13,1.443671725e-12,1.911264212e-13,1.256411584e-12,1.421610941e-12,1.273896625e-12,9.263539529e-13
0.9375,5.881524333e-13,8.295228861e-13,3.408571477e-13,1.046822121e-12,1.075453164e-12,8.866255586e-13,6.974353621e-13,3.244830309e-12,2.474003078e-12,1.650158154e-12,6.956384978e-13,1.139281454e-12,2.835231668e-12,1.584718494e-12,1.599447936e-12,1.756504469e-12,1.672207484e-12,6.748358541e-13,6.680127827e-13,1.302901630e-12,7.620336451e-13,7.924175702e-13,6.324759210e-13,2.995540811e-13,7.658654056e-13,7.636378554e-13,1.484752418e-12,2.079118461e-13,1.308748565e-12,1.467208502e-12,1.283440791e-12,9.137537554e-13
0.94531,6.221434956e-13,8.581823966e-13,3.440243053e-13,1.015635840e-12,1.053880235e-12,8.639184916e-13,6.862545555e-13,3.387034837e-12,2.520545399e-12,1.729488139e-12,6.963372331e-13,1.156110217e-12,2.792013565e-12,1.522865470e-12,1.473422205e-12,1.621435896e-12,1.528568625e-12,6.345134043e-13,6.395740212e-13,1.213818557e-12,7.572050232e-13,8.092776207e-13,5.999862891e-13,3.049835893e-13,7.278074149e-13,7.578518474e-13,1.524937457e-12,2.255047769e-13,1.368872364e-12,1.508526436e-12,1.299294903e-12,9.142001411e-13
0.95312,6.596010254e-13,8.906883924e-13,3.524952775e-13,9.920457205e-13,1.040253890e-12,8.404191691e-13,6.785850707e-13,3.527778902e-12,2.565527105e-12,1.802816557e-12,6.966934987e-13,1.166727095e-12,2.732600726e-12,1.467892977e-12,1.357363323e-12,1.498346177e-12,1.397074351e-12,6.026351711e-13,6.137899119e-13,1.142829292e-12,7.541738640e-13,8.274471331e-13,5.689419048e-13,3.065560661e-13,6.918022721e-13,7.568156784e-13,1.562458264e-12,2.429872733e-13,1.429803993e-12,1.545035581e-12,1.317284397e-12,9.267080595e-13
0.96094,7.010149057e-13,9.222570474e-13,3.662375710e-13,9.757581406e-13,1.035021811e-12,8.160734925e-13,6.725208397e-13,3.681660897e-12,2.620368867e-12,1.862682624e-12,6.964734611e-13,1.177140599e-12,2.658163044e-12,1.419999597e-12,1.249414615e-12,1.385016025e-12,1.278206758e-12,5.781300276e-13,5.877902309e-13,1.089095184e-12,7.527422984e-13,8.374661296e-13,5.382485595e-13,3.041216450e-13,6.566778964e-13,7.582536303e-13,1.595444214e-12,2.665294687e-13,1.475225259e-12,1.578910150e-12,1.335359833e-12,9.457081694e-13
0.96875,7.520275145e-13,9.614792289e-13,3.859940773e-13,9.658396550e-13,1.038471822e-12,7.883575992e-13,6.662097164e-13,3.841964273e-12,2.678714440e-12,1.923200803e-12,6.955977028e-13,1.184473935e-12,2.573222922e-12,1.374287737e-12,1.147593390e-12,1.279338635e-12,1.167780293e-12,5.594088232e-13,5.649023030e-13,1.047290795e-12,7.520937430e-13,8.521761922e-13,5.083231789e-13,2.977769725e-13,6.245699863e-13,7.628607600e-13,1.624388359e-12,2.928959563e-13,1.518109502e-12,1.611414238e-12,1.356985623e-12,9.775898191e-13
0.97656,8.112334265e-13,1.001929576e-12,4.102652890e-13,9.597356238e-13,1.049011902e-12,7.557418215e-13,6.597692785e-13,4.000882224e-12,2.737976996e-12,1.985059773e-12,6.946169036e-13,1.188469402e-12,2.476945792e-12,1.325572254e-12,1.050878230e-12,1.180740458e-12,1.064553356e-12,5.458703662e-13,5.430465181e-13,1.016106608e-12,7.529466440e-13,8.636337562e-13,4.818436751e-13,2.882653933e-13,5.949460676e-13,7.702903803e-13,1.647345994e-12,3.199403551e-13,1.548456431e-12,1.641504879e-12,1.377929714e-12,1.018458912e-12
0.98438,8.786962510e-13,1.050514601e-12,4.401368586e-13,9.600712836e-13,1.062149635e-12,7.221034112e-13,6.537829667e-13,4.158216613e-12,2.793725504e-12,2.048742860e-12,6.915146227e-13,1.187506272e-12,2.375582004e-12,1.278127886e-12,9.599984764e-13,1.091460861e-12,9.705853797e-13,5.382366093e-13,5.221691291e-13,9.941943738e-13,7.546860227e-13,8.791784788e-13,4.591454385e-13,2.766710599e-13,5.669986397e-13,7.791692844e-13,1.661951072e-12,3.496699881e-13,1.570915027e-12,1.666673001e-12,1.400101051e-12,1.074188059e-12
0.99219,9.542403627e-13,1.104325211e-12,4.757707210e-13,9.654029563e-13,1.076306782e-12,6.859810910e-13,6.477982171e-13,4.310212959e-12,2.848096408e-12,2.115496368e-12,6.873419833e-13,1.182003996e-12,2.275061463e-12,1.226638814e-12,8.762457033e-13,1.012543153e-12,8.851212882e-13,5.358405335e-13,5.020364603e-13,9.789968273e-13,7.548149025e-13,8.981306876e-13,4.388048978e-13,2.657781298e-13,5.424984922e-13,7.905713591e-13,1.668562419e-12,3.822630113e-13,1.587358741e-12,1.686212449e-12,1.420844454e-12,1.148314069e-12
1,1.034130366e-12,1.151959046e-12,5.158781451e-13,9.723509313e-13,1.090939124e-12,6.469923713e-13,6.419445935e-13,4.463534004e-12,2.908629926e-12,2.173329460e-12,6.832590781e-13,1.175749240e-12,2.176043580e-12,1.172026303e-12,7.992417496e-13,9.424667150e-13,8.074074827e-13,5.375035797e-13,4.795534212e-13,9.679713076e-13,7.539996681e-13,9.073749418e-13,4.215329306e-13,2.569131762e-13,5.224986832e-13,8.057471044e-13,1.669181849e-12,4.197050168e-13,1.585591227e-12,1.700628407e-12,1.435255198e-12,1.236829220e-12
1.0078,1.119515104e-12,1.206373292e-12,5.616505203e-13,9.833909691e-13,1.102083780e-12,6.078434162e-13,6.373912818e-13,4.610568845e-12,2.965080137e-12,2.230479737e-12,6.788855841e-13,1.163714555e-12,2.083073638e-12,1.117061700e-12,7.283721010e-13,8.805981148e-13,7.369677261e-13,5.428169181e-13,4.581412745e-13,9.615266497e-13,7.514392636e-13,9.215116467e-13,4.080939729e-13,2.507262232e-13,5.071002983e-13,8.255148165e-13,1.665834078e-12,4.551241736e-13,1.588641166e-12,1.709159260e-12,1.447917871e-12,1.346213621e-12
1.0156,1.204378140e-12,1.258818415e-12,6.109659642e-13,9.959110995e-13,1.108012483e-12,5.678857343e-13,6.351678545e-13,4.750777421e-12,3.018777388e-12,2.281134711e-12,6.747806288e-13,1.147357489e-12,1.994294767e-12,1.061127332e-12,6.633238171e-13,8.255642251e-13,6.725324202e-13,5.509847104e-13,4.357747310e-13,9.630874399e-13,7.459427679e-13,9.318686728e-13,3.971512198e-13,2.473662890e-13,4.947708851e-13,8.497061064e-13,1.657591815e-12,4.893564094e-13,1.592951065e-12,1.711207526e-12,1.453655133e-12,1.470044631e-12
1.0234,1.280455718e-12,1.301051965e-12,6.611944305e-13,1.007413834e-12,1.109566904e-12,5.289431524e-13,6.353759777e-13,4.891430576e-12,3.071190975e-12,2.312299239e-12,6.683084345e-13,1.128596146e-12,1.905978249e-12,1.012031415e-12,6.026699509e-13,7.744512616e-13,6.133441763e-13,5.609433939e-13,4.114440007e-13,9.732670551e-13,7.375045236e-13,9.319734782e-13,3.873105466e-13,2.460349240e-13,4.853663901e-13,8.764117619e-13,1.642857845e-12,5.277424440e-13,1.588838748e-12,1.705242634e-12,1.448813962e-12,1.602460022e-12
1.0312,1.345474124e-12,1.335125920e-12,7.113884465e-13,1.017240221e-12,1.107358438e-12,4.905951233e-13,6.379236538e-13,5.023049962e-12,3.115551153e-12,2.329427506e-12,6.591822959e-13,1.104088546e-12,1.817554002e-12,9.697596610e-13,5.456491709e-13,7.263647688e-13,5.578844800e-13,5.728936831e-13,3.879667039e-13,9.922436803e-13,7.247768569e-13,9.273895631e-13,3.786597546e-13,2.468608621e-13,4.791634743e-13,9.046573566e-13,1.621181289e-12,5.655583005e-13,1.583340530e-12,1.689722496e-12,1.433338765e-12,1.741898573e-12
1.0391,1.399724535e-12,1.355422901e-12,7.609325319e-13,1.024509854e-12,1.103457491e-12,4.528461051e-13,6.427913654e-13,5.152926915e-12,3.159260263e-12,2.328722380e-12,6.487852210e-13,1.077597241e-12,1.728749274e-12,9.371840441e-13,4.927501327e-13,6.823221585e-13,5.066748332e-13,5.883946360e-13,3.642841197e-13,1.019667470e-12,7.080298789e-13,9.117825010e-13,3.706130328e-13,2.475778551e-13,4.741805925e-13,9.349591559e-13,1.593173101e-12,6.047833175e-13,1.566988449e-12,1.666264510e-12,1.406119915e-12,1.881052800e-12
1.0469,1.448619031e-12,1.375216936e-12,8.111974581e-13,1.032417021e-12,1.101200270e-12,4.186536065e-13,6.487425236e-13,5.282843233e-12,3.198018038e-12,2.318592534e-12,6.355402996e-13,1.048107662e-12,1.639630564e-12,9.151428497e-13,4.440794618e-13,6.424646704e-13,4.606731469e-13,6.067414281e-13,3.431046747e-13,1.053356189e-12,6.868784895e-13,8.990731951e-13,3.640176366e-13,2.458493262e-13,4.707291362e-13,9.663853203e-13,1.560234559e-12,6.430125870e-13,1.550704408e-12,1.636033604e-12,1.375306043e-12,2.024796016e-12
1.0547,1.489719034e-12,1.389134569e-12,8.598703645e-13,1.038911181e-12,1.103793434e-12,3.865698575e-13,6.546630686e-13,5.406235000e-12,3.227626617e-12,2.300801749e-12,6.196581554e-13,1.014941110e-12,1.545661663e-12,8.976200773e-13,3.998240143e-13,6.062130941e-13,4.191925721e-13,6.262821598e-13,3.239274489e-13,1.089909121e-12,6.623117855e-13,8.842612798e-13,3.597823355e-13,2.413372740e-13,4.687112469e-13,9.969641597e-13,1.520166772e-12,6.821988270e-13,1.526108156e-12,1.598265335e-12,1.337899571e-12,2.166773647e-12
1.0625,1.523721942e-12,1.390336627e-12,9.051564029e-13,1.042272347e-12,1.110936022e-12,3.565059834e-13,6.602725369e-13,5.523625938e-12,3.249083375e-12,2.272600751e-12,6.007893641e-13,9.796684702e-13,1.447252182e-12,8.878226221e-13,3.607473242e-13,5.739527972e-13,3.827125436e-13,6.471028960e-13,3.053615891e-13,1.125000305e-12,6.366684873e-13,8.609163972e-13,3.566792879e-13,2.339931191e-13,4.663513006e-13,1.027511915e-12,1.470656516e-12,7.277360431e-13,1.477808807e-12,1.553465420e-12,1.291663848e-12,2.301924528e-12
1.0703,1.564087018e-12,1.395862989e-12,9.506635604e-13,1.045754468e-12,1.120353504e-12,3.300935607e-13,6.653355428e-13,5.621727040e-12,3.255023606e-12,2.252466214e-12,5.792721609e-13,9.396917559e-13,1.349538364e-12,8.819767645e-13,3.271645278e-13,5.459777090e-13,3.507373748e-13,6.675971827e-13,2.897593676e-13,1.156661966e-12,6.087164644e-13,8.453720170e-13,3.551837155e-13,2.272395832e-13,4.651431360e-13,1.058210872e-12,1.413710575e-12,7.704164556e-13,1.423062205e-12,1.503641167e-12,1.244077947e-12,2.445345662e-12
1.0781,1.614137246e-12,1.402635425e-12,9.983151924e-13,1.049490508e-12,1.130757309e-12,3.069922885e-13,6.695267523e-13,5.704089067e-12,3.253475358e-12,2.239982644e-12,5.570732852e-13,8.999608461e-13,1.252705751e-12,8.746422793e-13,2.984622307e-13,5.217644321e-13,3.229849296e-13,6.856604632e-13,2.749578909e-13,1.182185367e-12,5.795354077e-13,8.324498791e-13,3.557035669e-13,2.227578928e-13,4.656810385e-13,1.086909650e-12,1.351850060e-12,8.136415694e-13,1.357253496e-12,1.451532661e-12,1.192495682e-12,2.598144906e-12
1.0859,1.672064485e-12,1.411521546e-12,1.048819787e-12,1.053888852e-12,1.137355918e-12,2.875418322e-13,6.721715498e-13,5.775222257e-12,3.245392630e-12,2.234891410e-12,5.336712946e-13,8.617341203e-13,1.157925800e-12,8.655356420e-13,2.734977471e-13,5.007328690e-13,2.996711609e-13,7.002186875e-13,2.609144270e-13,1.201626572e-12,5.506177491e-13,8.237219503e-13,3.572446811e-13,2.194757548e-13,4.676639256e-13,1.115199333e-12,1.287176361e-12,8.591312274e-13,1.283527903e-12,1.398423419e-12,1.138854781e-12,2.758144631e-12
1.0938,1.733709780e-12,1.418979904e-12,1.099981180e-12,1.056065854e-12,1.134799442e-12,2.719180266e-13,6.750256779e-13,5.825909449e-12,3.224668522e-12,2.237462958e-12,5.097410742e-13,8.218770823e-13,1.066496917e-12,8.531967986e-13,2.512866416e-13,4.817587867e-13,2.793311797e-13,7.093267793e-13,2.486149690e-13,1.218135929e-12,5.212304112e-13,8.154755127e-13,3.589599785e-13,2.206997789e-13,4.722524829e-13,1.144625806e-12,1.219280454e-12,9.040844313e-13,1.207467585e-12,1.343472039e-12,1.081668685e-12,2.920248172e-12
1.1016,1.794701226e-12,1.414822336e-12,1.148474658e-12,1.053354699e-12,1.122328493e-12,2.605459976e-13,6.812981319e-13,5.856964727e-12,3.195175572e-12,2.238707827e-12,4.858756762e-13,7.825207131e-13,9.808249502e-13,8.397345691e-13,2.320501025e-13,4.648062091e-13,2.623895926e-13,7.131154328e-13,2.371994051e-13,1.232181491e-12,4.920580063e-13,7.997585339e-13,3.612732478e-13,2.290950030e-13,4.788544700e-13,1.172861977e-12,1.146626355e-12,9.521473345e-13,1.120889868e-12,1.286815841e-12,1.016493615e-12,3.076302034e-12
1.1094,1.856230992e-12,1.410416002e-12,1.195367334e-12,1.049235767e-12,1.100732818e-12,2.538177240e-13,6.904837575e-13,5.863975568e-12,3.154557392e-12,2.245986165e-12,4.617358238e-13,7.434990587e-13,9.037638649e-13,8.246745029e-13,2.167532772e-13,4.513052263e-13,2.500679174e-13,7.133403907e-13,2.282346022e-13,1.247555257e-12,4.622758196e-13,7.893573275e-13,3.649734551e-13,2.449626556e-13,4.873290270e-13,1.198825602e-12,1.072330871e-12,9.944273330e-13,1.039429519e-12,1.229527671e-12,9.504330137e-13,3.227982837e-12
1.1172,1.908952128e-12,1.397738975e-12,1.238307375e-12,1.043812507e-12,1.071726888e-12,2.506070199e-13,7.002339774e-13,5.857823606e-12,3.110960356e-12,2.249151532e-12,4.382265031e-13,7.071327660e-13,8.322968276e-13,8.107005787e-13,2.053578165e-13,4.414051054e-13,2.426609035e-13,7.108978181e-13,2.216335688e-13,1.267482196e-12,4.324401217e-13,7.746737789e-13,3.686226154e-13,2.679264015e-13,4.969148965e-13,1.221050609e-12,9.996982878e-13,1.036697947e-12,9.613502403e-13,1.172702243e-12,8.832676245e-13,3.359128774e-12
1.125,1.946529196e-12,1.371485439e-12,1.274056760e-12,1.037444943e-12,1.038792677e-12,2.508701004e-13,7.098660175e-13,5.846020978e-12,3.065999951e-12,2.238499083e-12,4.150089297e-13,6.735712463e-13,7.647339072e-13,8.019896096e-13,1.973904214e-13,4.348668461e-13,2.412061217e-13,7.072624639e-13,2.178072845e-13,1.295829576e-12,4.045359290e-13,7.508485661e-13,3.721067556e-13,2.966881950e-13,5.060130214e-13,1.236370757e-12,9.288784248e-13,1.083259255e-12,8.828353088e-13,1.116018006e-12,8.156703238e-13,3.459775646e-12
1.1328,1.969954709e-12,1.338755422e-12,1.302035672e-12,1.031584885e-12,1.006841211e-12,2.541079915e-13,7.184652788e-13,5.816077929e-12,3.009431914e-12,2.219598181e-12,3.926870044e-13,6.398547127e-13,7.024496988e-13,7.981865683e-13,1.930827953e-13,4.318120900e-13,2.459837113e-13,7.034951068e-13,2.180324071e-13,1.337982550e-12,3.791499920e-13,7.242043298e-13,3.767105827e-13,3.332827103e-13,5.147309834e-13,1.245107970e-12,8.606730491e-13,1.126422635e-12,8.124783372e-13,1.057779022e-12,7.514879829e-13,3.531015910e-12
1.1406,1.978135898e-12,1.295815784e-12,1.320171161e-12,1.026457111e-12,9.794733167e-13,2.588108753e-13,7.231736338e-13,5.773698596e-12,2.945605670e-12,2.187806949e-12,3.718548289e-13,6.079519884e-13,6.471722719e-13,7.998458514e-13,1.922482193e-13,4.313920219e-13,2.568925135e-13,6.987282507e-13,2.203677629e-13,1.393443850e-12,3.575510512e-13,6.898635850e-13,3.820183540e-13,3.780286199e-13,5.210614566e-13,1.248167227e-12,7.964836353e-13,1.171089526e-12,7.440620955e-13,9.991931643e-13,6.908783182e-13,3.563205422e-12
1.1484,1.978494813e-12,1.252937871e-12,1.329238156e-12,1.025066473e-12,9.581415016e-13,2.661828665e-13,7.216980762e-13,5.720014185e-12,2.874126085e-12,2.149551933e-12,3.521837141e-13,5.771658439e-13,5.998638009e-13,8.033576471e-13,1.941467420e-13,4.330657638e-13,2.737748305e-13,6.919088364e-13,2.234985939e-13,1.461773055e-12,3.394045636e-13,6.562219143e-13,3.875577326e-13,4.286979538e-13,5.236746310e-13,1.243594153e-12,7.363839515e-13,1.211594560e-12,6.818733231e-13,9.417798884e-13,6.372854550e-13,3.566351855e-12
1.1562,1.975695713e-12,1.209288796e-12,1.330702188e-12,1.027778333e-12,9.459104156e-13,2.762115951e-13,7.140872249e-13,5.656401689e-12,2.797901856e-12,2.104987273e-12,3.354693802e-13,5.480408517e-13,5.585755222e-13,8.085791329e-13,1.986673777e-13,4.377088022e-13,2.968498051e-13,6.848502481e-13,2.278979192e-13,1.539403348e-12,3.255040305e-13,6.205849984e-13,3.935096596e-13,4.847743384e-13,5.237361636e-13,1.233104943e-12,6.805369208e-13,1.253093746e-12,6.252211330e-13,8.854201223e-13,5.899879980e-13,3.546544750e-12
1.1641,1.974008507e-12,1.166455474e-12,1.327912775e-12,1.037377852e-12,9.434240948e-13,2.884898756e-13,7.009143027e-13,5.582932578e-12,2.719005149e-12,2.055594475e-12,3.222667813e-13,5.216040782e-13,5.223423154e-13,8.136403947e-13,2.054445301e-13,4.459863929e-13,3.276406257e-13,6.781687178e-13,2.328230169e-13,1.626679869e-12,3.181249377e-13,5.820437124e-13,3.999824308e-13,5.459733253e-13,5.212850956e-13,1.218812340e-12,6.313122660e-13,1.300248745e-12,5.729618129e-13,8.316737772e-13,5.515899603e-13,3.503271467e-12
1.1719,1.980069040e-12,1.137678925e-12,1.326417261e-12,1.057569576e-12,9.469941847e-13,3.057948571e-13,6.826788434e-13,5.482840549e-12,2.628282013e-12,2.016366313e-12,3.116374445e-13,4.956803784e-13,4.911174826e-13,8.106695779e-13,2.134544240e-13,4.573134825e-13,3.664261461e-13,6.696962899e-13,2.378584464e-13,1.728935672e-12,3.169434855e-13,5.517947665e-13,4.056313667e-13,6.146988541e-13,5.168415387e-13,1.198030031e-12,5.894337495e-13,1.341061415e-12,5.318442118e-13,7.811343882e-13,5.238344482e-13,3.448148373e-12
1.1797,1.993329984e-12,1.115077101e-12,1.326811483e-12,1.086196468e-12,9.558538671e-13,3.295138298e-13,6.604853198e-13,5.365209667e-12,2.532386960e-12,1.984204575e-12,3.039256056e-13,4.723363604e-13,4.658102806e-13,8.032710712e-13,2.231908794e-13,4.723029623e-13,4.135132221e-13,6.612615628e-13,2.434837658e-13,1.842133657e-12,3.217897328e-13,5.235378656e-13,4.100842127e-13,6.912920213e-13,5.110013515e-13,1.171299930e-12,5.521699352e-13,1.383661950e-12,4.938025806e-13,7.332147985e-13,5.021433377e-13,3.380621430e-12
1.1875,2.018187618e-12,1.102208230e-12,1.329419035e-12,1.124590220e-12,9.718211111e-13,3.596841070e-13,6.362175721e-13,5.238725489e-12,2.434480788e-12,1.962392311e-12,3.003872970e-13,4.517359598e-13,4.475359758e-13,7.934797863e-13,2.360425931e-13,4.928042226e-13,4.696933577e-13,6.546076927e-13,2.502884792e-13,1.965979390e-12,3.330214016e-13,4.996593030e-13,4.146771739e-13,7.749036305e-13,5.047915659e-13,1.141256591e-12,5.196965558e-13,1.426735200e-12,4.599058506e-13,6.887097491e-13,4.899668317e-13,3.306258066e-12
1.1953,2.054591941e-12,1.101727176e-12,1.334853733e-12,1.173594951e-12,9.947478169e-13,3.956200279e-13,6.118285768e-13,5.095490904e-12,2.331560363e-12,1.954708125e-12,3.015863176e-13,4.333077850e-13,4.349031697e-13,7.791481810e-13,2.512558544e-13,5.179172015e-13,5.341059267e-13,6.484788231e-13,2.599356762e-13,2.103388634e-12,3.513348920e-13,4.821062327e-13,4.191956147e-13,8.675464146e-13,4.995048281e-13,1.107709499e-12,4.946199161e-13,1.468772027e-12,4.341558778e-13,6.483120725e-13,4.887034068e-13,3.226271863e-12
1.2031,2.097737642e-12,1.109478332e-12,1.344045856e-12,1.233239310e-12,1.023011244e-12,4.375266165e-13,5.871933255e-13,4.937130289e-12,2.227256699e-12,1.955883896e-12,3.063662467e-13,4.180948571e-13,4.279011736e-13,7.630706365e-13,2.679374724e-13,5.461962583e-13,6.069896198e-13,6.435311148e-13,2.734335714e-13,2.257966044e-12,3.769070539e-13,4.660112035e-13,4.229282725e-13,9.686180317e-13,4.945469829e-13,1.070340028e-12,4.762738967e-13,1.513879090e-12,4.129463742e-13,6.117845759e-13,4.965343162e-13,3.135590545e-12
1.2109,2.145414217e-12,1.131092768e-12,1.356156129e-12,1.304678320e-12,1.056406760e-12,4.855015356e-13,5.612900179e-13,4.763810163e-12,2.119150153e-12,1.968352467e-12,3.144897713e-13,4.035105091e-13,4.272278932e-13,7.465831907e-13,2.877003239e-13,5.792919667e-13,6.887726351e-13,6.409895320e-13,2.911813847e-13,2.436840233e-12,4.088295960e-13,4.555028822e-13,4.253084800e-13,1.077796902e-12,4.893057269e-13,1.030418557e-12,4.626770791e-13,1.550749885e-12,3.981675581e-13,5.776326612e-13,5.146955879e-13,3.040582546e-12
1.2188,2.187781929e-12,1.154627418e-12,1.364428712e-12,1.381991212e-12,1.095599002e-12,5.355345267e-13,5.349146227e-13,4.585830479e-12,2.012017761e-12,1.981484884e-12,3.261394942e-13,3.898293878e-13,4.322982452e-13,7.334798677e-13,3.113119492e-13,6.179468561e-13,7.777689286e-13,6.411251385e-13,3.116898508e-13,2.636166674e-12,4.473563149e-13,4.427482385e-13,4.271146484e-13,1.191604745e-12,4.822654480e-13,9.898880611e-13,4.538216067e-13,1.588802345e-12,3.863936106e-13,5.448512826e-13,5.405345696e-13,2.931883938e-12
1.2266,2.223562449e-12,1.179130236e-12,1.368858000e-12,1.462708790e-12,1.139519552e-12,5.865198132e-13,5.081919993e-13,4.407486004e-12,1.908422000e-12,1.992471143e-12,3.409507635e-13,3.776658549e-13,4.422137010e-13,7.229710280e-13,3.377637766e-13,6.610680221e-13,8.728936432e-13,6.430577616e-13,3.327397463e-13,2.854506536e-12,4.913871591e-13,4.273481128e-13,4.291971061e-13,1.301808073e-12,4.721085158e-13,9.473203415e-13,4.498781256e-13,1.628680127e-12,3.774360669e-13,5.138896146e-13,5.725358734e-13,2.809903199e-12
1.2344,2.255342537e-12,1.211169720e-12,1.371046513e-12,1.549709717e-12,1.188779872e-12,6.397000140e-13,4.793777626e-13,4.221519831e-12,1.803991580e-12,2.003052304e-12,3.595468798e-13,3.653798322e-13,4.553995596e-13,7.134499914e-13,3.676710596e-13,7.095993562e-13,9.750395434e-13,6.464375225e-13,3.545075143e-13,3.097287196e-12,5.397023216e-13,4.146672852e-13,4.312455585e-13,1.403593614e-12,4.594841163e-13,9.030241417e-13,4.500902153e-13,1.660893099e-12,3.759843196e-13,4.837258397e-13,6.105453114e-13,2.682983427e-12
1.2422,2.279236847e-12,1.243670885e-12,1.367741300e-12,1.643102455e-12,1.244643837e-12,6.949985164e-13,4.483669366e-13,4.034041464e-12,1.702415055e-12,2.001236970e-12,3.810701824e-13,3.533588092e-13,4.717144235e-13,7.091182315e-13,4.018750161e-13,7.641161990e-13,1.085700065e-12,6.515265142e-13,3.762802162e-13,3.365091248e-12,5.928523591e-13,3.977787206e-13,4.340821241e-13,1.494858637e-12,4.444386826e-13,8.611994701e-13,4.545488162e-13,1.692197641e-12,3.795920030e-13,4.534909897e-13,6.536638527e-13,2.545585239e-12
1.25,2.296807036e-12,1.279990481e-12,1.362707729e-12,1.741509939e-12,1.303989320e-12,7.528891529e-13,4.159347145e-13,3.846359140e-12,1.603887812e-12,1.988838009e-12,4.040371171e-13,3.412899216e-13,4.903078503e-13,7.075274662e-13,4.393812014e-13,8.224367356e-13,1.202779758e-12,6.564453703e-13,3.972115305e-13,3.656921791e-12,6.497671803e-13,3.787421320e-13,4.374690778e-13,1.571451414e-12,4.273599018e-13,8.203916455e-13,4.628317959e-13,1.719808902e-12,3.867313337e-13,4.242526053e-13,7.003188089e-13,2.404443901e-12
1.2578,2.308701017e-12,1.315960285e-12,1.358022291e-12,1.840427983e-12,1.366157975e-12,8.117807002e-13,3.822787425e-13,3.661566875e-12,1.509595198e-12,1.966585062e-12,4.282853837e-13,3.299521752e-13,5.083762338e-13,7.085281445e-13,4.799618677e-13,8.834132021e-13,1.322480841e-12,6.604885009e-13,4.164197848e-13,3.963415063e-12,7.094593762e-13,3.573228369e-13,4.416760439e-13,1.628623206e-12,4.085880227e-13,7.791999248e-13,4.726718766e-13,1.749466113e-12,3.952068585e-13,3.963442325e-13,7.461868893e-13,2.261940882e-12
1.2656,2.320441958e-12,1.353270646e-12,1.352413188e-12,1.940596317e-12,1.435060876e-12,8.728990760e-13,3.492615231e-13,3.482814674e-12,1.420367794e-12,1.936939582e-12,4.530855994e-13,3.196562798e-13,5.256754584e-13,7.147622149e-13,5.245580387e-13,9.480165147e-13,1.446425253e-12,6.654829437e-13,4.359506798e-13,4.278888214e-12,7.718214284e-13,3.329939648e-13,4.466376313e-13,1.670668283e-12,3.886175923e-13,7.416296733e-13,4.835464377e-13,1.776954532e-12,4.050085948e-13,3.698766867e-13,7.941798669e-13,2.119205250e-12
1.2734,2.338564392e-12,1.402261401e-12,1.349275115e-12,2.046553010e-12,1.510682144e-12,9.381618083e-13,3.180195914e-13,3.302773730e-12,1.333144051e-12,1.908657485e-12,4.777030738e-13,3.094341987e-13,5.422126549e-13,7.235686144e-13,5.739671584e-13,1.016969665e-12,1.576571831e-12,6.719214809e-13,4.593091129e-13,4.604145950e-12,8.363561444e-13,3.117136212e-13,4.511277457e-13,1.701762021e-12,3.693020833e-13,7.079636580e-13,4.956828175e-13,1.792129530e-12,4.186918759e-13,3.454499018e-13,8.478111051e-13,1.984090310e-12
1.2812,2.362907407e-12,1.455261160e-12,1.350561849e-12,2.155939163e-12,1.590498411e-12,1.006003745e-12,2.878523511e-13,3.126387705e-12,1.252376983e-12,1.877793553e-12,5.012639702e-13,3.005123546e-13,5.567558993e-13,7.357716196e-13,6.285234277e-13,1.089347482e-12,1.711494609e-12,6.786933520e-13,4.845889870e-13,4.929509870e-12,9.025458690e-13,2.900338075e-13,4.566351451e-13,1.718606061e-12,3.510254920e-13,6.756229768e-13,5.068865754e-13,1.808188479e-12,4.301594628e-13,3.234482760e-13,9.016028676e-13,1.853927450e-12
1.2891,2.397754402e-12,1.515148441e-12,1.357263509e-12,2.266748892e-12,1.674419060e-12,1.077325206e-12,2.597502426e-13,2.956306323e-12,1.177455805e-12,1.850309711e-12,5.239015431e-13,2.927917598e-13,5.696174494e-13,7.501733060e-13,6.868224516e-13,1.163058530e-12,1.849857880e-12,6.847078974e-13,5.119658901e-13,5.248847626e-12,9.688374604e-13,2.699244003e-13,4.629505479e-13,1.724906814e-12,3.341441534e-13,6.456563816e-13,5.161103981e-13,1.820570782e-12,4.385682654e-13,3.042200412e-13,9.553130390e-13,1.733379594e-12
1.2969,2.443334952e-12,1.585407058e-12,1.369226157e-12,2.378568164e-12,1.762732140e-12,1.151968539e-12,2.349794451e-13,2.787989183e-12,1.104969527e-12,1.831963557e-12,5.468635472e-13,2.860784307e-13,5.815115824e-13,7.632046247e-13,7.478278231e-13,1.237302939e-12,1.989597160e-12,6.893561490e-13,5.422871310e-13,5.557779974e-12,1.034916273e-12,2.549899808e-13,4.696984606e-13,1.725298827e-12,3.196307559e-13,6.196807469e-13,5.240955239e-13,1.826821987e-12,4.473042750e-13,2.877811507e-13,1.010884065e-12,1.624819158e-12
1.3047,2.499687509e-12,1.663356220e-12,1.385621882e-12,2.490460340e-12,1.851767840e-12,1.228316808e-12,2.134361157e-13,2.622218291e-12,1.036651505e-12,1.819737777e-12,5.682483133e-13,2.798841581e-13,5.931501982e-13,7.753028898e-13,8.119846427e-13,1.311706117e-12,2.130016830e-12,6.925305218e-13,5.757336389e-13,5.850103533e-12,1.100717992e-12,2.424317798e-13,4.772721507e-13,1.715980821e-12,3.070920170e-13,5.959928419e-13,5.305721605e-13,1.829271818e-12,4.553331995e-13,2.742779144e-13,1.067718537e-12,1.522890524e-12
1.3125,2.564230198e-12,1.749579175e-12,1.405782485e-12,2.599250311e-12,1.934735637e-12,1.303218394e-12,1.948788372e-13,2.458682695e-12,9.712353832e-13,1.814020492e-12,5.866679417e-13,2.726616110e-13,6.040882658e-13,7.846472200e-13,8.784359847e-13,1.384817223e-12,2.268103834e-12,6.930964062e-13,6.121744494e-13,6.125606368e-12,1.164212354e-12,2.341355452e-13,4.846092202e-13,1.692951264e-12,2.963187141e-13,5.737273047e-13,5.347710780e-13,1.819891171e-12,4.635718480e-13,2.632575930e-13,1.124002279e-12,1.433004186e-12
1.3203,2.623017281e-12,1.830102131e-12,1.426730924e-12,2.700193075e-12,2.008952956e-12,1.373648845e-12,1.795201465e-13,2.302540243e-12,9.105338916e-13,1.805841181e-12,6.034763569e-13,2.655976048e-13,6.143684162e-13,7.919842053e-13,9.473139673e-13,1.457562028e-12,2.399991753e-12,6.904924694e-13,6.459981097e-13,6.379643017e-12,1.224800915e-12,2.271417740e-13,4.938535888e-13,1.657994551e-12,2.871305227e-13,5.551150143e-13,5.357099636e-13,1.810579488e-12,4.678382849e-13,2.538429711e-13,1.173183002e-12,1.356083045e-12
1.3281,2.673265429e-12,1.907072902e-12,1.449550258e-12,2.796314531e-12,2.073822294e-12,1.442915757e-12,1.681548982e-13,2.154545608e-12,8.554145666e-13,1.793199881e-12,6.183648960e-13,2.591701452e-13,6.264376984e-13,7.985904086e-13,1.019874007e-12,1.532133717e-12,2.529527914e-12,6.862992203e-13,6.780075011e-13,6.616233376e-12,1.281405316e-12,2.199509788e-13,5.056240016e-13,1.612397970e-12,2.797828649e-13,5.403982827e-13,5.335674335e-13,1.798579119e-12,4.693180772e-13,2.459678059e-13,1.216135360e-12,1.290012177e-12
1.3359,2.715010460e-12,1.984026762e-12,1.473915845e-12,2.886734844e-12,2.125933421e-12,1.509177010e-12,1.607026358e-13,2.010650560e-12,8.042173761e-13,1.775249676e-12,6.311972631e-13,2.532877300e-13,6.399045516e-13,8.006783571e-13,1.094648027e-12,1.606845653e-12,2.656144321e-12,6.795989970e-13,7.092825779e-13,6.841953047e-12,1.332004139e-12,2.147991264e-13,5.191998241e-13,1.551699929e-12,2.753632739e-13,5.275567678e-13,5.293845306e-13,1.777915007e-12,4.712076270e-13,2.389961021e-13,1.253326207e-12,1.234928066e-12
1.3438,2.739251510e-12,2.045027811e-12,1.495631576e-12,2.965231155e-12,2.164088243e-12,1.568054243e-12,1.566926506e-13,1.875468241e-12,7.595949226e-13,1.741723722e-12,6.419472518e-13,2.484074404e-13,6.527964705e-13,7.999990095e-13,1.169872196e-12,1.678637264e-12,2.773999234e-12,6.687104947e-13,7.356079944e-13,7.050641363e-12,1.375971293e-12,2.070373254e-13,5.355982440e-13,1.474508845e-12,2.734255000e-13,5.161987674e-13,5.229612708e-13,1.757883943e-12,4.697066279e-13,2.324478158e-13,1.280196149e-12,1.183015952e-12
1.3516,2.742769395e-12,2.092496109e-12,1.515454169e-12,3.034222139e-12,2.189852498e-12,1.621028041e-12,1.562219376e-13,1.747969927e-12,7.199033019e-13,1.695282591e-12,6.495316169e-13,2.440894692e-13,6.645876750e-13,7.979712698e-13,1.245051256e-12,1.746874583e-12,2.882284900e-12,6.546633933e-13,7.583460214e-13,7.241982960e-12,1.413334638e-12,1.974606111e-13,5.533386644e-13,1.384706000e-12,2.728717355e-13,5.056779472e-13,5.144232269e-13,1.732147300e-12,4.673864793e-13,2.264410356e-13,1.298840900e-12,1.131873571e-12
1.3594,2.725271524e-12,2.127536284e-12,1.532590444e-12,3.094416654e-12,2.204749095e-12,1.667422252e-12,1.585472823e-13,1.625888440e-12,6.842076130e-13,1.637452351e-12,6.539378595e-13,2.410712898e-13,6.746669724e-13,7.938364939e-13,1.319632158e-12,1.811142031e-12,2.978851130e-12,6.382647397e-13,7.767047122e-13,7.412517447e-12,1.444883953e-12,1.871560989e-13,5.728170267e-13,1.288083440e-12,2.733746569e-13,4.946641010e-13,5.039125487e-13,1.704167835e-12,4.624787299e-13,2.203608348e-13,1.308828979e-12,1.081923362e-12
1.3672,2.691565669e-12,2.151086691e-12,1.547760711e-12,3.144192362e-12,2.209194873e-12,1.709575389e-12,1.631017407e-13,1.513110364e-12,6.550865484e-13,1.569239557e-12,6.554694625e-13,2.388265961e-13,6.841205364e-13,7.916260876e-13,1.392935602e-12,1.869942318e-12,3.062404609e-12,6.203476927e-13,7.917776071e-13,7.554794715e-12,1.469320978e-12,1.741453930e-13,5.946570455e-13,1.188500832e-12,2.749850591e-13,4.839333145e-13,4.914771835e-13,1.674060643e-12,4.551356679e-13,2.143958822e-13,1.312202884e-12,1.029505928e-12
1.375,2.645819664e-12,2.168508336e-12,1.565307753e-12,3.184584966e-12,2.203530458e-12,1.749053146e-12,1.702438495e-13,1.410304811e-12,6.316031834e-13,1.496892996e-12,6.541239784e-13,2.369050288e-13,6.932269190e-13,7.905003732e-13,1.463243662e-12,1.922444488e-12,3.132459961e-12,6.014433049e-13,8.058146121e-13,7.662749962e-12,1.486563197e-12,1.613319318e-13,6.178819041e-13,1.086253788e-12,2.782687392e-13,4.738433199e-13,4.778063246e-13,1.637200784e-12,4.490099895e-13,2.089634368e-13,1.310557124e-12,9.772360777e-13
1.3828,2.584777844e-12,2.171565371e-12,1.583040060e-12,3.216222684e-12,2.191808737e-12,1.783470800e-12,1.805127067e-13,1.316361964e-12,6.141628858e-13,1.419276699e-12,6.493260250e-13,2.368806203e-13,7.012990709e-13,7.896778203e-13,1.528673831e-12,1.968119467e-12,3.186707487e-12,5.819986121e-13,8.160458255e-13,7.725183713e-12,1.499130879e-12,1.475248055e-13,6.431434778e-13,9.843888758e-13,2.833741475e-13,4.637340993e-13,4.623293928e-13,1.602873933e-12,4.400098264e-13,2.032269887e-13,1.300574980e-12,9.247765135e-13
1.3906,2.513469041e-12,2.168634326e-12,1.599555025e-12,3.241250262e-12,2.176240826e-12,1.814964604e-12,1.944225429e-13,1.226855313e-12,6.016526123e-13,1.341445805e-12,6.415029244e-13,2.389936185e-13,7.096657939e-13,7.896807273e-13,1.587830777e-12,2.004941550e-12,3.225991961e-12,5.626615900e-13,8.252002356e-13,7.742656955e-12,1.506325435e-12,1.338711175e-13,6.683915045e-13,8.875511612e-13,2.900388744e-13,4.538311080e-13,4.455865963e-13,1.562337580e-12,4.308979752e-13,1.972669902e-13,1.287674241e-12,8.719432215e-13
1.3984,2.436334128e-12,2.163674312e-12,1.615776363e-12,3.256960630e-12,2.153292468e-12,1.841890216e-12,2.113585405e-13,1.142050004e-12,5.940647913e-13,1.267602844e-12,6.319544059e-13,2.432298616e-13,7.171237468e-13,7.863120137e-13,1.639517995e-12,2.031214459e-12,3.248215089e-12,5.420853584e-13,8.334428988e-13,7.714042884e-12,1.508359712e-12,1.231249814e-13,6.928367688e-13,7.977170055e-13,2.983441918e-13,4.436330355e-13,4.294368291e-13,1.514038890e-12,4.229454882e-13,1.918196292e-13,1.272391634e-12,8.226944053e-13
1.4062,2.352911491e-12,2.149518266e-12,1.630579126e-12,3.259741468e-12,2.120109736e-12,1.862415771e-12,2.312061942e-13,1.067295129e-12,5.943714264e-13,1.196498778e-12,6.209418334e-13,2.492576161e-13,7.231084107e-13,7.811794069e-13,1.683568647e-12,2.047839281e-12,3.252046094e-12,5.201862812e-13,8.380441134e-13,7.635299024e-12,1.506135981e-12,1.130638488e-13,7.175037716e-13,7.136757895e-13,3.078950877e-13,4.328516359e-13,4.130691235e-13,1.466047422e-12,4.145429913e-13,1.864920792e-13,1.251638980e-12,7.755616589e-13
1.4141,2.265610773e-12,2.131206211e-12,1.644939683e-12,3.252480443e-12,2.077913936e-12,1.879388348e-12,2.547380008e-13,9.991586766e-13,6.011275018e-13,1.129838883e-12,6.093366575e-13,2.575628334e-13,7.313096059e-13,7.754117569e-13,1.720270393e-12,2.057065720e-12,3.241368463e-12,4.987907688e-13,8.399432397e-13,7.515705696e-12,1.499400584e-12,1.056299501e-13,7.415858570e-13,6.357373174e-13,3.182909930e-13,4.223168634e-13,3.959255135e-13,1.414943267e-12,4.072804996e-13,1.809705706e-13,1.227273134e-12,7.329609137e-13
1.4219,2.171894757e-12,2.104443421e-12,1.657727551e-12,3.238782609e-12,2.030143154e-12,1.893629913e-12,2.813530818e-13,9.348646162e-13,6.148782378e-13,1.063683051e-12,5.968608403e-13,2.695364228e-13,7.425106542e-13,7.666822566e-13,1.750005855e-12,2.060491699e-12,3.216720313e-12,4.787800815e-13,8.386145831e-13,7.356260023e-12,1.489108231e-12,1.009484105e-13,7.661973527e-13,5.659197657e-13,3.296074482e-13,4.127989369e-13,3.797793892e-13,1.365000593e-12,3.999528985e-13,1.752627801e-13,1.198384305e-12,6.961811471e-13
1.4297,2.071558360e-12,2.070596094e-12,1.665561622e-12,3.217624578e-12,1.976561392e-12,1.904589851e-12,3.107765889e-13,8.751386739e-13,6.355092252e-13,9.972934969e-13,5.829671743e-13,2.837172708e-13,7.553032732e-13,7.555248828e-13,1.771992652e-12,2.056890368e-12,3.177720470e-12,4.601209589e-13,8.358602579e-13,7.158056233e-12,1.473796390e-12,9.780861809e-14,7.902753044e-13,5.028657125e-13,3.413374893e-13,4.046258036e-13,3.650252923e-13,1.311372375e-12,3.935980752e-13,1.691238016e-13,1.167389666e-12,6.631873980e-13
1.4375,1.964431981e-12,2.029228218e-12,1.666104496e-12,3.181781727e-12,1.915017473e-12,1.906682025e-12,3.429393363e-13,8.213329027e-13,6.617591886e-13,9.330735679e-13,5.694644209e-13,2.996881756e-13,7.699207959e-13,7.398167920e-13,1.783514390e-12,2.043693050e-12,3.123173291e-12,4.421370042e-13,8.300897425e-13,6.928088396e-12,1.453857338e-12,9.736132125e-14,8.133430121e-13,4.464382417e-13,3.524378452e-13,3.974253317e-13,3.512884480e-13,1.253720677e-12,3.876507673e-13,1.626705619e-13,1.134002097e-12,6.352472677e-13
1.4453,1.849771648e-12,1.972681451e-12,1.658431199e-12,3.130790856e-12,1.847267851e-12,1.898464277e-12,3.766801443e-13,7.776868666e-13,6.972520491e-13,8.704362176e-13,5.572276740e-13,3.187999945e-13,7.874608102e-13,7.208280077e-13,1.783944962e-12,2.021553881e-12,3.052062506e-12,4.251042662e-13,8.185705409e-13,6.669903892e-12,1.432207466e-12,9.773459002e-14,8.377641789e-13,3.958724531e-13,3.623062373e-13,3.917263477e-13,3.401061699e-13,1.202150751e-12,3.837054891e-13,1.562291651e-13,1.096894482e-12,6.093194183e-13
1.4531,1.734395561e-12,1.909748787e-12,1.645275445e-12,3.070250911e-12,1.774265965e-12,1.885013129e-12,4.111646333e-13,7.419918765e-13,7.413994459e-13,8.107182212e-13,5.458926078e-13,3.404499378e-13,8.084840047e-13,7.006277809e-13,1.775839719e-12,1.993022288e-12,2.967813064e-12,4.094248913e-13,8.043803368e-13,6.391479615e-12,1.408384843e-12,9.989253100e-14,8.619285863e-13,3.498931846e-13,3.709067844e-13,3.888032483e-13,3.325272796e-13,1.151256573e-12,3.848197444e-13,1.498280865e-13,1.059908302e-12,5.866048834e-13
1.4609,1.617101403e-12,1.838361096e-12,1.627283498e-12,2.997342609e-12,1.695650181e-12,1.864172147e-12,4.465570231e-13,7.125790681e-13,7.929939937e-13,7.529429826e-13,5.354132381e-13,3.644528317e-13,8.318530022e-13,6.779388270e-13,1.760042461e-12,1.958643187e-12,2.872037031e-12,3.950707015e-13,7.869400331e-13,6.095681803e-12,1.382606617e-12,1.039535492e-13,8.855565057e-13,3.107728845e-13,3.777113328e-13,3.890667309e-13,3.273362306e-13,1.101902167e-12,3.890290967e-13,1.432894876e-13,1.021967899e-12,5.693212795e-13
1.4688,1.495122083e-12,1.756040663e-12,1.601165388e-12,2.910781771e-12,1.612487605e-12,1.835094830e-12,4.835403846e-13,6.921866611e-13,8.527714893e-13,6.973937081e-13,5.269241173e-13,3.914370454e-13,8.585496155e-13,6.553781997e-13,1.734362924e-12,1.917097149e-12,2.765638456e-12,3.823744166e-13,7.661768442e-13,5.787595005e-12,1.356882932e-12,1.073262914e-13,9.089579238e-13,2.776470543e-13,3.824237301e-13,3.925212488e-13,3.237096270e-13,1.053939650e-12,3.966895140e-13,1.368001931e-13,9.832999933e-13,5.541424421e-13
1.4766,1.372574120e-12,1.668625458e-12,1.566095948e-12,2.813734426e-12,1.526652084e-12,1.800095891e-12,5.208342095e-13,6.800673440e-13,9.199389136e-13,6.457477700e-13,5.212109067e-13,4.221466006e-13,8.898266014e-13,6.321381302e-13,1.698964544e-12,1.868494056e-12,2.650721203e-12,3.709632400e-13,7.436767552e-13,5.473384637e-12,1.332479063e-12,1.115855012e-13,9.307105994e-13,2.491398305e-13,3.852706929e-13,3.995857820e-13,3.223308285e-13,1.004786459e-12,4.093245461e-13,1.308216862e-13,9.462304623e-13,5.416908867e-13
1.4844,1.251550873e-12,1.574360574e-12,1.524937582e-12,2.708538859e-12,1.440640482e-12,1.760490443e-12,5.570859722e-13,6.761128091e-13,9.965034681e-13,5.972898381e-13,5.171036740e-13,4.566660614e-13,9.230463125e-13,6.074824503e-13,1.657154626e-12,1.815310737e-12,2.529157530e-12,3.616157072e-13,7.189617578e-13,5.151159447e-12,1.309095401e-12,1.167189009e-13,9.516559553e-13,2.260246200e-13,3.856525981e-13,4.107751703e-13,3.235542738e-13,9.620162915e-13,4.273318329e-13,1.254987130e-13,9.107359451e-13,5.326496384e-13
1.4922,1.136895840e-12,1.480293835e-12,1.479797910e-12,2.597021724e-12,1.353362507e-12,1.718952915e-12,5.935766567e-13,6.783731650e-13,1.080980592e-12,5.527600135e-13,5.146278283e-13,4.933981272e-13,9.577992968e-13,5.843996574e-13,1.608891226e-12,1.757845527e-12,2.403413625e-12,3.547471567e-13,6.936964177e-13,4.824847776e-12,1.285335461e-12,1.227192933e-13,9.706004482e-13,2.077569080e-13,3.841358474e-13,4.254891991e-13,3.267690112e-13,9.200061493e-13,4.484572039e-13,1.212095646e-13,8.780395089e-13,5.293025556e-13
1.5,1.030111944e-12,1.385883560e-12,1.428595109e-12,2.477154685e-12,1.264401359e-12,1.673085011e-12,6.303110687e-13,6.862740300e-13,1.171458719e-12,5.132356809e-13,5.150867487e-13,5.324726910e-13,9.950725448e-13,5.613069316e-13,1.552299213e-12,1.694884928e-12,2.273757781e-12,3.490292855e-13,6.678252328e-13,4.495590479e-12,1.262082220e-12,1.306706485e-13,9.864882538e-13,1.944329479e-13,3.813717809e-13,4.441627044e-13,3.322007820e-13,8.776084672e-13,4.722870174e-13,1.184035183e-13,8.477233705e-13,5.326353913e-13
1.5078,9.300911445e-13,1.289338286e-12,1.371392837e-12,2.352969885e-12,1.178206154e-12,1.623504251e-12,6.655630404e-13,7.022770345e-13,1.267584476e-12,4.785851656e-13,5.191441025e-13,5.736024291e-13,1.031756446e-12,5.384327162e-13,1.489582304e-12,1.628327196e-12,2.142571856e-12,3.451718724e-13,6.423340250e-13,4.167744296e-12,1.241761089e-12,1.385328075e-13,9.998395236e-13,1.856822686e-13,3.760748919e-13,4.678435661e-13,3.404371505e-13,8.406864637e-13,5.009839231e-13,1.165558136e-13,8.211005176e-13,5.399744678e-13
1.5156,8.394566122e-13,1.198187225e-12,1.311866447e-12,2.229203756e-12,1.094963284e-12,1.573733452e-12,6.984001158e-13,7.251465467e-13,1.365677777e-12,4.482160580e-13,5.261964097e-13,6.149352811e-13,1.065753392e-12,5.166138563e-13,1.423675122e-12,1.559572507e-12,2.012545085e-12,3.432414023e-13,6.188107142e-13,3.847465298e-12,1.224251974e-12,1.477507943e-13,1.010540571e-12,1.808182807e-13,3.685581972e-13,4.951845455e-13,3.501769808e-13,8.058919570e-13,5.327840147e-13,1.152010848e-13,7.997218806e-13,5.529267892e-13
1.5234,7.567494805e-13,1.107124933e-12,1.250657654e-12,2.100520877e-12,1.012651507e-12,1.521157441e-12,7.289552862e-13,7.551025401e-13,1.467191512e-12,4.226125109e-13,5.361470469e-13,6.577701327e-13,1.098807840e-12,4.943869932e-13,1.354972837e-12,1.487640850e-12,1.881596107e-12,3.415365088e-13,5.950641358e-13,3.528023025e-12,1.208126597e-12,1.589758864e-13,1.018927624e-12,1.797470317e-13,3.597810299e-13,5.261711688e-13,3.608305061e-13,7.751057949e-13,5.667804379e-13,1.149592490e-13,7.813166545e-13,5.723473715e-13
1.5312,6.818519371e-13,1.017434261e-12,1.186812674e-12,1.968217016e-12,9.344621598e-13,1.466428452e-12,7.562878095e-13,7.906775913e-13,1.572568987e-12,4.020395230e-13,5.498591705e-13,7.020777966e-13,1.132576398e-12,4.727055300e-13,1.284510098e-12,1.414052631e-12,1.751777315e-12,3.409080029e-13,5.728835814e-13,3.215094278e-12,1.195175455e-12,1.702418396e-13,1.023306341e-12,1.814137180e-13,3.491949532e-13,5.617910474e-13,3.731153482e-13,7.459311514e-13,6.018082382e-13,1.158991277e-13,7.669351687e-13,5.986301187e-13
1.5391,6.163641950e-13,9.331705963e-13,1.120812737e-12,1.838555425e-12,8.626897004e-13,1.410666635e-12,7.782067082e-13,8.304299640e-13,1.679356976e-12,3.859794082e-13,5.662976774e-13,7.466341220e-13,1.166568396e-12,4.504814164e-13,1.214977507e-12,1.341584342e-12,1.627262572e-12,3.423613783e-13,5.540460877e-13,2.918583313e-12,1.185948677e-12,1.823034749e-13,1.024362825e-12,1.859471207e-13,3.368107139e-13,6.007948881e-13,3.861792613e-13,7.192708305e-13,6.385741462e-13,1.173063235e-13,7.581996995e-13,6.297957086e-13
1.5469,5.582632470e-13,8.508826837e-13,1.056017836e-12,1.712125314e-12,7.946315004e-13,1.353885914e-12,7.960921817e-13,8.766395992e-13,1.787235508e-12,3.743005597e-13,5.857995304e-13,7.917563219e-13,1.199715142e-12,4.276611893e-13,1.147658833e-12,1.270341181e-12,1.507911576e-12,3.448503847e-13,5.369861353e-13,2.638246983e-12,1.177518873e-12,1.938187865e-13,1.024047257e-12,1.942544293e-13,3.233245754e-13,6.428416610e-13,4.001648874e-13,7.006905521e-13,6.794054170e-13,1.195052451e-13,7.538074078e-13,6.619197724e-13
1.5547,5.070715200e-13,7.746114165e-13,9.949990045e-13,1.589131110e-12,7.279881230e-13,1.298809221e-12,8.120357904e-13,9.272689080e-13,1.892408672e-12,3.657294174e-13,6.089933709e-13,8.354545905e-13,1.231612240e-12,4.055081969e-13,1.081840913e-12,1.199590884e-12,1.393645970e-12,3.477115112e-13,5.221947388e-13,2.378514338e-12,1.170326631e-12,2.052169792e-13,1.020752474e-12,2.057540474e-13,3.091592001e-13,6.885997175e-13,4.160884359e-13,6.845946154e-13,7.232847156e-13,1.229058903e-13,7.541359912e-13,6.971326206e-13
1.5625,4.621962811e-13,7.025128103e-13,9.362595191e-13,1.470402535e-12,6.640924970e-13,1.244908717e-12,8.248505227e-13,9.821270104e-13,1.996179847e-12,3.590821904e-13,6.339041468e-13,8.783289095e-13,1.261327345e-12,3.825383407e-13,1.017402873e-12,1.129300647e-12,1.284638871e-12,3.509216037e-13,5.086419866e-13,2.138938745e-12,1.164621294e-12,2.164134453e-13,1.014335953e-12,2.206400190e-13,2.943725785e-13,7.373480711e-13,4.323442197e-13,6.735359970e-13,7.694906884e-13,1.268422025e-13,7.579512440e-13,7.357255975e-13
1.5703,4.229282153e-13,6.322402076e-13,8.799841342e-13,1.357451862e-12,6.034734371e-13,1.193061723e-12,8.344302189e-13,1.041422180e-12,2.099490285e-12,3.532413779e-13,6.608589301e-13,9.211573743e-13,1.288714080e-12,3.602068292e-13,9.555070301e-13,1.060577398e-12,1.181356832e-12,3.544761609e-13,4.955021328e-13,1.916669027e-12,1.158133672e-12,2.249327214e-13,1.004692079e-12,2.390667842e-13,2.794455154e-13,7.874362571e-13,4.476534337e-13,6.696795847e-13,8.152186099e-13,1.309738521e-13,7.625277993e-13,7.760965005e-13
1.5781,3.895337932e-13,5.666199942e-13,8.276806052e-13,1.249994158e-12,5.439597029e-13,1.144252646e-12,8.413156892e-13,1.102166788e-12,2.197035513e-12,3.479947556e-13,6.902596282e-13,9.614421787e-13,1.314075897e-12,3.395477236e-13,8.973378926e-13,9.954231071e-13,1.084903519e-12,3.578124277e-13,4.835147939e-13,1.712011288e-12,1.150357414e-12,2.334063142e-13,9.926875486e-13,2.591858016e-13,2.649855849e-13,8.379961632e-13,4.625882458e-13,6.697194444e-13,8.621869561e-13,1.354678724e-13,7.682908651e-13,8.176180113e-13
1.5859,3.613454637e-13,5.039180927e-13,7.796604248e-13,1.148116535e-12,4.858420206e-13,1.097699556e-12,8.443909245e-13,1.164644856e-12,2.287987849e-12,3.442001118e-13,7.210190695e-13,9.994849841e-13,1.336491190e-12,3.196253941e-13,8.426718139e-13,9.336923287e-13,9.949015790e-13,3.595924235e-13,4.714000506e-13,1.522755903e-12,1.140564720e-12,2.420176740e-13,9.794455840e-13,2.800065946e-13,2.512587846e-13,8.885739509e-13,4.766356988e-13,6.761407582e-13,9.105790586e-13,1.402347579e-13,7.748341863e-13,8.586686423e-13
1.5938,3.393715940e-13,4.464243893e-13,7.359590775e-13,1.055607943e-12,4.320025147e-13,1.055495285e-12,8.433019135e-13,1.227457918e-12,2.370059073e-12,3.418853006e-13,7.524122921e-13,1.034354338e-12,1.355739043e-12,3.008291208e-13,7.906131344e-13,8.743844942e-13,9.109763279e-13,3.595658537e-13,4.589337220e-13,1.349468410e-12,1.128787372e-12,2.502513329e-13,9.614153254e-13,3.007655572e-13,2.384029131e-13,9.375023091e-13,4.889978341e-13,6.848015092e-13,9.528787376e-13,1.450601250e-13,7.815837702e-13,9.002311407e-13
1.6016,3.239334860e-13,3.951479589e-13,6.964048834e-13,9.723842401e-13,3.825741882e-13,1.016793009e-12,8.386514686e-13,1.290077811e-12,2.443963132e-12,3.419339103e-13,7.818813188e-13,1.065631212e-12,1.370975408e-12,2.823443349e-13,7.413417121e-13,8.178871849e-13,8.331779671e-13,3.589592193e-13,4.474046820e-13,1.191498350e-12,1.115367306e-12,2.586747606e-13,9.379869183e-13,3.212819127e-13,2.257951507e-13,9.843365487e-13,5.002115036e-13,6.963452430e-13,9.916464081e-13,1.500157587e-13,7.897316588e-13,9.409938259e-13
1.6094,3.141275379e-13,3.479866657e-13,6.618865188e-13,8.961809473e-13,3.360911105e-13,9.808744659e-13,8.299116036e-13,1.351707345e-12,2.510750249e-12,3.442909579e-13,8.085089373e-13,1.094265274e-12,1.381956241e-12,2.647033380e-13,6.951707784e-13,7.637587912e-13,7.608806202e-13,3.581360428e-13,4.370467096e-13,1.047053096e-12,1.099104520e-12,2.652150917e-13,9.118763729e-13,3.425750651e-13,2.139466448e-13,1.029405256e-12,5.105036297e-13,7.131411053e-13,1.027734947e-12,1.553326337e-13,7.978697013e-13,9.789351623e-13
1.6172,3.098814812e-13,3.066438586e-13,6.322549879e-13,8.278649786e-13,2.938069575e-13,9.491149159e-13,8.167726603e-13,1.408927305e-12,2.563357295e-12,3.484427572e-13,8.331455192e-13,1.117399293e-12,1.391458063e-12,2.490502400e-13,6.526463013e-13,7.115892311e-13,6.936211641e-13,3.563305153e-13,4.278704802e-13,9.164497960e-13,1.080342502e-12,2.720938684e-13,8.837920400e-13,3.631841253e-13,2.040391388e-13,1.070882199e-12,5.192333545e-13,7.296950913e-13,1.057839273e-12,1.603993345e-13,8.057186673e-13,1.013073543e-12
1.625,3.095104253e-13,2.702929801e-13,6.062880688e-13,7.681460483e-13,2.570929701e-13,9.203651238e-13,8.001662676e-13,1.465048624e-12,2.603470455e-12,3.539538659e-13,8.551028370e-13,1.135641332e-12,1.400841679e-12,2.350269280e-13,6.152981928e-13,6.626497604e-13,6.320735491e-13,3.540690337e-13,4.200305377e-13,7.995511579e-13,1.060107751e-12,2.780034654e-13,8.528825057e-13,3.833797183e-13,1.954554217e-13,1.107631420e-12,5.261578500e-13,7.479383264e-13,1.082497361e-12,1.647011274e-13,8.135574346e-13,1.040805625e-12
1.6328,3.113417517e-13,2.379303180e-13,5.832335428e-13,7.159891703e-13,2.246073382e-13,8.941223224e-13,7.790767005e-13,1.520940574e-12,2.633588260e-12,3.587774638e-13,8.740869351e-13,1.149660243e-12,1.409504467e-12,2.225567166e-13,5.838514091e-13,6.180467424e-13,5.771512836e-13,3.525672183e-13,4.129206452e-13,6.975364723e-13,1.038177659e-12,2.801483308e-13,8.177546122e-13,4.057469336e-13,1.881430670e-13,1.140525370e-12,5.313044813e-13,7.671485164e-13,1.097509283e-12,1.686255652e-13,8.190295732e-13,1.063545474e-12
1.6406,3.144350244e-13,2.096046350e-13,5.614781049e-13,6.699303672e-13,1.951880951e-13,8.693567440e-13,7.533049107e-13,1.573742161e-12,2.651217084e-12,3.624895624e-13,8.889613966e-13,1.157294494e-12,1.416755646e-12,2.110453444e-13,5.572813257e-13,5.778368746e-13,5.289216469e-13,3.518169384e-13,4.057525428e-13,6.093767446e-13,1.012980284e-12,2.806163836e-13,7.803654189e-13,4.297085808e-13,1.824637426e-13,1.170264361e-12,5.345666029e-13,7.859361548e-13,1.108198855e-12,1.716897878e-13,8.227608948e-13,1.080192565e-12
1.6484,3.183084657e-13,1.840546032e-13,5.412051513e-13,6.301066618e-13,1.690094220e-13,8.460178643e-13,7.259371068e-13,1.623978020e-12,2.658428712e-12,3.642761008e-13,8.992778353e-13,1.160181606e-12,1.422822198e-12,2.012214704e-13,5.342923485e-13,5.415901827e-13,4.870251023e-13,3.513604410e-13,3.968083450e-13,5.325965653e-13,9.845693563e-13,2.784027317e-13,7.427086256e-13,4.548203559e-13,1.781401201e-13,1.196599683e-12,5.362335594e-13,8.065760150e-13,1.117374372e-12,1.734307960e-13,8.240634638e-13,1.089510489e-12
1.6562,3.232527924e-13,1.624665314e-13,5.237596054e-13,5.966153644e-13,1.457553713e-13,8.252617843e-13,6.980235789e-13,1.670486766e-12,2.652615487e-12,3.625874950e-13,9.066275826e-13,1.157959013e-12,1.429238808e-12,1.946899012e-13,5.145710961e-13,5.083531335e-13,4.503567772e-13,3.503877628e-13,3.848849890e-13,4.669785893e-13,9.553165256e-13,2.749067551e-13,7.043549497e-13,4.809243728e-13,1.757978961e-13,1.219093916e-12,5.366943581e-13,8.247651713e-13,1.119647715e-12,1.742303138e-13,8.208455458e-13,1.095251051e-12
1.6641,3.284081197e-13,1.443511511e-13,5.074297105e-13,5.674474331e-13,1.246957992e-13,8.055878900e-13,6.697308851e-13,1.714080289e-12,2.633695068e-12,3.571463558e-13,9.104350238e-13,1.150074660e-12,1.435370088e-12,1.913349561e-13,4.974007228e-13,4.769157808e-13,4.172784973e-13,3.481413463e-13,3.707992129e-13,4.113874811e-13,9.242198148e-13,2.700648640e-13,6.654145392e-13,5.054263031e-13,1.757889228e-13,1.237606124e-12,5.357787103e-13,8.424534222e-13,1.118914298e-12,1.736879818e-13,8.136638195e-13,1.095164819e-12
1.6719,3.341668202e-13,1.282087121e-13,4.911130214e-13,5.423321839e-13,1.059898951e-13,7.876292025e-13,6.414769160e-13,1.753006386e-12,2.604109879e-12,3.484352223e-13,9.103112123e-13,1.138244438e-12,1.439784839e-12,1.906350778e-13,4.817759617e-13,4.467236727e-13,3.865752804e-13,3.450072597e-13,3.541989539e-13,3.637229853e-13,8.895278326e-13,2.624510147e-13,6.257608090e-13,5.257692243e-13,1.779387248e-13,1.251951055e-12,5.335504175e-13,8.606112870e-13,1.113718024e-12,1.717622024e-13,8.013942859e-13,1.089633723e-12
1.6797,3.418267887e-13,1.153578910e-13,4.762352249e-13,5.222325149e-13,9.013016555e-14,7.716221273e-13,6.119191390e-13,1.783919484e-12,2.562100013e-12,3.398263842e-13,9.075430548e-13,1.122068996e-12,1.442024944e-12,1.917537326e-13,4.681406892e-13,4.175819057e-13,3.575282565e-13,3.417758987e-13,3.362072369e-13,3.227843283e-13,8.524753242e-13,2.560217362e-13,5.866695500e-13,5.405814405e-13,1.819769971e-13,1.262948452e-12,5.304715113e-13,8.762724146e-13,1.105514882e-12,1.693046647e-13,7.858849036e-13,1.081964676e-12
1.6875,3.520289984e-13,1.055038073e-13,4.631376551e-13,5.060022408e-13,7.728702593e-14,7.558988442e-13,5.819342311e-13,1.810011877e-12,2.511300955e-12,3.327240233e-13,9.024924603e-13,1.102881401e-12,1.442096572e-12,1.943694157e-13,4.573962770e-13,3.898358046e-13,3.300830172e-13,3.393078145e-13,3.178880065e-13,2.882281175e-13,8.143770059e-13,2.498959880e-13,5.486150135e-13,5.491956134e-13,1.877975740e-13,1.271894019e-12,5.266937261e-13,8.921130944e-13,1.096059744e-12,1.664658385e-13,7.688500200e-13,1.071939269e-12
1.6953,3.656221038e-13,9.863748616e-14,4.517141701e-13,4.932302096e-13,6.762350899e-14,7.416612803e-13,5.533453577e-13,1.831762712e-12,2.453813564e-12,3.267449267e-13,8.951769673e-13,1.082051127e-12,1.442146784e-12,1.989953326e-13,4.501670179e-13,3.649551887e-13,3.051733629e-13,3.390944515e-13,2.985954614e-13,2.599707021e-13,7.762821577e-13,2.442290905e-13,5.108122186e-13,5.525203353e-13,1.960804151e-13,1.279781003e-12,5.231929746e-13,9.048348766e-13,1.080641376e-12,1.633721775e-13,7.493113414e-13,1.061848333e-12
1.7031,3.805704208e-13,9.495523165e-14,4.414397638e-13,4.839102994e-13,6.109424102e-14,7.283679880e-13,5.256343576e-13,1.848060973e-12,2.390014533e-12,3.230262248e-13,8.854158424e-13,1.060404111e-12,1.442879884e-12,2.052588086e-13,4.454734553e-13,3.432135315e-13,2.837581337e-13,3.425334662e-13,2.803732816e-13,2.378295879e-13,7.384053319e-13,2.404525661e-13,4.747695016e-13,5.519505948e-13,2.065205061e-13,1.286924891e-12,5.203027222e-13,9.153377110e-13,1.064761787e-12,1.604200041e-13,7.294517991e-13,1.048388444e-12
1.7109,3.947074089e-13,9.362920308e-14,4.313063897e-13,4.777928247e-13,5.783836165e-14,7.152961592e-13,4.985047426e-13,1.857657729e-12,2.321346412e-12,3.200958291e-13,8.737904601e-13,1.038934188e-12,1.444426988e-12,2.141216702e-13,4.413973094e-13,3.228832014e-13,2.647592851e-13,3.499692402e-13,2.632242458e-13,2.205780338e-13,7.011408491e-13,2.358952007e-13,4.411359200e-13,5.472318154e-13,2.189140685e-13,1.291632884e-12,5.166556490e-13,9.253119096e-13,1.045647907e-12,1.574095504e-13,7.088851453e-13,1.029490599e-12
1.7188,4.075251409e-13,9.553724249e-14,4.209858828e-13,4.757471590e-13,5.792572677e-14,7.031221540e-13,4.728369704e-13,1.859685573e-12,2.247338844e-12,3.167409448e-13,8.616118777e-13,1.016914863e-12,1.449034062e-12,2.267430011e-13,4.388423414e-13,3.032452758e-13,2.469602243e-13,3.613151208e-13,2.469400283e-13,2.069322005e-13,6.659135739e-13,2.320223907e-13,4.100451469e-13,5.392907522e-13,2.339081526e-13,1.293997003e-12,5.128542072e-13,9.295302229e-13,1.021711116e-12,1.546821541e-13,6.882853791e-13,1.008217735e-12
1.7266,4.169439045e-13,9.959374956e-14,4.099758254e-13,4.767531856e-13,6.080039565e-14,6.909516497e-13,4.495741248e-13,1.858417701e-12,2.172193038e-12,3.119091994e-13,8.492711734e-13,9.959997513e-13,1.456386102e-12,2.420139478e-13,4.393558455e-13,2.851239021e-13,2.309370641e-13,3.761267686e-13,2.321233820e-13,1.970455118e-13,6.338277988e-13,2.277595131e-13,3.816631763e-13,5.297697209e-13,2.504014498e-13,1.296472399e-12,5.100861613e-13,9.316899357e-13,9.984450027e-13,1.526385263e-13,6.694986912e-13,9.834594837e-13
1.7344,4.224109383e-13,1.050749887e-13,3.986759093e-13,4.795315414e-13,6.579943233e-14,6.796773426e-13,4.288874457e-13,1.852668831e-12,2.097127541e-12,3.041164095e-13,8.367377260e-13,9.773572857e-13,1.467111353e-12,2.603305459e-13,4.427419145e-13,2.685872843e-13,2.164051165e-13,3.938231245e-13,2.173749175e-13,1.898758671e-13,6.056633881e-13,2.224288870e-13,3.555114206e-13,5.197079290e-13,2.675214015e-13,1.299190891e-12,5.083581912e-13,9.317418417e-13,9.731933153e-13,1.508580963e-13,6.509347081e-13,9.561851250e-13
1.7422,4.239715901e-13,1.125115640e-13,3.870743621e-13,4.838605926e-13,7.274711696e-14,6.695242376e-13,4.114693562e-13,1.839930271e-12,2.021432498e-12,2.936702673e-13,8.242239059e-13,9.615508269e-13,1.484236799e-12,2.824229503e-13,4.483281799e-13,2.529744706e-13,2.024236340e-13,4.146021286e-13,2.041532197e-13,1.834312883e-13,5.805200020e-13,2.187143878e-13,3.326493912e-13,5.101741611e-13,2.857777182e-13,1.301014820e-12,5.082482452e-13,9.279487839e-13,9.510161543e-13,1.499990074e-13,6.340814679e-13,9.256956620e-13
1.75,4.221660730e-13,1.210785138e-13,3.752276662e-13,4.895986961e-13,8.218955426e-14,6.601771351e-13,3.979803691e-13,1.822759330e-12,1.948526862e-12,2.810599983e-13,8.126628976e-13,9.504122455e-13,1.507788413e-12,3.073598380e-13,4.549911537e-13,2.385143175e-13,1.889205308e-13,4.391301557e-13,1.929153525e-13,1.767418578e-13,5.580388255e-13,2.150509708e-13,3.129501051e-13,4.990921867e-13,3.048594311e-13,1.301834205e-12,5.095427572e-13,9.241145842e-13,9.309970493e-13,1.509655933e-13,6.193931794e-13,8.931142948e-13
1.7578,4.197502160e-13,1.316316269e-13,3.645310556e-13,4.976811742e-13,9.425068108e-14,6.526835537e-13,3.877430909e-13,1.801462189e-12,1.878455574e-12,2.684188386e-13,8.028632019e-13,9.428357711e-13,1.536564741e-12,3.345138604e-13,4.631664442e-13,2.260239412e-13,1.763390561e-13,4.678588066e-13,1.831508238e-13,1.696934095e-13,5.393754989e-13,2.126701850e-13,2.956228106e-13,4.859243344e-13,3.240346117e-13,1.302587637e-12,5.119722569e-13,9.184316362e-13,9.107938764e-13,1.537910428e-13,6.067372697e-13,8.635181114e-13
1.7656,4.163663609e-13,1.434622355e-13,3.543888810e-13,5.077906760e-13,1.085868519e-13,6.467938245e-13,3.813636022e-13,1.776290384e-12,1.812549369e-12,2.568144278e-13,7.940729765e-13,9.396903344e-13,1.569118258e-12,3.633052392e-13,4.739883520e-13,2.158390764e-13,1.655491103e-13,5.002009670e-13,1.753301290e-13,1.635314029e-13,5.235480476e-13,2.116190860e-13,2.816972304e-13,4.711567439e-13,3.428841155e-13,1.303563522e-12,5.156077176e-13,9.113532510e-13,8.968283074e-13,1.587088970e-13,5.971982412e-13,8.348662719e-13
1.7734,4.124690431e-13,1.569257476e-13,3.455994532e-13,5.206135748e-13,1.247530465e-13,6.435153484e-13,3.789736432e-13,1.746415351e-12,1.752832387e-12,2.476440641e-13,7.853815531e-13,9.433558231e-13,1.605486946e-12,3.939740425e-13,4.866517156e-13,2.076592251e-13,1.564661355e-13,5.357048708e-13,1.688185455e-13,1.588397448e-13,5.095412491e-13,2.112593615e-13,2.712260405e-13,4.526286792e-13,3.618238870e-13,1.303943841e-12,5.202707211e-13,9.029649788e-13,8.856730129e-13,1.662374553e-13,5.901894265e-13,8.080631778e-13
1.7812,4.112991842e-13,1.739750699e-13,3.398635771e-13,5.370606809e-13,1.418344573e-13,6.432811976e-13,3.795165774e-13,1.712061788e-12,1.699533236e-12,2.435921245e-13,7.775995270e-13,9.532202292e-13,1.646789548e-12,4.264997035e-13,5.008346163e-13,2.009073439e-13,1.483577818e-13,5.747763866e-13,1.648666017e-13,1.549411358e-13,4.977903248e-13,2.146503382e-13,2.632681025e-13,4.324616779e-13,3.813253913e-13,1.303787183e-12,5.268269887e-13,8.930648411e-13,8.792516976e-13,1.771400948e-13,5.874410014e-13,7.862400536e-13
1.7891,4.127681057e-13,1.931167331e-13,3.357921948e-13,5.548504042e-13,1.599432666e-13,6.457189107e-13,3.833224521e-13,1.675117782e-12,1.654055798e-12,2.442159139e-13,7.713930665e-13,9.691808599e-13,1.690587325e-12,4.606323831e-13,5.167459679e-13,1.953183482e-13,1.413739456e-13,6.172344855e-13,1.634070472e-13,1.523057269e-13,4.880084816e-13,2.194073417e-13,2.571709245e-13,4.122361664e-13,4.006546420e-13,1.302681006e-12,5.351438750e-13,8.829993979e-13,8.784683683e-13,1.915640223e-13,5.880957048e-13,7.677391206e-13
