Time,Fp1,AF3,F7,F3,FC1,FC5,T7,C3,CP1,CP5,P7,P3,Pz,PO3,O1,Oz,O2,PO4,P4,P8,CP6,CP2,C4,T8,FC6,FC2,F4,F8,AF4,Fp2,Fz,Cz,
0,7.711788189e-09,4.673472936e-09,7.113735152e-09,2.167554893e-09,3.696089271e-10,1.737663135e-09,7.079088777e-09,2.436726006e-10,2.166654164e-10,1.951404984e-09,8.957655956e-09,1.729201328e-09,6.850473681e-11,2.337180603e-09,3.996477183e-09,7.184040095e-09,7.623462950e-09,5.710330837e-09,4.118957127e-09,9.572052768e-09,5.681804521e-09,9.334234820e-10,4.302872318e-10,1.008691949e-08,6.414952746e-09,1.844418478e-11,4.352218313e-09,6.479847981e-09,5.539580313e-09,1.937884524e-08,7.789524903e-11,1.740534289e-09
0.0078125,7.600863183e-09,4.611108987e-09,7.012776956e-09,2.138058445e-09,3.648165548e-10,1.712768519e-09,6.981929437e-09,2.413059498e-10,2.140221946e-10,1.920518875e-09,8.825514134e-09,1.704246272e-09,6.848165703e-11,2.312807122e-09,3.941826094e-09,7.080513350e-09,7.516143244e-09,5.639687032e-09,4.071814021e-09,9.433251145e-09,5.610213072e-09,9.216900833e-10,4.300282295e-10,9.956425144e-09,6.346752332e-09,1.825701149e-11,4.304688621e-09,6.395596388e-09,5.473102040e-09,1.908805479e-08,7.709297569e-11,1.723843265e-09
0.015625,7.173929352e-09,4.354765181e-09,6.618857284e-09,2.018958150e-09,3.446395536e-10,1.616722886e-09,6.592855110e-09,2.317652747e-10,2.022592278e-10,1.810913915e-09,8.327768585e-09,1.608725404e-09,6.587172621e-11,2.189138900e-09,3.723274882e-09,6.683792922e-09,7.096831521e-09,5.332088047e-09,3.852758295e-09,8.903679854e-09,5.302990163e-09,8.707152066e-10,4.118127461e-10,9.408296655e-09,6.008444171e-09,1.729732212e-11,4.073867559e-09,6.043374579e-09,5.175004522e-09,1.800912551e-08,7.302299261e-11,1.633265673e-09
0.023438,6.484289041e-09,3.938864640e-09,5.981715854e-09,1.825813743e-09,3.118140294e-10,1.461091447e-09,5.961411542e-09,2.165886455e-10,1.831073246e-10,1.634832176e-09,7.524341545e-09,1.454053991e-09,6.137139356e-11,1.986003979e-09,3.367754232e-09,6.041563066e-09,6.417169208e-09,4.829244235e-09,3.492970279e-09,8.047624338e-09,4.801764586e-09,7.877871896e-10,3.801546378e-10,8.515596827e-09,5.451306014e-09,1.572751448e-11,3.694793411e-09,5.470258599e-09,4.687864562e-09,1.627104087e-08,6.626884873e-11,1.483213456e-09
0.03125,5.620974628e-09,3.417578889e-09,5.183916701e-09,1.583756798e-09,2.706072204e-10,1.265932231e-09,5.169589118e-09,1.956844171e-10,1.590601585e-10,1.414695023e-09,6.518626808e-09,1.260179891e-09,5.519106605e-11,1.729954582e-09,2.921290323e-09,5.236534525e-09,5.564932199e-09,4.196792167e-09,3.039596693e-09,6.975438129e-09,4.172004591e-09,6.837135902e-10,3.386052704e-10,7.394738834e-09,4.748497939e-09,1.375264347e-11,3.217200287e-09,4.750907741e-09,4.075335084e-09,1.409681686e-08,5.771807614e-11,1.293365751e-09
0.039062,4.691330689e-09,2.854198474e-09,4.324153687e-09,1.322446736e-09,2.260166734e-10,1.055762109e-09,4.315324552e-09,1.702851818e-10,1.329476745e-10,1.178785582e-09,5.437315128e-09,1.051577321e-09,4.763672779e-11,1.449928203e-09,2.439889031e-09,4.370310675e-09,4.646896868e-09,3.511610526e-09,2.546757244e-09,5.821747000e-09,3.490016776e-09,5.708804776e-10,2.904121678e-10,6.182321837e-09,3.981714003e-09,1.158570121e-11,2.696480440e-09,3.973158931e-09,3.410239195e-09,1.176073536e-08,4.840003565e-11,1.085359612e-09
0.046875,3.786315158e-09,2.303778054e-09,3.486503649e-09,1.067413453e-09,1.824142172e-10,8.511811229e-10,3.482262929e-09,1.437346504e-10,1.073240934e-10,9.502605183e-10,4.386366093e-09,8.487474744e-10,3.963205548e-11,1.173281225e-09,1.970908569e-09,3.528101697e-09,3.753185156e-09,2.840868874e-09,2.062771081e-09,4.699792450e-09,2.822550380e-09,4.602898178e-10,2.406087292e-10,4.996901499e-09,3.225845077e-09,9.439189837e-12,2.183460900e-09,3.212855320e-09,2.757597853e-09,9.491975160e-09,3.922457700e-11,8.795837909e-10
0.054688,2.967934783e-09,1.805234447e-09,2.728786345e-09,8.365203068e-10,1.429043594e-10,6.661358086e-10,2.728114190e-09,1.188229375e-10,8.407226996e-11,7.440348343e-10,3.436441334e-09,6.653041783e-10,3.212360556e-11,9.214306537e-10,1.546292748e-09,2.766482158e-09,2.944593001e-09,2.232221502e-09,1.622868491e-09,3.685382286e-09,2.217039089e-09,3.600120266e-10,1.941409424e-10,3.922317355e-09,2.537823664e-09,7.485062672e-12,1.716804106e-09,2.523673993e-09,2.165182119e-09,7.442266160e-09,3.085516589e-11,6.919135823e-10
0.0625,2.271297447e-09,1.380873350e-09,2.083813613e-09,6.400235423e-10,1.092622388e-10,5.085467635e-10,2.085866414e-09,9.645505288e-11,6.428639910e-11,5.684182277e-10,2.627480752e-09,5.089764653e-10,2.552373215e-11,7.067445432e-10,1.184280212e-09,2.117399393e-09,2.255507205e-09,1.713019941e-09,1.247360333e-09,2.821227509e-09,1.700695262e-09,2.747171585e-10,1.536957467e-10,3.006617469e-09,1.950582675e-09,5.815393007e-12,1.318824099e-09,1.936436497e-09,1.660402373e-09,5.697182826e-09,2.369023997e-11,5.316652439e-10
0.070312,1.707056010e-09,1.036906902e-09,1.561497413e-09,4.808381124e-10,8.198768901e-11,3.809638210e-10,1.565389550e-09,7.680394761e-11,4.822841328e-11,4.263361284e-10,1.972359754e-09,3.823135450e-10,1.985374595e-11,5.319127963e-10,8.907020950e-10,1.591370307e-09,1.696855761e-09,1.291121262e-09,9.417476571e-10,2.120966703e-09,1.281196566e-09,2.055833839e-10,1.196113664e-10,2.263262857e-09,1.472175992e-09,4.449148171e-12,9.948757668e-10,1.459642501e-09,1.250337397e-09,4.284110211e-09,1.784055453e-11,4.009823318e-10
0.078125,1.267987578e-09,7.688637854e-10,1.155078234e-09,3.569052468e-10,6.073545768e-11,2.817868850e-10,1.160059245e-09,6.023921673e-11,3.570224942e-11,3.159626287e-10,1.462695462e-09,2.837106838e-10,1.517017637e-11,3.948593796e-10,6.619585038e-10,1.181844090e-09,1.261635930e-09,9.613668989e-10,7.023947478e-10,1.575732057e-09,9.533336998e-10,1.517204669e-10,9.181520800e-11,1.682911927e-09,1.096901347e-09,3.369592635e-12,7.409998346e-10,1.087241856e-09,9.298245494e-10,3.185102354e-09,1.324374046e-11,2.983821921e-10
0.085938,9.341762222e-10,5.649987622e-10,8.463774404e-10,2.627325990e-10,4.458306144e-11,2.065290505e-10,8.518853936e-10,4.686609368e-11,2.617906873e-11,2.321641920e-10,1.075360943e-09,2.087221990e-10,1.147928431e-11,2.902757378e-10,4.878586871e-10,8.702788822e-10,9.303284688e-10,7.097100059e-10,5.194429213e-10,1.160867328e-09,7.031824276e-10,1.108386556e-10,6.989385575e-11,1.240600213e-09,8.099451565e-10,2.537843409e-12,5.470689481e-10,8.032147140e-10,6.854396379e-10,2.349476291e-09,9.720236809e-12,2.199444363e-10
0.09375,6.845252078e-10,4.127625270e-10,6.159917119e-10,1.924363985e-10,3.253003961e-11,1.503748763e-10,6.216226154e-10,3.623842840e-11,1.908395897e-11,1.694619010e-10,7.856210746e-10,1.525891025e-10,8.658059978e-12,2.122010848e-10,3.574745612e-10,6.368860053e-10,6.820737690e-10,5.210156109e-10,3.821602797e-10,8.500420270e-10,5.156688339e-10,8.043469095e-11,5.304900902e-11,9.092686195e-10,5.948720206e-10,1.907815842e-12,4.018648438e-10,5.902636792e-10,5.025609477e-10,1.723617887e-09,7.072716403e-12,1.612815763e-10
0.10156,4.999191372e-10,3.003710572e-10,4.461181413e-10,1.405490754e-10,2.363524708e-11,1.089957504e-10,4.515554517e-10,2.774017069e-11,1.385406266e-11,1.231090648e-10,5.713688276e-10,1.110560575e-10,6.492138076e-12,1.544676807e-10,2.608935804e-10,4.640258922e-10,4.980607802e-10,3.809900870e-10,2.801533666e-10,6.196945024e-10,3.765505338e-10,5.807758202e-11,4.009698666e-11,6.636213567e-10,4.352064446e-10,1.433173811e-12,2.941943191e-10,4.322070296e-10,3.670921218e-10,1.260088140e-09,5.105253986e-12,1.178239739e-10
0.10938,3.643461020e-10,2.179212215e-10,3.218538285e-10,1.024752375e-10,1.711250312e-11,7.875806642e-11,3.268604302e-10,2.098294850e-11,1.001991773e-11,8.913867907e-11,4.141111278e-10,8.056287895e-11,4.829228652e-12,1.119480997e-10,1.898440571e-10,3.369477950e-10,3.625925689e-10,2.776698239e-10,2.047338974e-10,4.502051398e-10,2.739473775e-10,4.174218061e-11,3.011845525e-11,4.825937268e-10,3.171980421e-10,1.076226732e-12,2.146707627e-10,3.155421647e-10,2.672504189e-10,9.194230826e-10,3.655161166e-12,8.576455672e-11
0.11719,2.651622921e-10,1.576906743e-10,2.313948376e-10,7.463558796e-11,1.235180922e-11,5.676712419e-11,2.358386949e-10,1.570325608e-11,7.221490489e-12,6.436359882e-11,2.991901393e-10,5.826808499e-11,3.568146056e-12,8.074842699e-11,1.377778676e-10,2.439369793e-10,2.632588422e-10,2.016926291e-10,1.491370077e-10,3.260354269e-10,1.985679289e-10,2.985869297e-11,2.247469671e-11,3.496857530e-10,2.302861855e-10,8.100485025e-13,1.561335342e-10,2.297057512e-10,1.939387543e-10,6.700193485e-10,2.589463725e-12,6.217853292e-11
0.125,1.923135211e-10,1.135933249e-10,1.653746933e-10,5.420013818e-11,8.871010789e-12,4.071295478e-11,1.692279483e-10,1.165087292e-11,5.175439439e-12,4.622634966e-11,2.149622078e-10,4.191662091e-11,2.627065540e-12,5.786572650e-11,9.950877614e-11,1.756708263e-10,1.901957947e-10,1.457254787e-10,1.080972024e-10,2.347950200e-10,1.431005262e-10,2.120287695e-11,1.668036104e-11,2.518817901e-10,1.662503508e-10,6.123336802e-13,1.130091127e-10,1.663510917e-10,1.400264265e-10,4.866067380e-10,1.806717650e-12,4.482225613e-11
0.13281,1.385609398e-10,8.115183275e-11,1.170302119e-10,3.916209355e-11,6.325637077e-12,2.896372715e-11,1.203827622e-10,8.562146924e-12,3.682227406e-12,3.292543729e-11,1.532449224e-10,2.991212511e-11,1.932043374e-12,4.108573931e-11,7.134259035e-11,1.254856805e-10,1.364295828e-10,1.044959902e-10,7.778538180e-11,1.676824821e-10,1.021918574e-10,1.490645711e-11,1.229498643e-11,1.796968175e-10,1.189751855e-10,4.626751841e-13,8.120335257e-11,1.194149443e-10,1.003723054e-10,3.510781649e-10,1.241097381e-12,3.205892326e-11
0.14062,9.993198818e-11,5.802074503e-11,8.263840839e-11,2.830410473e-11,4.497640310e-12,2.057801834e-11,8.543462807e-11,6.225910695e-12,2.611163651e-12,2.339847437e-11,1.088446144e-10,2.128675517e-11,1.422362376e-12,2.904247739e-11,5.102078873e-11,8.937973848e-11,9.753746530e-11,7.466600360e-11,5.581475152e-11,1.192835531e-10,7.276285988e-11,1.041778893e-11,9.024021654e-12,1.277947573e-10,8.490758919e-11,3.562856338e-13,5.820951652e-11,8.554584908e-11,7.169538446e-11,2.536673053e-10,8.312342562e-13,2.284063264e-11
0.14844,7.162564059e-11,4.115651982e-11,5.787178983e-11,2.037549699e-11,3.180989009e-12,1.452017246e-11,6.015761087e-11,4.485399248e-12,1.836100133e-12,1.649781454e-11,7.662753000e-11,1.501842108e-11,1.057216940e-12,2.033763449e-11,3.619696212e-11,6.313467790e-11,6.919285278e-11,5.293993258e-11,3.975494216e-11,8.412007894e-11,5.136185763e-11,7.199276913e-12,6.567225948e-12,8.997915671e-11,6.010930698e-11,2.778603475e-13,4.145476972e-11,6.069159398e-11,5.085231936e-11,1.820902805e-10,5.399028379e-13,1.612931157e-11
0.15625,5.110786674e-11,2.905462493e-11,4.023174691e-11,1.462090269e-11,2.237644855e-12,1.018485159e-11,4.204548177e-11,3.190990734e-12,1.283298741e-12,1.154695578e-11,5.347150276e-11,1.050509254e-11,7.855144281e-13,1.410617267e-11,2.547074769e-11,4.422784966e-11,4.869060851e-11,3.722336239e-11,2.810090214e-11,5.880117225e-11,3.595192685e-11,4.913660645e-12,4.740735928e-12,6.274402419e-11,4.220352728e-11,2.206262662e-13,2.932647216e-11,4.267721791e-11,3.579457898e-11,1.300586405e-10,3.357161847e-13,1.128045433e-11
0.16406,3.619547195e-11,2.036139825e-11,2.789718023e-11,1.049294345e-11,1.569662686e-12,7.162188159e-12,2.914422986e-11,2.246857099e-12,8.760859794e-13,8.045850505e-12,3.691027275e-11,7.279385646e-12,5.824387853e-13,9.619615379e-12,1.772722102e-11,3.068271921e-11,3.392726915e-11,2.593027587e-11,1.967125167e-11,4.067093329e-11,2.491268899e-11,3.281914673e-12,3.401946033e-12,4.312893842e-11,2.933239558e-11,1.795535383e-13,2.052792891e-11,2.965907510e-11,2.490069813e-11,9.240819634e-11,1.934857240e-13,7.752663517e-12
0.17188,2.565948242e-11,1.423232113e-11,1.911137705e-11,7.498775440e-12,1.096751018e-12,4.992252068e-12,2.006921577e-11,1.565118975e-12,6.084359473e-13,5.558606718e-12,2.532118133e-11,5.000051229e-12,4.374200018e-13,6.546212532e-12,1.225676101e-11,2.112322349e-11,2.347517266e-11,1.792309809e-11,1.368479625e-11,2.788158621e-11,1.710460548e-11,2.186104809e-12,2.432106939e-12,2.937022702e-11,2.022635846e-11,1.480308694e-13,1.434064511e-11,2.045961073e-11,1.728415246e-11,6.574245632e-11,1.064767117e-13,5.298298410e-12
0.17969,1.810324798e-11,9.945255250e-12,1.300470208e-11,5.342338697e-12,7.631249546e-13,3.439454937e-12,1.369480778e-11,1.053769849e-12,4.205183745e-13,3.793735348e-12,1.715952633e-11,3.403321818e-12,3.316981531e-13,4.396668739e-12,8.386080401e-12,1.440188930e-11,1.606323246e-11,1.227917077e-11,9.458040720e-12,1.888232549e-11,1.164551284e-11,1.430233396e-12,1.731327205e-12,1.973907202e-11,1.380227069e-11,1.241891838e-13,9.946663259e-12,1.394146976e-11,1.187786163e-11,4.653300132e-11,5.366268315e-14,3.572900814e-12
0.1875,1.276331341e-11,6.948907709e-12,8.786460278e-12,3.804847478e-12,5.322386471e-13,2.351929826e-12,9.281272447e-12,6.994657080e-13,2.975275740e-13,2.568163613e-12,1.153263911e-11,2.296797618e-12,2.682302319e-13,2.953915155e-12,5.685082025e-12,9.752729888e-12,1.090740356e-11,8.340400488e-12,6.489628973e-12,1.268338775e-11,7.857644796e-12,9.351759670e-13,1.198599332e-12,1.311445498e-11,9.328697396e-12,1.056290499e-13,6.883785446e-12,9.417584309e-12,8.140372558e-12,3.287641786e-11,2.690787243e-14,2.387303505e-12
0.19531,8.737549209e-12,4.825904635e-12,5.956404477e-12,2.624416497e-12,3.577328487e-13,1.568163170e-12,6.148722778e-12,4.890478346e-13,1.994234931e-13,1.723805784e-12,7.587756017e-12,1.536908758e-12,2.345347742e-13,1.882665246e-12,3.793417823e-12,6.557633837e-12,7.297935613e-12,5.618461140e-12,4.439093671e-12,8.393542241e-12,5.270860629e-12,5.451229431e-13,8.224471475e-13,8.418737753e-12,6.038185483e-12,9.094895193e-14,4.598192885e-12,5.978057244e-12,5.367744254e-12,2.245120348e-11,2.093411008e-14,1.506439621e-12
0.20312,6.205258674e-12,3.428875228e-12,4.133696567e-12,1.899564913e-12,2.528066956e-13,1.126797449e-12,4.190457896e-12,3.728174539e-13,1.472090163e-13,1.191872495e-12,5.075196489e-12,1.038558664e-12,2.236904501e-13,1.299770500e-12,2.527734165e-12,4.403305598e-12,4.886118151e-12,3.784552452e-12,3.033458057e-12,5.573801863e-12,3.518498824e-12,3.589700532e-13,5.594612240e-13,5.447986148e-12,4.028520002e-12,7.888907457e-14,3.187205025e-12,3.930424767e-12,3.654622971e-12,1.604641430e-11,2.428423741e-14,9.836938052e-13
0.21094,4.508583428e-12,2.506147127e-12,2.799637292e-12,1.385235816e-12,1.855583006e-13,7.893370091e-13,2.844502420e-12,2.666011724e-13,1.141035388e-13,7.980134103e-13,3.328104897e-12,6.809228483e-13,1.909340516e-13,8.862908672e-13,1.653835299e-12,2.881922182e-12,3.186674489e-12,2.537795320e-12,2.073690921e-12,3.585895221e-12,2.301712473e-12,2.372612808e-13,3.994428879e-13,3.432238261e-12,2.644762021e-12,6.919429026e-14,2.212739185e-12,2.581762254e-12,2.521553513e-12,1.161111792e-11,3.102444229e-14,6.308148158e-13
0.21875,3.289098413e-12,1.844144961e-12,1.866584970e-12,1.022330247e-12,1.392977882e-13,5.517471807e-13,1.912010730e-12,1.604594034e-13,9.034808193e-14,5.152915088e-13,2.125392161e-12,4.333285237e-13,1.537406964e-13,6.139271160e-13,1.046758819e-12,1.822636051e-12,2.013888078e-12,1.673334049e-12,1.406446435e-12,2.230789173e-12,1.463499088e-12,1.686365053e-13,2.894365890e-13,2.089467380e-12,1.714049348e-12,6.098659020e-14,1.528032882e-12,1.668745012e-12,1.735661254e-12,8.355952511e-12,4.544744685e-14,3.997263527e-13
0.22656,2.469168756e-12,1.432591087e-12,1.273805849e-12,7.919122154e-13,1.124070936e-13,3.837757926e-13,1.316974576e-12,8.954047358e-14,7.471088104e-14,3.371903602e-13,1.376135096e-12,2.848060196e-13,1.404996432e-13,4.450673037e-13,6.857233082e-13,1.180256391e-12,1.283511577e-12,1.131769807e-12,9.746440930e-13,1.385022487e-12,9.308104992e-13,1.298222403e-13,2.051860921e-13,1.247646483e-12,1.112209899e-12,5.550463853e-14,1.074674655e-12,1.103174872e-12,1.225787908e-12,6.268150344e-12,6.232749156e-14,2.542730676e-13
0.23438,1.883739013e-12,1.155256313e-12,9.425295050e-13,6.313083624e-13,9.343276426e-14,2.865117171e-13,9.467093706e-13,6.795789157e-14,6.194387755e-14,2.423445818e-13,9.322562624e-13,2.050886860e-13,1.514502211e-13,3.433659623e-13,4.716273253e-13,8.087160888e-13,8.415095083e-13,7.900677219e-13,6.926029605e-13,9.017900636e-13,6.020561579e-13,1.070643808e-13,1.313976485e-13,7.253267430e-13,7.133089087e-13,5.114923793e-14,7.607282994e-13,7.162408289e-13,8.667743092e-13,4.864243021e-12,8.315038199e-14,1.581203699e-13
0.24219,1.534531829e-12,9.894206385e-13,7.471531956e-13,5.207322837e-13,8.291973823e-14,2.288777141e-13,7.356190188e-13,6.786188130e-14,5.317713607e-14,1.894036877e-13,6.625619720e-13,1.574495202e-13,1.565980693e-13,2.716879763e-13,3.397753028e-13,5.810232048e-13,5.792683563e-13,5.832588343e-13,5.178966145e-13,6.378034992e-13,4.062699388e-13,9.520789687e-14,7.328806322e-14,4.312565007e-13,4.615808888e-13,4.829637010e-14,5.602893860e-13,4.743894861e-13,6.439362310e-13,3.884286830e-12,1.025161913e-13,1.014810431e-13
0.25,1.250471072e-12,8.668470745e-13,5.894735129e-13,4.245105478e-13,7.425552494e-14,1.828225357e-13,5.639628755e-13,5.797652624e-14,4.555677761e-14,1.377403669e-13,4.559251312e-13,1.171662589e-13,1.427373880e-13,2.107780908e-13,2.340008710e-13,4.133922168e-13,3.985225399e-13,4.472046801e-13,4.115769850e-13,4.642848256e-13,2.816514378e-13,8.689806304e-14,3.951008550e-14,2.555222325e-13,2.981595520e-13,4.682797826e-14,4.261580808e-13,3.058692591e-13,5.063511408e-13,2.995881908e-12,1.220740114e-13,6.879251265e-14
0.25781,6.523743674e-13,5.277401644e-13,2.960505342e-13,2.209775403e-13,4.698109772e-14,8.217411696e-14,2.227551884e-13,3.618858986e-14,3.284099814e-14,5.589235375e-14,1.927494503e-13,8.149895715e-14,1.259120723e-13,9.910537944e-14,1.588805354e-13,2.788397929e-13,2.545790163e-13,3.235694007e-13,2.864658341e-13,3.361385581e-13,1.334313760e-13,7.208603965e-14,2.727338542e-14,1.152895643e-13,4.394365417e-14,4.389397752e-14,1.797337612e-13,1.195227242e-13,2.441648638e-13,1.342810153e-12,1.534310683e-13,1.778027374e-14
0.26562,5.083002694e-13,5.014579484e-13,2.378278061e-13,1.789775963e-13,4.644450596e-14,6.451442669e-14,1.583620875e-13,1.348460535e-14,3.283363702e-14,3.955072633e-14,1.236904663e-13,7.188543117e-14,1.200100696e-13,9.948179992e-14,1.530630724e-13,2.550845541e-13,2.295245861e-13,2.801329367e-13,2.418501397e-13,3.092170326e-13,1.043379623e-13,8.431849185e-14,4.234803330e-14,1.086586637e-13,3.056204047e-14,4.492786144e-14,1.813432957e-13,9.737705794e-14,2.434494699e-13,1.016317079e-12,1.673720732e-13,1.234611579e-14
0.27344,5.367740794e-13,5.236148050e-13,1.850595981e-13,1.789850277e-13,4.747743009e-14,5.498156014e-14,1.494501202e-13,1.345506793e-14,2.998618873e-14,3.615803937e-14,1.241373555e-13,6.954248206e-14,1.090061041e-13,8.521779793e-14,1.676324365e-13,2.747928072e-13,2.744455998e-13,3.127731262e-13,2.846514590e-13,3.643644294e-13,1.169037107e-13,7.339078639e-14,5.379758806e-14,1.340213224e-13,3.753565704e-14,4.453453424e-14,1.899700118e-13,1.111192697e-13,2.786557724e-13,1.016573680e-12,1.781760396e-13,7.652401565e-15
0.28125,5.891966397e-13,5.714006292e-13,1.792571108e-13,1.825937607e-13,4.995512545e-14,6.514367358e-14,1.649376403e-13,2.651052762e-14,2.899400456e-14,3.913581891e-14,9.810460858e-14,5.827545155e-14,9.582759893e-14,8.177460286e-14,1.602230342e-13,2.632323850e-13,2.842228074e-13,3.106173992e-13,2.859722919e-13,3.631171295e-13,1.161757369e-13,7.364223195e-14,4.565195553e-14,1.322456664e-13,3.539863583e-14,4.312353081e-14,1.934166582e-13,1.008307262e-13,3.004421450e-13,9.632373194e-13,1.863921188e-13,6.692303363e-15
0.28906,6.370018523e-13,6.328214685e-13,1.856685531e-13,1.987819079e-13,5.392700997e-14,8.313952468e-14,1.856862781e-13,4.178295213e-14,2.940785459e-14,4.192841392e-14,8.951840683e-14,5.036142203e-14,8.802638126e-14,8.631001200e-14,1.492989709e-13,2.575089338e-13,2.871638583e-13,2.936191661e-13,2.723302131e-13,3.480824240e-13,1.116263480e-13,7.763012535e-14,3.194000922e-14,1.080043878e-13,3.165475332e-14,4.145912678e-14,1.963796957e-13,8.845321344e-14,3.157581970e-13,9.993497289e-13,1.889249261e-13,7.271570881e-15
0.29688,6.133084707e-13,6.637196669e-13,1.921001145e-13,1.974579972e-13,5.254775844e-14,9.178113830e-14,1.820041871e-13,4.908721436e-14,2.871880525e-14,4.012638431e-14,8.829506256e-14,5.129663306e-14,9.455964297e-14,8.770133262e-14,1.602273189e-13,2.968769420e-13,3.305075410e-13,3.126850933e-13,2.765432897e-13,3.992783200e-13,1.220459294e-13,7.945441240e-14,3.425215548e-14,1.172479918e-13,2.619404312e-14,3.955202252e-14,1.937624080e-13,8.450685476e-14,3.172694020e-13,9.200117134e-13,1.897420361e-13,8.221906521e-15
0.30469,5.545480971e-13,6.750937269e-13,1.839633086e-13,1.990366352e-13,5.028716155e-14,9.925434590e-14,1.745977385e-13,4.685264646e-14,2.867991225e-14,4.155618799e-14,8.512989973e-14,5.603242213e-14,1.086513466e-13,9.163800048e-14,1.705723436e-13,3.226010348e-13,3.686891857e-13,3.279755376e-13,2.803806435e-13,4.596864849e-13,1.297621175e-13,8.271255066e-14,4.734042550e-14,1.223343103e-13,2.624863182e-14,3.736157608e-14,2.001936911e-13,8.081396350e-14,3.167134809e-13,8.219707163e-13,1.854250342e-13,1.095275199e-14
0.3125,5.124188584e-13,6.800427165e-13,1.833502338e-13,1.996796047e-13,4.651922735e-14,1.054870505e-13,1.695728161e-13,4.340619395e-14,2.814932524e-14,5.141534677e-14,9.943032003e-14,6.589795226e-14,1.204157487e-13,9.614890186e-14,1.967381448e-13,3.723281687e-13,4.424583956e-13,3.699790484e-13,3.068540423e-13,5.648967574e-13,1.530495879e-13,8.180297003e-14,5.292461925e-14,1.529502759e-13,3.103985667e-14,3.421437701e-14,2.097451860e-13,9.311345545e-14,3.204808728e-13,7.236535385e-13,1.782593303e-13,1.177910124e-14
0.32031,4.680862708e-13,6.820898416e-13,1.891014950e-13,1.999105596e-13,4.323696809e-14,1.120388501e-13,1.591974396e-13,4.013610492e-14,2.864378861e-14,6.224052722e-14,1.119468942e-13,7.993199182e-14,1.290956086e-13,1.121554728e-13,2.278387325e-13,4.245487336e-13,5.127583109e-13,3.917706454e-13,3.118636302e-13,6.455799949e-13,1.658661533e-13,8.630727405e-14,4.261095061e-14,1.592467455e-13,3.047115848e-14,3.013211653e-14,2.142848564e-13,9.898097928e-14,3.133298629e-13,6.636964602e-13,1.680517909e-13,1.465110985e-14
0.32812,4.620926615e-13,7.057778048e-13,2.159618939e-13,2.025476870e-13,4.007496253e-14,1.180557624e-13,1.512201861e-13,3.320953019e-14,2.962390633e-14,6.553235501e-14,1.128432694e-13,8.763849532e-14,1.311130175e-13,1.323703820e-13,2.570227928e-13,4.831296135e-13,5.786450595e-13,4.155835234e-13,3.192569789e-13,7.105137214e-13,1.789345553e-13,9.025791269e-14,3.156430218e-14,1.624509449e-13,3.200125028e-14,2.570446306e-14,2.175670234e-13,1.094074287e-13,3.036507714e-13,6.664371569e-13,1.548852704e-13,1.787233364e-14
0.33594,4.523779653e-13,7.219988854e-13,2.579845800e-13,2.026884617e-13,3.551277724e-14,1.290028297e-13,1.535037008e-13,3.199726166e-14,2.945783443e-14,7.133564595e-14,1.017227011e-13,9.383577646e-14,1.245747051e-13,1.322770752e-13,2.783315413e-13,5.292079787e-13,6.340925137e-13,4.498230860e-13,3.354953274e-13,7.583084645e-13,1.967428516e-13,9.175871993e-14,3.533044727e-14,1.685416263e-13,2.689823228e-14,2.147355869e-14,2.038863450e-13,1.113920746e-13,2.799056112e-13,6.501280749e-13,1.412196164e-13,2.009907998e-14
0.34375,4.628773477e-13,7.547345151e-13,3.150725609e-13,2.067585175e-13,3.170014602e-14,1.468309058e-13,1.683362915e-13,4.817152564e-14,2.973292311e-14,8.135489701e-14,7.994523337e-14,9.441243626e-14,1.138505749e-13,1.254009254e-13,2.741741015e-13,5.287336894e-13,6.501937353e-13,4.811173919e-13,3.596438746e-13,7.597691116e-13,2.125465782e-13,9.122305560e-14,5.260028999e-14,1.688546482e-13,3.001011466e-14,1.829581474e-14,1.973498921e-13,1.190696033e-13,2.690815602e-13,6.363498058e-13,1.263268955e-13,2.043667390e-14
0.35156,4.540360628e-13,7.767739165e-13,3.779202204e-13,2.061660758e-13,2.714484008e-14,1.625832401e-13,1.834302567e-13,7.362865708e-14,2.977894312e-14,9.591026591e-14,7.949960816e-14,1.040758153e-13,1.081041236e-13,1.183624744e-13,2.722842610e-13,5.321306730e-13,6.816535416e-13,5.268320921e-13,3.975239845e-13,7.889056602e-13,2.386811609e-13,8.866371140e-14,6.825374943e-14,1.804266290e-13,3.746606417e-14,1.598047074e-14,1.920568404e-13,1.298879683e-13,2.603349463e-13,6.040221280e-13,1.120245070e-13,1.970820466e-14
0.35938,4.518313236e-13,8.156244080e-13,4.403550121e-13,2.097499834e-13,2.415848462e-14,1.725753029e-13,1.940154140e-13,8.365091631e-14,3.159314550e-14,1.023718845e-13,8.966331236e-14,1.133487172e-13,1.122454770e-13,1.267203331e-13,2.677094713e-13,5.304674055e-13,7.022010373e-13,5.504943074e-13,4.147546778e-13,8.101479732e-13,2.496152252e-13,9.164143099e-14,7.332039399e-14,1.811156001e-13,4.563377547e-14,1.496255696e-14,2.021461343e-13,1.501325616e-13,2.594123440e-13,5.898935976e-13,9.683188305e-14,2.195940811e-14
0.36719,4.420936830e-13,8.399253598e-13,4.826899212e-13,2.081590518e-13,2.079455075e-14,1.714812902e-13,1.934359801e-13,7.134000003e-14,3.261001239e-14,9.933925400e-14,9.392829114e-14,1.169557273e-13,1.199927242e-13,1.325257735e-13,2.658729427e-13,5.411627787e-13,7.335338846e-13,5.793596670e-13,4.353028983e-13,8.481394728e-13,2.623275327e-13,9.405993717e-14,7.499605322e-14,1.876472990e-13,5.361837568e-14,1.455740782e-14,2.114209811e-13,1.661797181e-13,2.535749477e-13,5.631203591e-13,8.238373769e-14,2.713222171e-14
0.375,4.441841470e-13,8.671904930e-13,5.233762620e-13,2.053111987e-13,1.770436894e-14,1.665508799e-13,1.901929208e-13,5.253016637e-14,3.342690996e-14,9.395147357e-14,8.321979308e-14,1.108423153e-13,1.265345516e-13,1.332413037e-13,2.596690946e-13,5.434694549e-13,7.523968467e-13,6.041133383e-13,4.502152129e-13,8.642166557e-13,2.690867578e-13,9.829078590e-14,7.591319141e-14,1.937348538e-13,6.194432037e-14,1.453692022e-14,2.200745627e-13,1.867060314e-13,2.523666897e-13,5.454238837e-13,6.842067501e-14,3.362873707e-14
0.38281,4.450814482e-13,8.782422631e-13,5.554422493e-13,1.994233153e-13,1.445224291e-14,1.607388101e-13,1.861692680e-13,4.664810785e-14,3.352317620e-14,9.325738021e-14,6.587866307e-14,1.015021609e-13,1.320840330e-13,1.296748238e-13,2.521044545e-13,5.509794359e-13,7.792703228e-13,6.397592853e-13,4.771034029e-13,8.892278653e-13,2.841561202e-13,9.993150790e-14,7.404232379e-14,2.038042139e-13,6.728052833e-14,1.493444000e-14,2.169809211e-13,1.966013537e-13,2.426976488e-13,5.225414429e-13,5.636476883e-14,3.414572318e-14
0.39062,4.381732593e-13,8.755856965e-13,5.749365770e-13,1.935877034e-13,1.156247370e-14,1.552548780e-13,1.812783993e-13,5.231812752e-14,3.422035468e-14,9.574566864e-14,4.999668693e-14,9.382555935e-14,1.406156638e-13,1.301316583e-13,2.457912808e-13,5.594044121e-13,8.038629098e-13,6.732458044e-13,5.005652182e-13,9.105596379e-13,2.983086131e-13,1.025197314e-13,6.843204354e-14,2.152839697e-13,6.924505165e-14,1.569671991e-14,2.059202539e-13,2.072430335e-13,2.266841663e-13,4.907867233e-13,4.563322086e-14,3.073143185e-14
0.39844,4.318321840e-13,8.624875712e-13,5.602804275e-13,1.880396767e-13,9.739164113e-15,1.499280715e-13,1.818694773e-13,5.709062387e-14,3.525426372e-14,9.697009202e-14,3.565339908e-14,8.762713350e-14,1.483657468e-13,1.336051341e-13,2.309715126e-13,5.517255770e-13,8.053696089e-13,6.905899361e-13,5.161304349e-13,8.954833813e-13,3.034665184e-13,1.074987680e-13,6.631952958e-14,2.088569427e-13,7.188385278e-14,1.739171241e-14,2.000496070e-13,2.108179870e-13,2.089297881e-13,4.981856187e-13,3.635728274e-14,2.781317006e-14
0.40625,4.324604433e-13,8.376705485e-13,5.272753140e-13,1.804553757e-13,8.449977408e-15,1.429913547e-13,1.844726849e-13,5.504650194e-14,3.552031945e-14,9.557094315e-14,3.319681644e-14,8.121297630e-14,1.499243588e-13,1.271566077e-13,2.141584745e-13,5.345084482e-13,7.926996245e-13,7.007238357e-13,5.295364281e-13,8.660926183e-13,3.078828321e-13,1.131293755e-13,7.473858598e-14,2.036070101e-13,8.151270071e-14,2.005456722e-14,2.017471335e-13,2.250264631e-13,2.025151494e-13,5.524769149e-13,2.853728007e-14,2.591922120e-14
0.41406,4.492267525e-13,8.175380467e-13,4.906921307e-13,1.741414570e-13,7.869562204e-15,1.381466689e-13,1.950657305e-13,4.939574951e-14,3.453258693e-14,9.205186830e-14,3.975496469e-14,7.524961396e-14,1.446412550e-13,1.093539935e-13,1.952722697e-13,5.079800313e-13,7.673249782e-13,7.021507889e-13,5.408979512e-13,8.253342836e-13,3.112074138e-13,1.187765895e-13,9.088367280e-14,1.945622070e-13,9.395249766e-14,2.378349525e-14,2.093101719e-13,2.349396524e-13,2.042580573e-13,6.483199175e-13,2.225152623e-14,2.630956682e-14
0.42188,4.726297399e-13,7.896394816e-13,4.537664028e-13,1.655236835e-13,7.942495424e-15,1.315684522e-13,1.969906997e-13,4.304744154e-14,3.313420440e-14,8.192477148e-14,4.369295121e-14,6.545482272e-14,1.378394401e-13,8.943649574e-14,1.752390376e-13,4.776096415e-13,7.384623057e-13,7.021342010e-13,5.549402999e-13,8.005940687e-13,3.212082087e-13,1.227978940e-13,1.063389138e-13,1.968121123e-13,1.105760730e-13,2.857320384e-14,2.154288471e-13,2.450150719e-13,2.051275223e-13,7.503623820e-13,1.831297540e-14,2.640183983e-14
0.42969,5.187325285e-13,7.724498666e-13,4.303822621e-13,1.588489999e-13,8.870619431e-15,1.299784772e-13,2.084481118e-13,3.945924888e-14,3.178570638e-14,7.439725733e-14,4.403056816e-14,5.632265967e-14,1.339658034e-13,7.163678842e-14,1.565766710e-13,4.478278018e-13,7.078584483e-13,6.958785400e-13,5.617752218e-13,7.784576796e-13,3.283198325e-13,1.272604414e-13,1.137792713e-13,1.965066220e-13,1.231771193e-13,3.406891995e-14,2.198293974e-13,2.517468136e-13,2.000683932e-13,8.923345973e-13,1.647942828e-14,2.714929061e-14
0.4375,5.750097904e-13,7.594743784e-13,4.121968767e-13,1.512876305e-13,1.031284049e-14,1.298853820e-13,2.222100053e-13,4.037930166e-14,3.099082740e-14,7.041542073e-14,4.295068805e-14,4.737557806e-14,1.356638750e-13,5.981907947e-14,1.336223883e-13,4.089664695e-13,6.642558172e-13,6.732206515e-13,5.543135242e-13,7.548219421e-13,3.292082845e-13,1.318858537e-13,1.137546376e-13,1.920307185e-13,1.370140336e-13,4.060414942e-14,2.309899264e-13,2.630649945e-13,1.960615584e-13,1.018757493e-12,1.652684674e-14,2.696766137e-14
0.44531,6.440901802e-13,7.586199727e-13,4.092442865e-13,1.466305225e-13,1.185790668e-14,1.315385934e-13,2.432233127e-13,4.175241411e-14,3.029523762e-14,7.211395308e-14,4.461023633e-14,4.299083558e-14,1.430745736e-13,5.035651640e-14,1.196383055e-13,3.836176850e-13,6.319864201e-13,6.514959180e-13,5.426353399e-13,7.479497127e-13,3.306946381e-13,1.363046515e-13,1.090567935e-13,1.891407721e-13,1.494360943e-13,4.810072466e-14,2.497177239e-13,2.817893837e-13,1.993515039e-13,1.142915018e-12,1.807492380e-14,2.852737060e-14
0.45312,7.204544375e-13,7.565562403e-13,4.065797959e-13,1.398246310e-13,1.381375756e-14,1.319806058e-13,2.654935534e-13,3.846034888e-14,3.013755486e-14,7.472065250e-14,5.017844877e-14,4.029576622e-14,1.513160511e-13,4.597072266e-14,1.062205271e-13,3.552952099e-13,5.907432178e-13,6.198464261e-13,5.232766996e-13,7.350568864e-13,3.286398859e-13,1.405482952e-13,1.033788243e-13,1.828837121e-13,1.596300189e-13,5.638174684e-14,2.685637921e-13,3.020213244e-13,2.063566132e-13,1.294175079e-12,2.069371711e-14,3.067139842e-14
0.46094,8.044431524e-13,7.516093640e-13,4.060986688e-13,1.298445148e-13,1.510785504e-14,1.309573389e-13,2.913767374e-13,3.338461625e-14,2.899257797e-14,7.878238940e-14,5.373508162e-14,3.845738514e-14,1.515116538e-13,4.038354847e-14,9.720669165e-14,3.322400911e-13,5.523035109e-13,5.906797891e-13,5.079386803e-13,7.206189441e-13,3.291268672e-13,1.404478014e-13,1.027389289e-13,1.764637182e-13,1.663487525e-13,6.491744813e-14,2.806345986e-13,3.108680044e-13,2.093052903e-13,1.461972787e-12,2.452452710e-14,3.230987205e-14
0.46875,8.711256008e-13,7.338291849e-13,3.921250256e-13,1.165479274e-13,1.560759563e-14,1.272193521e-13,3.147336316e-13,3.216494026e-14,2.715257200e-14,8.295934492e-14,6.106037827e-14,3.878972280e-14,1.428999884e-13,3.571521707e-14,8.675431176e-14,2.998846032e-13,4.974537228e-13,5.471533665e-13,4.828476435e-13,6.748698981e-13,3.189841066e-13,1.362530958e-13,1.068684089e-13,1.584054103e-13,1.708824078e-13,7.323197018e-14,2.899482053e-13,2.996369068e-13,2.106825463e-13,1.545651293e-12,2.929562082e-14,3.206626992e-14
0.47656,8.988280712e-13,7.030754505e-13,3.773375581e-13,1.053086515e-13,1.542903881e-14,1.215298012e-13,3.267760586e-13,3.540410347e-14,2.456934522e-14,8.600155010e-14,7.110715438e-14,4.174709049e-14,1.290174291e-13,3.186997611e-14,8.137265395e-14,2.714708192e-13,4.430189513e-13,4.981484669e-13,4.539812182e-13,6.233130112e-13,3.071422433e-13,1.275952805e-13,1.118094275e-13,1.423736991e-13,1.759464308e-13,8.018488969e-14,3.010062276e-13,2.835087102e-13,2.204379175e-13,1.521213985e-12,3.360790976e-14,3.036234264e-14
0.48438,9.098590799e-13,6.704601299e-13,3.646921416e-13,1.000804627e-13,1.592148126e-14,1.164777099e-13,3.335454546e-13,3.833634795e-14,2.234784834e-14,8.821395707e-14,8.519141926e-14,4.633290028e-14,1.149696188e-13,3.159779648e-14,7.924350074e-14,2.450207231e-13,3.870718117e-13,4.418126478e-13,4.160892813e-13,5.627718802e-13,2.891087572e-13,1.180689099e-13,1.132666835e-13,1.279273400e-13,1.817247194e-13,8.518693080e-14,3.120504086e-13,2.820360762e-13,2.473011481e-13,1.542962144e-12,3.604565078e-14,2.841510407e-14
0.49219,9.453377629e-13,6.459279814e-13,3.591426357e-13,9.661165056e-14,1.665296303e-14,1.116166037e-13,3.369956143e-13,3.884832911e-14,2.078036417e-14,9.055334744e-14,9.470295927e-14,5.039303554e-14,1.010812011e-13,3.490960636e-14,7.712008095e-14,2.176391681e-13,3.280710464e-13,3.799852425e-13,3.728393882e-13,4.962602491e-13,2.676258365e-13,1.090196153e-13,1.124910581e-13,1.146773132e-13,1.855078784e-13,8.798226820e-14,3.177867770e-13,2.851908400e-13,2.778947710e-13,1.699188827e-12,3.661978964e-14,2.769474520e-14
0.5,9.747583390e-13,6.211097011e-13,3.575983535e-13,9.312466603e-14,1.636473629e-14,1.047361048e-13,3.360827925e-13,3.800375367e-14,1.900117265e-14,9.400012484e-14,1.017806862e-13,5.521776746e-14,8.725950492e-14,3.927425232e-14,7.657687758e-14,1.972601437e-13,2.788235537e-13,3.227473865e-13,3.305006089e-13,4.425911382e-13,2.483861968e-13,9.857492971e-14,1.099427713e-13,1.068876481e-13,1.908779303e-13,8.875231985e-14,3.194229137e-13,2.758226195e-13,3.022136690e-13,1.871488432e-12,3.721522295e-14,2.722971303e-14
0.50781,9.433895094e-13,5.942811591e-13,3.512090916e-13,9.169639878e-14,1.467829478e-14,9.480269453e-14,3.139478618e-13,3.559435715e-14,1.720076013e-14,9.257950211e-14,1.051930637e-13,5.880993596e-14,7.439289711e-14,4.364799627e-14,7.690606354e-14,1.768232532e-13,2.300322578e-13,2.638946474e-13,2.859364707e-13,3.905004122e-13,2.269274978e-13,8.830689917e-14,1.045182633e-13,9.615062613e-14,1.903847673e-13,8.738950655e-14,3.170775733e-13,2.442840244e-13,3.039155565e-13,1.871559930e-12,3.790565112e-14,2.620793243e-14
0.51562,8.606696560e-13,5.615838500e-13,3.402026772e-13,9.455342229e-14,1.257462393e-14,8.217163282e-14,2.742882117e-13,2.993309822e-14,1.569990610e-14,8.520267769e-14,1.053603318e-13,6.013696864e-14,6.116537439e-14,4.818527968e-14,7.710343194e-14,1.529237726e-13,1.812445285e-13,2.102717205e-13,2.450766018e-13,3.414855066e-13,2.081209692e-13,7.652469073e-14,9.664960621e-14,8.873250939e-14,1.908590732e-13,8.308814715e-14,3.116173422e-13,2.181685565e-13,2.989844873e-13,1.701276100e-12,3.720595320e-14,2.319610370e-14
0.52344,7.798439877e-13,5.492593727e-13,3.298789942e-13,1.000597275e-13,1.128227711e-14,7.178980493e-14,2.374826635e-13,2.310987974e-14,1.469302792e-14,7.552957753e-14,1.110017868e-13,6.033000177e-14,4.758798094e-14,5.202571652e-14,7.827286010e-14,1.300955210e-13,1.356025191e-13,1.604743732e-13,2.052934545e-13,2.917683344e-13,1.866003119e-13,6.633912693e-14,8.762446078e-14,8.060618947e-14,1.825420165e-13,7.603789325e-14,2.938713175e-13,2.038273976e-13,2.947910029e-13,1.547394884e-12,3.510817176e-14,1.975754243e-14
0.53125,7.261923371e-13,5.304936142e-13,3.129682497e-13,1.077470698e-13,9.976901526e-15,6.360533043e-14,2.066414548e-13,2.085843643e-14,1.310894843e-14,6.925013227e-14,1.183396913e-13,6.300903928e-14,3.519109275e-14,5.537921325e-14,8.387743199e-14,1.237672859e-13,1.104606714e-13,1.243324732e-13,1.740744228e-13,2.589154277e-13,1.706100840e-13,5.557874016e-14,8.123593512e-14,7.617612926e-14,1.769985596e-13,6.786728529e-14,2.718776354e-13,1.920559205e-13,3.049310378e-13,1.548414960e-12,3.330578226e-14,1.609534816e-14
0.53906,6.978203522e-13,5.043425026e-13,2.978121867e-13,1.127280187e-13,8.288848724e-15,5.678401583e-14,1.826619400e-13,2.151393909e-14,1.115081917e-14,6.552730328e-14,1.289151844e-13,6.817205272e-14,2.686441187e-14,5.946162352e-14,9.584742230e-14,1.340477072e-13,1.026625168e-13,9.633105105e-14,1.474271447e-13,2.353923460e-13,1.566207039e-13,4.667254855e-14,7.792282847e-14,7.064121366e-14,1.669785998e-13,5.927409867e-14,2.389729623e-13,1.785791552e-13,3.108894212e-13,1.719050022e-12,3.239412419e-14,1.392950922e-14
0.54688,6.821900064e-13,4.786018480e-13,2.800325357e-13,1.204445314e-13,7.086803964e-15,4.886214547e-14,1.558110111e-13,1.954695200e-14,9.472064572e-15,5.882082034e-14,1.375065786e-13,7.168215913e-14,2.091584058e-14,6.363665173e-14,1.055487367e-13,1.413246130e-13,9.494113897e-14,7.183798861e-14,1.241772408e-13,2.104778207e-13,1.433493592e-13,3.965206667e-14,7.772841912e-14,6.465460016e-14,1.621047200e-13,5.213297321e-14,2.116339112e-13,1.755134770e-13,3.103126496e-13,1.855332866e-12,3.231324546e-14,1.260352413e-14
0.55469,7.125263119e-13,4.649425146e-13,2.723115268e-13,1.299441147e-13,6.774116808e-15,4.281034634e-14,1.404530663e-13,1.512839193e-14,8.954563224e-15,4.974559898e-14,1.405085101e-13,7.049459094e-14,1.615794603e-14,6.651914175e-14,1.093512073e-13,1.392840835e-13,8.403840128e-14,5.222564391e-14,1.040033913e-13,1.879044322e-13,1.292897175e-13,3.418554465e-14,7.668191859e-14,5.939616877e-14,1.544138840e-13,4.544156250e-14,1.793003775e-13,1.819547203e-13,2.969732432e-13,1.760411055e-12,3.326215397e-14,1.219077323e-14
0.5625,7.273975020e-13,4.497840863e-13,2.641435570e-13,1.404852534e-13,6.567782158e-15,3.929327312e-14,1.350164057e-13,1.419704010e-14,9.372086828e-15,4.158578389e-14,1.411771165e-13,6.790567551e-14,1.266411144e-14,7.005297464e-14,1.125300697e-13,1.372148749e-13,7.746101388e-14,3.795545818e-14,8.677153617e-14,1.721417209e-13,1.151923957e-13,2.988081391e-14,7.270647967e-14,5.497960782e-14,1.476583978e-13,3.976245959e-14,1.506776416e-13,1.910704325e-13,2.820219298e-13,1.551133925e-12,3.577604247e-14,1.203542464e-14
0.57031,7.355027105e-13,4.093371695e-13,2.513053160e-13,1.520069549e-13,5.963830341e-15,3.824384981e-14,1.398888600e-13,1.649664653e-14,1.022612633e-14,3.864154715e-14,1.437950690e-13,6.638622888e-14,1.122848107e-14,7.595945367e-14,1.190411844e-13,1.453674988e-13,8.393935359e-14,3.212176240e-14,7.555540693e-14,1.716837163e-13,1.072319186e-13,2.629028878e-14,6.698926865e-14,5.466908663e-14,1.392969249e-13,3.466796667e-14,1.223310576e-13,2.075525489e-13,2.790877793e-13,1.514679281e-12,3.922867718e-14,1.165986711e-14
0.57812,7.469399650e-13,3.570294362e-13,2.286480104e-13,1.636642038e-13,5.675382393e-15,3.733169927e-14,1.403105471e-13,1.597884373e-14,1.151911536e-14,3.588187829e-14,1.464020333e-13,6.489973371e-14,1.242626324e-14,8.270024286e-14,1.262481483e-13,1.562680803e-13,9.403465987e-14,2.939416074e-14,6.733831730e-14,1.709255991e-13,1.005605568e-13,2.453296232e-14,6.351491550e-14,5.567531386e-14,1.301255166e-13,3.153120896e-14,1.019431797e-13,2.357555769e-13,2.786963954e-13,1.642838894e-12,4.150818832e-14,1.092253337e-14
0.58594,8.155185774e-13,3.061016978e-13,2.035691009e-13,1.695862514e-13,6.056574493e-15,3.625235730e-14,1.383163700e-13,1.227118740e-14,1.307450148e-14,3.146401534e-14,1.444664677e-13,6.185469287e-14,1.541168506e-14,8.854287369e-14,1.337627890e-13,1.657912141e-13,1.043973876e-13,2.974895040e-14,6.268471057e-14,1.713560649e-13,9.458367834e-14,2.358669399e-14,6.327506973e-14,5.381658004e-14,1.200197503e-13,3.019993709e-14,8.776765093e-14,2.451284501e-13,2.640100495e-13,1.639161077e-12,4.161070641e-14,1.057364579e-14
0.59375,9.417843961e-13,2.654502720e-13,1.914993257e-13,1.744751314e-13,6.536284111e-15,3.821021543e-14,1.430843186e-13,1.223331836e-14,1.538936052e-14,2.942425349e-14,1.438217808e-13,6.023111804e-14,1.981248147e-14,9.419906660e-14,1.451831874e-13,1.808269588e-13,1.212382707e-13,3.524238516e-14,6.135205637e-14,1.777115798e-13,8.926996625e-14,2.365027659e-14,6.316198184e-14,5.156688169e-14,1.081472034e-13,3.062569754e-14,8.093398535e-14,2.319389096e-13,2.360194858e-13,1.504683216e-12,4.127584039e-14,1.054161798e-14
0.60156,1.066191403e-12,2.284243942e-13,1.836377657e-13,1.762480706e-13,6.434385317e-15,4.267115832e-14,1.528651362e-13,1.709602499e-14,1.852904359e-14,3.314909820e-14,1.451297329e-13,6.203123618e-14,2.536773129e-14,1.011568133e-13,1.586913537e-13,1.994535561e-13,1.434504305e-13,4.543457175e-14,6.377626020e-14,1.893016947e-13,8.705926921e-14,2.537911046e-14,6.099269087e-14,4.996733226e-14,9.380348487e-14,3.199810992e-14,7.790484698e-14,2.220918024e-13,2.165570986e-13,1.547973693e-12,4.194621557e-14,1.039749093e-14
0.60938,1.202738359e-12,1.958943763e-13,1.722435241e-13,1.808435589e-13,6.616626383e-15,4.744447827e-14,1.541097770e-13,1.896345017e-14,2.230344009e-14,3.766043940e-14,1.378929589e-13,6.558114269e-14,3.187515625e-14,1.106284997e-13,1.635992965e-13,2.056438328e-13,1.563960159e-13,5.841238152e-14,7.052606306e-14,2.017109071e-13,8.894887484e-14,2.815681830e-14,5.832990955e-14,5.513107283e-14,8.086393849e-14,3.402686074e-14,8.122666420e-14,2.382687981e-13,2.189323910e-13,1.928801930e-12,4.124855802e-14,9.839198244e-15
0.61719,1.386771513e-12,1.724911979e-13,1.544031290e-13,1.865561855e-13,7.711830098e-15,5.247966449e-14,1.409936678e-13,1.468164806e-14,2.655629513e-14,4.091505870e-14,1.257085095e-13,7.141117138e-14,4.144876593e-14,1.227142320e-13,1.648901935e-13,2.066059210e-13,1.643936381e-13,7.271832073e-14,7.912616012e-14,2.136735866e-13,9.194728570e-14,3.281785798e-14,5.672207125e-14,6.175130338e-14,7.044395094e-14,3.665172474e-14,9.342950568e-14,2.546388380e-13,2.326001639e-13,2.391410008e-12,3.798710186e-14,9.908059372e-15
0.625,1.607727511e-12,1.616711236e-13,1.461600464e-13,1.933320759e-13,8.663075851e-15,5.969611643e-14,1.305916104e-13,1.188714236e-14,3.116597416e-14,4.663902301e-14,1.179040453e-13,7.977745045e-14,5.510545661e-14,1.360832459e-13,1.695717861e-13,2.149941467e-13,1.804295650e-13,9.186112825e-14,9.128080055e-14,2.348039496e-13,9.859536322e-14,3.830198681e-14,5.745005680e-14,6.750587264e-14,6.677668469e-14,4.039226537e-14,1.198694268e-13,2.517656396e-13,2.431790899e-13,2.639503523e-12,3.414805071e-14,1.055757611e-14
0.63281,1.877993780e-12,1.607177797e-13,1.427145903e-13,2.041108034e-13,8.297344599e-15,6.844686694e-14,1.285110080e-13,1.504827039e-14,3.650929043e-14,5.351975713e-14,1.176894853e-13,8.794944409e-14,6.986526548e-14,1.486142843e-13,1.754197255e-13,2.265713356e-13,2.019918392e-13,1.124999616e-13,1.039182671e-13,2.599114495e-13,1.046872580e-13,4.625703190e-14,5.892800447e-14,6.671936158e-14,6.343858378e-14,4.525678143e-14,1.583630286e-13,2.621153784e-13,2.559179641e-13,2.965992672e-12,3.170019359e-14,1.197720130e-14
0.64062,2.233479277e-12,1.738243421e-13,1.415475491e-13,2.190965705e-13,7.480233223e-15,7.457258787e-14,1.276444323e-13,1.742440080e-14,4.266431923e-14,5.933445196e-14,1.191236778e-13,9.553348507e-14,8.112193768e-14,1.580467257e-13,1.773544702e-13,2.309386851e-13,2.197035682e-13,1.370462646e-13,1.207428279e-13,2.922851267e-13,1.133109300e-13,5.608019842e-14,6.290226632e-14,6.831768691e-14,6.380819408e-14,5.143613803e-14,2.147087898e-13,3.113550807e-13,2.899700980e-13,3.724890487e-12,3.035076248e-14,1.344800289e-14
0.64844,2.748129379e-12,2.050530936e-13,1.487696330e-13,2.417286334e-13,7.950810554e-15,7.929884084e-14,1.193436367e-13,1.403516579e-14,4.864818965e-14,6.252544577e-14,1.198806725e-13,1.024212521e-13,9.005408733e-14,1.644354194e-13,1.789145354e-13,2.350424244e-13,2.394082516e-13,1.662073376e-13,1.414426350e-13,3.351924863e-13,1.246806367e-13,6.697096222e-14,6.927511445e-14,7.453391343e-14,6.708171730e-14,5.981483559e-14,2.945001524e-13,3.863388220e-13,3.473548092e-13,4.889221867e-12,3.051172638e-14,1.534785056e-14
0.65625,3.427548277e-12,2.421690533e-13,1.651519100e-13,2.765217464e-13,8.961336349e-15,8.583701725e-14,1.083940033e-13,1.019916570e-14,5.222982576e-14,6.882099294e-14,1.300312939e-13,1.139044003e-13,1.023647679e-13,1.686853029e-13,1.944647606e-13,2.567802956e-13,2.773389056e-13,2.058085416e-13,1.686337479e-13,3.914846990e-13,1.417150860e-13,7.567664507e-14,7.566387567e-14,8.381100569e-14,7.876060987e-14,7.059830581e-14,4.073933377e-13,4.526026453e-13,4.186098235e-13,5.688449562e-12,3.253618267e-14,1.782523446e-14
0.66406,4.261298330e-12,2.884978812e-13,1.936108373e-13,3.330916839e-13,1.056522076e-14,9.572205771e-14,1.061669650e-13,1.205659555e-14,5.365889205e-14,7.949038726e-14,1.473233128e-13,1.275844443e-13,1.176627640e-13,1.724536784e-13,2.175577314e-13,2.889711182e-13,3.306652520e-13,2.489472937e-13,1.983811525e-13,4.594286904e-13,1.619406107e-13,8.187210478e-14,7.814764069e-14,8.828158392e-14,9.245994085e-14,8.263984386e-14,5.385575571e-13,5.322114600e-13,5.060810353e-13,6.012645627e-12,3.759691904e-14,2.001766464e-14
0.67188,5.378925089e-12,3.553288233e-13,2.224771081e-13,4.184361695e-13,1.368752689e-14,1.054985281e-13,1.055786882e-13,1.605953642e-14,5.408313442e-14,8.864255787e-14,1.674694485e-13,1.405196982e-13,1.284898404e-13,1.739986533e-13,2.475682271e-13,3.267457888e-13,3.960799249e-13,2.944390980e-13,2.299234146e-13,5.399595462e-13,1.815648026e-13,8.751693222e-14,8.117480843e-14,8.858832765e-14,1.078387931e-13,9.454098505e-14,6.916183011e-13,6.513398036e-13,6.070763593e-13,6.529142865e-12,4.564914878e-14,2.115016911e-14
0.67969,7.009294587e-12,4.461604371e-13,2.543369908e-13,5.339640199e-13,1.879119771e-14,1.091007238e-13,9.980363092e-14,1.540250192e-14,5.467949395e-14,9.121591446e-14,1.799164094e-13,1.492954231e-13,1.321435455e-13,1.809856425e-13,2.871343468e-13,3.710557471e-13,4.739714933e-13,3.402777298e-13,2.636922242e-13,6.289201808e-13,1.971101109e-13,9.414757687e-14,8.993638492e-14,8.732457789e-14,1.239693899e-13,1.043491908e-13,8.566135446e-13,7.906018424e-13,6.986250828e-13,7.568893808e-12,5.650326218e-14,2.128337921e-14
0.6875,9.316759798e-12,5.654188849e-13,3.029420987e-13,6.855974351e-13,2.475472475e-14,1.073797581e-13,9.698399092e-14,1.004894115e-14,5.456628725e-14,9.045707581e-14,1.965267231e-13,1.575967179e-13,1.342494937e-13,1.978795792e-13,3.552344003e-13,4.416564234e-13,5.773695054e-13,3.937822926e-13,3.009846493e-13,7.210106452e-13,2.106922940e-13,1.004362250e-13,9.772461289e-14,9.311872597e-14,1.392544904e-13,1.116523012e-13,1.027014686e-12,9.067044441e-13,7.614015879e-13,8.628891668e-12,7.009755240e-14,2.196927461e-14
0.69531,1.222695982e-11,7.409208338e-13,3.850507023e-13,8.855171598e-13,3.164474589e-14,1.067272556e-13,1.110713274e-13,6.429210646e-15,5.408057876e-14,9.421133522e-14,2.286760400e-13,1.708979498e-13,1.439073632e-13,2.273187938e-13,4.610678490e-13,5.525844740e-13,7.224632004e-13,4.615373204e-13,3.430663935e-13,8.295087509e-13,2.273431493e-13,1.066396788e-13,9.631127321e-14,1.062109460e-13,1.493272967e-13,1.175501544e-13,1.183688984e-12,1.007560848e-12,8.175314486e-13,9.124389904e-12,8.631821845e-14,2.320166168e-14
0.70312,1.561489678e-11,9.842185612e-13,4.882922015e-13,1.156186031e-12,4.107216864e-14,1.104826199e-13,1.339988972e-13,7.569294063e-15,5.421661706e-14,1.019522471e-13,2.810091011e-13,1.913055206e-13,1.631037012e-13,2.696647105e-13,6.229335776e-13,7.366194278e-13,9.498439327e-13,5.552160455e-13,3.944250400e-13,9.929989696e-13,2.514612047e-13,1.128989889e-13,8.796235573e-14,1.212092696e-13,1.509509906e-13,1.205841628e-13,1.312209527e-12,1.123731123e-12,8.797715713e-13,9.542402379e-12,1.052944344e-13,2.429036325e-14
0.71094,1.964163055e-11,1.292043990e-12,6.122092853e-13,1.489191389e-12,5.229403650e-14,1.146692090e-13,1.593090697e-13,9.944697208e-15,5.506722688e-14,1.119106941e-13,3.413868386e-13,2.157295807e-13,1.859003785e-13,3.266013597e-13,8.357450482e-13,9.787691493e-13,1.238630167e-12,6.603895250e-13,4.465221768e-13,1.177132066e-12,2.718241464e-13,1.192188189e-13,8.162384952e-14,1.300602484e-13,1.473408962e-13,1.195945567e-13,1.407668676e-12,1.254166054e-12,9.432575781e-13,1.040256870e-11,1.261018548e-13,2.518376692e-14
0.71875,2.436797435e-11,1.669537860e-12,7.676031698e-13,1.871680000e-12,6.420778424e-14,1.153179375e-13,1.933542800e-13,9.733188953e-15,5.704804694e-14,1.226492239e-13,3.996807807e-13,2.411125021e-13,2.035704692e-13,3.928530786e-13,1.086079671e-12,1.243729091e-12,1.544438990e-12,7.672769083e-13,4.960157804e-13,1.317411672e-12,2.807718381e-13,1.244617389e-13,8.053439203e-14,1.354893979e-13,1.373048171e-13,1.152885796e-13,1.470183489e-12,1.372551284e-12,1.005501440e-12,1.162879298e-11,1.484124103e-13,2.583978577e-14
0.72656,2.936059876e-11,2.142374757e-12,9.603222775e-13,2.301469862e-12,7.722950566e-14,1.200156612e-13,2.464297565e-13,7.761748531e-15,5.974971108e-14,1.328705538e-13,4.407180871e-13,2.623367372e-13,2.127211395e-13,4.604721216e-13,1.343884387e-12,1.488920996e-12,1.827856722e-12,8.612124868e-13,5.346903073e-13,1.379284347e-12,2.749636183e-13,1.287289041e-13,8.149099897e-14,1.386636494e-13,1.251814108e-13,1.101522889e-13,1.509234046e-12,1.459951369e-12,1.055171329e-12,1.275916915e-11,1.713572900e-13,2.676276460e-14
0.73438,3.404149704e-11,2.661046761e-12,1.146948690e-12,2.778870396e-12,9.189539072e-14,1.305293652e-13,3.047712057e-13,6.485142975e-15,6.248503884e-14,1.411505529e-13,4.813539328e-13,2.848676469e-13,2.220917720e-13,5.254133586e-13,1.637109670e-12,1.771259972e-12,2.152544549e-12,9.618976551e-13,5.697693880e-13,1.439982744e-12,2.681669576e-13,1.306144445e-13,8.156828918e-14,1.409862721e-13,1.131656750e-13,1.051358502e-13,1.527409046e-12,1.511250686e-12,1.107081223e-12,1.371870848e-11,1.931760502e-13,2.720384427e-14
0.74219,3.810016571e-11,3.180857274e-12,1.316149504e-12,3.253748230e-12,1.065140225e-13,1.436750073e-13,3.671153878e-13,6.264278134e-15,6.506125970e-14,1.527121061e-13,5.411725666e-13,3.124965568e-13,2.410135233e-13,5.935219536e-13,1.965413392e-12,2.106084988e-12,2.524746284e-12,1.065385595e-12,5.982669761e-13,1.536204647e-12,2.659687259e-13,1.302452594e-13,7.794336041e-14,1.495805420e-13,1.035324471e-13,1.007718998e-13,1.534972173e-12,1.548840504e-12,1.166727153e-12,1.476969595e-11,2.136267295e-13,2.813765359e-14
0.75,4.144481405e-11,3.663564405e-12,1.486466532e-12,3.662443959e-12,1.181340088e-13,1.523785843e-13,4.438338848e-13,6.892201867e-15,6.686747358e-14,1.703398057e-13,6.102271089e-13,3.391569620e-13,2.592885942e-13,6.557941716e-13,2.279939679e-12,2.417219387e-12,2.855422683e-12,1.145082316e-12,6.114507322e-13,1.588884969e-12,2.567469465e-13,1.270987516e-13,7.082456797e-14,1.668945229e-13,9.547290464e-14,9.676131830e-14,1.524448772e-12,1.569018455e-12,1.215355650e-12,1.593035442e-11,2.319266009e-13,2.991437865e-14
0.75781,4.371346950e-11,4.116747335e-12,1.679996138e-12,3.969312946e-12,1.260534722e-13,1.625375768e-13,5.349905092e-13,8.087289444e-15,6.792014866e-14,1.862176046e-13,6.372513544e-13,3.473043157e-13,2.616780813e-13,7.079941448e-13,2.502123415e-12,2.608716972e-12,3.060854645e-12,1.176628826e-12,6.045064300e-13,1.545411835e-12,2.336413679e-13,1.220958497e-13,6.412318992e-14,1.868738578e-13,9.177905359e-14,9.445562506e-14,1.503643167e-12,1.562134314e-12,1.237133812e-12,1.711283644e-11,2.481938378e-13,3.172740152e-14
0.76562,4.454830090e-11,4.482637444e-12,1.843865374e-12,4.183338205e-12,1.309584650e-13,1.781810544e-13,6.111092835e-13,8.376572955e-15,6.774848535e-14,1.897281582e-13,6.146273595e-13,3.362523147e-13,2.474905631e-13,7.427734822e-13,2.637022452e-12,2.706061028e-12,3.174877628e-12,1.168752252e-12,5.807828239e-13,1.447528601e-12,2.006326056e-13,1.149170315e-13,6.062242578e-14,1.988489830e-13,9.142393645e-14,9.354820646e-14,1.467994526e-12,1.518426702e-12,1.244575359e-12,1.808454508e-11,2.623081933e-13,3.134879743e-14
0.77344,4.379481193e-11,4.681020881e-12,1.926011221e-12,4.274438123e-12,1.323853362e-13,1.957151464e-13,6.469799490e-13,6.671177288e-15,6.669959395e-14,1.798035333e-13,5.774767480e-13,3.206978022e-13,2.337375513e-13,7.685036501e-13,2.740758135e-12,2.795983877e-12,3.284315404e-12,1.157864583e-12,5.561496127e-13,1.379816443e-12,1.726198782e-13,1.069796473e-13,6.048666756e-14,1.975037757e-13,9.026100625e-14,9.290627385e-14,1.410995337e-12,1.450749552e-12,1.242856170e-12,1.899896783e-11,2.726496300e-13,2.846152419e-14
0.78125,4.172097390e-11,4.676499832e-12,1.920242792e-12,4.221218920e-12,1.291035149e-13,2.088733017e-13,6.626616847e-13,4.766264362e-15,6.527088085e-14,1.686625459e-13,5.668497441e-13,3.133585198e-13,2.291712815e-13,7.856910949e-13,2.815664709e-12,2.864324400e-12,3.345497571e-12,1.142905769e-12,5.339904574e-13,1.300863172e-12,1.486920122e-13,9.986514217e-14,6.073985731e-14,1.902637023e-13,8.791257293e-14,9.162149560e-14,1.337362179e-12,1.375903894e-12,1.218312312e-12,1.991225110e-11,2.764073107e-13,2.587970056e-14
0.78906,3.848080194e-11,4.512891671e-12,1.890229986e-12,4.002639928e-12,1.211976235e-13,2.151025995e-13,6.858307733e-13,5.362215336e-15,6.334998554e-14,1.663283859e-13,5.750139757e-13,3.075856305e-13,2.236603910e-13,7.864308003e-13,2.801166463e-12,2.833711238e-12,3.293208030e-12,1.109118456e-12,5.118550757e-13,1.181337042e-12,1.290293173e-13,9.306878711e-14,5.991231160e-14,1.923901024e-13,8.285994076e-14,8.873497427e-14,1.240636128e-12,1.287452391e-12,1.172559467e-12,2.054021571e-11,2.720040606e-13,2.370327106e-14
0.79688,3.427656702e-11,4.231248344e-12,1.838740508e-12,3.661016629e-12,1.105204633e-13,2.229012426e-13,7.025700529e-13,7.840872040e-15,6.061217306e-14,1.652027500e-13,5.681374054e-13,2.946048617e-13,2.091078249e-13,7.693710988e-13,2.692078045e-12,2.705359651e-12,3.146662405e-12,1.061522401e-12,4.916284899e-13,1.051141543e-12,1.151615366e-13,8.651531004e-14,6.159331624e-14,2.011789007e-13,7.926970586e-14,8.478521574e-14,1.135517502e-12,1.191339963e-12,1.111036199e-12,2.084189400e-11,2.597386394e-13,2.106347229e-14
0.80469,2.954229535e-11,3.840718603e-12,1.750352002e-12,3.261368586e-12,9.879607870e-14,2.347116206e-13,6.816470606e-13,9.848113572e-15,5.745270854e-14,1.543872988e-13,5.315264505e-13,2.758483464e-13,1.905319283e-13,7.397772063e-13,2.530142653e-12,2.539038821e-12,2.972364614e-12,1.012537160e-12,4.749715541e-13,9.606335180e-13,1.084341781e-13,8.118026026e-14,6.808470833e-14,1.999727260e-13,7.366642720e-14,8.070415185e-14,1.031730234e-12,1.098609631e-12,1.050900715e-12,2.072274936e-11,2.432047776e-13,1.745198537e-14
0.8125,2.460614628e-11,3.372916013e-12,1.600780060e-12,2.837900000e-12,8.730041809e-14,2.478481279e-13,6.199787742e-13,1.116663742e-14,5.448126118e-14,1.329902110e-13,4.859059176e-13,2.606423927e-13,1.788785874e-13,7.083135350e-13,2.374842809e-12,2.403374309e-12,2.831724091e-12,9.829136584e-13,4.678870198e-13,9.251704588e-13,1.093774141e-13,7.856375143e-14,7.484993270e-14,1.807856504e-13,6.861829404e-14,7.659478421e-14,9.355875538e-13,1.012319450e-12,9.721619602e-13,2.050957899e-11,2.249036184e-13,1.445613324e-14
0.82031,1.996422970e-11,2.891339559e-12,1.426327679e-12,2.415185688e-12,7.650194223e-14,2.549941320e-13,5.539241554e-13,1.263024639e-14,5.269079998e-14,1.136623066e-13,4.588698351e-13,2.530678483e-13,1.783053471e-13,6.843775362e-13,2.217820181e-12,2.276033244e-12,2.695790387e-12,9.612768818e-13,4.635272009e-13,9.069574442e-13,1.140446790e-13,7.924060702e-14,7.658332098e-14,1.578256458e-13,6.198424427e-14,7.276691848e-14,8.585845626e-13,9.248250739e-13,8.827694688e-13,2.022742587e-11,2.062937627e-13,1.291678931e-14
0.82812,1.569805532e-11,2.446407867e-12,1.256611241e-12,1.999548293e-12,6.642514364e-14,2.509623110e-13,4.958325139e-13,1.287720471e-14,5.130315470e-14,9.910340264e-14,4.376599616e-13,2.433825331e-13,1.823780628e-13,6.591327944e-13,2.033877668e-12,2.134185943e-12,2.553145782e-12,9.422851270e-13,4.602178491e-13,9.042027872e-13,1.240750183e-13,8.091295971e-14,7.628825715e-14,1.429627980e-13,5.866839500e-14,6.770647792e-14,7.913673810e-13,8.451362037e-13,7.840772715e-13,1.976238302e-11,1.857900324e-13,1.235430730e-14
0.83594,1.217305924e-11,2.068579695e-12,1.116582728e-12,1.626006463e-12,5.754534540e-14,2.426251281e-13,4.463184149e-13,1.055157400e-14,5.013066881e-14,8.563519907e-14,4.014622755e-13,2.253072611e-13,1.848073773e-13,6.328177693e-13,1.828544660e-12,1.974763829e-12,2.399787207e-12,9.196576033e-13,4.546184558e-13,9.143757126e-13,1.377832552e-13,8.412146010e-14,8.038429819e-14,1.376989083e-13,5.804752892e-14,6.272585292e-14,7.467506684e-13,7.996807096e-13,6.928703165e-13,1.914237022e-11,1.658616327e-13,1.214402135e-14
0.84375,9.330639602e-12,1.752152932e-12,9.971889726e-13,1.309198363e-12,4.978822674e-14,2.374821982e-13,4.002765226e-13,7.894874186e-15,4.890637722e-14,7.039290047e-14,3.520958475e-13,2.043621648e-13,1.833541895e-13,5.998092954e-13,1.638502670e-12,1.827897837e-12,2.264761149e-12,9.071102886e-13,4.541907686e-13,9.485046967e-13,1.574722478e-13,8.765162817e-14,8.821620405e-14,1.395531100e-13,6.127062545e-14,5.742131714e-14,7.055519757e-13,7.924502032e-13,6.105948546e-13,1.845715335e-11,1.472548101e-13,1.139115720e-14
0.85156,7.183410141e-12,1.492513157e-12,8.976322079e-13,1.061557850e-12,4.361767071e-14,2.379619756e-13,3.713193486e-13,7.904180159e-15,4.816728743e-14,5.765751557e-14,3.057752927e-13,1.868653466e-13,1.818632098e-13,5.671462001e-13,1.470961276e-12,1.692269966e-12,2.146282622e-12,9.027982975e-13,4.569711208e-13,9.931026069e-13,1.808054799e-13,9.287588134e-14,9.403646618e-14,1.472618814e-13,6.706188954e-14,5.291007027e-14,6.809568093e-13,8.121500417e-13,5.381278372e-13,1.798300426e-11,1.313226901e-13,1.060830098e-14
0.85938,5.542075213e-12,1.270878438e-12,8.043745339e-13,8.789627633e-13,3.892088764e-14,2.397629015e-13,3.564247614e-13,1.025237601e-14,4.789599572e-14,5.066494848e-14,2.771006999e-13,1.769935943e-13,1.873975111e-13,5.373425481e-13,1.346210368e-12,1.605211933e-12,2.089836054e-12,9.225039914e-13,4.711731375e-13,1.081553534e-12,2.137710406e-13,9.956149771e-14,9.652997402e-14,1.678765641e-13,7.621261866e-14,4.870608485e-14,6.635758615e-13,8.658266854e-13,4.802131464e-13,1.747712940e-11,1.178297188e-13,1.032909347e-14
0.86719,4.341437471e-12,1.076452965e-12,7.192311359e-13,7.472995880e-13,3.552659944e-14,2.371935869e-13,3.449846544e-13,1.255861789e-14,4.800442564e-14,4.802871214e-14,2.599982041e-13,1.694796711e-13,2.005283907e-13,5.151950864e-13,1.255739713e-12,1.564195349e-12,2.098752319e-12,9.589690572e-13,4.913692905e-13,1.210158749e-12,2.520041814e-13,1.075033334e-13,1.002514138e-13,1.968238016e-13,9.115072918e-14,4.536469688e-14,6.660673534e-13,9.576627863e-13,4.389116732e-13,1.682109788e-11,1.060967449e-13,1.072080957e-14
0.875,3.514640314e-12,9.046195824e-13,6.425920300e-13,6.647769616e-13,3.301624270e-14,2.354198563e-13,3.253134986e-13,1.393309926e-14,4.787877632e-14,4.561969301e-14,2.448321704e-13,1.614445581e-13,2.133211700e-13,4.932039825e-13,1.191190253e-12,1.550817027e-12,2.151148670e-12,1.005772121e-12,5.167394970e-13,1.351785462e-12,2.917463307e-13,1.163261103e-13,1.107081728e-13,2.252729894e-13,1.132160602e-13,4.287183394e-14,6.801261544e-13,1.072722749e-12,4.179838807e-13,1.591315624e-11,9.529508742e-14,1.150558041e-14
0.88281,2.969708316e-12,7.602792875e-13,5.747015354e-13,6.238112548e-13,3.133837497e-14,2.423271663e-13,2.961062872e-13,1.457205426e-14,4.787377634e-14,4.115700865e-14,2.245523462e-13,1.516945772e-13,2.191276783e-13,4.714651030e-13,1.134949517e-12,1.535057746e-12,2.214980060e-12,1.051658678e-12,5.432701699e-13,1.467408431e-12,3.274448877e-13,1.263206378e-13,1.240740572e-13,2.413681312e-13,1.403976823e-13,4.172718396e-14,7.089271852e-13,1.194719185e-12,4.222633343e-13,1.500921180e-11,8.639309899e-14,1.207327404e-14
0.89062,2.676872436e-12,6.375354511e-13,5.184012697e-13,6.229470666e-13,3.048612264e-14,2.618724509e-13,2.716660506e-13,1.416523197e-14,4.818317677e-14,3.729305947e-14,2.078004647e-13,1.443874872e-13,2.209220187e-13,4.515471934e-13,1.091452642e-12,1.520569549e-12,2.285718207e-12,1.094498093e-12,5.686608636e-13,1.562163633e-12,3.593518861e-13,1.372848201e-13,1.317576076e-13,2.529049870e-13,1.677230629e-13,4.161153892e-14,7.528888811e-13,1.331730247e-12,4.382457604e-13,1.418814308e-11,7.949616219e-14,1.260954433e-14
0.89844,2.577672002e-12,5.309406778e-13,4.744176499e-13,6.467854822e-13,3.007113234e-14,2.861797110e-13,2.526777718e-13,1.257985524e-14,4.878341821e-14,3.623376231e-14,2.008853884e-13,1.406017391e-13,2.260627922e-13,4.389621318e-13,1.060643841e-12,1.514852737e-12,2.364710606e-12,1.129619973e-12,5.880998539e-13,1.653399357e-12,3.886377218e-13,1.479052816e-13,1.308404610e-13,2.684746860e-13,1.964764304e-13,4.351832223e-14,8.237469516e-13,1.477135984e-12,4.733665088e-13,1.339140546e-11,7.525338939e-14,1.382306686e-14
0.90625,2.664469216e-12,4.364666991e-13,4.466320271e-13,6.890064270e-13,3.035531605e-14,3.116706712e-13,2.396347745e-13,1.049712026e-14,4.963864550e-14,3.835256504e-14,2.089241918e-13,1.406124500e-13,2.372462110e-13,4.345113178e-13,1.046723357e-12,1.519507262e-12,2.436302798e-12,1.154528840e-12,6.013706079e-13,1.733519453e-12,4.132251595e-13,1.574978275e-13,1.274746816e-13,2.876266455e-13,2.251976575e-13,4.704254585e-14,9.161952938e-13,1.613309569e-12,5.155705484e-13,1.259320122e-11,7.365674762e-14,1.581849084e-14
0.91406,2.828211132e-12,3.521111840e-13,4.299823435e-13,7.479601536e-13,3.152262849e-14,3.400395708e-13,2.242755292e-13,9.621238260e-15,5.036218569e-14,4.058910332e-14,2.222945320e-13,1.397228597e-13,2.440350937e-13,4.276018722e-13,1.027872513e-12,1.499506640e-12,2.451046907e-12,1.155776472e-12,6.071549307e-13,1.757421004e-12,4.300523400e-13,1.650924863e-13,1.273116491e-13,2.986906382e-13,2.487045393e-13,5.175200832e-14,1.013541796e-12,1.704095510e-12,5.778100432e-13,1.165561615e-11,7.524371801e-14,1.688521564e-14
0.92188,2.961569554e-12,2.830997053e-13,4.141959118e-13,8.092648506e-13,3.344682660e-14,3.728340749e-13,2.085595714e-13,1.055828076e-14,5.071155450e-14,4.055348859e-14,2.326796610e-13,1.377118089e-13,2.405363690e-13,4.130809050e-13,1.003374384e-12,1.454333956e-12,2.405041460e-12,1.137536663e-12,6.096121671e-13,1.720605203e-12,4.404187597e-13,1.706648008e-13,1.289310375e-13,2.984639923e-13,2.634358954e-13,5.655515573e-14,1.097699862e-12,1.742906758e-12,6.525486759e-13,1.073178335e-11,7.898974021e-14,1.615205946e-14
0.92969,3.170557216e-12,2.264874758e-13,4.059707959e-13,8.834010688e-13,3.636774140e-14,4.031139732e-13,1.976406440e-13,1.197103989e-14,5.103070347e-14,4.042988736e-14,2.391567509e-13,1.339207194e-13,2.308422896e-13,3.927183772e-13,9.633860405e-13,1.380710651e-12,2.303403662e-12,1.096119222e-12,6.040437651e-13,1.638964049e-12,4.458512703e-13,1.750065660e-13,1.302898566e-13,2.953677585e-13,2.706716835e-13,6.138324558e-14,1.172883228e-12,1.737907990e-12,7.374821908e-13,1.000867009e-11,8.536560272e-14,1.504233243e-14
0.9375,3.431309485e-12,1.821940328e-13,4.114626838e-13,9.520449299e-13,3.962390108e-14,4.231188122e-13,1.946977077e-13,1.236119886e-14,5.081317602e-14,4.283482021e-14,2.527510192e-13,1.303313447e-13,2.229426137e-13,3.730921643e-13,9.229926936e-13,1.310782968e-12,2.193985504e-12,1.045338031e-12,5.922356460e-13,1.557076041e-12,4.510654932e-13,1.786945277e-13,1.327219656e-13,2.976639248e-13,2.722866699e-13,6.415432057e-14,1.228600112e-12,1.694341428e-12,8.076708385e-13,9.708581269e-12,9.117484638e-14,1.467959806e-14
0.94531,3.738084206e-12,1.494015567e-13,4.338680376e-13,1.013900296e-12,4.332542812e-14,4.363465453e-13,1.995380242e-13,1.212169222e-14,5.047764419e-14,4.663660821e-14,2.733743210e-13,1.264036797e-13,2.190316529e-13,3.596920434e-13,8.845010293e-13,1.240381552e-12,2.059819947e-12,9.809247532e-13,5.726442357e-13,1.462696535e-12,4.529609055e-13,1.821622552e-13,1.367174251e-13,3.020348400e-13,2.656743895e-13,6.454654228e-14,1.250283876e-12,1.600906299e-12,8.624995438e-13,9.519896843e-12,9.572357662e-14,1.472361230e-14
0.95312,3.930253355e-12,1.305265941e-13,4.628524072e-13,1.060081760e-12,4.710593147e-14,4.462716873e-13,2.064781602e-13,1.292198608e-14,4.926631815e-14,4.655575979e-14,2.756723005e-13,1.179411555e-13,2.122873577e-13,3.401509310e-13,8.293470596e-13,1.148874846e-12,1.887056306e-12,9.017391312e-13,5.491194381e-13,1.350620457e-12,4.535903883e-13,1.849661430e-13,1.432395100e-13,3.019330032e-13,2.515476539e-13,6.247063067e-14,1.218418570e-12,1.467162350e-12,8.988946360e-13,9.146598872e-12,9.912849761e-14,1.463850515e-14
0.96094,4.044765483e-12,1.233364743e-13,4.983584910e-13,1.082638030e-12,5.007857090e-14,4.505161563e-13,2.129523182e-13,1.506918969e-14,4.719018351e-14,4.289536158e-14,2.564014547e-13,1.039724013e-13,2.009695843e-13,3.123473185e-13,7.562674355e-13,1.035114375e-12,1.683913533e-12,8.128187761e-13,5.239721775e-13,1.226032469e-12,4.525086598e-13,1.873122656e-13,1.516807684e-13,2.963734457e-13,2.316509910e-13,5.746129198e-14,1.135844049e-12,1.311354562e-12,9.039392110e-13,8.649603497e-12,1.003843256e-13,1.460201597e-14
0.96875,4.093874759e-12,1.260339014e-13,5.394753417e-13,1.078843130e-12,5.191560103e-14,4.437444021e-13,2.218085850e-13,1.642310497e-14,4.447444203e-14,3.941021303e-14,2.311722055e-13,8.807072834e-14,1.895719778e-13,2.775072596e-13,6.717554650e-13,9.126146227e-13,1.475682809e-12,7.231923386e-13,4.974663661e-13,1.107578136e-12,4.505534287e-13,1.885195969e-13,1.591906710e-13,2.904177818e-13,2.064790809e-13,5.008193391e-14,1.021304032e-12,1.123479419e-12,8.806319556e-13,7.894858905e-12,9.989268161e-14,1.543547293e-14
0.97656,4.020905026e-12,1.364171516e-13,5.733807719e-13,1.048232206e-12,5.282304288e-14,4.229727229e-13,2.288587025e-13,1.485745063e-14,4.174708569e-14,3.652577901e-14,2.104178663e-13,7.304065634e-14,1.814098408e-13,2.433959701e-13,5.891608551e-13,7.977299877e-13,1.281312654e-12,6.376940951e-13,4.679044138e-13,1.003214354e-12,4.470321959e-13,1.880783873e-13,1.633752067e-13,2.860117234e-13,1.833368997e-13,4.206519934e-14,8.873030543e-13,9.183915571e-13,8.426644022e-13,6.934192790e-12,9.826817572e-14,1.710267925e-14
0.98438,3.833738056e-12,1.548857611e-13,5.825410065e-13,9.937721798e-13,5.288260442e-14,3.949715740e-13,2.294025550e-13,1.178403802e-14,3.904651491e-14,3.211024451e-14,1.875602753e-13,6.031169961e-14,1.754823635e-13,2.131161650e-13,5.179718102e-13,7.026620893e-13,1.114815293e-12,5.633170738e-13,4.402142283e-13,9.182060536e-13,4.431309264e-13,1.857727552e-13,1.652999411e-13,2.828434259e-13,1.627670684e-13,3.484403175e-14,7.423964640e-13,7.519539573e-13,7.881844443e-13,6.155303184e-12,9.675599981e-14,1.896550654e-14
0.99219,3.618168277e-12,1.832905110e-13,5.732159346e-13,9.187308994e-13,5.151470655e-14,3.624267316e-13,2.283098645e-13,1.055871727e-14,3.563355612e-14,2.728909456e-14,1.573542895e-13,4.820749849e-14,1.666687510e-13,1.815536915e-13,4.483473434e-13,6.099796385e-13,9.573972508e-13,4.923742908e-13,4.115260264e-13,8.337794751e-13,4.343244100e-13,1.791607250e-13,1.693656944e-13,2.767974430e-13,1.481969933e-13,2.797721160e-14,5.933211382e-13,6.435899213e-13,7.038437765e-13,5.649956359e-12,9.478340118e-14,1.953040208e-14
1,3.365607303e-12,2.185726767e-13,5.494517609e-13,8.336486976e-13,4.951472026e-14,3.282616117e-13,2.256912286e-13,1.158546424e-14,3.215553125e-14,2.484767082e-14,1.315429799e-13,3.884994628e-14,1.554016194e-13,1.498971004e-13,3.821217495e-13,5.199279264e-13,8.095399865e-13,4.277081065e-13,3.823018534e-13,7.447238079e-13,4.186630211e-13,1.688654749e-13,1.748355214e-13,2.679678006e-13,1.370821014e-13,2.227427418e-14,4.607932002e-13,5.801624716e-13,6.118734474e-13,5.174443108e-12,9.275055564e-14,1.913075516e-14
1.0078,3.075351803e-12,2.584432063e-13,5.116262160e-13,7.474435913e-13,4.750988006e-14,2.923108914e-13,2.201637981e-13,1.253128193e-14,2.935075639e-14,2.409759864e-14,1.142190495e-13,3.197941461e-14,1.444034726e-13,1.215128482e-13,3.207044801e-13,4.352748387e-13,6.715258909e-13,3.686692860e-13,3.506678489e-13,6.514090445e-13,3.946398190e-13,1.562853886e-13,1.743247910e-13,2.542222450e-13,1.288146814e-13,1.872303832e-14,3.605346019e-13,5.323864719e-13,5.413491178e-13,4.660724044e-12,9.211455939e-14,1.870677768e-14
1.0156,2.810913652e-12,3.042964211e-13,4.624610996e-13,6.697307910e-13,4.519826540e-14,2.549620022e-13,2.073651609e-13,1.214900567e-14,2.727951853e-14,2.312226944e-14,1.030804454e-13,2.682334447e-14,1.352026081e-13,9.782341624e-14,2.662578102e-13,3.612210151e-13,5.500027667e-13,3.151786293e-13,3.155389725e-13,5.591804567e-13,3.629112952e-13,1.429615187e-13,1.649792475e-13,2.357785064e-13,1.229538547e-13,1.677587918e-14,2.921642152e-13,5.213372284e-13,4.922695338e-13,4.439175721e-12,9.188992330e-14,1.881316790e-14
1.0234,2.592361180e-12,3.507704549e-13,4.092759902e-13,5.972219220e-13,4.206523792e-14,2.199878992e-13,1.902825741e-13,1.094552505e-14,2.533073876e-14,2.189602242e-14,9.068687489e-14,2.266673808e-14,1.274640807e-13,8.000285479e-14,2.173840179e-13,2.976463853e-13,4.447606779e-13,2.649892850e-13,2.770463876e-13,4.681368799e-13,3.241882057e-13,1.286627336e-13,1.499070092e-13,2.129273188e-13,1.200085242e-13,1.544372302e-14,2.507636879e-13,5.518531046e-13,4.563372146e-13,4.545964473e-12,9.139445250e-14,1.867381956e-14
1.0312,2.404136136e-12,3.910450180e-13,3.549858626e-13,5.342845886e-13,3.843112402e-14,1.884232908e-13,1.723358532e-13,9.325635361e-15,2.294913534e-14,2.193313847e-14,7.981090444e-14,1.989676011e-14,1.198957905e-13,6.546391816e-14,1.768866694e-13,2.450332357e-13,3.581092776e-13,2.191948338e-13,2.380160352e-13,3.860751894e-13,2.826288877e-13,1.128791487e-13,1.338350555e-13,1.921769874e-13,1.238013656e-13,1.480639129e-14,2.300456689e-13,6.074170654e-13,4.237120589e-13,4.624474455e-12,9.038546228e-14,1.769204695e-14
1.0391,2.217195828e-12,4.219024553e-13,3.046799413e-13,4.859937774e-13,3.492739389e-14,1.646336328e-13,1.580783394e-13,7.833912212e-15,2.083886695e-14,2.377221442e-14,7.309844206e-14,1.844795249e-14,1.120586826e-13,5.364971890e-14,1.432892966e-13,1.998227869e-13,2.869303289e-13,1.781408286e-13,1.995683544e-13,3.130245701e-13,2.408230817e-13,9.751391544e-14,1.186643197e-13,1.731640989e-13,1.324235348e-13,1.472101318e-14,2.249527161e-13,6.573320912e-13,3.892351200e-13,4.532919551e-12,8.930053268e-14,1.642519630e-14
1.0469,2.057127027e-12,4.445973884e-13,2.588184982e-13,4.474701804e-13,3.146040887e-14,1.484236848e-13,1.466820009e-13,7.270208438e-15,1.926446988e-14,2.651602908e-14,7.131854366e-14,1.845420261e-14,1.043866217e-13,4.377697961e-14,1.184428901e-13,1.657225266e-13,2.319426918e-13,1.455922093e-13,1.663471594e-13,2.522749562e-13,2.041613639e-13,8.335067092e-14,1.054588726e-13,1.581361611e-13,1.456090518e-13,1.473357533e-14,2.249151522e-13,7.204522059e-13,3.528175232e-13,4.603658925e-12,8.752209012e-14,1.550501272e-14
1.0547,1.948823041e-12,4.582529685e-13,2.282702372e-13,4.119099867e-13,2.843364527e-14,1.403711965e-13,1.409722034e-13,7.644843993e-15,1.802807785e-14,3.005236088e-14,7.224237783e-14,1.901731724e-14,9.705191576e-14,3.639932954e-14,9.966093709e-14,1.382119027e-13,1.901988106e-13,1.195283886e-13,1.385183031e-13,2.002568208e-13,1.732012419e-13,7.203554415e-14,9.486115855e-14,1.464278245e-13,1.610004605e-13,1.501173473e-14,2.263792460e-13,8.124463227e-13,3.289533253e-13,4.977038365e-12,8.378328833e-14,1.508989991e-14
1.0625,1.851613301e-12,4.530392520e-13,2.062275080e-13,3.817079557e-13,2.606418559e-14,1.380915941e-13,1.390041520e-13,8.113193487e-15,1.661622585e-14,3.435866295e-14,7.595939545e-14,2.027681820e-14,8.937889221e-14,3.046177163e-14,8.890318339e-14,1.213389403e-13,1.636622743e-13,1.013384273e-13,1.183707701e-13,1.645777340e-13,1.525880403e-13,6.322462053e-14,8.697746472e-14,1.441670951e-13,1.778078211e-13,1.581148527e-14,2.270780171e-13,8.911649470e-13,3.186275168e-13,5.138379134e-12,7.890516756e-14,1.475972738e-14
1.0703,1.722916366e-12,4.261791236e-13,1.894399289e-13,3.557276710e-13,2.409583255e-14,1.412316386e-13,1.447402488e-13,8.568551002e-15,1.528138923e-14,4.057353515e-14,8.341379505e-14,2.282175703e-14,8.204920571e-14,2.633929641e-14,8.443473368e-14,1.131256135e-13,1.502469584e-13,8.908934440e-14,1.037624103e-13,1.448643477e-13,1.395069894e-13,5.705865815e-14,8.169830502e-14,1.471286432e-13,1.925770453e-13,1.730601037e-14,2.243881654e-13,9.174606822e-13,2.945574195e-13,4.884692656e-12,7.377876195e-14,1.447692407e-14
1.0781,1.599981498e-12,3.901191381e-13,1.752777136e-13,3.350506475e-13,2.254727400e-14,1.497035208e-13,1.542917449e-13,9.437143466e-15,1.489667552e-14,4.752024473e-14,9.483112917e-14,2.778113744e-14,7.773022087e-14,2.566671373e-14,9.077667632e-14,1.179664239e-13,1.520605943e-13,8.620787851e-14,9.677653261e-14,1.391698829e-13,1.330589433e-13,5.301005917e-14,7.879866642e-14,1.537277758e-13,2.022719605e-13,1.907934606e-14,2.207976942e-13,9.028897618e-13,2.551660988e-13,4.579845889e-12,6.919282763e-14,1.417128479e-14
1.0859,1.507553929e-12,3.464992222e-13,1.680808821e-13,3.207614347e-13,2.146682604e-14,1.629612805e-13,1.706727196e-13,1.073210851e-14,1.485630218e-14,5.449621375e-14,1.064624043e-13,3.381132431e-14,7.587348034e-14,2.800778808e-14,1.030181826e-13,1.293507405e-13,1.627129792e-13,8.898764735e-14,9.556796598e-14,1.397839687e-13,1.298202936e-13,5.037886330e-14,7.696926632e-14,1.605258482e-13,2.034397544e-13,2.153738526e-14,2.174360127e-13,8.876676319e-13,2.176957513e-13,4.492185731e-12,6.434160834e-14,1.409392701e-14
1.0938,1.415108562e-12,2.976175988e-13,1.622828590e-13,3.090515690e-13,2.032260305e-14,1.790649785e-13,1.929312511e-13,1.215052085e-14,1.435993290e-14,6.169617734e-14,1.200793406e-13,4.061781577e-14,7.434502597e-14,3.179876397e-14,1.187212966e-13,1.448367891e-13,1.775344611e-13,9.399276425e-14,9.737708358e-14,1.417321249e-13,1.279402019e-13,4.778480786e-14,7.466289495e-14,1.686938410e-13,2.002057303e-13,2.463766614e-14,2.129117747e-13,8.676854480e-13,1.966150534e-13,4.345326140e-12,5.954975440e-14,1.434129824e-14
1.1016,1.291367747e-12,2.448250533e-13,1.562152782e-13,2.994682470e-13,1.875318294e-14,1.933667320e-13,2.215424366e-13,1.341390929e-14,1.351291355e-14,6.988551511e-14,1.330774716e-13,4.799721594e-14,7.263865090e-14,3.628499776e-14,1.341374972e-13,1.605031660e-13,1.936684801e-13,9.942792759e-14,1.008277114e-13,1.466607015e-13,1.279673392e-13,4.613923522e-14,7.191296032e-14,1.765246667e-13,1.942486055e-13,2.827552947e-14,2.100541619e-13,8.185337477e-13,1.867986031e-13,3.895952362e-12,5.486201472e-14,1.530388211e-14
1.1094,1.132854216e-12,1.961751762e-13,1.473773837e-13,2.902378713e-13,1.750978221e-14,2.050186986e-13,2.515847491e-13,1.419513817e-14,1.337874666e-14,7.838698368e-14,1.471349362e-13,5.691596033e-14,7.241645343e-14,4.185643454e-14,1.508144196e-13,1.771939260e-13,2.106119707e-13,1.067820351e-13,1.069166018e-13,1.545173211e-13,1.303247260e-13,4.620611296e-14,6.897282457e-14,1.843814160e-13,1.884710899e-13,3.202116265e-14,2.053184234e-13,7.456281348e-13,1.799057329e-13,3.281022821e-12,5.060108026e-14,1.676393739e-14
1.1172,9.962055083e-13,1.559147226e-13,1.405652873e-13,2.815471178e-13,1.718038843e-14,2.141965783e-13,2.811195112e-13,1.473164506e-14,1.350606757e-14,8.445222764e-14,1.556831783e-13,6.513016065e-14,7.252731345e-14,4.795312240e-14,1.629887400e-13,1.882378052e-13,2.198746111e-13,1.129188042e-13,1.144013796e-13,1.595883474e-13,1.337127882e-13,4.751744149e-14,6.714141841e-14,1.893219776e-13,1.854002308e-13,3.577546689e-14,2.012919184e-13,6.616839115e-13,1.794086585e-13,2.813497495e-12,4.682629033e-14,1.847787614e-14
1.125,9.162258693e-13,1.245980018e-13,1.360171035e-13,2.769721454e-13,1.732441628e-14,2.211315678e-13,3.071338249e-13,1.563391099e-14,1.328947365e-14,8.770388422e-14,1.608019399e-13,7.169398639e-14,7.164887859e-14,5.437778399e-14,1.700211574e-13,1.939603335e-13,2.215569865e-13,1.154236247e-13,1.202541284e-13,1.606712551e-13,1.354733764e-13,4.795903635e-14,6.618048681e-14,1.909698686e-13,1.846652843e-13,3.909981899e-14,1.945523764e-13,5.942082619e-13,1.886737134e-13,2.500033701e-12,4.418495777e-14,2.011521617e-14
1.1328,8.761081022e-13,1.015069203e-13,1.310360663e-13,2.736605219e-13,1.696810863e-14,2.228737722e-13,3.278101636e-13,1.656271215e-14,1.241503876e-14,8.799611887e-14,1.604925098e-13,7.551102055e-14,6.949365318e-14,6.082717120e-14,1.724141588e-13,1.961358083e-13,2.209431314e-13,1.137775202e-13,1.220030068e-13,1.583372862e-13,1.335242812e-13,4.616935800e-14,6.563211871e-14,1.870707708e-13,1.867448046e-13,4.177630207e-14,1.841200498e-13,5.427194872e-13,2.000841075e-13,2.173173264e-12,4.265656859e-14,2.168108631e-14
1.1406,8.643244731e-13,8.497885536e-14,1.231956517e-13,2.714581041e-13,1.620681894e-14,2.176067262e-13,3.397925875e-13,1.689703655e-14,1.150823037e-14,8.661188692e-14,1.572588515e-13,7.802218126e-14,6.644687214e-14,6.624394424e-14,1.688766390e-13,1.925244932e-13,2.127077138e-13,1.079748604e-13,1.199285915e-13,1.507844207e-13,1.291547915e-13,4.332048028e-14,6.521170996e-14,1.803642422e-13,1.924379651e-13,4.361575287e-14,1.713591925e-13,5.137852501e-13,2.060788790e-13,1.830203465e-12,4.136017227e-14,2.280313953e-14
1.1484,8.839215245e-13,7.469352088e-14,1.147449593e-13,2.697248219e-13,1.595884717e-14,2.072510638e-13,3.400824319e-13,1.656285982e-14,1.103599838e-14,8.320758646e-14,1.485169729e-13,7.960186598e-14,6.268009717e-14,7.016823084e-14,1.583373199e-13,1.809948842e-13,1.933897781e-13,9.827325298e-14,1.145497306e-13,1.365397805e-13,1.226823630e-13,4.134560097e-14,6.467857610e-14,1.709535428e-13,1.982366152e-13,4.447972199e-14,1.568957455e-13,4.877342782e-13,2.151578466e-13,1.598622740e-12,3.898840863e-14,2.368062374e-14
1.1562,9.348899829e-13,6.942560192e-14,1.116573462e-13,2.665930801e-13,1.617277885e-14,1.938878713e-13,3.353966932e-13,1.630378384e-14,1.050217161e-14,7.874036531e-14,1.372400142e-13,7.989988995e-14,5.769366746e-14,7.123972220e-14,1.422054884e-13,1.629933006e-13,1.668602386e-13,8.619186364e-14,1.068031302e-13,1.194603411e-13,1.156936197e-13,3.964017298e-14,6.489674350e-14,1.606991344e-13,2.075315298e-13,4.549259394e-14,1.465904608e-13,4.539310675e-13,2.382666352e-13,1.542560644e-12,3.697867843e-14,2.435492480e-14
1.1641,1.010508491e-12,7.001430287e-14,1.140263040e-13,2.641467078e-13,1.581138421e-14,1.807418603e-13,3.269396662e-13,1.632907077e-14,9.802013319e-15,7.423381390e-14,1.262114947e-13,7.936226272e-14,5.186213371e-14,7.102940014e-14,1.247159991e-13,1.428158929e-13,1.419475475e-13,7.313129633e-14,9.578644068e-14,1.030352885e-13,1.074896604e-13,3.728412706e-14,6.515441613e-14,1.493325274e-13,2.149514500e-13,4.606485191e-14,1.366610790e-13,4.173420309e-13,2.680710956e-13,1.572604042e-12,3.630030111e-14,2.526929827e-14
1.1719,1.076239370e-12,7.368464899e-14,1.200134106e-13,2.585206863e-13,1.518611121e-14,1.662912847e-13,3.161717381e-13,1.618163543e-14,9.121076626e-15,7.076681827e-14,1.188394080e-13,7.918592718e-14,4.645920232e-14,7.043215222e-14,1.109105624e-13,1.281384848e-13,1.238267458e-13,6.238951035e-14,8.453878304e-14,9.061825486e-14,9.935497817e-14,3.453027711e-14,6.631585542e-14,1.381989244e-13,2.244768752e-13,4.690979428e-14,1.312450307e-13,3.894579452e-13,2.833014641e-13,1.502350287e-12,3.753050536e-14,2.603740037e-14
1.1797,1.137790727e-12,7.939883660e-14,1.267366347e-13,2.498819389e-13,1.506602991e-14,1.514925120e-13,3.011064547e-13,1.550669300e-14,8.663135851e-15,6.732244039e-14,1.128533577e-13,7.884969868e-14,4.158309737e-14,7.022307342e-14,9.836069602e-14,1.155741448e-13,1.070105413e-13,5.300695977e-14,7.398878862e-14,7.969870508e-14,9.145421894e-14,3.247467411e-14,6.803666307e-14,1.280676356e-13,2.309646428e-13,4.713532403e-14,1.267083797e-13,3.744845086e-13,2.846055436e-13,1.319484466e-12,3.898140127e-14,2.612280546e-14
1.1875,1.208285210e-12,8.627795449e-14,1.330147677e-13,2.418247017e-13,1.567230794e-14,1.372895142e-13,2.839782532e-13,1.455940520e-14,8.266318725e-15,6.419380662e-14,1.064630475e-13,7.887165834e-14,3.726320385e-14,6.886942038e-14,8.580579422e-14,1.016904126e-13,8.911266946e-14,4.586142784e-14,6.607557516e-14,7.243034046e-14,8.516542955e-14,3.128059066e-14,6.928165975e-14,1.193867200e-13,2.314158462e-13,4.673071823e-14,1.231395920e-13,3.726910077e-13,2.827301539e-13,1.131419288e-12,4.008413833e-14,2.554982823e-14
1.1953,1.294327488e-12,9.412671864e-14,1.393619813e-13,2.317820965e-13,1.579148856e-14,1.228663624e-13,2.647655603e-13,1.349174456e-14,8.203888837e-15,6.190723377e-14,9.677910643e-14,7.895062758e-14,3.363695764e-14,6.645213564e-14,7.161560812e-14,8.342092724e-14,7.072119749e-14,3.899258023e-14,5.828818210e-14,6.663082565e-14,7.947208504e-14,3.024838261e-14,6.933403509e-14,1.124565941e-13,2.287101190e-13,4.612744484e-14,1.211423159e-13,3.780783752e-13,2.861485444e-13,1.055111329e-12,4.177013356e-14,2.463783867e-14
1.2031,1.392788121e-12,1.039809083e-13,1.468332010e-13,2.223605792e-13,1.529005435e-14,1.083078884e-13,2.441983296e-13,1.279730233e-14,8.731038139e-15,6.237986233e-14,8.981697142e-14,8.121563722e-14,3.091407754e-14,6.367738849e-14,6.045923050e-14,6.754957900e-14,5.831980677e-14,3.415279038e-14,5.165049995e-14,6.401825711e-14,7.408480207e-14,3.001619638e-14,7.013705978e-14,1.067272188e-13,2.242502260e-13,4.574377694e-14,1.230262575e-13,3.893529887e-13,2.917145517e-13,1.081849648e-12,4.493771393e-14,2.368735045e-14
1.2109,1.481265823e-12,1.174743460e-13,1.563581518e-13,2.116901483e-13,1.535445336e-14,9.343266820e-14,2.228537769e-13,1.265778034e-14,9.572507917e-15,6.416643807e-14,8.666110186e-14,8.503034153e-14,2.907444604e-14,6.187007027e-14,5.333609777e-14,5.780697310e-14,5.106013855e-14,3.064575675e-14,4.656308102e-14,6.162194940e-14,6.888694863e-14,3.088489634e-14,7.293679522e-14,1.040563553e-13,2.196215746e-13,4.532326315e-14,1.272106287e-13,4.111751878e-13,2.943025726e-13,1.100423544e-12,4.810803461e-14,2.218847794e-14
1.2188,1.525136274e-12,1.338271846e-13,1.639312889e-13,2.014845389e-13,1.694973656e-14,7.738344422e-14,2.005118077e-13,1.291940206e-14,1.030725286e-14,6.664633494e-14,8.893496608e-14,9.008263796e-14,2.756682430e-14,6.041013143e-14,4.964246953e-14,5.265980723e-14,4.497555442e-14,2.813741108e-14,4.230912435e-14,5.749354299e-14,6.309815467e-14,3.189378360e-14,7.615411032e-14,1.024608681e-13,2.143344908e-13,4.525412182e-14,1.327691693e-13,4.386616174e-13,2.967117424e-13,1.066718464e-12,5.112323899e-14,2.080875739e-14
1.2266,1.556233219e-12,1.562980670e-13,1.726590255e-13,1.925019750e-13,1.956787203e-14,6.285637206e-14,1.765007658e-13,1.304139221e-14,1.097328741e-14,6.912973324e-14,9.239563975e-14,9.574230971e-14,2.633092806e-14,5.939767262e-14,4.791422349e-14,4.878498367e-14,3.904763288e-14,2.699897358e-14,3.941412729e-14,5.671996581e-14,5.888019903e-14,3.273657785e-14,7.968001488e-14,1.030671774e-13,2.140225300e-13,4.647140277e-14,1.419391596e-13,4.749977531e-13,3.150641433e-13,1.062292211e-12,5.443573931e-14,1.953320263e-14
1.2344,1.595629952e-12,1.851477421e-13,1.882621025e-13,1.848899844e-13,2.224874509e-14,5.156410359e-14,1.560124651e-13,1.251137649e-14,1.167446032e-14,7.219619384e-14,9.686244136e-14,1.018426576e-13,2.530727937e-14,5.855878371e-14,4.911944290e-14,4.981541248e-14,3.864291462e-14,2.766590270e-14,3.847874558e-14,6.230529846e-14,5.616534762e-14,3.369858429e-14,8.359280464e-14,1.061925904e-13,2.152123581e-13,4.804284394e-14,1.509974761e-13,5.174308433e-13,3.419830802e-13,1.116806088e-12,5.742743414e-14,1.860202234e-14
1.2422,1.629970190e-12,2.215375322e-13,2.090860460e-13,1.788328609e-13,2.560644870e-14,4.306364401e-14,1.410022480e-13,1.157613287e-14,1.231108714e-14,7.572420207e-14,1.015870996e-13,1.087564270e-13,2.516086353e-14,5.942979164e-14,5.285173805e-14,5.631296923e-14,4.237578178e-14,2.914254527e-14,3.902062868e-14,6.899421949e-14,5.307701542e-14,3.517776402e-14,8.844077265e-14,1.085956701e-13,2.196810032e-13,5.022619970e-14,1.612426596e-13,5.568710095e-13,3.695745807e-13,1.135973920e-12,6.062157796e-14,1.771467198e-14
1.25,1.669978542e-12,2.655572855e-13,2.363059719e-13,1.738825189e-13,3.014921661e-14,3.732924863e-14,1.344286556e-13,1.134834882e-14,1.287687419e-14,7.889801023e-14,1.085387986e-13,1.161907593e-13,2.655651615e-14,6.196625542e-14,5.898756302e-14,6.808603598e-14,4.952755038e-14,3.133619083e-14,4.046431200e-14,7.215107898e-14,4.978443145e-14,3.745534349e-14,9.395554501e-14,1.112443070e-13,2.277886060e-13,5.352922181e-14,1.717712394e-13,6.012909521e-13,3.993977337e-13,1.152414929e-12,6.465221358e-14,1.759751220e-14
1.2578,1.734738147e-12,3.153833004e-13,2.694540508e-13,1.713182757e-13,3.524560875e-14,3.572236880e-14,1.322023617e-13,1.251899242e-14,1.349514957e-14,8.198991678e-14,1.193609990e-13,1.244612173e-13,2.846538419e-14,6.600325501e-14,6.770820702e-14,8.390766022e-14,5.980421871e-14,3.533356238e-14,4.305298748e-14,7.616842856e-14,4.876002200e-14,4.024291518e-14,1.010615992e-13,1.177283383e-13,2.439065787e-13,5.756399862e-14,1.838731186e-13,6.565277481e-13,4.414871904e-13,1.255644956e-12,6.908056230e-14,1.791761952e-14
1.2656,1.845883020e-12,3.668569684e-13,3.105476917e-13,1.705069089e-13,3.976334357e-14,3.960903218e-14,1.369633875e-13,1.363245124e-14,1.428220137e-14,8.446645487e-14,1.310406353e-13,1.324531112e-13,3.015390410e-14,7.085169035e-14,7.727311846e-14,1.026623590e-13,7.387438284e-14,4.206538221e-14,4.883586116e-14,8.707789538e-14,5.033931511e-14,4.346595552e-14,1.096346129e-13,1.261826558e-13,2.628443119e-13,5.998397047e-14,1.921702830e-13,7.220613685e-13,4.927499695e-13,1.450703250e-12,7.275101747e-14,1.766913099e-14
1.2734,1.976988565e-12,4.213965713e-13,3.578991290e-13,1.700546380e-13,4.394155067e-14,4.944933119e-14,1.477323087e-13,1.357448541e-14,1.530091773e-14,8.496279738e-14,1.380968915e-13,1.397854423e-13,3.178013801e-14,7.615029345e-14,8.495874507e-14,1.187343602e-13,8.693416747e-14,4.980851061e-14,5.627423465e-14,1.003895555e-13,5.228665707e-14,4.652905396e-14,1.181051123e-13,1.303746144e-13,2.795408334e-13,6.037272798e-14,1.955878795e-13,7.823317065e-13,5.417526604e-13,1.604586006e-12,7.492372086e-14,1.692376270e-14
1.2812,2.114199842e-12,4.773549476e-13,4.072283347e-13,1.711744385e-13,4.907820810e-14,6.450486624e-14,1.644409593e-13,1.375252416e-14,1.621379652e-14,8.290790582e-14,1.403183971e-13,1.463195698e-13,3.378275474e-14,8.140430820e-14,9.052927963e-14,1.311005771e-13,9.813773289e-14,5.853239428e-14,6.450120740e-14,1.106667652e-13,5.459929091e-14,4.963725015e-14,1.251539367e-13,1.309754248e-13,2.951724865e-13,6.097370729e-14,1.964520386e-13,8.402071131e-13,5.855039409e-13,1.696273252e-12,7.771920064e-14,1.642778146e-14
1.2891,2.256214642e-12,5.384680458e-13,4.603503192e-13,1.748859834e-13,5.402868283e-14,8.600904056e-14,1.840107050e-13,1.558154216e-14,1.753066610e-14,7.849999881e-14,1.399291368e-13,1.526757823e-13,3.617744363e-14,8.670613772e-14,9.530324021e-14,1.409487922e-13,1.074813528e-13,6.701111287e-14,7.142807865e-14,1.174568646e-13,5.675038409e-14,5.243697452e-14,1.291800528e-13,1.332581332e-13,3.107882187e-13,6.211246730e-14,1.968374148e-13,8.939811995e-13,6.353820589e-13,1.827877397e-12,8.131309596e-14,1.627739212e-14
1.2969,2.398626115e-12,5.930847239e-13,5.176416036e-13,1.773098513e-13,5.620807015e-14,1.137137888e-13,2.082147437e-13,1.672971237e-14,1.920839355e-14,7.430293238e-14,1.437686164e-13,1.595868720e-13,3.902148778e-14,9.173946299e-14,1.020383911e-13,1.534163433e-13,1.196945264e-13,7.588373663e-14,7.785766706e-14,1.271057221e-13,6.004729572e-14,5.475054782e-14,1.307257587e-13,1.392167498e-13,3.262914729e-13,6.250551258e-14,1.960086897e-13,9.371614771e-13,6.852238902e-13,1.989567928e-12,8.472491815e-14,1.594629212e-14
1.3047,2.526963933e-12,6.376897960e-13,5.763139747e-13,1.748060823e-13,5.504184536e-14,1.455826375e-13,2.389147003e-13,1.550401048e-14,2.134151983e-14,7.063111018e-14,1.490531612e-13,1.660109681e-13,4.234225351e-14,9.671642096e-14,1.081119769e-13,1.654126769e-13,1.327164056e-13,8.432849101e-14,8.404221644e-14,1.395106442e-13,6.444939634e-14,5.699865138e-14,1.315209309e-13,1.434033100e-13,3.373593834e-13,6.175706476e-14,1.933568785e-13,9.554064607e-13,7.158872719e-13,2.078753534e-12,8.762861099e-14,1.553709482e-14
1.3125,2.615952982e-12,6.766483783e-13,6.301829873e-13,1.682782463e-13,5.208127696e-14,1.817931052e-13,2.710746777e-13,1.498665430e-14,2.396689769e-14,6.831438625e-14,1.543335379e-13,1.729645685e-13,4.539274652e-14,1.014368785e-13,1.113982150e-13,1.710096084e-13,1.412733875e-13,9.067850980e-14,8.887555245e-14,1.451694492e-13,6.791168392e-14,5.880830437e-14,1.322037788e-13,1.392611639e-13,3.405245723e-13,6.098151272e-14,1.901854332e-13,9.395722798e-13,7.214549549e-13,2.051149359e-12,9.109921027e-14,1.572090166e-14
1.3203,2.674765260e-12,7.109241274e-13,6.779050893e-13,1.605619129e-13,4.917098529e-14,2.202230853e-13,3.004607399e-13,1.828718512e-14,2.753495915e-14,6.627798339e-14,1.565957199e-13,1.801398005e-13,4.678568095e-14,1.074270855e-13,1.111725373e-13,1.677619031e-13,1.419578160e-13,9.296495417e-14,9.100324750e-14,1.402283914e-13,6.936621425e-14,6.005664985e-14,1.323431213e-13,1.315024968e-13,3.394510556e-13,6.169635336e-14,1.882187667e-13,8.979833939e-13,7.092154350e-13,1.983817399e-12,9.672663212e-14,1.643613371e-14
1.3281,2.734356826e-12,7.434870172e-13,7.231585054e-13,1.524497916e-13,4.594209965e-14,2.574293110e-13,3.278955834e-13,2.219202805e-14,3.219512122e-14,6.507878444e-14,1.609389446e-13,1.886728406e-13,4.681399766e-14,1.144875082e-13,1.126646525e-13,1.643291652e-13,1.417198765e-13,9.441849092e-14,9.298743574e-14,1.337134339e-13,7.073592444e-14,6.048050332e-14,1.304448653e-13,1.270223382e-13,3.355538290e-13,6.331661108e-14,1.877658690e-13,8.357216218e-13,6.912224468e-13,1.901635285e-12,1.042693241e-13,1.721060665e-14
1.3359,2.806060452e-12,7.697191448e-13,7.649155013e-13,1.448256732e-13,4.212683540e-14,2.879647744e-13,3.569609379e-13,2.235053093e-14,3.818968529e-14,6.554944162e-14,1.689246044e-13,1.985178533e-13,4.725245327e-14,1.236406632e-13,1.170352157e-13,1.630798558e-13,1.438113059e-13,9.625880901e-14,9.562293855e-14,1.296482408e-13,7.272994761e-14,6.049226705e-14,1.261217088e-13,1.214045695e-13,3.273493364e-13,6.499787498e-14,1.873152388e-13,7.610720874e-13,6.661770083e-13,1.794796714e-12,1.122834740e-13,1.829123120e-14
1.3438,2.897426121e-12,7.917766733e-13,8.047015332e-13,1.363439346e-13,3.754942490e-14,3.112193889e-13,3.912492054e-13,2.061263693e-14,4.483131753e-14,6.951591049e-14,1.849473068e-13,2.105200222e-13,4.961795522e-14,1.346847985e-13,1.261043811e-13,1.661445854e-13,1.514554868e-13,1.009118272e-13,1.006018190e-13,1.303033899e-13,7.691740271e-14,5.992761190e-14,1.196174361e-13,1.121446592e-13,3.142652962e-13,6.697300086e-14,1.862816183e-13,6.844173582e-13,6.386183614e-13,1.680887014e-12,1.205568132e-13,2.026639895e-14
1.3516,3.010316182e-12,8.201393328e-13,8.419176214e-13,1.285828374e-13,3.322781339e-14,3.282973308e-13,4.286964767e-13,2.211484874e-14,5.200239763e-14,7.773645503e-14,2.088485943e-13,2.245443976e-13,5.349885285e-14,1.480455822e-13,1.389547276e-13,1.719537682e-13,1.620343425e-13,1.057039007e-13,1.057851350e-13,1.316619418e-13,8.177759609e-14,5.913884207e-14,1.109209631e-13,1.028527728e-13,2.980980463e-13,7.013640040e-14,1.866316646e-13,6.099152736e-13,6.128173285e-13,1.582235080e-12,1.298082488e-13,2.243938242e-14
1.3594,3.140459504e-12,8.611437652e-13,8.738470574e-13,1.216156535e-13,2.948283812e-14,3.367838181e-13,4.666793257e-13,2.610305899e-14,5.934881793e-14,8.914411226e-14,2.371229543e-13,2.388412684e-13,5.678351320e-14,1.629350726e-13,1.547264613e-13,1.818600435e-13,1.743604926e-13,1.101166810e-13,1.103537977e-13,1.323844328e-13,8.647653823e-14,5.750100742e-14,1.013412014e-13,9.851446600e-14,2.827342651e-13,7.458690675e-14,1.887207289e-13,5.370062997e-13,5.908423246e-13,1.489462705e-12,1.407507100e-13,2.465984661e-14
1.3672,3.271506080e-12,9.118079362e-13,8.910733498e-13,1.147458224e-13,2.657588120e-14,3.275632551e-13,4.984359695e-13,2.747931563e-14,6.618427933e-14,1.000741623e-13,2.599224995e-13,2.491332449e-13,5.761361213e-14,1.767913995e-13,1.674363439e-13,1.890944230e-13,1.821700479e-13,1.117216565e-13,1.123532458e-13,1.290396869e-13,8.878383443e-14,5.551715403e-14,9.406664793e-14,9.519162810e-14,2.674159134e-13,7.953936608e-14,1.915512251e-13,4.705157374e-13,5.695323238e-13,1.374164541e-12,1.525449998e-13,2.748663719e-14
1.375,3.401828783e-12,9.694539544e-13,8.929925006e-13,1.110276128e-13,2.470806839e-14,3.046157859e-13,5.273107567e-13,2.697393780e-14,7.171089098e-14,1.109639023e-13,2.794320715e-13,2.558446495e-13,5.759345924e-14,1.883190845e-13,1.778627417e-13,1.944623552e-13,1.894437424e-13,1.133259403e-13,1.132182738e-13,1.268803646e-13,9.030511926e-14,5.335096192e-14,8.922748868e-14,8.958181955e-14,2.503787685e-13,8.438726451e-14,1.943677911e-13,4.170539848e-13,5.510871773e-13,1.262933250e-12,1.638034279e-13,3.104690283e-14
1.3828,3.527463605e-12,1.037257027e-12,8.839285939e-13,1.116000567e-13,2.379447034e-14,2.759101808e-13,5.560742779e-13,2.989654164e-14,7.579298344e-14,1.246023807e-13,3.049732737e-13,2.629335024e-13,5.948053039e-14,1.977502787e-13,1.898498029e-13,2.013694829e-13,1.989997273e-13,1.152643190e-13,1.123291212e-13,1.284068247e-13,9.207626209e-14,5.097085003e-14,8.384628811e-14,8.565274360e-14,2.331943393e-13,8.931470759e-14,1.978431730e-13,3.732325096e-13,5.363000674e-13,1.169822552e-12,1.732523086e-13,3.485173649e-14
1.3906,3.663661620e-12,1.113488205e-12,8.673389438e-13,1.170344625e-13,2.334424929e-14,2.470396511e-13,5.843128062e-13,3.535470583e-14,7.759225454e-14,1.376388105e-13,3.304582739e-13,2.661630275e-13,6.156146984e-14,2.017648417e-13,2.001224509e-13,2.083094063e-13,2.081596981e-13,1.158569833e-13,1.085275063e-13,1.302307587e-13,9.279354943e-14,4.778606256e-14,7.712374596e-14,8.666565732e-14,2.190302392e-13,9.497574540e-14,2.030037165e-13,3.390654683e-13,5.254887070e-13,1.098954174e-12,1.807550929e-13,3.860394182e-14
1.3984,3.812224114e-12,1.200329002e-12,8.420927332e-13,1.265359283e-13,2.335504099e-14,2.163666997e-13,6.072096380e-13,3.724512900e-14,7.720305958e-14,1.453761964e-13,3.410839450e-13,2.617912220e-13,5.992815120e-14,1.984625566e-13,2.025741573e-13,2.092510004e-13,2.094051177e-13,1.128700979e-13,1.018425742e-13,1.259898906e-13,9.063510048e-14,4.382717484e-14,7.095300300e-14,8.962753990e-14,2.087312168e-13,1.014397929e-13,2.117888243e-13,3.174729108e-13,5.194552408e-13,1.041884409e-12,1.867521700e-13,4.230508978e-14
1.4062,3.949969683e-12,1.285876475e-12,8.103945032e-13,1.405465698e-13,2.392803550e-14,1.878521153e-13,6.233545643e-13,3.518244366e-14,7.410158623e-14,1.475045692e-13,3.309960189e-13,2.495804100e-13,5.344652680e-14,1.856617119e-13,1.935856508e-13,1.982845071e-13,1.989570685e-13,1.059140624e-13,9.332878573e-14,1.158492291e-13,8.515031598e-14,3.870509252e-14,6.597459188e-14,8.873813269e-14,1.995078809e-13,1.077542528e-13,2.216740040e-13,3.081211831e-13,5.173398247e-13,1.004474690e-12,1.913488879e-13,4.632505185e-14
1.4141,4.074592006e-12,1.365612520e-12,7.781924589e-13,1.566592075e-13,2.483306165e-14,1.655479606e-13,6.369364100e-13,3.426483968e-14,6.905475405e-14,1.482214369e-13,3.127343742e-13,2.342960909e-13,4.741854788e-14,1.665836298e-13,1.791801572e-13,1.809039817e-13,1.840711616e-13,9.917264423e-14,8.683553286e-14,1.101738979e-13,8.075547808e-14,3.364217965e-14,6.079115166e-14,8.916959717e-14,1.926134308e-13,1.137513447e-13,2.323303753e-13,3.080530325e-13,5.199862499e-13,9.941144222e-13,1.942825780e-13,5.043908287e-14
1.4219,4.171084204e-12,1.430069771e-12,7.459538463e-13,1.729343714e-13,2.561544428e-14,1.498490814e-13,6.494045053e-13,3.641928292e-14,6.292833896e-14,1.518264482e-13,2.991253111e-13,2.203715766e-13,4.330836509e-14,1.438863733e-13,1.647749705e-13,1.653323154e-13,1.723426756e-13,9.533932118e-14,8.296705463e-14,1.112826792e-13,7.824125901e-14,2.910836716e-14,5.473598767e-14,9.244433601e-14,1.861079828e-13,1.184546291e-13,2.410380095e-13,3.116187970e-13,5.201379000e-13,9.855281672e-13,1.945687490e-13,5.425620731e-14
1.4297,4.215492018e-12,1.459831120e-12,7.103119739e-13,1.889739675e-13,2.616078253e-14,1.396339047e-13,6.546259945e-13,3.874067413e-14,5.606198537e-14,1.550887550e-13,2.817290397e-13,2.064853148e-13,3.880383075e-14,1.198417041e-13,1.492915593e-13,1.512976611e-13,1.613908522e-13,9.303470904e-14,8.094145026e-14,1.136177964e-13,7.611273600e-14,2.534452436e-14,5.055240137e-14,9.535690706e-14,1.806841483e-13,1.219364622e-13,2.483149738e-13,3.176397278e-13,5.132040333e-13,9.707755676e-13,1.927807824e-13,5.719801945e-14
1.4375,4.197847028e-12,1.447180236e-12,6.685694096e-13,2.035029193e-13,2.634870080e-14,1.339192906e-13,6.460230130e-13,4.028874155e-14,4.901836307e-14,1.551551622e-13,2.510671864e-13,1.922037775e-13,3.354769533e-14,9.637480206e-14,1.318000013e-13,1.360905915e-13,1.498029819e-13,9.281972882e-14,8.164431572e-14,1.154371541e-13,7.428552797e-14,2.302693079e-14,4.928878914e-14,9.392105586e-14,1.748487919e-13,1.239146408e-13,2.531993513e-13,3.286650799e-13,4.992041265e-13,9.517849208e-13,1.892552370e-13,5.907672169e-14
1.4453,4.103008816e-12,1.386367109e-12,6.226347549e-13,2.147925005e-13,2.640542003e-14,1.333756493e-13,6.174670035e-13,4.367746711e-14,4.278142939e-14,1.536020893e-13,2.090730890e-13,1.801572867e-13,3.043749205e-14,7.632630897e-14,1.138249962e-13,1.196269863e-13,1.375771015e-13,9.644898758e-14,8.629949533e-14,1.206212210e-13,7.415556232e-14,2.255079617e-14,4.871939661e-14,9.069341801e-14,1.683184424e-13,1.242392641e-13,2.556306277e-13,3.468178829e-13,4.830404701e-13,9.248235906e-13,1.844624952e-13,5.996569646e-14
1.4531,3.944163628e-12,1.289705136e-12,5.743639456e-13,2.193055206e-13,2.623565253e-14,1.372982815e-13,5.732606099e-13,4.817627092e-14,3.758270991e-14,1.546939131e-13,1.705027608e-13,1.730091571e-13,3.061667956e-14,6.059175747e-14,9.923481423e-14,1.060821184e-13,1.262957227e-13,1.038361195e-13,9.472158330e-14,1.290517105e-13,7.591247161e-14,2.393335702e-14,4.687666495e-14,8.917447489e-14,1.608774869e-13,1.229387222e-13,2.534199157e-13,3.674797557e-13,4.584126611e-13,8.994824472e-13,1.791783067e-13,6.085477231e-14
1.4609,3.758242565e-12,1.174118072e-12,5.203781883e-13,2.134487395e-13,2.582668912e-14,1.385780035e-13,5.218701681e-13,4.969916356e-14,3.364485096e-14,1.577573497e-13,1.414759540e-13,1.705112451e-13,3.350713426e-14,5.060335084e-14,9.177725487e-14,1.004201566e-13,1.189348020e-13,1.155421236e-13,1.072646869e-13,1.398950661e-13,8.067824726e-14,2.708224728e-14,4.441816463e-14,9.283698255e-14,1.531295721e-13,1.201686557e-13,2.472507998e-13,3.836308952e-13,4.257363644e-13,8.955278841e-13,1.734261937e-13,6.168077679e-14
1.4688,3.563588882e-12,1.048894450e-12,4.668565417e-13,1.996033663e-13,2.533458100e-14,1.369578035e-13,4.720009721e-13,4.818221745e-14,3.086799176e-14,1.624019025e-13,1.227489580e-13,1.716984374e-13,3.883660876e-14,4.692844877e-14,9.435544569e-14,1.063484648e-13,1.208650851e-13,1.329340921e-13,1.240775021e-13,1.542460424e-13,8.928454161e-14,3.194633023e-14,4.249668848e-14,1.024281866e-13,1.453835859e-13,1.167200978e-13,2.385703979e-13,3.901296624e-13,3.878230043e-13,9.027321140e-13,1.677165299e-13,6.209356874e-14
1.4766,3.362062183e-12,9.183531243e-13,4.184986660e-13,1.818587743e-13,2.468983315e-14,1.348614510e-13,4.219798016e-13,4.741241464e-14,2.915204861e-14,1.677796671e-13,1.108888578e-13,1.744562117e-13,4.625287589e-14,4.830040382e-14,1.032021323e-13,1.202672891e-13,1.310261736e-13,1.564436958e-13,1.454384264e-13,1.746412702e-13,1.020105160e-13,3.821742275e-14,4.187707733e-14,1.152698277e-13,1.359946440e-13,1.124779668e-13,2.281780926e-13,3.899682965e-13,3.496164026e-13,8.893798205e-13,1.620628332e-13,6.128120212e-14
1.4844,3.178092758e-12,7.970326378e-13,3.775357146e-13,1.623117596e-13,2.393457040e-14,1.352691940e-13,3.701903243e-13,4.864346044e-14,2.834362900e-14,1.738997976e-13,1.042701884e-13,1.771782361e-13,5.526267354e-14,5.348170384e-14,1.129819841e-13,1.365429101e-13,1.448509410e-13,1.835642721e-13,1.690653200e-13,1.993567185e-13,1.172332358e-13,4.542318525e-14,4.286693010e-14,1.289488237e-13,1.266851400e-13,1.077805349e-13,2.174926313e-13,3.912899830e-13,3.161661919e-13,8.646962172e-13,1.559678742e-13,5.973422610e-14
1.4922,3.026034016e-12,6.902199601e-13,3.399074781e-13,1.408564627e-13,2.315028629e-14,1.350555681e-13,3.185797439e-13,4.913782807e-14,2.805288666e-14,1.806764720e-13,1.026865394e-13,1.812572078e-13,6.647307123e-14,6.185805957e-14,1.239714744e-13,1.569863777e-13,1.601691732e-13,2.135201435e-13,1.946388872e-13,2.283290883e-13,1.349940560e-13,5.356053195e-14,4.444352174e-14,1.451951674e-13,1.183148062e-13,1.033339217e-13,2.071934541e-13,3.938252372e-13,2.843440074e-13,8.580266257e-13,1.505108414e-13,5.848202500e-14
1.5,2.918294069e-12,6.034518389e-13,3.079036504e-13,1.192173175e-13,2.270118159e-14,1.327985738e-13,2.729086731e-13,4.787791776e-14,2.829536124e-14,1.875783357e-13,1.096300820e-13,1.873765280e-13,8.048851092e-14,7.386208969e-14,1.401114000e-13,1.846352491e-13,1.781056308e-13,2.443741772e-13,2.202552333e-13,2.589942252e-13,1.538500138e-13,6.242500309e-14,4.482889029e-14,1.654542676e-13,1.117108101e-13,9.909312389e-14,1.979288285e-13,3.891854474e-13,2.567793551e-13,8.756137179e-13,1.455970882e-13,5.727209676e-14
1.5078,2.863900789e-12,5.353483807e-13,2.853563234e-13,9.946714256e-14,2.250364491e-14,1.289246328e-13,2.378724639e-13,4.718247685e-14,2.884377452e-14,1.950791913e-13,1.253452141e-13,1.938930521e-13,9.462081244e-14,8.771496476e-14,1.588437326e-13,2.142097795e-13,1.974494634e-13,2.725278251e-13,2.442964324e-13,2.853820871e-13,1.712563907e-13,7.136302269e-14,4.455052198e-14,1.854389797e-13,1.058919610e-13,9.495209156e-14,1.898542263e-13,3.755845624e-13,2.344987338e-13,8.817482778e-13,1.403226713e-13,5.573195672e-14
1.5156,2.857359160e-12,4.880651741e-13,2.745352844e-13,8.280452890e-14,2.218735792e-14,1.258088923e-13,2.137527575e-13,4.832708060e-14,2.912355590e-14,2.018177112e-13,1.379141296e-13,1.943169511e-13,1.036264569e-13,9.885658553e-14,1.686335750e-13,2.291025700e-13,2.062557113e-13,2.877700203e-13,2.600224638e-13,2.926061974e-13,1.804946175e-13,7.879866719e-14,4.567951760e-14,1.982480258e-13,1.026135973e-13,9.118244250e-14,1.852491144e-13,3.679199991e-13,2.192223952e-13,8.845960961e-13,1.347186300e-13,5.394335828e-14
1.5234,2.908849196e-12,4.622006163e-13,2.810604428e-13,7.039366453e-14,2.167459138e-14,1.266865503e-13,2.006203621e-13,4.923794062e-14,2.871004065e-14,2.060916012e-13,1.450701231e-13,1.879177592e-13,1.070604353e-13,1.063615827e-13,1.684214897e-13,2.297977813e-13,2.051341350e-13,2.895933643e-13,2.655937985e-13,2.840578216e-13,1.813846562e-13,8.372991400e-14,4.818746793e-14,2.041837856e-13,1.016223900e-13,8.758054465e-14,1.825854424e-13,3.695664615e-13,2.094109559e-13,9.274685702e-13,1.287873978e-13,5.259450662e-14
1.5312,2.994345484e-12,4.523042176e-13,3.013881093e-13,6.076722200e-14,2.094356345e-14,1.297257823e-13,1.986612079e-13,4.839102933e-14,2.782368758e-14,2.074061024e-13,1.526835218e-13,1.789966820e-13,1.096782652e-13,1.116279123e-13,1.655804854e-13,2.279336062e-13,2.026970230e-13,2.850222249e-13,2.647673227e-13,2.733996297e-13,1.797760889e-13,8.749734830e-14,5.057375804e-14,2.128769243e-13,1.041452751e-13,8.451493738e-14,1.826160240e-13,3.801479555e-13,2.065611156e-13,9.921645886e-13,1.229468003e-13,5.221105875e-14
1.5391,3.075644341e-12,4.592363974e-13,3.373872290e-13,5.468462660e-14,2.036999770e-14,1.357748627e-13,2.095733226e-13,4.626535040e-14,2.694118414e-14,2.061372633e-13,1.678678249e-13,1.709978557e-13,1.145284377e-13,1.163300402e-13,1.650546925e-13,2.281329609e-13,2.032670556e-13,2.790405302e-13,2.611710813e-13,2.654084284e-13,1.789467674e-13,9.117067426e-14,5.222639655e-14,2.267343899e-13,1.097544679e-13,8.183768822e-14,1.842955695e-13,3.968583446e-13,2.113117871e-13,1.041279868e-12,1.169216039e-13,5.236567044e-14
1.5469,3.123886706e-12,4.757081252e-13,3.802485455e-13,5.223326531e-14,1.997422210e-14,1.431969663e-13,2.301127681e-13,4.401858131e-14,2.601685575e-14,2.038964259e-13,1.854935539e-13,1.641513703e-13,1.183039686e-13,1.203245421e-13,1.640517948e-13,2.225345057e-13,2.009554830e-13,2.680126108e-13,2.533010768e-13,2.523324978e-13,1.761181975e-13,9.370614806e-14,5.446582041e-14,2.416970470e-13,1.193367433e-13,7.952602564e-14,1.872929130e-13,4.235102884e-13,2.207103264e-13,1.082023876e-12,1.105589703e-13,5.213371473e-14
1.5547,3.122159490e-12,4.986987454e-13,4.185403753e-13,5.431051655e-14,1.927705501e-14,1.516930081e-13,2.521347507e-13,4.148649276e-14,2.416776167e-14,2.005109172e-13,1.937663347e-13,1.560597160e-13,1.172009256e-13,1.209919476e-13,1.563723896e-13,2.036333001e-13,1.886938717e-13,2.473819728e-13,2.387897305e-13,2.298992750e-13,1.687823346e-13,9.394703673e-14,5.891541566e-14,2.544925905e-13,1.330939085e-13,7.769618473e-14,1.905316654e-13,4.663521883e-13,2.340518225e-13,1.170266621e-12,1.041271841e-13,5.175535403e-14
1.5625,3.066986425e-12,5.262082993e-13,4.475632753e-13,6.071247392e-14,1.835090466e-14,1.595767966e-13,2.716385143e-13,3.840885112e-14,2.200220658e-14,1.958982328e-13,1.956928279e-13,1.493269214e-13,1.140923778e-13,1.211241443e-13,1.489025329e-13,1.823929202e-13,1.749153260e-13,2.232001069e-13,2.220163728e-13,2.062572222e-13,1.614827324e-13,9.375449114e-14,6.608567816e-14,2.703564043e-13,1.514161099e-13,7.670023951e-14,1.947680988e-13,5.260713246e-13,2.537989508e-13,1.304468742e-12,9.824555481e-14,5.169589316e-14
1.5703,2.916313186e-12,5.538730871e-13,4.666431630e-13,7.127376076e-14,1.770596967e-14,1.666599372e-13,2.889568645e-13,3.617159207e-14,2.022706296e-14,1.904022172e-13,1.987120989e-13,1.450555176e-13,1.117399850e-13,1.211443892e-13,1.429691939e-13,1.624355839e-13,1.625607287e-13,1.987313008e-13,2.051313132e-13,1.842049920e-13,1.560398635e-13,9.453226947e-14,7.433772279e-14,2.889854537e-13,1.738918415e-13,7.663039057e-14,2.009113308e-13,5.929443091e-13,2.815844104e-13,1.396226926e-12,9.317666251e-14,5.172746044e-14
1.5781,2.672025492e-12,5.755959813e-13,4.750940392e-13,8.586534609e-14,1.752482297e-14,1.743461714e-13,3.042326915e-13,3.562861662e-14,1.877318101e-14,1.839632820e-13,2.052031736e-13,1.415755723e-13,1.103052010e-13,1.213679516e-13,1.380507541e-13,1.442841043e-13,1.524282336e-13,1.762687841e-13,1.894786428e-13,1.641293246e-13,1.523255459e-13,9.587541583e-14,8.366603859e-14,3.069167571e-13,1.973221331e-13,7.688234336e-14,2.069309940e-13,6.597862916e-13,3.094285967e-13,1.432361734e-12,8.827712739e-14,5.078846731e-14
1.5859,2.377463575e-12,5.980278239e-13,4.724969020e-13,1.041781561e-13,1.782115281e-14,1.803436806e-13,3.156574089e-13,3.511237248e-14,1.714012676e-14,1.751935129e-13,2.061358320e-13,1.361214878e-13,1.075845632e-13,1.213578674e-13,1.304633934e-13,1.248455362e-13,1.422833970e-13,1.552900520e-13,1.752844713e-13,1.451345682e-13,1.490252497e-13,9.651085310e-14,9.393549780e-14,3.166229938e-13,2.186928702e-13,7.667360279e-14,2.120159705e-13,7.263312605e-13,3.385679221e-13,1.491609796e-12,8.312898920e-14,4.848921543e-14
1.5938,2.045954713e-12,6.130149178e-13,4.567524399e-13,1.261918366e-13,1.815531375e-14,1.836325084e-13,3.162144463e-13,3.279720597e-14,1.536774980e-14,1.621855901e-13,1.976747488e-13,1.288053995e-13,1.043439286e-13,1.219666029e-13,1.236982243e-13,1.085067313e-13,1.360467022e-13,1.380225526e-13,1.642661296e-13,1.330544924e-13,1.493198030e-13,9.699233650e-14,1.047762035e-13,3.240190270e-13,2.397924256e-13,7.656464434e-14,2.174095490e-13,7.892267065e-13,3.732445199e-13,1.608634491e-12,7.794210807e-14,4.635651629e-14
1.6016,1.723147760e-12,6.259513003e-13,4.322283835e-13,1.506772905e-13,1.851906610e-14,1.838650219e-13,3.072553103e-13,2.827539420e-14,1.370201128e-14,1.452185149e-13,1.874786863e-13,1.206689351e-13,1.029709325e-13,1.237392408e-13,1.206665328e-13,9.885153912e-14,1.360498210e-13,1.261607291e-13,1.576681589e-13,1.296495272e-13,1.548568423e-13,9.888826612e-14,1.152815649e-13,3.320944149e-13,2.616357193e-13,7.724384282e-14,2.244072570e-13,8.398675415e-13,4.141343855e-13,1.700751745e-12,7.312853337e-14,4.523832510e-14
1.6094,1.417302693e-12,6.341644311e-13,4.056477973e-13,1.777665930e-13,1.921192318e-14,1.821494858e-13,2.942955499e-13,2.346805535e-14,1.254549381e-14,1.272805475e-13,1.825555798e-13,1.144151744e-13,1.041463953e-13,1.270862015e-13,1.219857238e-13,9.486376815e-14,1.397120299e-13,1.195716367e-13,1.548275504e-13,1.307943406e-13,1.628958362e-13,1.019472686e-13,1.248377702e-13,3.367357646e-13,2.814015469e-13,7.830782611e-14,2.319949576e-13,8.680447713e-13,4.513967827e-13,1.701412246e-12,6.848701998e-14,4.429517478e-14
1.6172,1.140264615e-12,6.386625915e-13,3.759945058e-13,2.067039102e-13,2.045369269e-14,1.809468387e-13,2.810010439e-13,2.055095047e-14,1.177982339e-14,1.120613004e-13,1.829593968e-13,1.100254343e-13,1.047387005e-13,1.311145768e-13,1.246812783e-13,9.377559466e-14,1.413252860e-13,1.152547900e-13,1.527188948e-13,1.299025297e-13,1.698531347e-13,1.048483756e-13,1.364707929e-13,3.328613017e-13,2.976932148e-13,7.985083608e-14,2.396254507e-13,8.792714950e-13,4.821024193e-13,1.671536037e-12,6.383645675e-14,4.323336088e-14
1.625,9.069426164e-13,6.360393116e-13,3.433167593e-13,2.361744232e-13,2.236319156e-14,1.790654431e-13,2.651515375e-13,1.936313390e-14,1.130720601e-14,9.875945611e-14,1.859253839e-13,1.053597784e-13,1.030107773e-13,1.355532063e-13,1.280269288e-13,9.626483528e-14,1.438778419e-13,1.140838693e-13,1.526329089e-13,1.294943846e-13,1.775332383e-13,1.075961433e-13,1.524854692e-13,3.237175493e-13,3.129568270e-13,8.272169824e-14,2.496657438e-13,8.858508222e-13,5.114916154e-13,1.705547278e-12,5.954321259e-14,4.225855854e-14
1.6328,7.253077540e-13,6.244839583e-13,3.120356301e-13,2.630404892e-13,2.475048089e-14,1.746264539e-13,2.474704795e-13,1.868350511e-14,1.121308970e-14,8.764727940e-14,1.939540162e-13,1.011145880e-13,9.939298559e-14,1.402875850e-13,1.339471599e-13,1.037880100e-13,1.487492455e-13,1.160422464e-13,1.539489137e-13,1.319109571e-13,1.875073363e-13,1.100602379e-13,1.717226112e-13,3.151049908e-13,3.300562299e-13,8.769458158e-14,2.631627225e-13,8.899652915e-13,5.474923040e-13,1.784725256e-12,5.602676726e-14,4.194423666e-14
1.6406,5.924717303e-13,6.007324986e-13,2.819863364e-13,2.844659244e-13,2.715760263e-14,1.657695168e-13,2.289559536e-13,1.804333103e-14,1.123354624e-14,7.839329877e-14,2.053578957e-13,9.743491009e-14,9.558213166e-14,1.442876043e-13,1.418604341e-13,1.158555757e-13,1.576522474e-13,1.215727377e-13,1.574156178e-13,1.396419671e-13,2.020784386e-13,1.131510009e-13,1.940186178e-13,3.098387179e-13,3.499734116e-13,9.478122079e-14,2.789733590e-13,8.884063985e-13,5.851364411e-13,1.825977618e-12,5.339715286e-14,4.255152851e-14
1.6484,5.022575016e-13,5.650428485e-13,2.531111387e-13,3.002546036e-13,2.887696004e-14,1.549923370e-13,2.126239901e-13,1.806349738e-14,1.116536479e-14,7.083164978e-14,2.149391264e-13,9.399156039e-14,9.277339929e-14,1.465196088e-13,1.495407371e-13,1.319792645e-13,1.693922484e-13,1.314368783e-13,1.649248254e-13,1.530454397e-13,2.222102019e-13,1.183703661e-13,2.204807946e-13,3.112411121e-13,3.733000752e-13,1.041951828e-13,2.965984584e-13,8.788811030e-13,6.118347154e-13,1.834051595e-12,5.154692453e-14,4.398743549e-14
1.6562,4.492203532e-13,5.178797864e-13,2.240194494e-13,3.091547644e-13,2.958409134e-14,1.432385986e-13,1.992506410e-13,1.904861408e-14,1.101895720e-14,6.530408303e-14,2.211839429e-13,9.081577909e-14,9.012207061e-14,1.486054679e-13,1.569404478e-13,1.513645108e-13,1.827366641e-13,1.441827947e-13,1.753215780e-13,1.697853482e-13,2.469574257e-13,1.259590413e-13,2.511017714e-13,3.193165833e-13,4.002499355e-13,1.164285158e-13,3.168204975e-13,8.668249453e-13,6.286727669e-13,1.862901285e-12,5.119143899e-14,4.678389327e-14
1.6641,4.327352323e-13,4.658535065e-13,2.004268962e-13,3.132880300e-13,2.971294134e-14,1.321853773e-13,1.945144455e-13,2.033793219e-14,1.083689676e-14,6.280579582e-14,2.260561663e-13,8.746226999e-14,8.750465143e-14,1.485179781e-13,1.618079060e-13,1.717109114e-13,1.960572786e-13,1.588534150e-13,1.887168719e-13,1.891362143e-13,2.764495763e-13,1.359221267e-13,2.854622848e-13,3.340030579e-13,4.312514408e-13,1.312534870e-13,3.398781861e-13,8.599020539e-13,6.417931092e-13,1.919277421e-12,5.237360053e-14,5.113027357e-14
1.6719,4.432170678e-13,4.133255502e-13,1.813554923e-13,3.124279899e-13,2.985422195e-14,1.221258382e-13,1.959667049e-13,2.144172436e-14,1.088182155e-14,6.448875056e-14,2.332959381e-13,8.483434922e-14,8.621845052e-14,1.472737548e-13,1.664383400e-13,1.937283802e-13,2.103302717e-13,1.749307556e-13,2.038370109e-13,2.105470660e-13,3.084093020e-13,1.474502322e-13,3.220356149e-13,3.506923983e-13,4.621323767e-13,1.474883934e-13,3.640803940e-13,8.547065271e-13,6.564456969e-13,1.941763503e-12,5.446032603e-14,5.630729936e-14
1.6797,4.656555758e-13,3.644559078e-13,1.650977054e-13,3.075513904e-13,2.993570151e-14,1.127609945e-13,2.014622690e-13,2.285778241e-14,1.071841290e-14,7.028226669e-14,2.408833772e-13,8.326555927e-14,8.453065028e-14,1.431645511e-13,1.668911909e-13,2.098390854e-13,2.183915560e-13,1.877488464e-13,2.177926305e-13,2.279198262e-13,3.397916651e-13,1.588813051e-13,3.603617322e-13,3.660715169e-13,4.929645544e-13,1.647655504e-13,3.901736400e-13,8.529749912e-13,6.736277191e-13,1.938972634e-12,5.762087081e-14,6.166215366e-14
1.6875,5.023186432e-13,3.186092680e-13,1.525217139e-13,2.998993936e-13,2.958781289e-14,1.038636247e-13,2.077016394e-13,2.502001339e-14,1.011918356e-14,7.826395907e-14,2.446321103e-13,8.124115216e-14,8.094369030e-14,1.365117768e-13,1.625109779e-13,2.186577378e-13,2.192669839e-13,1.971523872e-13,2.309475947e-13,2.390923275e-13,3.697518615e-13,1.699515797e-13,3.999085090e-13,3.784237365e-13,5.221079352e-13,1.826998199e-13,4.181069504e-13,8.545956900e-13,6.906309495e-13,1.978071756e-12,6.209304113e-14,6.677782152e-14
1.6953,5.571360071e-13,2.833494181e-13,1.469386353e-13,2.915898918e-13,2.852483586e-14,9.780844831e-14,2.162503227e-13,2.777562429e-14,9.015545907e-15,8.739016136e-14,2.437438044e-13,7.809469537e-14,7.500069172e-14,1.276965930e-13,1.541555480e-13,2.200475716e-13,2.144269098e-13,2.026478422e-13,2.427813459e-13,2.429259275e-13,3.968422060e-13,1.795137423e-13,4.374438385e-13,3.863626879e-13,5.475643278e-13,2.001575930e-13,4.469284483e-13,8.604407573e-13,7.145404629e-13,2.069681359e-12,6.766804428e-14,7.148742623e-14
1.7031,6.151254727e-13,2.538260761e-13,1.462572356e-13,2.811075272e-13,2.684716282e-14,9.395567319e-14,2.270580992e-13,3.024062868e-14,7.818347093e-15,9.773183239e-14,2.412260704e-13,7.477953978e-14,6.797584146e-14,1.165007895e-13,1.419432418e-13,2.142589032e-13,2.042553379e-13,2.052240614e-13,2.543219959e-13,2.419337206e-13,4.219726214e-13,1.880094344e-13,4.708803272e-13,3.901198989e-13,5.679281067e-13,2.162101584e-13,4.749123403e-13,8.653990553e-13,7.454881482e-13,2.130669351e-12,7.408230092e-14,7.581115120e-14
1.7109,6.678905060e-13,2.272108475e-13,1.489183267e-13,2.669960868e-13,2.524367963e-14,9.179446321e-14,2.389100424e-13,3.164762384e-14,6.673128840e-15,1.086522098e-13,2.358195009e-13,7.088228072e-14,6.125738678e-14,1.028654094e-13,1.252162593e-13,2.016841053e-13,1.896561329e-13,2.051738961e-13,2.661457029e-13,2.370783074e-13,4.460505471e-13,1.965923341e-13,4.986974825e-13,3.898184882e-13,5.824714134e-13,2.305050863e-13,5.015747939e-13,8.568043202e-13,7.701703902e-13,2.095068248e-12,8.085914769e-14,8.010700370e-14
1.7188,7.011909770e-13,2.002530774e-13,1.525870827e-13,2.484211824e-13,2.401217551e-14,9.073254457e-14,2.484998825e-13,3.192943420e-14,5.636951298e-15,1.187755040e-13,2.270980318e-13,6.645716455e-14,5.561824068e-14,8.785474848e-14,1.057579598e-13,1.848090858e-13,1.739542904e-13,2.049451319e-13,2.795378942e-13,2.306420953e-13,4.696934665e-13,2.056670135e-13,5.202954467e-13,3.874914406e-13,5.915645296e-13,2.430868245e-13,5.272595124e-13,8.322323482e-13,7.857604392e-13,1.998573105e-12,8.802438547e-14,8.441192679e-14
1.7266,7.261796118e-13,1.736441277e-13,1.571556734e-13,2.266954588e-13,2.280527750e-14,9.098378972e-14,2.568919500e-13,3.137772053e-14,4.701036815e-15,1.271676250e-13,2.168388911e-13,6.147983247e-14,5.140857223e-14,7.389768100e-14,8.951928024e-14,1.693712241e-13,1.621145808e-13,2.065453647e-13,2.943272099e-13,2.251624542e-13,4.913438421e-13,2.147600343e-13,5.347940966e-13,3.827368481e-13,5.943200734e-13,2.527154841e-13,5.505153346e-13,8.000637866e-13,8.010381871e-13,1.925365578e-12,9.507599617e-14,8.806315333e-14
1.7344,7.416840936e-13,1.481001071e-13,1.630448706e-13,2.017311905e-13,2.081833704e-14,9.289881168e-14,2.625289295e-13,3.058555075e-14,3.798042579e-15,1.332802259e-13,2.066096746e-13,5.621595388e-14,4.781499535e-14,6.063191833e-14,7.732595949e-14,1.556688934e-13,1.533467729e-13,2.090971309e-13,3.085158291e-13,2.205519008e-13,5.098362973e-13,2.218658779e-13,5.425225219e-13,3.762587724e-13,5.925253717e-13,2.589454673e-13,5.707429848e-13,7.648845835e-13,8.207606667e-13,1.893307356e-12,1.009378859e-13,9.023457284e-14
1.7422,7.508073610e-13,1.239957119e-13,1.713353999e-13,1.750622383e-13,1.828370801e-14,9.731100996e-14,2.657816521e-13,2.988488611e-14,3.028099588e-15,1.375406737e-13,1.958298645e-13,5.083954804e-14,4.456652625e-14,4.839867580e-14,6.817355904e-14,1.430928411e-13,1.443782737e-13,2.106872958e-13,3.199494665e-13,2.145626095e-13,5.240068238e-13,2.270913357e-13,5.453071674e-13,3.691798918e-13,5.892834105e-13,2.624820734e-13,5.886602590e-13,7.307486626e-13,8.429200849e-13,1.860653278e-12,1.053029418e-13,9.122939667e-14
1.75,7.430398479e-13,1.006589786e-13,1.813408721e-13,1.475782558e-13,1.589530683e-14,1.032280955e-13,2.654368880e-13,2.907881760e-14,2.474816773e-15,1.394872723e-13,1.828348391e-13,4.511970765e-14,4.217139821e-14,3.803732253e-14,6.257516449e-14,1.336773218e-13,1.379982899e-13,2.135219420e-13,3.299765719e-13,2.086234414e-13,5.350049696e-13,2.303531425e-13,5.437098935e-13,3.623951860e-13,5.850074595e-13,2.629936410e-13,6.040215856e-13,6.943360686e-13,8.618017027e-13,1.796031082e-12,1.076291038e-13,9.084853881e-14
1.7578,7.136783829e-13,7.952470083e-14,1.880955396e-13,1.232304368e-13,1.410356765e-14,1.100895141e-13,2.600194204e-13,2.830265145e-14,2.192636556e-15,1.385709876e-13,1.689800686e-13,4.011877641e-14,4.122879643e-14,3.049764692e-14,6.302083494e-14,1.292530097e-13,1.370662081e-13,2.174238988e-13,3.377755786e-13,2.056910672e-13,5.423139844e-13,2.323251988e-13,5.373752226e-13,3.564482901e-13,5.799960501e-13,2.604868342e-13,6.153666198e-13,6.577420551e-13,8.813271579e-13,1.730620149e-12,1.076462082e-13,8.966963793e-14
1.7656,6.926594573e-13,6.384383574e-14,1.960815813e-13,1.029754617e-13,1.231845093e-14,1.179198457e-13,2.510251147e-13,2.728142006e-14,2.271385485e-15,1.348546729e-13,1.542190027e-13,3.566666161e-14,4.116675773e-14,2.560587324e-14,7.047625987e-14,1.325165368e-13,1.412872734e-13,2.209465882e-13,3.421829778e-13,2.063779131e-13,5.456826729e-13,2.329026358e-13,5.266873293e-13,3.544312036e-13,5.774827467e-13,2.554164524e-13,6.237729110e-13,6.350206309e-13,9.133602092e-13,1.718501351e-12,1.055781382e-13,8.788969623e-14
1.7734,6.838681517e-13,5.216415781e-14,2.027780733e-13,8.629605611e-14,1.027686142e-14,1.255538151e-13,2.382777562e-13,2.574217509e-14,2.761109760e-15,1.291999820e-13,1.393330294e-13,3.241125277e-14,4.157322018e-14,2.343458692e-14,8.646321490e-14,1.426383786e-13,1.485984649e-13,2.212675565e-13,3.404109525e-13,2.060958042e-13,5.412669422e-13,2.318719341e-13,5.112143021e-13,3.534351012e-13,5.757797426e-13,2.480935021e-13,6.290652929e-13,6.251488045e-13,9.510410841e-13,1.735047766e-12,1.019974171e-13,8.592618761e-14
1.7812,6.944643811e-13,4.421787698e-14,2.082458133e-13,7.424051653e-14,8.683381168e-15,1.324704714e-13,2.241301070e-13,2.418063383e-14,3.701371548e-15,1.229040030e-13,1.251288042e-13,3.063457780e-14,4.240805102e-14,2.424470009e-14,1.094466709e-13,1.586238113e-13,1.591723307e-13,2.196410359e-13,3.339688262e-13,2.060102416e-13,5.314197710e-13,2.295319724e-13,4.932684070e-13,3.554413694e-13,5.762559012e-13,2.394895234e-13,6.332390267e-13,6.278336705e-13,9.891317363e-13,1.765197996e-12,9.762873569e-14,8.413168210e-14
1.7891,7.180533572e-13,4.031674549e-14,2.120564862e-13,6.861033187e-14,8.277760459e-15,1.400164972e-13,2.117629328e-13,2.330300807e-14,5.196858271e-15,1.178751500e-13,1.135979853e-13,3.163694004e-14,4.419915987e-14,2.785920068e-14,1.389126028e-13,1.813220620e-13,1.760136350e-13,2.184335125e-13,3.266377728e-13,2.092937022e-13,5.197328181e-13,2.270781278e-13,4.759426290e-13,3.627305516e-13,5.785657477e-13,2.305807651e-13,6.376695715e-13,6.428424272e-13,1.028121830e-12,1.813561440e-12,9.287638432e-14,8.280093844e-14
