Time,Fp1,AF3,F7,F3,FC1,FC5,T7,C3,CP1,CP5,P7,P3,Pz,PO3,O1,Oz,O2,PO4,P4,P8,CP6,CP2,C4,T8,FC6,FC2,F4,F8,AF4,Fp2,Fz,Cz,
0,1.275653663e-07,7.480082960e-08,3.412251770e-08,6.929972218e-09,1.323332900e-08,3.359486141e-08,1.721918370e-08,1.349703453e-08,1.984333424e-09,1.084439091e-08,2.624050674e-08,1.322020162e-08,2.206335098e-08,4.027477989e-09,3.467550304e-08,2.111210857e-09,4.771760291e-08,1.975603851e-08,2.958357572e-08,5.001043956e-08,1.765947135e-08,1.273368708e-08,3.337168913e-08,4.623815484e-08,7.162045420e-08,1.158030430e-08,4.120904559e-08,7.853431925e-08,2.422480064e-09,7.587280402e-08,1.329590873e-11,5.956566656e-11
0.0078125,1.308925891e-07,7.676071562e-08,3.500666105e-08,7.108408504e-09,1.358233370e-08,3.445446295e-08,1.766139662e-08,1.384541291e-08,2.034788179e-09,1.113203530e-08,2.691337637e-08,1.355647808e-08,2.263975804e-08,4.137032743e-09,3.559444972e-08,2.167317381e-09,4.898026615e-08,2.027424660e-08,3.035582042e-08,5.134963871e-08,1.811297913e-08,1.305866255e-08,3.424556537e-08,4.745838517e-08,7.350294015e-08,1.188968364e-08,4.229035297e-08,8.053046476e-08,2.493885167e-09,7.785775309e-08,1.366143167e-11,6.076834828e-11
0.015625,1.238323532e-07,7.263008159e-08,3.311156067e-08,6.723041710e-09,1.285395376e-08,3.258308102e-08,1.670203764e-08,1.309646057e-08,1.924105810e-09,1.053594015e-08,2.545198648e-08,1.281921025e-08,2.142120556e-08,3.918412233e-09,3.368992098e-08,2.051814654e-09,4.635783039e-08,1.918525983e-08,2.872205781e-08,4.861460330e-08,1.713106458e-08,1.234981323e-08,3.240261217e-08,4.491492539e-08,6.955149954e-08,1.125529824e-08,4.001481464e-08,7.614418565e-08,2.368841863e-09,7.366327903e-08,1.313103583e-11,5.730341684e-11
0.023438,1.083191009e-07,6.354526824e-08,2.895210412e-08,5.876969547e-09,1.124960035e-08,2.847556209e-08,1.459931523e-08,1.145024395e-08,1.681424594e-09,9.223904901e-09,2.224925251e-08,1.120215565e-08,1.874033712e-08,3.435450352e-09,2.949370694e-08,1.796666390e-09,4.057959576e-08,1.678768416e-08,2.512697968e-08,4.258328383e-08,1.497712311e-08,1.079318872e-08,2.835210465e-08,3.931626899e-08,6.087293037e-08,9.857763784e-09,3.501803146e-08,6.654385452e-08,2.086460227e-09,6.445136586e-08,1.154158908e-11,4.964226076e-11
0.03125,8.791165326e-08,5.158228793e-08,2.348921859e-08,4.768224392e-09,9.134084683e-09,2.310161471e-08,1.184225232e-08,9.292315044e-09,1.364216945e-09,7.488661091e-09,1.805106587e-08,9.088751618e-09,1.521419577e-08,2.791587242e-09,2.395152652e-08,1.460076816e-09,3.295314043e-08,1.363156788e-08,2.040030245e-08,3.458800619e-08,1.215396383e-08,8.758274256e-09,2.301538896e-08,3.192746093e-08,4.941420540e-08,8.005130058e-09,2.842446817e-08,5.398244857e-08,1.696391931e-09,5.231383369e-08,9.380497678e-12,3.998248246e-11
0.039062,6.645677272e-08,3.899658373e-08,1.775305843e-08,3.605572803e-09,6.906293819e-09,1.747213388e-08,8.950044203e-09,7.028484950e-09,1.032074650e-09,5.657930869e-09,1.364638067e-08,6.876009116e-09,1.150650836e-08,2.108875017e-09,1.810750245e-08,1.105119428e-09,2.491521383e-08,1.031072546e-08,1.543166207e-08,2.614110187e-08,9.192896503e-09,6.627806380e-09,1.739886809e-08,2.414307100e-08,3.733857611e-08,6.048251867e-09,2.147872127e-08,4.082279953e-08,1.277201046e-09,3.953979903e-08,7.238695472e-12,3.025541945e-11
0.046875,4.709431942e-08,2.763640292e-08,1.257714156e-08,2.555533075e-09,4.895009319e-09,1.238531983e-08,6.339574981e-09,4.982617950e-09,7.318071231e-10,4.007252659e-09,9.668754429e-09,4.875586550e-09,8.157264528e-09,1.493833708e-09,1.283267107e-08,7.841707703e-10,1.765900380e-08,7.310838998e-09,1.094253247e-08,1.852489780e-08,6.517935848e-09,4.701000434e-09,1.232970955e-08,1.711796538e-08,2.644916980e-08,4.284193732e-09,1.521473544e-08,2.893624683e-08,9.028944341e-10,2.801628968e-08,5.255320207e-12,2.143881992e-11
0.054688,3.150953365e-08,1.848964711e-08,8.412824970e-09,1.709894362e-09,3.275030136e-09,8.287162313e-09,4.238951544e-09,3.333831813e-09,4.897449374e-10,2.679060424e-09,6.464888280e-09,3.262777095e-09,5.458496834e-09,9.986332698e-10,8.583385330e-09,5.250826217e-10,1.181412102e-08,4.893299943e-09,7.324939216e-09,1.239527591e-08,4.363230386e-09,3.147334955e-09,8.248713924e-09,1.146162367e-08,1.768761895e-08,2.864892618e-09,1.017455055e-08,1.936268506e-08,6.025858296e-10,1.874311071e-08,3.547215302e-12,1.428250944e-11
0.0625,2.013001074e-08,1.180654616e-08,5.375921022e-09,1.093255716e-09,2.090242099e-09,5.299821997e-09,2.707689066e-09,2.130455468e-09,3.132028895e-10,1.707516293e-09,4.127810575e-09,2.086857827e-09,3.486213896e-09,6.351589824e-10,5.473766803e-09,3.352056960e-10,7.537689903e-09,3.125672303e-09,4.681276345e-09,7.905537812e-09,2.791021789e-09,2.014256928e-09,5.266119522e-09,7.324465531e-09,1.128093720e-08,1.825640739e-09,6.489669637e-09,1.238254243e-08,3.806867432e-10,1.196757642e-08,2.291455372e-12,9.172206221e-12
0.070312,1.249813385e-08,7.322154676e-09,3.341166955e-09,6.794870536e-10,1.294650135e-09,3.295405223e-09,1.681987883e-09,1.322467522e-09,1.946636191e-10,1.056424754e-09,2.560606310e-09,1.297487059e-09,2.162061304e-09,3.914117221e-10,3.386845942e-09,2.075702380e-10,4.667590399e-09,1.938756149e-09,2.905849841e-09,4.893361147e-09,1.735821771e-09,1.253196452e-09,3.265129050e-09,4.547362203e-09,6.984859125e-09,1.128617840e-09,4.018261566e-09,7.699151194e-09,2.327991308e-10,7.423703552e-09,1.449047032e-12,5.769414164e-12
0.078125,7.731626464e-09,4.521034145e-09,2.070972613e-09,4.206084481e-10,7.973788048e-10,2.040876141e-09,1.041853819e-09,8.166880992e-10,1.204090697e-10,6.508925568e-10,1.581772449e-09,8.031844201e-10,1.334158284e-09,2.397893436e-10,2.084569278e-09,1.277428625e-10,2.875817441e-09,1.196660046e-09,1.795167827e-09,3.014914768e-09,1.075517326e-09,7.761936227e-10,2.015898775e-09,2.812262625e-09,4.306146233e-09,6.943215026e-10,2.476819538e-09,4.769141357e-09,1.417299066e-10,4.588028417e-09,8.891013288e-13,3.608205471e-12
0.085938,4.927217563e-09,2.872875824e-09,1.324603321e-09,2.683176619e-10,5.044659968e-10,1.304101077e-09,6.665834677e-10,5.194695152e-10,7.683204492e-11,4.127454681e-10,1.008261738e-09,5.133429357e-10,8.474568185e-10,1.507426311e-10,1.319610734e-09,8.090438106e-11,1.822394265e-09,7.601593631e-10,1.141564151e-09,1.907297551e-09,6.870438727e-10,4.958777321e-10,1.281004028e-09,1.789137926e-09,2.729971764e-09,4.384621166e-10,1.569598061e-09,3.047671782e-09,8.764331964e-11,2.919402261e-09,5.632099450e-13,2.367534118e-12
0.09375,3.335472326e-09,1.938912710e-09,9.006310946e-10,1.817195418e-10,3.384991918e-10,8.855589684e-10,4.540056533e-10,3.508775492e-10,5.211028989e-11,2.784873233e-10,6.841268606e-10,3.490400916e-10,5.717882373e-10,1.008800683e-10,8.883704214e-10,5.453980531e-11,1.227245529e-09,5.127738288e-10,7.706532241e-10,1.280288403e-09,4.660545335e-10,3.364622167e-10,8.647185076e-10,1.207910669e-09,1.838506138e-09,2.939151029e-10,1.056326325e-09,2.069552894e-09,5.751443512e-11,1.973816544e-09,3.863536020e-13,1.661054755e-12
0.10156,2.411566362e-09,1.399136774e-09,6.533815373e-10,1.312777226e-10,2.429158148e-10,6.417814482e-10,3.304531041e-10,2.532256853e-10,3.776520215e-11,2.014901925e-10,4.969206024e-10,2.536815611e-10,4.125206561e-10,7.270143256e-11,6.414580136e-10,3.944039504e-11,8.851065674e-10,3.697164922e-10,5.558054635e-10,9.196705930e-10,3.372119796e-10,2.434837279e-10,6.241211811e-10,8.713979099e-10,1.325165364e-09,2.109614054e-10,7.605861236e-10,1.499715997e-09,4.061738535e-11,1.426846572e-09,2.858181397e-13,1.230965212e-12
0.10938,1.840233590e-09,1.067752336e-09,4.996808013e-10,1.001616024e-10,1.846362198e-10,4.910157792e-10,2.537499752e-10,1.932216037e-10,2.887302808e-11,1.544045415e-10,3.814224327e-10,1.945249023e-10,3.145141786e-10,5.574101540e-11,4.911632633e-10,3.021124632e-11,6.757582266e-10,2.813385135e-10,4.230248625e-10,6.989784325e-10,2.568713176e-10,1.854290214e-10,4.757502823e-10,6.636816403e-10,1.009966172e-09,1.603197211e-10,5.791835870e-10,1.144450965e-09,3.050951051e-11,1.089593328e-09,2.230271809e-13,9.579677140e-13
0.11719,1.558009700e-09,9.048917567e-10,4.235187716e-10,8.534598267e-11,1.561416476e-10,4.202283189e-10,2.164531193e-10,1.649456427e-10,2.476251040e-11,1.304881714e-10,3.266013510e-10,1.672202974e-10,2.669973749e-10,4.689279720e-11,4.169583527e-10,2.574548372e-11,5.721624974e-10,2.381843255e-10,3.588614708e-10,5.863101638e-10,2.185282825e-10,1.583863213e-10,4.022982858e-10,5.605186379e-10,8.519635572e-10,1.343236525e-10,4.884255531e-10,9.764131805e-10,2.422506098e-11,9.218083061e-10,2.307950962e-13,8.958418821e-13
0.125,1.326587393e-09,7.730579304e-10,3.599224259e-10,7.284248100e-11,1.337309988e-10,3.584789052e-10,1.842497674e-10,1.408602966e-10,2.108857247e-11,1.117946300e-10,2.787456217e-10,1.424207539e-10,2.276272391e-10,4.045451855e-11,3.576741940e-10,2.196506226e-11,4.894052350e-10,2.026294545e-10,3.055527954e-10,5.023051524e-10,1.856639701e-10,1.341941247e-10,3.429413999e-10,4.794078435e-10,7.279387966e-10,1.149327268e-10,4.170497214e-10,8.291268958e-10,2.131632881e-11,7.867817819e-10,2.094602790e-13,7.780956476e-13
0.13281,1.143617776e-09,6.688252044e-10,3.098757569e-10,6.300908457e-11,1.162171546e-10,3.095204914e-10,1.584284467e-10,1.217742117e-10,1.813779858e-11,9.691449399e-11,2.401838180e-10,1.222798536e-10,1.964679180e-10,3.524797200e-11,3.102802540e-10,1.889507948e-11,4.239477801e-10,1.745862238e-10,2.635050379e-10,4.374267124e-10,1.596624060e-10,1.147604380e-10,2.961271547e-10,4.166491401e-10,6.299869469e-10,9.975193089e-11,3.606129526e-10,7.111960965e-10,1.884711017e-11,6.800224204e-10,1.680388742e-13,6.727790011e-13
0.14062,1.002791961e-09,5.875900355e-10,2.719339981e-10,5.587831632e-11,1.025061633e-10,2.754361120e-10,1.393461523e-10,1.081940711e-10,1.614128388e-11,8.453705588e-11,2.122396286e-10,1.085096045e-10,1.732099651e-10,3.044505013e-11,2.720039031e-10,1.655691475e-11,3.719153894e-10,1.535437794e-10,2.324631427e-10,3.826756140e-10,1.413006359e-10,1.016973815e-10,2.598753808e-10,3.675434322e-10,5.511859686e-10,8.684054056e-11,3.151896736e-10,6.288422382e-10,1.555281371e-11,5.959835775e-10,1.745663801e-13,6.656718983e-13
0.14844,8.873006436e-10,5.207871313e-10,2.407672260e-10,4.958160929e-11,9.132960244e-11,2.449602723e-10,1.232010343e-10,9.630130816e-11,1.434273992e-11,7.511637703e-11,1.879423321e-10,9.596439147e-11,1.539813363e-10,2.704272952e-11,2.412835852e-10,1.463324480e-11,3.303288585e-10,1.363503812e-10,2.064876037e-10,3.418967890e-10,1.254618935e-10,9.002196383e-11,2.308504997e-10,3.287972725e-10,4.895833411e-10,7.731804476e-11,2.794325584e-10,5.565868395e-10,1.427109141e-11,5.285616705e-10,1.681319596e-13,6.101299902e-13
0.15625,7.933344903e-10,4.660793422e-10,2.154143352e-10,4.415614576e-11,8.216416723e-11,2.186594068e-10,1.098855039e-10,8.618505965e-11,1.277455529e-11,6.783057861e-11,1.674179132e-10,8.500071779e-11,1.381757101e-10,2.450603918e-11,2.165062097e-10,1.305018232e-11,2.966312216e-10,1.222156495e-10,1.847811274e-10,3.098629640e-10,1.119001842e-10,7.988289612e-11,2.073908367e-10,2.972228399e-10,4.404535335e-10,6.997527228e-11,2.508427362e-10,4.941311012e-10,1.344247255e-11,4.740358558e-10,1.335003173e-13,5.235337767e-13
0.16406,7.134227444e-10,4.182997360e-10,1.942148190e-10,3.980665794e-11,7.389662307e-11,1.989226223e-10,9.927095716e-11,7.838747181e-11,1.164846401e-11,6.082893083e-11,1.513716429e-10,7.715242974e-11,1.251462037e-10,2.166007547e-11,1.936831541e-10,1.172623196e-11,2.659790345e-10,1.103916927e-10,1.669556144e-10,2.767144641e-10,1.014365160e-10,7.283033145e-11,1.869686365e-10,2.679371907e-10,3.951791681e-10,6.252466731e-11,2.247249958e-10,4.474560785e-10,1.134782885e-11,4.255895123e-10,1.350959240e-13,5.071170835e-13
0.17188,6.458881021e-10,3.777754520e-10,1.757481557e-10,3.593193186e-11,6.683669666e-11,1.808066615e-10,8.999013940e-11,7.139379811e-11,1.058604485e-11,5.520994000e-11,1.371974079e-10,6.996699098e-11,1.137913571e-10,1.951232198e-11,1.747228831e-10,1.060638506e-11,2.400687964e-10,1.000821574e-10,1.511764662e-10,2.492834945e-10,9.192570817e-11,6.631978557e-11,1.696174959e-10,2.423071606e-10,3.581390771e-10,5.663097916e-11,2.034510763e-10,4.052415043e-10,1.031673595e-11,3.849592940e-10,1.399512710e-13,4.744527882e-13
0.17969,5.906072205e-10,3.447215228e-10,1.600369227e-10,3.252445068e-11,6.109472989e-11,1.639030626e-10,8.180209045e-11,6.505662916e-11,9.523879678e-12,5.092784583e-11,1.243975978e-10,6.301411398e-11,1.039400640e-10,1.806945403e-11,1.596852780e-10,9.670515172e-12,2.191165913e-10,9.117533877e-11,1.372492117e-10,2.284840096e-10,8.308618155e-11,5.992837627e-11,1.552223552e-10,2.207249688e-10,3.293626682e-10,5.233415530e-11,1.870123617e-10,3.654211904e-10,1.001225474e-11,3.520135361e-10,1.146222666e-13,3.962927560e-13
0.1875,5.405922038e-10,3.142752729e-10,1.457441559e-10,2.980077389e-11,5.563440450e-11,1.505966180e-10,7.462566333e-11,5.988854933e-11,8.675608314e-12,4.620171077e-11,1.136430558e-10,5.769243160e-11,9.504021377e-11,1.618871439e-11,1.448111963e-10,8.847084456e-12,1.988118420e-10,8.311805563e-11,1.250192168e-10,2.054862967e-10,7.579230322e-11,5.511590108e-11,1.414512644e-10,1.990281221e-10,3.003001824e-10,4.742289270e-11,1.707514569e-10,3.336977586e-10,8.571776769e-12,3.203319059e-10,1.108406100e-13,3.651311167e-13
0.19531,4.972972500e-10,2.879569280e-10,1.330273583e-10,2.749976309e-11,5.091919892e-11,1.388180438e-10,6.816944886e-11,5.531019787e-11,7.911041353e-12,4.197333526e-11,1.041175907e-10,5.297686635e-11,8.712888333e-11,1.458589179e-11,1.320051901e-10,8.170724187e-12,1.814896531e-10,7.608618530e-11,1.143479849e-10,1.858328159e-10,6.941660006e-11,5.083714926e-11,1.293107810e-10,1.799271587e-10,2.753485134e-10,4.320399809e-11,1.569141386e-10,3.062039872e-10,7.566476537e-12,2.927770782e-10,1.185905674e-13,3.465328942e-13
0.20312,4.611585904e-10,2.663756018e-10,1.219656879e-10,2.538258499e-11,4.715864935e-11,1.271031049e-10,6.226517605e-11,5.091511259e-11,7.132031498e-12,3.883154260e-11,9.519982951e-11,4.808615755e-11,8.019593289e-11,1.364617369e-11,1.223010222e-10,7.661864063e-12,1.684289231e-10,7.017379106e-11,1.050874595e-10,1.727973508e-10,6.344403697e-11,4.632203879e-11,1.193639174e-10,1.650512540e-10,2.567556735e-10,4.033574936e-11,1.464091968e-10,2.795039440e-10,7.421907052e-12,2.705682423e-10,1.000798202e-13,2.887742397e-13
0.21094,4.268361175e-10,2.455021328e-10,1.118779139e-10,2.357167801e-11,4.344065185e-11,1.174515261e-10,5.710323840e-11,4.711992762e-11,6.522700141e-12,3.543784351e-11,8.760758094e-11,4.421093259e-11,7.381885092e-11,1.246213111e-11,1.126278963e-10,7.223945251e-12,1.557051063e-10,6.478063288e-11,9.689493969e-11,1.586702328e-10,5.840678679e-11,4.273845785e-11,1.096071490e-10,1.509345722e-10,2.367121567e-10,3.693415066e-11,1.350787270e-10,2.576470092e-10,6.515516814e-12,2.484784237e-10,9.192620216e-14,2.597935421e-13
0.21875,3.964039899e-10,2.268068435e-10,1.031684408e-10,2.200166766e-11,4.008024675e-11,1.094133956e-10,5.280448335e-11,4.385552276e-11,6.067602953e-12,3.234792072e-11,8.135071707e-11,4.115285803e-11,6.831301097e-11,1.137099650e-11,1.041143757e-10,6.878381816e-12,1.446358529e-10,6.018142244e-11,9.003561754e-11,1.460074576e-10,5.427666242e-11,3.991961617e-11,1.009711696e-10,1.389822127e-10,2.181170362e-10,3.374759167e-11,1.244960684e-10,2.402524643e-10,5.669576885e-12,2.287515440e-10,1.025801538e-13,2.547162181e-13
0.22656,3.707306076e-10,2.114085011e-10,9.557875607e-11,2.039629264e-11,3.740166806e-11,1.009590971e-10,4.903169525e-11,4.055108557e-11,5.624050399e-12,3.027689455e-11,7.563607385e-11,3.792420953e-11,6.356176715e-11,1.085553073e-11,9.803537382e-11,6.598229398e-12,1.363720975e-10,5.627183871e-11,8.409654392e-11,1.383733410e-10,5.036269765e-11,3.687606992e-11,9.419627934e-11,1.306475398e-10,2.044349578e-10,3.174637953e-11,1.164461349e-10,2.233015911e-10,5.668637314e-12,2.134125901e-10,9.350877164e-14,2.200278711e-13
0.23438,3.459469481e-10,1.964246154e-10,8.856761226e-11,1.887589217e-11,3.469179145e-11,9.351515096e-11,4.580024487e-11,3.750169984e-11,5.284464651e-12,2.821327338e-11,7.075688092e-11,3.525921338e-11,5.913122950e-11,1.020692818e-11,9.191284773e-11,6.300234319e-12,1.277383963e-10,5.252071402e-11,7.853890062e-11,1.295058296e-10,4.684383901e-11,3.431356388e-11,8.759010480e-11,1.223955008e-10,1.895977620e-10,2.947959962e-11,1.078239162e-10,2.085420297e-10,5.240799653e-12,1.983079492e-10,8.417657322e-14,1.962104069e-13
0.24219,3.235290960e-10,1.827738416e-10,8.243310385e-11,1.756932195e-11,3.213354715e-11,8.760892053e-11,4.323397308e-11,3.491458369e-11,5.051290746e-12,2.621917270e-11,6.694468205e-11,3.332139576e-11,5.519338120e-11,9.441206626e-12,8.596923114e-11,5.969001518e-12,1.190291111e-10,4.902283415e-11,7.358871071e-11,1.196644584e-10,4.393203778e-11,3.241087948e-11,8.149065445e-11,1.142556913e-10,1.745810643e-10,2.711550512e-11,9.930846705e-11,1.970468452e-10,4.668562638e-12,1.843305020e-10,9.437708802e-14,1.981799303e-13
0.25,3.044307574e-10,1.717225603e-10,7.689787955e-11,1.625189992e-11,3.010318282e-11,8.132913635e-11,4.084105470e-11,3.230241350e-11,4.775278466e-12,2.494547246e-11,6.345156465e-11,3.120390664e-11,5.174804942e-11,9.100311344e-12,8.172448591e-11,5.654044768e-12,1.120497060e-10,4.594624669e-11,6.901871954e-11,1.129733804e-10,4.104098633e-11,3.022248602e-11,7.667781388e-11,1.077181957e-10,1.634215399e-10,2.563954972e-11,9.301638895e-11,1.853468411e-10,4.789776248e-12,1.736624506e-10,8.901471038e-14,1.804964571e-13
0.25781,2.856803802e-10,1.611557061e-10,7.161596532e-11,1.501549000e-11,2.815134352e-11,7.548632415e-11,3.853234518e-11,2.984920256e-11,4.492576327e-12,2.365856523e-11,6.018327697e-11,2.923372601e-11,4.836037099e-11,8.670804073e-12,7.731872740e-11,5.277195863e-12,1.047849484e-10,4.287728062e-11,6.441730470e-11,1.056916609e-10,3.822076944e-11,2.807910548e-11,7.188183850e-11,1.005485932e-10,1.522060825e-10,2.406883758e-11,8.685308285e-11,1.738023643e-10,4.622282019e-12,1.630537254e-10,7.264225781e-14,1.652279545e-13
0.26562,2.673686744e-10,1.510123565e-10,6.687625047e-11,1.401586970e-11,2.623856680e-11,7.100867536e-11,3.647368852e-11,2.785590710e-11,4.257827045e-12,2.212833068e-11,5.743223770e-11,2.781044429e-11,4.516518327e-11,7.993907273e-12,7.238766169e-11,4.840591735e-12,9.701033429e-11,3.991327522e-11,6.007410666e-11,9.675698500e-11,3.581502548e-11,2.641874285e-11,6.700137264e-11,9.247144573e-11,1.400949451e-10,2.214835174e-11,8.048956286e-11,1.644270999e-10,4.066638226e-12,1.520913362e-10,7.179751236e-14,1.749998762e-13
0.27344,2.506860106e-10,1.424392793e-10,6.264938187e-11,1.306524925e-11,2.469435337e-11,6.644692673e-11,3.441677572e-11,2.601519567e-11,3.979820799e-12,2.100425368e-11,5.464040500e-11,2.626954780e-11,4.234663651e-11,7.601599483e-12,6.851012207e-11,4.450235086e-12,9.085864593e-11,3.742645465e-11,5.614410723e-11,9.035639943e-11,3.350938339e-11,2.460018810e-11,6.290826167e-11,8.557679950e-11,1.308448730e-10,2.077703233e-11,7.573416365e-11,1.549352051e-10,3.981334666e-12,1.429400664e-10,7.312579973e-14,1.760653463e-13
0.28125,2.344396634e-10,1.343802078e-10,5.880110103e-11,1.219267053e-11,2.329052680e-11,6.200475813e-11,3.232794125e-11,2.432279076e-11,3.685882890e-12,1.992549143e-11,5.159787339e-11,2.465715185e-11,3.966791512e-11,7.236842218e-12,6.473506299e-11,4.068324979e-12,8.535849816e-11,3.517744145e-11,5.245499284e-11,8.501800677e-11,3.128598519e-11,2.275539626e-11,5.905266966e-11,7.932370295e-11,1.226205053e-10,1.956479487e-11,7.153781654e-11,1.452524555e-10,3.857947700e-12,1.342007517e-10,6.998347593e-14,1.748367180e-13
0.28906,2.178749836e-10,1.260342479e-10,5.543841827e-11,1.149199403e-11,2.179410679e-11,5.855291330e-11,3.043838065e-11,2.299968461e-11,3.459996207e-12,1.853917600e-11,4.865953966e-11,2.344522713e-11,3.717370758e-11,6.658571466e-12,6.030984727e-11,3.696279085e-12,7.964135839e-11,3.312282796e-11,4.911298700e-11,7.864677666e-11,2.941176813e-11,2.138181770e-11,5.497724404e-11,7.288809153e-11,1.133560887e-10,1.801188175e-11,6.676518681e-11,1.370656123e-10,3.317228172e-12,1.246208818e-10,8.207819947e-14,1.943269337e-13
0.29688,2.032191109e-10,1.189229407e-10,5.268381510e-11,1.087626962e-11,2.054374513e-11,5.523652710e-11,2.870758657e-11,2.182222282e-11,3.260608585e-12,1.738799163e-11,4.562969911e-11,2.220346137e-11,3.508630775e-11,6.247754202e-12,5.653539126e-11,3.397088043e-12,7.525007940e-11,3.154548199e-11,4.639145353e-11,7.431044313e-11,2.783675562e-11,2.016826178e-11,5.168771174e-11,6.816167790e-11,1.063786310e-10,1.692080932e-11,6.311185595e-11,1.297778535e-10,3.102442750e-12,1.167616933e-10,9.511516869e-14,2.004979412e-13
0.30469,1.904688405e-10,1.127681576e-10,5.034331047e-11,1.029498098e-11,1.947692472e-11,5.182348545e-11,2.707563921e-11,2.067981638e-11,3.081803116e-12,1.646039338e-11,4.250905285e-11,2.084712327e-11,3.329489249e-11,5.990365054e-12,5.332685720e-11,3.150732899e-12,7.177095143e-11,3.025768450e-11,4.407215105e-11,7.150388934e-11,2.637655465e-11,1.901421111e-11,4.898211423e-11,6.481101319e-11,1.011256949e-10,1.620794943e-11,6.019763110e-11,1.224349021e-10,3.067220107e-12,1.103142805e-10,9.781887104e-14,1.869365978e-13
0.3125,1.784433026e-10,1.064371248e-10,4.826752194e-11,9.811993326e-12,1.830916810e-11,4.896235809e-11,2.557702999e-11,1.965495968e-11,2.962837611e-12,1.528544380e-11,3.947564524e-11,1.970945622e-11,3.160460803e-11,5.586560737e-12,4.967880772e-11,2.942375616e-12,6.785618010e-11,2.898060206e-11,4.194727288e-11,6.761049355e-11,2.516389360e-11,1.824536098e-11,4.617201603e-11,6.148568789e-11,9.511943273e-11,1.530352572e-11,5.669080041e-11,1.161355092e-10,2.778501985e-12,1.037596667e-10,1.065989143e-13,1.819525825e-13
0.32031,1.687130754e-10,1.011036918e-10,4.661938166e-11,9.408585356e-12,1.732444570e-11,4.639065172e-11,2.424341197e-11,1.869883841e-11,2.870959416e-12,1.425743196e-11,3.676025058e-11,1.867479388e-11,3.019263909e-11,5.277210522e-12,4.654228062e-11,2.778960196e-12,6.443515965e-11,2.785601037e-11,4.016637981e-11,6.438227666e-11,2.413659323e-11,1.765571603e-11,4.387237348e-11,5.906582217e-11,9.029543898e-11,1.466021381e-11,5.370398021e-11,1.106313993e-10,2.660411219e-12,9.848651401e-11,1.159758273e-13,1.726886379e-13
0.32812,1.615202291e-10,9.694315504e-11,4.527158627e-11,9.026912354e-12,1.657802280e-11,4.375592486e-11,2.297641067e-11,1.772133537e-11,2.765634972e-12,1.351564825e-11,3.426659475e-11,1.755086776e-11,2.899111547e-11,5.138168023e-12,4.421123510e-11,2.658532744e-12,6.171248992e-11,2.682731614e-11,3.858997199e-11,6.228816792e-11,2.311034521e-11,1.700678419e-11,4.213187813e-11,5.745124277e-11,8.708676021e-11,1.437629885e-11,5.153365293e-11,1.050342936e-10,2.757262012e-12,9.480403834e-11,1.088341966e-13,1.429000156e-13
0.33594,1.546906916e-10,9.244496646e-11,4.381680506e-11,8.673871320e-12,1.576448401e-11,4.139052262e-11,2.164984043e-11,1.674053529e-11,2.652003617e-12,1.261064287e-11,3.191335757e-11,1.651452330e-11,2.761135299e-11,4.853661349e-12,4.154500696e-11,2.522460761e-12,5.822109449e-11,2.547143080e-11,3.680626638e-11,5.890779572e-11,2.206515532e-11,1.641930764e-11,4.012739956e-11,5.525429472e-11,8.299758360e-11,1.385414414e-11,4.890409780e-11,9.991657612e-11,2.644961503e-12,9.086928794e-11,9.508787461e-14,1.150662623e-13
0.34375,1.490386109e-10,8.841768334e-11,4.261129492e-11,8.382953311e-12,1.506027878e-11,3.949673882e-11,2.046135676e-11,1.588043575e-11,2.538840881e-12,1.177318132e-11,2.994623445e-11,1.565211400e-11,2.630019593e-11,4.549875603e-12,3.911164445e-11,2.401307491e-12,5.483575538e-11,2.408737868e-11,3.511369054e-11,5.536525685e-11,2.109725388e-11,1.589927294e-11,3.828169545e-11,5.297039377e-11,7.912550365e-11,1.333370952e-11,4.647636881e-11,9.567127354e-11,2.553708349e-12,8.738309933e-11,8.850670807e-14,9.746459965e-14
0.35156,1.449892368e-10,8.538183038e-11,4.163320077e-11,8.109271921e-12,1.459286988e-11,3.770630774e-11,1.937315112e-11,1.507760426e-11,2.401153923e-12,1.121804334e-11,2.818054621e-11,1.476913850e-11,2.512420926e-11,4.363122286e-12,3.736890336e-11,2.311044791e-12,5.228946258e-11,2.284040024e-11,3.360659643e-11,5.302599580e-11,2.015973279e-11,1.525445487e-11,3.694946821e-11,5.131064768e-11,7.668080942e-11,1.309536433e-11,4.496674872e-11,9.203553412e-11,2.676005025e-12,8.521772340e-11,7.748994676e-14,7.647318830e-14
0.35938,1.400914222e-10,8.188327543e-11,4.031850817e-11,7.804481586e-12,1.405539832e-11,3.597825098e-11,1.826824060e-11,1.426987769e-11,2.252385941e-12,1.061105809e-11,2.647037014e-11,1.391802634e-11,2.375691480e-11,4.074152352e-12,3.538485960e-11,2.211901164e-12,4.950323036e-11,2.144858643e-11,3.191401889e-11,5.018751735e-11,1.920293658e-11,1.454418047e-11,3.542787680e-11,4.923355821e-11,7.367842707e-11,1.265626577e-11,4.328887288e-11,8.882702010e-11,2.652162781e-12,8.267805663e-11,6.029206026e-14,5.902812581e-14
0.36719,1.349829230e-10,7.842939476e-11,3.897377608e-11,7.531097055e-12,1.354748350e-11,3.461675881e-11,1.731441214e-11,1.358084634e-11,2.127546150e-12,1.001378834e-11,2.501792610e-11,1.325500775e-11,2.241921808e-11,3.721928456e-12,3.339854223e-11,2.122196112e-12,4.690165877e-11,2.013726457e-11,3.031326919e-11,4.722449893e-11,1.836679597e-11,1.392059913e-11,3.394180887e-11,4.714273950e-11,7.051997523e-11,1.211161241e-11,4.166611384e-11,8.663339503e-11,2.557337654e-12,8.010624283e-11,4.967750789e-14,5.148001152e-14
0.375,1.306680079e-10,7.579782273e-11,3.773472741e-11,7.278439067e-12,1.321741686e-11,3.336873521e-11,1.658783782e-11,1.298638511e-11,2.022410507e-12,9.693590089e-12,2.393586634e-11,1.268522982e-11,2.132260929e-11,3.498743744e-12,3.207158147e-11,2.073185982e-12,4.531772031e-11,1.915527431e-11,2.903127936e-11,4.559156267e-11,1.768839921e-11,1.328440236e-11,3.292467363e-11,4.596246741e-11,6.860577588e-11,1.179909858e-11,4.084470675e-11,8.521129632e-11,2.643066263e-12,7.853398048e-11,4.255916675e-14,4.547874407e-14
0.38281,1.252905363e-10,7.277045664e-11,3.603393395e-11,6.971935439e-12,1.281218951e-11,3.189916480e-11,1.584466677e-11,1.234527845e-11,1.925746378e-12,9.375068235e-12,2.292239756e-11,1.212300333e-11,2.021416723e-11,3.298735975e-12,3.073462164e-11,2.025009612e-12,4.379133823e-11,1.822321665e-11,2.770690589e-11,4.405222731e-11,1.697290756e-11,1.259489779e-11,3.175995448e-11,4.482263845e-11,6.631099624e-11,1.139847761e-11,3.986948812e-11,8.341718608e-11,2.642131554e-12,7.640790060e-11,3.163683394e-14,4.016762569e-14
0.39062,1.193237090e-10,6.948686902e-11,3.414775811e-11,6.673096240e-12,1.233812368e-11,3.058540621e-11,1.519566639e-11,1.176365596e-11,1.858509164e-12,9.031994834e-12,2.216342830e-11,1.171497966e-11,1.919948056e-11,3.090486898e-12,2.936641367e-11,1.983990178e-12,4.226202864e-11,1.739405574e-11,2.648453305e-11,4.235940696e-11,1.633877508e-11,1.201092692e-11,3.044883454e-11,4.370153553e-11,6.342241716e-11,1.084355066e-11,3.862249455e-11,8.166018870e-11,2.495323551e-12,7.360982089e-11,2.285336898e-14,4.009998525e-14
0.39844,1.141970420e-10,6.681416460e-11,3.246902119e-11,6.421437952e-12,1.195490080e-11,2.943572074e-11,1.475888935e-11,1.129285043e-11,1.811166255e-12,8.875322541e-12,2.177216166e-11,1.142434339e-11,1.849159268e-11,3.010979525e-12,2.856313602e-11,1.979239460e-12,4.139234712e-11,1.683226900e-11,2.558937066e-11,4.151284097e-11,1.580175870e-11,1.149727921e-11,2.938005108e-11,4.322303286e-11,6.118515039e-11,1.042397263e-11,3.776827486e-11,7.992898311e-11,2.437384535e-12,7.117589233e-11,1.826674004e-14,4.040592462e-14
0.40625,1.090340568e-10,6.403808723e-11,3.071556846e-11,6.141189632e-12,1.150826974e-11,2.814598773e-11,1.430569955e-11,1.080519108e-11,1.754799413e-12,8.739694653e-12,2.137917681e-11,1.108769150e-11,1.785985981e-11,2.987757286e-12,2.787112161e-11,1.976951328e-12,4.049236433e-11,1.631536454e-11,2.472969157e-11,4.079136611e-11,1.520900619e-11,1.095966282e-11,2.823272962e-11,4.274319519e-11,5.884088618e-11,1.001190658e-11,3.678251500e-11,7.737962411e-11,2.384256009e-12,6.842879367e-11,1.336106434e-14,3.899338562e-14
0.41406,1.035675626e-10,6.092752285e-11,2.900060371e-11,5.864843072e-12,1.093059754e-11,2.700108545e-11,1.390489696e-11,1.036221482e-11,1.694337025e-12,8.530693233e-12,2.102963916e-11,1.079080427e-11,1.722964034e-11,2.941163626e-12,2.704045472e-11,1.969044076e-12,3.919318476e-11,1.574908509e-11,2.382282751e-11,3.943961346e-11,1.455076448e-11,1.046082819e-11,2.679414959e-11,4.176811033e-11,5.569249609e-11,9.417857034e-12,3.523926195e-11,7.415905542e-11,2.189967243e-12,6.493438887e-11,9.268741597e-15,4.232512252e-14
0.42188,9.916856861e-11,5.840338963e-11,2.776734665e-11,5.659457257e-12,1.041417889e-11,2.624329404e-11,1.368277987e-11,1.005706551e-11,1.634912155e-12,8.389399458e-12,2.079873628e-11,1.055623144e-11,1.676286694e-11,2.921762861e-12,2.643981227e-11,1.959659734e-12,3.805316677e-11,1.527875864e-11,2.310006413e-11,3.816726458e-11,1.394349153e-11,1.005894598e-11,2.552249054e-11,4.083018403e-11,5.298086222e-11,8.883838443e-12,3.378711690e-11,7.106359857e-11,2.020485294e-12,6.187300875e-11,8.226229215e-15,4.909113963e-14
0.42969,9.523980747e-11,5.616320427e-11,2.672391030e-11,5.461252842e-12,9.931367482e-12,2.551861472e-11,1.346920100e-11,9.771005103e-12,1.554909711e-12,8.258813620e-12,2.043483452e-11,1.023635401e-11,1.627527456e-11,2.906897132e-12,2.587526817e-11,1.927507932e-12,3.684420351e-11,1.477501498e-11,2.233778952e-11,3.686356914e-11,1.326983565e-11,9.616977032e-12,2.433650861e-11,3.969670978e-11,5.062635023e-11,8.427688777e-12,3.232972866e-11,6.764778923e-11,1.927020430e-12,5.921297706e-11,7.962755190e-15,5.691552552e-14
0.4375,9.089288826e-11,5.365460417e-11,2.565570159e-11,5.249419562e-12,9.380719945e-12,2.479481876e-11,1.316865363e-11,9.458440258e-12,1.453807412e-12,7.987068204e-12,1.977828653e-11,9.828216177e-12,1.559972001e-11,2.808960571e-12,2.491302972e-11,1.847657665e-12,3.507940154e-11,1.409169244e-11,2.131132261e-11,3.473623006e-11,1.243134406e-11,9.113176243e-12,2.293721833e-11,3.774117854e-11,4.779092985e-11,7.863298284e-12,3.032734260e-11,6.358320421e-11,1.771232374e-12,5.622537411e-11,7.914798289e-15,6.875713148e-14
0.44531,8.713537357e-11,5.159728189e-11,2.483833413e-11,5.099517492e-12,8.940262235e-12,2.437401403e-11,1.291439773e-11,9.236879493e-12,1.357790213e-12,7.675246582e-12,1.904374490e-11,9.455225988e-12,1.493560376e-11,2.655353259e-12,2.382373854e-11,1.717920140e-12,3.324616615e-11,1.339954523e-11,2.031182665e-11,3.240189485e-11,1.162711419e-11,8.673786853e-12,2.170878339e-11,3.550674084e-11,4.538637454e-11,7.351804439e-12,2.836464918e-11,5.992364885e-11,1.601968882e-12,5.367261015e-11,9.824438335e-15,8.299064924e-14
0.45312,8.396395152e-11,4.996299561e-11,2.408076124e-11,4.967506230e-12,8.633668676e-12,2.391597086e-11,1.257909730e-11,9.014930510e-12,1.261441142e-12,7.359649592e-12,1.815469760e-11,9.041292522e-12,1.429547839e-11,2.500668961e-12,2.273555461e-11,1.562928872e-12,3.160152137e-11,1.275060621e-11,1.935537294e-11,3.035123433e-11,1.086355382e-11,8.238072047e-12,2.074859423e-11,3.326239140e-11,4.376095728e-11,7.006845848e-12,2.671600830e-11,5.662027887e-11,1.522508041e-12,5.171839835e-11,1.163718181e-14,9.282050548e-14
0.46094,8.029460336e-11,4.798887178e-11,2.304377845e-11,4.794925491e-12,8.321470064e-12,2.315750836e-11,1.198875186e-11,8.689292140e-12,1.157455111e-12,6.930503057e-12,1.693283091e-11,8.509453589e-12,1.352007786e-11,2.309950857e-12,2.128706708e-11,1.375293580e-12,2.972261980e-11,1.201081330e-11,1.822311416e-11,2.818288771e-11,1.004040291e-11,7.731446106e-12,1.974502520e-11,3.056219141e-11,4.212513421e-11,6.690916064e-12,2.497681597e-11,5.289031100e-11,1.449024626e-12,4.941851827e-11,1.236963068e-14,9.755146330e-14
0.46875,7.714720775e-11,4.626562790e-11,2.213478778e-11,4.667873712e-12,8.087722801e-12,2.256088327e-11,1.138885998e-11,8.415209726e-12,1.077431424e-12,6.485431225e-12,1.578619918e-11,8.064210720e-12,1.286322931e-11,2.112482614e-12,1.984828127e-11,1.202989452e-12,2.807475006e-11,1.140228211e-11,1.726004243e-11,2.626686349e-11,9.410518335e-12,7.344826181e-12,1.895943268e-11,2.792681100e-11,4.095081684e-11,6.456142562e-12,2.353012443e-11,4.977071919e-11,1.347271086e-12,4.722932077e-11,1.380670474e-14,9.967685406e-14
0.47656,7.486261422e-11,4.498080281e-11,2.141232791e-11,4.568982179e-12,7.948806292e-12,2.204320119e-11,1.083006813e-11,8.195708699e-12,1.024676434e-12,6.136600433e-12,1.487258349e-11,7.727460231e-12,1.245419898e-11,1.987721336e-12,1.876664252e-11,1.093658070e-12,2.701149014e-11,1.103858814e-11,1.660615194e-11,2.511323052e-11,9.043456933e-12,7.093280300e-12,1.854657577e-11,2.585493990e-11,4.062597435e-11,6.387027790e-12,2.268015178e-11,4.755868065e-11,1.306684077e-12,4.552811752e-11,1.559249586e-14,9.509263018e-14
0.48438,7.239099542e-11,4.343018183e-11,2.057252068e-11,4.430049792e-12,7.753622989e-12,2.123223360e-11,1.018964979e-11,7.893400091e-12,9.761613867e-13,5.823614590e-12,1.399682982e-11,7.344215049e-12,1.206000652e-11,1.916893055e-12,1.778776189e-11,1.033691705e-12,2.601151146e-11,1.068877518e-11,1.594146127e-11,2.430769544e-11,8.744346901e-12,6.818450303e-12,1.813671504e-11,2.402534503e-11,4.029461676e-11,6.358791418e-12,2.202314111e-11,4.510341817e-11,1.308497249e-12,4.358419288e-11,1.517990763e-14,8.232884085e-14
0.49219,7.014783274e-11,4.192288023e-11,1.990464187e-11,4.315274812e-12,7.531544151e-12,2.057734128e-11,9.690933798e-12,7.653670988e-12,9.509144129e-13,5.577017924e-12,1.344801324e-11,7.081812625e-12,1.180401959e-11,1.884120635e-12,1.705940816e-11,1.030879753e-12,2.515102301e-11,1.042761249e-11,1.541666151e-11,2.368473126e-11,8.598971650e-12,6.642900551e-12,1.778465059e-11,2.254998412e-11,3.989374347e-11,6.300444233e-12,2.153280504e-11,4.297905472e-11,1.254961369e-12,4.157896982e-11,1.348722620e-14,6.924083708e-14
0.5,6.852375714e-11,4.081262741e-11,1.952392850e-11,4.246069428e-12,7.344577405e-12,2.020392724e-11,9.455082697e-12,7.531798133e-12,9.514067135e-13,5.466837680e-12,1.335383748e-11,6.998415148e-12,1.175147985e-11,1.917387390e-12,1.678932639e-11,1.087161851e-12,2.464055263e-11,1.031538435e-11,1.513382112e-11,2.344101564e-11,8.642075045e-12,6.592923773e-12,1.764616547e-11,2.175254522e-11,3.984717921e-11,6.271002063e-12,2.140876506e-11,4.175706279e-11,1.206940405e-12,4.006287890e-11,1.317487444e-14,5.947124195e-14
0.50781,6.644333768e-11,3.942337995e-11,1.899152750e-11,4.123871288e-12,7.094694794e-12,1.956126065e-11,9.259305692e-12,7.342954577e-12,9.407822335e-13,5.400302314e-12,1.329979933e-11,6.847677503e-12,1.159404807e-11,1.976876897e-12,1.659874408e-11,1.141971171e-12,2.394293285e-11,1.007008021e-11,1.469293231e-11,2.313655471e-11,8.534871784e-12,6.430482257e-12,1.732702614e-11,2.113190046e-11,3.937592783e-11,6.194194789e-12,2.116360336e-11,4.000786993e-11,1.204794991e-12,3.848401032e-11,1.193585185e-14,5.050175951e-14
0.51562,6.407430363e-11,3.788756950e-11,1.842351516e-11,3.989885205e-12,6.802619836e-12,1.890829232e-11,9.159624597e-12,7.160846774e-12,9.304964819e-13,5.330865994e-12,1.335367739e-11,6.713009084e-12,1.134600858e-11,2.012760130e-12,1.639622036e-11,1.179244903e-12,2.301891023e-11,9.714554219e-12,1.415107301e-11,2.251733698e-11,8.333512136e-12,6.228623538e-12,1.683801224e-11,2.050653537e-11,3.843571541e-11,6.015409183e-12,2.072881010e-11,3.803423092e-11,1.158428051e-12,3.687226783e-11,9.329748306e-15,4.613221516e-14
0.52344,6.201628091e-11,3.664819197e-11,1.802354023e-11,3.904517224e-12,6.560862919e-12,1.852324551e-11,9.211878755e-12,7.073090008e-12,9.321970705e-13,5.273003438e-12,1.356295231e-11,6.685502093e-12,1.111582510e-11,2.012743458e-12,1.623919022e-11,1.188323335e-12,2.212190587e-11,9.381236625e-12,1.371168277e-11,2.175352023e-11,8.156160953e-12,6.098249827e-12,1.637358465e-11,2.003193075e-11,3.744788189e-11,5.794591084e-12,2.027625851e-11,3.661169507e-11,1.063150672e-12,3.558704407e-11,7.851848542e-15,4.773341260e-14
0.53125,5.973618171e-11,3.527132329e-11,1.744336402e-11,3.772302576e-12,6.308668935e-12,1.787514837e-11,9.155979422e-12,6.897316651e-12,9.142603933e-13,5.185272238e-12,1.355089643e-11,6.533878923e-12,1.070785029e-11,1.987855958e-12,1.594224958e-11,1.147596596e-12,2.111831420e-11,8.941375259e-12,1.313517286e-11,2.089954844e-11,7.801154488e-12,5.848064214e-12,1.575581518e-11,1.939947075e-11,3.626224934e-11,5.565764865e-12,1.962873221e-11,3.480829715e-11,1.023861658e-12,3.436902787e-11,7.660372970e-15,4.933677779e-14
0.53906,5.726670855e-11,3.375542382e-11,1.671100528e-11,3.604241021e-12,6.025666747e-12,1.701170812e-11,8.958174964e-12,6.648536334e-12,8.801092393e-13,5.030746681e-12,1.328237154e-11,6.272309282e-12,1.012324119e-11,1.910426043e-12,1.542163191e-11,1.058879525e-12,1.997493102e-11,8.406627531e-12,1.244268293e-11,1.986720297e-11,7.305264572e-12,5.504669812e-12,1.495201871e-11,1.848711695e-11,3.479737929e-11,5.297605257e-12,1.874752207e-11,3.272798952e-11,9.881910522e-13,3.312325508e-11,7.214463640e-15,5.191552579e-14
0.54688,5.534863300e-11,3.259811089e-11,1.617566581e-11,3.485047481e-12,5.780743914e-12,1.641297847e-11,8.770855292e-12,6.483685863e-12,8.598408105e-13,4.857085897e-12,1.304459032e-11,6.101298764e-12,9.584792578e-12,1.780805368e-12,1.486766882e-11,9.498216941e-13,1.897811160e-11,7.961629985e-12,1.190736484e-11,1.876207228e-11,6.879394944e-12,5.262618443e-12,1.418467510e-11,1.745164403e-11,3.329868557e-11,5.002485296e-12,1.781600102e-11,3.130899978e-11,8.882753873e-13,3.209505286e-11,8.362340331e-15,5.870931685e-14
0.55469,5.368104898e-11,3.157564158e-11,1.567654024e-11,3.355492008e-12,5.546076940e-12,1.573307679e-11,8.489664018e-12,6.288961437e-12,8.348107099e-13,4.697205070e-12,1.266254328e-11,5.890279255e-12,9.064529321e-12,1.663923615e-12,1.436074341e-11,8.462791727e-13,1.818436776e-11,7.581937445e-12,1.142812607e-11,1.788847996e-11,6.448752622e-12,5.011712484e-12,1.342966823e-11,1.638848650e-11,3.188940338e-11,4.745628906e-12,1.687843549e-11,3.007175650e-11,8.317863180e-13,3.117471708e-11,1.121234312e-14,6.225647602e-14
0.5625,5.193962036e-11,3.053016394e-11,1.508631835e-11,3.187315215e-12,5.282539241e-12,1.481173681e-11,8.055892763e-12,6.013388926e-12,7.966989639e-13,4.534889005e-12,1.206576740e-11,5.578180313e-12,8.507065605e-12,1.560269070e-12,1.383304967e-11,7.466336431e-13,1.743003374e-11,7.196576102e-12,1.091365108e-11,1.718253776e-11,5.991765108e-12,4.700109920e-12,1.263639255e-11,1.530663402e-11,3.045789057e-11,4.515103620e-12,1.593455648e-11,2.882987268e-11,8.236290528e-13,3.029846601e-11,1.412311832e-14,6.128107367e-14
0.57031,5.075341225e-11,2.986268111e-11,1.472955725e-11,3.074479607e-12,5.055195850e-12,1.417140100e-11,7.689011376e-12,5.830821562e-12,7.791809610e-13,4.388294561e-12,1.162720077e-11,5.394978032e-12,8.107867249e-12,1.457541876e-12,1.342447253e-11,6.758827548e-13,1.684086719e-11,6.940800869e-12,1.059365465e-11,1.653890541e-11,5.712904813e-12,4.529735392e-12,1.199839716e-11,1.439731885e-11,2.909763629e-11,4.290265892e-12,1.515178653e-11,2.851234672e-11,7.753672291e-13,2.972857664e-11,1.923221529e-14,6.389842267e-14
0.57812,4.990791423e-11,2.944287028e-11,1.451026448e-11,2.987845532e-12,4.879094039e-12,1.366966110e-11,7.384816688e-12,5.677953737e-12,7.691109813e-13,4.283773166e-12,1.128670523e-11,5.265924567e-12,7.832344105e-12,1.387156494e-12,1.316037713e-11,6.306754611e-13,1.640662561e-11,6.767120759e-12,1.038103482e-11,1.613029620e-11,5.564422271e-12,4.419915590e-12,1.153888580e-11,1.380441186e-11,2.796915442e-11,4.128913526e-12,1.461514153e-11,2.868003778e-11,7.690481450e-13,2.942747052e-11,2.591578367e-14,6.586118736e-14
0.58594,4.885105684e-11,2.893140268e-11,1.416053261e-11,2.870094074e-12,4.715472624e-12,1.296274845e-11,7.020511741e-12,5.435294076e-12,7.436652250e-13,4.195923379e-12,1.085808260e-11,5.051213748e-12,7.544187766e-12,1.357323711e-12,1.290748093e-11,5.986363792e-13,1.592115971e-11,6.549849679e-12,1.009181909e-11,1.588781658e-11,5.447739811e-12,4.249412867e-12,1.116721459e-11,1.344654575e-11,2.701173779e-11,4.040467042e-12,1.429698259e-11,2.871072619e-11,8.354519194e-13,2.920526364e-11,2.915566398e-14,6.081200111e-14
0.59375,4.809552417e-11,2.859536056e-11,1.392590214e-11,2.803854459e-12,4.599219900e-12,1.249783925e-11,6.737199618e-12,5.242286644e-12,7.264982134e-13,4.080393107e-12,1.053665017e-11,4.906888668e-12,7.320031238e-12,1.302795289e-12,1.258352695e-11,5.675874278e-13,1.536436506e-11,6.345544908e-12,9.877248579e-12,1.553010446e-11,5.502717735e-12,4.176292569e-12,1.097107698e-11,1.334580803e-11,2.616756639e-11,3.967731688e-12,1.420683942e-11,2.931074078e-11,8.586895526e-13,2.919063396e-11,2.985803105e-14,5.770271269e-14
0.60156,4.765478848e-11,2.840569835e-11,1.382539025e-11,2.790389856e-12,4.544639188e-12,1.230416130e-11,6.572077562e-12,5.112570088e-12,7.136221681e-13,3.967563986e-12,1.033022058e-11,4.827406552e-12,7.147647287e-12,1.240705035e-12,1.223393934e-11,5.366952490e-13,1.482940603e-11,6.152361736e-12,9.719377233e-12,1.516277081e-11,5.649387165e-12,4.160822841e-12,1.092299972e-11,1.347226166e-11,2.552767326e-11,3.919568310e-12,1.431594727e-11,3.016751678e-11,8.868869477e-13,2.929566214e-11,3.180265387e-14,5.831525810e-14
0.60938,4.673545550e-11,2.788569888e-11,1.350297953e-11,2.729368510e-12,4.479227527e-12,1.188934575e-11,6.323650884e-12,4.890779424e-12,6.761156789e-13,3.851499998e-12,9.937460780e-12,4.617720364e-12,6.882903888e-12,1.201062887e-12,1.178092217e-11,4.950330664e-13,1.421891702e-11,5.869880961e-12,9.420173102e-12,1.488179396e-11,5.696969974e-12,4.034808734e-12,1.085565621e-11,1.363386404e-11,2.498672806e-11,3.902550604e-12,1.446725598e-11,3.022848662e-11,9.805878349e-13,2.914963168e-11,3.221610354e-14,5.441893543e-14
0.61719,4.575372809e-11,2.725372187e-11,1.315736518e-11,2.690216257e-12,4.404748096e-12,1.158367321e-11,6.093072723e-12,4.699539184e-12,6.340004677e-13,3.698251286e-12,9.505128555e-12,4.409444387e-12,6.599612041e-12,1.136899659e-12,1.120190338e-11,4.450901671e-13,1.356522852e-11,5.567992497e-12,9.107588889e-12,1.441536466e-11,5.743267172e-12,3.930873568e-12,1.076705545e-11,1.370645440e-11,2.434158605e-11,3.832529651e-12,1.451071346e-11,3.013607707e-11,9.879316102e-13,2.877000850e-11,2.754438942e-14,5.269689032e-14
0.625,4.488096329e-11,2.662059553e-11,1.290209325e-11,2.687170309e-12,4.326163149e-12,1.151372636e-11,5.944939050e-12,4.598032016e-12,6.017768824e-13,3.530571580e-12,9.167381810e-12,4.287145526e-12,6.385034700e-12,1.059096281e-12,1.063005140e-11,4.017784230e-13,1.303294510e-11,5.324467218e-12,8.881035861e-12,1.384262164e-11,5.798674953e-12,3.900787005e-12,1.066930607e-11,1.367617357e-11,2.362027600e-11,3.688698066e-12,1.439461363e-11,2.999415828e-11,9.091888031e-13,2.811295288e-11,2.231995538e-14,5.748123986e-14
0.63281,4.334864516e-11,2.567066569e-11,1.242661636e-11,2.618443588e-12,4.196402041e-12,1.115722181e-11,5.708962028e-12,4.427966375e-12,5.576390767e-13,3.387329398e-12,8.713087358e-12,4.078953845e-12,6.153466363e-12,1.027329480e-12,1.015740860e-11,3.775921255e-13,1.266485945e-11,5.110276813e-12,8.595212581e-12,1.346718846e-11,5.704777273e-12,3.777864346e-12,1.047617515e-11,1.349168946e-11,2.288959790e-11,3.543518377e-12,1.409609408e-11,2.886394868e-11,8.918466741e-13,2.704716608e-11,1.993383307e-14,5.917554187e-14
0.64062,4.155729724e-11,2.457466460e-11,1.180134846e-11,2.514619992e-12,4.019874339e-12,1.066794021e-11,5.414796624e-12,4.239334684e-12,5.141074304e-13,3.233728067e-12,8.243090229e-12,3.865831175e-12,5.961963855e-12,1.009411411e-12,9.771711848e-12,3.752377318e-13,1.242193317e-11,4.960698287e-12,8.336538676e-12,1.310233073e-11,5.588407473e-12,3.661551004e-12,1.023920762e-11,1.314280257e-11,2.208111032e-11,3.367844118e-12,1.359794398e-11,2.729342532e-11,8.496095360e-13,2.570612569e-11,1.912972096e-14,5.991137018e-14
0.64844,3.991764403e-11,2.358477818e-11,1.120551466e-11,2.425404957e-12,3.831108169e-12,1.033661830e-11,5.163347488e-12,4.115005654e-12,4.910269272e-13,3.053563322e-12,7.926105789e-12,3.764409339e-12,5.878938995e-12,9.764009801e-13,9.464758071e-12,3.872796296e-13,1.227596446e-11,4.909896368e-12,8.202229900e-12,1.263011298e-11,5.550193560e-12,3.652975780e-12,1.003476876e-11,1.268080392e-11,2.120872196e-11,3.147283928e-12,1.296124827e-11,2.591171565e-11,7.222693267e-13,2.426055106e-11,1.882132461e-14,6.574491459e-14
0.65625,3.799219947e-11,2.253505124e-11,1.045577430e-11,2.278636816e-12,3.635251645e-12,9.789350286e-12,4.850541788e-12,3.923097455e-12,4.672567313e-13,2.900103549e-12,7.575521277e-12,3.620162746e-12,5.806408982e-12,9.744851400e-13,9.263648578e-12,4.108121741e-13,1.219904147e-11,4.878122841e-12,8.037276396e-12,1.235682489e-11,5.453903486e-12,3.582585943e-12,9.849841653e-12,1.219378817e-11,2.050221472e-11,2.984481804e-12,1.233782890e-11,2.419354762e-11,6.594842726e-13,2.279310711e-11,1.871601151e-14,6.677546083e-14
0.66406,3.598928633e-11,2.147732593e-11,9.551372515e-12,2.086899163e-12,3.444249407e-12,9.054406667e-12,4.461859476e-12,3.666502585e-12,4.416067855e-13,2.747153870e-12,7.165389861e-12,3.426866619e-12,5.710099949e-12,9.695804301e-13,9.036209247e-12,4.247206696e-13,1.203061763e-11,4.818949433e-12,7.817531460e-12,1.210221095e-11,5.316429726e-12,3.469953826e-12,9.682277169e-12,1.168951199e-11,1.990298384e-11,2.880788989e-12,1.177236344e-11,2.231647000e-11,6.426665852e-13,2.144754263e-11,2.010341269e-14,5.925135675e-14
0.67188,3.444032373e-11,2.064942555e-11,8.771614298e-12,1.933526546e-12,3.293804717e-12,8.580578625e-12,4.148673971e-12,3.473227795e-12,4.313207808e-13,2.566738532e-12,6.840421386e-12,3.312176547e-12,5.634572575e-12,9.068494188e-13,8.683557262e-12,4.196446579e-13,1.171923328e-11,4.762249272e-12,7.649959738e-12,1.162683758e-11,5.253257769e-12,3.444887458e-12,9.551409662e-12,1.118230485e-11,1.928999709e-11,2.786323338e-12,1.125936296e-11,2.106352816e-11,5.737820704e-13,2.034142915e-11,2.506975817e-14,5.347169954e-14
0.67969,3.306236967e-11,1.997565477e-11,8.114794848e-12,1.805706624e-12,3.196669070e-12,8.191922426e-12,3.888454196e-12,3.290997893e-12,4.199018084e-13,2.426668615e-12,6.509468780e-12,3.185564240e-12,5.518436001e-12,8.497657888e-13,8.298463298e-12,4.028236449e-13,1.133682560e-11,4.668268468e-12,7.432877355e-12,1.124163796e-11,5.128779795e-12,3.374325217e-12,9.420261344e-12,1.077571553e-11,1.881838288e-11,2.763218263e-12,1.089775568e-11,2.008459344e-11,5.580366640e-13,1.951264587e-11,3.027193599e-14,4.829714504e-14
0.6875,3.179929296e-11,1.938449296e-11,7.540341414e-12,1.694428025e-12,3.137679028e-12,7.789810608e-12,3.645205411e-12,3.096840869e-12,4.006063683e-13,2.333130394e-12,6.092876082e-12,3.002163881e-12,5.334734314e-12,8.149116578e-13,7.889137127e-12,3.795356184e-13,1.091968883e-11,4.537323704e-12,7.144860247e-12,1.097241339e-11,4.905999392e-12,3.228369134e-12,9.236109896e-12,1.042871990e-11,1.845010740e-11,2.802578410e-12,1.065257526e-11,1.919368577e-11,5.934598438e-13,1.894601155e-11,3.107721711e-14,3.749025532e-14
0.69531,3.095336823e-11,1.898585112e-11,7.245069326e-12,1.667247308e-12,3.121486020e-12,7.734592012e-12,3.533760593e-12,3.006215571e-12,3.922997785e-13,2.249175433e-12,5.782629649e-12,2.907671122e-12,5.162586697e-12,7.601340990e-13,7.447651601e-12,3.638416015e-13,1.051227739e-11,4.440287461e-12,6.924339244e-12,1.055808266e-11,4.731076894e-12,3.159296164e-12,8.988921048e-12,1.010429043e-11,1.793187545e-11,2.806687403e-12,1.040473688e-11,1.892869669e-11,5.603146499e-13,1.855565872e-11,3.078697171e-14,2.783571697e-14
0.70312,3.024895547e-11,1.870456892e-11,7.167153114e-12,1.690990515e-12,3.129609885e-12,7.841163682e-12,3.520318251e-12,2.980916474e-12,3.908505497e-13,2.222731496e-12,5.583679911e-12,2.874093272e-12,5.033948120e-12,7.440584855e-13,7.162675850e-12,3.800296151e-13,1.033514100e-11,4.432396846e-12,6.791784972e-12,1.032709448e-11,4.585812869e-12,3.112314632e-12,8.711162560e-12,9.861620075e-12,1.745053497e-11,2.812058221e-12,1.020524451e-11,1.893810766e-11,5.419753087e-13,1.828321758e-11,3.339841486e-14,2.288254487e-14
0.71094,2.942810978e-11,1.838140361e-11,7.134752521e-12,1.721199635e-12,3.141236083e-12,7.852188091e-12,3.508587221e-12,2.947031114e-12,3.841780138e-13,2.253440470e-12,5.368307134e-12,2.805998941e-12,4.907662658e-12,7.805793517e-13,7.052344255e-12,4.281805360e-13,1.041178961e-11,4.483097330e-12,6.686209488e-12,1.038164521e-11,4.411821973e-12,3.009244775e-12,8.399501354e-12,9.680900985e-12,1.709901913e-11,2.846392992e-12,1.005735050e-11,1.874406966e-11,5.844361096e-13,1.808017825e-11,3.298627306e-14,1.940119796e-14
0.71875,2.862991025e-11,1.799327813e-11,7.177072200e-12,1.776271772e-12,3.133316070e-12,8.000271152e-12,3.542695443e-12,2.966205347e-12,3.897446295e-13,2.272376525e-12,5.263090595e-12,2.813737571e-12,4.846772595e-12,8.115882940e-13,7.014600661e-12,5.000398274e-13,1.062712866e-11,4.608742925e-12,6.693918495e-12,1.037271763e-11,4.344467449e-12,2.983854066e-12,8.075220123e-12,9.471988457e-12,1.663589599e-11,2.801262115e-12,9.823264997e-12,1.871762590e-11,5.518428007e-13,1.776738269e-11,2.640512201e-14,1.881019613e-14
0.72656,2.780689151e-11,1.758164322e-11,7.245955484e-12,1.836849377e-12,3.113358473e-12,8.202602730e-12,3.599757902e-12,3.017469591e-12,4.029571333e-13,2.298608860e-12,5.254429441e-12,2.867012038e-12,4.846449958e-12,8.483216977e-13,7.060571224e-12,5.814608352e-13,1.097027876e-11,4.780793916e-12,6.793484823e-12,1.041206308e-11,4.365616034e-12,3.009719222e-12,7.798862078e-12,9.278277373e-12,1.620549963e-11,2.717058465e-12,9.590700717e-12,1.873468934e-11,4.955515588e-13,1.738807409e-11,2.006516132e-14,2.042035930e-14
0.73438,2.675088061e-11,1.700387457e-11,7.148495221e-12,1.844972699e-12,3.074248644e-12,8.138808940e-12,3.576039120e-12,2.997980911e-12,4.044782250e-13,2.342194877e-12,5.170956366e-12,2.822161562e-12,4.813302975e-12,8.982928546e-13,7.125026486e-12,6.444244777e-13,1.130669614e-11,4.885458863e-12,6.830932543e-12,1.061970088e-11,4.348055112e-12,2.953941375e-12,7.571372277e-12,9.154928566e-12,1.595075578e-11,2.668157321e-12,9.427747644e-12,1.825274108e-11,5.107798768e-13,1.698079997e-11,1.653590361e-14,2.017400254e-14
0.74219,2.574062887e-11,1.634742447e-11,6.982391298e-12,1.840035538e-12,3.011643396e-12,8.063902057e-12,3.539908678e-12,2.973666831e-12,4.072992371e-13,2.345425241e-12,5.105775659e-12,2.776951130e-12,4.754848259e-12,8.969957490e-13,7.057660665e-12,6.713165049e-13,1.139330987e-11,4.889789853e-12,6.817456100e-12,1.058079277e-11,4.345467397e-12,2.912027508e-12,7.359362105e-12,9.001464397e-12,1.558639545e-11,2.578721899e-12,9.216016091e-12,1.769219490e-11,4.940515771e-13,1.649899853e-11,1.201290839e-14,2.131014439e-14
0.75,2.496608731e-11,1.578095307e-11,6.842405016e-12,1.846454190e-12,2.945800197e-12,8.090353165e-12,3.527019643e-12,2.974633038e-12,4.132395109e-13,2.318911817e-12,5.084928449e-12,2.761504121e-12,4.678780880e-12,8.422876285e-13,6.846841494e-12,6.536295030e-13,1.119629619e-11,4.791076029e-12,6.759928362e-12,1.031842365e-11,4.361772630e-12,2.902854080e-12,7.175848264e-12,8.885106969e-12,1.511296743e-11,2.456947401e-12,9.011096917e-12,1.732089657e-11,4.550633127e-13,1.606898669e-11,6.924399663e-15,2.448291012e-14
0.75781,2.426551904e-11,1.523539775e-11,6.632429305e-12,1.815805142e-12,2.878684187e-12,7.903711158e-12,3.457002977e-12,2.904165549e-12,4.051727215e-13,2.301962880e-12,4.974819583e-12,2.658063238e-12,4.535121276e-12,7.955782653e-13,6.595493894e-12,5.959594933e-13,1.079186038e-11,4.560356512e-12,6.555003160e-12,1.015122376e-11,4.264444442e-12,2.798315520e-12,6.997828067e-12,8.868371927e-12,1.468037560e-11,2.388671352e-12,8.862761209e-12,1.667382129e-11,4.865185509e-13,1.570430737e-11,4.273556830e-15,2.380656145e-14
0.76562,2.379756793e-11,1.475558746e-11,6.449451121e-12,1.769445042e-12,2.798102192e-12,7.675744632e-12,3.386564716e-12,2.812548626e-12,3.947279674e-13,2.261987069e-12,4.840196054e-12,2.544707739e-12,4.354870913e-12,7.364988155e-13,6.279294019e-12,5.153451440e-13,1.018285815e-11,4.250158066e-12,6.257779724e-12,9.900588332e-12,4.121727350e-12,2.667252291e-12,6.766359887e-12,8.898453398e-12,1.410374515e-11,2.313078804e-12,8.653770035e-12,1.605560828e-11,5.069893495e-13,1.537784266e-11,3.618990118e-15,2.243202115e-14
0.77344,2.366280360e-11,1.443261475e-11,6.361840234e-12,1.735120439e-12,2.703915857e-12,7.571195793e-12,3.348447446e-12,2.752669990e-12,3.940642702e-13,2.183206205e-12,4.768163790e-12,2.502131080e-12,4.203229350e-12,6.555142763e-13,5.951507539e-12,4.359838473e-13,9.466951901e-12,3.951924053e-12,5.980115914e-12,9.524945859e-12,4.029991989e-12,2.598682681e-12,6.493976519e-12,8.944586637e-12,1.330834659e-11,2.194509477e-12,8.363728902e-12,1.585432229e-11,4.859969959e-13,1.511858534e-11,3.514675072e-15,2.439704979e-14
0.78125,2.348078797e-11,1.411689412e-11,6.276525776e-12,1.661503704e-12,2.599490569e-12,7.320873233e-12,3.268925343e-12,2.652198952e-12,3.881269225e-13,2.115315020e-12,4.643524989e-12,2.423641855e-12,4.060499442e-12,6.058618033e-13,5.721974204e-12,3.692176423e-13,8.833551025e-12,3.685213623e-12,5.674928740e-12,9.325446888e-12,3.880872061e-12,2.488425872e-12,6.185346072e-12,8.980761703e-12,1.251147659e-11,2.103246778e-12,8.044925073e-12,1.552778422e-11,5.064959572e-13,1.481284350e-11,4.307958781e-15,2.450661186e-14
0.78906,2.320643763e-11,1.375263183e-11,6.169709081e-12,1.552297052e-12,2.479629873e-12,6.958599019e-12,3.161294008e-12,2.522406191e-12,3.796107719e-13,2.041814158e-12,4.492685801e-12,2.327798582e-12,3.933736497e-12,5.821028221e-13,5.595059017e-12,3.290109512e-13,8.336080620e-12,3.474920018e-12,5.370921124e-12,9.202028064e-12,3.710363038e-12,2.354104138e-12,5.829627753e-12,8.918966211e-12,1.170163145e-11,2.011788110e-12,7.652895107e-12,1.508842651e-11,5.195353088e-13,1.438886029e-11,6.459252826e-15,2.293761017e-14
0.79688,2.287369422e-11,1.338725591e-11,6.077236310e-12,1.454263404e-12,2.347788447e-12,6.702120043e-12,3.057548379e-12,2.426841411e-12,3.796934750e-13,1.923908685e-12,4.397061227e-12,2.286779869e-12,3.849499989e-12,5.475976401e-13,5.503713872e-12,3.159506676e-13,7.930641510e-12,3.343169287e-12,5.142539212e-12,8.876958868e-12,3.601946304e-12,2.290090473e-12,5.456346715e-12,8.636364531e-12,1.079397831e-11,1.874972986e-12,7.167512688e-12,1.489491298e-11,4.554096615e-13,1.387096819e-11,8.441634064e-15,2.425832824e-14
0.80469,2.226934402e-11,1.297047606e-11,5.937579347e-12,1.354862338e-12,2.228946583e-12,6.415816010e-12,2.930566228e-12,2.333798715e-12,3.734880132e-13,1.819704665e-12,4.306678017e-12,2.223015635e-12,3.767152171e-12,5.305010744e-13,5.503044120e-12,3.222443052e-13,7.683591803e-12,3.249885506e-12,4.937144684e-12,8.583831713e-12,3.469013599e-12,2.211690681e-12,5.121283856e-12,8.174430316e-12,1.003167977e-11,1.756478477e-12,6.706272405e-12,1.451691750e-11,3.990319316e-13,1.326719946e-11,9.023381809e-15,2.505215711e-14
0.8125,2.135543119e-11,1.247110083e-11,5.705894961e-12,1.245692886e-12,2.128753970e-12,6.048815087e-12,2.769902333e-12,2.227091752e-12,3.585546314e-13,1.742502746e-12,4.216517556e-12,2.124654936e-12,3.666249233e-12,5.345520467e-13,5.571357324e-12,3.443141795e-13,7.560510774e-12,3.164132153e-12,4.728509672e-12,8.309418514e-12,3.274478541e-12,2.089504396e-12,4.830150362e-12,7.560264308e-12,9.476503289e-12,1.669106376e-12,6.297913701e-12,1.381715232e-11,3.710127039e-13,1.260214591e-11,9.623666727e-15,2.298139137e-14
0.82031,2.038477966e-11,1.197285371e-11,5.472857830e-12,1.173818772e-12,2.042785791e-12,5.831331836e-12,2.640813312e-12,2.168983571e-12,3.482058021e-13,1.655383721e-12,4.205255404e-12,2.082005830e-12,3.567266878e-12,5.220525225e-13,5.594915724e-12,3.733341293e-13,7.431288473e-12,3.079236346e-12,4.560933138e-12,7.769811530e-12,3.100556969e-12,2.013394409e-12,4.600683008e-12,6.783543886e-12,9.011581371e-12,1.565677024e-12,5.901044710e-12,1.325876325e-11,3.061074627e-13,1.196006503e-11,1.092543888e-14,2.340138781e-14
0.82812,1.944380274e-11,1.153984253e-11,5.271009159e-12,1.128565409e-12,1.983286455e-12,5.703948741e-12,2.544529676e-12,2.138907933e-12,3.374233976e-13,1.599696756e-12,4.231006474e-12,2.059182547e-12,3.466768055e-12,5.148264103e-13,5.614249163e-12,3.997465690e-13,7.339907238e-12,2.989111608e-12,4.429124390e-12,7.238511979e-12,2.934916698e-12,1.947412398e-12,4.475186549e-12,6.046891401e-12,8.797715124e-12,1.489393109e-12,5.601576456e-12,1.273101364e-11,2.474087641e-13,1.145448430e-11,1.139998344e-14,2.467048862e-14
0.83594,1.851992849e-11,1.115923269e-11,5.116471715e-12,1.084393666e-12,1.943127836e-12,5.568173349e-12,2.479334759e-12,2.102287713e-12,3.226334726e-13,1.604789945e-12,4.259878987e-12,2.030670004e-12,3.365845246e-12,5.350308972e-13,5.668903208e-12,4.273416167e-13,7.330276335e-12,2.902186767e-12,4.316194465e-12,6.918709897e-12,2.745184254e-12,1.848721693e-12,4.444658766e-12,5.509488915e-12,8.889719356e-12,1.462459459e-12,5.432181393e-12,1.209446669e-11,2.328578897e-13,1.113284078e-11,1.066005417e-14,2.365018557e-14
0.84375,1.787712437e-11,1.084131579e-11,5.062834533e-12,1.054827002e-12,1.895013547e-12,5.542842123e-12,2.479827303e-12,2.089047353e-12,3.142487494e-13,1.608230696e-12,4.298464893e-12,2.050153017e-12,3.278978267e-12,5.345363802e-13,5.593451121e-12,4.398495488e-13,7.228309385e-12,2.811981135e-12,4.243175749e-12,6.595166188e-12,2.607396627e-12,1.793448916e-12,4.471368498e-12,5.193400142e-12,9.072472201e-12,1.427762600e-12,5.282773464e-12,1.173774154e-11,2.172686576e-13,1.096019037e-11,1.134925275e-14,2.373029706e-14
0.85156,1.759948633e-11,1.064372040e-11,5.141828121e-12,1.036522503e-12,1.843831273e-12,5.601834064e-12,2.534600885e-12,2.092633057e-12,3.106645973e-13,1.621667029e-12,4.324314903e-12,2.094201731e-12,3.211956335e-12,5.254552985e-13,5.442456158e-12,4.368332082e-13,7.090686179e-12,2.734948277e-12,4.210032744e-12,6.390949230e-12,2.525954591e-12,1.772798460e-12,4.549026872e-12,5.154028031e-12,9.386536991e-12,1.403474093e-12,5.192817180e-12,1.165562833e-11,2.161635050e-13,1.096316345e-11,1.266658748e-14,2.550660302e-14
0.85938,1.749301952e-11,1.050493911e-11,5.301964403e-12,9.998785629e-13,1.792786531e-12,5.591625550e-12,2.614652001e-12,2.064003619e-12,3.019681099e-13,1.665025520e-12,4.257646097e-12,2.092296717e-12,3.146285077e-12,5.314807943e-13,5.280295769e-12,4.222498171e-13,6.975807658e-12,2.663718376e-12,4.168223988e-12,6.462033651e-12,2.448967501e-12,1.724268229e-12,4.656222421e-12,5.394995016e-12,9.859679187e-12,1.417513413e-12,5.199942722e-12,1.158586157e-11,2.475790654e-13,1.106994360e-11,1.294363262e-14,2.490498991e-14
0.86719,1.752827321e-11,1.034977963e-11,5.462019557e-12,9.597312368e-13,1.726263116e-12,5.557127624e-12,2.685020899e-12,2.020942954e-12,2.931955318e-13,1.661135732e-12,4.095639946e-12,2.071035264e-12,3.062642046e-12,5.082461614e-13,4.991840596e-12,3.874901202e-13,6.736841520e-12,2.573809903e-12,4.104244736e-12,6.513431275e-12,2.391205608e-12,1.690201132e-12,4.709296691e-12,5.714669467e-12,1.016927194e-11,1.410272519e-12,5.170039060e-12,1.163307981e-11,2.582617011e-13,1.110771165e-11,1.381731252e-14,2.421017982e-14
0.875,1.767731077e-11,1.020098771e-11,5.607529875e-12,9.260392197e-13,1.656913539e-12,5.526584963e-12,2.738873317e-12,1.976122766e-12,2.857086751e-13,1.604030394e-12,3.876705327e-12,2.036118518e-12,2.970011037e-12,4.561420914e-13,4.609947394e-12,3.374262023e-13,6.425849674e-12,2.485599212e-12,4.034575604e-12,6.520066022e-12,2.362717073e-12,1.684460670e-12,4.722654313e-12,6.034085371e-12,1.034870844e-11,1.389266737e-12,5.135670613e-12,1.177342346e-11,2.638323435e-13,1.106490921e-11,1.637394099e-14,2.547158274e-14
0.88281,1.769522685e-11,1.006769243e-11,5.678463727e-12,8.906735569e-13,1.609963265e-12,5.378492859e-12,2.741764104e-12,1.898234693e-12,2.714145751e-13,1.542767855e-12,3.572732597e-12,1.931676565e-12,2.860231624e-12,4.155952600e-13,4.259033627e-12,2.842537830e-13,6.146045043e-12,2.396983790e-12,3.926071632e-12,6.634832509e-12,2.313613334e-12,1.643597496e-12,4.714730243e-12,6.318279120e-12,1.052477723e-11,1.397874926e-12,5.174992313e-12,1.171339566e-11,2.988561594e-13,1.094944608e-11,1.801898676e-14,2.520484677e-14
0.89062,1.745033192e-11,9.858379066e-12,5.595965574e-12,8.569461720e-13,1.573066878e-12,5.138964998e-12,2.675585976e-12,1.798912591e-12,2.542894908e-13,1.445527834e-12,3.226178799e-12,1.791649961e-12,2.729821353e-12,3.747558333e-13,3.908588941e-12,2.352627639e-13,5.845446127e-12,2.304825855e-12,3.784769708e-12,6.607716278e-12,2.247338456e-12,1.594333643e-12,4.640935783e-12,6.384379332e-12,1.049593394e-11,1.395538818e-12,5.178224021e-12,1.146600912e-11,3.075404272e-13,1.065893339e-11,1.910665329e-14,2.355790620e-14
0.89844,1.706490954e-11,9.632429493e-12,5.400547881e-12,8.452572195e-13,1.555596333e-12,4.917441548e-12,2.562304300e-12,1.708177903e-12,2.384183581e-13,1.295350622e-12,2.872962079e-12,1.646771223e-12,2.582907054e-12,3.113905697e-13,3.506825217e-12,1.849009690e-13,5.484519581e-12,2.200132585e-12,3.630391702e-12,6.356620101e-12,2.191336057e-12,1.565808289e-12,4.517532881e-12,6.222672994e-12,1.025675669e-11,1.376582153e-12,5.144229864e-12,1.116639365e-11,2.937763202e-13,1.026380656e-11,2.182868867e-14,2.377498585e-14
0.90625,1.651836390e-11,9.463337703e-12,5.135116571e-12,8.448524963e-13,1.565554380e-12,4.656842491e-12,2.420066788e-12,1.614525480e-12,2.223931471e-13,1.163926360e-12,2.552467742e-12,1.488011978e-12,2.452062518e-12,2.676339451e-13,3.196731363e-12,1.468959894e-13,5.215464436e-12,2.121272314e-12,3.495098955e-12,6.162959123e-12,2.139515343e-12,1.524046388e-12,4.423047368e-12,5.974757162e-12,1.007721311e-11,1.389723868e-12,5.173441479e-12,1.073230247e-11,3.070275990e-13,9.914580890e-12,2.424068926e-14,2.299840096e-14
0.91406,1.585000126e-11,9.315760121e-12,4.806216986e-12,8.570305480e-13,1.591456017e-12,4.371403451e-12,2.254805507e-12,1.522014357e-12,2.067151147e-13,1.053880359e-12,2.263692743e-12,1.324566283e-12,2.328773923e-12,2.420018950e-13,2.951641102e-12,1.239554359e-13,4.985333357e-12,2.044285121e-12,3.368651141e-12,5.958784697e-12,2.087795899e-12,1.472160252e-12,4.329046574e-12,5.649986309e-12,9.875333475e-12,1.409214570e-12,5.192329695e-12,1.021335536e-11,3.185665349e-13,9.616278665e-12,2.491372005e-14,1.965938114e-14
0.92188,1.524235886e-11,9.184045825e-12,4.478844440e-12,8.907069161e-13,1.621518487e-12,4.163131700e-12,2.101324424e-12,1.454056350e-12,1.962881443e-13,9.465951021e-13,2.052459011e-12,1.198369879e-12,2.224968694e-12,2.177963849e-13,2.732356759e-12,1.151549949e-13,4.742745246e-12,1.968792338e-12,3.273563424e-12,5.645972259e-12,2.069268535e-12,1.450391598e-12,4.228867246e-12,5.258679391e-12,9.573819051e-12,1.405773720e-12,5.139983817e-12,9.812816169e-12,3.029654266e-13,9.370786017e-12,2.444048825e-14,1.681947638e-14
0.92969,1.474146056e-11,9.101231888e-12,4.192859314e-12,9.250013807e-13,1.654486696e-12,3.983517704e-12,1.965805652e-12,1.404581715e-12,1.910777643e-13,8.785646098e-13,1.924141826e-12,1.110378933e-12,2.168325935e-12,2.165424843e-13,2.629608789e-12,1.259733201e-13,4.601272043e-12,1.928814467e-12,3.233991663e-12,5.453317167e-12,2.070317371e-12,1.441268431e-12,4.171799246e-12,4.930605176e-12,9.372409627e-12,1.415685116e-12,5.103407459e-12,9.479277978e-12,3.042333570e-13,9.247673528e-12,2.400570504e-14,1.451713926e-14
0.9375,1.433506165e-11,9.029279353e-12,3.970295115e-12,9.547509055e-13,1.681038881e-12,3.803764338e-12,1.854795289e-12,1.363844998e-12,1.892934255e-13,8.572717354e-13,1.883452344e-12,1.056375467e-12,2.154294491e-12,2.458855418e-13,2.666762051e-12,1.608985693e-13,4.575384247e-12,1.928364566e-12,3.237652877e-12,5.403095522e-12,2.076619326e-12,1.434606842e-12,4.138379147e-12,4.703818095e-12,9.262629623e-12,1.429675513e-12,5.071865478e-12,9.178437224e-12,3.153854129e-13,9.207237744e-12,2.176561120e-14,1.091839875e-14
0.94531,1.406154074e-11,8.874674255e-12,3.817358499e-12,9.737232680e-13,1.675265429e-12,3.655466631e-12,1.775831248e-12,1.336644582e-12,1.948796262e-13,8.538672555e-13,1.960059110e-12,1.069208440e-12,2.179864711e-12,2.995916661e-13,2.811388864e-12,2.215901034e-13,4.610890080e-12,1.970403567e-12,3.279489432e-12,5.327886518e-12,2.094473694e-12,1.461250916e-12,4.083242775e-12,4.509256900e-12,9.079558104e-12,1.402388508e-12,4.955844974e-12,8.976534029e-12,2.979309090e-13,9.129286341e-12,1.733696346e-14,7.759789972e-15
0.95312,1.393403020e-11,8.702445467e-12,3.778282482e-12,9.765167235e-13,1.654144791e-12,3.522988594e-12,1.733598639e-12,1.319586093e-12,2.045422939e-13,8.791999892e-13,2.129048019e-12,1.133234191e-12,2.245265499e-12,3.799530734e-13,3.081755711e-12,2.992120022e-13,4.749174629e-12,2.062029072e-12,3.355004739e-12,5.322821917e-12,2.108617784e-12,1.503409652e-12,4.033272960e-12,4.403369122e-12,8.945008589e-12,1.371642531e-12,4.850222064e-12,8.824697588e-12,2.889875260e-13,9.049583078e-12,1.370880793e-14,6.019650692e-15
0.96094,1.389502508e-11,8.515453157e-12,3.835416092e-12,9.583267432e-13,1.622680518e-12,3.358091266e-12,1.707994434e-12,1.292944768e-12,2.145673489e-13,9.256361290e-13,2.349900389e-12,1.222778422e-12,2.330662472e-12,4.741917300e-13,3.448867530e-12,3.843730588e-13,4.990325504e-12,2.194091794e-12,3.443970337e-12,5.419135478e-12,2.097369117e-12,1.536022574e-12,3.996557764e-12,4.387173512e-12,8.913287746e-12,1.357971227e-12,4.799008711e-12,8.639968526e-12,3.037708812e-13,8.968488301e-12,1.094369129e-14,4.413956064e-15
0.96875,1.391921915e-11,8.249885078e-12,3.963102687e-12,9.179199881e-13,1.556710268e-12,3.182776282e-12,1.696715588e-12,1.259054445e-12,2.249944412e-13,9.527817014e-13,2.580516219e-12,1.334466396e-12,2.392499345e-12,5.505992838e-13,3.775614655e-12,4.611512979e-13,5.192653282e-12,2.318669295e-12,3.494867275e-12,5.423835550e-12,2.055749661e-12,1.565494069e-12,3.902453209e-12,4.374598242e-12,8.773363464e-12,1.314260344e-12,4.695905071e-12,8.466745854e-12,3.110877178e-13,8.802594081e-12,7.892116302e-15,3.122216809e-15
0.97656,1.409249125e-11,8.020236683e-12,4.173596271e-12,8.752721771e-13,1.485860492e-12,3.045870368e-12,1.700710753e-12,1.230110638e-12,2.336923619e-13,9.661327889e-13,2.775742240e-12,1.443016213e-12,2.432987313e-12,6.067414177e-13,4.045667192e-12,5.171375517e-13,5.379549144e-12,2.431210569e-12,3.526645811e-12,5.419012262e-12,2.011528263e-12,1.587183826e-12,3.792475886e-12,4.399571348e-12,8.617231244e-12,1.270599164e-12,4.616934462e-12,8.372559523e-12,3.330723263e-13,8.649969643e-12,5.994145653e-15,2.884666195e-15
0.98438,1.433183085e-11,7.863167763e-12,4.422374891e-12,8.319470648e-13,1.425512676e-12,2.923948796e-12,1.699768061e-12,1.203323756e-12,2.375738714e-13,9.774282852e-13,2.877861809e-12,1.511672596e-12,2.440039241e-12,6.377318579e-13,4.218515780e-12,5.389631133e-13,5.529836339e-12,2.500927381e-12,3.519219601e-12,5.468779064e-12,1.944460902e-12,1.572285533e-12,3.690783320e-12,4.458848125e-12,8.513349762e-12,1.251105744e-12,4.604153876e-12,8.298836054e-12,3.791513618e-13,8.554451186e-12,5.159978233e-15,3.105097812e-15
0.99219,1.450695140e-11,7.699056552e-12,4.605522317e-12,7.918815777e-13,1.360694216e-12,2.833766529e-12,1.683054568e-12,1.182117786e-12,2.385712424e-13,9.625719017e-13,2.861147747e-12,1.540527917e-12,2.394922343e-12,6.215525608e-13,4.201942508e-12,5.284386344e-13,5.555031782e-12,2.502254562e-12,3.447036217e-12,5.454707374e-12,1.864981606e-12,1.528165617e-12,3.543258762e-12,4.448101504e-12,8.275323319e-12,1.212245210e-12,4.539621179e-12,8.247359898e-12,4.124242939e-13,8.428478238e-12,4.676548298e-15,3.678046593e-15
1,1.464884635e-11,7.582915903e-12,4.725175422e-12,7.654665035e-13,1.305755024e-12,2.813957293e-12,1.672061686e-12,1.185118317e-12,2.393143029e-13,9.392694469e-13,2.771667619e-12,1.546294034e-12,2.330449931e-12,5.733930349e-13,4.044832147e-12,4.914162920e-13,5.488603619e-12,2.452437730e-12,3.349084379e-12,5.399281899e-12,1.806323228e-12,1.476610632e-12,3.381526717e-12,4.397024449e-12,7.943900932e-12,1.160660412e-12,4.452754797e-12,8.301436871e-12,4.350739429e-13,8.315422212e-12,4.654459874e-15,4.909452758e-15
1.0078,1.466363150e-11,7.534387162e-12,4.766482947e-12,7.499853758e-13,1.275837716e-12,2.841385450e-12,1.672134201e-12,1.213365569e-12,2.386329499e-13,9.396294016e-13,2.642992101e-12,1.516744046e-12,2.270207270e-12,5.186385188e-13,3.834618282e-12,4.345912239e-13,5.403094056e-12,2.372954372e-12,3.244900341e-12,5.401046663e-12,1.765447366e-12,1.413267931e-12,3.258627618e-12,4.331786731e-12,7.628033091e-12,1.124479709e-12,4.400822419e-12,8.410031724e-12,4.636957854e-13,8.237503996e-12,4.896737662e-15,6.580800037e-15
1.0156,1.438526507e-11,7.430137111e-12,4.651136823e-12,7.318129540e-13,1.251059429e-12,2.866933564e-12,1.672416362e-12,1.247815823e-12,2.371794352e-13,9.529366688e-13,2.516175883e-12,1.469309757e-12,2.213635563e-12,4.657558862e-13,3.592353418e-12,3.748734038e-13,5.256487404e-12,2.268003162e-12,3.126602565e-12,5.377170129e-12,1.736527299e-12,1.344384031e-12,3.148739601e-12,4.204462284e-12,7.238989339e-12,1.081543531e-12,4.297439835e-12,8.503926258e-12,4.692727817e-13,8.086375880e-12,4.772361461e-15,8.529907999e-15
1.0234,1.388906772e-11,7.273500669e-12,4.415771867e-12,7.118366185e-13,1.228627705e-12,2.902210820e-12,1.689597486e-12,1.290534590e-12,2.374363216e-13,9.765895183e-13,2.451219635e-12,1.433858875e-12,2.179184200e-12,4.223447372e-13,3.370328722e-12,3.268216132e-13,5.070503231e-12,2.166127338e-12,3.018166433e-12,5.284320210e-12,1.734390925e-12,1.295289903e-12,3.062442262e-12,4.036971314e-12,6.756266463e-12,1.030244205e-12,4.146992362e-12,8.670772921e-12,4.485429681e-13,7.867933131e-12,4.428064048e-15,1.071685527e-14
1.0312,1.330655111e-11,7.145518187e-12,4.150643136e-12,6.976080730e-13,1.225967123e-12,2.940039916e-12,1.730061286e-12,1.332778520e-12,2.359143641e-13,1.019226562e-12,2.451363579e-12,1.397851082e-12,2.167697846e-12,3.926736754e-13,3.224681948e-12,2.883066510e-13,4.906713311e-12,2.082991071e-12,2.944165782e-12,5.229346462e-12,1.765347698e-12,1.266232091e-12,3.055514751e-12,3.948484937e-12,6.353875837e-12,1.007510457e-12,4.041381281e-12,8.897562970e-12,4.341909878e-13,7.672219689e-12,4.567874518e-15,1.215900190e-14
1.0391,1.261633509e-11,6.963207808e-12,3.852530108e-12,6.766219318e-13,1.220142355e-12,2.925917356e-12,1.757450749e-12,1.347682510e-12,2.309774512e-13,1.054868736e-12,2.488142957e-12,1.357241659e-12,2.155981702e-12,3.784171637e-13,3.142939888e-12,2.643618988e-13,4.737642956e-12,2.015982097e-12,2.877111266e-12,5.172770430e-12,1.796238064e-12,1.241643351e-12,3.078126573e-12,3.903609608e-12,5.982398689e-12,9.993457483e-13,3.932168151e-12,9.061746313e-12,4.244433164e-13,7.441798320e-12,4.881982277e-15,1.280436525e-14
1.0469,1.190880450e-11,6.715285138e-12,3.533130396e-12,6.518288787e-13,1.204454613e-12,2.869898985e-12,1.765928891e-12,1.330181527e-12,2.227419298e-13,1.054483609e-12,2.522867429e-12,1.315217928e-12,2.127314245e-12,3.631161631e-13,3.065191189e-12,2.491789587e-13,4.508490785e-12,1.948204052e-12,2.803393224e-12,5.033775065e-12,1.818122795e-12,1.225524875e-12,3.101621625e-12,3.893710308e-12,5.594617053e-12,9.939741669e-13,3.793533039e-12,9.175609262e-12,4.080051683e-13,7.167947654e-12,5.362830339e-15,1.290682539e-14
1.0547,1.141421266e-11,6.531828941e-12,3.292896993e-12,6.449935794e-13,1.199225679e-12,2.829962965e-12,1.764448341e-12,1.298359666e-12,2.116350901e-13,1.028992866e-12,2.524135905e-12,1.266144484e-12,2.085295573e-12,3.441839357e-13,2.997201165e-12,2.368707883e-13,4.296057561e-12,1.890554642e-12,2.747393943e-12,4.910359109e-12,1.842503758e-12,1.216198877e-12,3.145246595e-12,3.998158501e-12,5.319478816e-12,1.008285719e-12,3.714334345e-12,9.250059026e-12,3.995717498e-13,6.946341464e-12,6.331107087e-15,1.264674942e-14
1.0625,1.107216614e-11,6.376538653e-12,3.112536237e-12,6.442398213e-13,1.193971303e-12,2.778363374e-12,1.735485878e-12,1.245721446e-12,1.965849950e-13,9.789530588e-13,2.455572688e-12,1.199926791e-12,2.014991085e-12,3.245313517e-13,2.910346498e-12,2.224615700e-13,4.081054824e-12,1.822887324e-12,2.675810194e-12,4.794432753e-12,1.825601736e-12,1.188463859e-12,3.156874338e-12,4.148354120e-12,5.144951768e-12,1.028116122e-12,3.665202987e-12,9.144190710e-12,4.015197943e-13,6.753566979e-12,7.540641233e-15,1.172599144e-14
1.0703,1.079031413e-11,6.177896867e-12,2.944263877e-12,6.421795686e-13,1.176403712e-12,2.701345551e-12,1.671442785e-12,1.171379705e-12,1.780777771e-13,8.914858137e-13,2.290583901e-12,1.116653270e-12,1.902251866e-12,2.938253060e-13,2.744045530e-12,2.014888632e-13,3.804836849e-12,1.716378185e-12,2.566805221e-12,4.599131536e-12,1.755744613e-12,1.137989481e-12,3.084305263e-12,4.283102305e-12,4.994083197e-12,1.025773408e-12,3.577257639e-12,8.789970638e-12,3.902719072e-13,6.506382045e-12,8.359658234e-15,1.041377516e-14
1.0781,1.068459528e-11,6.052816596e-12,2.838260476e-12,6.517665180e-13,1.167993123e-12,2.663852417e-12,1.611144650e-12,1.108203522e-12,1.610029850e-13,7.987469313e-13,2.093301981e-12,1.040739978e-12,1.779637916e-12,2.584365286e-13,2.546277433e-12,1.754394185e-13,3.543024988e-12,1.594874286e-12,2.456878834e-12,4.407602312e-12,1.668502238e-12,1.083118358e-12,2.973235503e-12,4.442075221e-12,4.950003475e-12,1.015256673e-12,3.516157944e-12,8.336364974e-12,3.661295611e-13,6.294312862e-12,8.626130934e-15,9.548516166e-15
1.0859,1.066417650e-11,5.991575105e-12,2.788445739e-12,6.625631576e-13,1.168609749e-12,2.639593350e-12,1.561979404e-12,1.056126336e-12,1.459154574e-13,7.224402670e-13,1.895760538e-12,9.707324241e-13,1.660664605e-12,2.290603464e-13,2.360084080e-12,1.482108461e-13,3.328760791e-12,1.469912151e-12,2.352420583e-12,4.259640749e-12,1.578620405e-12,1.022197621e-12,2.846087495e-12,4.610100429e-12,5.036581301e-12,1.003249054e-12,3.489491182e-12,7.798177784e-12,3.428739544e-13,6.139840174e-12,8.769110010e-15,8.858265355e-15
1.0938,1.051533218e-11,5.867681512e-12,2.712636254e-12,6.525527719e-13,1.154636295e-12,2.562744977e-12,1.499408912e-12,1.000373877e-12,1.325071879e-13,6.598042177e-13,1.714904312e-12,9.069133240e-13,1.540231330e-12,2.071275630e-13,2.182844868e-12,1.264464591e-13,3.139345642e-12,1.343184040e-12,2.239838343e-12,4.091791109e-12,1.489227940e-12,9.539587738e-13,2.678387883e-12,4.694228967e-12,5.141637519e-12,9.749915276e-13,3.413089871e-12,7.151808180e-12,3.132236559e-13,5.950415522e-12,8.658986845e-15,8.128146157e-15
1.1016,1.034709807e-11,5.762572506e-12,2.652076210e-12,6.350514893e-13,1.145075387e-12,2.484701706e-12,1.448871175e-12,9.582264958e-13,1.244609549e-13,6.177026756e-13,1.597012585e-12,8.660002198e-13,1.447107191e-12,1.929390298e-13,2.048979644e-12,1.131814498e-13,3.005061988e-12,1.241734538e-12,2.156421972e-12,3.934719830e-12,1.444453585e-12,9.062191824e-13,2.527818677e-12,4.735396369e-12,5.276733475e-12,9.451677076e-13,3.333032310e-12,6.579376189e-12,2.737327711e-13,5.782581305e-12,8.310016031e-15,7.801235029e-15
1.1094,1.022512083e-11,5.708450415e-12,2.638586686e-12,6.124137572e-13,1.140529489e-12,2.409556780e-12,1.419061781e-12,9.292702319e-13,1.224672849e-13,6.050205346e-13,1.556967300e-12,8.469267223e-13,1.400796998e-12,1.946747668e-13,2.000355322e-12,1.133850130e-13,2.975971497e-12,1.197823877e-12,2.130074865e-12,3.851433708e-12,1.466367454e-12,8.885655345e-13,2.443377164e-12,4.757956385e-12,5.463414021e-12,9.334446704e-13,3.288654641e-12,6.179591984e-12,2.432797053e-13,5.692650705e-12,8.721688810e-15,7.550694599e-15
1.1172,9.915983047e-12,5.564304268e-12,2.577974828e-12,5.672258208e-13,1.117045368e-12,2.273053827e-12,1.373065746e-12,8.918365342e-13,1.239476374e-13,6.090232269e-13,1.566090258e-12,8.368145599e-13,1.386006148e-12,2.128042801e-13,2.013367776e-12,1.272539593e-13,3.004109376e-12,1.202832773e-12,2.126057707e-12,3.774312051e-12,1.518984728e-12,8.826079454e-13,2.380985009e-12,4.666752607e-12,5.549600598e-12,9.243485434e-13,3.199157550e-12,5.830130027e-12,2.236597018e-13,5.551646620e-12,9.855770634e-15,7.001664052e-15
1.125,9.587618663e-12,5.396427418e-12,2.516684860e-12,5.161072631e-13,1.088232246e-12,2.135924834e-12,1.328834225e-12,8.587436445e-13,1.296923624e-13,6.193377844e-13,1.614033868e-12,8.411878570e-13,1.406766625e-12,2.379719967e-13,2.067577760e-12,1.499218124e-13,3.075728860e-12,1.253885003e-12,2.155227071e-12,3.693667412e-12,1.601258082e-12,9.003090414e-13,2.350538777e-12,4.490948989e-12,5.533925450e-12,9.193451406e-13,3.089386919e-12,5.585937120e-12,2.086319187e-13,5.390337478e-12,1.203498100e-14,6.292654116e-15
1.1328,9.307119339e-12,5.242349423e-12,2.463937926e-12,4.669494927e-13,1.059413771e-12,2.034879782e-12,1.296362600e-12,8.397465561e-13,1.395223311e-13,6.372410692e-13,1.679794829e-12,8.606635357e-13,1.467252597e-12,2.710843849e-13,2.154938787e-12,1.769776892e-13,3.193132606e-12,1.347970049e-12,2.220493216e-12,3.635373989e-12,1.695158212e-12,9.402581642e-13,2.360182192e-12,4.268048454e-12,5.448139899e-12,9.215554156e-13,2.985752622e-12,5.460090937e-12,1.934337958e-13,5.228730449e-12,1.484244531e-14,5.808324477e-15
1.1406,8.933804814e-12,5.019192998e-12,2.367067817e-12,4.147637691e-13,1.019345688e-12,1.931125590e-12,1.252583907e-12,8.171018473e-13,1.473955182e-13,6.556978798e-13,1.727636226e-12,8.744092349e-13,1.529676075e-12,3.110494559e-13,2.244862035e-12,2.056122285e-13,3.308077911e-12,1.445709928e-12,2.269276552e-12,3.585717266e-12,1.738252623e-12,9.674310385e-13,2.353128770e-12,3.995023601e-12,5.255140612e-12,9.182686635e-13,2.859603391e-12,5.290005561e-12,1.863703611e-13,5.008297415e-12,1.726743510e-14,5.292159366e-15
1.1484,8.535005482e-12,4.759939423e-12,2.241205019e-12,3.689137358e-13,9.741981512e-13,1.859376217e-12,1.212547057e-12,7.995562500e-13,1.539825547e-13,6.699788070e-13,1.762440198e-12,8.886447803e-13,1.582806207e-12,3.448751492e-13,2.312117318e-12,2.315884527e-13,3.404566531e-12,1.530848982e-12,2.292234166e-12,3.531055020e-12,1.726686644e-12,9.818936487e-13,2.318155754e-12,3.705434505e-12,4.981583832e-12,8.996840188e-13,2.716211280e-12,5.112820854e-12,1.812773982e-13,4.755628898e-12,2.044280784e-14,4.901897050e-15
1.1562,8.187908613e-12,4.520410377e-12,2.119074447e-12,3.378989008e-13,9.368104625e-13,1.854895268e-12,1.187120093e-12,7.993535572e-13,1.603762688e-13,6.820186949e-13,1.797190707e-12,9.146135391e-13,1.628274298e-12,3.700872379e-13,2.361750798e-12,2.495468182e-13,3.483157922e-12,1.594835982e-12,2.293984536e-12,3.463117670e-12,1.668258809e-12,9.918823947e-13,2.261803830e-12,3.447241904e-12,4.684334816e-12,8.651750901e-13,2.580151445e-12,4.971738924e-12,1.612218017e-13,4.505297896e-12,2.308550928e-14,5.086541170e-15
1.1641,7.818393531e-12,4.281768722e-12,1.986680746e-12,3.175855289e-13,9.006266970e-13,1.862721462e-12,1.159585595e-12,7.967688136e-13,1.607297862e-13,6.911593001e-13,1.810132342e-12,9.233732081e-13,1.629226329e-12,3.891427386e-13,2.381872195e-12,2.599674607e-13,3.523288820e-12,1.612354822e-12,2.242990665e-12,3.400851227e-12,1.552253890e-12,9.707827988e-13,2.172398558e-12,3.246794048e-12,4.413833272e-12,8.213830517e-13,2.469467794e-12,4.822409580e-12,1.428874299e-13,4.278281539e-12,2.314012435e-14,5.899038850e-15
1.1719,7.398955718e-12,4.028048217e-12,1.828079121e-12,3.031495851e-13,8.591756736e-13,1.866694205e-12,1.122006662e-12,7.864930097e-13,1.563171185e-13,6.901098674e-13,1.810192193e-12,9.194875317e-13,1.585342885e-12,3.996062556e-13,2.373562006e-12,2.635956732e-13,3.511189316e-12,1.585751902e-12,2.136005134e-12,3.317437862e-12,1.385768288e-12,9.209622252e-13,2.049204636e-12,3.098680540e-12,4.166887676e-12,7.639953813e-13,2.371382741e-12,4.667696362e-12,1.299121205e-13,4.063192014e-12,2.251619537e-14,7.590133577e-15
1.1797,7.068293356e-12,3.841413048e-12,1.707415020e-12,3.010727263e-13,8.249533813e-13,1.909121073e-12,1.088097001e-12,7.845106373e-13,1.514680352e-13,6.778640663e-13,1.822122803e-12,9.221323129e-13,1.518885146e-12,3.933920360e-13,2.342188424e-12,2.554328771e-13,3.444474124e-12,1.525569940e-12,2.004205247e-12,3.175713604e-12,1.208277634e-12,8.687549523e-13,1.914235563e-12,2.992335298e-12,3.956888018e-12,6.982735444e-13,2.303800852e-12,4.584619050e-12,1.062327873e-13,3.884397761e-12,2.203681563e-14,9.849111864e-15
1.1875,6.794471270e-12,3.714351257e-12,1.613130353e-12,3.020870060e-13,7.938996712e-13,1.932054256e-12,1.046815307e-12,7.755114928e-13,1.444970482e-13,6.592258626e-13,1.824601059e-12,9.154571556e-13,1.441333583e-12,3.864805397e-13,2.309683083e-12,2.420681103e-13,3.346103936e-12,1.452875130e-12,1.866396706e-12,3.019232333e-12,1.044083672e-12,8.151755381e-13,1.794697573e-12,2.925578898e-12,3.822641722e-12,6.418566993e-13,2.279561807e-12,4.534863224e-12,8.143135121e-14,3.758428586e-12,1.988630916e-14,1.162002894e-14
1.1953,6.521090933e-12,3.608804080e-12,1.521392946e-12,2.959995465e-13,7.539720560e-13,1.900403378e-12,9.757433730e-13,7.467709871e-13,1.357254690e-13,6.282837903e-13,1.793474393e-12,8.921145624e-13,1.352891286e-12,3.804861347e-13,2.265651392e-12,2.252032846e-13,3.197119773e-12,1.368048747e-12,1.710395357e-12,2.830279573e-12,8.765400787e-13,7.528534474e-13,1.674443022e-12,2.823802561e-12,3.707459260e-12,5.920204483e-13,2.257715985e-12,4.415846429e-12,6.470365832e-14,3.635251096e-12,1.680867542e-14,1.297401839e-14
1.2031,6.380388532e-12,3.581923083e-12,1.479585537e-12,2.925370932e-13,7.176301277e-13,1.885285287e-12,9.061658336e-13,7.219101737e-13,1.294803264e-13,5.859635998e-13,1.764104321e-12,8.787007956e-13,1.294129917e-12,3.660607733e-13,2.218200910e-12,2.088913972e-13,3.033356511e-12,1.301211967e-12,1.587710217e-12,2.607458552e-12,7.441694517e-13,7.161398550e-13,1.582778512e-12,2.673435218e-12,3.603497086e-12,5.503657778e-13,2.234484387e-12,4.316117772e-12,4.930491507e-14,3.538755641e-12,1.433460913e-14,1.435817732e-14
1.2109,6.359965509e-12,3.633272864e-12,1.488531513e-12,2.905678863e-13,6.886844380e-13,1.870684671e-12,8.429454074e-13,6.980875126e-13,1.251792593e-13,5.432243193e-13,1.726886770e-12,8.677051998e-13,1.270067614e-12,3.534651678e-13,2.185932248e-12,1.977945613e-13,2.890138795e-12,1.261558872e-12,1.508827427e-12,2.396608932e-12,6.572663461e-13,7.015198624e-13,1.527482112e-12,2.491198182e-12,3.526663783e-12,5.243686109e-13,2.218309612e-12,4.217057036e-12,3.608112039e-14,3.482490136e-12,1.193022356e-14,1.464259360e-14
1.2188,6.334472696e-12,3.690388757e-12,1.512044481e-12,2.827501797e-13,6.586871272e-13,1.807807134e-12,7.720331522e-13,6.612563235e-13,1.199897167e-13,5.037381514e-13,1.653050348e-12,8.363006306e-13,1.260484410e-12,3.442162987e-13,2.147844812e-12,1.918354054e-13,2.760141768e-12,1.233550869e-12,1.449355771e-12,2.226573753e-12,6.032931785e-13,6.869605881e-13,1.485930704e-12,2.244782876e-12,3.432793596e-12,5.089312121e-13,2.165483787e-12,4.012167385e-12,3.120683984e-14,3.422949443e-12,9.219303704e-15,1.312099128e-14
1.2266,6.351795817e-12,3.782940275e-12,1.572289461e-12,2.814544907e-13,6.349239877e-13,1.769980429e-12,7.180877238e-13,6.330292486e-13,1.166503087e-13,4.683661334e-13,1.587141170e-12,8.115404654e-13,1.272863694e-12,3.271307264e-13,2.105677045e-12,1.905101133e-13,2.651146914e-12,1.217291971e-12,1.423140073e-12,2.078419759e-12,5.904092654e-13,6.891942897e-13,1.461446159e-12,1.964824587e-12,3.304581566e-12,4.947303833e-13,2.077502744e-12,3.820414625e-12,3.126150399e-14,3.364582882e-12,7.336430896e-15,1.144148456e-14
1.2344,6.410713667e-12,3.920230980e-12,1.666432733e-12,2.927695574e-13,6.246353717e-13,1.765835635e-12,6.911334927e-13,6.199526248e-13,1.144311941e-13,4.439688291e-13,1.532220855e-12,7.904424220e-13,1.290349276e-12,3.010912418e-13,2.056702032e-12,1.890919222e-13,2.571189190e-12,1.202243454e-12,1.424910028e-12,1.963442408e-12,6.204745608e-13,7.019603008e-13,1.457917979e-12,1.714063524e-12,3.177655383e-12,4.875940641e-13,1.987297244e-12,3.709565929e-12,3.971926384e-14,3.344605557e-12,6.051550962e-15,1.021008668e-14
1.2422,6.342837365e-12,3.998370285e-12,1.728939775e-12,3.037376535e-13,6.141660760e-13,1.724072038e-12,6.696383908e-13,6.052267732e-13,1.091398412e-13,4.342926723e-13,1.459794422e-12,7.459718447e-13,1.271673347e-12,2.746167230e-13,1.984254507e-12,1.808691894e-13,2.480093630e-12,1.157568725e-12,1.408394753e-12,1.893930264e-12,6.624393837e-13,6.888840016e-13,1.442777948e-12,1.496591899e-12,3.028550133e-12,4.827639314e-13,1.873527561e-12,3.562058580e-12,5.526055606e-14,3.315597146e-12,4.982435139e-15,8.809980616e-15
1.25,6.202919411e-12,4.040919297e-12,1.771316213e-12,3.228011541e-13,6.056520371e-13,1.691801570e-12,6.605638226e-13,6.026742184e-13,1.034076495e-13,4.314790047e-13,1.401415061e-12,7.030702461e-13,1.230714924e-12,2.467842442e-13,1.900111180e-12,1.677754054e-13,2.381407023e-12,1.093902501e-12,1.387056126e-12,1.837771329e-12,7.208615803e-13,6.698576837e-13,1.423105302e-12,1.338152760e-12,2.863728316e-12,4.768774577e-13,1.754311161e-12,3.467868338e-12,6.757131033e-14,3.290503068e-12,4.219702844e-15,7.960076168e-15
1.2578,6.087031933e-12,4.075073513e-12,1.809903293e-12,3.550448731e-13,6.048905889e-13,1.704878518e-12,6.752260673e-13,6.208272387e-13,9.888768175e-14,4.353877902e-13,1.371491578e-12,6.724824494e-13,1.177094062e-12,2.150168146e-13,1.814211600e-12,1.500552328e-13,2.290701331e-12,1.023575163e-12,1.375788453e-12,1.785695207e-12,8.003442286e-13,6.586600635e-13,1.417723877e-12,1.275290478e-12,2.726759205e-12,4.740384783e-13,1.661277782e-12,3.493886856e-12,8.353058882e-14,3.304604353e-12,3.972262569e-15,8.365922774e-15
1.2656,5.888237644e-12,4.014961723e-12,1.788062316e-12,3.778938535e-13,5.986362448e-13,1.685942579e-12,6.898689812e-13,6.363905666e-13,9.280480854e-14,4.489735685e-13,1.347101691e-12,6.376852895e-13,1.102909986e-12,1.971510257e-13,1.745312257e-12,1.308365974e-13,2.206801164e-12,9.503507309e-13,1.351621983e-12,1.763612026e-12,8.572126854e-13,6.325302215e-13,1.408672429e-12,1.291420525e-12,2.630182244e-12,4.750630489e-13,1.585118001e-12,3.491177407e-12,1.061825317e-13,3.324986961e-12,3.632406045e-15,8.833940378e-15
1.2734,5.669320626e-12,3.871299252e-12,1.733260872e-12,3.940594536e-13,5.862609437e-13,1.667294361e-12,7.144403855e-13,6.550823905e-13,8.656441731e-14,4.629558842e-13,1.344239131e-12,6.093645078e-13,1.024152962e-12,1.899308674e-13,1.699816176e-12,1.144315528e-13,2.123644265e-12,8.819907200e-13,1.320454307e-12,1.734989482e-12,8.958559239e-13,6.012912602e-13,1.396192230e-12,1.359195275e-12,2.565652694e-12,4.724509853e-13,1.512789726e-12,3.475285334e-12,1.175007276e-13,3.342678078e-12,3.435668120e-15,9.587303005e-15
1.2812,5.570690536e-12,3.714034292e-12,1.692552253e-12,4.132564496e-13,5.760732931e-13,1.706071507e-12,7.628237212e-13,6.876219633e-13,8.419787325e-14,4.779941475e-13,1.388244933e-12,6.084135501e-13,9.638502059e-13,1.891021735e-13,1.687250219e-12,1.044734956e-13,2.055049624e-12,8.344417912e-13,1.302468836e-12,1.688017333e-12,9.276039690e-13,5.868788391e-13,1.395575096e-12,1.467625356e-12,2.555639851e-12,4.627854902e-13,1.457125357e-12,3.520879792e-12,1.161792470e-13,3.378366058e-12,3.898319048e-15,1.131394447e-14
1.2891,5.507214981e-12,3.518029912e-12,1.643500753e-12,4.153308813e-13,5.634492228e-13,1.726058925e-12,8.093669032e-13,7.058042490e-13,8.311898762e-14,4.996081953e-13,1.447720101e-12,6.107908662e-13,9.130628931e-13,2.012045280e-13,1.714093783e-12,1.008905539e-13,1.989549049e-12,7.975602236e-13,1.274223577e-12,1.651986664e-12,9.196792331e-13,5.660588858e-13,1.393705549e-12,1.573622590e-12,2.614732015e-12,4.536352038e-13,1.419292610e-12,3.505386747e-12,1.208989464e-13,3.403270829e-12,4.819576615e-15,1.238414477e-14
1.2969,5.462637722e-12,3.281087687e-12,1.584705020e-12,3.971083360e-13,5.463641875e-13,1.722803015e-12,8.511287562e-13,7.090224134e-13,8.392253115e-14,5.240747628e-13,1.520650514e-12,6.189187548e-13,8.715185015e-13,2.206303602e-13,1.775562210e-12,1.052909887e-13,1.917509221e-12,7.667859688e-13,1.227901885e-12,1.604832034e-12,8.698030673e-13,5.346274093e-13,1.381260551e-12,1.645161265e-12,2.718848003e-12,4.418997615e-13,1.388193614e-12,3.410742672e-12,1.215788397e-13,3.397750911e-12,6.122830110e-15,1.248372412e-14
1.3047,5.528330583e-12,3.090668146e-12,1.551123808e-12,3.753317305e-13,5.352727683e-13,1.750393677e-12,8.978047313e-13,7.154074541e-13,9.005746385e-14,5.470460441e-13,1.620502279e-12,6.510336605e-13,8.498066922e-13,2.366834810e-13,1.849315389e-12,1.138312610e-13,1.828091995e-12,7.437507756e-13,1.184651497e-12,1.527687054e-12,8.116886420e-13,5.157846909e-13,1.370122527e-12,1.674507122e-12,2.856485576e-12,4.256578082e-13,1.381590437e-12,3.359206871e-12,1.076052815e-13,3.376060315e-12,8.506872317e-15,1.319263194e-14
1.3125,5.610181165e-12,2.949429708e-12,1.517329642e-12,3.485239183e-13,5.318547596e-13,1.746424456e-12,9.234684093e-13,7.080755983e-13,9.789297734e-14,5.718894092e-13,1.697334116e-12,6.806363881e-13,8.396287855e-13,2.595605613e-13,1.934369026e-12,1.253319234e-13,1.738111668e-12,7.235922814e-13,1.135533462e-12,1.456594404e-12,7.405120683e-13,4.963666517e-13,1.355020340e-12,1.658924409e-12,3.026869674e-12,4.192419203e-13,1.413833863e-12,3.289969603e-12,1.000508847e-13,3.350721215e-12,1.142588606e-14,1.363883415e-14
1.3203,5.632774328e-12,2.840619437e-12,1.455273661e-12,3.125203155e-13,5.305803162e-13,1.678280800e-12,9.216876824e-13,6.821227985e-13,1.056609633e-13,6.002139066e-13,1.736283358e-12,7.015988647e-13,8.350589844e-13,2.901713211e-13,2.019896836e-12,1.394921820e-13,1.658026588e-12,7.056139000e-13,1.075051572e-12,1.400466445e-12,6.520023571e-13,4.682935889e-13,1.329097982e-12,1.606382985e-12,3.209412847e-12,4.247843392e-13,1.479690832e-12,3.168441430e-12,1.018119584e-13,3.314633309e-12,1.392498548e-14,1.244274315e-14
1.3281,5.691879939e-12,2.816119789e-12,1.407086118e-12,2.875630679e-13,5.378181468e-13,1.618390752e-12,9.185739750e-13,6.619574294e-13,1.148864246e-13,6.161600739e-13,1.751328704e-12,7.299620396e-13,8.459097543e-13,3.104678675e-13,2.066514124e-12,1.530823441e-13,1.597211220e-12,6.983175455e-13,1.035693152e-12,1.347654155e-12,5.906715085e-13,4.598392416e-13,1.312073494e-12,1.555104081e-12,3.368000556e-12,4.361773726e-13,1.574398967e-12,3.134430858e-12,1.011545427e-13,3.301179518e-12,1.661426843e-14,1.086703453e-14
1.3359,5.741711875e-12,2.864275612e-12,1.369840869e-12,2.772014372e-13,5.525104536e-13,1.558458645e-12,9.136653483e-13,6.440745920e-13,1.211110519e-13,6.261481713e-13,1.718541320e-12,7.446434425e-13,8.581553581e-13,3.253399208e-13,2.064001740e-12,1.610959875e-13,1.557540635e-12,6.913669072e-13,1.005751941e-12,1.317159495e-12,5.498186850e-13,4.601573028e-13,1.298221402e-12,1.520038994e-12,3.500891281e-12,4.584443505e-13,1.691659700e-12,3.154467237e-12,1.098479282e-13,3.323836081e-12,1.956534448e-14,9.806382467e-15
1.3438,5.676354380e-12,2.930107984e-12,1.324703521e-12,2.720747329e-13,5.630027440e-13,1.452010001e-12,8.992664021e-13,6.152044359e-13,1.198812389e-13,6.333360782e-13,1.625654041e-12,7.262935512e-13,8.633928155e-13,3.427412003e-13,2.021758167e-12,1.652416990e-13,1.549462438e-12,6.826947512e-13,9.774431428e-13,1.329119439e-12,5.211413493e-13,4.547124490e-13,1.281882351e-12,1.499509273e-12,3.599663211e-12,4.887742871e-13,1.808220558e-12,3.147519530e-12,1.303713857e-13,3.360536248e-12,2.134578634e-14,8.006797860e-15
1.3516,5.605838150e-12,3.029021836e-12,1.315615538e-12,2.788950413e-13,5.682521089e-13,1.364679092e-12,9.023418395e-13,5.926632462e-13,1.138912994e-13,6.229482429e-13,1.502085695e-12,6.927690031e-13,8.550923624e-13,3.346173182e-13,1.902520816e-12,1.597620967e-13,1.539831066e-12,6.633396160e-13,9.554446193e-13,1.340029186e-12,5.188851595e-13,4.562958770e-13,1.266864651e-12,1.491831107e-12,3.630378263e-12,5.077015800e-13,1.886665976e-12,3.195110443e-12,1.391948172e-13,3.400698638e-12,2.147438528e-14,5.690317658e-15
1.3594,5.535823202e-12,3.132781272e-12,1.344738508e-12,2.909725581e-13,5.667026390e-13,1.306683464e-12,9.237774464e-13,5.759306755e-13,1.049582437e-13,5.994477487e-13,1.371277568e-12,6.502826215e-13,8.393083010e-13,3.059603516e-13,1.730753502e-12,1.466184114e-13,1.534391628e-12,6.390404486e-13,9.422214333e-13,1.361885488e-12,5.365291884e-13,4.608046051e-13,1.257090669e-12,1.473226377e-12,3.611142934e-12,5.164178287e-13,1.929147132e-12,3.264956633e-12,1.429939363e-13,3.431291784e-12,2.082266345e-14,4.062712181e-15
1.3672,5.362584055e-12,3.177480341e-12,1.383714110e-12,2.928341426e-13,5.515862139e-13,1.218650221e-12,9.353997301e-13,5.460376881e-13,9.009104228e-14,5.699892547e-13,1.216838315e-12,5.752941832e-13,8.049971054e-13,2.713645830e-13,1.536930220e-12,1.278054004e-13,1.527502413e-12,6.061493400e-13,9.234659117e-13,1.417287530e-12,5.572322897e-13,4.468334733e-13,1.249846332e-12,1.441990340e-12,3.575816340e-12,5.230383966e-13,1.948058305e-12,3.261125494e-12,1.563527261e-13,3.430162928e-12,2.003740666e-14,3.007600021e-15
1.375,5.165739334e-12,3.176729504e-12,1.436490358e-12,2.872871322e-13,5.242097262e-13,1.130892906e-12,9.468187165e-13,5.139378038e-13,7.429372315e-14,5.280341340e-13,1.072892951e-12,4.965237453e-13,7.721484542e-13,2.318727049e-13,1.348748597e-12,1.114940984e-13,1.527217034e-12,5.831463280e-13,9.156348976e-13,1.465285366e-12,5.890448794e-13,4.325715282e-13,1.244947720e-12,1.392542853e-12,3.488107606e-12,5.127072631e-13,1.925717142e-12,3.226282258e-12,1.547390979e-13,3.376030881e-12,1.808784287e-14,2.263757927e-15
1.3828,4.990168297e-12,3.144226293e-12,1.493708980e-12,2.788824619e-13,4.920256147e-13,1.064021787e-12,9.473985317e-13,4.868209782e-13,6.249943287e-14,4.695119921e-13,9.586147083e-13,4.362787360e-13,7.549840014e-13,1.871550111e-13,1.183196614e-12,1.018149057e-13,1.540117555e-12,5.798351501e-13,9.254399992e-13,1.510297021e-12,6.292842675e-13,4.266013280e-13,1.240676526e-12,1.347388667e-12,3.338841463e-12,4.871140922e-13,1.880875513e-12,3.198317246e-12,1.358008258e-13,3.281374675e-12,1.541182172e-14,1.965130159e-15
1.3906,4.737012428e-12,3.039400290e-12,1.522815667e-12,2.608948572e-13,4.589098626e-13,9.838797748e-13,9.228275676e-13,4.543369890e-13,5.393674910e-14,4.159645127e-13,8.626709461e-13,3.851689501e-13,7.548022248e-13,1.548632510e-13,1.079723408e-12,1.034509929e-13,1.594112582e-12,6.021450172e-13,9.423841746e-13,1.601811378e-12,6.561473910e-13,4.139413032e-13,1.231385005e-12,1.366171898e-12,3.166395421e-12,4.629412289e-13,1.840945429e-12,3.064754750e-12,1.205660446e-13,3.101003706e-12,1.293603242e-14,1.672481106e-15
1.3984,4.496496250e-12,2.920722631e-12,1.514695282e-12,2.428222171e-13,4.302014401e-13,9.041517419e-13,8.686087467e-13,4.226741814e-13,4.939426509e-14,3.663185679e-13,7.851997623e-13,3.528073222e-13,7.736990438e-13,1.356659411e-13,1.031797246e-12,1.160216295e-13,1.676770470e-12,6.477808844e-13,9.693744602e-13,1.704770601e-12,6.783893295e-13,4.066978174e-13,1.215147366e-12,1.485041285e-12,2.972041467e-12,4.398034350e-13,1.821939763e-12,2.924928845e-12,1.120358893e-13,2.910947077e-12,1.165949918e-14,1.489438450e-15
1.4062,4.371939583e-12,2.829518485e-12,1.486360728e-12,2.371070684e-13,4.119115207e-13,8.682556121e-13,7.991986252e-13,4.049220209e-13,4.979859873e-14,3.172872578e-13,7.373186446e-13,3.489564649e-13,8.095793400e-13,1.203739385e-13,1.020375113e-12,1.360875041e-13,1.770061193e-12,7.061659684e-13,1.003264462e-12,1.802945305e-12,6.960607126e-13,4.154158456e-13,1.183868216e-12,1.730210632e-12,2.733005384e-12,4.130610755e-13,1.819493135e-12,2.867500909e-12,1.018788348e-13,2.763562852e-12,1.182673880e-14,1.698277427e-15
1.4141,4.271873241e-12,2.743210766e-12,1.443196479e-12,2.371812226e-13,4.035185266e-13,8.540481382e-13,7.223976804e-13,3.933642094e-13,5.223176886e-14,2.899539807e-13,7.104687191e-13,3.602725162e-13,8.460007696e-13,1.157898377e-13,1.052055102e-12,1.592155810e-13,1.874274284e-12,7.608045699e-13,1.024947766e-12,1.948306400e-12,6.944029535e-13,4.195912935e-13,1.137893850e-12,2.103829308e-12,2.506494167e-12,3.957409821e-13,1.841187881e-12,2.809115942e-12,1.012409360e-13,2.600443496e-12,1.384489264e-14,1.839689577e-15
1.4219,4.255324299e-12,2.684843297e-12,1.389787262e-12,2.431157075e-13,4.019819125e-13,8.564847930e-13,6.414722548e-13,3.868543908e-13,5.543984316e-14,2.822844623e-13,6.962948801e-13,3.798703696e-13,8.687095988e-13,1.168330252e-13,1.098698784e-12,1.787431205e-13,1.955490175e-12,7.973139386e-13,1.030209760e-12,2.095288535e-12,6.794293230e-13,4.202259921e-13,1.083305428e-12,2.554874864e-12,2.319934210e-12,3.885881889e-13,1.884033889e-12,2.789048115e-12,1.139556631e-13,2.491840681e-12,1.847515928e-14,1.947785188e-15
1.4297,4.353211948e-12,2.660932280e-12,1.345914041e-12,2.555910096e-13,4.020018635e-13,8.963011063e-13,5.761259933e-13,3.923232719e-13,5.991107616e-14,2.872456241e-13,7.101021528e-13,4.143731426e-13,8.772500795e-13,1.148923784e-13,1.139585523e-12,1.918955103e-13,1.981888082e-12,8.095721618e-13,1.028619667e-12,2.193000184e-12,6.674209466e-13,4.304552167e-13,1.026048124e-12,3.000689745e-12,2.159167039e-12,3.807004532e-13,1.914170800e-12,2.878461757e-12,1.259532137e-13,2.457251089e-12,2.554707921e-14,2.508186143e-15
1.4375,4.457294505e-12,2.628290510e-12,1.321509453e-12,2.628552811e-13,3.990174930e-13,9.375125511e-13,5.325497825e-13,3.992606596e-13,6.356552717e-14,3.092778294e-13,7.417627896e-13,4.456325214e-13,8.679836419e-13,1.178094835e-13,1.183813918e-12,1.962308879e-13,1.963077091e-12,7.941831377e-13,1.016226958e-12,2.283552087e-12,6.531057388e-13,4.348822023e-13,9.749919587e-13,3.381626166e-12,2.036745192e-12,3.763546909e-13,1.919272503e-12,2.950019017e-12,1.416570374e-13,2.416947528e-12,3.448733361e-14,2.958157995e-15
1.4453,4.527427846e-12,2.563455005e-12,1.306864791e-12,2.563994324e-13,3.886953344e-13,9.541605427e-13,5.059227158e-13,4.015414600e-13,6.567322725e-14,3.402241129e-13,7.802412053e-13,4.650573707e-13,8.329839505e-13,1.257088539e-13,1.223649656e-12,1.913370480e-13,1.893417051e-12,7.497936300e-13,9.889048357e-13,2.344324775e-12,6.333343886e-13,4.262526654e-13,9.316097702e-13,3.611086003e-12,1.953955549e-12,3.744584207e-13,1.891461566e-12,2.945825353e-12,1.616422347e-13,2.373304535e-12,4.530547214e-14,3.189620784e-15
1.4531,4.540628270e-12,2.458837238e-12,1.288206642e-12,2.394304859e-13,3.668644112e-13,9.652042440e-13,4.948034342e-13,4.057020549e-13,6.893001554e-14,3.620061188e-13,8.351518105e-13,4.908942936e-13,7.948127965e-13,1.353023361e-13,1.251874071e-12,1.858859421e-13,1.782299054e-12,7.001212957e-13,9.691396787e-13,2.308389467e-12,6.227291960e-13,4.256206399e-13,8.959981403e-13,3.610975194e-12,1.853154774e-12,3.590433144e-13,1.791526759e-12,2.916658566e-12,1.620239761e-13,2.317997802e-12,5.545063974e-14,3.757184161e-15
1.4609,4.452647190e-12,2.311762259e-12,1.268033055e-12,2.142456577e-13,3.404672252e-13,9.617230359e-13,4.946416244e-13,4.076125113e-13,7.161598876e-14,3.764075874e-13,8.865310398e-13,5.062708920e-13,7.543227866e-13,1.458358980e-13,1.267788536e-12,1.789809670e-13,1.649495152e-12,6.469654933e-13,9.512219503e-13,2.226229988e-12,6.167358215e-13,4.229422903e-13,8.693963485e-13,3.412617657e-12,1.738997543e-12,3.361967779e-13,1.643152966e-12,2.810751900e-12,1.462099056e-13,2.205781840e-12,6.241831749e-14,4.198477157e-15
1.4688,4.223991158e-12,2.124986443e-12,1.221954484e-12,1.796990491e-13,3.137237203e-13,9.240889113e-13,4.932253446e-13,4.017643053e-13,7.179156264e-14,3.844016578e-13,9.059857027e-13,4.979302201e-13,7.052949522e-13,1.577545033e-13,1.259875825e-12,1.644143347e-13,1.511961208e-12,5.902572170e-13,9.268652569e-13,2.131761920e-12,6.065755946e-13,4.081002783e-13,8.494032282e-13,3.058307321e-12,1.626138569e-12,3.124276494e-13,1.467507586e-12,2.563106143e-12,1.320219483e-13,2.036152580e-12,6.685030377e-14,3.993269357e-15
1.4766,3.917898206e-12,1.921118504e-12,1.140393867e-12,1.453903577e-13,2.874626401e-13,8.901803636e-13,4.863085296e-13,3.985922147e-13,7.189321365e-14,3.757790850e-13,9.085142932e-13,4.899625513e-13,6.624377748e-13,1.641053658e-13,1.223121324e-12,1.501263691e-13,1.373617470e-12,5.431286710e-13,9.059762519e-13,1.974718407e-12,6.005911552e-13,3.964932621e-13,8.288225463e-13,2.583885643e-12,1.500708293e-12,2.799285584e-13,1.273226000e-12,2.294592773e-12,1.125134108e-13,1.847928206e-12,6.941760023e-14,3.959040150e-15
1.4844,3.587185861e-12,1.731620436e-12,1.038321575e-12,1.194852093e-13,2.686344283e-13,8.813240128e-13,4.802339057e-13,4.015141531e-13,7.123064332e-14,3.584069328e-13,8.872239506e-13,4.792570559e-13,6.246123332e-13,1.599693698e-13,1.152252950e-12,1.354591924e-13,1.239676801e-12,5.011882797e-13,8.813519176e-13,1.779601004e-12,5.971385732e-13,3.863426047e-13,8.089052473e-13,2.066627349e-12,1.382810036e-12,2.434906211e-13,1.079479014e-12,2.048765918e-12,8.182499305e-14,1.648143606e-12,6.739231724e-14,4.260911451e-15
1.4922,3.246657323e-12,1.578557451e-12,9.171802196e-13,1.044859255e-13,2.608437845e-13,8.816952068e-13,4.686793729e-13,4.028458428e-13,6.716861050e-14,3.456068812e-13,8.265416798e-13,4.503023955e-13,5.851043423e-13,1.499327922e-13,1.055935138e-12,1.139060163e-13,1.124009920e-12,4.593223349e-13,8.457764464e-13,1.615608518e-12,5.869308444e-13,3.654866057e-13,7.947848225e-13,1.603925595e-12,1.317667985e-12,2.163744377e-13,9.237698048e-13,1.801026201e-12,5.537464360e-14,1.448934160e-12,6.109292804e-14,4.226543225e-15
1.5,2.956265253e-12,1.464418858e-12,7.822520985e-13,1.003273483e-13,2.586449461e-13,9.067093955e-13,4.547060399e-13,4.078398058e-13,6.260582977e-14,3.333190413e-13,7.525062711e-13,4.242900464e-13,5.533834086e-13,1.356119391e-13,9.511740468e-13,9.074831540e-14,1.025802124e-12,4.250059852e-13,8.053610001e-13,1.448016411e-12,5.695329535e-13,3.460916936e-13,7.794745676e-13,1.229688673e-12,1.289138945e-12,1.944276980e-13,8.022957088e-13,1.600027565e-12,4.001877308e-14,1.284993668e-12,5.444239740e-14,4.341698480e-15
1.5078,2.764499424e-12,1.400723164e-12,6.552050026e-13,1.067167623e-13,2.623810900e-13,9.620330950e-13,4.452057762e-13,4.171183827e-13,5.844149876e-14,3.219305277e-13,6.818455414e-13,4.065040208e-13,5.307453146e-13,1.136247769e-13,8.410606941e-13,6.974062917e-14,9.389122676e-13,3.966627792e-13,7.640250795e-13,1.267333457e-12,5.484564453e-13,3.332341618e-13,7.661186171e-13,9.499160237e-13,1.291798412e-12,1.762913881e-13,7.079971820e-13,1.468607417e-12,3.026341988e-14,1.157009054e-12,4.811063852e-14,4.912634194e-15
1.5156,2.640485688e-12,1.383503491e-12,5.510844888e-13,1.197972614e-13,2.728925106e-13,1.009752208e-12,4.313845587e-13,4.187678140e-13,5.338454250e-14,3.166978784e-13,6.062960301e-13,3.812719806e-13,5.137098114e-13,9.244997678e-14,7.480708063e-13,5.039713285e-14,8.730957742e-13,3.708954744e-13,7.176195362e-13,1.132563062e-12,5.103487186e-13,3.164471455e-13,7.576050926e-13,7.817201163e-13,1.337515032e-12,1.707463126e-13,6.559973268e-13,1.346888693e-12,2.595330676e-14,1.056647710e-12,4.067376098e-14,5.142602553e-15
1.5234,2.590318452e-12,1.396009174e-12,4.733388112e-13,1.349891007e-13,2.835831025e-13,1.040011411e-12,4.113739033e-13,4.113467801e-13,4.806397510e-14,3.101519014e-13,5.386289018e-13,3.545181407e-13,5.022116034e-13,7.555008927e-14,6.775273281e-13,3.461803230e-14,8.245403454e-13,3.506638285e-13,6.704278112e-13,1.029125097e-12,4.575212590e-13,3.001637266e-13,7.482139190e-13,6.962956779e-13,1.395765408e-12,1.724743884e-13,6.333737625e-13,1.241666549e-12,2.800330973e-14,1.002321388e-12,3.362053202e-14,4.977264424e-15
1.5312,2.615424461e-12,1.436155594e-12,4.364859265e-13,1.529879527e-13,2.935169657e-13,1.061301033e-12,3.909467716e-13,4.002779885e-13,4.431679034e-14,2.979406442e-13,4.959543187e-13,3.374222694e-13,5.001210685e-13,5.987261047e-14,6.272257425e-13,2.444599201e-14,7.954286600e-13,3.407736691e-13,6.371321749e-13,9.536959898e-13,4.087243188e-13,2.950248521e-13,7.431129693e-13,6.836847904e-13,1.459762054e-12,1.782265658e-13,6.369285178e-13,1.193139922e-12,3.683313712e-14,9.869914321e-13,2.818575184e-14,4.991779747e-15
1.5391,2.648601333e-12,1.489719977e-12,4.422709345e-13,1.696899452e-13,3.044933340e-13,1.049476453e-12,3.699693908e-13,3.818036947e-13,4.084904820e-14,2.859058532e-13,4.654357504e-13,3.160258336e-13,4.994201035e-13,4.817088345e-14,5.975723440e-13,1.973041414e-14,7.908371004e-13,3.369735781e-13,6.119763815e-13,9.392242933e-13,3.634081097e-13,2.897651557e-13,7.437826960e-13,7.305416391e-13,1.545932296e-12,1.931769302e-13,6.759060320e-13,1.161226072e-12,5.098958337e-14,9.891812675e-13,2.362769789e-14,4.810142160e-15
1.5469,2.677209568e-12,1.542203887e-12,4.787656911e-13,1.857860057e-13,3.131072267e-13,1.005327358e-12,3.495654588e-13,3.581456491e-13,3.777531972e-14,2.751384095e-13,4.462193051e-13,2.925903673e-13,4.993378907e-13,4.172685217e-14,5.839321113e-13,1.983786494e-14,8.106165887e-13,3.395328977e-13,5.956598668e-13,9.679382201e-13,3.229459634e-13,2.853650297e-13,7.442562754e-13,8.043899089e-13,1.639982987e-12,2.109749601e-13,7.385208346e-13,1.153709393e-12,6.389828532e-14,1.015583402e-12,1.880548184e-14,3.978229042e-15
1.5547,2.709588712e-12,1.584673770e-12,5.439419385e-13,2.025135676e-13,3.156262751e-13,9.561304426e-13,3.390700142e-13,3.378821592e-13,3.661947236e-14,2.627989453e-13,4.431265271e-13,2.781380082e-13,4.976097014e-13,3.655178336e-14,5.688211249e-13,2.327851234e-14,8.407911004e-13,3.453612756e-13,5.899100100e-13,1.010987476e-12,3.005089256e-13,2.889856260e-13,7.411299280e-13,8.968892950e-13,1.732197459e-12,2.235020949e-13,8.053397729e-13,1.197372587e-12,7.264152931e-14,1.051914060e-12,1.473562089e-14,3.128235593e-15
1.5625,2.696514118e-12,1.613799300e-12,6.228795592e-13,2.180995992e-13,3.153800443e-13,9.093502604e-13,3.412812182e-13,3.241805627e-13,3.722879793e-14,2.554306517e-13,4.432704246e-13,2.674010274e-13,4.943393175e-13,3.397744538e-14,5.554669863e-13,2.831592940e-14,8.871769076e-13,3.558600183e-13,5.914358194e-13,1.079722610e-12,2.913845021e-13,2.925434339e-13,7.385581405e-13,9.966923716e-13,1.842360144e-12,2.364354932e-13,8.787369448e-13,1.243891662e-12,8.231881414e-14,1.068906359e-12,1.196895069e-14,2.617556674e-15
1.5703,2.639450067e-12,1.616532040e-12,6.944019729e-13,2.285234762e-13,3.112660796e-13,8.582200467e-13,3.506190677e-13,3.134213202e-13,3.919318092e-14,2.541742847e-13,4.388261843e-13,2.568255961e-13,4.882046113e-13,3.479032520e-14,5.425676628e-13,3.399262761e-14,9.338136025e-13,3.656819184e-13,5.924751358e-13,1.152800721e-12,2.882568975e-13,2.915842692e-13,7.327372440e-13,1.095673481e-12,1.965843195e-12,2.475256397e-13,9.458471388e-13,1.282427201e-12,8.880337383e-14,1.081270369e-12,9.642037203e-15,2.095351522e-15
1.5781,2.555114421e-12,1.585833518e-12,7.450304846e-13,2.322490574e-13,2.980513806e-13,8.181516245e-13,3.645520215e-13,3.070041139e-13,4.280026336e-14,2.490984414e-13,4.318379362e-13,2.531568821e-13,4.764051369e-13,3.647296306e-14,5.164994161e-13,3.891326208e-14,9.542551719e-13,3.692973113e-13,5.870072940e-13,1.173875169e-12,2.880893283e-13,2.908076406e-13,7.143359519e-13,1.161321040e-12,2.060128379e-12,2.451629488e-13,9.698867114e-13,1.307103773e-12,8.267416856e-14,1.075556173e-12,7.985195434e-15,1.679122750e-15
1.5859,2.451111643e-12,1.544157184e-12,7.798029046e-13,2.299966797e-13,2.821163176e-13,7.918705814e-13,3.775674476e-13,3.030760638e-13,4.703580713e-14,2.409851870e-13,4.169122630e-13,2.513701651e-13,4.627613935e-13,3.947558600e-14,4.851583037e-13,4.285891248e-14,9.493597722e-13,3.678994696e-13,5.750413679e-13,1.164962162e-12,2.862349137e-13,2.856571463e-13,6.957492398e-13,1.210946949e-12,2.151480964e-12,2.400698437e-13,9.742684860e-13,1.309946227e-12,7.327067434e-14,1.054210577e-12,7.144885858e-15,1.554885763e-15
1.5938,2.307425810e-12,1.487352313e-12,7.961912611e-13,2.188732283e-13,2.655372588e-13,7.698023549e-13,3.825591292e-13,2.959791148e-13,5.010737304e-14,2.335276779e-13,3.933664243e-13,2.435783930e-13,4.457528495e-13,4.492685700e-14,4.583692872e-13,4.525439233e-14,9.175871076e-13,3.574139948e-13,5.501073794e-13,1.135354518e-12,2.754756389e-13,2.684362132e-13,6.768710565e-13,1.241665036e-12,2.237885035e-12,2.350428827e-13,9.599288917e-13,1.260267142e-12,6.382478141e-14,1.011109689e-12,7.207344297e-15,1.683350549e-15
1.6016,2.171721406e-12,1.428423222e-12,7.787042338e-13,2.005409457e-13,2.457106194e-13,7.474525234e-13,3.690896764e-13,2.830457125e-13,5.152689610e-14,2.150392653e-13,3.645183545e-13,2.345693429e-13,4.256020469e-13,4.919646822e-14,4.249129091e-13,4.683201123e-14,8.468513989e-13,3.397586240e-13,5.170711574e-13,1.052858849e-12,2.612273687e-13,2.493242414e-13,6.589935549e-13,1.235034884e-12,2.291985360e-12,2.259875153e-13,9.258657048e-13,1.206346216e-12,5.331159090e-14,9.846434442e-13,7.586436344e-15,2.007618839e-15
1.6094,2.074394545e-12,1.397687586e-12,7.522590884e-13,1.821902343e-13,2.277183696e-13,7.357398444e-13,3.430657942e-13,2.681394006e-13,5.137328873e-14,1.891681070e-13,3.413559158e-13,2.259738566e-13,4.077706991e-13,5.432649387e-14,3.991271864e-13,4.976819302e-14,7.627244416e-13,3.217155589e-13,4.849673687e-13,9.465876759e-13,2.498834723e-13,2.328785193e-13,6.525961345e-13,1.208497987e-12,2.330446465e-12,2.179909833e-13,8.931877062e-13,1.172351480e-12,4.375521877e-14,9.803428984e-13,7.619967770e-15,2.354521873e-15
1.6172,1.961899293e-12,1.379803660e-12,7.233237663e-13,1.654904954e-13,2.154706378e-13,7.300674559e-13,3.117221249e-13,2.522518357e-13,4.917685583e-14,1.684915627e-13,3.292609550e-13,2.166517260e-13,3.966459992e-13,6.279173150e-14,3.966150554e-13,5.549291632e-14,6.962263516e-13,3.096222112e-13,4.579078197e-13,8.561474707e-13,2.412881689e-13,2.158948403e-13,6.604113257e-13,1.164548521e-12,2.352227861e-12,2.161099235e-13,8.705349702e-13,1.116289019e-12,3.662236989e-14,9.484458061e-13,7.657726684e-15,2.580951111e-15
1.625,1.864441994e-12,1.365404101e-12,6.790113033e-13,1.489686404e-13,2.040671166e-13,7.171108814e-13,2.735958357e-13,2.341198199e-13,4.600637279e-14,1.482042688e-13,3.281220080e-13,2.106038509e-13,3.917139679e-13,7.109668955e-14,4.096550410e-13,6.498792135e-14,6.509069635e-13,3.083790200e-13,4.439260216e-13,7.744047469e-13,2.412818023e-13,2.081702771e-13,6.778769994e-13,1.090624787e-12,2.325053131e-12,2.137789563e-13,8.482727135e-13,1.067370098e-12,3.311770917e-14,9.272355027e-13,7.831469362e-15,2.721605887e-15
1.6328,1.786768718e-12,1.357668509e-12,6.199399239e-13,1.359721682e-13,1.963755961e-13,7.007627034e-13,2.337030481e-13,2.189574407e-13,4.302146364e-14,1.279039930e-13,3.386004395e-13,2.112765781e-13,3.950844772e-13,7.961502391e-14,4.407766668e-13,7.823606249e-14,6.387379037e-13,3.214785791e-13,4.476801907e-13,7.076260433e-13,2.536588505e-13,2.124015591e-13,7.078185416e-13,9.848281214e-13,2.244256149e-12,2.138364351e-13,8.338688414e-13,1.042289892e-12,3.244992866e-14,9.165186117e-13,8.135024943e-15,2.849284668e-15
1.6406,1.703552009e-12,1.339866281e-12,5.581416534e-13,1.253040330e-13,1.949197427e-13,6.715614413e-13,2.013566311e-13,2.067702264e-13,4.110388557e-14,1.153857822e-13,3.557146359e-13,2.181395152e-13,4.097114917e-13,9.024649281e-14,4.931235870e-13,9.278923791e-14,6.676183458e-13,3.481266066e-13,4.687491610e-13,6.833172743e-13,2.749273148e-13,2.237266756e-13,7.485836198e-13,8.688010682e-13,2.117669186e-12,2.197532810e-13,8.294700709e-13,1.000109860e-12,3.467544960e-14,8.801418666e-13,9.008716766e-15,2.658556555e-15
1.6484,1.603805295e-12,1.281343671e-12,4.917053945e-13,1.117239992e-13,1.936124895e-13,6.199985888e-13,1.774648811e-13,1.950523872e-13,3.996145538e-14,1.080776084e-13,3.734458502e-13,2.280925281e-13,4.255537160e-13,9.869536937e-14,5.483860766e-13,1.063101118e-13,7.137012547e-13,3.793905332e-13,4.958890675e-13,6.830580022e-13,2.986835954e-13,2.376704823e-13,7.767224856e-13,7.441216107e-13,1.928910344e-12,2.212393807e-13,8.063466365e-13,9.290709089e-13,3.801335374e-14,8.226819124e-13,1.141065822e-14,2.249095986e-15
1.6562,1.518572246e-12,1.192094860e-12,4.205299399e-13,9.578576998e-14,1.920444938e-13,5.471687084e-13,1.628744151e-13,1.848882011e-13,3.981846016e-14,1.029245379e-13,3.881971390e-13,2.416712913e-13,4.399293075e-13,1.030434448e-13,5.990799622e-13,1.174541234e-13,7.648129118e-13,4.111325217e-13,5.236970421e-13,6.895696801e-13,3.221120527e-13,2.516718945e-13,7.878574257e-13,6.039544033e-13,1.677844484e-12,2.174022219e-13,7.613431977e-13,8.539222727e-13,4.276342555e-14,7.810875442e-13,1.514725596e-14,1.946811592e-15
1.6641,1.481312738e-12,1.104782878e-12,3.736670979e-13,8.201578355e-14,1.946134727e-13,4.694364410e-13,1.643162157e-13,1.763684571e-13,3.976785254e-14,1.031466809e-13,3.949709884e-13,2.523593299e-13,4.504065390e-13,1.043235844e-13,6.424491885e-13,1.219026624e-13,8.171338329e-13,4.341734666e-13,5.457373913e-13,7.209582930e-13,3.445384170e-13,2.585342030e-13,7.880072736e-13,4.826822830e-13,1.426859370e-12,2.155631321e-13,7.156980848e-13,7.811548227e-13,5.202336189e-14,7.702886678e-13,1.946110891e-14,1.732247250e-15
1.6719,1.486552975e-12,1.019205127e-12,3.605595030e-13,7.067025222e-14,1.972251259e-13,3.936714593e-13,1.806639448e-13,1.680653798e-13,3.869320370e-14,1.075181022e-13,3.916670026e-13,2.549477466e-13,4.488258990e-13,1.007270512e-13,6.638465580e-13,1.188387691e-13,8.430819237e-13,4.398939500e-13,5.513962706e-13,7.523129959e-13,3.596825483e-13,2.539349689e-13,7.673458524e-13,3.900919952e-13,1.206636982e-12,2.093937879e-13,6.605816612e-13,7.097370209e-13,6.749424504e-14,7.896129596e-13,2.432034498e-14,1.569202784e-15
1.6797,1.562532923e-12,9.512187579e-13,3.880925853e-13,6.381168307e-14,1.963122566e-13,3.328844363e-13,2.120235709e-13,1.615497630e-13,3.681586015e-14,1.150883965e-13,3.864437126e-13,2.558416186e-13,4.384258760e-13,9.497222980e-14,6.663332568e-13,1.114846001e-13,8.434799024e-13,4.344536592e-13,5.461553791e-13,7.717106303e-13,3.736702127e-13,2.428664249e-13,7.276472746e-13,3.188448078e-13,1.036801186e-12,1.957324577e-13,5.947914743e-13,6.841682891e-13,9.013990379e-14,8.756355905e-13,2.942077558e-14,1.734792188e-15
1.6875,1.723733103e-12,9.376700570e-13,4.607470443e-13,6.358222893e-14,1.986072558e-13,3.007554995e-13,2.563687037e-13,1.579108286e-13,3.424725466e-14,1.251036258e-13,3.772246753e-13,2.513295868e-13,4.239535550e-13,8.666236183e-14,6.550916009e-13,9.741030554e-14,8.303771162e-13,4.167043759e-13,5.386752771e-13,8.021587986e-13,3.963780498e-13,2.319113646e-13,6.986873889e-13,2.852608573e-13,9.642375180e-13,1.872323230e-13,5.518789135e-13,7.312270670e-13,1.181084883e-13,1.033747758e-12,3.283827310e-14,2.079150115e-15
1.6953,1.930370828e-12,9.653299565e-13,5.615743143e-13,6.773862932e-14,2.024612373e-13,2.978130142e-13,3.075758081e-13,1.563912478e-13,3.075038552e-14,1.384483132e-13,3.674608057e-13,2.416232619e-13,4.063004182e-13,7.884509197e-14,6.350522705e-13,8.066064794e-14,8.090882901e-13,3.914285393e-13,5.309097920e-13,8.424112525e-13,4.264635849e-13,2.218961879e-13,6.814970094e-13,2.858108501e-13,9.836723755e-13,1.828559131e-13,5.312388210e-13,8.401181625e-13,1.470267223e-13,1.225265971e-12,3.400045116e-14,2.543761234e-15
1.7031,2.139985076e-12,1.007552810e-12,6.661140412e-13,7.234486028e-14,2.028340774e-13,3.187939755e-13,3.532707516e-13,1.567989929e-13,2.745439702e-14,1.507910028e-13,3.604201357e-13,2.350360887e-13,3.929783542e-13,7.590551525e-14,6.143308835e-13,6.722318348e-14,7.843105526e-13,3.718577544e-13,5.311489491e-13,8.788314488e-13,4.628700057e-13,2.200763402e-13,6.789933617e-13,3.071877002e-13,1.078404467e-12,1.800427045e-13,5.290957115e-13,1.009439261e-12,1.771095446e-13,1.433340696e-12,3.415440204e-14,3.083280700e-15
1.7109,2.343384974e-12,1.072775620e-12,7.604464078e-13,7.723362920e-14,2.059024141e-13,3.590847091e-13,3.893735144e-13,1.603271225e-13,2.499164972e-14,1.613369498e-13,3.560946846e-13,2.325247504e-13,3.865137097e-13,7.575960880e-14,5.971109170e-13,5.642425055e-14,7.674309784e-13,3.577387698e-13,5.406113964e-13,9.198338852e-13,5.027175693e-13,2.278501449e-13,6.971702422e-13,3.434207849e-13,1.223052105e-12,1.852944203e-13,5.568947931e-13,1.210302986e-12,2.018868848e-13,1.635180819e-12,3.261965798e-14,3.681877804e-15
1.7188,2.475334941e-12,1.133059418e-12,8.211145061e-13,8.103761671e-14,2.123498892e-13,4.107690111e-13,4.069154037e-13,1.671864909e-13,2.309016851e-14,1.700442073e-13,3.454384407e-13,2.301635218e-13,3.837868492e-13,7.759134415e-14,5.808323439e-13,4.709003244e-14,7.552360154e-13,3.462841693e-13,5.528274742e-13,9.655743409e-13,5.329724133e-13,2.394449631e-13,7.273800145e-13,3.786840510e-13,1.385627268e-12,1.958096228e-13,6.038817966e-13,1.384159271e-12,2.137102790e-13,1.760248131e-12,2.939969305e-14,4.082819134e-15
1.7266,2.495798435e-12,1.154082714e-12,8.271323664e-13,8.136125864e-14,2.154812207e-13,4.566501720e-13,3.974389530e-13,1.756419502e-13,2.156480692e-14,1.754407874e-13,3.326070153e-13,2.300703671e-13,3.807666263e-13,8.180204320e-14,5.662299904e-13,4.166527839e-14,7.399663717e-13,3.378973229e-13,5.567371345e-13,9.884563406e-13,5.380286420e-13,2.494537508e-13,7.506545154e-13,3.912085301e-13,1.517536217e-12,2.045697245e-13,6.518256181e-13,1.498957716e-12,2.119765667e-13,1.793704392e-12,2.539155811e-14,4.320126105e-15
1.7344,2.442127259e-12,1.159511686e-12,7.926670084e-13,8.260657626e-14,2.186464021e-13,5.012185758e-13,3.685886129e-13,1.875107299e-13,2.047853428e-14,1.767283007e-13,3.161337046e-13,2.306122832e-13,3.756647328e-13,8.302245334e-14,5.494432845e-13,3.843086280e-14,7.224420947e-13,3.274273124e-13,5.510585887e-13,9.892932257e-13,5.193298782e-13,2.552715062e-13,7.677360955e-13,3.856679815e-13,1.616462108e-12,2.132464349e-13,7.059253803e-13,1.550712211e-12,1.996574608e-13,1.763578423e-12,2.155531930e-14,4.331697980e-15
1.7422,2.315234062e-12,1.152392600e-12,7.400234429e-13,8.446538309e-14,2.212640183e-13,5.357360127e-13,3.318715120e-13,2.014635345e-13,1.979641544e-14,1.774995580e-13,2.966434100e-13,2.283744283e-13,3.688655846e-13,8.077038844e-14,5.332390461e-13,3.579386463e-14,7.042939337e-13,3.149299583e-13,5.373423642e-13,9.839257764e-13,4.841948102e-13,2.548662078e-13,7.861752532e-13,3.755833156e-13,1.691652922e-12,2.238339733e-13,7.689362207e-13,1.526914857e-12,1.789570361e-13,1.664624295e-12,1.773337943e-14,4.213420930e-15
1.75,2.117516919e-12,1.118664698e-12,6.705271660e-13,8.699379518e-14,2.172304367e-13,5.421580195e-13,2.914314687e-13,2.114173827e-13,1.949932606e-14,1.784201878e-13,2.794037239e-13,2.229384885e-13,3.579845738e-13,7.665802875e-14,5.170427194e-13,3.464084554e-14,6.783490720e-13,2.974368990e-13,5.099132183e-13,9.541278829e-13,4.336429057e-13,2.452197574e-13,7.996533091e-13,3.577034482e-13,1.730844512e-12,2.323023129e-13,8.259339486e-13,1.446777207e-12,1.565614038e-13,1.514661421e-12,1.487669303e-14,4.129753699e-15
1.7578,1.916608888e-12,1.078925353e-12,6.125804967e-13,9.031204131e-14,2.069974009e-13,5.230994118e-13,2.607302083e-13,2.162182928e-13,2.021150075e-14,1.793666984e-13,2.715509097e-13,2.173708507e-13,3.493746279e-13,7.106057877e-14,5.035724991e-13,3.538181699e-14,6.550997174e-13,2.816135936e-13,4.814229340e-13,9.093405840e-13,3.856577291e-13,2.349008961e-13,8.189006558e-13,3.524640151e-13,1.750350514e-12,2.429329596e-13,8.869744960e-13,1.362054525e-12,1.377388561e-13,1.381070088e-12,1.273538517e-14,4.392551418e-15
1.7656,1.734253021e-12,1.050397461e-12,5.781361452e-13,9.976919949e-14,1.951192835e-13,4.904599903e-13,2.500498963e-13,2.169284787e-13,2.214961424e-14,1.823019448e-13,2.765253739e-13,2.124674884e-13,3.471303097e-13,6.445063610e-14,4.974604145e-13,3.808697832e-14,6.477722624e-13,2.752661556e-13,4.638610180e-13,8.747357420e-13,3.575561325e-13,2.277472426e-13,8.540475349e-13,3.761074228e-13,1.768343215e-12,2.600455784e-13,9.595440096e-13,1.299427332e-12,1.247242341e-13,1.275428423e-12,1.153027763e-14,5.281662735e-15
1.7734,1.572646446e-12,1.014484820e-12,5.649469489e-13,1.170810962e-13,1.808235397e-13,4.453815605e-13,2.577250507e-13,2.091238516e-13,2.496819343e-14,1.869876561e-13,2.917177702e-13,2.074516576e-13,3.492404751e-13,6.106075333e-14,4.970373462e-13,4.382260051e-14,6.559964159e-13,2.785739568e-13,4.527929771e-13,8.465218547e-13,3.469045672e-13,2.232407180e-13,8.876357341e-13,4.195944169e-13,1.772396110e-12,2.781713578e-13,1.018794540e-12,1.250784212e-12,1.201747355e-13,1.188481617e-12,1.124966550e-14,7.418485849e-15
1.7812,1.444925503e-12,9.753177085e-13,5.576569094e-13,1.521664430e-13,1.670893923e-13,4.049420052e-13,2.787159786e-13,1.965362361e-13,2.804037984e-14,1.910758801e-13,3.161552849e-13,2.036854664e-13,3.516797476e-13,6.109378214e-14,4.970291575e-13,5.213389751e-14,6.744377898e-13,2.891618496e-13,4.461172676e-13,8.173426508e-13,3.519983887e-13,2.213772204e-13,9.062377208e-13,4.749022648e-13,1.748357526e-12,2.935616106e-13,1.058086532e-12,1.226527579e-12,1.225586243e-13,1.135805875e-12,1.183590754e-14,1.141023972e-14
1.7891,1.361996983e-12,9.551653977e-13,5.602137206e-13,2.145692967e-13,1.623073463e-13,3.996196675e-13,3.040158243e-13,1.879572867e-13,3.057715017e-14,1.908061769e-13,3.376973140e-13,2.003886230e-13,3.503357208e-13,6.165839617e-14,4.881221204e-13,5.984022968e-14,6.940135490e-13,3.028866932e-13,4.397722877e-13,7.824048911e-13,3.616544077e-13,2.193920536e-13,8.970077784e-13,5.245924467e-13,1.692763081e-12,3.047832302e-13,1.077100304e-12,1.215136489e-12,1.262563177e-13,1.098440695e-12,1.298763150e-14,1.751423265e-14
