Time,Fp1,AF3,F7,F3,FC1,FC5,T7,C3,CP1,CP5,P7,P3,Pz,PO3,O1,Oz,O2,PO4,P4,P8,CP6,CP2,C4,T8,FC6,FC2,F4,F8,AF4,Fp2,Fz,Cz,
0,1.839760623e-08,1.070875388e-08,5.008653615e-09,1.016416373e-09,1.880138533e-09,5.131283138e-09,2.599836130e-09,2.017539605e-09,3.103272612e-10,1.591381342e-09,3.945370380e-09,2.091921327e-09,3.209479347e-09,6.202367930e-10,4.995008645e-09,3.156776853e-10,6.820226938e-09,2.854400066e-09,4.309952054e-09,7.223442224e-09,2.660848829e-09,2.005128199e-09,4.761386280e-09,6.614219275e-09,1.018649148e-08,1.665387431e-09,5.819134822e-09,1.193840302e-08,7.852041683e-10,1.075839270e-08,3.180372095e-11,3.573986723e-11
0.0078125,1.837889298e-08,1.069909854e-08,5.004423248e-09,1.014410365e-09,1.878518939e-09,5.118994717e-09,2.596398744e-09,2.013202014e-09,3.093556911e-10,1.592260311e-09,3.936395615e-09,2.085586407e-09,3.204384891e-09,6.212594742e-10,4.992234905e-09,3.151252439e-10,6.815153956e-09,2.849652481e-09,4.301765346e-09,7.226312280e-09,2.653995754e-09,1.998592802e-09,4.756075027e-09,6.608485259e-09,1.018015741e-08,1.666350129e-09,5.815329106e-09,1.190320957e-08,7.886420157e-10,1.074808896e-08,3.173852633e-11,3.560845940e-11
0.015625,1.830786163e-08,1.065899366e-08,4.985895447e-09,1.009494197e-09,1.871573991e-09,5.091973467e-09,2.585559579e-09,2.003095653e-09,3.074930665e-10,1.588685432e-09,3.916180480e-09,2.073259718e-09,3.190176033e-09,6.205737651e-10,4.975371547e-09,3.136837051e-10,6.790807940e-09,2.836798804e-09,4.281311648e-09,7.208935202e-09,2.639539517e-09,1.986297239e-09,4.737286239e-09,6.584126861e-09,1.014511110e-08,1.662648710e-09,5.795109263e-09,1.183398040e-08,7.899307090e-10,1.070733774e-08,3.158085947e-11,3.537288177e-11
0.023438,1.818529291e-08,1.058890926e-08,4.953277920e-09,1.001715350e-09,1.859361835e-09,5.050503685e-09,2.567425467e-09,1.987325962e-09,3.047622569e-10,1.580681030e-09,3.884939545e-09,2.055082583e-09,3.167024935e-09,6.181791847e-10,4.944605849e-09,3.113721905e-10,6.747462058e-09,2.816003979e-09,4.248847468e-09,7.171465091e-09,2.617676800e-09,1.968394925e-09,4.705242612e-09,6.541379231e-09,1.008172561e-08,1.654306450e-09,5.758677201e-09,1.173158375e-08,7.890016716e-10,1.063658415e-08,3.132999388e-11,3.503444550e-11
0.03125,1.801240706e-08,1.048952798e-08,4.906944384e-09,9.911463859e-10,1.841980931e-09,4.994993194e-09,2.542187954e-09,1.966053239e-09,3.011938327e-10,1.568310462e-09,3.842995014e-09,2.031246945e-09,3.135167999e-09,6.140907165e-10,4.900260983e-09,3.082232937e-10,6.685557840e-09,2.787489421e-09,4.204702655e-09,7.114208928e-09,2.588615644e-09,1.945069792e-09,4.660208693e-09,6.480557654e-09,9.990543407e-09,1.641371696e-09,5.706279926e-09,1.159691934e-08,7.858127081e-10,1.053641404e-08,3.098729269e-11,3.459554253e-11
0.039062,1.779088426e-08,1.036182240e-08,4.847406457e-09,9.779177276e-10,1.819617377e-09,4.926100307e-09,2.510133965e-09,1.939509082e-09,2.968241278e-10,1.551684761e-09,3.790752344e-09,2.001999857e-09,3.094918095e-09,6.083291215e-10,4.842714855e-09,3.042710235e-10,6.605702753e-09,2.751539567e-09,4.149318153e-09,7.037651397e-09,2.552657718e-09,1.916566849e-09,4.602606043e-09,6.402282954e-09,9.872343109e-09,1.623956167e-09,5.638407430e-09,1.143127823e-08,7.803618605e-10,1.040774008e-08,3.055626878e-11,3.406062269e-11
0.046875,1.752259940e-08,1.020691416e-08,4.775187642e-09,9.621745963e-10,1.792477061e-09,4.844537600e-09,2.471555212e-09,1.907946040e-09,2.916894443e-10,1.530921954e-09,3.728660087e-09,1.967606130e-09,3.046588231e-09,6.009083319e-10,4.772339014e-09,2.995289350e-10,6.508440286e-09,2.708419448e-09,4.083148654e-09,6.942227196e-09,2.510137468e-09,1.883155541e-09,4.532933199e-09,6.307205404e-09,9.728024193e-09,1.602191403e-09,5.555660763e-09,1.123633235e-08,7.726610872e-10,1.025168116e-08,3.003930779e-11,3.343570643e-11
0.054688,1.720995098e-08,1.002616623e-08,4.690936992e-09,9.440554354e-10,1.760786165e-09,4.751062596e-09,2.426803078e-09,1.871662791e-09,2.858377398e-10,1.506188214e-09,3.657312761e-09,1.928388817e-09,2.990592253e-09,5.918741732e-10,4.689720928e-09,2.940245913e-10,6.394514704e-09,2.658470541e-09,4.006748366e-09,6.828616911e-09,2.461402393e-09,1.845136914e-09,4.451776186e-09,6.196043730e-09,9.558783488e-09,1.576240025e-09,5.458715011e-09,1.101391544e-08,7.627537394e-10,1.006958910e-08,2.944132052e-11,3.272759628e-11
0.0625,1.685577086e-08,9.821164584e-09,4.595413353e-09,9.237161742e-10,1.724812964e-09,4.646549433e-09,2.376288219e-09,1.830999089e-09,2.793288807e-10,1.477699602e-09,3.577388628e-09,1.884732524e-09,2.927469435e-09,5.813100343e-10,4.595627630e-09,2.878181441e-10,6.264987955e-09,2.602172693e-09,3.920838394e-09,6.697856197e-09,2.406918519e-09,1.802880187e-09,4.359851681e-09,6.069793307e-09,9.366084163e-09,1.546311336e-09,5.348391834e-09,1.076604816e-08,7.507358999e-10,9.863042770e-09,2.877247617e-11,3.194415116e-11
0.070312,1.646321225e-08,9.593724886e-09,4.489476020e-09,9.013480092e-10,1.684869633e-09,4.531964078e-09,2.320456967e-09,1.786319878e-09,2.722245417e-10,1.445698362e-09,3.489603506e-09,1.837051478e-09,2.857790601e-09,5.693099889e-10,4.490873267e-09,2.809712748e-10,6.121008058e-09,2.540049886e-09,3.826215296e-09,6.551080373e-09,2.347227031e-09,1.756797988e-09,4.257978976e-09,5.929604864e-09,9.151599103e-09,1.512663318e-09,5.225663878e-09,1.049504422e-08,7.367312311e-10,9.633874845e-09,2.804127568e-11,3.109487936e-11
0.078125,1.603529796e-08,9.345602175e-09,4.373949780e-09,8.771273961e-10,1.641262030e-09,4.408195772e-09,2.259736769e-09,1.737970070e-09,2.645810823e-10,1.410421711e-09,3.394633165e-09,1.785725181e-09,2.782082556e-09,5.559626758e-10,4.376236689e-09,2.735341858e-10,5.963649672e-09,2.472573721e-09,3.723602045e-09,6.389373526e-09,2.282779461e-09,1.707259257e-09,4.146932799e-09,5.776509430e-09,8.916955953e-09,1.475557640e-09,5.091449623e-09,1.020302053e-08,7.208708941e-10,9.383840204e-09,2.725265245e-11,3.018877668e-11
0.085938,1.557542570e-08,9.078768859e-09,4.249720220e-09,8.512426169e-10,1.594340432e-09,4.276212572e-09,2.194596320e-09,1.686331737e-09,2.564580524e-10,1.372153124e-09,3.293206817e-09,1.731147986e-09,2.700945216e-09,5.413768282e-10,4.252624233e-09,2.655627132e-10,5.794192898e-09,2.400275813e-09,3.613806750e-09,6.214064681e-09,2.214074038e-09,1.654653099e-09,4.027601977e-09,5.611703078e-09,8.664020232e-09,1.435296047e-09,4.946822817e-09,9.892210250e-09,7.033192384e-10,9.114919556e-09,2.641354399e-11,2.923356936e-11
0.09375,1.508755680e-08,8.795501154e-09,4.117842096e-09,8.239149647e-10,1.544506891e-09,4.137119186e-09,2.125588219e-09,1.631840657e-09,2.479195947e-10,1.331231236e-09,3.186165418e-09,1.673760546e-09,2.615040727e-09,5.256855343e-10,4.121084012e-09,2.571177996e-10,5.614060225e-09,2.323741742e-09,3.497729784e-09,6.026672292e-09,2.141678338e-09,1.599403764e-09,3.900990303e-09,5.436596981e-09,8.394972121e-09,1.392231612e-09,4.793049712e-09,9.565225917e-09,6.842680022e-10,8.829463157e-09,2.553257513e-11,2.823792474e-11
0.10156,1.457516640e-08,8.497784402e-09,3.979239589e-09,7.953247813e-10,1.492116622e-09,3.991838711e-09,2.053201837e-09,1.574861837e-09,2.390216219e-10,1.287968605e-09,3.074248642e-09,1.613945285e-09,2.524949341e-09,5.090210966e-10,3.982583112e-09,2.482590054e-10,5.424508536e-09,2.243484049e-09,3.376141577e-09,5.828622165e-09,2.066055918e-09,1.541860431e-09,3.767969039e-09,5.252453028e-09,8.111767107e-09,1.346700403e-09,4.631230585e-09,9.224294944e-09,6.639149310e-10,8.529545390e-09,2.461696578e-11,2.720954240e-11
0.10938,1.404206180e-08,8.187838840e-09,3.834871620e-09,7.656678010e-10,1.437567800e-09,3.841357287e-09,1.977942216e-09,1.515787120e-09,2.298256003e-10,1.242704954e-09,2.958255994e-09,1.552114816e-09,2.431349703e-09,4.915293556e-10,3.838211038e-09,2.390560120e-10,5.227012028e-09,2.160106163e-09,3.249940210e-09,5.621562750e-09,1.987759501e-09,1.482424535e-09,3.629564529e-09,5.060708607e-09,7.816615786e-09,1.299078668e-09,4.462609294e-09,8.871771483e-09,6.424600471e-10,8.217411096e-09,2.367369257e-11,2.615470997e-11
0.11719,1.349216194e-08,7.867951655e-09,3.685795278e-09,7.351578484e-10,1.381265958e-09,3.686706789e-09,1.900341399e-09,1.455031849e-09,2.203938097e-10,1.195783919e-09,2.839012190e-09,1.488693220e-09,2.334931206e-09,4.733553211e-10,3.689059733e-09,2.295771504e-10,5.023078453e-09,2.074225576e-09,3.120060725e-09,5.407126802e-09,1.907361041e-09,1.421517672e-09,3.486828705e-09,4.862834610e-09,7.511822737e-09,1.249737353e-09,4.288471770e-09,8.510107376e-09,6.200869115e-10,7.895355464e-09,2.270976251e-11,2.508060069e-11
0.125,1.292893234e-08,7.540161994e-09,3.533025679e-09,7.039780659e-10,1.323576793e-09,3.528800697e-09,1.820898990e-09,1.392961365e-09,2.107823133e-10,1.147540111e-09,2.717239765e-09,1.424048585e-09,2.236301948e-09,4.546456953e-10,3.536142551e-09,2.198901733e-10,4.814093386e-09,1.986398794e-09,2.987314911e-09,5.186848045e-09,1.825318156e-09,1.359480500e-09,3.340659004e-09,4.660130209e-09,7.199439829e-09,1.199024625e-09,4.109959424e-09,8.141427575e-09,5.969763252e-10,7.565465020e-09,2.173012512e-11,2.399307571e-11
0.13281,1.235640206e-08,7.206880586e-09,3.377658841e-09,6.723430933e-10,1.264929208e-09,3.368728671e-09,1.740180214e-09,1.330004293e-09,2.010585713e-10,1.098358259e-09,2.593806408e-09,1.358622829e-09,2.136187902e-09,4.355622333e-10,3.380643950e-09,2.100711140e-10,4.601650935e-09,1.897281234e-09,2.852651366e-09,4.962439449e-09,1.742195475e-09,1.296720053e-09,3.192114574e-09,4.454076919e-09,6.881746984e-09,1.147335323e-09,3.928404778e-09,7.768227769e-09,5.732991763e-10,7.230165650e-09,2.073861869e-11,2.289660636e-11
0.14062,1.177795809e-08,6.870105225e-09,3.220585076e-09,6.404368208e-10,1.205678141e-09,3.207397548e-09,1.658660215e-09,1.266527965e-09,1.912776010e-10,1.048547995e-09,2.469454734e-09,1.292792665e-09,2.035184892e-09,4.162300793e-10,3.223522814e-09,2.001756229e-10,4.387030256e-09,1.807398617e-09,2.716858913e-09,4.735277099e-09,1.658475075e-09,1.233590985e-09,3.042098232e-09,4.245917186e-09,6.560673428e-09,1.094988269e-09,3.744934693e-09,7.392604559e-09,5.491971972e-10,6.891449131e-09,1.974036484e-11,2.179587496e-11
0.14844,1.119684029e-08,6.531717171e-09,3.062703331e-09,6.084268792e-10,1.146162117e-09,3.045649096e-09,1.576799646e-09,1.202874948e-09,1.814876554e-10,9.984091803e-10,2.344837821e-09,1.226888267e-09,1.933839414e-09,3.967651514e-10,3.065676416e-09,1.902574245e-10,4.171466974e-09,1.717237460e-09,2.580675275e-09,4.506764077e-09,1.574579612e-09,1.170405365e-09,2.891467417e-09,4.036847940e-09,6.238141584e-09,1.042301160e-09,3.560620539e-09,7.016487193e-09,5.248232750e-10,6.551238331e-09,1.874128738e-11,2.069555958e-11
0.15625,1.061703266e-08,6.194051686e-09,2.905100571e-09,5.765254173e-10,1.086787425e-09,2.884574021e-09,1.495146801e-09,1.139471991e-09,1.717516909e-10,9.482858002e-10,2.220779241e-09,1.161334613e-09,1.832834909e-09,3.772906648e-10,2.908175973e-09,1.803816541e-10,3.956424542e-09,1.627399287e-09,2.445016594e-09,4.278479039e-09,1.491065749e-09,1.107570081e-09,2.741254052e-09,3.828297218e-09,5.916362013e-09,9.896373434e-10,3.376716985e-09,6.642387670e-09,5.003203185e-10,6.211884986e-09,1.774677715e-11,1.960139892e-11
0.16406,1.004128864e-08,5.858735925e-09,2.748528685e-09,5.448853549e-10,1.027834357e-09,2.724914587e-09,1.414079066e-09,1.076613026e-09,1.621151958e-10,8.984120631e-10,2.097866581e-09,1.096434263e-09,1.732647731e-09,3.578952381e-10,2.751764228e-09,1.705915788e-10,3.742894200e-09,1.538299634e-09,2.310519218e-09,4.051485920e-09,1.408335562e-09,1.045379023e-09,2.592168224e-09,3.621273394e-09,5.596831840e-09,9.372461588e-10,3.194097619e-09,6.272043475e-09,4.758012486e-10,5.875003476e-09,1.676077552e-11,1.851769562e-11
0.17188,9.472419240e-09,5.527454170e-09,2.593791838e-09,5.136722572e-10,9.696057381e-10,2.567435887e-09,1.334001883e-09,1.014599723e-09,1.526234447e-10,8.490471174e-10,1.976672550e-09,1.032482065e-09,1.633767506e-09,3.386832492e-10,2.597230331e-09,1.609371525e-10,3.531982342e-09,1.450389520e-09,2.177848912e-09,3.826960204e-09,1.326788979e-09,9.841199271e-10,2.444955836e-09,3.416802556e-09,5.281173592e-09,8.854032094e-10,3.013705072e-09,5.907152171e-09,4.513792059e-10,5.542281513e-09,1.578603361e-11,1.744728141e-11
0.17969,8.913544068e-09,5.202031907e-09,2.441748257e-09,4.830671720e-10,9.124186805e-10,2.413051467e-09,1.255363277e-09,9.537834467e-10,1.433284253e-10,8.004532874e-10,1.857861412e-09,9.698329539e-10,1.536733256e-09,3.197490194e-10,2.445400151e-09,1.514703759e-10,3.324829237e-09,1.364155262e-09,2.047731725e-09,3.606030995e-09,1.246872851e-09,9.241323429e-10,2.300412143e-09,3.215930869e-09,4.971047103e-09,8.343790905e-10,2.836502532e-09,5.549726781e-09,4.271430015e-10,5.215510320e-09,1.482650869e-11,1.639560923e-11
0.1875,8.366634671e-09,4.883541366e-09,2.292910240e-09,4.531608513e-10,8.564503633e-10,2.262263685e-09,1.178425791e-09,8.943666162e-10,1.342605604e-10,7.527827886e-10,1.741822571e-09,9.086952621e-10,1.441855280e-09,3.011429394e-10,2.296736567e-09,1.422120531e-10,3.122036135e-09,1.279851246e-09,1.920568984e-09,3.389386724e-09,1.168833065e-09,8.656132862e-10,2.158996668e-09,3.019319544e-09,4.667412989e-09,7.843356529e-10,2.663042537e-09,5.200926326e-09,4.031880107e-10,4.895745176e-09,1.388736964e-11,1.536769918e-11
0.19531,7.834258032e-09,4.573434797e-09,2.147976205e-09,4.240829606e-10,8.019551050e-10,2.115734240e-09,1.103539463e-09,8.366131434e-10,1.254587175e-10,7.062580242e-10,1.629046969e-09,8.493238334e-10,1.349550207e-09,2.829444882e-10,2.151882495e-09,1.331952520e-10,2.924498401e-09,1.197834275e-09,1.796917018e-09,3.178038578e-09,1.093005240e-09,8.088104271e-10,2.021351248e-09,2.827887259e-09,4.371665791e-09,7.355053648e-10,2.494115849e-09,4.862233214e-09,3.796284338e-10,4.584470881e-09,1.297280817e-11,1.436718677e-11
0.20312,7.318376126e-09,4.272871727e-09,2.007487072e-09,3.959530062e-10,7.491384696e-10,1.974058516e-09,1.030986718e-09,7.807524983e-10,1.169560309e-10,6.610502093e-10,1.519977051e-09,7.919529935e-10,1.260161773e-09,2.652221690e-10,2.011380249e-09,1.244578666e-10,2.732960257e-09,1.118414260e-09,1.677240474e-09,2.972688311e-09,1.019681078e-09,7.539469910e-10,1.887978440e-09,2.642288284e-09,4.084867610e-09,6.880584629e-10,2.330330246e-09,4.534932451e-09,3.565408993e-10,4.282829840e-09,1.208612399e-11,1.339876467e-11
0.21094,6.819935817e-09,3.982400056e-09,1.871695905e-09,3.688191927e-10,6.980984565e-10,1.837447980e-09,9.608891514e-10,7.268726300e-10,1.087651074e-10,6.172405685e-10,1.414794943e-09,7.366731301e-10,1.173842437e-09,2.480151826e-10,1.875500577e-09,1.160176765e-10,2.547771389e-09,1.041730239e-09,1.561734442e-09,2.773753244e-09,9.489771276e-10,7.011107339e-10,1.759104547e-09,2.462834904e-09,3.807528585e-09,6.420921512e-10,2.171981720e-09,4.219500447e-09,3.340115908e-10,3.991340576e-09,1.123003473e-11,1.246536145e-11
0.21875,6.340925103e-09,3.703160261e-09,1.741146244e-09,3.427842461e-10,6.490335300e-10,1.706408071e-09,8.935218828e-10,6.751666411e-10,1.009151291e-10,5.749986147e-10,1.313850397e-09,6.836684046e-10,1.090914218e-09,2.313794180e-10,1.744727908e-09,1.078984841e-10,2.369636526e-09,9.680658202e-10,1.450835456e-09,2.582082197e-09,8.811663186e-10,6.504890570e-10,1.635235428e-09,2.290259328e-09,3.540749532e-09,5.977925456e-10,2.019688627e-09,3.917080401e-09,3.121313605e-10,3.711152159e-09,1.040677485e-11,1.156932995e-11
0.22656,5.882284114e-09,3.435683901e-09,1.616094310e-09,3.178954022e-10,6.020308567e-10,1.581225533e-09,8.290294967e-10,6.257397073e-10,9.342208794e-11,5.344159116e-10,1.217343911e-09,6.330517514e-10,1.011538356e-09,2.153513234e-10,1.619314528e-09,1.001170474e-10,2.198903740e-09,8.975624004e-10,1.344763561e-09,2.398049073e-09,8.163879193e-10,6.021831285e-10,1.516610122e-09,2.124911133e-09,3.285034705e-09,5.552426801e-10,1.873723079e-09,3.628299235e-09,2.909557643e-10,3.442797840e-09,9.618776666e-12,1.071364554e-11
0.23438,5.444304216e-09,3.180134956e-09,1.496613918e-09,2.941511668e-10,5.571214144e-10,1.461889623e-09,7.674383110e-10,5.786014129e-10,8.628696688e-11,4.955420988e-10,1.125328470e-09,5.848387619e-10,9.357589641e-10,1.999714301e-10,1.499412503e-09,9.268552707e-11,2.035714294e-09,8.302596083e-10,1.243557651e-09,2.221866736e-09,7.546356413e-10,5.561915187e-10,1.403288792e-09,1.966895518e-09,3.040568413e-09,5.144971710e-10,1.734199093e-09,3.353155699e-09,2.705616908e-10,3.186446011e-09,8.867999241e-12,9.899052076e-12
0.24219,5.028013040e-09,2.937148322e-09,1.382986417e-09,2.716077767e-10,5.144223062e-10,1.348647263e-09,7.088892631e-10,5.338541377e-10,7.952383707e-11,4.584814362e-10,1.038000614e-09,5.391243497e-10,8.637525579e-10,1.852829730e-10,1.385312751e-09,8.561736394e-11,1.880452241e-09,7.663078798e-10,1.147440083e-09,2.053984487e-09,6.960326478e-10,5.126055097e-10,1.295544325e-09,1.816593181e-09,2.807973592e-09,4.756693778e-10,1.601481308e-09,3.092197024e-09,2.510113442e-10,2.942731217e-09,8.155846505e-12,9.126423494e-12
0.25,4.633332374e-09,2.706725589e-09,1.275197411e-09,2.502652269e-10,4.739360502e-10,1.241510002e-09,6.533884026e-10,4.915016242e-10,7.313095263e-11,4.232508055e-10,9.553499775e-10,4.959036620e-10,7.955192910e-10,1.712942150e-10,1.277013038e-09,7.891029914e-11,1.733126112e-09,7.057018765e-10,1.056400066e-09,1.894429754e-09,6.405747356e-10,4.714160571e-10,1.193388423e-09,1.674013785e-09,2.587297205e-09,4.387698777e-10,1.475579387e-09,2.845381838e-09,2.323371210e-10,2.711643754e-09,7.483655784e-12,8.397161647e-12
0.25781,4.260379306e-09,2.488950132e-09,1.173290147e-09,2.301178353e-10,4.356799848e-10,1.140431368e-09,6.009394329e-10,4.515345226e-10,6.710616207e-11,3.898824438e-10,8.773661103e-10,4.551596450e-10,7.310783039e-10,1.580303284e-10,1.174605959e-09,7.257294588e-11,1.593853830e-09,6.484668556e-10,9.704507447e-10,1.743403399e-09,5.882539502e-10,4.325975689e-10,1.096860394e-09,1.539211026e-09,2.378674802e-09,4.038390809e-10,1.356562287e-09,2.612605919e-09,2.145917209e-10,2.493274235e-09,6.851749542e-12,7.710826684e-12
0.26562,3.909424566e-09,2.283979650e-09,1.077344077e-09,2.111783755e-10,3.996813582e-10,1.045444106e-09,5.515698476e-10,4.139637218e-10,6.145213159e-11,3.584009798e-10,8.040769831e-10,4.169026043e-10,6.704684362e-10,1.455025486e-10,1.078172978e-09,6.661065208e-11,1.462742319e-09,5.946433912e-10,8.896484641e-10,1.601054025e-09,5.391035715e-10,3.961647294e-10,1.006022645e-09,1.412288869e-09,2.182252293e-09,3.709078881e-10,1.244518852e-09,2.393979171e-09,1.977909295e-10,2.287780232e-09,6.259425814e-12,7.066623801e-12
0.27344,3.579649072e-09,2.091341802e-09,9.871365043e-10,1.933991634e-10,3.658568056e-10,9.563135275e-10,5.051729385e-10,3.786970628e-10,5.615316616e-11,3.287543944e-10,7.353051436e-10,3.810332232e-10,6.135409981e-10,1.336932914e-10,9.875013578e-10,6.100727939e-11,1.339482109e-09,5.440940674e-10,8.137932503e-10,1.467104197e-09,4.929936445e-10,3.620209924e-10,9.206718616e-10,1.293004072e-09,1.997610012e-09,3.399142373e-10,1.139208471e-09,2.188945989e-09,1.819291031e-10,2.094682372e-09,5.705775544e-12,6.463340569e-12
0.28125,3.271088713e-09,1.911072646e-09,9.026874449e-10,1.767755808e-10,3.342139083e-10,8.730056350e-10,4.617513677e-10,3.457302172e-10,5.120557756e-11,3.009664354e-10,6.710369369e-10,3.475295954e-10,5.602934144e-10,1.226125619e-10,9.026227237e-10,5.576231385e-11,1.224109333e-09,4.968127953e-10,7.428729478e-10,1.341641543e-09,4.498934724e-10,3.301358797e-10,8.408238167e-10,1.181375715e-09,1.824814746e-09,3.108794574e-10,1.040669894e-09,1.997394129e-09,1.670194632e-10,1.914023768e-09,5.189684118e-12,5.899727694e-12
0.28906,2.983436024e-09,1.743013678e-09,8.239162844e-10,1.612943164e-10,3.047224427e-10,7.954456721e-10,4.212574456e-10,3.150320350e-10,4.660366594e-11,2.750082159e-10,6.111961080e-10,3.163506830e-10,5.106720947e-10,1.122437507e-10,8.234432141e-10,5.086810525e-11,1.116514257e-09,4.527533902e-10,6.768154923e-10,1.224533733e-09,4.097601804e-10,3.004720664e-10,7.663999073e-10,1.077278925e-09,1.663702401e-09,2.837770130e-10,9.488091930e-10,1.819131653e-09,1.530419073e-10,1.745642879e-09,4.709866833e-12,5.375098092e-12
0.29688,2.715417594e-09,1.586424737e-09,7.504753582e-10,1.468778446e-10,2.772519617e-10,7.232596570e-10,3.835110038e-10,2.864565292e-10,4.232444074e-11,2.507792206e-10,5.555031977e-10,2.873454573e-10,4.644565472e-10,1.025552754e-10,7.496367724e-10,4.630404825e-11,1.016243175e-09,4.117235505e-10,6.153180075e-10,1.115325869e-09,3.724065566e-10,2.728860763e-10,6.970811524e-10,9.802864211e-10,1.513602454e-09,2.585049343e-10,8.632383350e-10,1.653288601e-09,1.399723737e-10,1.588793936e-09,4.264872403e-12,4.887379415e-12
0.30469,2.466769919e-09,1.441142368e-09,6.823060346e-10,1.335042930e-10,2.517753531e-10,6.563392605e-10,3.484777216e-10,2.599665784e-10,3.836240600e-11,2.282657480e-10,5.039046413e-10,2.604785328e-10,4.216044239e-10,9.354714032e-11,6.811620037e-10,4.207045707e-11,9.232200276e-10,3.736869690e-10,5.583153617e-10,1.013931442e-09,3.377828563e-10,2.473394174e-10,6.328008397e-10,8.902863004e-10,1.374370501e-09,2.350408329e-10,7.838719055e-10,1.499618794e-09,1.277901169e-10,1.443309238e-09,3.853235094e-12,4.434745011e-12
0.3125,2.236825394e-09,1.306784240e-09,6.192256792e-10,1.211437853e-10,2.282245730e-10,5.945238415e-10,3.160668027e-10,2.354958108e-10,3.470774672e-11,2.074045646e-10,4.562606406e-10,2.356809537e-10,3.820001186e-10,8.518879861e-11,6.178182024e-10,3.815375050e-11,8.371758763e-10,3.385357562e-10,5.056537632e-10,9.200317733e-10,3.058007953e-10,2.237694472e-10,5.733748760e-10,8.070107443e-10,1.245606604e-09,2.133128480e-10,7.104816623e-10,1.357727061e-09,1.164499859e-10,1.308785822e-09,3.473625736e-12,4.016253627e-12
0.32031,2.024450929e-09,1.182690869e-09,5.609228644e-10,1.097321433e-10,2.064816841e-10,5.374816709e-10,2.861134002e-10,2.129120828e-10,3.133806679e-11,1.881000928e-10,4.122866263e-10,2.128014870e-10,3.454267861e-10,7.744126112e-11,5.592686307e-10,3.452760357e-11,7.576632327e-10,3.060740342e-10,4.570406143e-10,8.332099414e-10,2.762807878e-10,2.020340544e-10,5.185003700e-10,7.300826420e-10,1.126682982e-09,1.932269724e-10,6.427147610e-10,1.226802934e-09,1.059288898e-10,1.184556893e-09,3.124524087e-12,3.629809579e-12
0.32812,1.829076835e-09,1.068513530e-09,5.072633703e-10,9.923571548e-11,1.864803492e-10,4.850496470e-10,2.585421164e-10,1.921510630e-10,2.824318493e-11,1.703054873e-10,3.718620625e-10,1.917752218e-10,3.117823445e-10,7.028615344e-11,5.053625963e-10,3.118599830e-11,6.844759895e-10,2.762159567e-10,4.123385981e-10,7.532467822e-10,2.491404762e-10,1.820647439e-10,4.680265419e-10,6.592988028e-10,1.017258124e-09,1.747265576e-10,5.803761612e-10,1.106486238e-09,9.619608827e-11,1.070288855e-09,2.804424761e-12,3.273877607e-12
0.33594,1.649622854e-09,9.636249307e-10,4.579552064e-10,8.959789854e-11,1.681082686e-10,4.369563494e-10,2.332096892e-10,1.731052120e-10,2.540826153e-11,1.539273757e-10,3.347990595e-10,1.725062383e-10,2.808970349e-10,6.368821908e-11,4.558300210e-10,2.811806184e-11,6.172358034e-10,2.488139338e-10,3.713215155e-10,6.796942330e-10,2.242510449e-10,1.637673786e-10,4.216804275e-10,5.942554328e-10,9.167323296e-10,1.577053556e-10,5.231109185e-10,9.961781944e-10,8.719614859e-11,9.653519197e-10,2.512003373e-12,2.947384480e-12
0.34375,1.485234327e-09,8.675376981e-10,4.127495657e-10,8.076765480e-11,1.512830648e-10,3.929384341e-10,2.099923637e-10,1.556726006e-10,2.281659431e-11,1.388908422e-10,3.008897164e-10,1.548827411e-10,2.526170321e-10,5.761977466e-11,4.104301163e-10,2.530556003e-11,5.556193261e-10,2.237272114e-10,3.337809541e-10,6.122442915e-10,2.014819271e-10,1.470391204e-10,3.792426605e-10,5.346605490e-10,8.246627007e-10,1.420961610e-10,4.706618383e-10,8.952464124e-10,7.890371812e-11,8.692400496e-10,2.245783247e-12,2.648219242e-12
0.35156,1.335216894e-09,7.798394865e-10,3.714614662e-10,7.270755682e-11,1.359306276e-10,3.528024945e-10,1.887944083e-10,1.397748116e-10,2.045566390e-11,1.251285728e-10,2.699653418e-10,1.388216023e-10,2.268147808e-10,5.205318911e-11,3.689508286e-10,2.273364222e-11,4.993441111e-10,2.008388713e-10,2.995455739e-10,5.505967385e-10,1.807265569e-10,1.318002146e-10,3.405244598e-10,4.802636041e-10,7.406336181e-10,1.278310705e-10,4.227990301e-10,8.032464037e-10,7.128580104e-11,7.815362458e-10,2.004276689e-12,2.374833000e-12
0.35938,1.198223077e-09,6.997425875e-10,3.337312289e-10,6.534670296e-11,1.219104252e-10,3.161964286e-10,1.694300007e-10,1.252726708e-10,1.830558608e-11,1.125278572e-10,2.417661145e-10,1.241900643e-10,2.032666089e-10,4.694743034e-11,3.310460803e-10,2.038447890e-11,4.479207986e-10,1.799518411e-10,2.683121774e-10,4.941984290e-10,1.618001346e-10,1.179203409e-10,3.051766612e-10,4.305685866e-10,6.638759908e-10,1.147833235e-10,3.790872945e-10,7.193831942e-10,6.429105969e-11,7.014522966e-10,1.786020395e-12,2.125819178e-12
0.36719,1.073561592e-09,6.268501871e-10,2.993709065e-10,5.864578166e-11,1.091551841e-10,2.829169172e-10,1.518014976e-10,1.120891927e-10,1.635436434e-11,1.010361773e-10,2.161466994e-10,1.109053160e-10,1.818526151e-10,4.228222839e-11,2.965403717e-10,1.824725920e-11,4.011072120e-10,1.609603053e-10,2.399181327e-10,4.428012569e-10,1.446006596e-10,1.053203181e-10,2.730229926e-10,3.853295286e-10,5.940207638e-10,1.028952543e-10,3.393143008e-10,6.431764547e-10,5.789116630e-11,6.285848406e-10,1.589409986e-12,1.899356846e-12
0.375,9.606269247e-10,5.608055328e-10,2.682176182e-10,5.257439544e-11,9.760146802e-11,2.528058486e-10,1.358263666e-10,1.001597673e-10,1.459128664e-11,9.059701160e-11,1.929678054e-10,9.889597726e-11,1.624602477e-10,3.803140104e-11,2.652477207e-10,1.630884230e-11,3.586671316e-10,1.437619614e-10,2.142180415e-10,3.961554216e-10,1.290422935e-10,9.393209497e-11,2.439003796e-10,3.443302180e-10,5.307256883e-10,9.210572193e-11,3.032802192e-10,5.742638399e-10,5.205246777e-11,5.625808342e-10,1.412828525e-12,1.694247054e-12
0.38281,8.581802340e-10,5.008853604e-10,2.399305424e-10,4.706560744e-11,8.712122251e-11,2.255230205e-10,1.213269261e-10,8.934842513e-11,1.299541596e-11,8.110216093e-11,1.719626375e-10,8.802404042e-11,1.448730801e-10,3.415578993e-11,2.368332476e-10,1.454889446e-11,3.201434651e-10,1.281653533e-10,1.909222953e-10,3.537782796e-10,1.149453500e-10,8.362309452e-11,2.174882003e-10,3.071288256e-10,4.733127617e-10,8.230471367e-11,2.705950985e-10,5.118571272e-10,4.673443742e-11,5.027192582e-10,1.254751529e-12,1.508921517e-12
0.39062,7.655037354e-10,4.466786280e-10,2.143123010e-10,4.207948802e-11,7.764417184e-11,2.008615893e-10,1.082014852e-10,7.957458595e-11,1.155457013e-11,7.248882173e-11,1.529792261e-10,7.820683321e-11,1.289704167e-10,3.063211377e-11,2.111092252e-10,1.295662204e-11,2.852785876e-10,1.140658350e-10,1.698688842e-10,3.154001254e-10,1.022107538e-10,7.431746832e-11,1.936113561e-10,2.734774324e-10,4.213955762e-10,7.343251702e-11,2.410410109e-10,4.554795196e-10,4.190699103e-11,4.485792776e-10,1.113865865e-12,1.341511104e-12
0.39844,6.819703471e-10,3.978225283e-10,1.911970046e-10,3.758490231e-11,6.910578132e-11,1.786639886e-10,9.636754705e-11,7.077589829e-11,1.025965056e-11,6.470061187e-11,1.358962480e-10,6.938158222e-11,1.146474342e-10,2.743561723e-11,1.879012015e-10,1.152169295e-11,2.538380852e-10,1.013700540e-10,1.509200850e-10,2.807602899e-10,9.076305210e-11,6.595723127e-11,1.721109022e-10,2.431548754e-10,3.746143250e-10,6.542513205e-11,2.144148417e-10,4.047944034e-10,3.753453904e-11,3.997977745e-10,9.888103767e-13,1.190801412e-12
0.40625,6.067051305e-10,3.538044147e-10,1.703477982e-10,3.353281303e-11,6.141437142e-11,1.586828493e-10,8.569885245e-11,6.285601569e-11,9.095881284e-12,5.766713428e-11,1.205277089e-10,6.144870523e-11,1.017497288e-10,2.454214993e-11,1.669814491e-10,1.022980914e-11,2.255032076e-10,8.994061553e-11,1.338653700e-10,2.495259353e-10,8.046795679e-11,5.844310213e-11,1.527526668e-10,2.158421776e-10,3.324866726e-10,5.820265554e-11,1.904376910e-10,3.592168364e-10,3.358541528e-11,3.558659007e-10,8.779734396e-13,1.055467923e-12
0.41406,5.390573548e-10,3.142442084e-10,1.515857172e-10,2.988637527e-11,5.450345495e-11,1.407355908e-10,7.610358266e-11,5.574279378e-11,8.052220826e-12,5.133202144e-11,1.067323735e-10,5.433353573e-11,9.016375646e-11,2.193078621e-11,1.481736713e-10,9.069422590e-12,2.000307712e-10,7.967610944e-11,1.185519687e-10,2.214383476e-10,7.122605345e-11,5.170214075e-11,1.353662739e-10,1.913037898e-10,2.946544259e-10,5.170680409e-11,1.689019042e-10,3.183039070e-10,3.002883667e-11,3.163984250e-10,7.800577520e-13,9.341837514e-13
0.42188,4.782945195e-10,2.787164004e-10,1.347112183e-10,2.660793654e-11,4.829805755e-11,1.246399728e-10,6.748430245e-11,4.936288626e-11,7.117966867e-12,4.562699752e-11,9.436557059e-11,4.796335263e-11,7.976737960e-11,1.957285604e-11,1.312718654e-10,8.027726002e-12,1.771412294e-10,7.046650918e-11,1.048188801e-10,1.961846283e-10,6.294490869e-11,4.566691217e-11,1.197674760e-10,1.692760989e-10,2.607009927e-10,4.586597114e-11,1.495727347e-10,2.816568341e-10,2.682597053e-11,2.809665689e-10,6.940153979e-13,8.259197975e-13
0.42969,4.238400601e-10,2.468827301e-10,1.195676447e-10,2.366505549e-11,4.273900344e-11,1.102311429e-10,5.975705197e-11,4.365216996e-11,6.283400520e-12,4.050255543e-11,8.330497639e-11,4.227192169e-11,7.046128685e-11,1.745138161e-11,1.161271470e-10,7.096377213e-12,1.566308158e-10,6.222544625e-11,9.252984814e-11,1.735433684e-10,5.553905678e-11,4.027340720e-11,1.058063203e-10,1.495477717e-10,2.303081196e-10,4.062757329e-11,1.322703590e-10,2.488973602e-10,2.394955729e-11,2.492327500e-10,6.185787272e-13,7.294384810e-13
0.4375,3.752370303e-10,2.184714029e-10,1.060292519e-10,2.103288059e-11,3.778005743e-11,9.737803030e-11,5.285481367e-11,3.855841510e-11,5.540513643e-12,3.591623921e-11,7.344618588e-11,3.720443803e-11,6.216503077e-11,1.554944404e-11,1.026105509e-10,6.267734443e-12,1.383337099e-10,5.488309130e-11,8.157880359e-11,1.533345540e-10,4.894221240e-11,3.547126443e-11,9.336290868e-11,1.319578119e-10,2.032217566e-10,3.594959129e-11,1.168470288e-10,2.197154359e-10,2.137601890e-11,2.209297509e-10,5.526679784e-13,6.434931185e-13
0.44531,3.317523493e-10,1.930533966e-10,9.389590808e-11,1.867323523e-11,3.334510103e-11,8.588887306e-11,4.667560757e-11,3.400515246e-11,4.877802820e-12,3.180126887e-11,6.463636997e-11,3.268347319e-11,5.475234714e-11,1.383896270e-11,9.051319518e-11,5.528387941e-12,1.219669069e-10,4.832564779e-11,7.180045926e-11,1.352528473e-10,4.305929451e-11,3.119001835e-11,8.224941874e-11,1.162411219e-10,1.790227559e-10,3.176281902e-11,1.030639772e-10,1.936799943e-10,1.907499106e-11,1.956314554e-10,4.954784595e-13,5.669767598e-13
0.45312,2.929308609e-10,1.703648565e-10,8.304515261e-11,1.656027798e-11,2.938531625e-11,7.563698381e-11,4.115466275e-11,2.994371541e-11,4.287953284e-12,2.812001430e-11,5.678702445e-11,2.866073545e-11,4.814493337e-11,1.230700403e-11,7.971962074e-11,4.871475218e-12,1.073617128e-10,4.248409805e-11,6.308717193e-11,1.191097044e-10,3.782236615e-11,2.738053937e-11,7.234527991e-11,1.022207911e-10,1.574531929e-10,2.802446118e-11,9.077549797e-11,1.704970115e-10,1.702226897e-11,1.730664372e-10,4.461127963e-13,4.989853565e-13
0.46094,2.584788640e-10,1.502356425e-10,7.339590840e-11,1.467892686e-11,2.587153186e-11,6.654542103e-11,3.625243617e-11,2.634336489e-11,3.766411179e-12,2.484612305e-11,4.984138205e-11,2.510580214e-11,4.229119169e-11,1.094233418e-11,7.014935297e-11,4.291652590e-12,9.441008586e-11,3.731321596e-11,5.537101226e-11,1.047811012e-10,3.318740617e-11,2.401113650e-11,6.357215000e-11,8.979592041e-11,1.383539683e-10,2.470554496e-11,7.988867433e-11,1.499867965e-10,1.519589850e-11,1.530613946e-10,4.037219947e-13,4.388681189e-13
0.46875,2.278132149e-10,1.323275687e-10,6.478844039e-11,1.299964493e-11,2.274614400e-11,5.846181536e-11,3.188966709e-11,2.314326408e-11,3.303744287e-12,2.192790961e-11,4.367556554e-11,2.195502523e-11,3.708966947e-11,9.722833200e-12,6.163712836e-11,3.777735931e-12,8.289157641e-11,3.272078792e-11,4.851851242e-11,9.203784733e-11,2.907612200e-11,2.102191188e-11,5.578173148e-11,7.876806646e-11,1.214017730e-10,2.175238712e-11,7.021827926e-11,1.317986719e-10,1.357267525e-11,1.352808640e-10,3.675756647e-13,3.857819802e-13
0.47656,2.005186118e-10,1.163980950e-10,5.711197383e-11,1.149969785e-11,1.996617534e-11,5.127370299e-11,2.800784652e-11,2.029932494e-11,2.893316529e-12,1.932882696e-11,3.820362782e-11,1.916357430e-11,3.247232216e-11,8.635505708e-12,5.407436564e-11,3.323903343e-12,7.265585842e-11,2.864617634e-11,4.243625700e-11,8.071279773e-11,2.543163509e-11,1.837043390e-11,4.886726317e-11,6.897916921e-11,1.063584819e-10,1.912588655e-11,6.162954820e-11,1.156621972e-10,1.213231837e-11,1.194762789e-10,3.369779545e-13,3.388561767e-13
0.48438,1.763558710e-10,1.023028606e-10,5.030173814e-11,1.016657432e-11,1.750674745e-11,4.491888763e-11,2.457268832e-11,1.778611285e-11,2.531749693e-12,1.702331210e-11,3.337833520e-11,1.670744148e-11,2.839917773e-11,7.669517156e-12,4.739202201e-11,2.926414683e-12,6.361172264e-11,2.505480661e-11,3.707295859e-11,7.069405338e-11,2.222265104e-11,1.603606448e-11,4.276484264e-11,6.033781536e-11,9.308262071e-11,1.680101467e-11,5.404291528e-11,1.014319492e-10,1.085570115e-11,1.054981362e-10,3.112658270e-13,2.974679645e-13
0.49219,1.549787173e-10,8.983805518e-11,4.426365297e-11,8.982812415e-12,1.533235904e-11,3.930083678e-11,2.153466527e-11,1.556497144e-11,2.212945496e-12,1.497898949e-11,2.912221306e-11,1.454488821e-11,2.480426186e-11,6.810461794e-12,4.148768348e-11,2.578108728e-12,5.562250302e-11,2.188841488e-11,3.234375602e-11,6.184062906e-11,1.939841825e-11,1.398028358e-11,3.738233503e-11,5.272223375e-11,8.137560815e-11,1.474547940e-11,4.734829736e-11,8.888840792e-11,9.728057525e-12,9.314389096e-11,2.897197120e-13,2.609597175e-13
0.5,1.360774800e-10,7.882482061e-11,3.891461571e-11,7.932536174e-12,1.341058107e-11,3.433582292e-11,1.884979755e-11,1.360249808e-11,1.931637303e-12,1.316953040e-11,2.536982997e-11,1.264034794e-11,2.163243548e-11,6.048322429e-12,3.627746150e-11,2.273970503e-12,4.857443306e-11,1.909899188e-11,2.817390599e-11,5.402967651e-11,1.691223782e-11,1.216804586e-11,3.263841149e-11,4.601380042e-11,7.105989434e-11,1.292998273e-11,4.144632087e-11,7.783497383e-11,8.734889481e-12,8.223450497e-11,2.717311508e-13,2.287858506e-13
0.50781,1.193742211e-10,6.909809555e-11,3.417633599e-11,7.001177911e-12,1.171333791e-11,2.995613150e-11,1.647978689e-11,1.187120652e-11,1.684199372e-12,1.156830155e-11,2.206907418e-11,1.096822844e-11,1.883933184e-11,5.372441550e-12,3.168384283e-11,2.009562835e-12,4.236423668e-11,1.664703856e-11,2.450460151e-11,4.714103825e-11,1.472870109e-11,1.057576323e-11,2.846226013e-11,4.010864331e-11,6.197983214e-11,1.132656893e-11,3.624578588e-11,6.811680922e-11,7.858168354e-12,7.260554276e-11,2.569259568e-13,2.005631748e-13
0.51562,1.046401379e-10,6.052221869e-11,2.998455001e-11,6.176158873e-12,1.021750399e-11,2.609861282e-11,1.439246790e-11,1.034686920e-11,1.467043775e-12,1.015420543e-11,1.917169204e-11,9.503852991e-12,1.638515413e-11,4.774703883e-12,2.764344963e-11,1.780493328e-12,3.690341346e-11,1.449637808e-11,2.128352535e-11,4.108149306e-11,1.281662401e-11,9.179817069e-12,2.479452787e-11,3.492774818e-11,5.400827968e-11,9.913683669e-12,3.167315207e-11,5.958685496e-11,7.085987174e-12,6.412020754e-11,2.449019639e-13,1.758017420e-13
0.52344,9.170300913e-11,5.300048850e-11,2.629445730e-11,5.448625344e-12,8.905566296e-12,2.271492231e-11,1.256199959e-11,9.010656670e-12,1.277216815e-12,8.911914370e-12,1.663949260e-11,8.226785756e-12,1.423903422e-11,4.248963469e-12,2.410940525e-11,1.583272026e-12,3.212656675e-11,1.261905497e-11,1.846860536e-11,3.578007449e-11,1.114920653e-11,7.959836683e-12,2.158865211e-11,3.040403182e-11,4.704190417e-11,8.675042349e-12,2.767230557e-11,5.212558429e-11,6.408842991e-12,5.667537799e-11,2.352172053e-13,1.540910175e-13
0.53125,8.030537230e-11,4.638214308e-11,2.303710315e-11,4.804958959e-12,7.751681431e-12,1.973959509e-11,1.095111907e-11,7.835688136e-12,1.110990515e-12,7.816208136e-12,1.442001019e-11,7.110607163e-12,1.235654308e-11,3.783698604e-12,2.100602427e-11,1.413107802e-12,2.793323417e-11,1.097484119e-11,1.600090577e-11,3.112537958e-11,9.690952468e-12,6.891560493e-12,1.877621158e-11,2.643873101e-11,4.093046879e-11,7.585162903e-12,2.415877447e-11,4.558066776e-11,5.813033612e-12,5.011746403e-11,2.275410925e-13,1.351353855e-13
0.53906,7.025868470e-11,4.055157664e-11,2.016098231e-11,4.234446006e-12,6.735632073e-12,1.712214454e-11,9.533974309e-12,6.802035295e-12,9.653634312e-13,6.849430436e-12,1.247487681e-11,6.135089228e-12,1.070390060e-11,3.371731013e-12,1.827952640e-11,1.266961980e-12,2.424876695e-11,9.533812140e-12,1.383573000e-11,2.703613796e-11,8.414686338e-12,5.955428907e-12,1.630680685e-11,2.296291021e-11,3.556768825e-11,6.625096691e-12,2.107101199e-11,3.983482883e-11,5.288968857e-12,4.433379541e-11,2.215506977e-13,1.185791971e-13
0.54688,6.080119544e-11,3.499850692e-11,1.760710230e-11,3.733898415e-12,5.769531663e-12,1.474824090e-11,8.340122211e-12,5.826686377e-12,8.392054977e-13,5.957812153e-12,1.075239118e-11,5.258068383e-12,9.172602300e-12,3.011720821e-12,1.582267009e-11,1.151023948e-12,2.083143874e-11,8.290345238e-12,1.180526320e-11,2.337945222e-11,7.329023344e-12,5.122653574e-12,1.400853348e-11,1.988413513e-11,3.030037846e-11,5.732536998e-12,1.791088841e-11,3.418249446e-11,4.760415473e-12,3.836102767e-11,2.172559818e-13,1.030281081e-13
0.55469,5.328846770e-11,3.060360892e-11,1.549627296e-11,3.312148894e-12,5.006760703e-12,1.282799309e-11,7.325240052e-12,5.058353336e-12,7.353702422e-13,5.230697131e-12,9.366767281e-12,4.559440241e-12,7.949590623e-12,2.704746044e-12,1.383798319e-11,1.059155430e-12,1.812343001e-11,7.258111003e-12,1.019849374e-11,2.036112109e-11,6.404088505e-12,4.431631754e-12,1.215204086e-11,1.731233718e-11,2.622197002e-11,5.007085726e-12,1.553125961e-11,2.974035282e-11,4.378311385e-12,3.384411986e-11,2.148427009e-13,9.056664233e-14
0.5625,4.665140345e-11,2.681339129e-11,1.350680986e-11,2.916325717e-12,4.342456967e-12,1.107913455e-11,6.351106399e-12,4.380653549e-12,6.365411959e-13,4.586420434e-12,8.051912887e-12,3.917134523e-12,6.865289223e-12,2.406118485e-12,1.198394736e-11,9.606487063e-13,1.566809647e-11,6.277768535e-12,8.792023285e-12,1.762120031e-11,5.566961011e-12,3.817353680e-12,1.057678041e-11,1.506654533e-11,2.291721921e-11,4.382988565e-12,1.364838922e-11,2.617835550e-11,4.099793006e-12,3.032442040e-11,2.132979753e-13,8.023733308e-14
0.57031,4.086411291e-11,2.347573206e-11,1.181300052e-11,2.575390175e-12,3.761558708e-12,9.579517498e-12,5.531212353e-12,3.792815638e-12,5.536307226e-13,4.025304058e-12,6.954534380e-12,3.375994565e-12,5.929685398e-12,2.155352675e-12,1.041946322e-11,8.876394445e-13,1.357145864e-11,5.456758855e-12,7.573287914e-12,1.527416890e-11,4.844210775e-12,3.283346873e-12,9.183853103e-12,1.310410638e-11,1.994340050e-11,3.832589498e-12,1.193432280e-11,2.294004948e-11,3.825645258e-12,2.706667261e-11,2.126690050e-13,7.170494958e-14
0.57812,3.582546184e-11,2.053857690e-11,1.036360698e-11,2.279382263e-12,3.253067017e-12,8.293821193e-12,4.833171102e-12,3.285486915e-12,4.838733636e-13,3.534213525e-12,6.042418581e-12,2.923470617e-12,5.122229742e-12,1.944564567e-12,9.101256477e-12,8.368197113e-13,1.179211491e-11,4.766217608e-12,6.520189326e-12,1.324781406e-11,4.208531817e-12,2.814178936e-12,7.940554291e-12,1.136458106e-11,1.727547988e-11,3.342754377e-12,1.039271065e-11,2.000786957e-11,3.567776164e-12,2.408819722e-11,2.129240166e-13,6.504168677e-14
0.58594,3.139291150e-11,1.799908230e-11,9.052617113e-12,2.015436833e-12,2.810726224e-12,7.153339907e-12,4.209529906e-12,2.838508119e-12,4.208327585e-13,3.105697428e-12,5.209490855e-12,2.518244794e-12,4.417165279e-12,1.749607329e-12,7.908153993e-12,7.869075377e-13,1.019736421e-11,4.147937735e-12,5.604916300e-12,1.148056406e-11,3.675103575e-12,2.415886036e-12,6.903390886e-12,9.920316274e-12,1.505310878e-11,2.927125329e-12,9.099032704e-12,1.760875298e-11,3.346918456e-12,2.161320996e-11,2.131330660e-13,5.930527667e-14
0.59375,2.752704200e-11,1.578102475e-11,7.914475110e-12,1.784605069e-12,2.425644506e-12,6.165230987e-12,3.670746441e-12,2.450852452e-12,3.663859345e-13,2.732244657e-12,4.495511253e-12,2.170547792e-12,3.807039776e-12,1.582819109e-12,6.884370708e-12,7.491419665e-13,8.823822435e-12,3.617078433e-12,4.813621513e-12,9.954810042e-12,3.214174762e-12,2.071165513e-12,5.997582762e-12,8.664613425e-12,1.310328684e-11,2.562295701e-12,7.960491176e-12,1.551488383e-11,3.133121093e-12,1.941221786e-11,2.131804105e-13,5.447177413e-14
0.60156,2.416448238e-11,1.383976627e-11,6.926749069e-12,1.581255080e-12,2.090286907e-12,5.313340689e-12,3.199767171e-12,2.117386676e-12,3.196202304e-13,2.404473368e-12,3.891847963e-12,1.876158678e-12,3.280352276e-12,1.442322670e-12,6.015130670e-12,7.239724917e-13,7.660167116e-12,3.162197318e-12,4.134182704e-12,8.625946854e-12,2.801591219e-12,1.768325347e-12,5.189503058e-12,7.538008591e-12,1.137934031e-11,2.236088989e-12,6.964327499e-12,1.366823648e-11,2.926882929e-12,1.744663169e-11,2.131649391e-13,5.063763816e-14
0.60938,2.032672977e-11,1.161580184e-11,5.913918720e-12,1.352322567e-12,1.763147693e-12,4.428719277e-12,2.630726269e-12,1.774757472e-12,2.742221432e-13,2.064066304e-12,3.284164906e-12,1.562197892e-12,2.724873356e-12,1.293914052e-12,5.079205029e-12,6.751242092e-13,6.441559328e-12,2.639688473e-12,3.411414448e-12,7.097991052e-12,2.185613079e-12,1.426200405e-12,4.206574149e-12,5.904797024e-12,9.189117778e-12,1.871108212e-12,5.843644028e-12,1.115090056e-11,2.676960257e-12,1.497575180e-11,2.147828729e-13,4.705751748e-14
0.61719,1.777629546e-11,1.016789638e-11,5.172236369e-12,1.193840486e-12,1.528161689e-12,3.801588589e-12,2.262557880e-12,1.533705194e-12,2.397540991e-13,1.824813780e-12,2.835861242e-12,1.341151104e-12,2.342684783e-12,1.189586194e-12,4.428062970e-12,6.535017268e-13,5.576044600e-12,2.288644875e-12,2.917564418e-12,6.118368329e-12,1.850330436e-12,1.207276267e-12,3.615778877e-12,5.031844328e-12,7.900249031e-12,1.631010062e-12,5.116825994e-12,9.737779876e-12,2.502174105e-12,1.348312492e-11,2.165264970e-13,4.394195933e-14
0.625,1.577065498e-11,9.002636516e-12,4.548030718e-12,1.069557371e-12,1.305800169e-12,3.275002639e-12,2.009696239e-12,1.322105869e-12,2.106939387e-13,1.620913167e-12,2.464731691e-12,1.165072411e-12,2.031288127e-12,1.125207559e-12,3.942281482e-12,6.627871474e-13,4.907300505e-12,2.053605933e-12,2.519522084e-12,5.409477211e-12,1.673525147e-12,1.041061325e-12,3.170404270e-12,4.538012536e-12,6.950469637e-12,1.431547758e-12,4.493110877e-12,8.791692215e-12,2.343881779e-12,1.226595027e-11,2.166337213e-13,4.106995263e-14
0.63281,1.397242328e-11,7.970334063e-12,4.001597631e-12,9.569986848e-13,1.120497136e-12,2.814816176e-12,1.774247065e-12,1.140447244e-12,1.847869989e-13,1.444079909e-12,2.138730305e-12,1.007300843e-12,1.757253464e-12,1.066361037e-12,3.506642029e-12,6.686337409e-13,4.314352911e-12,1.830323537e-12,2.169205052e-12,4.763582979e-12,1.496118529e-12,8.943037976e-13,2.767973928e-12,4.037358834e-12,6.078816721e-12,1.253491089e-12,3.952854209e-12,7.922727575e-12,2.186127652e-12,1.117456829e-11,2.159897380e-13,3.847932987e-14
0.64062,1.238581171e-11,7.075953220e-12,3.521988483e-12,8.571762948e-13,9.652953082e-13,2.413618601e-12,1.561880971e-12,9.853909396e-13,1.608945307e-13,1.291804551e-12,1.848626980e-12,8.658405023e-13,1.513065849e-12,1.011940323e-12,3.112822216e-12,6.732759544e-13,3.780773034e-12,1.616607716e-12,1.857473044e-12,4.181555267e-12,1.334423278e-12,7.648904503e-13,2.413122216e-12,3.575563456e-12,5.314863185e-12,1.095960872e-12,3.493290577e-12,7.178775950e-12,2.040039448e-12,1.024579038e-11,2.149781096e-13,3.638214703e-14
0.64844,1.103067774e-11,6.290526953e-12,3.112055068e-12,7.733566053e-13,8.240719843e-13,2.074637651e-12,1.396247215e-12,8.483112208e-13,1.418984695e-13,1.158049624e-12,1.613373224e-12,7.515039241e-13,1.311703726e-12,9.751386733e-13,2.804344598e-12,6.905899681e-13,3.363578314e-12,1.463014241e-12,1.602822860e-12,3.712564692e-12,1.217955991e-12,6.608595918e-13,2.110292659e-12,3.213159311e-12,4.653440265e-12,9.577018794e-13,3.080262527e-12,6.538998704e-12,1.903727319e-12,9.363604868e-12,2.135054229e-13,3.461414757e-14
0.65625,9.856330010e-12,5.611585904e-12,2.760112648e-12,7.012973260e-13,7.037262312e-13,1.786540407e-12,1.257067741e-12,7.310610208e-13,1.257713592e-13,1.042896070e-12,1.416380098e-12,6.560273993e-13,1.139372372e-12,9.427488362e-13,2.541259993e-12,7.111734136e-13,3.008812781e-12,1.331755998e-12,1.385333836e-12,3.305704303e-12,1.122404688e-12,5.724540708e-13,1.847903656e-12,2.900110834e-12,4.080999916e-12,8.372695150e-13,2.727575841e-12,5.983976552e-12,1.786755911e-12,8.586920700e-12,2.119365765e-13,3.338958842e-14
0.66406,8.865899772e-12,5.053491396e-12,2.459533205e-12,6.412058785e-13,6.034288161e-13,1.544569872e-12,1.142030474e-12,6.334375861e-13,1.111032555e-13,9.455616801e-13,1.248491036e-12,5.762152150e-13,9.883496337e-13,9.108394281e-13,2.309231726e-12,7.340940279e-13,2.696153062e-12,1.211118598e-12,1.196870266e-12,2.948068389e-12,1.052069740e-12,4.960035714e-13,1.627851169e-12,2.649343786e-12,3.622324514e-12,7.347578607e-13,2.446515417e-12,5.558194889e-12,1.694848756e-12,7.975481054e-12,2.103035212e-13,3.301186248e-14
0.67188,7.982397322e-12,4.546233485e-12,2.201557179e-12,5.889138384e-13,5.147708919e-13,1.339566015e-12,1.047912371e-12,5.473203121e-13,9.962512908e-14,8.593334219e-13,1.113374510e-12,5.122682125e-13,8.610954816e-13,8.824562447e-13,2.113404394e-12,7.611922802e-13,2.436678939e-12,1.117131187e-12,1.038332060e-12,2.635732647e-12,9.925823045e-13,4.314552388e-13,1.432724453e-12,2.419038610e-12,3.202058161e-12,6.446924641e-13,2.189784571e-12,5.143354223e-12,1.614882698e-12,7.374694056e-12,2.087743418e-13,3.319013150e-14
0.67969,7.687354981e-12,4.376477655e-12,1.936759144e-12,5.817093140e-13,4.062256900e-13,1.103529510e-12,9.886152556e-13,4.438834585e-13,8.178176280e-14,7.527440145e-13,8.864021071e-13,4.131846310e-13,6.862840448e-13,8.539649134e-13,1.894461509e-12,8.152306795e-13,2.126759310e-12,9.873221061e-13,8.382175852e-13,2.356910898e-12,1.067351985e-12,3.585100544e-13,1.325527869e-12,2.518158469e-12,3.201399022e-12,5.928053482e-13,2.141789553e-12,5.460108188e-12,1.642087273e-12,7.636083989e-12,2.033742162e-13,3.598304146e-14
0.6875,7.433837181e-12,4.214336340e-12,1.799744117e-12,5.709688711e-13,3.504571533e-13,1.010236116e-12,9.766682456e-13,3.962547871e-13,7.664852295e-14,6.979199085e-13,8.178448845e-13,3.894492208e-13,6.238053641e-13,8.364588736e-13,1.812421517e-12,8.637792710e-13,2.023659578e-12,9.651740801e-13,7.733425436e-13,2.217126511e-12,1.123117260e-12,3.377158610e-13,1.267805830e-12,2.549904209e-12,3.132088705e-12,5.513694882e-13,2.072220703e-12,5.562759955e-12,1.581865233e-12,7.509384235e-12,1.965457132e-13,3.869991357e-14
0.69531,6.600067430e-12,3.774500456e-12,1.662386330e-12,5.290825063e-13,3.037556632e-13,9.118207479e-13,9.218235856e-13,3.502674793e-13,7.178163677e-14,6.620019844e-13,7.837505248e-13,3.709930815e-13,5.487625891e-13,8.042599515e-13,1.680862777e-12,8.900753398e-13,1.854182435e-12,9.076830160e-13,6.759690263e-13,1.960963195e-12,1.048646406e-12,2.925305319e-13,1.093522589e-12,2.278143926e-12,2.677903813e-12,4.738504252e-13,1.836713564e-12,5.047061620e-12,1.481520634e-12,6.814897758e-12,1.930403460e-13,4.067143467e-14
0.70312,6.054993827e-12,3.474621927e-12,1.549855393e-12,5.012201213e-13,2.635588300e-13,8.335120152e-13,8.894642825e-13,3.114952221e-13,6.870330217e-14,6.275241526e-13,7.540213006e-13,3.583895803e-13,4.924409911e-13,7.783495501e-13,1.586364333e-12,9.258755289e-13,1.734278723e-12,8.737473678e-13,6.074770440e-13,1.782966098e-12,1.017140979e-12,2.611216756e-13,9.787565213e-13,2.134455212e-12,2.405613885e-12,4.210031667e-13,1.684495388e-12,4.733008526e-12,1.429390217e-12,6.360377296e-12,1.912345310e-13,4.260641416e-14
0.71094,5.723244861e-12,3.259127448e-12,1.446891098e-12,4.824386000e-13,2.231642794e-13,7.676525291e-13,8.755033515e-13,2.745768832e-13,6.806655701e-14,5.894871139e-13,7.263233486e-13,3.509733725e-13,4.559341316e-13,7.606270573e-13,1.524940638e-12,9.711662146e-13,1.663105430e-12,8.716936024e-13,5.689185654e-13,1.667091907e-12,1.023566338e-12,2.468777680e-13,9.125347012e-13,2.092973762e-12,2.262901611e-12,3.851122809e-13,1.580955897e-12,4.576071562e-12,1.403011464e-12,6.037361766e-12,1.903348478e-13,4.417125085e-14
0.71875,5.302511108e-12,3.047301775e-12,1.377712531e-12,4.629090019e-13,1.962913922e-13,7.189666029e-13,8.594983660e-13,2.470024798e-13,6.633997850e-14,5.723501331e-13,7.168221573e-13,3.449355550e-13,4.133982508e-13,7.438776470e-13,1.463991710e-12,1.013498497e-12,1.579950152e-12,8.490228986e-13,5.193013581e-13,1.545289862e-12,9.994595824e-13,2.228556635e-13,8.275732818e-13,2.010941215e-12,2.072466840e-12,3.470041605e-13,1.475710670e-12,4.315908276e-12,1.384868767e-12,5.702972804e-12,1.913168660e-13,4.557425986e-14
0.72656,4.952307793e-12,2.875908313e-12,1.322752328e-12,4.458429333e-13,1.742431051e-13,6.780292708e-13,8.476936313e-13,2.240819704e-13,6.475782303e-14,5.601987393e-13,7.111329768e-13,3.392099822e-13,3.767395777e-13,7.341074151e-13,1.421109757e-12,1.058261505e-12,1.517522454e-12,8.303346141e-13,4.776432349e-13,1.458934686e-12,9.767397682e-13,2.004978216e-13,7.552246497e-13,1.960383737e-12,1.926018596e-12,3.153610454e-13,1.391715253e-12,4.079854424e-12,1.380320112e-12,5.423784913e-12,1.937970038e-13,4.667212168e-14
0.73438,4.659227517e-12,2.695908767e-12,1.257387960e-12,4.270373122e-13,1.477639722e-13,6.304782712e-13,8.356671523e-13,1.978866600e-13,6.489136317e-14,5.392696202e-13,6.986982190e-13,3.316729393e-13,3.521563470e-13,7.319852678e-13,1.391829031e-12,1.104400144e-12,1.480040213e-12,8.306193627e-13,4.507582361e-13,1.402729490e-12,9.575225800e-13,1.880302873e-13,6.971417853e-13,1.927588272e-12,1.800367363e-12,2.877905608e-13,1.299519972e-12,3.846463598e-12,1.378958393e-12,5.106043821e-12,1.978779871e-13,4.689747882e-14
0.74219,4.414721233e-12,2.573826704e-12,1.222949215e-12,4.141244394e-13,1.293505115e-13,5.989927392e-13,8.329413565e-13,1.789092837e-13,6.426404591e-14,5.315671157e-13,6.963857221e-13,3.243146243e-13,3.280888340e-13,7.385269486e-13,1.382344408e-12,1.152935537e-12,1.459569703e-12,8.272359612e-13,4.244684227e-13,1.378426877e-12,9.405410256e-13,1.735508004e-13,6.474806406e-13,1.925712901e-12,1.712230743e-12,2.652075291e-13,1.236963210e-12,3.646772074e-12,1.392231112e-12,4.875285967e-12,2.034597714e-13,4.693980206e-14
0.75,4.243490687e-12,2.506677424e-12,1.206872440e-12,4.059871304e-13,1.162913239e-13,5.782725629e-13,8.370603086e-13,1.650005068e-13,6.305672317e-14,5.303448850e-13,6.990146471e-13,3.166075353e-13,3.076731203e-13,7.546675382e-13,1.394017016e-12,1.205097353e-12,1.462944332e-12,8.267856694e-13,4.043952027e-13,1.389058530e-12,9.318884775e-13,1.598346711e-13,6.118261133e-13,1.964053988e-12,1.676928839e-12,2.488983720e-13,1.207411464e-12,3.507374769e-12,1.414977065e-12,4.730518809e-12,2.098048484e-13,4.695286136e-14
0.75781,4.023551376e-12,2.387662444e-12,1.173370817e-12,3.911214737e-13,1.004576585e-13,5.457256204e-13,8.297817346e-13,1.482781095e-13,6.226694342e-14,5.209694867e-13,6.955341655e-13,3.054196744e-13,2.900397567e-13,7.751654636e-13,1.402776848e-12,1.255086926e-12,1.466668171e-12,8.288378008e-13,3.849358389e-13,1.394105547e-12,9.069712803e-13,1.479609969e-13,5.662427788e-13,1.962822833e-12,1.596973681e-12,2.285829763e-13,1.147245730e-12,3.296224762e-12,1.427874477e-12,4.483430326e-12,2.172431767e-13,4.648565404e-14
0.76562,2.524683309e-12,1.490029307e-12,8.873722470e-13,2.908589661e-13,3.858530551e-14,3.465533298e-13,7.000280329e-13,6.095232440e-14,4.024975854e-14,4.357966912e-13,6.277074506e-13,2.156352842e-13,1.270702775e-13,7.312040388e-13,1.168481363e-12,1.261388217e-12,1.186273924e-12,6.827559764e-13,1.995681051e-13,1.022352119e-12,7.300087291e-13,6.568078498e-14,2.699000970e-13,1.650945823e-12,1.001818074e-12,1.109589538e-13,7.190756640e-13,2.177199653e-12,1.353858087e-12,3.153950886e-12,2.287326880e-13,4.423742200e-14
0.77344,2.296470816e-12,1.398784595e-12,9.009399092e-13,2.786339066e-13,3.977276325e-14,3.642775418e-13,7.182288387e-13,5.835161436e-14,3.589874313e-14,4.417191919e-13,6.829187809e-13,2.127293640e-13,1.136141985e-13,7.618541633e-13,1.220276384e-12,1.315273995e-12,1.254465715e-12,6.930743022e-13,1.955749507e-13,1.078016485e-12,7.179624045e-13,5.488912716e-14,2.385722025e-13,1.723318082e-12,9.929841333e-13,9.781956974e-14,6.977490768e-13,1.943037458e-12,1.402968029e-12,2.912948416e-12,2.415599636e-13,4.402912663e-14
0.78125,2.536924304e-12,1.520484081e-12,9.207841797e-13,2.911899933e-13,3.460543497e-14,3.591626113e-13,7.329521881e-13,5.734384059e-14,3.774612187e-14,4.334962132e-13,6.630200244e-13,2.047773110e-13,1.261842695e-13,8.070334371e-13,1.276237997e-12,1.373215477e-12,1.318880573e-12,7.186590583e-13,2.082357089e-13,1.175663143e-12,7.336194798e-13,5.569104612e-14,2.674188615e-13,1.803171384e-12,1.094003953e-12,1.182274924e-13,7.582943147e-13,2.016219237e-12,1.484534313e-12,3.065410598e-12,2.522539485e-13,4.510242442e-14
0.78906,2.590166730e-12,1.564435871e-12,9.492870735e-13,2.974729786e-13,3.325314018e-14,3.759471496e-13,7.537802686e-13,6.003333796e-14,3.783788595e-14,4.312784347e-13,6.827311180e-13,2.053905862e-13,1.312411692e-13,8.441289795e-13,1.334282902e-12,1.430746560e-12,1.391164114e-12,7.407920554e-13,2.165635696e-13,1.247458689e-12,7.410311200e-13,5.155894566e-14,2.710260757e-13,1.864943671e-12,1.140480286e-12,1.234207921e-13,7.900415016e-13,1.998363955e-12,1.528219113e-12,3.061532465e-12,2.616139088e-13,4.731653689e-14
0.79688,2.602807954e-12,1.614296331e-12,1.008998768e-12,3.086401341e-13,3.322299638e-14,4.280062587e-13,7.988727616e-13,6.838822524e-14,3.862187664e-14,4.388917312e-13,7.449474292e-13,2.214361009e-13,1.414287967e-13,8.816705897e-13,1.418889831e-12,1.496688110e-12,1.501031971e-12,7.804085801e-13,2.351466943e-13,1.332117237e-12,7.669531178e-13,5.068374110e-14,2.805165341e-13,1.960411710e-12,1.198119350e-12,1.243300340e-13,8.343935974e-13,2.018964807e-12,1.553167370e-12,3.039363892e-12,2.692092661e-13,5.109033650e-14
0.80469,2.683938094e-12,1.645952979e-12,1.025427444e-12,3.177602385e-13,2.967754741e-14,4.444849312e-13,8.197512269e-13,6.966423227e-14,3.946045812e-14,4.229990945e-13,7.566726288e-13,2.231828957e-13,1.470334658e-13,9.046034449e-13,1.452129931e-12,1.550764575e-12,1.551062272e-12,8.000084544e-13,2.437075288e-13,1.357087589e-12,7.844293877e-13,5.041815672e-14,2.897686283e-13,2.003297274e-12,1.241076534e-12,1.306597461e-13,8.596680687e-13,2.067838080e-12,1.563185639e-12,3.040811362e-12,2.742188100e-13,5.556326737e-14
0.8125,2.732130229e-12,1.674062610e-12,1.051105808e-12,3.285369176e-13,2.895425546e-14,4.722334243e-13,8.443943230e-13,7.349065269e-14,4.026652842e-14,4.106611430e-13,7.784225118e-13,2.289756475e-13,1.513080996e-13,9.208913930e-13,1.481788248e-12,1.604933059e-12,1.599143641e-12,8.176868902e-13,2.520758892e-13,1.364967637e-12,8.039364718e-13,4.931903604e-14,2.949705209e-13,2.039629459e-12,1.271955921e-12,1.333317416e-13,8.870304023e-13,2.130098971e-12,1.553698569e-12,3.036396532e-12,2.768208431e-13,6.084202495e-14
0.82031,2.775734107e-12,1.726734306e-12,1.107398043e-12,3.456388070e-13,2.849798897e-14,5.294913942e-13,8.890065616e-13,8.269845212e-14,4.349200663e-14,4.095869060e-13,8.319096560e-13,2.505425102e-13,1.660437002e-13,9.384848978e-13,1.538666675e-12,1.667644944e-12,1.684354495e-12,8.571535483e-13,2.744005124e-13,1.396350442e-12,8.408003154e-13,5.426829656e-14,3.103637827e-13,2.099150836e-12,1.309523247e-12,1.326751475e-13,9.306820294e-13,2.249138831e-12,1.527195053e-12,3.042355317e-12,2.771617399e-13,6.694476165e-14
0.82812,2.800845462e-12,1.734059253e-12,1.131314699e-12,3.578434746e-13,2.661567379e-14,5.628240713e-13,9.156668033e-13,8.612782678e-14,4.591648866e-14,3.946425734e-13,8.580434348e-13,2.613026521e-13,1.727237974e-13,9.405912852e-13,1.554721592e-12,1.719520601e-12,1.722326811e-12,8.779433156e-13,2.860936365e-13,1.373633888e-12,8.665547794e-13,5.848167989e-14,3.155209035e-13,2.118465509e-12,1.315673552e-12,1.303289283e-13,9.448018691e-13,2.340146352e-12,1.482664963e-12,3.006780565e-12,2.756012722e-13,7.299704726e-14
0.83594,2.820842316e-12,1.742472348e-12,1.157268805e-12,3.709956334e-13,2.697538628e-14,5.969523697e-13,9.424743331e-13,8.925988721e-14,4.794075203e-14,3.821536081e-13,8.820903655e-13,2.695487467e-13,1.761736817e-13,9.354599693e-13,1.560347741e-12,1.767429514e-12,1.747345031e-12,8.914074466e-13,2.948617906e-13,1.333756971e-12,8.921808621e-13,6.300550213e-14,3.209117151e-13,2.140351451e-12,1.323439441e-12,1.274235743e-13,9.609687500e-13,2.443925770e-12,1.430381192e-12,2.985025483e-12,2.725415453e-13,7.894373076e-14
0.84375,2.853082830e-12,1.777201616e-12,1.201768976e-12,3.877397610e-13,2.719024456e-14,6.434944306e-13,9.785998703e-13,9.532553087e-14,5.230573332e-14,3.795430991e-13,9.183465251e-13,2.865217613e-13,1.881037643e-13,9.328742486e-13,1.582754263e-12,1.818011906e-12,1.791068568e-12,9.179076991e-13,3.122905742e-13,1.317324072e-12,9.240619063e-13,7.268709395e-14,3.343132634e-13,2.170137575e-12,1.334031392e-12,1.226957126e-13,9.897411942e-13,2.586350737e-12,1.374270792e-12,2.988476572e-12,2.684209452e-13,8.464859042e-14
0.85156,2.850250541e-12,1.780594908e-12,1.231182095e-12,3.999931292e-13,2.765738704e-14,6.765107272e-13,1.005266124e-12,9.807114512e-14,5.590271418e-14,3.736619169e-13,9.442046009e-13,2.967704273e-13,1.940452662e-13,9.240921052e-13,1.588583823e-12,1.861944374e-12,1.814191490e-12,9.333939825e-13,3.226214079e-13,1.278111253e-12,9.448406157e-13,8.104730039e-14,3.371536966e-13,2.179023872e-12,1.321414304e-12,1.148717533e-13,9.995054844e-13,2.684387768e-12,1.313540903e-12,2.951496092e-12,2.638664601e-13,8.950504583e-14
0.85938,2.847867810e-12,1.784827962e-12,1.261521362e-12,4.118158326e-13,2.936524705e-14,7.069293075e-13,1.033172574e-12,9.946696184e-14,5.889305682e-14,3.710836139e-13,9.696037808e-13,3.029604053e-13,1.974291795e-13,9.155280091e-13,1.596244252e-12,1.905004307e-12,1.839088535e-12,9.458141342e-13,3.311752063e-13,1.241145019e-12,9.658889115e-13,8.976215143e-14,3.418212260e-13,2.206486177e-12,1.321434631e-12,1.075836854e-13,1.011323498e-12,2.777298708e-12,1.259582723e-12,2.923163125e-12,2.594671546e-13,9.336425559e-14
0.86719,2.863549704e-12,1.806522805e-12,1.295079742e-12,4.233692765e-13,3.070232507e-14,7.329600226e-13,1.059146292e-12,1.010366790e-13,6.325257054e-14,3.736052303e-13,9.895470549e-13,3.099112148e-13,2.052021069e-13,9.121576814e-13,1.611628688e-12,1.948543201e-12,1.869945229e-12,9.631987734e-13,3.424175326e-13,1.225992429e-12,9.862391725e-13,1.007562901e-13,3.513673151e-13,2.239677817e-12,1.327960986e-12,1.008320772e-13,1.031062486e-12,2.881632138e-12,1.218428927e-12,2.923843160e-12,2.559882990e-13,9.605993656e-14
0.875,2.855552222e-12,1.817741130e-12,1.323769933e-12,4.318961283e-13,3.350106567e-14,7.508333908e-13,1.078350603e-12,1.011456216e-13,6.685536303e-14,3.778659192e-13,1.004041792e-12,3.116643686e-13,2.096228137e-13,9.095621542e-13,1.624634013e-12,1.987389894e-12,1.897846484e-12,9.754225287e-13,3.499584558e-13,1.213845907e-12,9.977739533e-13,1.097756268e-13,3.556033410e-13,2.270850066e-12,1.332303087e-12,9.368444624e-14,1.050472938e-12,2.949003018e-12,1.190439041e-12,2.912768122e-12,2.539607699e-13,9.753485778e-14
0.88281,2.850460397e-12,1.834265429e-12,1.356795551e-12,4.407572555e-13,3.681073268e-14,7.697768257e-13,1.101199470e-12,1.008750893e-13,6.985812406e-14,3.862263143e-13,1.024769036e-12,3.112844127e-13,2.139297813e-13,9.115525888e-13,1.650660315e-12,2.024464143e-12,1.943191655e-12,9.904936184e-13,3.592949380e-13,1.223624294e-12,1.010263577e-12,1.190655385e-13,3.640690953e-13,2.327696821e-12,1.359332139e-12,8.841147230e-14,1.079844108e-12,3.003896378e-12,1.180138207e-12,2.906261299e-12,2.534770783e-13,9.798913602e-14
0.89062,2.860373109e-12,1.856381905e-12,1.384442732e-12,4.473824059e-13,3.924558518e-14,7.780129195e-13,1.119254477e-12,9.955272061e-14,7.303443162e-14,3.950038813e-13,1.036082792e-12,3.079966082e-13,2.186574080e-13,9.178755091e-13,1.678112630e-12,2.057433628e-12,1.985628641e-12,1.003465061e-12,3.670282573e-13,1.245669607e-12,1.017985131e-12,1.278053477e-13,3.743946394e-13,2.383984323e-12,1.394236130e-12,8.529270995e-14,1.111572559e-12,3.047332374e-12,1.188677438e-12,2.916487397e-12,2.546740186e-13,9.745326230e-14
0.89844,2.861965582e-12,1.879534163e-12,1.411592441e-12,4.521158507e-13,4.307995288e-14,7.817927930e-13,1.134402074e-12,9.786554082e-14,7.540021961e-14,4.057254041e-13,1.044166544e-12,3.010920590e-13,2.210044703e-13,9.272033829e-13,1.706992120e-12,2.086459100e-12,2.028625199e-12,1.011918642e-12,3.715642476e-13,1.273695028e-12,1.019721975e-12,1.338245390e-13,3.844025708e-13,2.442369037e-12,1.439460642e-12,8.445979850e-14,1.150332007e-12,3.069137016e-12,1.214734043e-12,2.936642961e-12,2.574414779e-13,9.619964133e-14
0.90625,2.866992252e-12,1.912047168e-12,1.446019699e-12,4.582024983e-13,4.720262432e-14,7.918427783e-13,1.153882904e-12,9.709114662e-14,7.758442819e-14,4.196280098e-13,1.061559580e-12,2.955943669e-13,2.259226987e-13,9.423307232e-13,1.752280624e-12,2.115441249e-12,2.095782136e-12,1.027603703e-12,3.804669610e-13,1.328344724e-12,1.023346874e-12,1.398047580e-13,4.000392438e-13,2.520195706e-12,1.506924564e-12,8.623756116e-14,1.204185233e-12,3.088160877e-12,1.256412406e-12,2.964801040e-12,2.614203763e-13,9.452728067e-14
0.91406,2.878876112e-12,1.939610162e-12,1.472512668e-12,4.620194788e-13,5.019161331e-14,7.931766844e-13,1.167446134e-12,9.507534793e-14,7.933418420e-14,4.299469279e-13,1.071183776e-12,2.875936920e-13,2.303384010e-13,9.587501967e-13,1.794300259e-12,2.140178519e-12,2.158901013e-12,1.040839354e-12,3.877715692e-13,1.384166866e-12,1.022688282e-12,1.439564050e-13,4.148533046e-13,2.591944959e-12,1.575587019e-12,9.006230182e-14,1.256288746e-12,3.090716731e-12,1.309285217e-12,2.993559676e-12,2.663203682e-13,9.252086831e-14
0.92188,2.892814880e-12,1.967158546e-12,1.496962537e-12,4.648728707e-13,5.320713411e-14,7.926193751e-13,1.179724699e-12,9.305142990e-14,8.034048829e-14,4.394203207e-13,1.078396104e-12,2.777323378e-13,2.334848393e-13,9.747963533e-13,1.832713569e-12,2.160582444e-12,2.219128846e-12,1.050645227e-12,3.933005410e-13,1.437497538e-12,1.021128971e-12,1.462183850e-13,4.320502013e-13,2.665310193e-12,1.652600487e-12,9.621772447e-14,1.311148010e-12,3.087264281e-12,1.369401804e-12,3.031986527e-12,2.715813660e-13,9.060192043e-14
0.92969,2.906852319e-12,2.001417026e-12,1.525559037e-12,4.691731762e-13,5.619719588e-14,8.001456872e-13,1.195036859e-12,9.257257654e-14,8.169235234e-14,4.499851013e-13,1.092209525e-12,2.708863851e-13,2.400312331e-13,9.914852414e-13,1.876752181e-12,2.177888814e-12,2.290765898e-12,1.065727027e-12,4.030864308e-13,1.505998245e-12,1.021897646e-12,1.491523321e-13,4.557206991e-13,2.742573417e-12,1.742096012e-12,1.039435359e-13,1.376665454e-12,3.094660792e-12,1.431747856e-12,3.077400000e-12,2.766119613e-13,8.905153770e-14
0.9375,2.912235697e-12,2.022884405e-12,1.545974110e-12,4.721659956e-13,5.856892321e-14,8.039418172e-13,1.204961616e-12,9.105313044e-14,8.258038227e-14,4.550254971e-13,1.100619283e-12,2.623171235e-13,2.452674102e-13,1.003594352e-12,1.909125899e-12,2.188439954e-12,2.350351582e-12,1.075881687e-12,4.111078951e-13,1.561281624e-12,1.017717570e-12,1.508424960e-13,4.771766714e-13,2.800764752e-12,1.822046702e-12,1.121214210e-13,1.435673680e-12,3.089856005e-12,1.489796769e-12,3.108817637e-12,2.811367436e-13,8.780200082e-14
0.94531,2.919146998e-12,2.037921410e-12,1.562297069e-12,4.755400711e-13,5.984623514e-14,8.077816690e-13,1.214253407e-12,8.931575602e-14,8.282092744e-14,4.562783561e-13,1.108274305e-12,2.533184103e-13,2.492955632e-13,1.011411092e-12,1.933567282e-12,2.194812469e-12,2.402879607e-12,1.082782770e-12,4.181495281e-13,1.603271863e-12,1.013776586e-12,1.521960207e-13,4.989584090e-13,2.852327044e-12,1.897307313e-12,1.206244045e-13,1.487677199e-12,3.083123819e-12,1.539569806e-12,3.132738960e-12,2.846847586e-13,8.705968234e-14
0.95312,2.922666183e-12,2.052120473e-12,1.577560031e-12,4.790413475e-13,6.033703699e-14,8.155280731e-13,1.223739711e-12,8.871524720e-14,8.360585560e-14,4.568235343e-13,1.117359311e-12,2.477311466e-13,2.556235229e-13,1.016388855e-12,1.954276242e-12,2.197858912e-12,2.452318427e-12,1.091508972e-12,4.267074931e-13,1.644901810e-12,1.010662448e-12,1.544974790e-13,5.233106583e-13,2.894931294e-12,1.966767966e-12,1.283995464e-13,1.537347430e-12,3.086268111e-12,1.577839175e-12,3.153215685e-12,2.867232050e-13,8.694520444e-14
0.96094,2.902627699e-12,2.048077530e-12,1.583933734e-12,4.802158709e-13,6.066847083e-14,8.202344734e-13,1.227153877e-12,8.738891835e-14,8.420909907e-14,4.533250810e-13,1.121073534e-12,2.414472905e-13,2.599651871e-13,1.014594771e-12,1.958645953e-12,2.194334179e-12,2.483217517e-12,1.093850555e-12,4.318208403e-13,1.664332256e-12,1.002045355e-12,1.560565262e-13,5.433657762e-13,2.912473241e-12,2.014750352e-12,1.344330096e-13,1.573819024e-12,3.078493153e-12,1.601538456e-12,3.152638601e-12,2.872962646e-13,8.731174755e-14
0.96875,2.876289450e-12,2.033271296e-12,1.583484793e-12,4.819006893e-13,6.036465625e-14,8.257572325e-13,1.227858323e-12,8.565626338e-14,8.450824209e-14,4.457458648e-13,1.124516901e-12,2.352172071e-13,2.633642826e-13,1.007313940e-12,1.953903276e-12,2.186613401e-12,2.506732217e-12,1.094025187e-12,4.368305759e-13,1.668504480e-12,9.932365069e-13,1.587665126e-13,5.611097015e-13,2.917964572e-12,2.049138978e-12,1.391401080e-13,1.599048240e-12,3.069990735e-12,1.611390927e-12,3.136361909e-12,2.866577058e-13,8.809659575e-14
0.97656,2.848307211e-12,2.013282708e-12,1.577479691e-12,4.828623031e-13,5.934069674e-14,8.303726896e-13,1.225730547e-12,8.413104048e-14,8.531641510e-14,4.363964125e-13,1.124779607e-12,2.307360225e-13,2.674861571e-13,9.958297199e-13,1.940694296e-12,2.174451779e-12,2.518600209e-12,1.093152350e-12,4.416234214e-13,1.665301914e-12,9.842357048e-13,1.627321083e-13,5.770542817e-13,2.908810583e-12,2.069613504e-12,1.418910164e-13,1.614156140e-12,3.066109819e-12,1.608632492e-12,3.113106309e-12,2.849504327e-13,8.916930436e-14
0.98438,2.796918515e-12,1.977113480e-12,1.564585503e-12,4.810753248e-13,5.822597814e-14,8.303373892e-13,1.219188163e-12,8.225440084e-14,8.600128958e-14,4.258032287e-13,1.119842304e-12,2.256527345e-13,2.686856788e-13,9.781504576e-13,1.912549057e-12,2.156139653e-12,2.509952936e-12,1.084873759e-12,4.417463018e-13,1.642685237e-12,9.715076181e-13,1.660581834e-13,5.874793774e-13,2.880088269e-12,2.068953640e-12,1.420411180e-13,1.614367978e-12,3.050738350e-12,1.593636655e-12,3.073024797e-12,2.823968975e-13,9.036681860e-14
0.99219,2.731707656e-12,1.931446067e-12,1.546412614e-12,4.793728755e-13,5.751962030e-14,8.302206345e-13,1.209961755e-12,8.028567823e-14,8.639658846e-14,4.134581597e-13,1.115411738e-12,2.204854209e-13,2.684824681e-13,9.562343369e-13,1.878790587e-12,2.134254023e-12,2.495997224e-12,1.074296015e-12,4.413219057e-13,1.611358359e-12,9.575941801e-13,1.703546489e-13,5.950129540e-13,2.843560098e-12,2.056931031e-12,1.411898801e-13,1.608672936e-12,3.032980016e-12,1.569130230e-12,3.019749426e-12,2.790268706e-13,9.153496118e-14
1,2.662847962e-12,1.879390846e-12,1.521538024e-12,4.764330564e-13,5.676346167e-14,8.256370718e-13,1.196259901e-12,7.781301976e-14,8.683448692e-14,3.997182334e-13,1.106214483e-12,2.152186655e-13,2.673527540e-13,9.314241764e-13,1.838168515e-12,2.108055670e-12,2.470923527e-12,1.060663323e-12,4.391205184e-13,1.571090652e-12,9.408464885e-13,1.747959704e-13,5.984050701e-13,2.794623278e-12,2.031785504e-12,1.391122510e-13,1.594368250e-12,3.010122602e-12,1.537021133e-12,2.957211947e-12,2.748501822e-13,9.248628072e-14
1.0078,2.583547221e-12,1.820008462e-12,1.493193006e-12,4.718513396e-13,5.580151804e-14,8.168360991e-13,1.180214068e-12,7.535053239e-14,8.697351872e-14,3.871714937e-13,1.093488074e-12,2.098583263e-13,2.634690724e-13,9.040861266e-13,1.790371019e-12,2.076996218e-12,2.433579977e-12,1.041560072e-12,4.328559798e-13,1.519295884e-12,9.220029440e-13,1.779584137e-13,5.959781651e-13,2.735830069e-12,1.993204152e-12,1.348605657e-13,1.567386002e-12,2.973636867e-12,1.498690156e-12,2.883820855e-12,2.701252706e-13,9.322573673e-14
1.0156,2.494939490e-12,1.758978780e-12,1.464416412e-12,4.676576480e-13,5.596213287e-14,8.097433428e-13,1.163277131e-12,7.363803242e-14,8.691879105e-14,3.760054440e-13,1.081260766e-12,2.049075401e-13,2.587565991e-13,8.755314813e-13,1.742378314e-12,2.042403828e-12,2.395881874e-12,1.021585541e-12,4.261296127e-13,1.468507929e-12,9.022014053e-13,1.811502796e-13,5.915912500e-13,2.674574982e-12,1.952067132e-12,1.302943663e-13,1.539852443e-12,2.934195367e-12,1.456805104e-12,2.806549375e-12,2.649321109e-13,9.371609493e-14
1.0234,2.398382948e-12,1.691534573e-12,1.431223521e-12,4.618795503e-13,5.677800205e-14,7.979504040e-13,1.141938465e-12,7.129314867e-14,8.666399436e-14,3.641386636e-13,1.063060019e-12,1.984530579e-13,2.527219501e-13,8.452816527e-13,1.689033420e-12,2.003059551e-12,2.349681974e-12,9.981420229e-13,4.172938445e-13,1.411414701e-12,8.782308237e-13,1.835658566e-13,5.835992327e-13,2.605046871e-12,1.902830658e-12,1.257603604e-13,1.508263731e-12,2.883565015e-12,1.412589950e-12,2.722107141e-12,2.594715896e-13,9.377885555e-14
1.0312,2.304769746e-12,1.625175490e-12,1.398106402e-12,4.558154733e-13,5.753297695e-14,7.829773284e-13,1.119810844e-12,6.874355489e-14,8.599909613e-14,3.531264794e-13,1.043646513e-12,1.918062902e-13,2.454815242e-13,8.149915542e-13,1.635787593e-12,1.960777471e-12,2.301809553e-12,9.730223671e-13,4.077141564e-13,1.352940121e-12,8.549315409e-13,1.851317765e-13,5.728415821e-13,2.539317665e-12,1.850390144e-12,1.212331183e-13,1.473273732e-12,2.826507973e-12,1.368779430e-12,2.636458910e-12,2.541348798e-13,9.345976894e-14
1.0391,2.216497706e-12,1.567420606e-12,1.370026971e-12,4.508996988e-13,5.921037064e-14,7.715757495e-13,1.100039764e-12,6.740925912e-14,8.531391530e-14,3.451215233e-13,1.027606345e-12,1.866675275e-13,2.389125577e-13,7.857703120e-13,1.588670268e-12,1.916995129e-12,2.260149802e-12,9.502050404e-13,3.997495051e-13,1.305814961e-12,8.345827178e-13,1.865096182e-13,5.640569980e-13,2.482706530e-12,1.806374992e-12,1.176502326e-13,1.445140467e-12,2.777209695e-12,1.327221061e-12,2.559515095e-12,2.489289043e-13,9.287035197e-14
1.0469,2.119809088e-12,1.505652961e-12,1.340724485e-12,4.447832040e-13,6.113051565e-14,7.583004522e-13,1.078772413e-12,6.616813028e-14,8.437865987e-14,3.383431848e-13,1.008922412e-12,1.807289864e-13,2.310272515e-13,7.553448035e-13,1.538410924e-12,1.869674676e-12,2.213433315e-12,9.245050539e-13,3.897240521e-13,1.256228248e-12,8.117369406e-13,1.863966133e-13,5.538332518e-13,2.421169233e-12,1.760220852e-12,1.141804704e-13,1.415093826e-12,2.717695746e-12,1.286047160e-12,2.478877731e-12,2.439216510e-13,9.202725358e-14
1.0547,2.030337061e-12,1.447932979e-12,1.310876010e-12,4.394920213e-13,6.302448086e-14,7.439746357e-13,1.057020810e-12,6.454965557e-14,8.293492994e-14,3.312945212e-13,9.902628127e-13,1.743425094e-13,2.230781619e-13,7.253006769e-13,1.489992918e-12,1.820747234e-12,2.170823216e-12,8.988703648e-13,3.807855186e-13,1.207717973e-12,7.888903311e-13,1.860566045e-13,5.429889684e-13,2.361610604e-12,1.716098754e-12,1.120980490e-13,1.387125570e-12,2.656411817e-12,1.246797788e-12,2.403536187e-12,2.392169985e-13,9.100114736e-14
1.0625,1.955402518e-12,1.401621522e-12,1.286045908e-12,4.354569228e-13,6.523374939e-14,7.328564862e-13,1.037967633e-12,6.363828128e-14,8.170070194e-14,3.261138403e-13,9.739366457e-13,1.697587111e-13,2.174654630e-13,6.976465641e-13,1.448530881e-12,1.771656136e-12,2.136839544e-12,8.774440888e-13,3.750508307e-13,1.171511444e-12,7.687441598e-13,1.862124775e-13,5.353163048e-13,2.308898617e-12,1.681685753e-12,1.115581686e-13,1.367514059e-12,2.607380837e-12,1.210227595e-12,2.341692688e-12,2.347539249e-13,8.991311968e-14
1.0703,1.874215068e-12,1.353081338e-12,1.261680449e-12,4.306139735e-13,6.687790834e-14,7.214665683e-13,1.019494962e-12,6.328722059e-14,8.057365291e-14,3.231171953e-13,9.571876055e-13,1.662141027e-13,2.117687473e-13,6.704161159e-13,1.406547837e-12,1.720919534e-12,2.100909826e-12,8.555061943e-13,3.685814924e-13,1.137505028e-12,7.483689986e-13,1.853767671e-13,5.270025215e-13,2.254560007e-12,1.644826553e-12,1.104656570e-13,1.345371709e-12,2.552178833e-12,1.174792138e-12,2.277043655e-12,2.310230002e-13,8.888285376e-14
1.0781,1.794802054e-12,1.306313756e-12,1.233187951e-12,4.265658193e-13,6.852215383e-14,7.093579236e-13,9.994031079e-13,6.257452919e-14,7.913149449e-14,3.193001551e-13,9.407731803e-13,1.623051458e-13,2.066026012e-13,6.435931208e-13,1.366010108e-12,1.669901140e-12,2.068309505e-12,8.344811185e-13,3.636575745e-13,1.105612723e-12,7.281034502e-13,1.851480914e-13,5.198687104e-13,2.201461263e-12,1.610200992e-12,1.112684449e-13,1.328355919e-12,2.502461093e-12,1.143582746e-12,2.222016913e-12,2.284806869e-13,8.786141435e-14
1.0859,1.727269255e-12,1.265248806e-12,1.203933100e-12,4.222531567e-13,6.992080400e-14,6.965648218e-13,9.790142698e-13,6.153938913e-14,7.796574197e-14,3.154269923e-13,9.243299335e-13,1.589031044e-13,2.034791552e-13,6.184641897e-13,1.328372095e-12,1.619633995e-12,2.038976743e-12,8.165229655e-13,3.612487521e-13,1.080566482e-12,7.094335152e-13,1.861994398e-13,5.161911048e-13,2.150348583e-12,1.582156542e-12,1.138948317e-13,1.317860129e-12,2.467013456e-12,1.116944185e-12,2.181772721e-12,2.270589729e-13,8.674410631e-14
1.0938,1.662906146e-12,1.225547095e-12,1.176282838e-12,4.174309777e-13,7.039534548e-14,6.830710163e-13,9.594687437e-13,6.079281997e-14,7.703225194e-14,3.134260288e-13,9.090581084e-13,1.571019803e-13,2.007837338e-13,5.943991749e-13,1.291586648e-12,1.569567025e-12,2.009304122e-12,7.992010706e-13,3.593266739e-13,1.060023846e-12,6.925416992e-13,1.873818293e-13,5.120359887e-13,2.100400714e-12,1.551994887e-12,1.158262773e-13,1.303874673e-12,2.431378315e-12,1.092935710e-12,2.142676497e-12,2.268908449e-13,8.564929207e-14
1.1016,1.597133568e-12,1.187480759e-12,1.144469784e-12,4.140690411e-13,7.114541438e-14,6.694797933e-13,9.378734367e-13,6.011610517e-14,7.587839890e-14,3.112825418e-13,8.941098877e-13,1.553045391e-13,1.985320906e-13,5.702458399e-13,1.255524615e-12,1.519054331e-12,1.980349371e-12,7.821356423e-13,3.584571254e-13,1.041845037e-12,6.752410573e-13,1.895467725e-13,5.086205880e-13,2.048575920e-12,1.522219182e-12,1.191345255e-13,1.293943906e-12,2.401911857e-12,1.073085427e-12,2.111842383e-12,2.280605249e-13,8.462001919e-14
1.1094,1.525909774e-12,1.144197683e-12,1.104841467e-12,4.096158162e-13,7.139336259e-14,6.514003779e-13,9.121928747e-13,5.872580479e-14,7.481233107e-14,3.083956666e-13,8.750718699e-13,1.526857400e-13,1.966296754e-13,5.459936713e-13,1.215751586e-12,1.467198381e-12,1.944315442e-12,7.638882006e-13,3.568987162e-13,1.020700923e-12,6.549882500e-13,1.925113238e-13,5.055404124e-13,1.985680566e-12,1.489525990e-12,1.231495315e-13,1.283903715e-12,2.372671796e-12,1.056600742e-12,2.083371021e-12,2.304780231e-13,8.350350810e-14
1.1172,1.460829778e-12,1.101720667e-12,1.063673745e-12,4.045145842e-13,7.091677741e-14,6.299526083e-13,8.850291262e-13,5.676385595e-14,7.385830788e-14,3.059531450e-13,8.547477925e-13,1.507435965e-13,1.950779498e-13,5.231653185e-13,1.175355561e-12,1.415408978e-12,1.905570510e-12,7.454605451e-13,3.553050409e-13,9.999230989e-13,6.344895810e-13,1.960545001e-13,5.010969922e-13,1.920106739e-12,1.453037052e-12,1.268940263e-13,1.271038255e-12,2.342893814e-12,1.043862548e-12,2.058229160e-12,2.340882181e-13,8.221777327e-14
1.125,1.400875231e-12,1.063875548e-12,1.021889478e-12,4.003513395e-13,7.111217132e-14,6.087386749e-13,8.564033123e-13,5.512136051e-14,7.285750438e-14,3.042388405e-13,8.343264345e-13,1.491768712e-13,1.942421034e-13,5.017449025e-13,1.137229093e-12,1.363736821e-12,1.868142378e-12,7.283739460e-13,3.545492726e-13,9.829586651e-13,6.141616955e-13,2.003158704e-13,4.970368568e-13,1.856888831e-12,1.418218278e-12,1.318176246e-13,1.263157413e-12,2.323737124e-12,1.035798792e-12,2.044991293e-12,2.386793591e-13,8.074109915e-14
1.1328,1.325422339e-12,1.016673123e-12,9.736933890e-13,3.943352331e-13,7.108724740e-14,5.833307520e-13,8.235297672e-13,5.345248732e-14,7.184326827e-14,3.030850625e-13,8.096861528e-13,1.467666953e-13,1.921418296e-13,4.803626017e-13,1.094009439e-12,1.309822473e-12,1.820294774e-12,7.086491687e-13,3.509689735e-13,9.611450252e-13,5.905421636e-13,2.037392246e-13,4.900665010e-13,1.784317003e-12,1.375539621e-12,1.359820343e-13,1.249451311e-12,2.296073360e-12,1.029557718e-12,2.025353331e-12,2.443296839e-13,7.907897522e-14
1.1406,1.252151909e-12,9.692424736e-13,9.213891208e-13,3.880832225e-13,7.105601527e-14,5.537259404e-13,7.876931218e-13,5.081816091e-14,7.064403676e-14,3.012967377e-13,7.817973959e-13,1.434138148e-13,1.891681767e-13,4.597925895e-13,1.047779802e-12,1.255104738e-12,1.766508275e-12,6.868271945e-13,3.457782941e-13,9.355907507e-13,5.652929230e-13,2.068269985e-13,4.808227068e-13,1.707511861e-12,1.328480311e-12,1.402232419e-13,1.232776150e-12,2.265973150e-12,1.026452517e-12,2.011507239e-12,2.510978434e-13,7.718044590e-14
1.1484,1.190177145e-12,9.289189729e-13,8.712939024e-13,3.829932977e-13,7.173739552e-14,5.244140236e-13,7.524951488e-13,4.828936143e-14,6.939808997e-14,3.004634910e-13,7.536507458e-13,1.400556779e-13,1.867940464e-13,4.408727394e-13,1.004323970e-12,1.201643536e-12,1.714474190e-12,6.664586358e-13,3.410718347e-13,9.141183715e-13,5.409406012e-13,2.100024668e-13,4.730401565e-13,1.634408542e-12,1.286249804e-12,1.456959330e-13,1.222358759e-12,2.248507218e-12,1.026840703e-12,2.013827226e-12,2.585792860e-13,7.496166516e-14
1.1562,1.118166666e-12,8.836677687e-13,8.236807637e-13,3.766527255e-13,7.226873650e-14,4.944857787e-13,7.180002862e-13,4.660364594e-14,6.805244638e-14,3.021311674e-13,7.258782760e-13,1.372708808e-13,1.831603019e-13,4.227718629e-13,9.603705861e-13,1.148327311e-12,1.657372148e-12,6.450116530e-13,3.342134201e-13,8.927929108e-13,5.156792159e-13,2.113441111e-13,4.623639222e-13,1.558806775e-12,1.238345700e-12,1.497956543e-13,1.207169586e-12,2.221164678e-12,1.027207999e-12,2.007628822e-12,2.667153432e-13,7.256315982e-14
1.1641,1.044823430e-12,8.383456506e-13,7.737939591e-13,3.705234243e-13,7.324560050e-14,4.626802367e-13,6.811818919e-13,4.447799674e-14,6.623478243e-14,3.030161643e-13,6.959102936e-13,1.332962933e-13,1.780228407e-13,4.049266669e-13,9.137970514e-13,1.094432604e-12,1.594310638e-12,6.208763532e-13,3.250079769e-13,8.660132755e-13,4.877123720e-13,2.111824813e-13,4.486804332e-13,1.478606527e-12,1.185071936e-12,1.542199305e-13,1.190739863e-12,2.188129834e-12,1.029322669e-12,2.006635700e-12,2.755876788e-13,7.013848272e-14
1.1719,9.791501241e-13,7.971175558e-13,7.242590002e-13,3.652535389e-13,7.463207724e-14,4.308704749e-13,6.444718517e-13,4.232443644e-14,6.439005393e-14,3.041464453e-13,6.643489914e-13,1.288219933e-13,1.727430833e-13,3.882015522e-13,8.674408824e-13,1.041171913e-12,1.529601296e-12,5.966172498e-13,3.147834810e-13,8.382080459e-13,4.588733636e-13,2.098384576e-13,4.350779779e-13,1.396948742e-12,1.133453433e-12,1.595730807e-13,1.177804868e-12,2.160421364e-12,1.034077833e-12,2.019212890e-12,2.852423757e-13,6.768827291e-14
1.1797,9.181545285e-13,7.592482311e-13,6.837956688e-13,3.595984838e-13,7.609427825e-14,4.017666582e-13,6.132458026e-13,4.119161815e-14,6.275052460e-14,3.084486091e-13,6.371400548e-13,1.264014023e-13,1.671599304e-13,3.735940998e-13,8.252637668e-13,9.905233435e-13,1.467639698e-12,5.737982343e-13,3.041110336e-13,8.142367182e-13,4.321581545e-13,2.063952296e-13,4.198100860e-13,1.319381889e-12,1.081909906e-12,1.642576831e-13,1.163331209e-12,2.128706995e-12,1.041216223e-12,2.032673603e-12,2.962913540e-13,6.530652870e-14
1.1875,8.626574554e-13,7.264839822e-13,6.476063909e-13,3.539995987e-13,7.838404177e-14,3.747341667e-13,5.845062297e-13,4.041221885e-14,6.087434670e-14,3.129322775e-13,6.123589830e-13,1.242927411e-13,1.611842108e-13,3.598691085e-13,7.852031769e-13,9.421382075e-13,1.408079541e-12,5.516535994e-13,2.931834591e-13,7.896985597e-13,4.062116299e-13,2.016215157e-13,4.033896425e-13,1.245342792e-12,1.030752201e-12,1.703487882e-13,1.152842499e-12,2.099472595e-12,1.053666309e-12,2.061982259e-12,3.090808863e-13,6.310170301e-14
1.1953,8.055551810e-13,6.921711493e-13,6.103094216e-13,3.478720762e-13,8.046007080e-14,3.473043665e-13,5.559207644e-13,3.987765250e-14,5.899586271e-14,3.173320007e-13,5.868526214e-13,1.220841014e-13,1.547391370e-13,3.459653567e-13,7.431929089e-13,8.943779454e-13,1.344822229e-12,5.289328272e-13,2.812125423e-13,7.629948384e-13,3.797150018e-13,1.957683858e-13,3.862425364e-13,1.168841711e-12,9.771060335e-13,1.769864337e-13,1.143255436e-12,2.069455246e-12,1.070824662e-12,2.101684006e-12,3.234168849e-13,6.112866774e-14
1.2031,7.604208985e-13,6.642100025e-13,5.794147189e-13,3.424889454e-13,8.226534396e-14,3.221208690e-13,5.319128040e-13,3.974615823e-14,5.741785631e-14,3.234401827e-13,5.655936283e-13,1.218948994e-13,1.482901121e-13,3.330723692e-13,7.039042718e-13,8.487308958e-13,1.282924099e-12,5.069390356e-13,2.695479353e-13,7.391041091e-13,3.556287308e-13,1.890124426e-13,3.689699506e-13,1.095728556e-12,9.252526772e-13,1.835387811e-13,1.133924011e-12,2.039639958e-12,1.093426620e-12,2.150162446e-12,3.394084092e-13,5.948372644e-14
1.2109,7.302795260e-13,6.465970829e-13,5.551918059e-13,3.388108919e-13,8.479552131e-14,3.016341671e-13,5.123785245e-13,4.014624080e-14,5.596814114e-14,3.303075228e-13,5.498470049e-13,1.232717545e-13,1.426892842e-13,3.214907725e-13,6.702878680e-13,8.066829881e-13,1.227518777e-12,4.876975453e-13,2.596002979e-13,7.173581977e-13,3.343333974e-13,1.821252474e-13,3.532744675e-13,1.029692038e-12,8.805405638e-13,1.919952390e-13,1.132018287e-12,2.021192789e-12,1.123992733e-12,2.222456293e-12,3.572565092e-13,5.820723583e-14
1.2188,6.939660926e-13,6.257245237e-13,5.326722048e-13,3.345419962e-13,8.714149822e-14,2.829112306e-13,4.945788499e-13,4.127596894e-14,5.467511744e-14,3.380646129e-13,5.372717603e-13,1.261585364e-13,1.372437104e-13,3.104569018e-13,6.379444452e-13,7.669868113e-13,1.172091831e-12,4.700026753e-13,2.500064016e-13,6.949072193e-13,3.139284030e-13,1.747580928e-13,3.364725044e-13,9.642310343e-13,8.330479470e-13,2.006503569e-13,1.129565950e-12,1.999108108e-12,1.160683629e-12,2.300148161e-12,3.770384022e-13,5.729522894e-14
1.2266,6.672708017e-13,6.093704384e-13,5.113710631e-13,3.308142751e-13,8.950705382e-14,2.641646016e-13,4.780403061e-13,4.200765338e-14,5.358146521e-14,3.455508781e-13,5.264085532e-13,1.302714745e-13,1.318171305e-13,2.997444898e-13,6.052838375e-13,7.288024634e-13,1.116400532e-12,4.528062509e-13,2.408641063e-13,6.715435161e-13,2.950474135e-13,1.678959175e-13,3.194926603e-13,8.995255872e-13,7.849711568e-13,2.099865910e-13,1.128314609e-12,1.977777149e-12,1.204521271e-12,2.389336768e-12,3.986534227e-13,5.668696382e-14
1.2344,6.566381419e-13,6.028201730e-13,4.927711426e-13,3.291569640e-13,9.238843616e-14,2.477214789e-13,4.638787600e-13,4.269235852e-14,5.277372031e-14,3.532011414e-13,5.181269685e-13,1.353990625e-13,1.277481276e-13,2.899227497e-13,5.756436158e-13,6.926385560e-13,1.065107487e-12,4.382197922e-13,2.339079334e-13,6.485737127e-13,2.787584132e-13,1.626692502e-13,3.054481086e-13,8.389388319e-13,7.448739817e-13,2.211772252e-13,1.134938130e-12,1.971604249e-12,1.256134176e-12,2.502929474e-12,4.217346307e-13,5.627278158e-14
1.2422,6.444725096e-13,5.968619556e-13,4.801868115e-13,3.280851808e-13,9.524922083e-14,2.346987262e-13,4.540025502e-13,4.437628804e-14,5.228390650e-14,3.636160033e-13,5.154955892e-13,1.429389159e-13,1.248352167e-13,2.816949891e-13,5.510356744e-13,6.589612960e-13,1.016590998e-12,4.262186108e-13,2.286950161e-13,6.262561396e-13,2.645465012e-13,1.582921463e-13,2.912644381e-13,7.823523933e-13,7.054573781e-13,2.318405550e-13,1.141099945e-12,1.967314816e-12,1.312385169e-12,2.620238545e-12,4.461821663e-13,5.604154665e-14
1.25,6.406323244e-13,5.961549710e-13,4.676603443e-13,3.279992877e-13,9.847591230e-14,2.216617462e-13,4.444285775e-13,4.550093457e-14,5.180839661e-14,3.741295154e-13,5.140906123e-13,1.508941489e-13,1.218402719e-13,2.741812482e-13,5.270595531e-13,6.270386440e-13,9.666631215e-13,4.140490759e-13,2.235470619e-13,6.003751093e-13,2.504836682e-13,1.551905916e-13,2.764345411e-13,7.268402525e-13,6.651117879e-13,2.430182732e-13,1.148750464e-12,1.969340666e-12,1.373993035e-12,2.753134498e-12,4.719110353e-13,5.591400414e-14
1.2578,6.453350377e-13,6.006354591e-13,4.521369391e-13,3.294730800e-13,1.019087074e-13,2.081993189e-13,4.333729023e-13,4.605298302e-14,5.147368832e-14,3.847263372e-13,5.121481051e-13,1.585945281e-13,1.195001104e-13,2.677516940e-13,5.036445601e-13,5.970794133e-13,9.168677859e-13,4.033024443e-13,2.190731824e-13,5.731097381e-13,2.370266701e-13,1.538466700e-13,2.635499057e-13,6.718637476e-13,6.289812413e-13,2.551612459e-13,1.161334761e-12,1.985957054e-12,1.439823218e-12,2.907379862e-12,4.984808290e-13,5.570726562e-14
1.2656,6.557731249e-13,6.094047401e-13,4.430058795e-13,3.325720739e-13,1.056480434e-13,1.979707771e-13,4.260662967e-13,4.727092823e-14,5.148198740e-14,3.987224577e-13,5.155765241e-13,1.683428526e-13,1.186454122e-13,2.642711958e-13,4.868320843e-13,5.709754126e-13,8.732677450e-13,3.963809444e-13,2.164359716e-13,5.490166490e-13,2.262612211e-13,1.534631950e-13,2.519291724e-13,6.230433493e-13,5.968899316e-13,2.662961711e-13,1.174566389e-12,2.011652583e-12,1.506617687e-12,3.067176463e-12,5.256924762e-13,5.538079477e-14
1.2734,6.777781856e-13,6.259598713e-13,4.356454659e-13,3.374086917e-13,1.102571971e-13,1.886125432e-13,4.198576504e-13,4.818540622e-14,5.146515635e-14,4.135860668e-13,5.203267486e-13,1.779707286e-13,1.182607174e-13,2.629091385e-13,4.732666542e-13,5.481233696e-13,8.330974603e-13,3.911483811e-13,2.144438365e-13,5.227693765e-13,2.158621275e-13,1.541578270e-13,2.404973835e-13,5.783036427e-13,5.676430460e-13,2.775838598e-13,1.191106724e-12,2.050884696e-12,1.575098583e-12,3.246326384e-12,5.534771835e-13,5.487389831e-14
1.2812,6.998349762e-13,6.432247513e-13,4.251148321e-13,3.428257570e-13,1.148609025e-13,1.776334033e-13,4.122338069e-13,4.876928042e-14,5.146742963e-14,4.292088128e-13,5.227398062e-13,1.866175152e-13,1.180798389e-13,2.632317382e-13,4.596076430e-13,5.270457203e-13,7.914678633e-13,3.868669036e-13,2.122780807e-13,4.943731621e-13,2.043491174e-13,1.555947204e-13,2.290126754e-13,5.328525944e-13,5.388721618e-13,2.887944536e-13,1.209394268e-12,2.100473971e-12,1.644275351e-12,3.441468665e-12,5.816653969e-13,5.401982834e-14
1.2891,7.327844975e-13,6.662533219e-13,4.199413735e-13,3.497632951e-13,1.197081751e-13,1.680942723e-13,4.078102166e-13,4.960601824e-14,5.172306579e-14,4.480532633e-13,5.270652858e-13,1.959778162e-13,1.184205236e-13,2.662904708e-13,4.497346632e-13,5.084077960e-13,7.530137146e-13,3.843906161e-13,2.103198152e-13,4.688255016e-13,1.941646372e-13,1.570095483e-13,2.187689416e-13,4.918503007e-13,5.129033933e-13,2.991958193e-13,1.228866670e-12,2.162590246e-12,1.713026967e-12,3.647854328e-12,6.102636734e-13,5.280868586e-14
1.2969,7.817320171e-13,6.982038808e-13,4.170956409e-13,3.585306150e-13,1.252575178e-13,1.601567607e-13,4.048995694e-13,5.049541177e-14,5.195955247e-14,4.682736134e-13,5.323237814e-13,2.048178239e-13,1.190296745e-13,2.715859997e-13,4.434538822e-13,4.923045293e-13,7.187040513e-13,3.833071145e-13,2.083134199e-13,4.436373409e-13,1.842364535e-13,1.583421293e-13,2.098701872e-13,4.552647152e-13,4.916109258e-13,3.097278883e-13,1.252113817e-12,2.240791976e-12,1.781211805e-12,3.876577983e-12,6.391150136e-13,5.135529136e-14
1.3047,8.265483986e-13,7.273522808e-13,4.134141220e-13,3.666793553e-13,1.305527006e-13,1.524113300e-13,4.018018666e-13,5.186356699e-14,5.219839208e-14,4.894862699e-13,5.377181990e-13,2.135183706e-13,1.199803871e-13,2.790787091e-13,4.399040863e-13,4.783896165e-13,6.848664899e-13,3.837075249e-13,2.057772676e-13,4.184814006e-13,1.727932366e-13,1.586969549e-13,1.996561415e-13,4.186827114e-13,4.690978469e-13,3.190633705e-13,1.272304629e-12,2.316540484e-12,1.846579646e-12,4.110080205e-12,6.680166609e-13,4.971011996e-14
1.3125,8.820989106e-13,7.597625453e-13,4.128009236e-13,3.749405803e-13,1.361527978e-13,1.446196707e-13,4.003666024e-13,5.319171369e-14,5.266864297e-14,5.115085881e-13,5.434895541e-13,2.226328413e-13,1.208497738e-13,2.888875552e-13,4.381461948e-13,4.669170838e-13,6.522488372e-13,3.849566875e-13,2.024762242e-13,3.959083781e-13,1.614938081e-13,1.578315948e-13,1.894249475e-13,3.842415023e-13,4.465211769e-13,3.276547799e-13,1.291085276e-12,2.392778567e-12,1.911369982e-12,4.351689655e-12,6.972217132e-13,4.787509848e-14
1.3203,9.518466960e-13,7.984980279e-13,4.139249675e-13,3.841127290e-13,1.422829190e-13,1.372027174e-13,4.003546667e-13,5.458308985e-14,5.339885625e-14,5.337831971e-13,5.501394892e-13,2.318827710e-13,1.221014606e-13,3.010791149e-13,4.389981053e-13,4.585312634e-13,6.235321906e-13,3.883659202e-13,1.995720539e-13,3.768520173e-13,1.511260904e-13,1.562370653e-13,1.810870929e-13,3.533028033e-13,4.285547364e-13,3.370533506e-13,1.313971244e-12,2.479119611e-12,1.979119593e-12,4.613585663e-12,7.270269576e-13,4.593685611e-14
1.3281,1.018430585e-12,8.347485793e-13,4.198972121e-13,3.924098559e-13,1.481757027e-13,1.322172015e-13,4.040564112e-13,5.726739113e-14,5.446013831e-14,5.578541696e-13,5.616578179e-13,2.430142718e-13,1.244894239e-13,3.160429536e-13,4.462655794e-13,4.537578960e-13,5.999208705e-13,3.955050407e-13,1.974866809e-13,3.612314847e-13,1.413212108e-13,1.529393203e-13,1.722507327e-13,3.253233153e-13,4.118837844e-13,3.459970280e-13,1.335236192e-12,2.558737083e-12,2.049964466e-12,4.876665856e-12,7.576838569e-13,4.405206356e-14
1.3359,1.094505834e-12,8.735513225e-13,4.286832126e-13,4.000506819e-13,1.545759689e-13,1.274940350e-13,4.098004467e-13,6.009391316e-14,5.569910580e-14,5.812295829e-13,5.743617741e-13,2.548341000e-13,1.264208400e-13,3.317216563e-13,4.543249653e-13,4.508954057e-13,5.769643575e-13,4.028915603e-13,1.945406576e-13,3.463131147e-13,1.316179965e-13,1.480792889e-13,1.628817772e-13,2.987768204e-13,3.948819351e-13,3.552629541e-13,1.355918035e-12,2.630590786e-12,2.126909070e-12,5.148092366e-12,7.896423079e-13,4.227322999e-14
1.3438,1.176550320e-12,9.145270479e-13,4.354908549e-13,4.074511117e-13,1.613993987e-13,1.216709807e-13,4.149189694e-13,6.277829639e-14,5.711041644e-14,6.026109116e-13,5.863785112e-13,2.669633989e-13,1.282338701e-13,3.474441111e-13,4.612776645e-13,4.491794741e-13,5.532807169e-13,4.105608780e-13,1.916959717e-13,3.336110637e-13,1.221737094e-13,1.427841199e-13,1.545572392e-13,2.729496862e-13,3.796026336e-13,3.659154605e-13,1.379261226e-12,2.699063790e-12,2.211990811e-12,5.431272376e-12,8.230544326e-13,4.065268537e-14
1.3516,1.256606050e-12,9.543081424e-13,4.478143456e-13,4.146046076e-13,1.681026567e-13,1.188810958e-13,4.239660382e-13,6.667698139e-14,5.893919140e-14,6.247320842e-13,6.040553577e-13,2.820480097e-13,1.312634705e-13,3.646263695e-13,4.736735048e-13,4.501077001e-13,5.342512155e-13,4.211850377e-13,1.901575777e-13,3.246217436e-13,1.142979424e-13,1.364025984e-13,1.466046285e-13,2.507367835e-13,3.669309614e-13,3.768998824e-13,1.402150181e-12,2.756124308e-12,2.304676835e-12,5.707981632e-12,8.576495820e-13,3.935257700e-14
1.3594,1.344800905e-12,9.972275827e-13,4.635704502e-13,4.217074755e-13,1.752401428e-13,1.171538106e-13,4.350367284e-13,7.067275850e-14,6.092640883e-14,6.450526397e-13,6.239146135e-13,2.984154675e-13,1.338579400e-13,3.817247680e-13,4.867527753e-13,4.527818793e-13,5.164172926e-13,4.321433936e-13,1.883017040e-13,3.140614646e-13,1.073052173e-13,1.289890651e-13,1.386298390e-13,2.305631426e-13,3.562167093e-13,3.889500105e-13,1.426262125e-12,2.804041485e-12,2.406558188e-12,5.989051944e-12,8.931061933e-13,3.841005409e-14
1.3672,1.430222294e-12,1.038461647e-12,4.774189560e-13,4.274904660e-13,1.824805508e-13,1.138722933e-13,4.447856111e-13,7.427926946e-14,6.299219492e-14,6.622794462e-13,6.430933426e-13,3.153621913e-13,1.362650044e-13,3.982009344e-13,4.981597581e-13,4.563179788e-13,4.959906567e-13,4.433552613e-13,1.864711754e-13,3.020278035e-13,1.002608834e-13,1.215087041e-13,1.305209986e-13,2.098966883e-13,3.454433193e-13,4.021231381e-13,1.451130251e-12,2.839879436e-12,2.516354610e-12,6.270834935e-12,9.290493647e-13,3.774720616e-14
1.375,1.515424512e-12,1.079185082e-12,4.958384077e-13,4.329269308e-13,1.899222191e-13,1.125679213e-13,4.574424692e-13,7.838693727e-14,6.542820290e-14,6.794818612e-13,6.665429836e-13,3.348039620e-13,1.397047706e-13,4.152510646e-13,5.127221409e-13,4.617031070e-13,4.780619716e-13,4.564774680e-13,1.856436902e-13,2.919097516e-13,9.464979392e-14,1.140938572e-13,1.230770734e-13,1.918828653e-13,3.364349713e-13,4.155475188e-13,1.475237495e-12,2.862709447e-12,2.632058395e-12,6.540050581e-12,9.652731372e-13,3.733375704e-14
1.3828,1.610149877e-12,1.124580321e-12,5.162428459e-13,4.396638441e-13,1.980095230e-13,1.123425042e-13,4.716232766e-13,8.232472427e-14,6.799728914e-14,6.953853587e-13,6.923259682e-13,3.551805417e-13,1.432617605e-13,4.322452415e-13,5.280726582e-13,4.688066909e-13,4.624338152e-13,4.702656000e-13,1.855074511e-13,2.810560252e-13,9.042277187e-14,1.073387185e-13,1.169387568e-13,1.762535362e-13,3.314625995e-13,4.299051549e-13,1.501863171e-12,2.883783407e-12,2.755170924e-12,6.812491123e-12,1.001927979e-12,3.713548138e-14
1.3906,1.701468696e-12,1.168750503e-12,5.351885937e-13,4.464536329e-13,2.060954218e-13,1.116592326e-13,4.850438589e-13,8.600440447e-14,7.046726834e-14,7.093314119e-13,7.184839942e-13,3.758012910e-13,1.470255834e-13,4.494812077e-13,5.442545599e-13,4.776388702e-13,4.467497033e-13,4.852933377e-13,1.860004393e-13,2.678953612e-13,8.631913159e-14,1.012581179e-13,1.104584530e-13,1.605929367e-13,3.275466596e-13,4.446424324e-13,1.529076878e-12,2.900892242e-12,2.883955750e-12,7.086832934e-12,1.038959992e-12,3.714192843e-14
1.3984,1.797694132e-12,1.214679803e-12,5.559880937e-13,4.539035343e-13,2.145734918e-13,1.117887609e-13,4.993473942e-13,8.944575070e-14,7.290491413e-14,7.229999390e-13,7.454664142e-13,3.969445585e-13,1.509797000e-13,4.674535506e-13,5.617786276e-13,4.880928117e-13,4.320414361e-13,5.011338317e-13,1.865208592e-13,2.547758109e-13,8.290122758e-14,9.576453500e-14,1.044653484e-13,1.465921276e-13,3.246503391e-13,4.593312617e-13,1.555774072e-12,2.915018634e-12,3.014157156e-12,7.356286919e-12,1.075864885e-12,3.730156908e-14
1.4062,1.903914809e-12,1.265016502e-12,5.759000173e-13,4.631579507e-13,2.235380733e-13,1.117335085e-13,5.131497868e-13,9.206384372e-14,7.523962607e-14,7.360252848e-13,7.721282692e-13,4.175913781e-13,1.550924273e-13,4.863319611e-13,5.794042371e-13,4.998086251e-13,4.184039005e-13,5.175210330e-13,1.876443627e-13,2.426683167e-13,8.031637001e-14,9.172164386e-14,1.004573955e-13,1.346863056e-13,3.248479673e-13,4.741941251e-13,1.583908487e-12,2.934509844e-12,3.142340581e-12,7.626648934e-12,1.112001822e-12,3.747532396e-14
1.4141,2.006902305e-12,1.312546596e-12,5.959054822e-13,4.730265198e-13,2.320304168e-13,1.123824542e-13,5.274993011e-13,9.457987041e-14,7.747377934e-14,7.495375656e-13,8.008736409e-13,4.381365809e-13,1.601017302e-13,5.074841405e-13,6.012324343e-13,5.137469705e-13,4.073565239e-13,5.362838725e-13,1.898448896e-13,2.304205185e-13,7.798735372e-14,8.836923339e-14,9.626795091e-14,1.235256503e-13,3.257280544e-13,4.874633849e-13,1.609091226e-12,2.954192502e-12,3.263738666e-12,7.888155343e-12,1.146612652e-12,3.762627623e-14
1.4219,2.116151232e-12,1.360423309e-12,6.168018753e-13,4.836688269e-13,2.405920474e-13,1.132729515e-13,5.423526609e-13,9.663965185e-14,7.954466458e-14,7.635526703e-13,8.293419943e-13,4.574884651e-13,1.648287611e-13,5.303326155e-13,6.246696877e-13,5.293404940e-13,3.975678803e-13,5.552025474e-13,1.915141886e-13,2.182792066e-13,7.579861690e-14,8.531287707e-14,9.201500386e-14,1.132679242e-13,3.265457257e-13,4.988390220e-13,1.630169155e-12,2.975976006e-12,3.375184677e-12,8.141315018e-12,1.179136832e-12,3.770334637e-14
1.4297,2.234279779e-12,1.410904148e-12,6.344623353e-13,4.957191609e-13,2.493802700e-13,1.123960556e-13,5.549857618e-13,9.757955408e-14,8.136820643e-14,7.767610449e-13,8.542803657e-13,4.744908157e-13,1.693102949e-13,5.543208789e-13,6.473943496e-13,5.455474616e-13,3.874758535e-13,5.735937287e-13,1.931105418e-13,2.081336839e-13,7.334877098e-14,8.360379456e-14,8.936104474e-14,1.043540531e-13,3.286678077e-13,5.091497941e-13,1.649944696e-12,3.007412565e-12,3.475966338e-12,8.393006894e-12,1.209713386e-12,3.758026691e-14
1.4375,2.353818997e-12,1.459874588e-12,6.519617416e-13,5.092171414e-13,2.577265643e-13,1.126815358e-13,5.680758844e-13,9.870228323e-14,8.303037738e-14,7.912015443e-13,8.803969704e-13,4.905339049e-13,1.748135736e-13,5.807056664e-13,6.750903587e-13,5.630816440e-13,3.810543560e-13,5.937772475e-13,1.955575665e-13,1.998080222e-13,7.075107514e-14,8.251249717e-14,8.722585161e-14,9.705695474e-14,3.311455318e-13,5.173376576e-13,1.666470884e-12,3.046043050e-12,3.565464326e-12,8.635233409e-12,1.238716916e-12,3.730932044e-14
1.4453,2.480768040e-12,1.509447024e-12,6.692911625e-13,5.238402901e-13,2.659369823e-13,1.137080909e-13,5.813488101e-13,9.980173088e-14,8.440709424e-14,8.064536012e-13,9.060238140e-13,5.047355671e-13,1.800081202e-13,6.085834041e-13,7.046321367e-13,5.813239340e-13,3.767924433e-13,6.138905308e-13,1.976789235e-13,1.924286974e-13,6.825054615e-14,8.166584449e-14,8.547364974e-14,9.129326930e-14,3.339547019e-13,5.235956597e-13,1.679821842e-12,3.092812708e-12,3.644053296e-12,8.873229243e-12,1.266144914e-12,3.695561411e-14
1.4531,2.609196562e-12,1.557850717e-12,6.836845265e-13,5.379542972e-13,2.738544901e-13,1.131755139e-13,5.923826254e-13,1.002406885e-13,8.550210607e-14,8.206170730e-13,9.274298747e-13,5.162397408e-13,1.846578010e-13,6.368983818e-13,7.327969078e-13,5.994102001e-13,3.714208020e-13,6.335178206e-13,1.996196037e-13,1.867004463e-13,6.539781756e-14,8.149646724e-14,8.422651104e-14,8.629667645e-14,3.368416653e-13,5.284524972e-13,1.690596602e-12,3.145360811e-12,3.711182183e-12,9.107403813e-12,1.291680915e-12,3.645679113e-14
1.4609,2.733784930e-12,1.602423318e-12,6.986069737e-13,5.520642123e-13,2.813919553e-13,1.138439487e-13,6.039019745e-13,1.009774645e-13,8.655672977e-14,8.350321674e-13,9.489022730e-13,5.265840291e-13,1.900204743e-13,6.658392453e-13,7.635715927e-13,6.177299811e-13,3.688684197e-13,6.543108363e-13,2.021897558e-13,1.835810102e-13,6.265011833e-14,8.145423311e-14,8.335718555e-14,8.246022420e-14,3.387842311e-13,5.312207355e-13,1.696774973e-12,3.197153894e-12,3.765789052e-12,9.322751707e-12,1.315072767e-12,3.583541801e-14
1.4688,2.858726298e-12,1.645999945e-12,7.125836739e-13,5.672796146e-13,2.889033618e-13,1.149753312e-13,6.150470594e-13,1.016601022e-13,8.749846682e-14,8.486202137e-13,9.699520674e-13,5.354589611e-13,1.954723148e-13,6.943759520e-13,7.948466222e-13,6.360329452e-13,3.689569316e-13,6.750720205e-13,2.051881440e-13,1.823996938e-13,6.028027468e-14,8.190701595e-14,8.374394066e-14,8.070131588e-14,3.411808886e-13,5.327700102e-13,1.699894029e-12,3.249738960e-12,3.810245646e-12,9.523610245e-12,1.336581636e-12,3.517016616e-14
1.4766,2.975986810e-12,1.685507273e-12,7.246804738e-13,5.816133078e-13,2.959068361e-13,1.153268558e-13,6.247428194e-13,1.022570618e-13,8.833334739e-14,8.604163491e-13,9.886513291e-13,5.429619014e-13,2.005687094e-13,7.220544348e-13,8.250422140e-13,6.543780808e-13,3.685509460e-13,6.956757308e-13,2.083165740e-13,1.808714955e-13,5.764172300e-14,8.263764859e-14,8.415848066e-14,7.989706271e-14,3.436212066e-13,5.335733028e-13,1.700309156e-12,3.298788247e-12,3.847320713e-12,9.710579092e-12,1.356431166e-12,3.455789841e-14
1.4844,3.084760600e-12,1.719982331e-12,7.381940666e-13,5.947870289e-13,3.027271277e-13,1.172581321e-13,6.353103060e-13,1.035541584e-13,8.921544832e-14,8.715572287e-13,1.007260607e-12,5.503821297e-13,2.056747704e-13,7.484806659e-13,8.552468376e-13,6.725370403e-13,3.690421509e-13,7.159369705e-13,2.113405640e-13,1.794160657e-13,5.529591535e-14,8.310124669e-14,8.463264304e-14,7.982434468e-14,3.450133601e-13,5.334869562e-13,1.697478252e-12,3.339631801e-12,3.878495987e-12,9.871586180e-12,1.374228474e-12,3.408072897e-14
1.4922,3.189659536e-12,1.753562596e-12,7.507162374e-13,6.080100430e-13,3.098612252e-13,1.196776171e-13,6.452421667e-13,1.048562986e-13,9.002993964e-14,8.798092326e-13,1.024498948e-12,5.570155932e-13,2.107236536e-13,7.720967189e-13,8.831189424e-13,6.894970240e-13,3.701782645e-13,7.349567856e-13,2.146781127e-13,1.788504543e-13,5.360408505e-14,8.444094841e-14,8.695410567e-14,8.174462891e-14,3.476277858e-13,5.338307278e-13,1.694927445e-12,3.376413266e-12,3.907280965e-12,1.001375254e-11,1.390306978e-12,3.371496565e-14
1.5,3.282252234e-12,1.783080503e-12,7.624505109e-13,6.203239080e-13,3.166219702e-13,1.224971007e-13,6.549418015e-13,1.064349157e-13,9.078818066e-14,8.847987558e-13,1.041253383e-12,5.631590736e-13,2.157164012e-13,7.929297605e-13,9.094725218e-13,7.059018412e-13,3.711116505e-13,7.540596865e-13,2.185744680e-13,1.767935982e-13,5.203922491e-14,8.614819370e-14,8.937896602e-14,8.458402720e-14,3.512360134e-13,5.346704538e-13,1.692556088e-12,3.404148307e-12,3.936836993e-12,1.014089216e-11,1.405777010e-12,3.352496416e-14
1.5078,3.362953532e-12,1.807679045e-12,7.753776561e-13,6.315247076e-13,3.233873622e-13,1.268435952e-13,6.660168742e-13,1.086443630e-13,9.162638817e-14,8.880714974e-13,1.059083705e-12,5.698557410e-13,2.203962737e-13,8.111963713e-13,9.341109161e-13,7.221072174e-13,3.721249112e-13,7.724117267e-13,2.222979597e-13,1.733653909e-13,5.100460609e-14,8.751704250e-14,9.171431242e-14,8.791145505e-14,3.549817611e-13,5.359316634e-13,1.689522878e-12,3.418626019e-12,3.967711058e-12,1.024631840e-11,1.420536319e-12,3.359575779e-14
1.5156,3.437339799e-12,1.830970765e-12,7.866713419e-13,6.422193810e-13,3.306648660e-13,1.311539089e-13,6.761832419e-13,1.105717566e-13,9.248042056e-14,8.877543641e-13,1.074733789e-12,5.760954095e-13,2.245416621e-13,8.257859756e-13,9.540200596e-13,7.368187812e-13,3.716747728e-13,7.882823345e-13,2.256122664e-13,1.695676536e-13,5.035450224e-14,8.956070853e-14,9.568335356e-14,9.275300546e-14,3.608051443e-13,5.387708971e-13,1.689020669e-12,3.426161163e-12,4.000141157e-12,1.033427835e-11,1.433984924e-12,3.386043972e-14
1.5234,3.500612931e-12,1.850630673e-12,7.970713683e-13,6.525812658e-13,3.377455456e-13,1.367217841e-13,6.862040054e-13,1.128637809e-13,9.332006845e-14,8.843935038e-13,1.089804583e-12,5.821165792e-13,2.286369667e-13,8.371527648e-13,9.716532350e-13,7.502676193e-13,3.706785971e-13,8.032882069e-13,2.288690603e-13,1.641679129e-13,4.936929642e-14,9.171268561e-14,9.986077213e-14,9.793885691e-14,3.677908970e-13,5.426484195e-13,1.690276096e-12,3.426054808e-12,4.034474975e-12,1.040268822e-11,1.446462820e-12,3.434210658e-14
1.5312,3.556016520e-12,1.867200968e-12,8.072001950e-13,6.629969354e-13,3.447377403e-13,1.435503521e-13,6.966539731e-13,1.155075816e-13,9.414855843e-14,8.793315510e-13,1.105638460e-12,5.884904033e-13,2.325615473e-13,8.462775914e-13,9.875373185e-13,7.633795255e-13,3.698214148e-13,8.175390839e-13,2.320603142e-13,1.578934730e-13,4.866774928e-14,9.381377022e-14,1.044772074e-13,1.037877916e-13,3.759702751e-13,5.472779738e-13,1.692368782e-12,3.417885808e-12,4.071449347e-12,1.045124810e-11,1.458092181e-12,3.507954111e-14
1.5391,3.608541344e-12,1.882895843e-12,8.152214678e-13,6.728380963e-13,3.517730391e-13,1.494032024e-13,7.056416278e-13,1.175361552e-13,9.492130136e-14,8.710667242e-13,1.118339343e-12,5.937213452e-13,2.356417649e-13,8.526993075e-13,9.988588121e-13,7.753817245e-13,3.666854174e-13,8.295576436e-13,2.348387167e-13,1.511885458e-13,4.860168027e-14,9.656867555e-14,1.105381314e-13,1.116915146e-13,3.874372483e-13,5.532215403e-13,1.696825352e-12,3.406654934e-12,4.110825854e-12,1.048984271e-11,1.468503097e-12,3.599478557e-14
1.5469,3.652589740e-12,1.894389126e-12,8.225316138e-13,6.818603418e-13,3.581937142e-13,1.563056751e-13,7.144530837e-13,1.198230411e-13,9.561587255e-14,8.607234376e-13,1.129252811e-12,5.977646154e-13,2.382890404e-13,8.564513822e-13,1.007894771e-12,7.854117414e-13,3.628689027e-13,8.395725147e-13,2.370538218e-13,1.439961643e-13,4.858657468e-14,9.928487605e-14,1.169327041e-13,1.200983678e-13,4.003092007e-13,5.595981142e-13,1.701598844e-12,3.391912112e-12,4.148602684e-12,1.051287638e-11,1.477331990e-12,3.709278170e-14
1.5547,3.688929773e-12,1.901971164e-12,8.283909575e-13,6.904184923e-13,3.639078314e-13,1.640304222e-13,7.229268522e-13,1.221917328e-13,9.606406443e-14,8.493357403e-13,1.139704721e-12,6.008363946e-13,2.404810466e-13,8.580210520e-13,1.015354537e-12,7.936248589e-13,3.597261044e-13,8.471195252e-13,2.388098994e-13,1.375026510e-13,4.862254273e-14,1.022736549e-13,1.242205224e-13,1.290202935e-13,4.141795409e-13,5.660388690e-13,1.705802196e-12,3.373887504e-12,4.180629519e-12,1.051676250e-11,1.483826935e-12,3.834183957e-14
1.5625,3.718891824e-12,1.905731864e-12,8.319107699e-13,6.976435042e-13,3.687102468e-13,1.706357164e-13,7.302733009e-13,1.239992265e-13,9.614071892e-14,8.364963928e-13,1.147703613e-12,6.018335684e-13,2.413939620e-13,8.576954921e-13,1.019672083e-12,8.003402604e-13,3.550173277e-13,8.521731237e-13,2.402160171e-13,1.313398149e-13,4.907552065e-14,1.058270180e-13,1.322366791e-13,1.398435914e-13,4.302492463e-13,5.722368939e-13,1.709141488e-12,3.351935833e-12,4.205847381e-12,1.050543234e-11,1.487647327e-12,3.965465737e-14
1.5703,3.739481051e-12,1.903315873e-12,8.347887561e-13,7.039984524e-13,3.725333201e-13,1.777489673e-13,7.376639695e-13,1.260043933e-13,9.601971170e-14,8.235978980e-13,1.154316182e-12,6.012393509e-13,2.420034893e-13,8.564239562e-13,1.023236571e-12,8.055777052e-13,3.505463351e-13,8.561198048e-13,2.413807336e-13,1.259215902e-13,4.972664744e-14,1.093786007e-13,1.402015754e-13,1.513584943e-13,4.468266597e-13,5.772724136e-13,1.709354766e-12,3.324886266e-12,4.223329406e-12,1.047203179e-11,1.489049593e-12,4.103506713e-14
1.5781,3.756109105e-12,1.898313228e-12,8.355075061e-13,7.107221460e-13,3.758507052e-13,1.847401226e-13,7.434884837e-13,1.277084759e-13,9.576807795e-14,8.102577623e-13,1.158687465e-12,5.991205039e-13,2.429667854e-13,8.547655609e-13,1.026432404e-12,8.093809802e-13,3.479588821e-13,8.589293479e-13,2.423342054e-13,1.221779926e-13,5.029886440e-14,1.136677529e-13,1.493009536e-13,1.633308801e-13,4.641950861e-13,5.813656344e-13,1.707487632e-12,3.299191917e-12,4.231349981e-12,1.042124053e-11,1.487865070e-12,4.241758222e-14
1.5859,3.767745971e-12,1.890199268e-12,8.337139689e-13,7.168844595e-13,3.780256555e-13,1.905653210e-13,7.477137246e-13,1.289850789e-13,9.527573256e-14,7.963018402e-13,1.160340966e-12,5.949267115e-13,2.433153083e-13,8.526628040e-13,1.028454840e-12,8.121093148e-13,3.456233459e-13,8.604131708e-13,2.432782674e-13,1.191174652e-13,5.111117269e-14,1.185839614e-13,1.585241148e-13,1.764905215e-13,4.816370942e-13,5.839432223e-13,1.702661631e-12,3.273859751e-12,4.228957604e-12,1.035785272e-11,1.484121544e-12,4.375056452e-14
1.5938,3.769496740e-12,1.875393638e-12,8.309515385e-13,7.217416938e-13,3.786606180e-13,1.962537928e-13,7.520165327e-13,1.305495373e-13,9.458081091e-14,7.834232857e-13,1.161381237e-12,5.894044867e-13,2.432842394e-13,8.498814999e-13,1.030583326e-12,8.133592908e-13,3.442647270e-13,8.602590668e-13,2.442006991e-13,1.169127317e-13,5.232330522e-14,1.235880119e-13,1.670942974e-13,1.902313216e-13,4.971841059e-13,5.843773968e-13,1.692792873e-12,3.244088932e-12,4.216406377e-12,1.027395546e-11,1.478030213e-12,4.506229006e-14
1.6016,3.766938753e-12,1.857311007e-12,8.261335508e-13,7.255690472e-13,3.785038523e-13,2.011080766e-13,7.548636848e-13,1.317595270e-13,9.366332143e-14,7.707431881e-13,1.159600929e-12,5.819003291e-13,2.430893152e-13,8.457211354e-13,1.031500886e-12,8.124269254e-13,3.441236106e-13,8.578700231e-13,2.447461404e-13,1.157421724e-13,5.371199115e-14,1.293621037e-13,1.763411957e-13,2.045978524e-13,5.131288698e-13,5.836210077e-13,1.681023329e-12,3.215187843e-12,4.194314339e-12,1.017723604e-11,1.469348260e-12,4.629136450e-14
1.6094,3.757914027e-12,1.836003205e-12,8.202069426e-13,7.283768353e-13,3.773583829e-13,2.054835987e-13,7.567570728e-13,1.328269762e-13,9.245633604e-14,7.579457561e-13,1.155219874e-12,5.723699523e-13,2.426237850e-13,8.406799386e-13,1.031651722e-12,8.103800342e-13,3.449625671e-13,8.549980220e-13,2.454272037e-13,1.150570164e-13,5.528000794e-14,1.356525808e-13,1.851184774e-13,2.192515770e-13,5.282198408e-13,5.813757944e-13,1.667048755e-12,3.185119212e-12,4.163111353e-12,1.007112604e-11,1.458544141e-12,4.745169278e-14
1.6172,3.740390262e-12,1.810140111e-12,8.148002285e-13,7.302498568e-13,3.751302372e-13,2.100348980e-13,7.590655957e-13,1.341523889e-13,9.109378923e-14,7.459787175e-13,1.150827109e-12,5.622282283e-13,2.424794363e-13,8.352798618e-13,1.032340120e-12,8.077157883e-13,3.477334197e-13,8.517558687e-13,2.464677829e-13,1.154324991e-13,5.726152514e-14,1.423461237e-13,1.931590805e-13,2.341370918e-13,5.401736827e-13,5.773028988e-13,1.648837349e-12,3.149530723e-12,4.124282464e-12,9.950084481e-12,1.446143243e-12,4.860326730e-14
1.625,3.718618310e-12,1.781455825e-12,8.086008936e-13,7.307427211e-13,3.723716080e-13,2.137821667e-13,7.603133707e-13,1.351202491e-13,8.962533979e-14,7.338275777e-13,1.143557901e-12,5.506432402e-13,2.419335083e-13,8.281625744e-13,1.030213666e-12,8.028043862e-13,3.505343681e-13,8.457198887e-13,2.469431690e-13,1.160550254e-13,5.977889069e-14,1.497219699e-13,2.014603239e-13,2.500541049e-13,5.519389634e-13,5.721040200e-13,1.628802468e-12,3.113422788e-12,4.079074483e-12,9.821606840e-12,1.431520095e-12,4.967889534e-14
1.6328,3.686163413e-12,1.748443940e-12,8.013065580e-13,7.297991302e-13,3.688787562e-13,2.175262976e-13,7.605591896e-13,1.362369087e-13,8.800868471e-14,7.214691666e-13,1.133998239e-12,5.377696751e-13,2.407977215e-13,8.193722976e-13,1.026263404e-12,7.958849211e-13,3.530719468e-13,8.374214724e-13,2.466098073e-13,1.156988103e-13,6.222377056e-14,1.569933478e-13,2.086577954e-13,2.650933012e-13,5.618773876e-13,5.655838714e-13,1.606999585e-12,3.076028164e-12,4.028102684e-12,9.683402813e-12,1.414884391e-12,5.070966132e-14
1.6406,3.645165455e-12,1.713512377e-12,7.932418660e-13,7.280632019e-13,3.648947129e-13,2.214223806e-13,7.604141789e-13,1.375697147e-13,8.628443827e-14,7.093574676e-13,1.125385280e-12,5.248828949e-13,2.396290206e-13,8.098410862e-13,1.023042589e-12,7.884482914e-13,3.568361575e-13,8.273150686e-13,2.454460891e-13,1.147146900e-13,6.429675215e-14,1.642317576e-13,2.152297560e-13,2.792591679e-13,5.689090632e-13,5.585241639e-13,1.584405455e-12,3.036701884e-12,3.973845459e-12,9.534142068e-12,1.397139976e-12,5.178351841e-14
1.6484,3.600429838e-12,1.677703021e-12,7.847153335e-13,7.247099213e-13,3.605770883e-13,2.245591410e-13,7.599526694e-13,1.387026879e-13,8.444992679e-14,6.970476412e-13,1.115881238e-12,5.112120893e-13,2.374827084e-13,7.987437122e-13,1.017129021e-12,7.800589818e-13,3.600411656e-13,8.147167537e-13,2.435119555e-13,1.134154658e-13,6.684753296e-14,1.716516556e-13,2.223104941e-13,2.953277626e-13,5.770656933e-13,5.517574141e-13,1.562781551e-12,2.996550819e-12,3.916440757e-12,9.380064940e-12,1.377699358e-12,5.287885754e-14
1.6562,3.541559630e-12,1.635967138e-12,7.769468742e-13,7.194189689e-13,3.555299378e-13,2.282221681e-13,7.598306601e-13,1.403213205e-13,8.255425770e-14,6.849194649e-13,1.104920268e-12,4.970547562e-13,2.348277006e-13,7.858602871e-13,1.008766767e-12,7.706849145e-13,3.637172275e-13,8.009560828e-13,2.412265502e-13,1.119931181e-13,6.951502419e-14,1.785410223e-13,2.286233776e-13,3.107747184e-13,5.838936050e-13,5.444569988e-13,1.539086437e-12,2.950023505e-12,3.853124867e-12,9.208701826e-12,1.356017896e-12,5.401916325e-14
1.6641,3.473250700e-12,1.592244598e-12,7.689127508e-13,7.135409601e-13,3.505743269e-13,2.327021277e-13,7.589202230e-13,1.420906556e-13,8.059182183e-14,6.723775299e-13,1.092888754e-12,4.827603854e-13,2.322677145e-13,7.714891717e-13,9.995228426e-13,7.608941357e-13,3.693554501e-13,7.856335386e-13,2.380302745e-13,1.102548114e-13,7.152394146e-14,1.851261715e-13,2.346113364e-13,3.239674848e-13,5.882798655e-13,5.372115802e-13,1.515115033e-12,2.900897848e-12,3.785881935e-12,9.022573180e-12,1.332826174e-12,5.523519786e-14
1.6719,3.405552537e-12,1.550371740e-12,7.593270037e-13,7.070464948e-13,3.458481716e-13,2.367688997e-13,7.567677331e-13,1.434727339e-13,7.845953007e-14,6.586764572e-13,1.079234020e-12,4.675914952e-13,2.285727305e-13,7.556548902e-13,9.872277382e-13,7.501982438e-13,3.736623146e-13,7.678959575e-13,2.338905218e-13,1.079952561e-13,7.373766025e-14,1.915813952e-13,2.409127709e-13,3.383438744e-13,5.945199754e-13,5.306698354e-13,1.494337606e-12,2.855204100e-12,3.718274053e-12,8.838812529e-12,1.308596863e-12,5.647651880e-14
1.6797,3.333876642e-12,1.506716436e-12,7.489449090e-13,6.995861218e-13,3.406633847e-13,2.404727656e-13,7.542841958e-13,1.449802674e-13,7.630826077e-14,6.446550307e-13,1.065739536e-12,4.526582963e-13,2.245267170e-13,7.395320959e-13,9.738664170e-13,7.391393579e-13,3.776022531e-13,7.493562675e-13,2.294680614e-13,1.058153703e-13,7.616080586e-14,1.974618342e-13,2.466972787e-13,3.535169239e-13,6.014528492e-13,5.240993884e-13,1.474197671e-12,2.809399771e-12,3.651058336e-12,8.651931124e-12,1.283679840e-12,5.771877657e-14
1.6875,3.262376000e-12,1.463732624e-12,7.364905264e-13,6.916871011e-13,3.356768372e-13,2.436640977e-13,7.502113532e-13,1.463811829e-13,7.421718390e-14,6.302309122e-13,1.052058747e-12,4.383317635e-13,2.209913345e-13,7.236121471e-13,9.609007897e-13,7.288310063e-13,3.839780293e-13,7.300947263e-13,2.244243286e-13,1.037767489e-13,7.825524468e-14,2.029920804e-13,2.528700976e-13,3.684835129e-13,6.095856370e-13,5.183612003e-13,1.456823490e-12,2.767104022e-12,3.586764295e-12,8.466684359e-12,1.258793827e-12,5.898745490e-14
1.6953,3.195815224e-12,1.423687675e-12,7.209756050e-13,6.829755577e-13,3.306955195e-13,2.459534581e-13,7.441812474e-13,1.475480380e-13,7.203900300e-14,6.149505529e-13,1.037056859e-12,4.239448005e-13,2.171347988e-13,7.074876218e-13,9.465057724e-13,7.191348367e-13,3.909130306e-13,7.096853769e-13,2.188952824e-13,1.016027650e-13,8.048196614e-14,2.082581741e-13,2.597741138e-13,3.844663847e-13,6.212950990e-13,5.139901576e-13,1.445001027e-12,2.731400371e-12,3.527157283e-12,8.297006769e-12,1.234138962e-12,6.031168113e-14
1.7031,3.132566642e-12,1.384993548e-12,7.044716505e-13,6.732953002e-13,3.250420089e-13,2.475984923e-13,7.373583065e-13,1.486912146e-13,6.987151887e-14,5.993874188e-13,1.022512123e-12,4.102094782e-13,2.135567364e-13,6.915972750e-13,9.321556410e-13,7.099650323e-13,3.988966575e-13,6.888907212e-13,2.133315644e-13,9.957264408e-14,8.280567575e-14,2.132069482e-13,2.667551294e-13,4.004057194e-13,6.341796384e-13,5.099469083e-13,1.435463864e-12,2.697839469e-12,3.471263718e-12,8.138046178e-12,1.209722872e-12,6.164523242e-14
1.7109,3.075540504e-12,1.348240189e-12,6.868424211e-13,6.626182570e-13,3.191792885e-13,2.482228677e-13,7.294780707e-13,1.494490968e-13,6.780574482e-14,5.840303186e-13,1.008959195e-12,3.972811517e-13,2.106665372e-13,6.762359202e-13,9.186749910e-13,7.015949265e-13,4.090901900e-13,6.679605350e-13,2.078766142e-13,9.814279772e-14,8.542264644e-14,2.181369129e-13,2.744090655e-13,4.171345385e-13,6.496636033e-13,5.063482433e-13,1.428666417e-12,2.668563336e-12,3.420268302e-12,7.993140042e-12,1.185908725e-12,6.291023131e-14
1.7188,3.020538530e-12,1.311853050e-12,6.670172012e-13,6.501956942e-13,3.128060609e-13,2.478251395e-13,7.209610632e-13,1.499866023e-13,6.576239007e-14,5.690215735e-13,9.963923643e-13,3.850682084e-13,2.081404239e-13,6.615362532e-13,9.058376754e-13,6.943546720e-13,4.207549862e-13,6.476484047e-13,2.029772315e-13,9.737380229e-14,8.851218012e-14,2.229591829e-13,2.822166105e-13,4.353811883e-13,6.684911499e-13,5.032957479e-13,1.425509967e-12,2.644170111e-12,3.375410496e-12,7.868770391e-12,1.162791648e-12,6.413860787e-14
1.7266,2.966920641e-12,1.276372066e-12,6.465623166e-13,6.365859334e-13,3.059110782e-13,2.470842962e-13,7.121328362e-13,1.503177071e-13,6.380067126e-14,5.538343495e-13,9.842097780e-13,3.736379243e-13,2.063433591e-13,6.474788084e-13,8.942464118e-13,6.885503753e-13,4.354861809e-13,6.278854243e-13,1.982457432e-13,9.689100841e-14,9.149890153e-14,2.276307172e-13,2.896421811e-13,4.533583224e-13,6.875348202e-13,5.002940198e-13,1.424640415e-12,2.622173514e-12,3.336271864e-12,7.761533888e-12,1.140264073e-12,6.531685031e-14
1.7344,2.922015715e-12,1.243980326e-12,6.256065617e-13,6.221486668e-13,2.989039366e-13,2.452348318e-13,7.018559082e-13,1.499997779e-13,6.199179158e-14,5.382157072e-13,9.712677482e-13,3.626225286e-13,2.049344886e-13,6.337970494e-13,8.827828103e-13,6.838650056e-13,4.524501324e-13,6.079476858e-13,1.936048744e-13,9.686967559e-14,9.490072667e-14,2.323514976e-13,2.974604747e-13,4.724723726e-13,7.093909245e-13,4.974925588e-13,1.427905004e-12,2.604808536e-12,3.303780392e-12,7.677211778e-12,1.118600467e-12,6.630769384e-14
1.7422,2.878597086e-12,1.211058182e-12,6.035572143e-13,6.058924697e-13,2.909975619e-13,2.419964048e-13,6.906952260e-13,1.494486178e-13,6.035201729e-14,5.230327070e-13,9.600142624e-13,3.527400479e-13,2.040860123e-13,6.212263016e-13,8.729422803e-13,6.803058455e-13,4.704258472e-13,5.891327432e-13,1.898059193e-13,9.739062844e-14,9.888578607e-14,2.369613510e-13,3.048945286e-13,4.925952152e-13,7.337564696e-13,4.945702202e-13,1.434029149e-12,2.589325445e-12,3.278607946e-12,7.615258159e-12,1.098121823e-12,6.712239173e-14
1.75,2.831208872e-12,1.176852138e-12,5.815187381e-13,5.880223681e-13,2.824033865e-13,2.386171414e-13,6.794020278e-13,1.488111628e-13,5.883471054e-14,5.082109776e-13,9.507914129e-13,3.439794283e-13,2.043816344e-13,6.098701616e-13,8.658188811e-13,6.780194642e-13,4.919117709e-13,5.717175812e-13,1.865391817e-13,9.806817751e-14,1.029337006e-13,2.414839909e-13,3.116321569e-13,5.121079784e-13,7.572180136e-13,4.914684936e-13,1.441297543e-12,2.574615381e-12,3.260097309e-12,7.568348268e-12,1.078560816e-12,6.787187212e-14
1.7578,2.786022355e-12,1.143711468e-12,5.600499099e-13,5.686537575e-13,2.737399576e-13,2.350159598e-13,6.675569551e-13,1.477746177e-13,5.734524065e-14,4.932247661e-13,9.408955039e-13,3.353015068e-13,2.048287487e-13,5.988457315e-13,8.583385392e-13,6.765828024e-13,5.153259956e-13,5.543693505e-13,1.835036739e-13,9.909981252e-14,1.076156945e-13,2.459374011e-13,3.183576973e-13,5.329078149e-13,7.824467341e-13,4.885286677e-13,1.451659347e-12,2.564081247e-12,3.246324489e-12,7.540075915e-12,1.059232799e-12,6.851652173e-14
1.7656,2.737973185e-12,1.108617152e-12,5.402727198e-13,5.473185875e-13,2.645570470e-13,2.313629812e-13,6.561216735e-13,1.467911104e-13,5.597935678e-14,4.789529898e-13,9.325566971e-13,3.276332527e-13,2.054978740e-13,5.889338577e-13,8.523478740e-13,6.768077073e-13,5.398648440e-13,5.379254539e-13,1.807787396e-13,1.004815241e-13,1.124035316e-13,2.496462738e-13,3.236220948e-13,5.532731085e-13,8.075969490e-13,4.849233037e-13,1.462172968e-12,2.551134809e-12,3.233924673e-12,7.522756945e-12,1.039866720e-12,6.900743271e-14
1.7734,2.681559539e-12,1.069996357e-12,5.228852983e-13,5.248742604e-13,2.552334047e-13,2.285108202e-13,6.452863023e-13,1.459707180e-13,5.477963486e-14,4.655869320e-13,9.273009638e-13,3.215607664e-13,2.073797924e-13,5.809925439e-13,8.507008781e-13,6.797218610e-13,5.687832065e-13,5.235372890e-13,1.781678284e-13,1.020232378e-13,1.164508630e-13,2.523383406e-13,3.268442098e-13,5.709530155e-13,8.297255411e-13,4.807213189e-13,1.471714554e-12,2.533606243e-12,3.222598310e-12,7.507340518e-12,1.020818310e-12,6.938975739e-14
1.7812,2.624464585e-12,1.031017527e-12,5.071213176e-13,5.020048718e-13,2.461108482e-13,2.259337652e-13,6.343380705e-13,1.449807631e-13,5.360228291e-14,4.522728081e-13,9.230911173e-13,3.160158878e-13,2.096550441e-13,5.746668464e-13,8.509299422e-13,6.848992898e-13,6.001227270e-13,5.103928356e-13,1.757333997e-13,1.038637723e-13,1.206183611e-13,2.543077484e-13,3.291311642e-13,5.881876439e-13,8.523785414e-13,4.769059246e-13,1.484331313e-12,2.519849850e-12,3.214732983e-12,7.504452348e-12,1.002427499e-12,6.967359237e-14
1.7891,2.570251542e-12,9.928403134e-13,4.937592234e-13,4.790916639e-13,2.370696264e-13,2.240833024e-13,6.241076816e-13,1.440922621e-13,5.248493013e-14,4.393973069e-13,9.210219691e-13,3.112704515e-13,2.122269827e-13,5.705972210e-13,8.538215560e-13,6.928468115e-13,6.334660495e-13,4.982789417e-13,1.731607674e-13,1.057408796e-13,1.248489833e-13,2.553138458e-13,3.301479443e-13,6.043170107e-13,8.746911017e-13,4.732087977e-13,1.498683002e-12,2.509523202e-12,3.210337297e-12,7.514531856e-12,9.849121929e-13,6.987294372e-14
