Time,Fp1,AF3,F7,F3,FC1,FC5,T7,C3,CP1,CP5,P7,P3,Pz,PO3,O1,Oz,O2,PO4,P4,P8,CP6,CP2,C4,T8,FC6,FC2,F4,F8,AF4,Fp2,Fz,Cz,
0,1.721791691e-09,7.967984551e-10,1.445793354e-09,4.046517075e-10,5.718078150e-11,4.234920734e-10,1.309621515e-09,1.607514906e-09,3.092808211e-11,6.130908108e-10,2.151257232e-09,4.041571530e-10,2.821997513e-10,3.198595697e-10,7.830581819e-10,1.610464820e-09,1.591393508e-09,7.730637851e-10,4.788725695e-10,2.115402134e-09,8.147777425e-10,1.352834144e-10,6.325865845e-10,1.590521147e-09,7.784750893e-10,5.164941086e-12,5.510603188e-10,1.011737106e-09,7.585203203e-10,4.742751761e-09,6.903934485e-12,2.235710521e-10
0.0078125,1.720053305e-09,7.959517315e-10,1.443501601e-09,4.040636732e-10,5.714351790e-11,4.227719683e-10,1.307204023e-09,1.608714072e-09,3.094139618e-11,6.119355490e-10,2.147009294e-09,4.033139037e-10,2.825171188e-10,3.204304636e-10,7.812332371e-10,1.606918926e-09,1.588071888e-09,7.717088310e-10,4.784281496e-10,2.111006414e-09,8.135540436e-10,1.352415499e-10,6.336433458e-10,1.588166056e-09,7.789577287e-10,5.201829052e-12,5.514936977e-10,1.010547137e-09,7.588084966e-10,4.740859280e-09,6.930786165e-12,2.239832410e-10
0.015625,1.717133938e-09,7.945237640e-10,1.440171791e-09,4.031830111e-10,5.706601631e-11,4.217569153e-10,1.303834965e-09,1.608886712e-09,3.093173826e-11,6.103583613e-10,2.141240497e-09,4.021827268e-10,2.826528674e-10,3.207539761e-10,7.788409838e-10,1.602217595e-09,1.583593012e-09,7.697558859e-10,4.776034521e-10,2.105074552e-09,8.117058082e-10,1.350984108e-10,6.342938863e-10,1.584615088e-09,7.788355693e-10,5.236440949e-12,5.514999660e-10,1.008640968e-09,7.585612489e-10,4.736177145e-09,6.953993905e-12,2.242241568e-10
0.023438,1.713106320e-09,7.925138846e-10,1.435837321e-09,4.019954673e-10,5.694643810e-11,4.204473013e-10,1.299533374e-09,1.608037925e-09,3.089813944e-11,6.083716648e-10,2.133998138e-09,4.007730761e-10,2.826072575e-10,3.208197041e-10,7.759022012e-10,1.596393430e-09,1.577985356e-09,7.672152504e-10,4.764022227e-10,2.097636820e-09,8.092390798e-10,1.348517600e-10,6.345354530e-10,1.579877547e-09,7.780785725e-10,5.268122423e-12,5.510445194e-10,1.006028720e-09,7.577307442e-10,4.728771025e-09,6.974713054e-12,2.242880197e-10
0.03125,1.707937573e-09,7.899077548e-10,1.430467825e-09,4.005031642e-10,5.678517423e-11,4.188360514e-10,1.294277708e-09,1.606170865e-09,3.084033471e-11,6.059722983e-10,2.125274979e-09,3.990827965e-10,2.823822534e-10,3.206231758e-10,7.724201690e-10,1.589455624e-09,1.571259711e-09,7.640883869e-10,4.748251979e-10,2.088702728e-09,8.061578891e-10,1.344983939e-10,6.343782587e-10,1.573956437e-09,7.767074690e-10,5.297512171e-12,5.501552718e-10,1.002677879e-09,7.563208457e-10,4.718552811e-09,6.991633466e-12,2.241699690e-10
0.039062,1.701620390e-09,7.867304569e-10,1.424078166e-09,3.987286525e-10,5.658508917e-11,4.169312740e-10,1.288093945e-09,1.603288842e-09,3.075941420e-11,6.031676939e-10,2.115105296e-09,3.971199109e-10,2.819787552e-10,3.201792388e-10,7.684111864e-10,1.581439780e-09,1.563456405e-09,7.603998685e-10,4.728890954e-10,2.078333436e-09,8.024933531e-10,1.340424124e-10,6.338226497e-10,1.566902069e-09,7.747635785e-10,5.324987434e-12,5.488649186e-10,9.986196635e-10,7.543889883e-10,4.705600127e-09,7.004009855e-12,2.238770344e-10
0.046875,1.694212807e-09,7.830027871e-10,1.416730102e-09,3.966734362e-10,5.634541917e-11,4.147506743e-10,1.281027970e-09,1.599401709e-09,3.065563966e-11,5.999752471e-10,2.103530217e-09,3.948932988e-10,2.813987009e-10,3.194905636e-10,7.638796433e-10,1.572353319e-09,1.554573979e-09,7.561404180e-10,4.705808996e-10,2.066526893e-09,7.982316918e-10,1.334892298e-10,6.328598730e-10,1.558698967e-09,7.721995524e-10,5.349478004e-12,5.471418059e-10,9.938623124e-10,7.519179152e-10,4.689952397e-09,7.012960329e-12,2.234116558e-10
0.054688,1.685697026e-09,7.787207609e-10,1.408437940e-09,3.943389344e-10,5.606575063e-11,4.123000035e-10,1.273091737e-09,1.594524103e-09,3.052921983e-11,5.963979441e-10,2.090550584e-09,3.924001420e-10,2.806437211e-10,3.185524479e-10,7.588176958e-10,1.562184088e-09,1.544589573e-09,7.512942052e-10,4.678857496e-10,2.053244338e-09,7.933500720e-10,1.328407194e-10,6.314967438e-10,1.549326975e-09,7.689989399e-10,5.370775960e-12,5.449821307e-10,9.883769376e-10,7.488818579e-10,4.671543773e-09,7.018122342e-12,2.227725968e-10
0.0625,1.676080125e-09,7.738938361e-10,1.399210277e-09,3.917427759e-10,5.574900329e-11,4.095765961e-10,1.264309037e-09,1.588668603e-09,3.038063611e-11,5.924448193e-10,2.076231748e-09,3.896535369e-10,2.797140785e-10,3.173693725e-10,7.532568542e-10,1.550994417e-09,1.533566715e-09,7.459062218e-10,4.648354867e-10,2.038578211e-09,7.878980109e-10,1.320973011e-10,6.297419829e-10,1.538874720e-09,7.652296011e-10,5.389730477e-12,5.424242653e-10,9.822138667e-10,7.453133143e-10,4.650549480e-09,7.018428523e-12,2.219628258e-10
0.070312,1.665401738e-09,7.685277725e-10,1.389057575e-09,3.888843180e-10,5.539485118e-11,4.065840229e-10,1.254684538e-09,1.581852236e-09,3.020955638e-11,5.881276445e-10,2.060615703e-09,3.866653562e-10,2.786131789e-10,3.159428478e-10,7.472167710e-10,1.538817095e-09,1.521540260e-09,7.399963151e-10,4.614438795e-10,2.022587875e-09,7.818979676e-10,1.312570184e-10,6.275994118e-10,1.527362239e-09,7.608947861e-10,5.406236312e-12,5.394626786e-10,9.753835198e-10,7.412080090e-10,4.626979205e-09,7.014624751e-12,2.209814671e-10
0.078125,1.653644802e-09,7.626393645e-10,1.377992862e-09,3.857664951e-10,5.500221972e-11,4.033403370e-10,1.244220728e-09,1.574096564e-09,3.001686866e-11,5.834497615e-10,2.043683057e-09,3.834306259e-10,2.773452595e-10,3.142799637e-10,7.406884803e-10,1.525638051e-09,1.508496144e-09,7.335547696e-10,4.577052579e-10,2.005251474e-09,7.753346556e-10,1.303217456e-10,6.250819009e-10,1.514762228e-09,7.559774068e-10,5.419848276e-12,5.360916718e-10,9.678386415e-10,7.365551671e-10,4.600679520e-09,7.007711491e-12,2.198320718e-10
0.085938,1.640841352e-09,7.562598417e-10,1.366061504e-09,3.824069699e-10,5.457321651e-11,3.998565900e-10,1.232971940e-09,1.565418065e-09,2.980339653e-11,5.784272078e-10,2.025500412e-09,3.799616297e-10,2.759133572e-10,3.123885659e-10,7.337008623e-10,1.511522632e-09,1.494506111e-09,7.266228019e-10,4.536474176e-10,1.986660343e-09,7.682491738e-10,1.292955166e-10,6.221974700e-10,1.501161144e-09,7.505219923e-10,5.430897975e-12,5.323433488e-10,9.596292839e-10,7.313921704e-10,4.571856261e-09,6.997196901e-12,2.185211991e-10
0.09375,1.627057080e-09,7.493819591e-10,1.353284499e-09,3.788016790e-10,5.410837669e-11,3.961233138e-10,1.220968132e-09,1.555835928e-09,2.956757361e-11,5.730771696e-10,2.006145751e-09,3.762776583e-10,2.743240537e-10,3.102628624e-10,7.262871582e-10,1.496528881e-09,1.479636811e-09,7.192324209e-10,4.492891145e-10,1.966900693e-09,7.606770096e-10,1.281763757e-10,6.189476016e-10,1.486613981e-09,7.445447989e-10,5.439583940e-12,5.282283453e-10,9.508142979e-10,7.257318120e-10,4.540618209e-09,6.982219352e-12,2.170470444e-10
0.10156,1.612323341e-09,7.420147496e-10,1.339689975e-09,3.749569132e-10,5.360836475e-11,3.921516887e-10,1.208232302e-09,1.545379948e-09,2.931005459e-11,5.674117935e-10,1.985648427e-09,3.723837484e-10,2.725818489e-10,3.079121135e-10,7.184546277e-10,1.480658405e-09,1.463890468e-09,7.113842528e-10,4.446301557e-10,1.945969444e-09,7.526206278e-10,1.269684631e-10,6.153447728e-10,1.471123900e-09,7.380539668e-10,5.445629331e-12,5.237514809e-10,9.414022459e-10,7.195826204e-10,4.506886491e-09,6.963033711e-12,2.154161322e-10
0.10938,1.596695125e-09,7.342091967e-10,1.325347727e-09,3.709010712e-10,5.307563495e-11,3.879726745e-10,1.194823044e-09,1.534077845e-09,2.903372059e-11,5.614524583e-10,1.964070346e-09,3.682873324e-10,2.706845869e-10,3.053546427e-10,7.102165377e-10,1.463943832e-09,1.447292894e-09,7.030929175e-10,4.396795136e-10,1.923913861e-09,7.440991950e-10,1.256820832e-10,6.113994498e-10,1.454749267e-09,7.310818139e-10,5.448936621e-12,5.189329892e-10,9.314288418e-10,7.129789907e-10,4.470900444e-09,6.940489871e-12,2.136394095e-10
0.11719,1.580201680e-09,7.259719188e-10,1.310270868e-09,3.666350290e-10,5.251061578e-11,3.835897047e-10,1.180747652e-09,1.521948911e-09,2.873852472e-11,5.552083458e-10,1.941443811e-09,3.639956628e-10,2.686350478e-10,3.025887614e-10,7.015821186e-10,1.446416185e-09,1.429872403e-09,6.943672092e-10,4.344400274e-10,1.900786095e-09,7.351210197e-10,1.243173445e-10,6.071149889e-10,1.437505795e-09,7.236214599e-10,5.449636833e-12,5.137754069e-10,9.209010381e-10,7.059241024e-10,4.432808261e-09,6.914943990e-12,2.117157681e-10
0.125,1.562864404e-09,7.173090032e-10,1.294472792e-09,3.621611397e-10,5.191509597e-11,3.790043588e-10,1.166021511e-09,1.509016927e-09,2.842446437e-11,5.486840059e-10,1.917802570e-09,3.595175653e-10,2.664428375e-10,2.996211718e-10,6.925743025e-10,1.428119405e-09,1.411677028e-09,6.852347602e-10,4.289305435e-10,1.876631439e-09,7.257088012e-10,1.228747513e-10,6.025032984e-10,1.419412473e-09,7.156896262e-10,5.447936793e-12,5.082896577e-10,9.098272346e-10,6.984287047e-10,4.392591559e-09,6.886613032e-12,2.096515345e-10
0.13281,1.544773940e-09,7.082699593e-10,1.278030839e-09,3.575047336e-10,5.129234154e-11,3.742392971e-10,1.150720525e-09,1.495315468e-09,2.809365620e-11,5.419018860e-10,1.893243201e-09,3.548687202e-10,2.641133583e-10,2.964685610e-10,6.832301589e-10,1.409123909e-09,1.392775766e-09,6.757359730e-10,4.231795372e-10,1.851529778e-09,7.159077907e-10,1.213618133e-10,5.975774347e-10,1.400552109e-09,7.073392200e-10,5.443966783e-12,5.025001173e-10,8.982766251e-10,6.905341421e-10,4.350489783e-09,6.855749894e-12,2.074574652e-10
0.14062,1.525966891e-09,6.988641725e-10,1.260966500e-09,3.526683515e-10,5.064233910e-11,3.693011420e-10,1.134861291e-09,1.480873941e-09,2.774660669e-11,5.348746777e-10,1.867799110e-09,3.500527603e-10,2.616490425e-10,2.931310765e-10,6.735521503e-10,1.389437059e-09,1.373169983e-09,6.658674937e-10,4.171830674e-10,1.825497322e-09,7.057183227e-10,1.197803656e-10,5.923475176e-10,1.380936440e-09,6.985664883e-10,5.437637131e-12,4.964109899e-10,8.862688160e-10,6.822522256e-10,4.306618078e-09,6.822326274e-12,2.051321567e-10
0.14844,1.506435216e-09,6.890945159e-10,1.243284548e-09,3.476543577e-10,4.996658543e-11,3.641900368e-10,1.118449400e-09,1.465713793e-09,2.738379637e-11,5.276093755e-10,1.841495616e-09,3.450764854e-10,2.590556503e-10,2.896164575e-10,6.635572024e-10,1.369090455e-09,1.352891884e-09,6.556501582e-10,4.109527427e-10,1.798569792e-09,6.951543443e-10,1.181339276e-10,5.868288911e-10,1.360592817e-09,6.893808164e-10,5.429045937e-12,4.900399498e-10,8.738117859e-10,6.736002103e-10,4.260998196e-09,6.786455609e-12,2.026825585e-10
0.15625,1.486250093e-09,6.790079824e-10,1.225047882e-09,3.424890690e-10,4.926898681e-11,3.589187055e-10,1.101544579e-09,1.449863992e-09,2.700726984e-11,5.201252631e-10,1.814427987e-09,3.399597413e-10,2.563401867e-10,2.859419063e-10,6.532925932e-10,1.348180087e-09,1.332038752e-09,6.451369691e-10,4.045233401e-10,1.770860972e-09,6.842700891e-10,1.164307392e-10,5.810331727e-10,1.339628946e-09,6.798391793e-10,5.418453191e-12,4.834173525e-10,8.609799062e-10,6.646214638e-10,4.213952449e-09,6.748203304e-12,2.001218149e-10
0.16406,1.465473650e-09,6.686210493e-10,1.206289156e-09,3.371835800e-10,4.855035249e-11,3.534959419e-10,1.084171230e-09,1.433361062e-09,2.661792485e-11,5.124328661e-10,1.786627453e-09,3.347064508e-10,2.535082359e-10,2.821116521e-10,6.427622942e-10,1.326722694e-09,1.310625397e-09,6.343289246e-10,3.978971302e-10,1.742403839e-09,6.730737090e-10,1.146723749e-10,5.749671885e-10,1.318063984e-09,6.699496978e-10,5.405667475e-12,4.765429903e-10,8.477963168e-10,6.553304133e-10,4.165646004e-09,6.707643025e-12,1.974519239e-10
0.17188,1.444150512e-09,6.579368117e-10,1.187046673e-09,3.317415626e-10,4.781176308e-11,3.479401942e-10,1.066370612e-09,1.416237464e-09,2.621623659e-11,5.045517356e-10,1.758136067e-09,3.293245579e-10,2.505644530e-10,2.781338970e-10,6.319780064e-10,1.304740927e-09,1.288676740e-09,6.232421464e-10,3.910839211e-10,1.713238373e-09,6.615780676e-10,1.128616424e-10,5.686421620e-10,1.295909455e-09,6.597137611e-10,5.390595848e-12,4.694230762e-10,8.342522742e-10,6.457381351e-10,4.116071197e-09,6.665724899e-12,1.946787517e-10
0.17969,1.422375468e-09,6.469992272e-10,1.167395267e-09,3.261760932e-10,4.705613106e-11,3.422723437e-10,1.048220008e-09,1.398526235e-09,2.580330651e-11,4.965159213e-10,1.729083366e-09,3.238415027e-10,2.475145728e-10,2.740217716e-10,6.209960283e-10,1.282341640e-09,1.266301755e-09,6.119352763e-10,3.841184245e-10,1.683496035e-09,6.498413368e-10,1.110054645e-10,5.620690513e-10,1.273269407e-09,6.491800191e-10,5.373865650e-12,4.620942063e-10,8.204101969e-10,6.358827308e-10,4.065483533e-09,6.623020945e-12,1.918117326e-10
0.1875,1.400195900e-09,6.358412717e-10,1.147350484e-09,3.204938121e-10,4.628493444e-11,3.364869494e-10,1.029722011e-09,1.380261127e-09,2.538019389e-11,4.883300853e-10,1.699512240e-09,3.182638860e-10,2.443658991e-10,2.697836603e-10,6.098321207e-10,1.259558186e-09,1.243532669e-09,6.004198756e-10,3.770098072e-10,1.653221202e-09,6.378845522e-10,1.091062447e-10,5.552593456e-10,1.250194964e-09,6.383823320e-10,5.355805289e-12,4.545832751e-10,8.063305739e-10,6.257983450e-10,4.014091047e-09,6.578747677e-12,1.888548773e-10
0.19531,1.377621980e-09,6.244737490e-10,1.126929932e-09,3.147093074e-10,4.550063889e-11,3.305871287e-10,1.010886741e-09,1.361471083e-09,2.494882783e-11,4.799930273e-10,1.669425075e-09,3.125879761e-10,2.411243818e-10,2.654352701e-10,5.984827672e-10,1.236386148e-09,1.220366985e-09,5.886988946e-10,3.697621264e-10,1.622423181e-09,6.257136617e-10,1.071691609e-10,5.482298560e-10,1.226707695e-09,6.273346031e-10,5.336156461e-12,4.469008955e-10,7.920320463e-10,6.155107350e-10,3.961986450e-09,6.532628694e-12,1.858160217e-10
0.20312,1.354721832e-09,6.129216735e-10,1.106210815e-09,3.088443049e-10,4.470641566e-11,3.246016112e-10,9.917960191e-10,1.342192369e-09,2.451077094e-11,4.715310861e-10,1.638909322e-09,3.068301506e-10,2.377949622e-10,2.609885559e-10,5.869807492e-10,1.212890865e-09,1.196872461e-09,5.768093436e-10,3.623938348e-10,1.591195106e-09,6.133627219e-10,1.052022762e-10,5.409962864e-10,1.202873340e-09,6.160577135e-10,5.315121082e-12,4.390581495e-10,7.775323252e-10,6.050457054e-10,3.909435646e-09,6.485214261e-12,1.827014443e-10
0.21094,1.331576258e-09,6.012172197e-10,1.085245494e-09,3.029080389e-10,4.390358963e-11,3.185485803e-10,9.724990003e-10,1.322468867e-09,2.406597901e-11,4.629648231e-10,1.608034044e-09,3.010047965e-10,2.343841710e-10,2.564476376e-10,5.753534200e-10,1.189125164e-09,1.173104070e-09,5.647759259e-10,3.549204990e-10,1.559605954e-09,6.008579093e-10,1.032076671e-10,5.335721252e-10,1.178734171e-09,6.045804773e-10,5.292944778e-12,4.310735984e-10,7.628592339e-10,5.944339035e-10,3.856651688e-09,6.436620372e-12,1.795162248e-10
0.21875,1.308243426e-09,5.893897561e-10,1.064070261e-09,2.969129958e-10,4.309398489e-11,3.124364760e-10,9.530215164e-10,1.302336195e-09,2.361508792e-11,4.543059992e-10,1.576838516e-09,2.951190499e-10,2.308984074e-10,2.518247508e-10,5.636198475e-10,1.165125885e-09,1.149102085e-09,5.526221122e-10,3.473633081e-10,1.527703953e-09,5.882250609e-10,1.011875547e-10,5.259714137e-10,1.154338539e-09,5.929410813e-10,5.269289040e-12,4.229710867e-10,7.480600375e-10,5.837056815e-10,3.803725044e-09,6.386820611e-12,1.762721531e-10
0.22656,1.284754018e-09,5.774634557e-10,1.042727283e-09,2.908743532e-10,4.227969800e-11,3.062738482e-10,9.333968839e-10,1.281828036e-09,2.315981580e-11,4.455726012e-10,1.545386501e-09,2.891841527e-10,2.273430121e-10,2.471293748e-10,5.518062284e-10,1.140951350e-09,1.124921503e-09,5.403738877e-10,3.397360378e-10,1.495565099e-09,5.754914182e-10,9.914736348e-11,5.182087861e-10,1.129753202e-09,5.811612005e-10,5.244306524e-12,4.147663110e-10,7.331654846e-10,5.728758445e-10,3.750802537e-09,6.335864306e-12,1.729738866e-10
0.23438,1.261124934e-09,5.654583984e-10,1.021241322e-09,2.847980958e-10,4.146200076e-11,3.000652786e-10,9.136451344e-10,1.260985357e-09,2.270142935e-11,4.367781331e-10,1.513734275e-09,2.832103801e-10,2.237235455e-10,2.423678415e-10,5.399311143e-10,1.116642642e-09,1.100598497e-09,5.280481825e-10,3.320465135e-10,1.463245898e-09,5.626763658e-10,9.709195699e-11,5.103027945e-10,1.105015449e-09,5.692560701e-10,5.218614579e-12,4.064750449e-10,7.181836187e-10,5.619675680e-10,3.698018587e-09,6.283956959e-12,1.696241431e-10
0.24219,1.237422262e-09,5.533918608e-10,9.996541507e-10,2.786940609e-10,4.064241754e-11,2.938247908e-10,8.938145662e-10,1.239849004e-09,2.224014235e-11,4.279404524e-10,1.481950624e-09,2.772128019e-10,2.200450080e-10,2.375505037e-10,5.280215877e-10,1.092247182e-09,1.076185320e-09,5.156807465e-10,3.243234614e-10,1.430812147e-09,5.498150159e-10,9.502523688e-11,5.022722159e-10,1.080176949e-09,5.572605358e-10,5.192108189e-12,3.981175682e-10,7.031545600e-10,5.510078086e-10,3.645502499e-09,6.231724013e-12,1.662346317e-10
0.25,1.213707817e-09,5.412759319e-10,9.780057199e-10,2.725711770e-10,3.982145728e-11,2.875675815e-10,8.739503329e-10,1.218458575e-09,2.177543202e-11,4.190791965e-10,1.450102387e-09,2.712058396e-10,2.163119451e-10,2.326759234e-10,5.161061436e-10,1.067819039e-09,1.051739204e-09,5.033007966e-10,3.165852528e-10,1.398330601e-09,5.369312523e-10,9.294748769e-11,4.941304140e-10,1.055290108e-09,5.451923055e-10,5.164482419e-12,3.897026436e-10,6.881101321e-10,5.399948989e-10,3.593375812e-09,6.179233929e-12,1.628081243e-10
0.25781,1.189993456e-09,5.291363844e-10,9.563175891e-10,2.664362659e-10,3.900012719e-11,2.812985196e-10,8.540641299e-10,1.196851835e-09,2.130841440e-11,4.102027699e-10,1.418226287e-09,2.651939148e-10,2.125296786e-10,2.277478916e-10,5.041975693e-10,1.043388864e-09,1.027286049e-09,4.909182315e-10,3.088331513e-10,1.365837075e-09,5.240321633e-10,9.086119829e-11,4.858898070e-10,1.030380576e-09,5.330595748e-10,5.135739388e-12,3.812426422e-10,6.730511422e-10,5.289446104e-10,3.541697741e-09,6.126263532e-12,1.593467211e-10
0.26562,1.166327867e-09,5.170008125e-10,9.346412239e-10,2.603069433e-10,3.818144517e-11,2.750301840e-10,8.342031213e-10,1.175062218e-09,2.084160920e-11,4.013255299e-10,1.386377017e-09,2.591865767e-10,2.087051865e-10,2.227905710e-10,4.923130101e-10,1.018993325e-09,1.002862275e-09,4.785579276e-10,3.010857609e-10,1.333386077e-09,5.111457703e-10,8.877560915e-11,4.775635462e-10,1.005494040e-09,5.208926113e-10,5.105568199e-12,3.727580823e-10,6.580072152e-10,5.178960177e-10,3.490592664e-09,6.073548034e-12,1.558665234e-10
0.27344,1.142766950e-09,5.048737365e-10,9.130152200e-10,2.541937930e-10,3.736652314e-11,2.687762231e-10,8.144106313e-10,1.153126843e-09,2.037528675e-11,3.924640943e-10,1.354599029e-09,2.531955433e-10,2.048480419e-10,2.178143485e-10,4.804663153e-10,9.946607193e-10,9.785006294e-10,4.662339686e-10,2.933544626e-10,1.301020938e-09,4.982892730e-10,8.669422769e-11,4.691648727e-10,9.806622703e-10,5.087093890e-10,5.073947243e-12,3.642568059e-10,6.430057068e-10,5.068532553e-10,3.440186224e-09,6.021430400e-12,1.523736038e-10
0.28125,1.119324092e-09,4.927778783e-10,8.914510029e-10,2.480980426e-10,3.655545482e-11,2.625402902e-10,7.946913917e-10,1.131085114e-09,1.990886917e-11,3.836273629e-10,1.322923298e-09,2.472265630e-10,2.009674031e-10,2.128187595e-10,4.686704088e-10,9.704180158e-10,9.542303094e-10,4.539553529e-10,2.856416799e-10,1.268772296e-09,4.854727415e-10,8.461553274e-11,4.607095183e-10,9.559076190e-10,4.965254928e-10,5.041593883e-12,3.557531333e-10,6.280568911e-10,4.958246244e-10,3.390510202e-09,5.969257215e-12,1.488658486e-10
0.28906,1.096050227e-09,4.807498079e-10,8.700006671e-10,2.420317359e-10,3.575012836e-11,2.563331038e-10,7.750875590e-10,1.108970340e-09,1.944379718e-11,3.748329161e-10,1.291425190e-09,2.412914409e-10,1.970685883e-10,2.078197187e-10,4.569563120e-10,9.463301852e-10,9.301164235e-10,4.417618211e-10,2.779725991e-10,1.236721743e-09,4.727397910e-10,8.254473950e-11,4.522130611e-10,9.313019571e-10,4.843781516e-10,5.008772005e-12,3.472714005e-10,6.132050765e-10,4.848464415e-10,3.341690158e-09,5.917285622e-12,1.453543919e-10
0.29688,1.072998234e-09,4.687878470e-10,8.487040321e-10,2.360038004e-10,3.495116866e-11,2.501654992e-10,7.556327884e-10,1.086815924e-09,1.898128887e-11,3.660918454e-10,1.260143918e-09,2.353977544e-10,1.931560271e-10,2.028295499e-10,4.453355505e-10,9.224277712e-10,9.061873003e-10,4.296715929e-10,2.703635431e-10,1.204916565e-09,4.601130386e-10,8.048574355e-11,4.436900794e-10,9.068859835e-10,4.722857281e-10,4.975256421e-12,3.388192186e-10,5.984799858e-10,4.739299687e-10,3.293864369e-09,5.866191324e-12,1.418477220e-10
0.30469,1.050155737e-09,4.568961590e-10,8.275507745e-10,2.300160847e-10,3.415869869e-11,2.440379096e-10,7.363126346e-10,1.064657146e-09,1.852146321e-11,3.574006495e-10,1.229070804e-09,2.295440608e-10,1.892359924e-10,1.978492275e-10,4.338025035e-10,8.987016477e-10,8.824345083e-10,4.176779431e-10,2.628136645e-10,1.173353572e-09,4.475860271e-10,7.843622878e-11,4.351548909e-10,8.826530467e-10,4.602579012e-10,4.941230513e-12,3.304079330e-10,5.838750084e-10,4.630835059e-10,3.246990288e-09,5.815434140e-12,1.383444356e-10
0.3125,1.027532619e-09,4.451095736e-10,8.065622066e-10,2.240815906e-10,3.337487547e-11,2.379585742e-10,7.171608387e-10,1.042523943e-09,1.806490346e-11,3.487749186e-10,1.198265876e-09,2.237420356e-10,1.853151373e-10,1.928875621e-10,4.223830317e-10,8.751952211e-10,8.589078589e-10,4.058068927e-10,2.553383211e-10,1.142090492e-09,4.351830488e-10,7.639875082e-11,4.266171112e-10,8.586446317e-10,4.483204352e-10,4.906792930e-12,3.220602903e-10,5.694121993e-10,4.523307563e-10,3.201077263e-09,5.764577561e-12,1.348503449e-10
0.32031,1.005184043e-09,4.334406308e-10,7.857832889e-10,2.182117497e-10,3.260065684e-11,2.319403996e-10,6.982299231e-10,1.020442908e-09,1.761229118e-11,3.402372625e-10,1.167798059e-09,2.180057600e-10,1.813991731e-10,1.879556503e-10,4.111022316e-10,8.519528876e-10,8.356508255e-10,3.940811568e-10,2.479493519e-10,1.111178348e-09,4.229228715e-10,7.438084720e-11,4.180858624e-10,8.349007981e-10,4.364786221e-10,4.871640585e-12,3.137792067e-10,5.551180803e-10,4.416738704e-10,3.156296508e-09,5.714467836e-12,1.313765875e-10
0.32812,9.831460986e-10,4.218928989e-10,7.652296975e-10,2.124063843e-10,3.183555206e-11,2.259861327e-10,6.795130371e-10,9.984392159e-10,1.716437805e-11,3.317879100e-10,1.137666577e-09,2.123335606e-10,1.774923963e-10,1.830598379e-10,3.999552536e-10,8.289689911e-10,8.126482384e-10,3.824931054e-10,2.406425639e-10,1.080602227e-09,4.107947443e-10,7.238687257e-11,4.095759852e-10,8.114104448e-10,4.247295801e-10,4.835753142e-12,3.055621117e-10,5.409900967e-10,4.311175722e-10,3.112722997e-09,5.665800677e-12,1.279292482e-10
0.33594,9.614492435e-10,4.104860906e-10,7.449184065e-10,2.066699171e-10,3.108082270e-11,2.200997457e-10,6.610155201e-10,9.765366198e-10,1.672229658e-11,3.234287258e-10,1.107881912e-09,2.067265772e-10,1.735995788e-10,1.782074507e-10,3.889444686e-10,8.062578957e-10,7.899140276e-10,3.710492683e-10,2.334235057e-10,1.050384538e-09,3.988116309e-10,7.041779024e-11,4.010997848e-10,7.881881992e-10,4.131004620e-10,4.799435414e-12,2.974263232e-10,5.270445121e-10,4.206877536e-10,3.070335031e-09,5.618145817e-12,1.245098200e-10
0.34375,9.401273143e-10,3.992352833e-10,7.248810450e-10,2.010136942e-10,3.033862396e-11,2.142909956e-10,6.427811982e-10,9.547608324e-10,1.628673271e-11,3.151733023e-10,1.078483308e-09,2.011947351e-10,1.697271942e-10,1.734056376e-10,3.780836274e-10,7.838524219e-10,7.674887012e-10,3.597710305e-10,2.263056797e-10,1.020578391e-09,3.870029991e-10,6.847498742e-11,3.926631201e-10,7.652835382e-10,4.016211868e-10,4.762844385e-12,2.893930458e-10,5.133218481e-10,4.104037080e-10,3.029239241e-09,5.571071807e-12,1.211218074e-10
0.35156,9.191845215e-10,3.881521967e-10,7.051335884e-10,1.954446066e-10,2.960967839e-11,2.085631164e-10,6.248241888e-10,9.331344978e-10,1.585784254e-11,3.070254066e-10,1.049487466e-09,1.957411206e-10,1.658788248e-10,1.686592983e-10,3.673788735e-10,7.617595122e-10,7.453791293e-10,3.486676569e-10,2.192964936e-10,9.911940578e-10,3.753761963e-10,6.656111074e-11,3.842728114e-10,7.427199506e-10,3.902955394e-10,4.725769704e-12,2.814683908e-10,4.998424896e-10,4.002755587e-10,2.989576797e-09,5.525111455e-12,1.177729149e-10
0.35938,8.986202775e-10,3.772395675e-10,6.856747465e-10,1.899623892e-10,2.889324592e-11,2.029154169e-10,6.071370391e-10,9.116734026e-10,1.543589929e-11,2.989831714e-10,1.020895213e-09,1.903627987e-10,1.620545610e-10,1.639721488e-10,3.568314535e-10,7.399800458e-10,7.235826561e-10,3.377363338e-10,2.123958714e-10,9.622310077e-10,3.639267963e-10,6.467807256e-11,3.759370256e-10,7.204896760e-10,3.791164992e-10,4.687927545e-12,2.736464916e-10,4.865997520e-10,3.903035269e-10,2.951339750e-09,5.480966996e-12,1.144660635e-10
0.36719,8.784700833e-10,3.664961559e-10,6.665149889e-10,1.845685682e-10,2.818960884e-11,1.973533432e-10,5.897322772e-10,8.903938712e-10,1.502177347e-11,2.910521671e-10,9.927204117e-10,1.850616807e-10,1.582577546e-10,1.593503847e-10,3.464450599e-10,7.185325630e-10,7.021218558e-10,3.269812529e-10,2.056063011e-10,9.337198023e-10,3.526633014e-10,6.282784432e-11,3.676618426e-10,6.986043504e-10,3.680973163e-10,4.649576339e-12,2.659341333e-10,4.735967284e-10,3.804931018e-10,2.914537628e-09,5.438589676e-12,1.112010893e-10
0.375,8.587640300e-10,3.559404334e-10,6.476767361e-10,1.792697845e-10,2.750074885e-11,1.918812744e-10,5.726264016e-10,8.693134957e-10,1.461609749e-11,2.832400213e-10,9.649985401e-10,1.798459451e-10,1.544946536e-10,1.548005013e-10,3.362335982e-10,6.974489397e-10,6.810317044e-10,3.164260244e-10,1.989438365e-10,9.057042928e-10,3.416082856e-10,6.101237404e-11,3.594534623e-10,6.771094127e-10,3.572654838e-10,4.611009817e-12,2.583511540e-10,4.608589039e-10,3.708685817e-10,2.879288603e-09,5.397576958e-12,1.079843062e-10
0.38281,8.394909796e-10,3.455786027e-10,6.291623220e-10,1.740667552e-10,2.682688518e-11,1.864958524e-10,5.558227411e-10,8.484473599e-10,1.421807306e-11,2.755502566e-10,9.377506659e-10,1.747208536e-10,1.507681955e-10,1.503204000e-10,3.262081288e-10,6.767436941e-10,6.603233573e-10,3.060843761e-10,1.924185771e-10,8.781994676e-10,3.307705542e-10,5.923028105e-11,3.513193398e-10,6.560205630e-10,3.466189711e-10,4.571726078e-12,2.508959133e-10,4.483951010e-10,3.614303971e-10,2.845620772e-09,5.357877266e-12,1.048192120e-10
0.39062,8.206580008e-10,3.354011817e-10,6.109759431e-10,1.689579426e-10,2.616698985e-11,1.811996918e-10,5.393309285e-10,8.278108769e-10,1.382750697e-11,2.679866669e-10,9.109734963e-10,1.696863864e-10,1.470789464e-10,1.459096909e-10,3.163656920e-10,6.564107851e-10,6.399928045e-10,2.959490095e-10,1.860245134e-10,8.512021120e-10,3.201432629e-10,5.748202581e-11,3.432660065e-10,6.353236776e-10,3.361447535e-10,4.531483298e-12,2.435601083e-10,4.362009585e-10,3.521674150e-10,2.813518278e-09,5.319933614e-12,1.017037658e-10
0.39844,8.022919023e-10,3.254239654e-10,5.931464884e-10,1.639496526e-10,2.552217370e-11,1.760034160e-10,5.231696582e-10,8.074189337e-10,1.344594596e-11,2.605573591e-10,8.846863668e-10,1.647463474e-10,1.434292178e-10,1.415797108e-10,3.067117923e-10,6.364643603e-10,6.200594930e-10,2.860248699e-10,1.797640134e-10,8.247340814e-10,3.097341888e-10,5.577337255e-11,3.353005142e-10,6.150387056e-10,3.258664434e-10,4.491079044e-12,2.363616980e-10,4.242930644e-10,3.431069472e-10,2.783046638e-09,5.284217536e-12,9.864255218e-11
0.40625,7.843790685e-10,3.156577227e-10,5.756787332e-10,1.590440498e-10,2.489345792e-11,1.709092646e-10,5.073436043e-10,7.872831559e-10,1.307373198e-11,2.532670284e-10,8.589089165e-10,1.599042982e-10,1.398220893e-10,1.373357249e-10,2.972563056e-10,6.169204434e-10,6.005341484e-10,2.763191154e-10,1.736437745e-10,7.988052522e-10,2.995521647e-10,5.410572033e-11,3.274323276e-10,5.951844471e-10,3.158079718e-10,4.450998853e-12,2.293147913e-10,4.126783848e-10,3.342683901e-10,2.754222856e-09,5.250590216e-12,9.564046230e-11
0.41406,7.669287326e-10,3.060968817e-10,5.585664761e-10,1.542393320e-10,2.428045324e-11,1.659163700e-10,4.918523505e-10,7.674141323e-10,1.271033353e-11,2.461131295e-10,8.336303758e-10,1.551559791e-10,1.362582933e-10,1.331731170e-10,2.879924766e-10,5.977683563e-10,5.814006231e-10,2.668239871e-10,1.676596211e-10,7.733956122e-10,2.895909913e-10,5.247656123e-11,3.196666972e-10,5.757492285e-10,3.059611987e-10,4.410874903e-12,2.224136760e-10,4.013455660e-10,3.256390076e-10,2.727056975e-09,5.218627893e-12,9.269582437e-11
0.42188,7.499931449e-10,2.967539416e-10,5.418352758e-10,1.495423494e-10,2.368388570e-11,1.610297286e-10,4.767056958e-10,7.478208900e-10,1.235673087e-11,2.390951353e-10,8.088585179e-10,1.505000760e-10,1.327366419e-10,1.290930717e-10,2.789182342e-10,5.790098773e-10,5.626670840e-10,2.575428995e-10,1.618119939e-10,7.485139437e-10,2.798530601e-10,5.088870969e-11,3.120029236e-10,5.567391187e-10,2.963203528e-10,4.370396075e-12,2.156577557e-10,3.903021723e-10,3.172220275e-10,2.701628393e-09,5.188340078e-12,8.981027147e-11
0.42969,7.335556179e-10,2.876296345e-10,5.254857572e-10,1.449570371e-10,2.310457569e-11,1.562484476e-10,4.619051140e-10,7.285107842e-10,1.201328447e-11,2.322157806e-10,7.846132267e-10,1.459423532e-10,1.292578724e-10,1.250988521e-10,2.700457949e-10,5.606610511e-10,5.443512548e-10,2.484853561e-10,1.561072596e-10,7.241786172e-10,2.703436763e-10,4.934467571e-11,3.044455846e-10,5.381633516e-10,2.868920028e-10,4.329424623e-12,2.090480856e-10,3.795552655e-10,3.090259800e-10,2.677922435e-09,5.159938725e-12,8.698803473e-11
0.4375,7.175732795e-10,2.787111587e-10,5.094891822e-10,1.404789774e-10,2.254194328e-11,1.515681271e-10,4.474436008e-10,7.094924021e-10,1.167890324e-11,2.254755689e-10,7.608899878e-10,1.414855886e-10,1.258258303e-10,1.211900661e-10,2.613793431e-10,5.427262932e-10,5.264490085e-10,2.396508296e-10,1.505465230e-10,7.003868297e-10,2.610599566e-10,4.784131617e-11,2.970015785e-10,5.200173936e-10,2.776794131e-10,4.287900500e-12,2.025827327e-10,3.690970862e-10,3.010445170e-10,2.655889706e-09,5.133567118e-12,8.422857094e-11
0.44531,7.020713092e-10,2.700111413e-10,4.938545282e-10,1.361068789e-10,2.199532775e-11,1.469904390e-10,4.333210191e-10,6.907723258e-10,1.135359711e-11,2.188738663e-10,7.376871793e-10,1.371279679e-10,1.224440720e-10,1.173690842e-10,2.529151261e-10,5.252128600e-10,5.089683505e-10,2.310439644e-10,1.451316623e-10,6.771556466e-10,2.520089160e-10,4.637670217e-11,2.896685692e-10,5.023138937e-10,2.686847470e-10,4.246146987e-12,1.962676589e-10,3.589305835e-10,2.932785495e-10,2.635564393e-09,5.109400965e-12,8.153013145e-11
0.45312,6.870683637e-10,2.615343387e-10,4.786016282e-10,1.318405427e-10,2.146463482e-11,1.425165702e-10,4.195401139e-10,6.723538780e-10,1.103803699e-11,2.124107966e-10,7.150112993e-10,1.328684834e-10,1.191137368e-10,1.136392398e-10,2.446540678e-10,5.081256615e-10,4.919238151e-10,2.226711229e-10,1.398670841e-10,6.545046637e-10,2.432003244e-10,4.495213501e-11,2.824476774e-10,4.850646074e-10,2.599143909e-10,4.204551506e-12,1.901094598e-10,3.490617980e-10,2.857347367e-10,2.616934190e-09,5.087260275e-12,7.889391984e-11
0.46094,6.725522086e-10,2.532674775e-10,4.637265998e-10,1.276783598e-10,2.095024894e-11,1.381474790e-10,4.061063800e-10,6.542444016e-10,1.073194056e-11,2.060892548e-10,6.928644450e-10,1.287095288e-10,1.158349630e-10,1.099994161e-10,2.366005645e-10,4.914598315e-10,4.753118242e-10,2.145310324e-10,1.347551675e-10,6.324251485e-10,2.346335637e-10,4.356773354e-11,2.753505858e-10,4.682702772e-10,2.513772354e-10,4.163233641e-12,1.841098353e-10,3.394925782e-10,2.784166940e-10,2.599965586e-09,5.066570214e-12,7.632143050e-11
0.46875,6.585261902e-10,2.452177988e-10,4.492297635e-10,1.236207414e-10,2.045211032e-11,1.338854191e-10,3.930232247e-10,6.364541364e-10,1.043470233e-11,1.999134329e-10,6.712514891e-10,1.246531353e-10,1.126088760e-10,1.064461719e-10,2.287547936e-10,4.752166284e-10,4.591288261e-10,2.066213021e-10,1.297942796e-10,6.109116770e-10,2.263060550e-10,4.222141070e-11,2.683791910e-10,4.519359244e-10,2.430713822e-10,4.122167709e-12,1.782673269e-10,3.302245067e-10,2.713230091e-10,2.584663431e-09,5.047084802e-12,7.381101975e-11
0.47656,6.449846506e-10,2.373957001e-10,4.351196670e-10,1.196700483e-10,1.996963551e-11,1.297294450e-10,3.802885737e-10,6.189876346e-10,1.014627974e-11,1.938836964e-10,6.501722978e-10,1.206976699e-10,1.094381868e-10,1.029806727e-10,2.211137746e-10,4.593976380e-10,4.433753742e-10,1.989392756e-10,1.249797207e-10,5.899682227e-10,2.182144293e-10,4.091269625e-11,2.615249797e-10,4.360550057e-10,2.349858984e-10,4.081062647e-12,1.725782679e-10,3.212495761e-10,2.644467536e-10,2.570981573e-09,5.028974408e-12,7.136211705e-11
0.48438,6.319164241e-10,2.297964344e-10,4.213994295e-10,1.158304639e-10,1.950325952e-11,1.256805334e-10,3.679030416e-10,6.018465152e-10,9.867208560e-12,1.879987487e-10,6.296268982e-10,1.168437365e-10,1.063256483e-10,9.960904269e-11,2.136805537e-10,4.440033595e-10,4.280523922e-10,1.914854391e-10,1.203103523e-10,5.695951382e-10,2.103558722e-10,3.964457174e-11,2.547887526e-10,4.206182164e-10,2.271212589e-10,4.039589941e-12,1.670437025e-10,3.125601667e-10,2.577882455e-10,2.558866495e-09,5.012318940e-12,6.897867643e-11
0.49219,6.193096033e-10,2.224102790e-10,4.080508579e-10,1.120990836e-10,1.905284152e-11,1.217376714e-10,3.558536849e-10,5.850352831e-10,9.597607627e-12,1.822559184e-10,6.096134483e-10,1.130925113e-10,1.032720144e-10,9.633126954e-11,2.064539901e-10,4.290314617e-10,4.131566412e-10,1.842566427e-10,1.157839482e-10,5.497830379e-10,2.027268464e-10,3.841758550e-11,2.481777145e-10,4.056206806e-10,2.194784572e-10,3.997997464e-12,1.616628586e-10,3.041495242e-10,2.513428309e-10,2.548258952e-09,4.997115134e-12,6.666054768e-11
0.5,6.071434427e-10,2.152262952e-10,3.950478178e-10,1.084671069e-10,1.861694559e-11,1.178938296e-10,3.441248184e-10,5.685571228e-10,9.336945057e-12,1.766510835e-10,5.901176350e-10,1.094393075e-10,1.002765189e-10,9.314270969e-11,1.994223131e-10,4.144674726e-10,3.986741375e-10,1.772409181e-10,1.113941390e-10,5.305144315e-10,1.953207316e-10,3.722893770e-11,2.416934589e-10,3.910500807e-10,2.120511963e-10,3.956764237e-12,1.564301624e-10,2.960064824e-10,2.450956035e-10,2.539077961e-09,4.983469659e-12,6.440337988e-11
0.50781,5.954373709e-10,2.082517261e-10,3.824051221e-10,1.049383069e-10,1.819607368e-11,1.141513500e-10,3.327326298e-10,5.524125017e-10,9.085321039e-12,1.711869137e-10,5.711432380e-10,1.058827812e-10,9.733906598e-11,9.004580562e-11,1.925853614e-10,4.003099300e-10,3.846048611e-10,1.704395130e-10,1.071434320e-10,5.117948775e-10,1.881410488e-10,3.607904739e-11,2.353336313e-10,3.769128041e-10,2.048445667e-10,3.915887415e-12,1.513493330e-10,2.881371108e-10,2.390512081e-10,2.531330722e-09,4.971401639e-12,6.220904722e-11
0.51562,5.842032328e-10,2.014988771e-10,3.701430516e-10,1.015187727e-10,1.779102701e-11,1.105167051e-10,3.216822558e-10,5.366036831e-10,8.842872561e-12,1.658662339e-10,5.526957944e-10,1.024254315e-10,9.446021318e-11,8.704190892e-11,1.859469771e-10,3.865633473e-10,3.709526030e-10,1.638579059e-10,1.030350309e-10,4.936308020e-10,1.811912524e-10,3.496821415e-11,2.290972110e-10,3.632164204e-10,1.978588968e-10,3.875165558e-12,1.464223911e-10,2.805464623e-10,2.332172900e-10,2.524977241e-09,4.960747334e-12,6.007952276e-11
0.52344,5.733870435e-10,1.949529667e-10,3.582380995e-10,9.820097861e-11,1.740016978e-11,1.069852885e-10,3.109488306e-10,5.211325502e-10,8.608704859e-12,1.606832505e-10,5.347480974e-10,9.906317566e-11,9.163941404e-11,8.412463388e-11,1.794949475e-10,3.732074151e-10,3.576953705e-10,1.574834885e-10,9.906124776e-11,4.759925279e-10,1.744595609e-10,3.389282685e-11,2.229870772e-10,3.499359399e-10,1.910812970e-10,3.834662896e-12,1.416402834e-10,2.732175994e-10,2.275821137e-10,2.519880095e-09,4.951363412e-12,5.801055971e-11
0.53125,5.629771610e-10,1.886039606e-10,3.466803579e-10,9.498157796e-11,1.702270155e-11,1.035540553e-10,3.005359834e-10,5.059981845e-10,8.382355897e-12,1.556374300e-10,5.172965983e-10,9.579475156e-11,8.887679017e-11,8.129166970e-11,1.732268806e-10,3.602365583e-10,3.448277994e-10,1.513129672e-10,9.522042860e-11,4.588720526e-10,1.679427072e-10,3.285215881e-11,2.170058488e-10,3.370644927e-10,1.845133974e-10,3.794453376e-12,1.370023393e-10,2.661467373e-10,2.221416967e-10,2.516052799e-09,4.943161533e-12,5.600119235e-11
0.53906,5.530030225e-10,1.824581341e-10,3.354782230e-10,9.186253704e-11,1.665889785e-11,1.002226958e-10,2.904502045e-10,4.912008966e-10,8.164126276e-12,1.507316487e-10,5.003582701e-10,9.262418091e-11,8.617501906e-11,7.854509061e-11,1.671520802e-10,3.476644269e-10,3.323638847e-10,1.453534056e-10,9.151448089e-11,4.422842858e-10,1.616433790e-10,3.184781064e-11,2.111509637e-10,3.246104436e-10,1.781558987e-10,3.754405983e-12,1.325094565e-10,2.593340260e-10,2.168915912e-10,2.513488472e-09,4.936113090e-12,5.405332409e-11
0.54688,5.434301179e-10,1.765050165e-10,3.246089709e-10,8.883736356e-11,1.630778285e-11,9.698387210e-11,2.806628742e-10,4.767412983e-10,7.953806003e-12,1.459579003e-10,4.839052446e-10,8.954629210e-11,8.353438161e-11,7.588368276e-11,1.612608821e-10,3.354719323e-10,3.202835318e-10,1.395920953e-10,8.793459382e-11,4.262012815e-10,1.555477085e-10,3.087833874e-11,2.054208781e-10,3.125476282e-10,1.719931319e-10,3.714440730e-12,1.281518116e-10,2.527599981e-10,2.118165762e-10,2.511978999e-09,4.930217399e-12,5.216492956e-11
0.55469,5.342311041e-10,1.707367907e-10,3.140596499e-10,8.590385190e-11,1.596918574e-11,9.383602558e-11,2.711670926e-10,4.626161526e-10,7.751071852e-12,1.413105593e-10,4.679139646e-10,8.655465311e-11,8.095144667e-11,7.330521184e-11,1.555416669e-10,3.236386080e-10,3.085666783e-10,1.340191362e-10,8.447672478e-11,4.105994581e-10,1.496486727e-10,2.994232022e-11,1.998172679e-10,3.008618642e-10,1.660236342e-10,3.674565122e-12,1.239282247e-10,2.464209037e-10,2.069206253e-10,2.511445801e-09,4.925097606e-12,5.033409891e-11
0.5625,5.254175677e-10,1.651598929e-10,3.038386336e-10,8.306502101e-11,1.564356947e-11,9.078236412e-11,2.619733356e-10,4.488209501e-10,7.555926519e-12,1.367920282e-10,4.523950578e-10,8.365169770e-11,7.842686231e-11,7.080836689e-11,1.499976622e-10,3.121716775e-10,2.972219918e-10,1.286403952e-10,8.114376752e-11,3.954907831e-10,1.439515584e-10,2.903957417e-11,1.943377411e-10,2.895628029e-10,1.602522109e-10,3.634586660e-12,1.198424259e-10,2.403194262e-10,2.022068713e-10,2.511908047e-09,4.920279682e-12,4.856119320e-11
0.57031,5.169571138e-10,1.597655545e-10,2.939318999e-10,8.031529080e-11,1.532982681e-11,8.781733258e-11,2.530652681e-10,4.353527039e-10,7.368186352e-12,1.323991046e-10,4.373359724e-10,8.083722957e-11,7.596420629e-11,6.839243901e-11,1.446260431e-10,3.010638229e-10,2.862415150e-10,1.234501460e-10,7.793030641e-11,3.808617696e-10,1.384479307e-10,2.816912133e-11,1.889779897e-10,2.786328862e-10,1.546656222e-10,3.594269827e-12,1.158855556e-10,2.344373288e-10,1.976564296e-10,2.513229759e-09,4.916033937e-12,4.684609837e-11
0.57812,5.088234828e-10,1.545414300e-10,2.843260111e-10,7.764929743e-11,1.502706419e-11,8.493651171e-11,2.444320330e-10,4.222090043e-10,7.187475504e-12,1.281285554e-10,4.227171534e-10,7.810716805e-11,7.356133648e-11,6.605534481e-11,1.394188504e-10,2.902988786e-10,2.756079365e-10,1.184382335e-10,7.483097988e-11,3.666897123e-10,1.331285059e-10,2.732985251e-11,1.837371894e-10,2.680563559e-10,1.492537564e-10,3.553827430e-12,1.120503230e-10,2.287703854e-10,1.932649440e-10,2.515334843e-09,4.912710389e-12,4.518708310e-11
0.58594,5.010355713e-10,1.494884689e-10,2.750211225e-10,7.506783911e-11,1.473546374e-11,8.214200590e-11,2.360739447e-10,4.093877675e-10,7.013504638e-12,1.239811274e-10,4.085359059e-10,7.545977023e-11,7.121434466e-11,6.379292634e-11,1.343725676e-10,2.798724404e-10,2.653173097e-10,1.136031766e-10,7.184580343e-11,3.529734717e-10,1.279944694e-10,2.652042285e-11,1.786157242e-10,2.578377022e-10,1.440199393e-10,3.513798527e-12,1.083388502e-10,2.233273561e-10,1.890409548e-10,2.518238092e-09,4.909999579e-12,4.358147308e-11
0.59375,4.935843670e-10,1.446065915e-10,2.660100049e-10,7.257074642e-11,1.445491735e-11,7.943396029e-11,2.279801553e-10,3.968859820e-10,6.846377010e-12,1.199523537e-10,3.947773726e-10,7.289195993e-11,6.892394299e-11,6.160584785e-11,1.294819917e-10,2.697725569e-10,2.553580881e-10,1.089392195e-10,6.897114414e-11,3.396988080e-10,1.230405172e-10,2.574051737e-11,1.736139781e-10,2.479653501e-10,1.389661096e-10,3.474424745e-12,1.047509325e-10,2.180991241e-10,1.849784233e-10,2.521831953e-09,4.907966678e-12,4.202924793e-11
0.60156,4.864380945e-10,1.398909695e-10,2.572882960e-10,7.015520747e-11,1.418482529e-11,7.680909379e-11,2.201471273e-10,3.846985308e-10,6.686125977e-12,1.160377453e-10,3.814285102e-10,7.040073116e-11,6.669063485e-11,5.949594261e-11,1.247435263e-10,2.599885119e-10,2.457192923e-10,1.044389035e-10,6.620198694e-11,3.268486138e-10,1.182582511e-10,2.499050405e-11,1.687308672e-10,2.384255399e-10,1.340869094e-10,3.435476377e-12,1.012813578e-10,2.130734737e-10,1.810649406e-10,2.525999714e-09,4.906884998e-12,4.053051107e-11
0.60938,4.795801803e-10,1.353323437e-10,2.488459104e-10,6.781517046e-11,1.392423578e-11,7.426082241e-11,2.125704017e-10,3.728200493e-10,6.531979326e-12,1.122362126e-10,3.684855901e-10,6.798538321e-11,6.451248240e-11,5.745726984e-11,1.201555360e-10,2.505194331e-10,2.363999251e-10,1.000997992e-10,6.353616123e-11,3.144220538e-10,1.136451300e-10,2.426767026e-11,1.639632297e-10,2.292165723e-10,1.293720254e-10,3.396668719e-12,9.792425326e-11,2.082405067e-10,1.772904611e-10,2.530670923e-09,4.905977887e-12,3.908086914e-11
0.61719,4.730004985e-10,1.309224898e-10,2.406642132e-10,6.554839606e-11,1.367287740e-11,7.178605820e-11,2.052342305e-10,3.612456805e-10,6.383474454e-12,1.085435704e-10,3.559341804e-10,6.564357471e-11,6.238827270e-11,5.548636587e-11,1.157133560e-10,2.413573721e-10,2.273917917e-10,9.591977222e-11,6.097335210e-11,3.024103402e-10,1.091995474e-10,2.356971531e-11,1.593112631e-10,2.203308717e-10,1.248180498e-10,3.358007825e-12,9.467839774e-11,2.035898013e-10,1.736541415e-10,2.535737638e-09,4.904639022e-12,3.767851335e-11
0.625,4.666913330e-10,1.266616767e-10,2.327425447e-10,6.335880641e-11,1.343101002e-11,6.938902916e-11,1.981337001e-10,3.499701516e-10,6.240925248e-12,1.049559062e-10,3.437630023e-10,6.337284304e-11,6.031726315e-11,5.358513115e-11,1.114134047e-10,2.324921635e-10,2.186842825e-10,9.189506452e-11,5.851200071e-11,2.907994420e-10,1.049181660e-10,2.289762888e-11,1.547756274e-10,2.117585694e-10,1.204261053e-10,3.319600044e-12,9.154376392e-11,1.991211700e-10,1.701605343e-10,2.541137824e-09,4.903435918e-12,3.632552067e-11
0.63281,4.606303611e-10,1.225444187e-10,2.250795754e-10,6.124112164e-11,1.319732734e-11,6.706745704e-11,1.912645098e-10,3.389881383e-10,6.103817681e-12,1.014722377e-10,3.319659294e-10,6.117290953e-11,5.829965955e-11,5.174856008e-11,1.072530170e-10,2.239177527e-10,2.102705786e-10,8.801894947e-11,5.614565435e-11,2.795815811e-10,1.007936908e-10,2.225015068e-11,1.503496146e-10,2.034893580e-10,1.161857736e-10,3.281363033e-12,8.851305681e-11,1.948294937e-10,1.667984580e-10,2.546832225e-09,4.902552319e-12,3.501960879e-11
0.64062,4.547904326e-10,1.185623678e-10,2.176601172e-10,5.918611294e-11,1.297063164e-11,6.481396423e-11,1.846173897e-10,3.282945904e-10,5.971211683e-12,9.809179878e-11,3.205353260e-10,5.904384976e-11,5.633646739e-11,4.997160929e-11,1.032308230e-10,2.156303069e-10,2.021458792e-10,8.428757598e-11,5.387016731e-11,2.687480499e-10,9.681938813e-11,2.162528939e-11,1.460275519e-10,1.955121198e-10,1.120884290e-10,3.243318872e-12,8.558089078e-11,1.907011702e-10,1.635548576e-10,2.552721755e-09,4.901738996e-12,3.375821535e-11
0.64844,4.491686224e-10,1.147174210e-10,2.104768435e-10,5.719639995e-11,1.275170598e-11,6.262862846e-11,1.781908189e-10,3.178842529e-10,5.843187603e-12,9.481302450e-11,3.094674094e-10,5.698399100e-11,5.442581942e-11,4.825650406e-11,9.934530561e-11,2.076257145e-10,1.943063718e-10,8.070033107e-11,5.168564656e-11,2.582854471e-10,9.299199785e-11,2.102427169e-11,1.418130260e-10,1.878186201e-10,1.081355965e-10,3.205813566e-12,8.274837943e-11,1.867305116e-10,1.604284042e-10,2.558717437e-09,4.901475854e-12,3.254197629e-11
0.65625,4.437526859e-10,1.110046295e-10,2.035211082e-10,5.527395494e-11,1.254052254e-11,6.051135630e-11,1.719734774e-10,3.077515338e-10,5.719946434e-12,9.163023210e-11,2.987435036e-10,5.498840067e-11,5.256482378e-11,4.660196281e-11,9.558584965e-11,1.998862069e-10,1.867349812e-10,7.724724054e-11,4.958618060e-11,2.481722404e-10,8.930262036e-11,2.044640228e-11,1.377079554e-10,1.803932786e-10,1.043205068e-10,3.168960499e-12,8.001151247e-11,1.829112899e-10,1.574109072e-10,2.564740481e-09,4.901988459e-12,3.136839963e-11
0.66406,4.385188736e-10,1.074150595e-10,1.967875768e-10,5.341512111e-11,1.233605383e-11,5.846023882e-11,1.659545175e-10,2.978917075e-10,5.601039873e-12,8.853873088e-11,2.883436027e-10,5.305427272e-11,5.075375640e-11,4.500399407e-11,9.194562152e-11,1.923977978e-10,1.794158284e-10,7.392013896e-11,4.756664400e-11,2.383967248e-10,8.574406102e-11,1.988893837e-11,1.337062028e-10,1.732263208e-10,1.006356965e-10,3.132496986e-12,7.736616397e-11,1.792376669e-10,1.544972910e-10,2.570706877e-09,4.902752885e-12,3.023492575e-11
0.67188,4.334696155e-10,1.039521216e-10,1.902846452e-10,5.162065812e-11,1.213833700e-11,5.647659245e-11,1.601419205e-10,2.883011156e-10,5.485976580e-12,8.554088389e-11,2.782740672e-10,5.118356091e-11,4.899326688e-11,4.346221826e-11,8.843140738e-11,1.851694669e-10,1.723557840e-10,7.072381159e-11,4.562955444e-11,2.289660290e-10,8.231915227e-11,1.935143595e-11,1.298033163e-10,1.663222612e-10,9.708340591e-11,3.096478062e-12,7.481393684e-11,1.757081716e-10,1.516902795e-10,2.576573660e-09,4.903679117e-12,2.914227201e-11
0.67969,4.285967942e-10,1.006122960e-10,1.839989104e-10,4.988748020e-11,1.194707812e-11,5.455538879e-11,1.545272428e-10,2.789735169e-10,5.374585741e-12,8.263515811e-11,2.685286157e-10,4.937368444e-11,4.728181642e-11,4.197482302e-11,8.504024191e-11,1.781965208e-10,1.655521579e-10,6.765426186e-11,4.377163911e-11,2.198704629e-10,7.902463196e-11,1.883330264e-11,1.259997452e-10,1.596706019e-10,9.365952431e-11,3.061226687e-12,7.235136749e-11,1.723104006e-10,1.489781480e-10,2.582283243e-09,4.904873245e-12,2.808881638e-11
0.6875,4.238711014e-10,9.738457113e-11,1.779074906e-10,4.820908021e-11,1.176149785e-11,5.269095944e-11,1.490903429e-10,2.699006333e-10,5.267061446e-12,7.981494783e-11,2.590841413e-10,4.761916540e-11,4.561771396e-11,4.053918671e-11,8.176001783e-11,1.714563641e-10,1.589844345e-10,6.469886935e-11,4.198521752e-11,2.110874698e-10,7.585137679e-11,1.833343071e-11,1.222937655e-10,1.532555038e-10,9.035647370e-11,3.026684166e-12,6.997279300e-11,1.690372100e-10,1.463555456e-10,2.587758066e-09,4.905941543e-12,2.707204023e-11
0.69531,4.192911107e-10,9.426976917e-11,1.720176083e-10,4.658795636e-11,1.158167399e-11,5.088799240e-11,1.438354864e-10,2.610787459e-10,5.163357586e-12,7.708054972e-11,2.499434058e-10,4.592109254e-11,4.399990791e-11,3.915486153e-11,7.859106065e-11,1.649470658e-10,1.526480546e-10,6.185647580e-11,4.026949430e-11,2.026150430e-10,7.279766227e-11,1.785209235e-11,1.186817244e-10,1.470787643e-10,8.717325947e-11,2.992671286e-12,6.767764897e-11,1.658977082e-10,1.438347071e-10,2.592973430e-09,4.906610132e-12,2.609171673e-11
0.70312,4.148611706e-10,9.126632742e-11,1.663311177e-10,4.502578730e-11,1.140730551e-11,4.914664157e-11,1.387638439e-10,2.525059449e-10,5.062876767e-12,7.443246219e-11,2.411055707e-10,4.427968847e-11,4.242730170e-11,3.781997880e-11,7.553305242e-11,1.586691694e-10,1.465412020e-10,5.912644120e-11,3.862360939e-11,1.944475322e-10,6.986032049e-11,1.738852991e-11,1.151632600e-10,1.411333883e-10,8.410677528e-11,2.959314910e-12,6.546407934e-11,1.628863788e-10,1.414094852e-10,2.597899321e-09,4.906901252e-12,2.514671548e-11
0.71094,4.105618641e-10,8.836549605e-11,1.608284217e-10,4.351666075e-11,1.123775470e-11,4.745974288e-11,1.338602747e-10,2.441750968e-10,4.965484348e-12,7.186483454e-11,2.325471070e-10,4.268978617e-11,4.089850915e-11,3.653191023e-11,7.257697918e-11,1.526067041e-10,1.406490006e-10,5.650123881e-11,3.704373374e-11,1.865634939e-10,6.703234177e-11,1.694154671e-11,1.117388749e-10,1.354028133e-10,8.115235642e-11,2.926678984e-12,6.332872116e-11,1.599868682e-10,1.390628775e-10,2.602452392e-09,4.906763942e-12,2.423525364e-11
0.71875,4.063776316e-10,8.556566424e-11,1.555045031e-10,4.205752418e-11,1.107322488e-11,4.582718645e-11,1.291218585e-10,2.360795164e-10,4.871478416e-12,6.937536998e-11,2.242627556e-10,4.115036935e-11,3.941275634e-11,3.528899523e-11,6.972173366e-11,1.467548024e-10,1.349663957e-10,5.397896425e-11,3.552899057e-11,1.789559042e-10,6.431214275e-11,1.651117795e-11,1.084054992e-10,1.298844041e-10,7.830708540e-11,2.894622318e-12,6.126928038e-11,1.571947324e-10,1.367934892e-10,2.606553322e-09,4.906110517e-12,2.335619424e-11
0.72656,4.022960533e-10,8.286439570e-11,1.503600625e-10,4.064751757e-11,1.091359723e-11,4.424962723e-11,1.245477652e-10,2.282162235e-10,4.780635956e-12,6.696451057e-11,2.162547723e-10,3.966319314e-11,3.797117947e-11,3.408990877e-11,6.696868388e-11,1.411151221e-10,1.294938898e-10,5.155925312e-11,3.407792351e-11,1.716246605e-10,6.169802305e-11,1.609636819e-11,1.051583176e-10,1.245746178e-10,7.556587738e-11,2.863134994e-12,5.928224335e-11,1.545046747e-10,1.346000933e-10,2.610142288e-09,4.904789183e-12,2.250843747e-11
0.73438,3.982998079e-10,8.025578045e-11,1.453853328e-10,3.928410133e-11,1.075816008e-11,4.272202416e-11,1.201279899e-10,2.205782522e-10,4.692607457e-12,6.462888817e-11,2.085079979e-10,3.822606535e-11,3.657413106e-11,3.293438192e-11,6.431198983e-11,1.356775578e-10,1.242227063e-10,4.923684161e-11,3.268664901e-11,1.645593227e-10,5.918460512e-11,1.569562295e-11,1.019946600e-10,1.194628096e-10,7.292529816e-11,2.832361650e-12,5.736505214e-11,1.519092206e-10,1.324766220e-10,2.613170571e-09,4.902835720e-12,2.169173012e-11
0.74219,3.943841610e-10,7.773882728e-11,1.405742118e-10,3.796639857e-11,1.060660021e-11,4.124196596e-11,1.158579921e-10,2.131575367e-10,4.607195270e-12,6.236567529e-11,2.010118366e-10,3.683609636e-11,3.521842105e-11,3.182094007e-11,6.174771940e-11,1.304336750e-10,1.191450392e-10,4.700715366e-11,3.135224190e-11,1.577495575e-10,5.676753874e-11,1.530858202e-11,9.891609773e-11,1.145431393e-10,7.038334810e-11,2.802462992e-12,5.551550905e-11,1.494086226e-10,1.304212215e-10,2.615599557e-09,4.900528912e-12,2.090482581e-11
0.75,3.905470478e-10,7.531118528e-11,1.359223328e-10,3.669363910e-11,1.045864291e-11,3.980957710e-11,1.117342678e-10,2.059524417e-10,4.524075170e-12,6.017367753e-11,1.937626057e-10,3.549164094e-11,3.390133662e-11,3.074725323e-11,5.927406215e-11,1.253789417e-10,1.142551292e-10,4.486701019e-11,3.007288673e-11,1.511863273e-10,5.444338940e-11,1.493435634e-11,9.592567632e-11,1.098096474e-10,6.793679001e-11,2.773483346e-12,5.373068161e-11,1.470013576e-10,1.284309361e-10,2.617381111e-09,4.897618760e-12,2.014523753e-11
0.75781,3.867745660e-10,7.296802424e-11,1.314239473e-10,3.546398798e-11,1.031403303e-11,3.842414521e-11,1.077501445e-10,1.989604009e-10,4.443200764e-12,5.805011917e-11,1.867512028e-10,3.419088416e-11,3.262330445e-11,2.971323527e-11,5.688674198e-11,1.205053707e-10,1.095452052e-10,4.281362749e-11,2.884765568e-11,1.448605214e-10,5.220984527e-11,1.457227471e-11,9.302035855e-11,1.052564010e-10,6.558392286e-11,2.745255201e-12,5.200984789e-11,1.446817585e-10,1.265025325e-10,2.618462483e-09,4.893771534e-12,1.941271920e-11
0.76562,3.830530809e-10,7.070599417e-11,1.270750223e-10,3.427612885e-11,1.017283391e-11,3.708493949e-11,1.039012646e-10,1.921728744e-10,4.364593808e-12,5.599203675e-11,1.799693411e-10,3.293236803e-11,3.138418592e-11,2.871681794e-11,5.458269322e-11,1.158067946e-10,1.050095634e-10,4.084401844e-11,2.767434405e-11,1.387665171e-10,5.006390545e-11,1.422274304e-11,9.019132268e-11,1.008780302e-10,6.331953885e-11,2.717752813e-12,5.035022497e-11,1.424409789e-10,1.246308316e-10,2.618791160e-09,4.889534287e-12,1.870724521e-11
0.77344,3.793765204e-10,6.852069695e-11,1.228678288e-10,3.312839026e-11,1.003486464e-11,3.578968572e-11,1.001823193e-10,1.855834037e-10,4.287955823e-12,5.399755560e-11,1.734099057e-10,3.171475622e-11,3.018263398e-11,2.775452185e-11,5.236009235e-11,1.112784490e-10,1.006429885e-10,3.895394826e-11,2.654885086e-11,1.328977536e-10,4.800019907e-11,1.388522845e-11,8.743348205e-11,9.666513122e-11,6.113570039e-11,2.691159851e-12,4.874651761e-11,1.402680256e-10,1.228066275e-10,2.618311629e-09,4.885061189e-12,1.802716623e-11
0.78125,3.757440478e-10,6.641064979e-11,1.187981197e-10,3.201960939e-11,9.899823406e-12,3.453634083e-11,9.659011622e-11,1.791896032e-10,4.213267041e-12,5.206571876e-11,1.670667241e-10,3.053699729e-11,2.901840816e-11,2.682782132e-11,5.021668171e-11,1.069150036e-10,9.644019945e-11,3.714072305e-11,2.546888089e-11,1.272464513e-10,4.601501477e-11,1.355863069e-11,8.474762193e-11,9.261228489e-11,5.903011310e-11,2.665274949e-12,4.719745236e-11,1.381638086e-10,1.210298088e-10,2.616992966e-09,4.879551183e-12,1.737210066e-11
0.78906,3.721510834e-10,6.437549566e-11,1.148661717e-10,3.094878496e-11,9.767648283e-12,3.332444397e-11,9.312252526e-11,1.729874387e-10,4.140461598e-12,5.019507980e-11,1.609343508e-10,2.939776098e-11,2.789064518e-11,2.593708038e-11,4.814977368e-11,1.027113249e-10,9.239530928e-11,3.540116309e-11,2.443256308e-11,1.218034713e-10,4.410529590e-11,1.324220227e-11,8.213563224e-11,8.871612329e-11,5.700285832e-11,2.639924114e-12,4.570292032e-11,1.361335811e-10,1.193040788e-10,2.614809841e-09,4.873258059e-12,1.674119728e-11
0.79688,3.685787959e-10,6.240940175e-11,1.110638705e-10,2.991380000e-11,9.638079981e-12,3.215231292e-11,8.977188456e-11,1.669710758e-10,4.068872170e-12,4.838273621e-11,1.550034047e-10,2.829471537e-11,2.679697685e-11,2.507742720e-11,4.615611061e-11,9.866095305e-11,8.850138049e-11,3.373128352e-11,2.343833205e-11,1.165602242e-10,4.226950468e-11,1.293477876e-11,7.959902102e-11,8.497089462e-11,5.505703278e-11,2.615818625e-12,4.426343820e-11,1.341683007e-10,1.176224900e-10,2.611689447e-09,4.867348249e-12,1.613206240e-11
0.80469,3.650096306e-10,6.050966185e-11,1.073840078e-10,2.891382280e-11,9.510719615e-12,3.101875466e-11,8.653508415e-11,1.611357738e-10,3.998317855e-12,4.662752589e-11,1.492697166e-10,2.722747357e-11,2.573648189e-11,2.424717880e-11,4.423463757e-11,9.476056054e-11,8.475708664e-11,3.213229762e-11,2.248830946e-11,1.115166245e-10,4.051090981e-11,1.263605698e-11,7.713654018e-11,8.137717392e-11,5.319528295e-11,2.593390774e-12,4.288070169e-11,1.322586512e-10,1.159795980e-10,2.607567300e-09,4.861542604e-12,1.554452449e-11
0.8125,3.614460758e-10,5.867765732e-11,1.038268996e-10,2.794794317e-11,9.385495327e-12,2.992327843e-11,8.341260924e-11,1.554778854e-10,3.929288411e-12,4.492953030e-11,1.437332976e-10,2.619667434e-11,2.470975396e-11,2.344741361e-11,4.238501046e-11,9.100807414e-11,8.116064463e-11,3.060371046e-11,2.158189308e-11,1.066697326e-10,3.882672219e-11,1.234670767e-11,7.474294825e-11,7.793094470e-11,5.140365422e-11,2.571665505e-12,4.154759206e-11,1.304046531e-10,1.143756437e-10,2.602455607e-09,4.854504773e-12,1.497875821e-11
0.82031,3.578909683e-10,5.690781429e-11,1.003868702e-10,2.701315847e-11,9.262380951e-12,2.886336494e-11,8.039576781e-11,1.499935492e-10,3.861735445e-12,4.328611084e-11,1.383841561e-10,2.520015321e-11,2.371628741e-11,2.267635985e-11,4.060373903e-11,8.739585493e-11,7.770208380e-11,2.913803440e-11,2.071336598e-11,1.020066858e-10,3.720699308e-11,1.206591261e-11,7.241459109e-11,7.461816130e-11,4.966853505e-11,2.549941177e-12,4.025520423e-11,1.286018954e-10,1.128033481e-10,2.596361310e-09,4.845911963e-12,1.443271664e-11
0.82812,3.543301100e-10,5.519368108e-11,9.705717929e-11,2.610851880e-11,9.140967236e-12,2.783821574e-11,7.747758512e-11,1.446781969e-10,3.795348073e-12,4.169489218e-11,1.332130815e-10,2.423630575e-11,2.275481864e-11,2.193269215e-11,3.888816530e-11,8.391902713e-11,7.437696469e-11,2.773303781e-11,1.988139147e-11,9.752354496e-11,3.565061084e-11,1.179253496e-11,7.015135714e-11,7.143658725e-11,4.799990700e-11,2.529019394e-12,3.900788403e-11,1.268439859e-10,1.112549915e-10,2.589227997e-09,4.836557446e-12,1.390574938e-11
0.83594,3.507566318e-10,5.353615657e-11,9.383915895e-11,2.523502347e-11,9.020863384e-12,2.684899644e-11,7.465952903e-11,1.395274589e-10,3.730185702e-12,4.015574696e-11,1.282197192e-10,2.330560486e-11,2.182485860e-11,2.121610610e-11,3.723790868e-11,8.057755596e-11,7.118734749e-11,2.639120847e-11,1.908725870e-11,9.322068292e-11,3.416014368e-11,1.152707580e-11,6.795238588e-11,6.838953689e-11,4.640433201e-11,2.509611884e-12,3.780964946e-11,1.251306111e-10,1.097330641e-10,2.581017263e-09,4.827168198e-12,1.339843560e-11
0.84375,3.471809602e-10,5.193625511e-11,9.073170838e-11,2.439161223e-11,8.902162526e-12,2.589319843e-11,7.193938769e-11,1.345374379e-10,3.666063032e-12,3.866695408e-11,1.233985457e-10,2.240646614e-11,2.092605261e-11,2.052484015e-11,3.565091500e-11,7.736564133e-11,6.812718397e-11,2.510870572e-11,1.832785408e-11,8.908641574e-11,3.273023280e-11,1.126939601e-11,6.581565556e-11,6.546796527e-11,4.486948669e-11,2.491355129e-12,3.665426873e-11,1.234604617e-10,1.082404182e-10,2.571720222e-09,4.817697353e-12,1.290934440e-11
0.85156,3.436014070e-10,5.039095463e-11,8.772751707e-11,2.357623654e-11,8.784961612e-12,2.496772438e-11,6.931184818e-11,1.297037625e-10,3.602733136e-12,3.722603784e-11,1.187407571e-10,2.153706419e-11,2.005745606e-11,1.985826680e-11,3.412456229e-11,7.427567477e-11,6.518793709e-11,2.388066226e-11,1.760054684e-11,8.511130138e-11,3.135668829e-11,1.101829487e-11,6.373967324e-11,6.266334439e-11,4.338962092e-11,2.473814867e-12,3.553863954e-11,1.218283228e-10,1.067726998e-10,2.561313986e-09,4.807610422e-12,1.243692492e-11
0.85938,3.399988895e-10,4.889633864e-11,8.481970377e-11,2.278781881e-11,8.669068810e-12,2.407336882e-11,6.677302018e-11,1.250221939e-10,3.540581217e-12,3.583185009e-11,1.142418087e-10,2.069737556e-11,1.921808407e-11,1.921689406e-11,3.265607876e-11,7.130338701e-11,6.236503296e-11,2.270530880e-11,1.690483925e-11,8.129184652e-11,3.003833348e-11,1.077419019e-11,6.172335934e-11,5.997050490e-11,4.196677361e-11,2.456996733e-12,3.446318488e-11,1.202278262e-10,1.053236003e-10,2.549809812e-09,4.796712219e-12,1.198134410e-11
0.86719,3.363583771e-10,4.744994906e-11,8.200549027e-11,2.202674618e-11,8.554391438e-12,2.321039726e-11,6.431947914e-11,1.204892052e-10,3.479778997e-12,3.448291803e-11,1.098962281e-10,1.988587891e-11,1.840715072e-11,1.859997204e-11,3.124163687e-11,6.844302642e-11,5.965251045e-11,2.157923049e-11,1.623822414e-11,7.761816571e-11,2.877087069e-11,1.053789999e-11,5.976607178e-11,5.738043133e-11,4.059724274e-11,2.441017783e-12,3.342528489e-11,1.186521227e-10,1.038886821e-10,2.537226756e-09,4.785238855e-12,1.154272501e-11
0.875,3.326748371e-10,4.605106010e-11,7.928608047e-11,2.129379235e-11,8.440756365e-12,2.237657236e-11,6.195117780e-11,1.161006101e-10,3.419706329e-12,3.317807870e-11,1.057000257e-10,1.910071775e-11,1.762391351e-11,1.800619197e-11,2.988052276e-11,6.569154102e-11,5.704737654e-11,2.050049181e-11,1.559877989e-11,7.408465566e-11,2.755279011e-11,1.030812937e-11,5.786607065e-11,5.489108157e-11,3.927874441e-11,2.425954785e-12,3.242410356e-11,1.170989150e-10,1.024650543e-10,2.523529607e-09,4.773268839e-12,1.112020497e-11
0.88281,3.289577219e-10,4.469773646e-11,7.665826460e-11,2.058722902e-11,8.327966251e-12,2.157064596e-11,5.966612913e-11,1.118517947e-10,3.360084711e-12,3.191638370e-11,1.016515570e-10,1.834206813e-11,1.686770559e-11,1.743386080e-11,2.857418345e-11,6.304973879e-11,5.454972677e-11,1.946982237e-11,1.498684931e-11,7.069372611e-11,2.638533175e-11,1.008359521e-11,5.602053389e-11,5.250496989e-11,3.801156414e-11,2.411731787e-12,3.145964183e-11,1.155720593e-10,1.010524784e-10,2.508726639e-09,4.760571172e-12,1.071268728e-11
0.89062,3.252197912e-10,4.338735543e-11,7.411254076e-11,1.990465041e-11,8.216281082e-12,2.079199764e-11,5.745717194e-11,1.077391163e-10,3.301365685e-12,3.069535341e-11,9.774448088e-11,1.760966542e-11,1.613781911e-11,1.688157240e-11,2.732001716e-11,6.051246758e-11,5.215367464e-11,1.848532080e-11,1.440204027e-11,6.744057265e-11,2.526579121e-11,9.864979390e-12,5.422912590e-11,5.021740460e-11,3.679346649e-11,2.398223695e-12,3.052971182e-11,1.140723810e-10,9.965242938e-11,2.492871221e-09,4.746971165e-12,1.031961709e-11
0.89844,3.214467974e-10,4.212075982e-11,7.164674411e-11,1.924555578e-11,8.105546256e-12,2.003858644e-11,5.532268174e-11,1.037591418e-10,3.243703754e-12,2.951384585e-11,9.397296206e-11,1.690255103e-11,1.543369477e-11,1.634931741e-11,2.611387891e-11,5.807170977e-11,4.985255733e-11,1.754409899e-11,1.384298735e-11,6.431705087e-11,2.419134176e-11,9.652783725e-12,5.249231073e-11,4.802383867e-11,3.562334426e-11,2.385493158e-12,2.963352536e-11,1.125941410e-10,9.826386080e-11,2.475942924e-09,4.732669246e-12,9.940727166e-12
0.90625,3.176197167e-10,4.089850918e-11,6.926579023e-11,1.860865241e-11,7.994869164e-12,1.930948603e-11,5.326449432e-11,9.990833066e-11,3.186699178e-12,2.837313680e-11,9.033697226e-11,1.622059018e-11,1.475518617e-11,1.583648439e-11,2.495563113e-11,5.572641735e-11,4.764642634e-11,1.664548486e-11,1.330846442e-11,6.132207105e-11,2.316205873e-11,9.446015777e-12,5.080704444e-11,4.592373897e-11,3.450008127e-11,2.373586879e-12,2.877050604e-11,1.111344048e-10,9.688414985e-11,2.457933952e-09,4.718001953e-12,9.575352540e-12
0.91406,3.137494040e-10,3.971575738e-11,6.696653093e-11,1.799269791e-11,7.884165170e-12,1.860644994e-11,5.127832002e-11,9.618396334e-11,3.130065714e-12,2.727266379e-11,8.683404695e-11,1.556333742e-11,1.410177066e-11,1.534173546e-11,2.384613742e-11,5.347748978e-11,4.553487789e-11,1.578877767e-11,1.279766603e-11,5.845459636e-11,2.217737081e-11,9.243879732e-12,4.917022480e-11,4.391430040e-11,3.342120300e-11,2.362451448e-12,2.793895387e-11,1.096956939e-10,9.551214782e-11,2.438909548e-09,4.702952394e-12,9.222978405e-12
0.92188,3.098429863e-10,3.856774280e-11,6.474055879e-11,1.739899847e-11,7.774131937e-12,1.792945917e-11,4.936020695e-11,9.258289600e-11,3.073931988e-12,2.620980532e-11,8.345583352e-11,1.492955431e-11,1.347197537e-11,1.486492527e-11,2.278240511e-11,5.131954291e-11,4.351142050e-11,1.497150775e-11,1.230981779e-11,5.570719815e-11,2.123476549e-11,9.046844420e-12,4.758254956e-11,4.199061718e-11,3.238564676e-11,2.352155482e-12,2.713811321e-11,1.082766425e-10,9.414603207e-11,2.418883246e-09,4.687302996e-12,8.883467916e-12
0.92969,3.058904629e-10,3.745521042e-11,6.258697835e-11,1.682772299e-11,7.664844414e-12,1.727534163e-11,4.751057103e-11,8.910076346e-11,3.018551065e-12,2.518313654e-11,8.019560690e-11,1.431785714e-11,1.286441986e-11,1.440595420e-11,2.175992444e-11,4.924486710e-11,4.156879985e-11,1.419040108e-11,1.184326464e-11,5.307093050e-11,2.033056795e-11,8.855468780e-12,4.604519107e-11,4.014733804e-11,3.139126542e-11,2.342712356e-12,2.636638426e-11,1.068718352e-10,9.278357910e-11,2.397849603e-09,4.670987687e-12,8.556192393e-12
0.9375,3.019003890e-10,3.637956687e-11,6.050801908e-11,1.627684202e-11,7.556014675e-12,1.664309937e-11,4.572825039e-11,8.573447006e-11,2.963789303e-12,2.419243725e-11,7.705268040e-11,1.372735672e-11,1.227886716e-11,1.396435186e-11,2.077755799e-11,4.725095604e-11,3.970498643e-11,1.344376230e-11,1.139662542e-11,5.054199727e-11,1.946255522e-11,8.669082431e-12,4.455647318e-11,3.838097340e-11,3.043563808e-11,2.333955955e-12,2.562181628e-11,1.054805150e-10,9.142532479e-11,2.375865139e-09,4.654039798e-12,8.240454055e-12
0.94531,2.978848651e-10,3.533833536e-11,5.849912165e-11,1.574531181e-11,7.447630622e-12,1.603402553e-11,4.400984649e-11,8.248231614e-11,2.909234656e-12,2.323702096e-11,7.402588213e-11,1.315819996e-11,1.171562474e-11,1.353987734e-11,1.983612794e-11,4.533839579e-11,3.792051303e-11,1.273167644e-11,1.096956755e-11,4.812025526e-11,1.863103984e-11,8.486571671e-12,4.311275934e-11,3.669137381e-11,2.951878998e-11,2.325783756e-12,2.490403518e-11,1.041047046e-10,9.007330664e-11,2.352967344e-09,4.636577575e-12,7.936121331e-12
0.95312,2.938332278e-10,3.432890344e-11,5.655404958e-11,1.523254129e-11,7.339727175e-12,1.544691923e-11,4.235123507e-11,7.934042114e-11,2.854917514e-12,2.231494619e-11,7.110744732e-11,1.260984001e-11,1.117403933e-11,1.313111088e-11,1.893386460e-11,4.350370915e-11,3.621205030e-11,1.205320196e-11,1.056164638e-11,4.580223378e-11,1.783573391e-11,8.307980952e-12,4.171180822e-11,3.507695402e-11,2.863916765e-11,2.318125356e-12,2.421176524e-11,1.027424853e-10,8.872762696e-11,2.329160906e-09,4.618658490e-12,7.642806172e-12
0.96094,2.906672855e-10,3.341028116e-11,5.460843158e-11,1.465975277e-11,7.226564041e-12,1.481332053e-11,4.056003017e-11,7.630320388e-11,2.809772504e-12,2.139271648e-11,6.789319225e-11,1.197374429e-11,1.065583885e-11,1.272985721e-11,1.792720384e-11,4.146729468e-11,3.424431962e-11,1.121290834e-11,1.011219021e-11,4.339438260e-11,1.696135861e-11,8.148051178e-12,4.035843842e-11,3.355820233e-11,2.786494021e-11,2.313176151e-12,2.352718164e-11,1.019527772e-10,8.785843489e-11,2.311408524e-09,4.598818953e-12,7.348420486e-12
0.96875,2.870252945e-10,3.251724958e-11,5.279015536e-11,1.416525127e-11,7.122689858e-12,1.424958206e-11,3.895494870e-11,7.336688820e-11,2.760869438e-12,2.051815515e-11,6.503721393e-11,1.141554605e-11,1.014522921e-11,1.234957592e-11,1.705537176e-11,3.968133012e-11,3.257087049e-11,1.054149209e-11,9.728537140e-12,4.122028701e-11,1.620886330e-11,7.986281825e-12,3.904270941e-11,3.213770906e-11,2.709592822e-11,2.307436835e-12,2.289857136e-11,1.008741785e-10,8.672000067e-11,2.289145878e-09,4.578653498e-12,7.075549670e-12
0.97656,2.825689191e-10,3.156877402e-11,5.105125423e-11,1.372153612e-11,7.013102508e-12,1.373362794e-11,3.751823746e-11,7.053550592e-11,2.702920177e-12,1.969830130e-11,6.249863905e-11,1.094728255e-11,9.651254609e-12,1.198920590e-11,1.628691187e-11,3.811063864e-11,3.113151351e-11,1.001165953e-11,9.400395011e-12,3.922289029e-11,1.554568791e-11,7.812450198e-12,3.776126840e-11,3.070271711e-11,2.627953505e-11,2.299526789e-12,2.227129555e-11,9.933949338e-11,8.515940778e-11,2.261179106e-09,4.561059645e-12,6.816458255e-12
0.98438,2.783686842e-10,3.068317596e-11,4.936227058e-11,1.328536432e-11,6.907543912e-12,1.323099391e-11,3.609688095e-11,6.780460361e-11,2.649372498e-12,1.889857935e-11,5.999550405e-11,1.047403341e-11,9.180714327e-12,1.163818290e-11,1.553515378e-11,3.656660092e-11,2.971321510e-11,9.470849358e-12,9.071648656e-12,3.729000124e-11,1.489120413e-11,7.648832170e-12,3.652150648e-11,2.936060403e-11,2.552120958e-11,2.293050653e-12,2.167245100e-11,9.798506149e-11,8.376861603e-11,2.234066411e-09,4.541972189e-12,6.564996836e-12
0.99219,2.744148672e-10,2.986026019e-11,4.772365806e-11,1.286335499e-11,6.807797825e-12,1.274653611e-11,3.469481506e-11,6.516916797e-11,2.599649118e-12,1.811557784e-11,5.754586933e-11,9.997544002e-12,8.728734153e-12,1.129548985e-11,1.480795040e-11,3.506139821e-11,2.833640123e-11,8.929681637e-12,8.744233003e-12,3.543151874e-11,1.425295358e-11,7.493755608e-12,3.532293686e-11,2.811627734e-11,2.481693868e-11,2.288191196e-12,2.110732623e-11,9.678778894e-11,8.251998809e-11,2.207521118e-09,4.520905245e-12,6.320602209e-12
1,2.700930403e-10,2.901516560e-11,4.614299081e-11,1.245870617e-11,6.700867680e-12,1.228015970e-11,3.338001224e-11,6.262748288e-11,2.545479379e-12,1.737316854e-11,5.524161571e-11,9.563785070e-12,8.294448034e-12,1.097377093e-11,1.412474910e-11,3.365549773e-11,2.705262792e-11,8.447533129e-12,8.448270377e-12,3.367652115e-11,1.365867750e-11,7.334830811e-12,3.416017388e-11,2.688383350e-11,2.411044428e-11,2.282673136e-12,2.054502951e-11,9.540767594e-11,8.108601583e-11,2.178473330e-09,4.501507372e-12,6.087742846e-12
1.0078,2.657514047e-10,2.819929237e-11,4.461575811e-11,1.206870585e-11,6.595116622e-12,1.183185872e-11,3.211108704e-11,6.017705396e-11,2.492464440e-12,1.665768611e-11,5.302412294e-11,9.145771628e-12,7.881336283e-12,1.066414119e-11,1.347237448e-11,3.230959770e-11,2.582657723e-11,7.984832644e-12,8.161689243e-12,3.200054165e-11,1.308750227e-11,7.180498676e-12,3.303398995e-11,2.570958046e-11,2.343450561e-11,2.277900877e-12,2.000467730e-11,9.405121296e-11,7.967722463e-11,2.148819282e-09,4.481434876e-12,5.863051539e-12
1.0156,2.615635120e-10,2.743775763e-11,4.313800541e-11,1.169710855e-11,6.495935243e-12,1.140586490e-11,3.087228840e-11,5.781438715e-11,2.442968297e-12,1.595941941e-11,5.088093309e-11,8.732332765e-12,7.487281462e-12,1.035973214e-11,1.285131052e-11,3.101511919e-11,2.465915013e-11,7.532460631e-12,7.878058373e-12,3.040133477e-11,1.253767823e-11,7.034294963e-12,3.194567843e-11,2.462211024e-11,2.280270371e-11,2.274621076e-12,1.949777572e-11,9.280005299e-11,7.837596054e-11,2.119224587e-09,4.459362887e-12,5.644268937e-12
1.0234,2.571949829e-10,2.667402390e-11,4.171082339e-11,1.133554451e-11,6.392012533e-12,1.099161298e-11,2.969384548e-11,5.553562869e-11,2.391602188e-12,1.529368594e-11,4.883109724e-11,8.345225674e-12,7.109964903e-12,1.006937050e-11,1.225822545e-11,2.978371199e-11,2.354562415e-11,7.115252682e-12,7.618609888e-12,2.888123499e-11,1.201957809e-11,6.888905305e-12,3.089363404e-11,2.356067376e-11,2.218372586e-11,2.271160425e-12,1.899636661e-11,9.146230064e-11,7.698734713e-11,2.088246260e-09,4.437864050e-12,5.435152830e-12
1.0312,2.527608537e-10,2.592600244e-11,4.033176169e-11,1.098504998e-11,6.287118644e-12,1.059045959e-11,2.856144347e-11,5.333741806e-11,2.340405175e-12,1.465561568e-11,4.686047598e-11,7.976468621e-12,6.750577082e-12,9.789816698e-12,1.169070441e-11,2.860524073e-11,2.247912089e-11,6.720762915e-12,7.373078422e-12,2.743021632e-11,1.152470771e-11,6.746162316e-12,2.987742111e-11,2.253815340e-11,2.158630678e-11,2.267676665e-12,1.850760250e-11,9.010670618e-11,7.558445184e-11,2.056512579e-09,4.415438586e-12,5.234213532e-12
1.0391,2.483960178e-10,2.521672377e-11,3.899698315e-11,1.065296361e-11,6.187580813e-12,1.021052663e-11,2.746421171e-11,5.121790736e-11,2.291702684e-12,1.403613241e-11,4.497388009e-11,7.618881139e-12,6.408860891e-12,9.516174557e-12,1.115542455e-11,2.748277065e-11,2.147653868e-11,6.343722490e-12,7.131194692e-12,2.604979687e-11,1.105131361e-11,6.608593370e-12,2.889630004e-11,2.158036431e-11,2.101937437e-11,2.264826070e-12,1.804512239e-11,8.880207561e-11,7.424231256e-11,2.024464696e-09,4.390577588e-12,5.038686039e-12
1.0469,2.439603874e-10,2.451948660e-11,3.770832851e-11,1.033006426e-11,6.086281735e-12,9.841631603e-12,2.641148402e-11,4.917459401e-11,2.242750412e-12,1.344308603e-11,4.315862519e-11,7.278566041e-12,6.083432698e-12,9.254574262e-12,1.064278638e-11,2.640849600e-11,2.051592792e-11,5.989039209e-12,6.904698602e-12,2.473521413e-11,1.060162834e-11,6.473408977e-12,2.794907991e-11,2.065856092e-11,2.047406330e-11,2.262215924e-12,1.759534064e-11,8.747018865e-11,7.287807309e-11,1.991669044e-09,4.365236834e-12,4.850739187e-12
1.0547,2.394864534e-10,2.383852669e-11,3.646595666e-11,1.001561660e-11,5.983552549e-12,9.482707077e-12,2.539963828e-11,4.720410339e-11,2.193737709e-12,1.287521032e-11,4.140559717e-11,6.952643287e-12,5.773430036e-12,9.003747631e-12,1.015012290e-11,2.537606491e-11,1.958885913e-11,5.652375835e-12,6.691722353e-12,2.348057121e-11,1.017293274e-11,6.340872708e-12,2.703533275e-11,1.977291861e-11,1.995192418e-11,2.259861416e-12,1.715884660e-11,8.612872070e-11,7.150559770e-11,1.958357862e-09,4.339554202e-12,4.670101334e-12
1.0625,2.350169474e-10,2.318118326e-11,3.526515911e-11,9.716832905e-12,5.883476356e-12,9.141853356e-12,2.442923765e-11,4.530423453e-11,2.145597625e-12,1.232672610e-11,3.973615279e-11,6.641368563e-12,5.477743328e-12,8.759196887e-12,9.687573819e-12,2.439814207e-11,1.872038403e-11,5.337202875e-12,6.485510188e-12,2.228938065e-11,9.766037478e-12,6.211674595e-12,2.615460961e-11,1.893140353e-11,1.944696794e-11,2.257687225e-12,1.673922006e-11,8.479661536e-11,7.014252979e-11,1.924536661e-09,4.312977439e-12,4.495125958e-12
1.0703,2.305263779e-10,2.253850082e-11,3.410466383e-11,9.426908688e-12,5.783057640e-12,8.811976191e-12,2.349742632e-11,4.347290740e-11,2.097605549e-12,1.180102905e-11,3.813135002e-11,6.343817763e-12,5.195723890e-12,8.523530921e-12,9.246487235e-12,2.346224964e-11,1.789073994e-11,5.039833249e-12,6.290660015e-12,2.115560872e-11,9.379111674e-12,6.084849985e-12,2.530735101e-11,1.812812013e-11,1.896300322e-11,2.255761219e-12,1.633285410e-11,8.346989759e-11,6.878115302e-11,1.890344951e-09,4.286017267e-12,4.326825482e-12
1.0781,2.260528714e-10,2.191595484e-11,3.298541685e-11,9.144167506e-12,5.682500802e-12,8.490346482e-12,2.259704577e-11,4.170772804e-11,2.050145338e-12,1.129773626e-11,3.657512511e-11,6.056221783e-12,4.926910502e-12,8.296892977e-12,8.821673640e-12,2.255812789e-11,1.708652387e-11,4.754818966e-12,6.107065439e-12,2.007361731e-11,9.009767099e-12,5.960540116e-12,2.449200133e-11,1.736700746e-11,1.850744261e-11,2.254396263e-12,1.594356728e-11,8.216661242e-11,6.744383742e-11,1.856078851e-09,4.258121525e-12,4.164578167e-12
1.0859,2.215576915e-10,2.130960990e-11,3.190653124e-11,8.874461027e-12,5.583340973e-12,8.182871134e-12,2.173572408e-11,4.000702511e-11,2.003199503e-12,1.081401640e-11,3.509172877e-11,5.783603435e-12,4.670780826e-12,8.077695171e-12,8.421745667e-12,2.170070248e-11,1.632975589e-11,4.490328638e-12,5.931111544e-12,1.904574739e-11,8.659184182e-12,5.839081008e-12,2.370450018e-11,1.663524534e-11,1.806134514e-11,2.252953569e-12,1.556594013e-11,8.084214325e-11,6.609183127e-11,1.821342819e-09,4.229101238e-12,4.007221843e-12
1.0938,2.170472557e-10,2.071817639e-11,3.086594519e-11,8.614605115e-12,5.484594813e-12,7.886315332e-12,2.091022905e-11,3.836887565e-11,1.956904834e-12,1.035021707e-11,3.366756510e-11,5.523338089e-12,4.427416414e-12,7.867206770e-12,8.040987012e-12,2.088037557e-11,1.560787732e-11,4.241453820e-12,5.763036390e-12,1.806803823e-11,8.325084526e-12,5.721172744e-12,2.294458045e-11,1.593199943e-11,1.762719464e-11,2.251296599e-12,1.519821577e-11,7.950533615e-11,6.472912259e-11,1.786337524e-09,4.199492851e-12,3.855367300e-12
1.1016,2.125967940e-10,2.015101850e-11,2.986040002e-11,8.362468028e-12,5.386900332e-12,7.598233842e-12,2.010995890e-11,3.679102634e-11,1.911884069e-12,9.905033689e-12,3.228296347e-11,5.269193772e-12,4.196021736e-12,7.665235971e-12,7.673644650e-12,2.008415273e-11,1.490640299e-11,4.000392798e-12,5.602519026e-12,1.713677699e-11,8.006094010e-12,5.606823649e-12,2.221292480e-11,1.527307848e-11,1.722105034e-11,2.250087529e-12,1.484830707e-11,7.820832848e-11,6.340391485e-11,1.751548265e-09,4.169406560e-12,3.708987995e-12
1.1094,2.081453348e-10,1.959680707e-11,2.888863135e-11,8.119531615e-12,5.289206722e-12,7.320553767e-12,1.934195575e-11,3.527159806e-11,1.867000040e-12,9.478183191e-12,3.095648172e-11,5.027399885e-12,3.974989288e-12,7.470878378e-12,7.325650688e-12,1.932508851e-11,1.423997480e-11,3.776487923e-12,5.450362895e-12,1.625275941e-11,7.703680009e-12,5.494544949e-12,2.150706375e-11,1.464007327e-11,1.682417628e-11,2.249011033e-12,1.450698442e-11,7.689910042e-11,6.206731047e-11,1.716531507e-09,4.139356121e-12,3.568103777e-12
1.1172,2.036921482e-10,1.905436130e-11,2.795076089e-11,7.884815058e-12,5.191167857e-12,7.052206540e-12,1.860490453e-11,3.380861200e-11,1.822137739e-12,9.068890586e-12,2.968405062e-11,4.797039074e-12,3.764024136e-12,7.283288558e-12,6.995963500e-12,1.860206985e-11,1.360614802e-11,3.568770645e-12,5.307212688e-12,1.541463000e-11,7.417071861e-12,5.384649148e-12,2.082668898e-11,1.403019860e-11,1.643513196e-11,2.247921751e-12,1.417257679e-11,7.557646658e-11,6.071872358e-11,1.681373975e-09,4.109097924e-12,3.432340447e-12
1.125,1.993256759e-10,1.853743467e-11,2.704678148e-11,7.659475671e-12,5.095561011e-12,6.794094996e-12,1.789041660e-11,3.240071801e-11,1.778584179e-12,8.674310314e-12,2.845201243e-11,4.571516708e-12,3.563216586e-12,7.101451723e-12,6.681430885e-12,1.790506168e-11,1.299727870e-11,3.369555876e-12,5.171180785e-12,1.462090470e-11,7.145619867e-12,5.278190617e-12,2.017119288e-11,1.346438873e-11,1.607090137e-11,2.246896114e-12,1.385588155e-11,7.430201483e-11,5.941658953e-11,1.646620412e-09,4.077671589e-12,3.300624259e-12
1.1328,1.949914513e-10,1.803618616e-11,2.617978376e-11,7.443419983e-12,5.001220855e-12,6.546673952e-12,1.720588629e-11,3.104711815e-11,1.735590182e-12,8.296414007e-12,2.727033085e-11,4.355789653e-12,3.371883689e-12,6.926752268e-12,6.382803778e-12,1.723853249e-11,1.241670809e-11,3.183943147e-12,5.042762093e-12,1.386878805e-11,6.887899308e-12,5.174476026e-12,1.953659562e-11,1.292383834e-11,1.571485674e-11,2.244962268e-12,1.354587874e-11,7.303315008e-11,5.811644598e-11,1.611964113e-09,4.045532739e-12,3.174086032e-12
1.1406,1.906684282e-10,1.754769302e-11,2.534770172e-11,7.235021397e-12,4.906744677e-12,6.308274578e-12,1.655132387e-11,2.974578238e-11,1.692715417e-12,7.936084899e-12,2.613815165e-11,4.150950055e-12,3.189521493e-12,6.758945716e-12,6.099438255e-12,1.660267286e-11,1.186281364e-11,3.012407565e-12,4.922314711e-12,1.315678487e-11,6.642900157e-12,5.073135398e-12,1.892264136e-11,1.240161596e-11,1.536209151e-11,2.242174690e-12,1.323844383e-11,7.175456890e-11,5.680270592e-11,1.577310088e-09,4.012919888e-12,3.053035649e-12
1.1484,1.849373990e-10,1.687494528e-11,2.454701278e-11,7.006450447e-12,4.797912379e-12,6.030285209e-12,1.606768498e-11,2.849427533e-11,1.630560952e-12,7.651508753e-12,2.535866639e-11,4.042173485e-12,3.010421137e-12,6.589793136e-12,5.992503695e-12,1.636666705e-11,1.161120659e-11,3.092985942e-12,4.950622139e-12,1.280258422e-11,6.533089464e-12,4.935497421e-12,1.832029590e-11,1.180954320e-11,1.489031755e-11,2.234537610e-12,1.281986163e-11,6.978362759e-11,5.483917927e-11,1.536274842e-09,3.982917531e-12,2.953309184e-12
1.1562,1.801064883e-10,1.635682586e-11,2.378703143e-11,6.809228525e-12,4.699497981e-12,5.791539686e-12,1.553594885e-11,2.728936566e-11,1.582475860e-12,7.358973615e-12,2.446074907e-11,3.896752246e-12,2.857256773e-12,6.436689901e-12,5.813696733e-12,1.595233821e-11,1.123133559e-11,3.040409882e-12,4.904070362e-12,1.233785048e-11,6.381517549e-12,4.823711790e-12,1.774741368e-11,1.135374691e-11,1.455646314e-11,2.230437367e-12,1.251665320e-11,6.831725214e-11,5.336713552e-11,1.499352770e-09,3.948742849e-12,2.846151789e-12
1.1641,1.762378007e-10,1.595676292e-11,2.303137618e-11,6.622750821e-12,4.614016390e-12,5.585886869e-12,1.490708699e-11,2.613167780e-11,1.548493134e-12,7.027978312e-12,2.338867459e-11,3.693701513e-12,2.716340106e-12,6.276596298e-12,5.536248992e-12,1.532665770e-11,1.069884547e-11,2.824758159e-12,4.737999246e-12,1.166190089e-11,6.118443031e-12,4.746159606e-12,1.718470067e-11,1.090449901e-11,1.422797077e-11,2.227154686e-12,1.223855722e-11,6.726002718e-11,5.229940693e-11,1.466791030e-09,3.913725771e-12,2.731659354e-12
1.1719,1.721388950e-10,1.554093540e-11,2.230953058e-11,6.446400220e-12,4.525666514e-12,5.383496435e-12,1.434126704e-11,2.502026479e-11,1.510110537e-12,6.726109590e-12,2.241962157e-11,3.518032386e-12,2.577277879e-12,6.128073683e-12,5.306370474e-12,1.479022406e-11,1.023956924e-11,2.677591834e-12,4.624745193e-12,1.110221935e-11,5.915480884e-12,4.658063880e-12,1.663918280e-11,1.049697086e-11,1.391704070e-11,2.223008159e-12,1.196692287e-11,6.609205838e-11,5.110977366e-11,1.433296112e-09,3.877552966e-12,2.625503816e-12
1.1797,1.678715700e-10,1.511875074e-11,2.162041122e-11,6.281159710e-12,4.434480014e-12,5.184416122e-12,1.383125548e-11,2.395334749e-11,1.468551292e-12,6.454654840e-12,2.153856727e-11,3.368299927e-12,2.444701317e-12,5.991134857e-12,5.116292397e-12,1.432287459e-11,9.835276935e-12,2.583651474e-12,4.557316093e-12,1.064999818e-11,5.769378504e-12,4.559628802e-12,1.610823771e-11,1.014392395e-11,1.363857027e-11,2.218373342e-12,1.171401413e-11,6.486119021e-11,4.984407675e-11,1.399161797e-09,3.839670721e-12,2.524830453e-12
1.1875,1.639627399e-10,1.473367670e-11,2.094905746e-11,6.116657869e-12,4.349935991e-12,4.998386965e-12,1.329981409e-11,2.292980643e-11,1.432859289e-12,6.173925872e-12,2.063035991e-11,3.203087577e-12,2.320618438e-12,5.848317362e-12,4.904711412e-12,1.381704680e-11,9.410384503e-12,2.444462325e-12,4.444165860e-12,1.013935058e-11,5.576078966e-12,4.479731543e-12,1.558252381e-11,9.771796057e-12,1.332141047e-11,2.212282410e-12,1.144117708e-11,6.374095162e-11,4.869983434e-11,1.366681356e-09,3.802749601e-12,2.427739803e-12
1.1953,1.600861634e-10,1.436050897e-11,2.030150013e-11,5.959987544e-12,4.266167013e-12,4.821123536e-12,1.279267447e-11,2.194832734e-11,1.397210988e-12,5.904477115e-12,1.976253882e-11,3.046094761e-12,2.201086412e-12,5.711691717e-12,4.707895572e-12,1.333361126e-11,9.009372082e-12,2.321066220e-12,4.343639123e-12,9.664211578e-12,5.401054965e-12,4.400447805e-12,1.507392778e-11,9.425241685e-12,1.301490410e-11,2.205371182e-12,1.117447563e-11,6.262206818e-11,4.755200189e-11,1.334447608e-09,3.764516291e-12,2.334941148e-12
1.2031,1.561234617e-10,1.399307852e-11,1.968042861e-11,5.816378897e-12,4.180253195e-12,4.650770627e-12,1.232815005e-11,2.100728996e-11,1.359374556e-12,5.658357901e-12,1.895786628e-11,2.908047405e-12,2.086498027e-12,5.588233362e-12,4.537545180e-12,1.288703368e-11,8.638953603e-12,2.233531015e-12,4.281099181e-12,9.267974493e-12,5.277073715e-12,4.312116334e-12,1.458477860e-11,9.138322725e-12,1.275596940e-11,2.198418655e-12,1.093693595e-11,6.148455239e-11,4.636857168e-11,1.301972811e-09,3.723309924e-12,2.245176359e-12
1.2109,1.523565075e-10,1.364405717e-11,1.907759497e-11,5.673523471e-12,4.099147087e-12,4.488975891e-12,1.186177378e-11,2.010523959e-11,1.324776601e-12,5.411315576e-12,1.816169255e-11,2.765432695e-12,1.977913744e-12,5.462070775e-12,4.364072996e-12,1.244203754e-11,8.276572376e-12,2.131384154e-12,4.196899455e-12,8.855368580e-12,5.130150035e-12,4.235297002e-12,1.410398093e-11,8.838535263e-12,1.246714933e-11,2.190206919e-12,1.068060228e-11,6.039333671e-11,4.524371339e-11,1.270474569e-09,3.683062516e-12,2.160469979e-12
1.2188,1.486857020e-10,1.330747593e-11,1.849440562e-11,5.535088974e-12,4.020550265e-12,4.334850337e-12,1.140899059e-11,1.924066416e-11,1.291311564e-12,5.169351089e-12,1.739141956e-11,2.625782819e-12,1.873557631e-12,5.338646647e-12,4.197647578e-12,1.201197524e-11,7.932120008e-12,2.032177507e-12,4.110515997e-12,8.452759946e-12,4.982076531e-12,4.162659451e-12,1.363841876e-11,8.542707677e-12,1.217238280e-11,2.181212539e-12,1.042108905e-11,5.931803253e-11,4.413914371e-11,1.239512383e-09,3.643474024e-12,2.079965688e-12
1.2266,1.450089866e-10,1.298294120e-11,1.793443200e-11,5.409404783e-12,3.940603970e-12,4.188358094e-12,1.098841458e-11,1.841203598e-11,1.256594466e-12,4.944310007e-12,1.666250585e-11,2.499140348e-12,1.773588930e-12,5.227809749e-12,4.046641876e-12,1.159649461e-11,7.601344432e-12,1.951990595e-12,4.049499700e-12,8.100933930e-12,4.869916680e-12,4.082635216e-12,1.319326525e-11,8.295690283e-12,1.192250205e-11,2.172246471e-12,1.019284359e-11,5.825102068e-11,4.302889277e-11,1.208654878e-09,3.601728398e-12,2.000989036e-12
1.2344,1.414407512e-10,1.266859230e-11,1.739323201e-11,5.286391194e-12,3.863323580e-12,4.048328453e-12,1.057730762e-11,1.761805308e-11,1.223412605e-12,4.723460349e-12,1.595758469e-11,2.374357747e-12,1.678851717e-12,5.117754228e-12,3.901386242e-12,1.119631186e-11,7.287825736e-12,1.871807429e-12,3.981953639e-12,7.755528899e-12,4.751072421e-12,4.008198569e-12,1.276024209e-11,8.046751204e-12,1.165799756e-11,2.162022475e-12,9.955711875e-12,5.720020595e-11,4.194635489e-11,1.178406321e-09,3.560024998e-12,1.926356517e-12
1.2422,1.379490657e-10,1.236173808e-11,1.687004553e-11,5.165113934e-12,3.788504362e-12,3.914104008e-12,1.017721331e-11,1.685740712e-11,1.191355422e-12,4.506511412e-12,1.528053741e-11,2.252467860e-12,1.588561339e-12,5.008792556e-12,3.764031852e-12,1.081785767e-11,6.996637875e-12,1.795916909e-12,3.910628554e-12,7.417256071e-12,4.627189785e-12,3.939192901e-12,1.234300022e-11,7.791420014e-12,1.138037741e-11,2.150994846e-12,9.709849805e-12,5.615000870e-11,4.087772822e-11,1.148624518e-09,3.519103757e-12,1.856153078e-12
1.25,1.345026700e-10,1.207139537e-11,1.636737555e-11,5.053777834e-12,3.713570973e-12,3.787652630e-12,9.798352614e-12,1.612881510e-11,1.159175146e-12,4.300931512e-12,1.462991213e-11,2.138247491e-12,1.502541361e-12,4.910062272e-12,3.633519624e-12,1.044197979e-11,6.709592360e-12,1.727146304e-12,3.853717187e-12,7.106528940e-12,4.525878425e-12,3.867161201e-12,1.194736197e-11,7.570628393e-12,1.114131724e-11,2.140505292e-12,9.491789111e-12,5.512048460e-11,3.982275014e-11,1.119166677e-09,3.476662480e-12,1.787063307e-12
1.2578,1.311339177e-10,1.179074298e-11,1.588270627e-11,4.946384830e-12,3.640562555e-12,3.667456163e-12,9.433809301e-12,1.543120128e-11,1.128014445e-12,4.101987330e-12,1.400629206e-11,2.028600746e-12,1.421036978e-12,4.813818064e-12,3.510884785e-12,1.008217555e-11,6.439005905e-12,1.663289969e-12,3.798380315e-12,6.810837831e-12,4.428079274e-12,3.797882663e-12,1.156717157e-11,7.358020401e-12,1.090414208e-11,2.129293167e-12,9.275515632e-12,5.410383638e-11,3.878648430e-11,1.090188257e-09,3.433763533e-12,1.720938244e-12
1.2656,1.278119097e-10,1.151182964e-11,1.541529704e-11,4.840065256e-12,3.569715662e-12,3.551592579e-12,9.084193012e-12,1.476319017e-11,1.097759937e-12,3.908919908e-12,1.341628725e-11,1.924430795e-12,1.344040463e-12,4.717518542e-12,3.400031243e-12,9.752852726e-12,6.195468785e-12,1.608797388e-12,3.742609035e-12,6.529434826e-12,4.328120682e-12,3.732705247e-12,1.120213630e-11,7.138027902e-12,1.065198243e-11,2.116850244e-12,9.048307528e-12,5.307922641e-11,3.775480961e-11,1.061583154e-09,3.391552094e-12,1.658753567e-12
1.2734,1.245654571e-10,1.124826163e-11,1.496654526e-11,4.741321571e-12,3.499721737e-12,3.442132568e-12,8.749715040e-12,1.412299494e-11,1.068166861e-12,3.724134330e-12,1.284547030e-11,1.824861435e-12,1.271694021e-12,4.628378508e-12,3.291715693e-12,9.423702615e-12,5.952647483e-12,1.554075790e-12,3.691625087e-12,6.261452496e-12,4.237908660e-12,3.667496781e-12,1.085688526e-11,6.936405830e-12,1.042185763e-11,2.104454500e-12,8.838654607e-12,5.208083974e-11,3.675053891e-11,1.033460045e-09,3.348595179e-12,1.597667824e-12
1.2812,1.213966679e-10,1.099629139e-11,1.453395209e-11,4.647275959e-12,3.431270256e-12,3.337961530e-12,8.428848152e-12,1.350930661e-11,1.039339355e-12,3.545894828e-12,1.229813837e-11,1.729457652e-12,1.203456847e-12,4.542858176e-12,3.189028087e-12,9.104810338e-12,5.720703709e-12,1.502555861e-12,3.643217065e-12,6.007192059e-12,4.153411800e-12,3.603818485e-12,1.052883543e-11,6.746006730e-12,1.020089068e-11,2.091756350e-12,8.636985604e-12,5.110023038e-11,3.577190157e-11,1.005817723e-09,3.305079783e-12,1.538424311e-12
1.2891,1.182427559e-10,1.074378652e-11,1.411686233e-11,4.554206393e-12,3.364196908e-12,3.236592940e-12,8.125497449e-12,1.292144981e-11,1.010752881e-12,3.375079106e-12,1.178772459e-11,1.641357279e-12,1.139134887e-12,4.458035772e-12,3.100327006e-12,8.819293581e-12,5.517500073e-12,1.465194424e-12,3.599501136e-12,5.774935504e-12,4.073675034e-12,3.541737494e-12,1.021569821e-11,6.554366356e-12,9.973336868e-12,2.078109259e-12,8.429581382e-12,5.010517326e-11,3.479291228e-11,9.784498321e-10,3.261705481e-12,1.482352915e-12
1.2969,1.151577633e-10,1.050213410e-11,1.371628799e-11,4.465703406e-12,3.298328642e-12,3.140003506e-12,7.834157157e-12,1.235848667e-11,9.831081527e-13,3.211400124e-12,1.129475501e-11,1.556972494e-12,1.079474861e-12,4.377910938e-12,3.013059860e-12,8.537328176e-12,5.317358537e-12,1.426262493e-12,3.555484674e-12,5.550466726e-12,3.996741349e-12,3.481122936e-12,9.917961421e-12,6.370335175e-12,9.757151078e-12,2.064124684e-12,8.231624405e-12,4.912862010e-11,3.384118336e-11,9.516179360e-10,3.217863726e-12,1.427614078e-12
1.3047,1.121555810e-10,1.027219471e-11,1.333050933e-11,4.381259154e-12,3.233919384e-12,3.047931908e-12,7.553566119e-12,1.181899479e-11,9.565850842e-13,3.054100457e-12,1.081931254e-11,1.475878373e-12,1.024183035e-12,4.301043304e-12,2.928342162e-12,8.260175886e-12,5.122993805e-12,1.386779542e-12,3.511122844e-12,5.333840373e-12,3.922296349e-12,3.422796718e-12,9.634737937e-12,6.193796877e-12,9.548599960e-12,2.049777899e-12,8.041281191e-12,4.817064844e-11,3.291557043e-11,9.253242753e-10,3.173785835e-12,1.374228453e-12
1.3125,1.091612954e-10,1.004358465e-11,1.295930230e-11,4.298901940e-12,3.170291298e-12,2.957571054e-12,7.291157804e-12,1.130175742e-11,9.301851700e-13,2.905926058e-12,1.037932197e-11,1.403046253e-12,9.727010000e-13,4.225631881e-12,2.858841941e-12,8.014258636e-12,4.954755987e-12,1.363601536e-12,3.476192286e-12,5.144669653e-12,3.858723407e-12,3.364538258e-12,9.365512418e-12,6.023378010e-12,9.340736074e-12,2.034731174e-12,7.851205319e-12,4.719951652e-11,3.198434309e-11,8.992434730e-10,3.129752004e-12,1.323330271e-12
1.3203,1.062283307e-10,9.823673725e-12,1.260179552e-11,4.220063518e-12,3.108146440e-12,2.870396152e-12,7.039723556e-12,1.080607972e-11,9.046732813e-13,2.764876704e-12,9.958042893e-12,1.334040289e-12,9.253917776e-13,4.153009083e-12,2.793279592e-12,7.778311612e-12,4.793864591e-12,1.341697395e-12,3.441694621e-12,4.965980715e-12,3.797429777e-12,3.307587933e-12,9.108864055e-12,5.858274615e-12,9.138484239e-12,2.019179509e-12,7.666713242e-12,4.624151130e-11,3.107790059e-11,8.736602343e-10,3.085339589e-12,1.273930885e-12
1.3281,1.033841168e-10,9.614258329e-12,1.225611813e-11,4.144742459e-12,3.047919072e-12,2.788015992e-12,6.795687242e-12,1.033127536e-11,8.803656999e-13,2.628653595e-12,9.549750077e-12,1.266824872e-12,8.819129784e-13,4.082364614e-12,2.727646131e-12,7.545014843e-12,4.635426167e-12,1.315436313e-12,3.402801777e-12,4.788922782e-12,3.733562639e-12,3.253444805e-12,8.863638429e-12,5.695736191e-12,8.938890034e-12,2.003209024e-12,7.486656851e-12,4.530477349e-11,3.020548304e-11,8.487036775e-10,3.040766526e-12,1.225668386e-12
1.3359,1.005555094e-10,9.408466025e-12,1.192490071e-11,4.073038157e-12,2.988217227e-12,2.708953369e-12,6.568455378e-12,9.876338049e-12,8.560987328e-13,2.500926952e-12,9.171613929e-12,1.207117640e-12,8.418005783e-13,4.014088772e-12,2.674298334e-12,7.335058181e-12,4.495350424e-12,1.301987880e-12,3.373319354e-12,4.637559689e-12,3.682313492e-12,3.198678888e-12,8.630669941e-12,5.545073102e-12,8.746931674e-12,1.987076470e-12,7.312013983e-12,4.436985214e-11,2.933575866e-11,8.240539724e-10,2.996308122e-12,1.179270899e-12
1.3438,9.778456684e-11,9.210573829e-12,1.160760642e-11,4.004777583e-12,2.929634587e-12,2.632690862e-12,6.353139348e-12,9.440367136e-12,8.325568890e-13,2.380662259e-12,8.814037625e-12,1.151998523e-12,8.055346015e-13,3.948508945e-12,2.627202651e-12,7.138548698e-12,4.365239912e-12,1.292969713e-12,3.346838162e-12,4.501722924e-12,3.636702472e-12,3.144575357e-12,8.407454200e-12,5.404111630e-12,8.561723371e-12,1.970607350e-12,7.142646197e-12,4.345728783e-11,2.848848607e-11,7.998869431e-10,2.952025879e-12,1.134513410e-12
1.3516,9.510796901e-11,9.020692785e-12,1.130005429e-11,3.938450484e-12,2.872998468e-12,2.559500078e-12,6.144058254e-12,9.022743641e-12,8.103090298e-13,2.264983667e-12,8.468544799e-12,1.098244110e-12,7.728689340e-13,3.883863161e-12,2.580595515e-12,6.947356621e-12,4.239691472e-12,1.279826199e-12,3.314022676e-12,4.365775516e-12,3.585414279e-12,3.093505944e-12,8.191201103e-12,5.261428514e-12,8.371863741e-12,1.952915425e-12,6.971579946e-12,4.257041774e-11,2.767574005e-11,7.763561484e-10,2.907791365e-12,1.091023711e-12
1.3594,9.245893400e-11,8.835152784e-12,1.100477035e-11,3.875626002e-12,2.816955592e-12,2.489376560e-12,5.948958637e-12,8.622854119e-12,7.881517158e-13,2.157026283e-12,8.146340383e-12,1.050273041e-12,7.430881629e-13,3.821016140e-12,2.542977664e-12,6.771665369e-12,4.126082188e-12,1.274492155e-12,3.287434483e-12,4.249442750e-12,3.543440933e-12,3.041678066e-12,7.983477109e-12,5.128702733e-12,8.187643781e-12,1.934330475e-12,6.805612890e-12,4.169175037e-11,2.687520309e-11,7.532056174e-10,2.863149437e-12,1.048780763e-12
1.3672,8.985277305e-11,8.657319303e-12,1.072318531e-11,3.816683343e-12,2.761712926e-12,2.422694550e-12,5.765728105e-12,8.240146270e-12,7.662599252e-13,2.056254165e-12,7.843834640e-12,1.006946767e-12,7.163725482e-13,3.760002338e-12,2.512291746e-12,6.607970833e-12,4.021953461e-12,1.274176866e-12,3.265188849e-12,4.149980488e-12,3.508920820e-12,2.989526894e-12,7.782681636e-12,5.007677426e-12,8.010944504e-12,1.915729910e-12,6.646992291e-12,4.083110827e-11,2.609588389e-11,7.305040645e-10,2.819045477e-12,1.007903385e-12
1.375,8.732587864e-11,8.485922873e-12,1.045139035e-11,3.759459558e-12,2.708075503e-12,2.359352392e-12,5.588385769e-12,7.874115347e-12,7.453843259e-13,1.959379741e-12,7.553843044e-12,9.653278207e-13,6.928003704e-13,3.699279555e-12,2.483284171e-12,6.452368710e-12,3.925183759e-12,1.272039880e-12,3.236839634e-12,4.050123087e-12,3.467846791e-12,2.940228527e-12,7.585511618e-12,4.881506633e-12,7.825994247e-12,1.896676282e-12,6.484737108e-12,3.998592302e-11,2.534128441e-11,7.083849689e-10,2.776366634e-12,9.687702087e-13
1.3828,8.483823461e-11,8.319724330e-12,1.018961496e-11,3.705955348e-12,2.654999022e-12,2.299174524e-12,5.421351120e-12,7.524059712e-12,7.250031440e-13,1.868597618e-12,7.279989308e-12,9.278631265e-13,6.719925505e-13,3.640801827e-12,2.458829498e-12,6.304663567e-12,3.833789194e-12,1.273643033e-12,3.211285698e-12,3.962092827e-12,3.431559308e-12,2.891205000e-12,7.394287211e-12,4.759728314e-12,7.645095629e-12,1.876937696e-12,6.326597212e-12,3.914826551e-11,2.459744936e-11,6.867152804e-10,2.733488763e-12,9.311393230e-13
1.3906,8.239148919e-11,8.161222361e-12,9.938450205e-12,3.656307597e-12,2.602506606e-12,2.241629272e-12,5.264665019e-12,7.189185681e-12,7.050826897e-13,1.784119551e-12,7.021636580e-12,8.943203765e-13,6.537814561e-13,3.584215047e-12,2.438941989e-12,6.162431544e-12,3.745828151e-12,1.278475123e-12,3.190805366e-12,3.890062169e-12,3.404398806e-12,2.842250241e-12,7.209673394e-12,4.651652600e-12,7.475669120e-12,1.857013274e-12,6.177457668e-12,3.832807865e-11,2.387330395e-11,6.655089466e-10,2.690047820e-12,8.947175450e-13
1.3984,8.001299010e-11,8.006839148e-12,9.696332927e-12,3.607075574e-12,2.551464714e-12,2.185854142e-12,5.114607282e-12,6.868814461e-12,6.859673849e-13,1.703049370e-12,6.777122278e-12,8.628502929e-13,6.380221278e-13,3.527196690e-12,2.422754268e-12,6.031206524e-12,3.667190004e-12,1.284120336e-12,3.167006741e-12,3.821934786e-12,3.374480308e-12,2.796000203e-12,7.028319127e-12,4.542795632e-12,7.298919964e-12,1.836776697e-12,6.023628824e-12,3.752008190e-11,2.317084809e-11,6.448198142e-10,2.647869573e-12,8.600313581e-13
1.4062,7.769490555e-11,7.857189610e-12,9.464812323e-12,3.560954754e-12,2.501499629e-12,2.133135603e-12,4.972766128e-12,6.562549122e-12,6.674368359e-13,1.626601471e-12,6.545604505e-12,8.342130603e-13,6.246341360e-13,3.472854146e-12,2.409930833e-12,5.907890844e-12,3.594505640e-12,1.291914882e-12,3.143401968e-12,3.761210309e-12,3.346006640e-12,2.750302961e-12,6.850638057e-12,4.436737167e-12,7.121867299e-12,1.816210896e-12,5.871491787e-12,3.672626153e-11,2.248669276e-11,6.246177289e-10,2.606620342e-12,8.268457181e-13
1.4141,7.543674507e-11,7.716341868e-12,9.243659853e-12,3.519913710e-12,2.452423940e-12,2.084268988e-12,4.839387768e-12,6.270164606e-12,6.495297568e-13,1.555613113e-12,6.324960966e-12,8.082885942e-13,6.134698312e-13,3.421983511e-12,2.398919611e-12,5.785098731e-12,3.522201346e-12,1.300576593e-12,3.122756572e-12,3.710982301e-12,3.323838105e-12,2.704154254e-12,6.677629233e-12,4.342571318e-12,6.955564478e-12,1.795750948e-12,5.730049900e-12,3.595818155e-11,2.182755478e-11,6.049251252e-10,2.565560425e-12,7.946381479e-13
1.4219,7.323608578e-11,7.580332120e-12,9.030470190e-12,3.480014917e-12,2.404514222e-12,2.037274561e-12,4.713041379e-12,5.991010625e-12,6.323397514e-13,1.488242264e-12,6.117374656e-12,7.847351948e-13,6.040226716e-13,3.370532000e-12,2.391523428e-12,5.670986717e-12,3.457490664e-12,1.311603584e-12,3.101133921e-12,3.665708571e-12,3.301400875e-12,2.659861451e-12,6.507674716e-12,4.249480349e-12,6.785296290e-12,1.775490158e-12,5.586911258e-12,3.520015204e-11,2.118311737e-11,5.856949260e-10,2.526057861e-12,7.641371064e-13
1.4297,7.109463709e-11,7.450182441e-12,8.825712046e-12,3.442379696e-12,2.357900645e-12,1.992432802e-12,4.593104153e-12,5.724248722e-12,6.157983621e-13,1.424503521e-12,5.921225987e-12,7.634451912e-13,5.961381929e-13,3.319599821e-12,2.386490471e-12,5.563428638e-12,3.397363483e-12,1.324210460e-12,3.079561109e-12,3.625628746e-12,3.279692855e-12,2.616920516e-12,6.341395826e-12,4.158048563e-12,6.614356909e-12,1.755587795e-12,5.444616722e-12,3.445177092e-11,2.055285496e-11,5.669285079e-10,2.488383185e-12,7.353153050e-13
1.4375,6.984313519e-11,7.380281250e-12,8.782512618e-12,3.388169869e-12,2.313353558e-12,2.016067466e-12,4.460658943e-12,5.470928466e-12,6.076365096e-13,1.361365964e-12,5.761775066e-12,7.628790039e-13,5.887294607e-13,3.040166041e-12,2.473868772e-12,5.593507624e-12,3.476041000e-12,1.375412545e-12,2.961192688e-12,3.397187804e-12,3.057367267e-12,2.645627207e-12,6.140678398e-12,3.765115570e-12,6.089607131e-12,1.725582224e-12,5.030528248e-12,3.392704675e-11,2.020448742e-11,5.538335298e-10,2.476533571e-12,7.377275073e-13
1.4453,6.816493549e-11,7.285728653e-12,8.663655529e-12,3.350190649e-12,2.270661670e-12,2.007143902e-12,4.359780082e-12,5.242467352e-12,5.945604897e-13,1.306846670e-12,5.631124955e-12,7.590018017e-13,5.878041449e-13,2.936932575e-12,2.531130897e-12,5.586010795e-12,3.510484364e-12,1.423143088e-12,2.925145208e-12,3.330323876e-12,2.988828805e-12,2.625916740e-12,5.997932771e-12,3.591490455e-12,5.835434113e-12,1.703349947e-12,4.823338942e-12,3.330745528e-11,1.970972327e-11,5.382600267e-10,2.447420094e-12,7.201485920e-13
1.4531,6.603586316e-11,7.164671163e-12,8.457665967e-12,3.329046538e-12,2.226242270e-12,1.960185117e-12,4.262486638e-12,5.025263157e-12,5.778289435e-13,1.254010664e-12,5.453953629e-12,7.408083619e-13,5.911689775e-13,2.975881611e-12,2.509627471e-12,5.454927241e-12,3.422747160e-12,1.418928186e-12,2.921440512e-12,3.328000751e-12,3.011361718e-12,2.568501299e-12,5.876700380e-12,3.574108563e-12,5.787168643e-12,1.686660924e-12,4.782830971e-12,3.253974303e-11,1.904982011e-11,5.200153598e-10,2.403826796e-12,6.827642961e-13
1.4609,6.412301912e-11,7.057477837e-12,8.282446684e-12,3.304550457e-12,2.184410977e-12,1.926103464e-12,4.168934242e-12,4.814857762e-12,5.630597979e-13,1.204304014e-12,5.305788419e-12,7.284105325e-13,5.945053255e-13,2.960428233e-12,2.515316591e-12,5.368395964e-12,3.378030324e-12,1.431903077e-12,2.907987721e-12,3.322837346e-12,3.009929787e-12,2.524593806e-12,5.742670808e-12,3.516327161e-12,5.669409175e-12,1.667783350e-12,4.686899711e-12,3.185186726e-11,1.847965425e-11,5.032240977e-10,2.366434326e-12,6.544889051e-13
1.4688,6.236832477e-11,6.956085414e-12,8.129279568e-12,3.275287369e-12,2.144924228e-12,1.901490763e-12,4.082652070e-12,4.615273737e-12,5.493274437e-13,1.158135542e-12,5.197239435e-12,7.229258927e-13,5.994487640e-13,2.910472564e-12,2.553475720e-12,5.337365206e-12,3.383361636e-12,1.467752857e-12,2.896248271e-12,3.337737426e-12,3.001955228e-12,2.487283475e-12,5.605040899e-12,3.434333666e-12,5.505389371e-12,1.647564082e-12,4.552132773e-12,3.122652614e-11,1.797122588e-11,4.875667361e-10,2.333480791e-12,6.320298907e-13
1.4766,6.051730655e-11,6.856519869e-12,7.964901694e-12,3.256533689e-12,2.104285447e-12,1.869018504e-12,4.001539987e-12,4.425294944e-12,5.355516041e-13,1.114628608e-12,5.064251780e-12,7.131020370e-13,6.071597062e-13,2.905512849e-12,2.556609185e-12,5.249486796e-12,3.334293409e-12,1.476577191e-12,2.879915847e-12,3.342708347e-12,3.003140748e-12,2.443518732e-12,5.470571463e-12,3.387427165e-12,5.395877548e-12,1.628453824e-12,4.466906375e-12,3.054786467e-11,1.741465169e-11,4.713813912e-10,2.297474518e-12,6.057137146e-13
1.4844,5.873552054e-11,6.761535040e-12,7.805260327e-12,3.238484400e-12,2.064923250e-12,1.838623445e-12,3.923314665e-12,4.242221507e-12,5.224140172e-13,1.073428393e-12,4.939165422e-12,7.040254659e-13,6.147881145e-13,2.891737097e-12,2.560028851e-12,5.163211959e-12,3.287622635e-12,1.484589901e-12,2.860755578e-12,3.348018602e-12,3.001047810e-12,2.401621070e-12,5.333261600e-12,3.339265232e-12,5.277418448e-12,1.608867408e-12,4.375621068e-12,2.989676670e-11,1.689093807e-11,4.557355579e-10,2.263232990e-12,5.814990337e-13
1.4922,5.705961681e-11,6.667069777e-12,7.653768364e-12,3.215618117e-12,2.027962319e-12,1.812962100e-12,3.850907623e-12,4.067255848e-12,5.096468266e-13,1.035294612e-12,4.850267498e-12,7.002007315e-13,6.225250214e-13,2.852778773e-12,2.589543395e-12,5.122909116e-12,3.282319590e-12,1.513824412e-12,2.851204507e-12,3.386216170e-12,3.006174356e-12,2.361184290e-12,5.194456814e-12,3.284802073e-12,5.133601029e-12,1.588490795e-12,4.259963721e-12,2.929941844e-11,1.641732275e-11,4.409289552e-10,2.232009369e-12,5.608006038e-13
1.5,5.537373997e-11,6.581045469e-12,7.507630443e-12,3.201716295e-12,1.990672648e-12,1.786514426e-12,3.783480443e-12,3.900221389e-12,4.976332160e-13,9.999778939e-13,4.746983946e-12,6.949494621e-13,6.317615121e-13,2.831290516e-12,2.599145100e-12,5.049529473e-12,3.245497336e-12,1.527324644e-12,2.834235078e-12,3.408784556e-12,3.007940095e-12,2.321447216e-12,5.056256508e-12,3.240293811e-12,5.011215340e-12,1.568469839e-12,4.166285215e-12,2.867608711e-11,1.592637807e-11,4.261446858e-10,2.200606163e-12,5.401025251e-13
1.5078,5.372989854e-11,6.500271679e-12,7.365653849e-12,3.190929277e-12,1.954078492e-12,1.760332975e-12,3.718439023e-12,3.739501545e-12,4.862986334e-13,9.664382228e-13,4.639789957e-12,6.887235776e-13,6.403933907e-13,2.810721303e-12,2.599226582e-12,4.961450732e-12,3.195699004e-12,1.532275841e-12,2.811248918e-12,3.418541004e-12,3.003921117e-12,2.283807084e-12,4.918695083e-12,3.196467716e-12,4.890624992e-12,1.548709101e-12,4.076818462e-12,2.805829244e-11,1.544989264e-11,4.117060623e-10,2.170786929e-12,5.204490586e-13
1.5156,5.215406363e-11,6.414845770e-12,7.221659714e-12,3.174044904e-12,1.919536157e-12,1.734345521e-12,3.657245838e-12,3.585359312e-12,4.747979331e-13,9.352394477e-13,4.561217530e-12,6.855323250e-13,6.476628830e-13,2.775764157e-12,2.616853810e-12,4.906840770e-12,3.175704557e-12,1.552751038e-12,2.799932551e-12,3.459974587e-12,3.012017454e-12,2.243865473e-12,4.782890306e-12,3.156505893e-12,4.758897625e-12,1.528966357e-12,3.975000050e-12,2.748471536e-11,1.501423013e-11,3.978617938e-10,2.143058872e-12,5.022310834e-13
1.5234,5.060404551e-11,6.336681480e-12,7.084772382e-12,3.162558893e-12,1.885220707e-12,1.709909455e-12,3.600169807e-12,3.437877243e-12,4.639799461e-13,9.067683425e-13,4.477127050e-12,6.824132671e-13,6.549141455e-13,2.745887194e-12,2.623788225e-12,4.835429245e-12,3.139723187e-12,1.565128995e-12,2.782940316e-12,3.489414888e-12,3.013973496e-12,2.204651433e-12,4.647051509e-12,3.117797189e-12,4.633966546e-12,1.509236937e-12,3.883708037e-12,2.690910066e-11,1.458348219e-11,3.842768585e-10,2.115758782e-12,4.850801650e-13
1.5312,4.909231571e-11,6.265173637e-12,6.955649389e-12,3.156103786e-12,1.851250307e-12,1.687668799e-12,3.545903386e-12,3.296126288e-12,4.541038018e-13,8.797430415e-13,4.384372590e-12,6.784673513e-13,6.614057980e-13,2.717270603e-12,2.619045999e-12,4.745757800e-12,3.087126675e-12,1.567198452e-12,2.755918368e-12,3.495406667e-12,3.004026820e-12,2.168612240e-12,4.512283552e-12,3.073942908e-12,4.509762982e-12,1.489629148e-12,3.797042384e-12,2.633414244e-11,1.416069420e-11,3.710206345e-10,2.090002670e-12,4.692549000e-13
1.5391,4.761671568e-11,6.187294100e-12,6.821308419e-12,3.145513080e-12,1.818782453e-12,1.663883834e-12,3.494359053e-12,3.159586720e-12,4.441067523e-13,8.540944230e-13,4.310874411e-12,6.758002836e-13,6.665778454e-13,2.683026874e-12,2.624811798e-12,4.678615380e-12,3.053477024e-12,1.579227385e-12,2.739622752e-12,3.527106148e-12,3.008138321e-12,2.129995890e-12,4.382650693e-12,3.039945794e-12,4.387345019e-12,1.470559946e-12,3.706632242e-12,2.579194773e-11,1.376265495e-11,3.581754817e-10,2.065852313e-12,4.537023344e-13
1.5469,4.618200954e-11,6.115769731e-12,6.693117461e-12,3.138307736e-12,1.786931914e-12,1.641522801e-12,3.445113657e-12,3.027965189e-12,4.346242337e-13,8.306675140e-13,4.238360757e-12,6.733744407e-13,6.713014457e-13,2.649141894e-12,2.626848615e-12,4.606797958e-12,3.014998593e-12,1.588471261e-12,2.722970709e-12,3.556406893e-12,3.012206481e-12,2.092305496e-12,4.255870219e-12,3.009855149e-12,4.271348575e-12,1.451687328e-12,3.623319249e-12,2.526252580e-11,1.337943915e-11,3.456901445e-10,2.042180316e-12,4.392407607e-13
1.5547,4.480405954e-11,6.055082945e-12,6.577609110e-12,3.136132356e-12,1.755493318e-12,1.622910618e-12,3.397964750e-12,2.901296719e-12,4.261414761e-13,8.086249588e-13,4.158147062e-12,6.705576243e-13,6.751539424e-13,2.613674391e-12,2.620030124e-12,4.520596182e-12,2.963813133e-12,1.589217690e-12,2.696251982e-12,3.559504452e-12,3.001556679e-12,2.059130006e-12,4.130301019e-12,2.969864328e-12,4.151095402e-12,1.432533216e-12,3.542109932e-12,2.473406594e-11,1.300747048e-11,3.336030251e-10,2.019832893e-12,4.265964761e-13
1.5625,4.344857019e-11,5.989008359e-12,6.456847999e-12,3.130502417e-12,1.725206994e-12,1.602254071e-12,3.353015112e-12,2.779692918e-12,4.176602138e-13,7.875332184e-13,4.088342325e-12,6.682541966e-13,6.777582444e-13,2.578824902e-12,2.617818763e-12,4.446657584e-12,2.922182524e-12,1.595287236e-12,2.677121989e-12,3.578121992e-12,2.999755528e-12,2.023252746e-12,4.009318080e-12,2.937303750e-12,4.034076335e-12,1.413554242e-12,3.460711209e-12,2.422178310e-11,1.264886320e-11,3.217973406e-10,1.998816332e-12,4.134443502e-13
1.5703,4.212485661e-11,5.924366836e-12,6.336834928e-12,3.126126107e-12,1.695746792e-12,1.581829148e-12,3.310616449e-12,2.662674959e-12,4.095088612e-13,7.684700479e-13,4.022675569e-12,6.668181432e-13,6.798251594e-13,2.545160531e-12,2.614832361e-12,4.372816589e-12,2.880303007e-12,1.601464792e-12,2.660907411e-12,3.600719904e-12,3.001358974e-12,1.986204371e-12,3.891939542e-12,2.910650764e-12,3.923844089e-12,1.394646043e-12,3.385212943e-12,2.372340365e-11,1.230469298e-11,3.103013164e-10,1.978479026e-12,4.004067043e-13
1.5781,4.086543899e-11,5.870559748e-12,6.231629319e-12,3.127001875e-12,1.666732521e-12,1.566250983e-12,3.271380394e-12,2.550066531e-12,4.022884766e-13,7.510576113e-13,3.954289427e-12,6.661726195e-13,6.810746605e-13,2.507284412e-12,2.607665185e-12,4.291145315e-12,2.832371629e-12,1.602496512e-12,2.635888412e-12,3.599543836e-12,2.989137951e-12,1.953287167e-12,3.776734980e-12,2.872810020e-12,3.807563694e-12,1.375263950e-12,3.309458745e-12,2.323142828e-11,1.197438846e-11,2.992591544e-10,1.959243355e-12,3.894288548e-13
1.5859,3.963015297e-11,5.814827061e-12,6.126654301e-12,3.126669913e-12,1.638326246e-12,1.549836835e-12,3.233677392e-12,2.441970275e-12,3.951646157e-13,7.340451506e-13,3.890042274e-12,6.651553088e-13,6.809353488e-13,2.472483509e-12,2.601086870e-12,4.214864727e-12,2.788291420e-12,1.604460594e-12,2.613747368e-12,3.602293724e-12,2.980006754e-12,1.918818637e-12,3.666693279e-12,2.839077002e-12,3.695579024e-12,1.355823898e-12,3.235324183e-12,2.275071589e-11,1.165132852e-11,2.885038536e-10,1.940379338e-12,3.782195268e-13
1.5938,3.842012858e-11,5.757846112e-12,6.019985929e-12,3.126361944e-12,1.610570271e-12,1.533139695e-12,3.197250067e-12,2.338027615e-12,3.880819050e-13,7.179750935e-13,3.828365058e-12,6.640428159e-13,6.797280141e-13,2.440451271e-12,2.592101262e-12,4.137391680e-12,2.742972428e-12,1.605267678e-12,2.594460577e-12,3.609545222e-12,2.975299867e-12,1.882425590e-12,3.561034468e-12,2.812571952e-12,3.592907452e-12,1.336500554e-12,3.168000889e-12,2.228587837e-11,1.134039243e-11,2.780219342e-10,1.921431247e-12,3.664460259e-13
1.6016,3.727743449e-11,5.709677422e-12,5.926065948e-12,3.130307971e-12,1.583531476e-12,1.521930611e-12,3.164297807e-12,2.238240877e-12,3.817696836e-13,7.033593275e-13,3.768256363e-12,6.645130682e-13,6.777112156e-13,2.401497533e-12,2.581774594e-12,4.056341476e-12,2.695650666e-12,1.604276535e-12,2.569101833e-12,3.600492703e-12,2.960885624e-12,1.849537462e-12,3.457991878e-12,2.776011369e-12,3.484640114e-12,1.317101502e-12,3.100023763e-12,2.183405536e-11,1.104729303e-11,2.679853305e-10,1.903635938e-12,3.565005666e-13
1.6094,3.616696640e-11,5.663405943e-12,5.835302999e-12,3.134972971e-12,1.557225132e-12,1.511179306e-12,3.132292380e-12,2.142742338e-12,3.760302719e-13,6.890453624e-13,3.709088418e-12,6.649090999e-13,6.750291871e-13,2.365606765e-12,2.571146478e-12,3.977231438e-12,2.649134455e-12,1.603570476e-12,2.544952294e-12,3.590930648e-12,2.947254239e-12,1.816694678e-12,3.360602849e-12,2.741322471e-12,3.380338383e-12,1.298335037e-12,3.035206715e-12,2.138960650e-11,1.076050393e-11,2.582278363e-10,1.886876669e-12,3.468049741e-13
1.6172,3.507464924e-11,5.615988754e-12,5.741011452e-12,3.139008678e-12,1.531506380e-12,1.498617300e-12,3.099778869e-12,2.051064893e-12,3.705366132e-13,6.748229659e-13,3.649594818e-12,6.642416965e-13,6.716252555e-13,2.335828275e-12,2.557079862e-12,3.894866794e-12,2.599129808e-12,1.599850633e-12,2.523500163e-12,3.584395879e-12,2.938159326e-12,1.782267199e-12,3.269069846e-12,2.715455027e-12,3.287676258e-12,1.280481724e-12,2.979054171e-12,2.095576230e-11,1.048133805e-11,2.486968104e-10,1.870496474e-12,3.362883322e-13
1.625,3.403930902e-11,5.574070137e-12,5.656678335e-12,3.144951432e-12,1.506384314e-12,1.490269138e-12,3.071010685e-12,1.963323422e-12,3.653990214e-13,6.618466417e-13,3.596460177e-12,6.650902592e-13,6.671162337e-13,2.298957579e-12,2.543693082e-12,3.812289111e-12,2.550098537e-12,1.594820268e-12,2.498323609e-12,3.567617583e-12,2.923004321e-12,1.750134755e-12,3.180583516e-12,2.682116437e-12,3.191652496e-12,1.262876763e-12,2.922614366e-12,2.053917694e-11,1.022155791e-11,2.395918584e-10,1.855082227e-12,3.271530331e-13
1.6328,3.304144504e-11,5.535453745e-12,5.579906502e-12,3.152759407e-12,1.481925453e-12,1.484492760e-12,3.044260113e-12,1.880046441e-12,3.606695071e-13,6.497780239e-13,3.546550717e-12,6.667403782e-13,6.619419961e-13,2.263258709e-12,2.530499241e-12,3.731485954e-12,2.502226400e-12,1.589477026e-12,2.472493818e-12,3.547725088e-12,2.905965475e-12,1.718395811e-12,3.095959862e-12,2.646910576e-12,3.097452146e-12,1.245503996e-12,2.868748667e-12,2.013321466e-11,9.971437207e-12,2.307935610e-10,1.840553859e-12,3.186182119e-13
1.6406,3.206683597e-11,5.497617615e-12,5.502563732e-12,3.161783646e-12,1.458199941e-12,1.478149735e-12,3.016392194e-12,1.800900150e-12,3.564053607e-13,6.378164002e-13,3.494186905e-12,6.674387681e-13,6.568177035e-13,2.236925241e-12,2.513737914e-12,3.646963548e-12,2.450249794e-12,1.580534341e-12,2.447500784e-12,3.527310776e-12,2.890823147e-12,1.685684395e-12,3.016152838e-12,2.618553413e-12,3.013437758e-12,1.228623063e-12,2.823170810e-12,1.973374640e-11,9.725183908e-12,2.221948036e-10,1.826812179e-12,3.092686589e-13
1.6484,3.114759072e-11,5.463531932e-12,5.432369361e-12,3.172141546e-12,1.435332886e-12,1.474972472e-12,2.992033212e-12,1.725642759e-12,3.525807953e-13,6.270195917e-13,3.450105013e-12,6.696880319e-13,6.514950737e-13,2.206818133e-12,2.500027306e-12,3.566097960e-12,2.402239801e-12,1.572296870e-12,2.421692926e-12,3.502874010e-12,2.873777258e-12,1.654743506e-12,2.940093417e-12,2.586667252e-12,2.928468118e-12,1.212132838e-12,2.777587613e-12,1.935079657e-11,9.494952812e-12,2.139711952e-10,1.814634982e-12,3.007217409e-13
1.6562,3.026873053e-11,5.432090544e-12,5.368614320e-12,3.183976321e-12,1.413218180e-12,1.474357832e-12,2.970257728e-12,1.654487415e-12,3.491275914e-13,6.175744078e-13,3.412896858e-12,6.735448805e-13,6.457631500e-13,2.174961626e-12,2.487936204e-12,3.488542777e-12,2.357101491e-12,1.564873400e-12,2.396286526e-12,3.477720581e-12,2.855930582e-12,1.624264652e-12,2.867388507e-12,2.552521088e-12,2.844923864e-12,1.196235235e-12,2.734281265e-12,1.898201315e-11,9.276870104e-12,2.060692277e-10,1.803807004e-12,2.928039616e-13
1.6641,2.940687152e-11,5.401212207e-12,5.303320630e-12,3.196814832e-12,1.391670273e-12,1.472690531e-12,2.946020737e-12,1.587086853e-12,3.461121771e-13,6.079732931e-13,3.371237639e-12,6.763778443e-13,6.398374948e-13,2.151183235e-12,2.470177269e-12,3.404602722e-12,2.305169703e-12,1.552078861e-12,2.368832743e-12,3.447230007e-12,2.835691634e-12,1.592805007e-12,2.797353606e-12,2.521358016e-12,2.768446855e-12,1.181019833e-12,2.698499625e-12,1.861623668e-11,9.060518355e-12,1.983553164e-10,1.793806186e-12,2.841831255e-13
1.6719,2.858166312e-11,5.371272526e-12,5.241424309e-12,3.209180310e-12,1.370789830e-12,1.472066605e-12,2.924065811e-12,1.523370751e-12,3.434106597e-13,5.990336863e-13,3.335758375e-12,6.800834522e-13,6.338323450e-13,2.127365724e-12,2.454620399e-12,3.324731799e-12,2.256392803e-12,1.539611216e-12,2.340195719e-12,3.414148913e-12,2.813260898e-12,1.562025119e-12,2.729854337e-12,2.488207385e-12,2.691380716e-12,1.166191287e-12,2.662551019e-12,1.826122100e-11,8.854457518e-12,1.909489380e-10,1.784694380e-12,2.758396902e-13
1.6797,2.779232183e-11,5.343467997e-12,5.187068720e-12,3.222438853e-12,1.350624376e-12,1.474510483e-12,2.906978800e-12,1.463962522e-12,3.409980574e-13,5.923353050e-13,3.311905815e-12,6.862492495e-13,6.282474774e-13,2.101910035e-12,2.443903886e-12,3.252691488e-12,2.214735919e-12,1.530870293e-12,2.314476835e-12,3.386543665e-12,2.793160580e-12,1.531955521e-12,2.665997266e-12,2.455167334e-12,2.616751158e-12,1.151548185e-12,2.627883659e-12,1.792241092e-11,8.661590630e-12,1.838585146e-10,1.775909176e-12,2.680963906e-13
1.6875,2.702684495e-11,5.319355570e-12,5.136349044e-12,3.238747569e-12,1.330969052e-12,1.478386521e-12,2.889444451e-12,1.408660128e-12,3.391552604e-13,5.864240199e-13,3.286398445e-12,6.920998459e-13,6.233495659e-13,2.082052150e-12,2.428667626e-12,3.174795730e-12,2.167821080e-12,1.517991077e-12,2.287431499e-12,3.354540831e-12,2.771225812e-12,1.502806645e-12,2.605297244e-12,2.423643215e-12,2.548072366e-12,1.136807205e-12,2.598992042e-12,1.758749869e-11,8.471169747e-12,1.769645476e-10,1.767205887e-12,2.602504009e-13
1.6953,2.629663039e-11,5.295348004e-12,5.086983621e-12,3.254835929e-12,1.311841646e-12,1.482470474e-12,2.872195878e-12,1.356685452e-12,3.377016828e-13,5.805816542e-13,3.262546059e-12,6.975266200e-13,6.185648792e-13,2.063414529e-12,2.412447742e-12,3.097197126e-12,2.120601896e-12,1.503458603e-12,2.258625061e-12,3.318743379e-12,2.746897480e-12,1.474860182e-12,2.547034719e-12,2.390295947e-12,2.479208398e-12,1.122025552e-12,2.569605150e-12,1.725719677e-11,8.285752957e-12,1.703133208e-10,1.759297020e-12,2.525713034e-13
1.7031,2.560174158e-11,5.268473819e-12,5.038608452e-12,3.269043049e-12,1.293536166e-12,1.487032147e-12,2.857772588e-12,1.308058287e-12,3.363778364e-13,5.765596497e-13,3.249602604e-12,7.049611060e-13,6.139652805e-13,2.043707479e-12,2.400690370e-12,3.028349799e-12,2.080889366e-12,1.492565866e-12,2.233207355e-12,3.290084956e-12,2.725767367e-12,1.446509392e-12,2.491299936e-12,2.358291614e-12,2.413385954e-12,1.107740880e-12,2.541818864e-12,1.694010137e-11,8.112780995e-12,1.639421140e-10,1.752436871e-12,2.450024431e-13
1.7109,2.492870924e-11,5.245017685e-12,4.993399408e-12,3.285603198e-12,1.276149827e-12,1.492999317e-12,2.843443020e-12,1.263045376e-12,3.355793594e-13,5.741816702e-13,3.239395380e-12,7.135027907e-13,6.101472441e-13,2.027914231e-12,2.386747650e-12,2.956974599e-12,2.038992059e-12,1.478932184e-12,2.206486081e-12,3.257058308e-12,2.701922769e-12,1.418555302e-12,2.436978945e-12,2.325638528e-12,2.352002624e-12,1.093888817e-12,2.520390879e-12,1.662766533e-11,7.945783551e-12,1.577879174e-10,1.746671073e-12,2.375374250e-13
1.7188,2.426784353e-11,5.225312914e-12,4.950953254e-12,3.303898916e-12,1.259438650e-12,1.499698237e-12,2.829573736e-12,1.221325981e-12,3.353161648e-13,5.723135903e-13,3.229582842e-12,7.217736656e-13,6.067893268e-13,2.014464219e-12,2.370463111e-12,2.883568646e-12,1.994760706e-12,1.462379316e-12,2.177216515e-12,3.218027081e-12,2.674435727e-12,1.392183882e-12,2.384394973e-12,2.290043544e-12,2.290130801e-12,1.080237868e-12,2.499784532e-12,1.631668091e-11,7.781928166e-12,1.518475903e-10,1.742061455e-12,2.305180790e-13
1.7266,2.361817349e-11,5.200927970e-12,4.905865569e-12,3.319370300e-12,1.243026946e-12,1.505391733e-12,2.817853583e-12,1.182381258e-12,3.350710493e-13,5.716804422e-13,3.227280507e-12,7.308004343e-13,6.036733516e-13,2.000689805e-12,2.357033704e-12,2.817244648e-12,1.956557995e-12,1.448844925e-12,2.152400072e-12,3.188234040e-12,2.652530716e-12,1.365932140e-12,2.335308725e-12,2.258773274e-12,2.232255775e-12,1.066988792e-12,2.479669428e-12,1.601597578e-11,7.627237944e-12,1.461341572e-10,1.737778193e-12,2.234572824e-13
1.7344,2.299539151e-11,5.174083702e-12,4.860895550e-12,3.333115905e-12,1.226733829e-12,1.511181554e-12,2.806153097e-12,1.145938667e-12,3.350203348e-13,5.723614754e-13,3.229274626e-12,7.407764747e-13,6.013058465e-13,1.988173256e-12,2.343612542e-12,2.752743594e-12,1.920155949e-12,1.435075110e-12,2.128280591e-12,3.158717385e-12,2.630876322e-12,1.340608630e-12,2.288514863e-12,2.228521529e-12,2.178359942e-12,1.053807653e-12,2.462426232e-12,1.572153196e-11,7.479232263e-12,1.406311401e-10,1.733035102e-12,2.165823485e-13
1.7422,2.239890222e-11,5.149988659e-12,4.819696098e-12,3.346766454e-12,1.210724547e-12,1.517879761e-12,2.794335211e-12,1.111937765e-12,3.354494199e-13,5.736020051e-13,3.231761741e-12,7.509399893e-13,5.996160253e-13,1.977949791e-12,2.328551589e-12,2.688163778e-12,1.882995356e-12,1.418946113e-12,2.100928149e-12,3.122983274e-12,2.604247583e-12,1.316829815e-12,2.242558739e-12,2.193630729e-12,2.123226617e-12,1.040443601e-12,2.445188522e-12,1.542885066e-11,7.333313367e-12,1.353306529e-10,1.728300168e-12,2.103497346e-13
1.75,2.180624611e-11,5.124368684e-12,4.776200999e-12,3.359257496e-12,1.195167697e-12,1.523668227e-12,2.784195099e-12,1.080209532e-12,3.360490484e-13,5.759627460e-13,3.239141931e-12,7.616736257e-13,5.982859179e-13,1.970284433e-12,2.314348139e-12,2.628097034e-12,1.849242872e-12,1.403795894e-12,2.075924168e-12,3.094213067e-12,2.580782102e-12,1.292194744e-12,2.198106873e-12,2.161937564e-12,2.071521050e-12,1.027501202e-12,2.429916997e-12,1.514412322e-11,7.192534006e-12,1.302131119e-10,1.724548924e-12,2.038779075e-13
1.7578,2.122217526e-11,5.097363036e-12,4.732243988e-12,3.372642987e-12,1.180037491e-12,1.529408425e-12,2.775702301e-12,1.050428878e-12,3.368422089e-13,5.799247936e-13,3.252481707e-12,7.734272353e-13,5.975233539e-13,1.963522919e-12,2.299439869e-12,2.568488245e-12,1.816087657e-12,1.387960658e-12,2.051270250e-12,3.066465951e-12,2.558003169e-12,1.267852892e-12,2.154573513e-12,2.131668452e-12,2.022411661e-12,1.015041402e-12,2.417939878e-12,1.486464459e-11,7.056914391e-12,1.252750210e-10,1.722030658e-12,1.975419692e-13
1.7656,2.065735538e-11,5.071722412e-12,4.692568483e-12,3.387406019e-12,1.165271326e-12,1.536258757e-12,2.768310377e-12,1.022432699e-12,3.380318603e-13,5.849637848e-13,3.268634893e-12,7.857322419e-13,5.972884056e-13,1.957043036e-12,2.282551652e-12,2.507804240e-12,1.781650377e-12,1.369928369e-12,2.023571450e-12,3.032228450e-12,2.530512019e-12,1.245524594e-12,2.111475693e-12,2.096590728e-12,1.970929148e-12,1.002599681e-12,2.405908233e-12,1.458592651e-11,6.923083151e-12,1.205156833e-10,1.720097067e-12,1.921885538e-13
1.7734,2.009954158e-11,5.042859047e-12,4.649827499e-12,3.399627647e-12,1.150736267e-12,1.541602722e-12,2.761217974e-12,9.959661823e-13,3.393778340e-13,5.906294584e-13,3.286740437e-12,7.980052038e-13,5.973940948e-13,1.954251917e-12,2.266301000e-12,2.451023306e-12,1.749939629e-12,1.352111690e-12,1.997573080e-12,3.002470445e-12,2.504750028e-12,1.222585011e-12,2.069686646e-12,2.064118938e-12,1.922614813e-12,9.901889998e-13,2.395229040e-12,1.431336029e-11,6.791940374e-12,1.158978088e-10,1.718264641e-12,1.866479857e-13
1.7812,1.955399723e-11,5.011241217e-12,4.604248699e-12,3.409373253e-12,1.136320371e-12,1.545299951e-12,2.754551015e-12,9.704919203e-13,3.408785801e-13,5.970040645e-13,3.308513732e-12,8.105911521e-13,5.980805111e-13,1.954000173e-12,2.252575983e-12,2.398606211e-12,1.721335358e-12,1.334765757e-12,1.972280430e-12,2.974160041e-12,2.479900040e-12,1.199338078e-12,2.028670278e-12,2.033591336e-12,1.877014423e-12,9.777857935e-13,2.386388087e-12,1.404717025e-11,6.665118457e-12,1.114346122e-10,1.716714521e-12,1.809956424e-13
1.7891,1.902964607e-11,4.981058710e-12,4.562207640e-12,3.419044434e-12,1.122125329e-12,1.549405193e-12,2.749037930e-12,9.458322505e-13,3.427410677e-13,6.045302607e-13,3.335079394e-12,8.242946444e-13,5.993835331e-13,1.952620702e-12,2.241142568e-12,2.349804793e-12,1.695173928e-12,1.318020346e-12,1.945181945e-12,2.941282091e-12,2.451890540e-12,1.178033243e-12,1.988312777e-12,1.999343627e-12,1.829329208e-12,9.654799927e-13,2.377618706e-12,1.378463064e-11,6.542422204e-12,1.071569775e-10,1.715526567e-12,1.763962794e-13
