Time,Fp1,AF3,F7,F3,FC1,FC5,T7,C3,CP1,CP5,P7,P3,Pz,PO3,O1,Oz,O2,PO4,P4,P8,CP6,CP2,C4,T8,FC6,FC2,F4,F8,AF4,Fp2,Fz,Cz,
0,6.102265640e-10,5.939271211e-10,2.554779604e-09,1.549198500e-10,2.695477272e-11,1.988895096e-10,1.555679377e-10,2.123078380e-10,4.344935257e-11,5.638560942e-10,7.513569148e-11,1.564477181e-10,1.702798680e-10,1.895267137e-10,3.367108037e-10,2.232105910e-10,2.831754829e-10,3.225010341e-11,3.361090652e-12,5.061210697e-11,5.672657390e-11,2.558053090e-10,8.997083531e-10,1.699836313e-10,5.563934594e-10,3.700371668e-11,6.143984539e-10,1.625195402e-10,6.946761891e-11,3.506642287e-09,2.158753623e-10,9.150008333e-11
0.0078125,6.099341796e-10,5.926422092e-10,2.552918677e-09,1.545424349e-10,2.712100301e-11,1.985696408e-10,1.550610082e-10,2.123159530e-10,4.358790635e-11,5.637894450e-10,7.637199979e-11,1.571435717e-10,1.693508900e-10,1.905820405e-10,3.379365936e-10,2.244996162e-10,2.845545905e-10,3.227327206e-11,3.303671531e-12,5.063286961e-11,5.688718444e-11,2.554724871e-10,9.023919980e-10,1.698072769e-10,5.541815159e-10,3.713305878e-11,6.132149294e-10,1.624612596e-10,6.908229402e-11,3.502107745e-09,2.160269656e-10,9.191283829e-11
0.015625,6.079833988e-10,5.896834443e-10,2.543865961e-09,1.537315097e-10,2.721611188e-11,1.976706470e-10,1.541144263e-10,2.117187242e-10,4.360557071e-11,5.620938617e-10,7.746812725e-11,1.574106192e-10,1.679238755e-10,1.911361516e-10,3.382677189e-10,2.252043359e-10,2.851898344e-10,3.220975828e-11,3.235611129e-12,5.051927062e-11,5.689047813e-11,2.544171201e-10,9.025951664e-10,1.691474625e-10,5.503568296e-10,3.716207178e-11,6.102645916e-10,1.619209538e-10,6.848481121e-11,3.487637214e-09,2.155819862e-10,9.207941997e-11
0.023438,6.043536528e-10,5.850729667e-10,2.527728104e-09,1.524928170e-10,2.723839691e-11,1.962119983e-10,1.527385576e-10,2.105250665e-10,4.349958917e-11,5.588598265e-10,7.843206440e-11,1.572483427e-10,1.660127391e-10,1.911531554e-10,3.376269986e-10,2.252742338e-10,2.850358864e-10,3.205636701e-11,3.157966839e-12,5.026298788e-11,5.673665729e-11,2.526445103e-10,9.002763425e-10,1.679999300e-10,5.449527982e-10,3.708681489e-11,6.055924593e-10,1.609199744e-10,6.768873976e-11,3.463400100e-09,2.145424763e-10,9.198880933e-11
0.03125,5.990115468e-10,5.788432390e-10,2.504570778e-09,1.508328057e-10,2.718437092e-11,1.942222152e-10,1.509225071e-10,2.087565699e-10,4.326875823e-11,5.541498298e-10,7.921012311e-11,1.566467991e-10,1.636405100e-10,1.906186008e-10,3.360070589e-10,2.246909538e-10,2.840545559e-10,3.180909065e-11,3.072243507e-12,4.986211462e-11,5.642446032e-11,2.501689611e-10,8.954516189e-10,1.664068987e-10,5.380576538e-10,3.690693273e-11,5.992631766e-10,1.594626240e-10,6.671704509e-11,3.429582740e-09,2.129084687e-10,9.163599416e-11
0.039062,5.919979313e-10,5.710475955e-10,2.474520348e-09,1.487651242e-10,2.705290661e-11,1.917119040e-10,1.486937086e-10,2.064208725e-10,4.291370894e-11,5.478580126e-10,7.981635811e-11,1.555990646e-10,1.608234207e-10,1.895486301e-10,3.334774537e-10,2.234843604e-10,2.822756671e-10,3.147968390e-11,2.978123562e-12,4.932845620e-11,5.595133556e-11,2.470289117e-10,8.881635479e-10,1.643913354e-10,5.297703994e-10,3.662284553e-11,5.913369761e-10,1.575572601e-10,6.557916224e-11,3.386368320e-09,2.106908887e-10,9.102331200e-11
0.046875,5.834035055e-10,5.617614895e-10,2.437905162e-09,1.463102637e-10,2.684550762e-11,1.886961680e-10,1.461200908e-10,2.035277481e-10,4.243637359e-11,5.400379773e-10,8.026797191e-11,1.541224122e-10,1.575832037e-10,1.879462154e-10,3.300405634e-10,2.216551983e-10,2.797162586e-10,3.108023683e-11,2.874848310e-12,4.866445996e-11,5.531738243e-11,2.432573658e-10,8.784217259e-10,1.619280279e-10,5.201010065e-10,3.623451471e-11,5.818713380e-10,1.552318148e-10,6.427585594e-11,3.334162713e-09,2.079145380e-10,9.015205325e-11
0.054688,5.732937923e-10,5.510700152e-10,2.395118818e-09,1.434883664e-10,2.656317148e-11,1.852072747e-10,1.432214160e-10,2.001103051e-10,4.183949923e-11,5.309097226e-10,8.053084272e-11,1.522312508e-10,1.539656532e-10,1.858096995e-10,3.256876729e-10,2.191969924e-10,2.763696336e-10,3.060710077e-11,2.765245773e-12,4.786620169e-11,5.452601684e-11,2.388754543e-10,8.662780763e-10,1.590352167e-10,5.091182701e-10,3.574577808e-11,5.709653610e-10,1.524913584e-10,6.282654372e-11,3.273597695e-09,2.046013154e-10,8.902833872e-11
0.0625,5.617213931e-10,5.390622292e-10,2.346465971e-09,1.403223545e-10,2.620830561e-11,1.812778254e-10,1.399727142e-10,1.962000992e-10,4.113012375e-11,5.205041753e-10,8.062005887e-11,1.499277286e-10,1.500207200e-10,1.831574168e-10,3.204600578e-10,2.161317289e-10,2.722605790e-10,3.005703385e-11,2.653340586e-12,4.694082752e-11,5.359414536e-11,2.339173341e-10,8.518409875e-10,1.557576765e-10,4.970056661e-10,3.515974916e-11,5.587272154e-10,1.493637435e-10,6.125837304e-11,3.205158663e-09,2.007718686e-10,8.766326723e-11
0.070312,5.488070372e-10,5.258534517e-10,2.292356778e-09,1.368446419e-10,2.578513181e-11,1.769397611e-10,1.363962172e-10,1.918260218e-10,4.031929019e-11,5.088409103e-10,8.056966554e-11,1.472352089e-10,1.457887203e-10,1.800207226e-10,3.144015078e-10,2.124881154e-10,2.674337071e-10,2.943529560e-11,2.540403070e-12,4.589844032e-11,5.253853199e-11,2.284298681e-10,8.352237499e-10,1.521146341e-10,4.838749059e-10,3.447990815e-11,5.452421403e-10,1.459212171e-10,5.957969335e-11,3.129337917e-09,1.964626234e-10,8.606734336e-11
0.078125,5.346869989e-10,5.115629767e-10,2.233267541e-09,1.330851675e-10,2.529565601e-11,1.722222961e-10,1.325579963e-10,1.870233567e-10,3.941508666e-11,4.960690025e-10,8.035508126e-11,1.441840161e-10,1.413067523e-10,1.764350435e-10,3.075703081e-10,2.083076448e-10,2.619385620e-10,2.874921134e-11,2.426700740e-12,4.474503913e-11,5.136554797e-11,2.224569842e-10,8.165558634e-10,1.481362692e-10,4.697917067e-10,3.371742033e-11,5.306121052e-10,1.421986913e-10,5.779476232e-11,3.046850494e-09,1.917092446e-10,8.425898294e-11
0.085938,5.194705342e-10,4.963096602e-10,2.169651401e-09,1.290747640e-10,2.474361030e-11,1.671603414e-10,1.284963240e-10,1.818277034e-10,3.842439915e-11,4.822583877e-10,7.997018239e-11,1.407924538e-10,1.366109957e-10,1.724367284e-10,3.000395908e-10,2.036404825e-10,2.558342095e-10,2.800901216e-11,2.312442759e-12,4.349506227e-11,5.009071020e-11,2.160539299e-10,7.960261554e-10,1.438581988e-10,4.548957072e-10,3.288321749e-11,5.149682327e-10,1.381973914e-10,5.592128326e-11,2.958409899e-09,1.865472382e-10,8.226412522e-11
0.09375,5.033187655e-10,4.802335765e-10,2.102070696e-09,1.248543982e-10,2.413799733e-11,1.617950538e-10,1.242030131e-10,1.762805432e-10,3.735961184e-11,4.675223112e-10,7.946063116e-11,1.370944428e-10,1.317395239e-10,1.680649338e-10,2.918701960e-10,1.985266590e-10,2.491726862e-10,2.722309283e-11,2.197288471e-12,4.216391067e-11,4.872766456e-11,2.092785158e-10,7.738327733e-10,1.393043514e-10,4.393018621e-10,3.198247266e-11,4.984290599e-10,1.339549174e-10,5.397199892e-11,2.864733148e-09,1.810286561e-10,8.010231332e-11
0.10156,4.863881257e-10,4.634510058e-10,2.031070403e-09,1.204536307e-10,2.348598243e-11,1.561652880e-10,1.196981372e-10,1.704288323e-10,3.623305025e-11,4.520420997e-10,7.884544880e-11,1.331314487e-10,1.267293067e-10,1.633636934e-10,2.831396775e-10,1.930180073e-10,2.420151440e-10,2.639339839e-11,2.082615460e-12,4.075600343e-11,4.728013808e-11,2.021654466e-10,7.501400473e-10,1.345204633e-10,4.230755386e-10,3.102349673e-11,4.811030605e-10,1.295262725e-10,5.195281477e-11,2.766623264e-09,1.751992228e-10,7.779097926e-11
0.10938,4.687727996e-10,4.460683236e-10,1.957142598e-09,1.158945492e-10,2.279121153e-11,1.503210507e-10,1.150729943e-10,1.643185494e-10,3.505214758e-11,4.358658175e-10,7.811168424e-11,1.289296896e-10,1.216153003e-10,1.583727221e-10,2.739265044e-10,1.871698639e-10,2.344412183e-10,2.552449217e-11,1.970248925e-12,3.928545968e-11,4.576750288e-11,1.947616915e-10,7.251534808e-10,1.295545218e-10,4.063351207e-10,3.001784610e-11,4.631157735e-10,1.249437714e-10,4.987756654e-11,2.664782096e-09,1.690986018e-10,7.535389120e-11
0.11719,4.505932840e-10,4.282121764e-10,1.880828271e-09,1.112131756e-10,2.205990097e-11,1.442972750e-10,1.103666001e-10,1.579898981e-10,3.382606462e-11,4.190844723e-10,7.726848766e-11,1.245236089e-10,1.164268341e-10,1.531336316e-10,2.642863867e-10,1.810214243e-10,2.265130909e-10,2.462523166e-11,1.858975552e-12,3.777414158e-11,4.420827840e-11,1.871328030e-10,6.991093471e-10,1.244253158e-10,3.892219617e-10,2.897461450e-11,4.445815493e-10,1.202350145e-10,4.775758770e-11,2.559732632e-09,1.627747673e-10,7.281409299e-11
0.125,4.320027646e-10,4.099997699e-10,1.802685729e-09,1.064476850e-10,2.130003492e-11,1.381210395e-10,1.055403357e-10,1.514871492e-10,3.256538479e-11,4.019032378e-10,7.633630154e-11,1.199603908e-10,1.111819612e-10,1.476990416e-10,2.543072678e-10,1.746268426e-10,2.182898166e-10,2.370298703e-11,1.747571157e-12,3.622851093e-11,4.260258764e-11,1.793290403e-10,6.722179495e-10,1.191711172e-10,3.718505792e-10,2.790157586e-11,4.256321606e-10,1.154313674e-10,4.560562095e-11,2.452212347e-09,1.562756239e-10,7.019060589e-11
0.13281,4.131173964e-10,3.915428521e-10,1.723244749e-09,1.016241564e-10,2.051668277e-11,1.318579809e-10,1.006287277e-10,1.448654529e-10,3.127692937e-11,3.844121688e-10,7.532034679e-11,1.152700508e-10,1.059060831e-10,1.421087277e-10,2.440800956e-10,1.680404530e-10,2.098369162e-10,2.276304351e-11,1.637642454e-12,3.465317614e-11,4.096217342e-11,1.713964803e-10,6.446792380e-10,1.138515083e-10,3.543036027e-10,2.680653789e-11,4.064232104e-10,1.105518642e-10,4.344320376e-11,2.343128514e-09,1.496475236e-10,6.750088397e-11
0.14062,3.940213192e-10,3.729318580e-10,1.642925362e-09,9.676047708e-11,1.971398200e-11,1.255518519e-10,9.570676233e-11,1.381670890e-10,2.996799505e-11,3.666724125e-10,7.423345443e-11,1.104758757e-10,1.006315688e-10,1.363922262e-10,2.336533738e-10,1.612961237e-10,2.012047340e-10,2.180724087e-11,1.530515732e-12,3.306071534e-11,3.930479475e-11,1.633798335e-10,6.166815433e-10,1.084911546e-10,3.366537348e-10,2.569782267e-11,3.870596511e-10,1.056225856e-10,4.128202766e-11,2.232981197e-09,1.429254189e-10,6.476231803e-11
0.14844,3.748224516e-10,3.542581229e-10,1.562207977e-09,9.188434372e-11,1.889773726e-11,1.192189883e-10,9.079001649e-11,1.314290675e-10,2.864657506e-11,3.488444929e-10,7.308492873e-11,1.056158936e-10,9.537854925e-11,1.305891795e-10,2.230948762e-10,1.544394631e-10,1.924520776e-10,2.083873716e-11,1.426193536e-12,3.145978209e-11,3.763036587e-11,1.553257772e-10,5.884126325e-10,1.031086496e-10,3.190296769e-10,2.458147829e-11,3.676576545e-10,1.006872153e-10,3.913326523e-11,2.122311690e-09,1.361438614e-10,6.199129907e-11
0.15625,3.556273458e-10,3.356354248e-10,1.481636779e-09,8.702642587e-11,1.807199266e-11,1.129171775e-10,8.590062291e-11,1.246979896e-10,2.731728373e-11,3.310337405e-10,7.185791826e-11,1.007187319e-10,9.016836810e-11,1.247280210e-10,2.124754111e-10,1.475094483e-10,1.836295857e-10,1.986465216e-11,1.324985632e-12,2.985629506e-11,3.594016934e-11,1.472860422e-10,5.600364334e-10,9.774193255e-11,3.015411481e-10,2.346028818e-11,3.483566847e-10,9.576195669e-11,3.701667949e-11,2.011932052e-09,1.293467784e-10,5.919961245e-11
0.16406,3.365002653e-10,3.171335148e-10,1.401559281e-09,8.219860580e-11,1.724003740e-11,1.066885554e-10,8.108796849e-11,1.180078252e-10,2.598623762e-11,3.132922219e-10,7.056328749e-11,9.580347657e-11,8.502730050e-11,1.188355059e-10,2.018470442e-10,1.405374742e-10,1.747718352e-10,1.888824682e-11,1.227417911e-12,2.825880719e-11,3.424473189e-11,1.392974075e-10,5.316955210e-10,9.242070899e-11,2.842460859e-10,2.234009218e-11,3.292432384e-10,9.084312540e-11,3.494353949e-11,1.902265357e-09,1.225618250e-10,5.640002503e-11
0.17188,3.175407960e-10,2.988351508e-10,1.322380013e-09,7.742241351e-11,1.640764614e-11,1.005416037e-10,7.636828958e-11,1.113893079e-10,2.466127941e-11,2.957342470e-10,6.923226050e-11,9.090234072e-11,7.997634330e-11,1.129518392e-10,1.912754104e-10,1.335710250e-10,1.659372325e-10,1.791277848e-11,1.134347518e-12,2.667809446e-11,3.255241379e-11,1.314031549e-10,5.035572666e-10,8.717081244e-11,2.672564386e-10,2.122718473e-11,3.104219167e-10,8.595841015e-11,3.292376131e-11,1.793784075e-09,1.158212794e-10,5.360760141e-11
0.17969,2.988744401e-10,2.808616719e-10,1.244547366e-09,7.273327337e-11,1.557851951e-11,9.451137799e-11,7.171453958e-11,1.048783702e-10,2.334668497e-11,2.784647462e-10,6.784584332e-11,8.603949471e-11,7.503734319e-11,1.070970724e-10,1.807903098e-10,1.266313839e-10,1.571624732e-10,1.694463087e-11,1.046795075e-12,2.512044429e-11,3.087401367e-11,1.236471201e-10,4.757341603e-10,8.200487339e-11,2.506463977e-10,2.012421352e-11,2.919882344e-10,8.113462071e-11,3.096648982e-11,1.687198592e-09,1.091708961e-10,5.083194384e-11
0.1875,2.805757584e-10,2.632766001e-10,1.168305060e-09,6.814721840e-11,1.475488890e-11,8.863446318e-11,6.712750349e-11,9.850293875e-11,2.204683172e-11,2.615438170e-10,6.639002031e-11,8.123020871e-11,7.023047918e-11,1.012887545e-10,1.704251472e-10,1.197373964e-10,1.484648497e-10,1.598619262e-11,9.650542136e-13,2.358876990e-11,2.921759473e-11,1.160502029e-10,4.483175661e-10,7.693589199e-11,2.344395516e-10,1.903517862e-11,2.739856706e-10,7.638074184e-11,2.907481564e-11,1.582902590e-09,1.026367931e-10,4.808293919e-11
0.19531,2.627262262e-10,2.461464077e-10,1.093995413e-09,6.368123732e-11,1.394215111e-11,8.292701351e-11,6.268871942e-11,9.228988173e-11,2.076823620e-11,2.450384576e-10,6.489658873e-11,7.650066370e-11,6.557338502e-11,9.556186234e-11,1.602615580e-10,1.129393101e-10,1.398987451e-10,1.504164267e-11,8.891591526e-13,2.209359157e-11,2.758365385e-11,1.086470778e-10,4.214517312e-10,7.200244558e-11,2.187354397e-10,1.796290624e-11,2.564944202e-10,7.173453189e-11,2.725737793e-11,1.481345666e-09,9.624670739e-11,4.537235607e-11
0.20312,2.454165994e-10,2.295595117e-10,1.021954619e-09,5.935826700e-11,1.314418716e-11,7.739865178e-11,5.844624131e-11,8.625697931e-11,1.951580188e-11,2.290106028e-10,6.336600535e-11,7.187082085e-11,6.108092157e-11,8.993853111e-11,1.503370312e-10,1.062677362e-10,1.315072518e-10,1.411878169e-11,8.189332820e-13,2.064450273e-11,2.597891142e-11,1.014724106e-10,3.952181455e-10,6.721995683e-11,2.035917651e-10,1.691015374e-11,2.395689819e-10,6.722602732e-11,2.551571786e-11,1.382990399e-09,9.003253050e-11,4.270863779e-11
0.21094,2.287014643e-10,2.135603972e-10,9.523383744e-10,5.518652916e-11,1.236210833e-11,7.206312829e-11,5.436752161e-11,8.041750239e-11,1.829337918e-11,2.135094871e-10,6.178749270e-11,6.735472960e-11,5.676154057e-11,8.444204743e-11,1.406823092e-10,9.975152505e-11,1.233225369e-10,1.322165532e-11,7.537381550e-13,1.924539659e-11,2.441249416e-11,9.454253306e-11,3.696907706e-10,6.259567624e-11,1.890209074e-10,1.588554754e-11,2.232373670e-10,6.283984739e-11,2.384688181e-11,1.288043723e-09,8.400875072e-11,4.010426830e-11
0.21875,2.126306649e-10,1.982003836e-10,8.853714290e-10,5.117907271e-11,1.159898544e-11,6.694218706e-11,5.045484658e-11,7.479205208e-11,1.710574614e-11,1.985697520e-10,6.019868020e-11,6.296940842e-11,5.262836406e-11,7.909761412e-11,1.313464556e-10,9.342357643e-11,1.153859300e-10,1.235411168e-11,6.935100619e-13,1.790332709e-11,2.288822918e-11,8.788444018e-11,3.449886843e-10,5.815903099e-11,1.750924703e-10,1.489472042e-11,2.075717027e-10,5.857814898e-11,2.226084049e-11,1.196828536e-09,7.819423990e-11,3.757253191e-11
0.22656,1.972421575e-10,1.835206193e-10,8.212032621e-10,4.735230707e-11,1.085858497e-11,6.204099003e-11,4.671768574e-11,6.939043697e-11,1.595770163e-11,1.842278518e-10,5.861721448e-11,5.872565134e-11,4.869196873e-11,7.391136321e-11,1.223248025e-10,8.728420834e-11,1.077033165e-10,1.151953300e-11,6.385776631e-13,1.662129985e-11,2.141497397e-11,8.151190156e-11,3.211632174e-10,5.391025925e-11,1.618254007e-10,1.393837383e-11,1.925943197e-10,5.447684808e-11,2.075974830e-11,1.109572757e-09,7.260773053e-11,3.511999188e-11
0.23438,1.825643130e-10,1.695309567e-10,7.599080078e-10,4.370955028e-11,1.014304099e-11,5.736610617e-11,4.314026320e-11,6.422418150e-11,1.485153954e-11,1.705280426e-10,5.700663217e-11,5.463399374e-11,4.495191209e-11,6.889723895e-11,1.136376569e-10,8.135087355e-11,1.002874991e-10,1.071894986e-11,5.885857597e-13,1.539871431e-11,1.999997940e-11,7.542694913e-11,2.982681367e-10,4.985468478e-11,1.492139327e-10,1.301921915e-11,1.783077405e-10,5.055717615e-11,1.933767141e-11,1.026365234e-09,6.725924749e-11,3.275299184e-11
0.24219,1.686273330e-10,1.562593078e-10,7.016265260e-10,4.025262067e-11,9.453706257e-12,5.293478223e-11,3.975611918e-11,5.930733218e-11,1.378831382e-11,1.574640939e-10,5.535865996e-11,5.070258563e-11,4.141262109e-11,6.407353332e-11,1.053339860e-10,7.565431414e-11,9.317457483e-11,9.955380663e-12,5.430389170e-13,1.423717452e-11,1.864094415e-11,6.964177215e-11,2.763646975e-10,4.601775081e-11,1.372789624e-10,1.213905801e-11,1.647355557e-10,4.681774426e-11,1.799460215e-11,9.473373720e-10,6.216203831e-11,3.047802700e-11
0.25,1.554451027e-10,1.437201081e-10,6.464147035e-10,3.698741486e-11,8.792534348e-12,4.873414351e-11,3.658494721e-11,5.463484378e-11,1.277181862e-11,1.450411171e-10,5.371841396e-11,4.693943856e-11,3.807650359e-11,5.945083834e-11,9.741829571e-11,7.020140181e-11,8.637743533e-11,9.230440277e-12,5.019046066e-13,1.313558280e-11,1.733977891e-11,6.415712151e-11,2.554710150e-10,4.238418640e-11,1.260069185e-10,1.130055425e-11,1.518662501e-10,4.325360600e-11,1.672585119e-11,8.724724526e-10,5.732246685e-11,2.830112398e-11
0.25781,1.430257096e-10,1.319107712e-10,5.943075213e-10,3.391754747e-11,8.161557008e-12,4.475604954e-11,3.359521401e-11,5.020883099e-11,1.180516088e-11,1.333101836e-10,5.210530640e-11,4.335815776e-11,3.493709554e-11,5.504422208e-11,8.990422106e-11,6.500580201e-11,7.990884185e-11,8.543898727e-12,4.650021906e-13,1.209580451e-11,1.610086904e-11,5.897691561e-11,2.356443498e-10,3.894880224e-11,1.154148067e-10,1.050726670e-11,1.397211525e-10,3.987092069e-11,1.553056801e-11,8.018582336e-10,5.274256504e-11,2.622839170e-11
0.26562,1.313448835e-10,1.208199923e-10,5.452611410e-10,3.103594645e-11,7.561006863e-12,4.101595278e-11,3.077798644e-11,4.603739561e-11,1.088811930e-11,1.222425168e-10,5.049588820e-11,3.995651942e-11,3.199275748e-11,5.085255893e-11,8.278938870e-11,6.006716466e-11,7.377201405e-11,7.895491512e-12,4.318253480e-13,1.111921641e-11,1.492369091e-11,5.410353205e-11,2.169003762e-10,3.572913299e-11,1.055051432e-10,9.758118925e-12,1.283118551e-10,3.668009299e-11,1.441240389e-11,7.355316704e-10,4.842132795e-11,2.426100041e-11
0.27344,1.203641516e-10,1.104166071e-10,4.991573967e-10,2.833481446e-11,6.990849052e-12,3.750834610e-11,2.813563053e-11,4.211480853e-11,1.002141205e-11,1.118025102e-10,4.889419675e-11,3.673003614e-11,2.924201953e-11,4.687219709e-11,7.605193077e-11,5.537575207e-11,6.795620573e-11,7.281625003e-12,4.022440368e-13,1.020079770e-11,1.381098135e-11,4.952101637e-11,1.992091278e-10,3.271154937e-11,9.621951521e-11,9.053051714e-12,1.175940382e-10,3.367836454e-11,1.336680273e-11,6.732419851e-10,4.435169356e-11,2.239957660e-11
0.28125,1.100871336e-10,1.006931134e-10,4.560362724e-10,2.581593467e-11,6.451670026e-12,3.422869512e-11,2.567555343e-11,3.844107846e-11,9.205425536e-12,1.020305322e-10,4.731546871e-11,3.369003474e-11,2.667886721e-11,4.311797587e-11,6.971882818e-11,5.095081817e-11,6.247450366e-11,6.701075778e-12,3.763943747e-13,9.341168164e-12,1.276411944e-11,4.522914959e-11,1.825969580e-10,2.989369614e-11,8.755981028e-11,8.392507335e-12,1.075740862e-10,3.086020108e-11,1.239304934e-11,6.149554988e-10,4.053516916e-11,2.064512192e-11
0.28906,1.004999348e-10,9.163617608e-11,4.158400933e-10,2.347153769e-11,5.943509612e-12,3.117813834e-11,2.340775970e-11,3.501373128e-11,8.438610690e-12,9.291250192e-11,4.574493494e-11,3.083501938e-11,2.429553556e-11,3.958746722e-11,6.379020047e-11,4.679197347e-11,5.732625096e-11,6.155680128e-12,3.538717629e-13,8.540532686e-12,1.177806958e-11,4.122638245e-11,1.670452414e-10,2.727918562e-11,7.952602039e-11,7.772860168e-12,9.824428313e-11,2.822351436e-11,1.148998052e-11,5.606372540e-10,3.697007371e-11,1.899447369e-11
0.29688,9.156727273e-11,8.320892259e-11,3.783940078e-10,2.129146188e-11,5.466752464e-12,2.833916307e-11,2.130086005e-11,3.182149083e-11,7.720492063e-12,8.441509161e-11,4.419499081e-11,2.815716137e-11,2.208160922e-11,3.626958801e-11,5.823535347e-11,4.288238093e-11,5.249463148e-11,5.643208844e-12,3.340863245e-13,7.793082048e-12,1.085090509e-11,3.749523196e-11,1.525125890e-10,2.484431873e-11,7.207363582e-11,7.193953656e-12,8.955440620e-11,2.575946084e-11,1.064925174e-11,5.100534980e-10,3.364624892e-11,1.744634968e-11
0.30469,8.327773234e-11,7.539903299e-11,3.436698145e-10,1.927456486e-11,5.020576186e-12,2.570722803e-11,1.933841533e-11,2.886041537e-11,7.050050584e-12,7.654388275e-11,4.268731882e-11,2.565854038e-11,2.003082451e-11,3.316701754e-11,5.306260588e-11,3.922801616e-11,4.798320418e-11,5.162704821e-12,3.170113499e-13,7.100078088e-12,9.982591501e-12,3.403348905e-11,1.389955733e-10,2.258521340e-11,6.520005252e-11,6.656772979e-12,8.150305639e-11,2.346103625e-11,9.870537979e-12,4.631563625e-10,3.055861484e-11,1.599943356e-11
0.3125,7.560490883e-11,6.818142207e-11,3.115676793e-10,1.740905861e-11,4.602872498e-12,2.328301987e-11,1.754458593e-11,2.612242646e-11,6.425205146e-12,6.926129368e-11,4.119360917e-11,2.333378682e-11,1.813728922e-11,3.027324971e-11,4.826161303e-11,3.582195109e-11,4.378370559e-11,4.715719595e-12,3.027199465e-13,6.463162411e-12,9.171635704e-12,3.083358456e-11,1.264426107e-10,2.050698944e-11,5.887538539e-11,6.157264313e-12,7.406754662e-11,2.132893739e-11,9.152878612e-12,4.198004092e-10,2.769747210e-11,1.464846117e-11
0.32031,6.852497858e-11,6.152034256e-11,2.819306801e-10,1.568718996e-11,4.213522657e-12,2.104863611e-11,1.590392354e-11,2.359592961e-11,5.844576319e-12,6.253255650e-11,3.970687965e-11,2.117546519e-11,1.638950273e-11,2.757829898e-11,4.380646774e-11,3.264889021e-11,3.987778479e-11,4.300524046e-12,2.906890274e-13,5.877525890e-12,8.417012215e-12,2.787821536e-11,1.148106200e-10,1.859441806e-11,5.304801261e-11,5.692821503e-12,6.719807814e-11,1.936056173e-11,8.488563512e-12,3.797504009e-10,2.505331593e-11,1.339028867e-11
0.32812,6.201710790e-11,5.539944815e-11,2.546625475e-10,1.411075936e-11,3.851922380e-12,1.899547857e-11,1.438640187e-11,2.127254919e-11,5.305599388e-12,5.634605253e-11,3.825270475e-11,1.917793778e-11,1.477953376e-11,2.507707621e-11,3.969331967e-11,2.970566171e-11,3.625658691e-11,3.915609303e-12,2.802741076e-13,5.340028000e-12,7.713904513e-12,2.515979560e-11,1.040731051e-10,1.683868858e-11,4.771345674e-11,5.262534513e-12,6.087814880e-11,1.754462261e-11,7.877806038e-12,3.429471936e-10,2.262057644e-11,1.222067500e-11
0.33594,5.602843461e-11,4.978102830e-11,2.295909250e-10,1.266527371e-11,3.515902080e-12,1.712091271e-11,1.300707952e-11,1.913960033e-11,4.805624234e-12,5.066597920e-11,3.681628299e-11,1.733093732e-11,1.330206864e-11,2.275825132e-11,3.590301699e-11,2.698020703e-11,3.290388519e-11,3.560159893e-12,2.716839618e-13,4.847962152e-12,7.058114708e-12,2.266313619e-11,9.416224468e-11,1.523428091e-11,4.284526808e-11,4.864106024e-12,5.507801315e-11,1.586941174e-11,7.321445426e-12,3.091971128e-10,2.038538994e-11,1.113366388e-11
0.34375,5.053369811e-11,4.463228885e-11,2.066006277e-10,1.133850122e-11,3.204867675e-12,1.541098818e-11,1.177071185e-11,1.718750398e-11,4.343399315e-12,4.547155130e-11,3.538440699e-11,1.562838971e-11,1.194985485e-11,2.061263052e-11,3.241378018e-11,2.446060104e-11,2.980689374e-11,3.231762086e-12,2.654279949e-13,4.398625380e-12,6.451104553e-12,2.037406391e-11,8.504534291e-11,1.377056451e-11,3.840481449e-11,4.496537833e-12,4.976659310e-11,1.433343747e-11,6.812845730e-12,2.782811973e-10,1.833829314e-11,1.012744840e-11
0.35156,4.552162515e-11,3.993880824e-11,1.856086045e-10,1.013009117e-11,2.918016663e-12,1.385232504e-11,1.064191855e-11,1.540576104e-11,3.916788267e-12,4.073070075e-11,3.397569464e-11,1.406185290e-11,1.071575552e-11,1.863197733e-11,2.921097172e-11,2.213901363e-11,2.695624417e-11,2.929384003e-12,2.611127101e-13,3.990055004e-12,5.890505853e-12,1.828463172e-11,7.668742789e-11,1.243760680e-11,3.437246858e-11,4.158116627e-12,4.491588629e-11,1.293322629e-11,6.346302050e-12,2.500876505e-10,1.647279375e-11,9.198509901e-12
0.35938,4.094671606e-11,3.566631597e-11,1.664386796e-10,9.032244973e-12,2.653779637e-12,1.243224477e-11,9.605680737e-12,1.377862514e-11,3.523636644e-12,3.639293146e-11,3.259409506e-11,1.261998635e-11,9.590818145e-12,1.680500213e-11,2.627145194e-11,2.000151478e-11,2.433486885e-11,2.652631813e-12,2.581444670e-13,3.618270136e-12,5.371053540e-12,1.637790415e-11,6.901658655e-11,1.122284852e-11,3.070981580e-11,3.845973165e-12,4.047667065e-11,1.165309310e-11,5.917936687e-12,2.244007615e-10,1.477471198e-11,8.340889674e-12
0.36719,3.678513571e-11,3.179195806e-11,1.489992628e-10,8.039827106e-12,2.411490323e-12,1.113923653e-11,8.677694458e-12,1.229772315e-11,3.162732684e-12,3.245035138e-11,3.123463347e-11,1.129967538e-11,8.567577997e-12,1.512540109e-11,2.358312804e-11,1.803874525e-11,2.193154513e-11,2.400430645e-12,2.564917926e-13,3.280721522e-12,4.893139227e-12,1.464323308e-11,6.200645389e-11,1.012028193e-11,2.739118851e-11,3.559444208e-12,3.642791001e-11,1.048448313e-11,5.525393818e-12,2.010694344e-10,1.323550780e-11,7.551848283e-12
0.375,3.302611218e-11,2.829956779e-11,1.332143021e-10,7.149374270e-12,2.189707648e-12,9.968014900e-12,7.848787422e-12,1.095497949e-11,2.832316712e-12,2.888794533e-11,2.989520847e-11,1.009565178e-11,7.640597168e-12,1.358678553e-11,2.113551230e-11,1.624275548e-11,1.973490111e-11,2.171925006e-12,2.559438108e-13,2.975514571e-12,4.456784228e-12,1.307256228e-11,5.562751840e-11,9.126914492e-12,2.440285389e-11,3.297867266e-12,3.275539414e-11,9.424993597e-12,5.167504227e-12,1.799842766e-10,1.184766844e-11,6.827935519e-12
0.38281,2.963594152e-11,2.515214464e-11,1.189295550e-10,6.348826926e-12,1.986833762e-12,8.909563772e-12,7.093608598e-12,9.738475493e-12,2.530568119e-12,2.566455629e-11,2.857630264e-11,8.999291157e-12,6.801195814e-12,1.218077483e-11,1.891003625e-11,1.460309368e-11,1.772926033e-11,1.965562055e-12,2.562593154e-13,2.699204460e-12,4.057830302e-12,1.164903086e-11,4.981999594e-11,8.232719849e-12,2.171146138e-11,3.059278008e-12,2.941651654e-11,8.462056671e-12,4.838931022e-12,1.609238114e-10,1.059840399e-11,6.164495476e-12
0.39062,2.658732708e-11,2.232367523e-11,1.060401542e-10,5.631034966e-12,1.802195797e-12,7.951272203e-12,6.412448309e-12,8.639875065e-12,2.255688397e-12,2.275794373e-11,2.729155532e-11,8.004514736e-12,6.042446093e-12,1.089915184e-11,1.689332726e-11,1.311087113e-11,1.590375684e-11,1.779877839e-12,2.576540397e-13,2.450323115e-12,3.693726148e-12,1.036287195e-11,4.454991641e-11,7.428615326e-12,1.929496196e-11,2.842479106e-12,2.638609367e-11,7.587683866e-12,4.534084281e-12,1.437332899e-10,9.478511524e-12,5.558636360e-12
0.39844,2.384837963e-11,1.979028494e-11,9.442884753e-11,4.991461377e-12,1.634509385e-12,7.087084557e-12,5.805589254e-12,7.649737770e-12,2.005783814e-12,2.014204895e-11,2.604397117e-11,7.102395254e-12,5.360137175e-12,9.731593334e-12,1.506732768e-11,1.175346862e-11,1.424573921e-11,1.613570395e-12,2.600800875e-13,2.227949156e-12,3.363635016e-12,9.206150273e-12,3.978212487e-11,6.707946801e-12,1.713672882e-11,2.646022823e-12,2.364942336e-11,6.802724912e-12,4.253760657e-12,1.282891873e-10,8.477184301e-12,5.006626617e-12
0.40625,2.137779112e-11,1.751705840e-11,8.396132860e-11,4.420184049e-12,1.482516266e-12,6.312280629e-12,5.258407357e-12,6.759394540e-12,1.779724486e-12,1.778962898e-11,2.482817185e-11,6.286724083e-12,4.747488738e-12,8.671627376e-12,1.341354823e-11,1.052028181e-11,1.274251353e-11,1.464524100e-12,2.631333814e-13,2.029894242e-12,3.065771025e-12,8.165326846e-12,3.547429367e-11,6.067424836e-12,1.520736628e-11,2.467659419e-12,2.118076363e-11,6.099311016e-12,4.000248575e-12,1.144153844e-10,7.582515317e-12,4.504249118e-12
0.41406,1.915209000e-11,1.548170179e-11,7.455991960e-11,3.910335324e-12,1.345355248e-12,5.616358891e-12,4.770335048e-12,5.961411096e-12,1.575947486e-12,1.568295823e-11,2.365125742e-11,5.553576894e-12,4.198260549e-12,7.714587769e-12,1.192409093e-11,9.406620081e-12,1.138475985e-11,1.331720840e-12,2.666605828e-13,1.853445801e-12,2.797654553e-12,7.230664039e-12,3.159232366e-11,5.502402062e-12,1.348560393e-11,2.306082856e-12,1.895777643e-11,5.466971576e-12,3.770628395e-12,1.019561434e-10,6.786238116e-12,4.048347498e-12
0.42188,1.715314398e-11,1.366542662e-11,6.613107650e-11,3.457478605e-12,1.221718430e-12,4.991654263e-12,4.342333996e-12,5.245702265e-12,1.392162245e-12,1.379694502e-11,2.250689666e-11,4.894967553e-12,3.707065501e-12,6.852157031e-12,1.059187149e-11,8.405822075e-12,1.016123868e-11,1.214972154e-12,2.706538124e-13,1.695240888e-12,2.556227171e-12,6.393653583e-12,2.809748256e-11,4.998883487e-12,1.196007579e-11,2.160303050e-12,1.695778293e-11,4.903291363e-12,3.559568145e-12,9.076229343e-11,6.079179060e-12,3.635274357e-12
0.42969,1.535838648e-11,1.204580560e-11,5.858349818e-11,3.055184765e-12,1.110523516e-12,4.437193998e-12,3.959944333e-12,4.607055086e-12,1.226823895e-12,1.212010422e-11,2.138511154e-11,4.306015635e-12,3.267503569e-12,6.077109894e-12,9.404688515e-12,7.508207029e-12,9.061259947e-12,1.112933530e-12,2.750528300e-13,1.553848650e-12,2.338687772e-12,5.645619409e-12,2.496072227e-11,4.550632073e-12,1.061785829e-11,2.028552910e-12,1.516390396e-11,4.406408989e-12,3.366153510e-12,8.073842645e-11,5.454020385e-12,3.261271366e-12
0.4375,1.374666135e-11,1.060368227e-11,5.184354583e-11,2.697428965e-12,1.010812833e-12,3.947166681e-12,3.614496118e-12,4.040750203e-12,1.078603682e-12,1.064036894e-11,2.029728676e-11,3.781713988e-12,2.875364475e-12,5.381061611e-12,8.342357660e-12,6.701642043e-12,8.073084560e-12,1.023883889e-12,2.798576027e-13,1.428969305e-12,2.143352145e-12,4.978315821e-12,2.215190549e-11,4.158886781e-12,9.435186617e-12,1.909494781e-12,1.356124842e-11,3.969975937e-12,3.191544353e-12,7.180978770e-11,4.904042781e-12,2.923292285e-12
0.44531,1.229762016e-11,9.319350711e-12,4.581228510e-11,2.380163969e-12,9.215974976e-13,3.510902716e-12,3.307722899e-12,3.536422668e-12,9.459576351e-13,9.325065600e-12,1.924671903e-11,3.313158537e-12,2.526984380e-12,4.754838179e-12,7.386845825e-12,5.975791108e-12,7.184421661e-12,9.466645899e-13,2.851786061e-13,1.318397300e-12,1.968776916e-12,4.382494369e-12,1.963297997e-11,3.811956703e-12,8.387554880e-12,1.802266090e-12,1.212413834e-11,3.586634627e-12,3.033574365e-12,6.383607909e-11,4.420387824e-12,2.618431196e-12
0.45312,1.099828617e-11,8.178781683e-12,4.042554914e-11,2.101130525e-12,8.423742458e-13,3.123224058e-12,3.037035856e-12,3.088061380e-12,8.276949504e-13,8.158548566e-12,1.822973262e-11,2.896690456e-12,2.217488714e-12,4.194503913e-12,6.533853092e-12,5.326172426e-12,6.388048293e-12,8.805285265e-13,2.911349350e-13,1.219934563e-12,1.813360879e-12,3.852698732e-12,1.738254210e-11,3.499604802e-12,7.467788784e-12,1.705566829e-12,1.083767145e-11,3.252276095e-12,2.891404142e-12,5.672005001e-11,3.997990963e-12,2.343841945e-12
0.46094,9.838848687e-12,7.171076537e-12,3.563915678e-11,1.856845354e-12,7.724077450e-13,2.781529392e-12,2.795066638e-12,2.692255840e-12,7.226334454e-13,7.135138273e-12,1.725191001e-11,2.529865936e-12,1.943602121e-12,3.695975333e-12,5.778414300e-12,4.748162955e-12,5.677435270e-12,8.243496958e-13,2.976548298e-13,1.132039808e-12,1.676045224e-12,3.383327341e-12,1.537890689e-11,3.224092142e-12,6.665218368e-12,1.618355517e-12,9.693624397e-12,2.963190367e-12,2.765427269e-12,5.040480820e-11,3.632402198e-12,2.096894618e-12
0.46875,8.803994263e-12,6.280494975e-12,3.137708210e-11,1.642217128e-12,7.106549876e-13,2.481422038e-12,2.578039461e-12,2.342432966e-12,6.295747675e-13,6.235790110e-12,1.630634960e-11,2.206466210e-12,1.702259750e-12,3.253210486e-12,5.109990592e-12,4.236180729e-12,5.046119445e-12,7.769756578e-13,3.046662882e-13,1.053127379e-12,1.555877137e-12,2.965798202e-12,1.359230423e-11,2.982799546e-12,5.959090482e-12,1.539780910e-12,8.671744562e-12,2.711503081e-12,2.651252794e-12,4.479103097e-11,3.316510184e-12,1.875199439e-12
0.47656,7.879586259e-12,5.494688092e-12,2.758535446e-11,1.454043757e-12,6.563499548e-13,2.218295996e-12,2.386252717e-12,2.034088706e-12,5.473599797e-13,5.447530746e-12,1.538586967e-11,1.922232547e-12,1.489397957e-12,2.861623965e-12,4.521094303e-12,3.784749908e-12,4.488146694e-12,7.387607071e-13,3.125023663e-13,9.827736847e-13,1.450814754e-12,2.595553157e-12,1.200247397e-11,2.768097099e-12,5.340628153e-12,1.468898482e-12,7.759271856e-12,2.491750643e-12,2.546885999e-12,3.980472694e-11,3.045101326e-12,1.676460802e-12
0.48438,7.057735839e-12,4.805386688e-12,2.423260923e-11,1.290581374e-12,6.087095150e-13,1.986298682e-12,2.215376718e-12,1.763365222e-12,4.747091722e-13,4.759652489e-12,1.450143468e-11,1.673579042e-12,1.302119099e-12,2.515332371e-12,4.003606216e-12,3.386025608e-12,3.993788586e-12,7.097754555e-13,3.215508028e-13,9.212456443e-13,1.359043035e-12,2.269432769e-12,1.059143011e-11,2.577003343e-12,4.804923796e-12,1.405704545e-12,6.951402728e-12,2.302753440e-12,2.455059682e-12,3.539694901e-11,2.814071184e-12,1.498627203e-12
0.49219,6.331497339e-12,4.202975246e-12,2.127409524e-11,1.149642585e-12,5.670395795e-13,1.781267587e-12,2.060003640e-12,1.525130287e-12,4.108451369e-13,4.157701420e-12,1.365694540e-11,1.456655082e-12,1.138109351e-12,2.209445154e-12,3.549893147e-12,3.034877161e-12,3.556362023e-12,6.882370518e-13,3.316876887e-13,8.681057688e-13,1.280383651e-12,1.982142679e-12,9.343124026e-12,2.408232965e-12,4.342776148e-12,1.350045620e-12,6.235935311e-12,2.139126982e-12,2.373848675e-12,3.150134692e-11,2.619100113e-12,1.340004777e-12
0.5,5.688730131e-12,3.677235135e-12,1.866427856e-11,1.028471561e-12,5.308269873e-13,1.602199518e-12,1.922231415e-12,1.316082008e-12,3.552239594e-13,3.634219426e-12,1.284969333e-11,1.269226584e-12,9.948699177e-13,1.941695642e-12,3.154534021e-12,2.728945407e-12,3.173677322e-12,6.728755329e-13,3.426301746e-13,8.218663576e-13,1.213790217e-12,1.729361287e-12,8.241876234e-12,2.259706716e-12,3.945379619e-12,1.300260298e-12,5.602233048e-12,1.994789475e-12,2.300819710e-12,2.806023399e-11,2.455651909e-12,1.198602412e-12
0.50781,5.116414209e-12,3.218154929e-12,1.635988031e-11,9.242696074e-13,4.994324730e-13,1.446405378e-12,1.801426615e-12,1.133200721e-12,3.067527222e-13,3.180635537e-12,1.208782667e-11,1.108032911e-12,8.702837860e-13,1.707988482e-12,2.809931187e-12,2.463000837e-12,2.839570958e-12,6.636084757e-13,3.544726435e-13,7.814845662e-13,1.156753408e-12,1.507161693e-12,7.266209504e-12,2.129475077e-12,3.601944364e-12,1.255119311e-12,5.042511005e-12,1.869868467e-12,2.237282929e-12,2.501808009e-11,2.318891771e-12,1.072339396e-12
0.51562,4.605983492e-12,2.817925393e-12,1.432780489e-11,8.349318502e-13,4.723033231e-13,1.310968073e-12,1.690464733e-12,9.737381525e-13,2.644759033e-13,2.789215063e-12,1.137484793e-11,9.699931063e-13,7.620738476e-13,1.504365294e-12,2.511459185e-12,2.232723986e-12,2.547978393e-12,6.604049666e-13,3.673709535e-13,7.472716691e-13,1.108338996e-12,1.312388992e-12,6.404506107e-12,2.016557524e-12,3.307486261e-12,1.214772176e-12,4.549794673e-12,1.764451882e-12,2.182075994e-12,2.232715314e-11,2.206048764e-12,9.597384374e-13
0.52344,4.149265746e-12,2.469140791e-12,1.254293834e-11,7.581788586e-13,4.489496364e-13,1.194327181e-12,1.588071574e-12,8.356978299e-13,2.279376108e-13,2.457233074e-12,1.070115225e-11,8.533166918e-13,6.682624887e-13,1.328330236e-12,2.256598633e-12,2.035428024e-12,2.295538631e-12,6.629791229e-13,3.812642479e-13,7.186334963e-13,1.068732759e-12,1.142714859e-12,5.649770201e-12,1.920041654e-12,3.059908413e-12,1.179068217e-12,4.120703108e-12,1.674908114e-12,2.134313722e-12,1.995392785e-11,2.114333703e-12,8.594747089e-13
0.53125,3.739561859e-12,2.163515089e-12,1.096950089e-11,6.914178462e-13,4.288609974e-13,1.093213929e-12,1.497107440e-12,7.155874982e-13,1.966336872e-13,2.174911981e-12,1.005908027e-11,7.552830439e-13,5.876830725e-13,1.176458003e-12,2.038457320e-12,1.866852744e-12,2.077248528e-12,6.707633299e-13,3.963558312e-13,6.939866341e-13,1.037168672e-12,9.945680785e-13,4.985431919e-12,1.836285645e-12,2.850494263e-12,1.147015440e-12,3.746770260e-12,1.598945928e-12,2.094986004e-12,1.784812047e-11,2.039237300e-12,7.702576218e-13
0.53906,3.373562157e-12,1.896866887e-12,9.582461210e-12,6.335536659e-13,4.117476302e-13,1.005157129e-12,1.415181327e-12,6.108145253e-13,1.700361391e-13,1.932780235e-12,9.450215678e-12,6.739615334e-13,5.190034161e-13,1.046727687e-12,1.853378544e-12,1.725139134e-12,1.890456039e-12,6.838668830e-13,4.131378571e-13,6.724527062e-13,1.012127448e-12,8.655481629e-13,4.400133866e-12,1.761376247e-12,2.674691831e-12,1.117672614e-12,3.418591718e-12,1.536769166e-12,2.062463985e-12,1.596911328e-11,1.978282008e-12,6.910506881e-13
0.54688,2.933226441e-12,1.642906451e-12,8.189232495e-12,5.922573685e-13,4.052077304e-13,9.184002888e-13,1.341652048e-12,5.181700453e-13,1.458908467e-13,1.680802745e-12,8.865998463e-12,5.751330980e-13,4.840400805e-13,9.069843869e-13,1.637257169e-12,1.571203579e-12,1.697823142e-12,6.791870812e-13,4.388802878e-13,6.343571363e-13,9.897059420e-13,7.159216653e-13,3.861834220e-12,1.725851446e-12,2.523579174e-12,1.086798561e-12,3.081745094e-12,1.494252236e-12,2.033391137e-12,1.378666419e-11,1.978606166e-12,6.180070399e-13
0.55469,2.639819155e-12,1.447296775e-12,7.129609870e-12,5.557584804e-13,3.920891744e-13,8.541736012e-13,1.272176484e-12,4.418463019e-13,1.290545714e-13,1.506404020e-12,8.342807288e-12,5.219691612e-13,4.475956676e-13,8.190823661e-13,1.505987254e-12,1.476776837e-12,1.564321646e-12,6.910371992e-13,4.633553184e-13,6.165867518e-13,9.770867377e-13,6.157286403e-13,3.424271174e-12,1.678772866e-12,2.426675924e-12,1.063870025e-12,2.829688380e-12,1.466649809e-12,2.010188038e-12,1.226175102e-11,1.956413852e-12,5.567866597e-13
0.5625,2.410530178e-12,1.277086624e-12,6.233043231e-12,5.169665574e-13,3.759557645e-13,8.009834575e-13,1.220635779e-12,3.770482442e-13,1.154318179e-13,1.382523469e-12,7.853660314e-12,4.945458298e-13,4.046401999e-13,7.584442679e-13,1.436422307e-12,1.427594847e-12,1.480181228e-12,7.195002572e-13,4.832881190e-13,6.056806947e-13,9.661051068e-13,5.400143256e-13,3.006707383e-12,1.617318233e-12,2.308751094e-12,1.043433345e-12,2.624205449e-12,1.444007754e-12,1.995256950e-12,1.114067383e-11,1.910194418e-12,5.040405577e-13
0.57031,2.196706042e-12,1.129306218e-12,5.439431267e-12,4.846939093e-13,3.651644943e-13,7.553801374e-13,1.168266756e-12,3.212700272e-13,1.031427122e-13,1.274289779e-12,7.383632766e-12,4.689252504e-13,3.685615176e-13,7.018095881e-13,1.369846587e-12,1.381796982e-12,1.403540870e-12,7.488870632e-13,5.054291204e-13,5.935581489e-13,9.555802701e-13,4.728174513e-13,2.654034523e-12,1.570400653e-12,2.231214409e-12,1.022392690e-12,2.444273549e-12,1.429822032e-12,1.983808516e-12,1.006421633e-11,1.882440156e-12,4.560453743e-13
0.57812,2.010999267e-12,1.001800568e-12,4.746529412e-12,4.568980468e-13,3.573961091e-13,7.176520599e-13,1.109639338e-12,2.723728970e-13,9.247955447e-14,1.184803855e-12,6.933999198e-12,4.492148191e-13,3.364225959e-13,6.529546204e-13,1.311712853e-12,1.342723012e-12,1.335784279e-12,7.819838408e-13,5.300392096e-13,5.829880969e-13,9.449475563e-13,4.169038128e-13,2.356821926e-12,1.530054447e-12,2.192394584e-12,1.001653735e-12,2.290234829e-12,1.420885012e-12,1.975235140e-12,9.083530901e-12,1.863837299e-12,4.127426751e-13
0.58594,1.836910407e-12,8.902473557e-13,4.136709051e-12,4.324303630e-13,3.512787311e-13,6.834941721e-13,1.066194872e-12,2.328106667e-13,8.316532384e-14,1.116598923e-12,6.509468086e-12,4.353617232e-13,3.083719910e-13,6.115115070e-13,1.275723545e-12,1.319734734e-12,1.288353744e-12,8.203570248e-13,5.549930230e-13,5.714230220e-13,9.337580971e-13,3.671971553e-13,2.077499699e-12,1.491392133e-12,2.132362838e-12,9.806019461e-13,2.155558625e-12,1.408656115e-12,1.970877893e-12,8.239889689e-12,1.847721769e-12,3.743577286e-13
0.59375,1.683271189e-12,7.933455679e-13,3.605440551e-12,4.107773151e-13,3.473156944e-13,6.536178675e-13,1.030168491e-12,1.986087394e-13,7.545786603e-14,1.059814177e-12,6.117301465e-12,4.264400223e-13,2.843003983e-13,5.769887651e-13,1.249147008e-12,1.302724989e-12,1.248765183e-12,8.613347745e-13,5.808588375e-13,5.610486349e-13,9.250189874e-13,3.252579399e-13,1.839144500e-12,1.458553234e-12,2.081810720e-12,9.598497031e-13,2.040744118e-12,1.395842779e-12,1.969010370e-12,7.480288110e-12,1.835504343e-12,3.395378612e-13
0.60156,1.557187642e-12,7.094538184e-13,3.151482471e-12,3.901858672e-13,3.444150117e-13,6.300074537e-13,9.910879649e-13,1.681469226e-13,6.940782989e-14,1.017417059e-12,5.752477773e-12,4.246957551e-13,2.617785472e-13,5.508166732e-13,1.231337318e-12,1.291163192e-12,1.215648630e-12,9.064583615e-13,6.069685935e-13,5.531745098e-13,9.184137873e-13,2.935110656e-13,1.642342783e-12,1.426852994e-12,2.050988791e-12,9.404515026e-13,1.950038687e-12,1.384937267e-12,1.971750012e-12,6.819420333e-12,1.822164803e-12,3.078970553e-13
0.60938,1.398549029e-12,5.857046427e-13,2.720801644e-12,3.464825509e-13,3.392536047e-13,6.133924208e-13,8.907202678e-13,1.257057284e-13,6.581944532e-14,9.519784511e-13,5.395490464e-12,4.324845398e-13,2.238059204e-13,5.513423113e-13,1.269560051e-12,1.315557306e-12,1.219246873e-12,9.736575612e-13,6.294739012e-13,5.484928465e-13,9.152513786e-13,2.884445331e-13,1.504501225e-12,1.382096714e-12,2.078751619e-12,9.278981869e-13,1.962606742e-12,1.384336773e-12,2.014583069e-12,5.932893776e-12,1.745776011e-12,2.795822027e-13
0.61719,1.289189657e-12,5.140244784e-13,2.394059318e-12,3.244823056e-13,3.390197689e-13,5.956270721e-13,8.466452890e-13,1.041185035e-13,6.135594703e-14,9.276051937e-13,5.092746518e-12,4.395920419e-13,2.014167737e-13,5.330309431e-13,1.273246562e-12,1.311753624e-12,1.199140159e-12,1.030117106e-12,6.553875937e-13,5.424854641e-13,9.107190088e-13,2.738667200e-13,1.363721945e-12,1.353060962e-12,2.046714716e-12,9.042731408e-13,1.919744786e-12,1.379451293e-12,2.030931827e-12,5.381625806e-12,1.722861611e-12,2.531015692e-13
0.625,1.207030727e-12,4.733373174e-13,2.097286476e-12,3.178467520e-13,3.431885418e-13,5.804027372e-13,8.374862325e-13,9.222528119e-14,5.842634525e-14,9.302013894e-13,4.820580478e-12,4.483506111e-13,1.945774262e-13,5.079792699e-13,1.236757910e-12,1.282987978e-12,1.155759556e-12,1.074009690e-12,6.855304486e-13,5.351030360e-13,9.128740624e-13,2.465016320e-13,1.235144894e-12,1.338811305e-12,1.994294500e-12,8.779027621e-13,1.828180051e-12,1.363602807e-12,2.025293239e-12,4.950111304e-12,1.743428217e-12,2.276738425e-13
0.63281,1.133399048e-12,4.324206724e-13,1.844942136e-12,3.087472415e-13,3.453964549e-13,5.662288573e-13,8.271309999e-13,8.003779965e-14,5.839573390e-14,9.301280079e-13,4.561257946e-12,4.629581197e-13,1.928317366e-13,4.998768866e-13,1.226197183e-12,1.273401071e-12,1.131915229e-12,1.120440937e-12,7.169123593e-13,5.293869851e-13,9.210058841e-13,2.281151794e-13,1.134741093e-12,1.321731791e-12,1.938092241e-12,8.573550880e-13,1.764513124e-12,1.340992884e-12,2.026152807e-12,4.545860862e-12,1.746734192e-12,2.054139740e-13
0.64062,1.070953149e-12,3.933153205e-13,1.624039234e-12,2.985725081e-13,3.456467875e-13,5.510963584e-13,8.216504340e-13,6.868360310e-14,6.080962071e-14,9.287087648e-13,4.315843114e-12,4.818852691e-13,1.975967577e-13,5.044552819e-13,1.237789342e-12,1.281177393e-12,1.123855044e-12,1.167459893e-12,7.501700079e-13,5.236371659e-13,9.342348584e-13,2.143528037e-13,1.049146530e-12,1.304610888e-12,1.868815261e-12,8.402347671e-13,1.713659367e-12,1.313394488e-12,2.027586047e-12,4.189919894e-12,1.738144670e-12,1.857654812e-13
0.64844,1.020059812e-12,3.649828729e-13,1.440370032e-12,2.926180841e-13,3.463287992e-13,5.388904259e-13,8.199958131e-13,6.062119178e-14,6.553421665e-14,9.407965943e-13,4.081704676e-12,5.063239725e-13,2.096650774e-13,5.178022379e-13,1.252756917e-12,1.296716377e-12,1.123932497e-12,1.211033137e-12,7.860710061e-13,5.173999856e-13,9.525759024e-13,2.009174817e-13,9.858765696e-13,1.296693389e-12,1.810260672e-12,8.253830909e-13,1.664363207e-12,1.285439283e-12,2.025431892e-12,3.854112478e-12,1.738500799e-12,1.681572539e-13
0.65625,9.809916951e-13,3.413161082e-13,1.285766487e-12,2.874658690e-13,3.451844472e-13,5.274078113e-13,8.188096338e-13,5.381464222e-14,7.222389237e-14,9.544089172e-13,3.856945910e-12,5.342176266e-13,2.277836380e-13,5.415487770e-13,1.279607115e-12,1.325263985e-12,1.138018063e-12,1.253390326e-12,8.250235498e-13,5.118306296e-13,9.719751557e-13,1.905105706e-13,9.324644240e-13,1.290543396e-12,1.752149575e-12,8.135400853e-13,1.620672481e-12,1.258124514e-12,2.020561199e-12,3.557495578e-12,1.733598081e-12,1.533194315e-13
0.66406,9.564050007e-13,3.215699263e-13,1.151939574e-12,2.826719845e-13,3.419245249e-13,5.149150238e-13,8.236774317e-13,4.805728469e-14,8.027500608e-14,9.658985583e-13,3.641269741e-12,5.635119404e-13,2.518540231e-13,5.738411223e-13,1.320396474e-12,1.367897469e-12,1.165856826e-12,1.294600129e-12,8.669605063e-13,5.059077373e-13,9.897621010e-13,1.812766369e-13,8.775123125e-13,1.282985613e-12,1.686709292e-12,8.035989378e-13,1.575671676e-12,1.230567695e-12,2.009350800e-12,3.319879838e-12,1.721576120e-12,1.412349445e-13
0.67188,9.362379674e-13,3.053158184e-13,1.042592009e-12,2.786757230e-13,3.382202892e-13,5.028862019e-13,8.305774328e-13,4.337847328e-14,8.920689347e-14,9.813543484e-13,3.436284882e-12,5.948398736e-13,2.776501603e-13,6.134066062e-13,1.373444533e-12,1.423428482e-12,1.207872752e-12,1.333941459e-12,9.098415738e-13,4.996934259e-13,1.005644710e-12,1.747065336e-13,8.334353444e-13,1.279644182e-12,1.636689316e-12,7.955403397e-13,1.538466649e-12,1.208163965e-12,1.996968126e-12,3.073857623e-12,1.708992688e-12,1.316652554e-13
0.67969,1.066536033e-12,3.326035715e-13,1.045737291e-12,2.936137607e-13,3.298532531e-13,4.350292769e-13,8.572135887e-13,2.452140679e-14,9.686470477e-14,9.180502052e-13,3.255816619e-12,5.967779410e-13,3.179821226e-13,6.231783666e-13,1.366424387e-12,1.440240620e-12,1.210822470e-12,1.352299537e-12,9.584134566e-13,4.844799253e-13,1.014518447e-12,1.429592391e-13,7.040876928e-13,1.261479480e-12,1.478487640e-12,7.835539960e-13,1.376106522e-12,1.177929209e-12,1.929650624e-12,3.276225272e-12,1.710441859e-12,1.248773767e-13
0.6875,1.111069234e-12,3.502936782e-13,1.036407387e-12,3.022410480e-13,3.241528068e-13,4.111450189e-13,8.720087645e-13,2.145436735e-14,1.073798411e-13,9.281359781e-13,3.059780127e-12,6.257635596e-13,3.536132033e-13,6.708078182e-13,1.422068692e-12,1.510763630e-12,1.269358777e-12,1.382382136e-12,1.007635284e-12,4.767114957e-13,1.024794844e-12,1.340069448e-13,6.561646019e-13,1.266945863e-12,1.412242316e-12,7.784814519e-13,1.307498884e-12,1.145052354e-12,1.889570943e-12,3.258978302e-12,1.705819339e-12,1.192802481e-13
0.69531,1.060316440e-12,3.258777128e-13,9.333402518e-13,2.913638495e-13,3.163562340e-13,4.148983193e-13,8.725541754e-13,2.208353768e-14,1.172628705e-13,9.536937069e-13,2.860629389e-12,6.604078578e-13,3.780925043e-13,7.360079162e-13,1.532832737e-12,1.621533982e-12,1.368935637e-12,1.426094855e-12,1.054888381e-12,4.683485230e-13,1.025965572e-12,1.394313498e-13,6.362538649e-13,1.279995402e-12,1.406634926e-12,7.773231992e-13,1.323786687e-12,1.126171022e-12,1.884469384e-12,2.912999244e-12,1.662683615e-12,1.155679600e-13
0.70312,1.053205693e-12,3.168282071e-13,8.796369662e-13,2.857056474e-13,3.083300599e-13,4.077289056e-13,8.799652632e-13,2.208790041e-14,1.245032660e-13,9.755459359e-13,2.686406532e-12,6.868696188e-13,3.977385832e-13,7.849101310e-13,1.619493989e-12,1.710622648e-12,1.448594720e-12,1.464704879e-12,1.099561702e-12,4.595156125e-13,1.016296172e-12,1.427603184e-13,6.010828428e-13,1.292645650e-12,1.394288885e-12,7.712685300e-13,1.311260390e-12,1.118371301e-12,1.865283781e-12,2.694878841e-12,1.631436069e-12,1.133179115e-13
0.71094,1.077146154e-12,3.242701944e-13,8.675012507e-13,2.863790564e-13,3.012149137e-13,3.943359357e-13,8.885279377e-13,2.280368086e-14,1.293288177e-13,1.002604366e-12,2.528941034e-12,7.083351883e-13,4.116746051e-13,8.203272609e-13,1.682122073e-12,1.779258098e-12,1.509881730e-12,1.500213508e-12,1.141468951e-12,4.504857280e-13,9.977487282e-13,1.448873684e-13,5.577225811e-13,1.309499633e-12,1.379366088e-12,7.611079165e-13,1.275244110e-12,1.118636626e-12,1.834664386e-12,2.567236570e-12,1.615422783e-12,1.117462015e-13
0.71875,1.093436860e-12,3.190088985e-13,8.421588929e-13,2.797338988e-13,2.922314619e-13,3.845237091e-13,8.945323320e-13,2.306871835e-14,1.318684058e-13,1.014154395e-12,2.381677372e-12,7.213569599e-13,4.199896391e-13,8.488403180e-13,1.751032053e-12,1.847113673e-12,1.572230445e-12,1.540138133e-12,1.181747716e-12,4.386704649e-13,9.717171031e-13,1.497178809e-13,5.107319589e-13,1.328280720e-12,1.367842213e-12,7.495344069e-13,1.262267938e-12,1.128788055e-12,1.814734275e-12,2.390545277e-12,1.578240974e-12,1.108654161e-13
0.72656,1.124506078e-12,3.142648084e-13,8.282240917e-13,2.723834403e-13,2.839198298e-13,3.745265394e-13,9.040094431e-13,2.364525465e-14,1.325325768e-13,1.024282599e-12,2.254777320e-12,7.299379724e-13,4.231126414e-13,8.663260960e-13,1.805479838e-12,1.898003432e-12,1.619054322e-12,1.580380831e-12,1.219573105e-12,4.278435416e-13,9.421030418e-13,1.551520752e-13,4.634355081e-13,1.347883554e-12,1.358205279e-12,7.336821561e-13,1.246844439e-12,1.145771241e-12,1.794402888e-12,2.243923108e-12,1.540912377e-12,1.096204648e-13
0.73438,1.166556616e-12,3.163825218e-13,8.329314500e-13,2.681621707e-13,2.780470958e-13,3.641012599e-13,9.137449597e-13,2.540012000e-14,1.316961583e-13,1.045568470e-12,2.146620489e-12,7.386160634e-13,4.196969782e-13,8.741122436e-13,1.838847980e-12,1.927393362e-12,1.646124763e-12,1.619596801e-12,1.253283942e-12,4.193095801e-13,9.103463621e-13,1.623312846e-13,4.242168812e-13,1.372886356e-12,1.352414079e-12,7.135941725e-13,1.223836728e-12,1.167911850e-12,1.771956426e-12,2.108997406e-12,1.516032424e-12,1.076364702e-13
0.74219,1.226696354e-12,3.176501847e-13,8.511943116e-13,2.620969518e-13,2.719319285e-13,3.516836543e-13,9.256376786e-13,2.637350625e-14,1.294948852e-13,1.053722751e-12,2.051795084e-12,7.408048101e-13,4.145729776e-13,8.717969658e-13,1.858473836e-12,1.940248292e-12,1.658659488e-12,1.657304826e-12,1.284467920e-12,4.091767661e-13,8.771505070e-13,1.688730294e-13,3.836063672e-13,1.402326682e-12,1.331545149e-12,6.909517995e-13,1.201743024e-12,1.193238417e-12,1.750675826e-12,1.991392304e-12,1.483665778e-12,1.055057006e-13
0.75,1.308958182e-12,3.209513026e-13,8.858703924e-13,2.555577743e-13,2.665923526e-13,3.392098000e-13,9.404367503e-13,2.732769881e-14,1.268937389e-13,1.058185820e-12,1.970925646e-12,7.402871962e-13,4.097244392e-13,8.624275633e-13,1.862620612e-12,1.936464848e-12,1.656709547e-12,1.692498307e-12,1.314036824e-12,3.994980047e-13,8.477080476e-13,1.743910503e-13,3.462478982e-13,1.434840833e-12,1.299766274e-12,6.657722664e-13,1.175881355e-12,1.218992723e-12,1.727523271e-12,1.912547204e-12,1.449030217e-12,1.027554679e-13
0.75781,1.393014700e-12,3.236668587e-13,9.189010246e-13,2.488812769e-13,2.633862441e-13,3.316995925e-13,9.537857206e-13,2.928701913e-14,1.245960102e-13,1.072700961e-12,1.902810910e-12,7.427877862e-13,4.035282757e-13,8.517992910e-13,1.857047911e-12,1.921129205e-12,1.645816424e-12,1.726688310e-12,1.341776975e-12,3.932270714e-13,8.248310291e-13,1.827403709e-13,3.249169387e-13,1.471860659e-12,1.274494414e-12,6.397881973e-13,1.156334754e-12,1.247490960e-12,1.708781227e-12,1.812581482e-12,1.418492977e-12,9.916063018e-14
0.76562,1.508539130e-12,3.563509560e-13,8.552484298e-13,2.470504521e-13,2.662175152e-13,3.537671695e-13,9.966707423e-13,5.132801332e-14,1.245317498e-13,1.193668099e-12,1.846506389e-12,7.844251246e-13,3.860479762e-13,8.687081594e-13,1.902117453e-12,1.936634963e-12,1.667302024e-12,1.774671574e-12,1.363091769e-12,4.104887602e-13,8.098647900e-13,2.085257789e-13,3.173167683e-13,1.516139907e-12,1.289954740e-12,6.120418970e-13,1.142354020e-12,1.280526846e-12,1.696600383e-12,1.644274037e-12,1.406333400e-12,8.961448896e-14
0.77344,1.660222364e-12,3.857011331e-13,9.460871030e-13,2.455242224e-13,2.645102153e-13,3.531881160e-13,1.031564399e-12,5.860754346e-14,1.221194145e-13,1.222664160e-12,1.778826111e-12,7.893515319e-13,3.831740436e-13,8.541123695e-13,1.890193930e-12,1.905103835e-12,1.645885315e-12,1.809409187e-12,1.388105189e-12,4.101781225e-13,7.912412310e-13,2.238209974e-13,3.154370467e-13,1.568973168e-12,1.277964689e-12,5.855930051e-13,1.130813352e-12,1.320080516e-12,1.678611256e-12,1.619959289e-12,1.378270963e-12,8.871595277e-14
0.78125,1.792725365e-12,3.946642000e-13,1.042318101e-12,2.428905439e-13,2.627662506e-13,3.328853649e-13,1.040285413e-12,5.171241688e-14,1.213870713e-13,1.205735436e-12,1.713801616e-12,7.819216988e-13,3.906944635e-13,8.308569789e-13,1.833001731e-12,1.843241700e-12,1.589693897e-12,1.831076936e-12,1.417082230e-12,4.010868941e-13,7.780572680e-13,2.248671464e-13,2.958862336e-13,1.598362186e-12,1.211983334e-12,5.575358587e-13,1.082033377e-12,1.357677992e-12,1.647013937e-12,1.628432140e-12,1.350391333e-12,8.974646102e-14
0.78906,1.950409084e-12,4.110402691e-13,1.143398078e-12,2.409690802e-13,2.627078179e-13,3.252368080e-13,1.055832102e-12,5.055927392e-14,1.237850115e-13,1.203955684e-12,1.654176370e-12,7.857306139e-13,4.044898262e-13,8.245997284e-13,1.800956164e-12,1.802214383e-12,1.557834342e-12,1.851992719e-12,1.447212977e-12,4.015222983e-13,7.754710549e-13,2.313635508e-13,2.960194403e-13,1.647856010e-12,1.164316728e-12,5.320473942e-13,1.056697531e-12,1.399270438e-12,1.623855205e-12,1.621647549e-12,1.319677119e-12,8.877002516e-14
0.79688,2.147349570e-12,4.386001686e-13,1.282787310e-12,2.416040396e-13,2.637028782e-13,3.215460292e-13,1.077919203e-12,5.137035497e-14,1.287401304e-13,1.200180257e-12,1.594495841e-12,7.939333379e-13,4.256424709e-13,8.288186088e-13,1.780615882e-12,1.773125130e-12,1.542088478e-12,1.870214391e-12,1.478727429e-12,4.086483381e-13,7.799079028e-13,2.408898292e-13,3.108507036e-13,1.712556210e-12,1.135370583e-12,5.083198570e-13,1.044723136e-12,1.446072425e-12,1.602942832e-12,1.624760200e-12,1.286911575e-12,8.743120199e-14
0.80469,2.343376617e-12,4.670612633e-13,1.409467271e-12,2.448224928e-13,2.657016369e-13,3.145349610e-13,1.089769920e-12,5.055594222e-14,1.360106831e-13,1.203950513e-12,1.536783473e-12,8.071996292e-13,4.515143616e-13,8.415485735e-13,1.754961012e-12,1.745396670e-12,1.524443912e-12,1.882933991e-12,1.512077908e-12,4.167152200e-13,7.886539259e-13,2.469364029e-13,3.169388302e-13,1.754930775e-12,1.085923783e-12,4.845797652e-13,1.006466220e-12,1.488802062e-12,1.570595522e-12,1.664557035e-12,1.261770405e-12,8.597568220e-14
0.8125,2.554589253e-12,4.996874577e-13,1.542123249e-12,2.489624914e-13,2.672269304e-13,3.120772801e-13,1.103185138e-12,5.084250759e-14,1.448926106e-13,1.208922143e-12,1.481943459e-12,8.224994368e-13,4.816891118e-13,8.639483705e-13,1.742972881e-12,1.732292478e-12,1.523195064e-12,1.892739790e-12,1.546887334e-12,4.287309215e-13,8.016834218e-13,2.535823333e-13,3.272717311e-13,1.808784586e-12,1.041333054e-12,4.645813832e-13,9.756374882e-13,1.534714783e-12,1.539397796e-12,1.708181003e-12,1.232822862e-12,8.477246209e-14
0.82031,2.792299357e-12,5.377687470e-13,1.707412859e-12,2.546935479e-13,2.683319945e-13,3.131912470e-13,1.119234296e-12,5.092780635e-14,1.548504487e-13,1.204346761e-12,1.430397256e-12,8.363964045e-13,5.148859533e-13,8.927253928e-13,1.743319091e-12,1.732240230e-12,1.538927836e-12,1.899815992e-12,1.582040654e-12,4.467062714e-13,8.173712025e-13,2.624320498e-13,3.490992438e-13,1.883932115e-12,1.018359604e-12,4.485247090e-13,9.638647709e-13,1.588776675e-12,1.512841875e-12,1.736149991e-12,1.199120789e-12,8.428629158e-14
0.82812,3.045622903e-12,5.841741892e-13,1.872057239e-12,2.648759019e-13,2.696550374e-13,3.157214228e-13,1.130066430e-12,5.205334256e-14,1.653955930e-13,1.209473176e-12,1.382849716e-12,8.529094223e-13,5.468045709e-13,9.273652016e-13,1.750997196e-12,1.741416269e-12,1.562711539e-12,1.904965581e-12,1.616246468e-12,4.673707261e-13,8.331331524e-13,2.711189095e-13,3.640851268e-13,1.948519884e-12,9.900694131e-13,4.340160404e-13,9.394702288e-13,1.638545914e-12,1.480368666e-12,1.796013673e-12,1.173247297e-12,8.359001659e-14
0.83594,3.322605976e-12,6.393771621e-13,2.048640091e-12,2.787832762e-13,2.697052677e-13,3.204185819e-13,1.140253993e-12,5.406771735e-14,1.754210318e-13,1.213536627e-12,1.334635111e-12,8.664651821e-13,5.766995049e-13,9.633565720e-13,1.766388636e-12,1.758490716e-12,1.596492600e-12,1.908651491e-12,1.648830948e-12,4.901152496e-13,8.479946718e-13,2.798780300e-13,3.752912156e-13,2.018521027e-12,9.609059149e-13,4.225840454e-13,9.142298469e-13,1.685246332e-12,1.447520197e-12,1.883850847e-12,1.148400771e-12,8.337903667e-14
0.84375,3.610857050e-12,6.927379768e-13,2.234471464e-12,2.927079127e-13,2.679466295e-13,3.290606160e-13,1.148244395e-12,5.488980725e-14,1.843235507e-13,1.205745860e-12,1.285853142e-12,8.732610002e-13,6.041306775e-13,9.958857389e-13,1.780732978e-12,1.775310026e-12,1.633458239e-12,1.909422562e-12,1.679217190e-12,5.169678341e-13,8.623637131e-13,2.889527145e-13,3.910421421e-13,2.103264145e-12,9.463611545e-13,4.144140313e-13,9.038974685e-13,1.739474425e-12,1.421622928e-12,1.944065826e-12,1.117020903e-12,8.411906128e-14
0.85156,3.919927615e-12,7.534287546e-13,2.425002090e-12,3.095441847e-13,2.654142356e-13,3.412569033e-13,1.152155450e-12,5.699583691e-14,1.919614650e-13,1.204185857e-12,1.240390779e-12,8.780490859e-13,6.262375107e-13,1.025336227e-12,1.794502375e-12,1.791534749e-12,1.670831201e-12,1.909244966e-12,1.707124787e-12,5.473528877e-13,8.761346343e-13,2.989704891e-13,4.041080658e-13,2.185598826e-12,9.367577081e-13,4.076193088e-13,8.903572080e-13,1.797713304e-12,1.395882716e-12,2.018159914e-12,1.088780021e-12,8.480424048e-14
0.85938,4.267205834e-12,8.278502706e-13,2.644939030e-12,3.310931407e-13,2.618549262e-13,3.545633234e-13,1.155382134e-12,5.999042685e-14,1.976842263e-13,1.202892242e-12,1.197493962e-12,8.776286663e-13,6.422732128e-13,1.047938094e-12,1.806649145e-12,1.804999874e-12,1.708795141e-12,1.908989420e-12,1.732427421e-12,5.804838714e-13,8.880498482e-13,3.104088250e-13,4.153562915e-13,2.273157625e-12,9.301854041e-13,4.027056904e-13,8.738573731e-13,1.855970428e-12,1.369584573e-12,2.130736857e-12,1.065363213e-12,8.592606419e-14
0.86719,4.624566201e-12,9.003761259e-13,2.865207905e-12,3.528452402e-13,2.567649894e-13,3.727108540e-13,1.154607805e-12,6.174227304e-14,2.010740343e-13,1.193302369e-12,1.159607834e-12,8.686087395e-13,6.532548640e-13,1.059577603e-12,1.807542211e-12,1.807196489e-12,1.738582028e-12,1.906660538e-12,1.754909505e-12,6.158674583e-13,8.988503144e-13,3.209801439e-13,4.252052657e-13,2.368937409e-12,9.264198877e-13,3.999983132e-13,8.648041595e-13,1.916340414e-12,1.349613088e-12,2.228270797e-12,1.040039324e-12,8.784197973e-14
0.875,5.005335677e-12,9.785697293e-13,3.091477067e-12,3.772017135e-13,2.510771287e-13,3.965550032e-13,1.150253119e-12,6.422907061e-14,2.025454224e-13,1.185240037e-12,1.130893841e-12,8.549692481e-13,6.591217633e-13,1.062972603e-12,1.801780994e-12,1.801657858e-12,1.763989760e-12,1.905087808e-12,1.774941165e-12,6.550952027e-13,9.114722105e-13,3.322700356e-13,4.345929347e-13,2.470477494e-12,9.237116955e-13,3.988729657e-13,8.595019343e-13,1.980016443e-12,1.336394629e-12,2.335363448e-12,1.016840526e-12,9.009922324e-14
0.88281,5.432931553e-12,1.069702044e-12,3.353579937e-12,4.063721095e-13,2.452536340e-13,4.218028226e-13,1.146084897e-12,6.719538048e-14,2.023894865e-13,1.176774891e-12,1.111768666e-12,8.371611962e-13,6.603454300e-13,1.058759853e-12,1.792034541e-12,1.790261274e-12,1.788428370e-12,1.905688465e-12,1.792660639e-12,7.002108256e-13,9.258616807e-13,3.461262344e-13,4.497264373e-13,2.582187082e-12,9.294133653e-13,3.994922829e-13,8.579245067e-13,2.048794499e-12,1.329125924e-12,2.475485008e-12,9.993498682e-13,9.313341768e-14
0.89062,5.880678833e-12,1.161076523e-12,3.616094639e-12,4.363595791e-13,2.388839712e-13,4.496497663e-13,1.138763964e-12,6.934303036e-14,2.006056821e-13,1.165581295e-12,1.101704655e-12,8.136081641e-13,6.587384223e-13,1.044950964e-12,1.772182081e-12,1.767861802e-12,1.802915101e-12,1.904616451e-12,1.808121275e-12,7.475569726e-13,9.415963829e-13,3.587870128e-13,4.642434815e-13,2.695632614e-12,9.363326707e-13,4.014308444e-13,8.573602617e-13,2.120350039e-12,1.327778569e-12,2.615636439e-12,9.845972983e-13,9.695239605e-14
0.89844,6.357622985e-12,1.258427057e-12,3.889687174e-12,4.683313669e-13,2.323938915e-13,4.811934129e-13,1.128147959e-12,7.166461474e-14,1.977653049e-13,1.153393701e-12,1.097016014e-12,7.861057206e-13,6.555687726e-13,1.024205069e-12,1.747524719e-12,1.738942375e-12,1.813500070e-12,1.903180738e-12,1.823085304e-12,7.972165925e-13,9.626209418e-13,3.716534147e-13,4.802818748e-13,2.815262507e-12,9.415128455e-13,4.045800225e-13,8.585322559e-13,2.190884253e-12,1.332317778e-12,2.770640763e-12,9.722881843e-13,1.015929762e-13
0.90625,6.877215831e-12,1.365233539e-12,4.195772738e-12,5.031750170e-13,2.265053593e-13,5.153756082e-13,1.116380570e-12,7.385524220e-14,1.946548284e-13,1.139460109e-12,1.096283514e-12,7.569903874e-13,6.519126326e-13,9.994865720e-13,1.719427359e-12,1.705938155e-12,1.827112468e-12,1.904230488e-12,1.839195439e-12,8.536126219e-13,9.903657669e-13,3.876333024e-13,5.073198047e-13,2.946176911e-12,9.558713044e-13,4.093087219e-13,8.691864410e-13,2.261748352e-12,1.345388715e-12,2.945230447e-12,9.631039177e-13,1.075675163e-13
0.91406,7.422188078e-12,1.476440094e-12,4.505728472e-12,5.402342505e-13,2.213946077e-13,5.511136539e-13,1.100896908e-12,7.574805350e-14,1.915407509e-13,1.128390046e-12,1.103706879e-12,7.274165727e-13,6.488348964e-13,9.712686636e-13,1.682870968e-12,1.665806260e-12,1.837106230e-12,1.905500769e-12,1.855878635e-12,9.134190409e-13,1.021999435e-12,4.033633743e-13,5.364724997e-13,3.074641144e-12,9.700201060e-13,4.148302746e-13,8.799844062e-13,2.334176183e-12,1.364764914e-12,3.131682160e-12,9.595267285e-13,1.144769526e-13
0.92188,7.998184238e-12,1.596898950e-12,4.833198879e-12,5.813275414e-13,2.169257706e-13,5.872651104e-13,1.083516851e-12,7.747961922e-14,1.886315557e-13,1.116951510e-12,1.118825425e-12,6.970327633e-13,6.471418671e-13,9.414560894e-13,1.645279096e-12,1.623360261e-12,1.846460454e-12,1.907079844e-12,1.873264707e-12,9.752006305e-13,1.058076903e-12,4.192635874e-13,5.677621348e-13,3.207975809e-12,9.815107738e-13,4.215598153e-13,8.896463340e-13,2.411245543e-12,1.388728203e-12,3.342992157e-12,9.614200164e-13,1.223694015e-13
0.92969,8.597903646e-12,1.721272703e-12,5.181247025e-12,6.238133218e-13,2.130313347e-13,6.263550194e-13,1.067036628e-12,7.853552746e-14,1.864415631e-13,1.103442887e-12,1.138645601e-12,6.666907234e-13,6.481845772e-13,9.127805425e-13,1.612040259e-12,1.582970853e-12,1.861375127e-12,1.911475961e-12,1.893304324e-12,1.043251917e-12,1.100164583e-12,4.373770227e-13,6.086971055e-13,3.351582339e-12,1.003129680e-12,4.305462500e-13,9.110440540e-13,2.494297722e-12,1.421719267e-12,3.556384737e-12,9.642335086e-13,1.316905367e-13
0.9375,9.212483866e-12,1.849198575e-12,5.532277838e-12,6.674400490e-13,2.100988903e-13,6.676958283e-13,1.049276277e-12,7.984484447e-14,1.852228963e-13,1.096452969e-12,1.163096703e-12,6.387900869e-13,6.515509068e-13,8.866109974e-13,1.579809802e-12,1.544042899e-12,1.880613833e-12,1.917885457e-12,1.915958594e-12,1.117485502e-12,1.146423224e-12,4.564194619e-13,6.525310117e-13,3.491483421e-12,1.027258065e-12,4.405453436e-13,9.344322826e-13,2.576670969e-12,1.459759644e-12,3.777049441e-12,9.714434385e-13,1.418881476e-13
0.94531,9.851123194e-12,1.986555804e-12,5.901569263e-12,7.147456396e-13,2.079921562e-13,7.082361209e-13,1.031186810e-12,8.128104596e-14,1.847138598e-13,1.090264904e-12,1.193386441e-12,6.124818686e-13,6.557844261e-13,8.623589113e-13,1.547768013e-12,1.506262777e-12,1.903084566e-12,1.924275054e-12,1.939617508e-12,1.196840078e-12,1.195963726e-12,4.765988749e-13,6.983949737e-13,3.634481449e-12,1.050373773e-12,4.509507895e-13,9.544558803e-13,2.659778630e-12,1.498004726e-12,4.021931407e-12,9.846832799e-13,1.526297385e-13
0.95312,1.049241675e-11,2.124129033e-12,6.272696842e-12,7.628019626e-13,2.062136669e-13,7.502566317e-13,1.011625934e-12,8.181275795e-14,1.848840229e-13,1.080045748e-12,1.232271201e-12,5.868447083e-13,6.618586406e-13,8.396106995e-13,1.516102790e-12,1.469616743e-12,1.927934602e-12,1.931173839e-12,1.965187804e-12,1.280551784e-12,1.249247704e-12,4.972928489e-13,7.474085543e-13,3.785342926e-12,1.080204432e-12,4.628213223e-13,9.830050392e-13,2.751662070e-12,1.542159993e-12,4.254865353e-12,9.981676717e-13,1.637794979e-13
0.96094,1.113202793e-11,2.265252571e-12,6.636517103e-12,8.127934370e-13,2.052542719e-13,7.940088642e-13,9.854688886e-13,8.266633304e-14,1.860333602e-13,1.075895880e-12,1.278387044e-12,5.644549018e-13,6.698409721e-13,8.203828720e-13,1.487482038e-12,1.436578299e-12,1.958208078e-12,1.941549356e-12,1.994031748e-12,1.368056844e-12,1.304584574e-12,5.189599955e-13,7.959961778e-13,3.934747937e-12,1.113728815e-12,4.759662024e-13,1.016866401e-12,2.851022608e-12,1.592934247e-12,4.486936959e-12,1.015097209e-12,1.748227323e-13
0.96875,1.178463282e-11,2.415400499e-12,7.010489019e-12,8.669216064e-13,2.051675001e-13,8.389609649e-13,9.572582498e-13,8.414175684e-14,1.878087896e-13,1.077063463e-12,1.330276006e-12,5.451098404e-13,6.779988745e-13,8.049324709e-13,1.464533003e-12,1.408254497e-12,1.994768482e-12,1.955574721e-12,2.024940852e-12,1.461050734e-12,1.359889198e-12,5.431241773e-13,8.460490458e-13,4.084291796e-12,1.151723204e-12,4.897334555e-13,1.052380012e-12,2.957941581e-12,1.647197253e-12,4.737185556e-12,1.037940343e-12,1.854956590e-13
0.97656,1.243371055e-11,2.564027025e-12,7.372919588e-12,9.216190691e-13,2.053198707e-13,8.868748481e-13,9.325180818e-13,8.540951624e-14,1.896245858e-13,1.078059373e-12,1.394510109e-12,5.260918649e-13,6.862874681e-13,7.911839983e-13,1.445232225e-12,1.382886805e-12,2.032337639e-12,1.970530365e-12,2.057476875e-12,1.558004905e-12,1.415187903e-12,5.671058581e-13,8.935185124e-13,4.231335225e-12,1.193564201e-12,5.041756891e-13,1.092316643e-12,3.074501797e-12,1.707042204e-12,4.974279717e-12,1.062471326e-12,1.954385318e-13
0.98438,1.308304467e-11,2.714883221e-12,7.723862745e-12,9.775632910e-13,2.059935940e-13,9.353030242e-13,9.056831656e-13,8.706947505e-14,1.916415926e-13,1.080528577e-12,1.470753191e-12,5.077876875e-13,6.946276546e-13,7.792679564e-13,1.429407963e-12,1.361280165e-12,2.072899876e-12,1.987181573e-12,2.092797997e-12,1.657822741e-12,1.471339000e-12,5.911156245e-13,9.365049944e-13,4.375847706e-12,1.234335749e-12,5.193130081e-13,1.134817255e-12,3.195797473e-12,1.773166987e-12,5.211377543e-12,1.090124459e-12,2.044115059e-13
0.99219,1.374325042e-11,2.872187561e-12,8.079535430e-12,1.035837232e-12,2.073829410e-13,9.831360083e-13,8.757420023e-13,8.911265149e-14,1.939916258e-13,1.084489541e-12,1.552166073e-12,4.911514631e-13,7.023569897e-13,7.691491322e-13,1.416517089e-12,1.343091795e-12,2.117942620e-12,2.006696957e-12,2.130032755e-12,1.761278752e-12,1.528220509e-12,6.172055853e-13,9.803768741e-13,4.524765674e-12,1.279602696e-12,5.349708065e-13,1.182832632e-12,3.323323833e-12,1.845753978e-12,5.460969082e-12,1.121432319e-12,2.124569543e-13
1,1.440072134e-11,3.028919693e-12,8.420215815e-12,1.094299407e-12,2.092968678e-13,1.032453583e-12,8.493907661e-13,9.132700892e-14,1.964527648e-13,1.091633156e-12,1.640550708e-12,4.756273096e-13,7.099007949e-13,7.597983779e-13,1.405612138e-12,1.327778411e-12,2.163608797e-12,2.027773182e-12,2.167819456e-12,1.864637162e-12,1.584856676e-12,6.428564668e-13,1.020723016e-12,4.669397086e-12,1.328340010e-12,5.510056918e-13,1.233786960e-12,3.459348803e-12,1.924772647e-12,5.706118112e-12,1.155737621e-12,2.193519444e-13
1.0078,1.506263637e-11,3.187591553e-12,8.748457856e-12,1.153801033e-12,2.119285381e-13,1.082752497e-12,8.245305278e-13,9.415183681e-14,1.991745261e-13,1.100583332e-12,1.734211424e-12,4.610446642e-13,7.180057664e-13,7.525225829e-13,1.400388050e-12,1.318430121e-12,2.213680258e-12,2.051819554e-12,2.207623580e-12,1.966791373e-12,1.640905790e-12,6.681263246e-13,1.056184225e-12,4.807038624e-12,1.374831572e-12,5.678859510e-13,1.283959562e-12,3.593155694e-12,2.008861700e-12,5.960765089e-12,1.194855615e-12,2.252723523e-13
1.0156,1.573156953e-11,3.348122921e-12,9.072430594e-12,1.214046460e-12,2.151702957e-13,1.133255707e-12,7.959090615e-13,9.705660882e-14,2.023793751e-13,1.107274139e-12,1.828728706e-12,4.477189615e-13,7.271392047e-13,7.486724113e-13,1.401682580e-12,1.315839974e-12,2.270861258e-12,2.080481216e-12,2.250980441e-12,2.069880316e-12,1.697503000e-12,6.943406059e-13,1.091675632e-12,4.945098792e-12,1.422851147e-12,5.858237681e-13,1.340224432e-12,3.720516065e-12,2.099451406e-12,6.217836159e-12,1.236653404e-12,2.305488154e-13
1.0234,1.639566470e-11,3.507197360e-12,9.381039302e-12,1.274462114e-12,2.188828451e-13,1.183046080e-12,7.678810008e-13,1.001594095e-13,2.059417055e-13,1.118179191e-12,1.930327132e-12,4.358631812e-13,7.367385263e-13,7.471872809e-13,1.407337580e-12,1.318285788e-12,2.331695133e-12,2.111765401e-12,2.296779505e-12,2.172286172e-12,1.755686831e-12,7.199085970e-13,1.125530181e-12,5.076071554e-12,1.472337586e-12,6.041649405e-13,1.398200590e-12,3.847878038e-12,2.194841876e-12,6.467214439e-12,1.281709131e-12,2.351279847e-13
1.0312,1.705705395e-11,3.665761885e-12,9.682202654e-12,1.335935659e-12,2.230993874e-13,1.231134930e-12,7.443513091e-13,1.040228941e-13,2.098076342e-13,1.135616625e-12,2.039107696e-12,4.246655656e-13,7.466549061e-13,7.464011033e-13,1.416844295e-12,1.324141069e-12,2.395859483e-12,2.144153637e-12,2.344152293e-12,2.274133164e-12,1.815214432e-12,7.451526915e-13,1.159051226e-12,5.195665324e-12,1.520528101e-12,6.230878920e-13,1.452035707e-12,3.971393972e-12,2.290724233e-12,6.727586352e-12,1.331171924e-12,2.394488736e-13
1.0391,1.770120115e-11,3.819082328e-12,9.972193025e-12,1.396128370e-12,2.276247439e-13,1.277506452e-12,7.207463936e-13,1.077286690e-13,2.142265213e-13,1.148855169e-12,2.147942078e-12,4.135031817e-13,7.582966506e-13,7.472179510e-13,1.430326431e-12,1.333389875e-12,2.464424685e-12,2.178766278e-12,2.393950113e-12,2.377049988e-12,1.875842790e-12,7.702314373e-13,1.193245477e-12,5.310784735e-12,1.565237559e-12,6.427825862e-13,1.507644066e-12,4.081897584e-12,2.386631878e-12,6.981665886e-12,1.380621524e-12,2.438173162e-13
1.0469,1.831511511e-11,3.966751107e-12,1.023980602e-11,1.454497858e-12,2.325510894e-13,1.320560240e-12,6.948523477e-13,1.110985125e-13,2.192871988e-13,1.155111160e-12,2.260497398e-12,4.037081933e-13,7.709699348e-13,7.524229926e-13,1.451398411e-12,1.349915283e-12,2.539559584e-12,2.217016082e-12,2.445714889e-12,2.479508850e-12,1.936568782e-12,7.944419079e-13,1.225794516e-12,5.421075081e-12,1.603520748e-12,6.625613418e-13,1.561614158e-12,4.179002402e-12,2.480094780e-12,7.218888793e-12,1.431153276e-12,2.479296174e-13
1.0547,1.890495672e-11,4.109995995e-12,1.049729111e-11,1.512254566e-12,2.376942525e-13,1.359564727e-12,6.710001748e-13,1.145754461e-13,2.245319364e-13,1.160195853e-12,2.380617066e-12,3.951811774e-13,7.829261251e-13,7.606656065e-13,1.479953658e-12,1.373227439e-12,2.620968390e-12,2.257732692e-12,2.498272606e-12,2.579964238e-12,1.995764435e-12,8.186247223e-13,1.260200587e-12,5.522777312e-12,1.640566717e-12,6.829251546e-13,1.611521178e-12,4.265542615e-12,2.568914966e-12,7.455398320e-12,1.484498884e-12,2.520600207e-13
1.0625,1.944935878e-11,4.241223128e-12,1.073831838e-11,1.567123466e-12,2.423879545e-13,1.395677189e-12,6.498703226e-13,1.177457900e-13,2.295767635e-13,1.165148031e-12,2.505207565e-12,3.862189615e-13,7.947861814e-13,7.686469225e-13,1.509728671e-12,1.397823895e-12,2.703008700e-12,2.298935878e-12,2.552848620e-12,2.678906158e-12,2.054957108e-12,8.424390398e-13,1.296213316e-12,5.615942634e-12,1.678487334e-12,7.044375664e-13,1.662356240e-12,4.342111362e-12,2.654562338e-12,7.671166864e-12,1.536486856e-12,2.564961063e-13
1.0703,1.992914249e-11,4.360421561e-12,1.095177201e-11,1.618678315e-12,2.466992054e-13,1.428090479e-12,6.279148521e-13,1.208327630e-13,2.344893590e-13,1.169725801e-12,2.634858717e-12,3.775725000e-13,8.061544271e-13,7.772187297e-13,1.541182271e-12,1.423565455e-12,2.784911847e-12,2.341049993e-12,2.609763131e-12,2.778195202e-12,2.115256253e-12,8.659577153e-13,1.331363004e-12,5.700510390e-12,1.713205121e-12,7.263964453e-13,1.710970654e-12,4.408966976e-12,2.734919309e-12,7.856038049e-12,1.587242782e-12,2.608713394e-13
1.0781,2.036022701e-11,4.471953021e-12,1.114949709e-11,1.668171561e-12,2.509076430e-13,1.455713624e-12,6.061356222e-13,1.238597960e-13,2.391121584e-13,1.173899849e-12,2.773045059e-12,3.702519210e-13,8.149980671e-13,7.867645627e-13,1.575613833e-12,1.450679144e-12,2.866776436e-12,2.383515169e-12,2.665989606e-12,2.876672803e-12,2.172759959e-12,8.898295549e-13,1.368099987e-12,5.773661502e-12,1.747648933e-12,7.487472928e-13,1.757800986e-12,4.466229787e-12,2.808749256e-12,8.027195424e-12,1.638141113e-12,2.650233679e-13
1.0859,2.074010227e-11,4.572254969e-12,1.132186348e-11,1.714373889e-12,2.547751069e-13,1.479358142e-12,5.873085532e-13,1.264443807e-13,2.430612338e-13,1.175525218e-12,2.919405946e-12,3.633771332e-13,8.213082407e-13,7.954776594e-13,1.608823579e-12,1.476048968e-12,2.943333996e-12,2.424596224e-12,2.720184187e-12,2.970212303e-12,2.225729578e-12,9.127027946e-13,1.403775338e-12,5.834523809e-12,1.782423277e-12,7.715785840e-13,1.806050910e-12,4.514406871e-12,2.878823248e-12,8.178082313e-12,1.687872910e-12,2.688024546e-13
1.0938,2.104701650e-11,4.659962651e-12,1.145527079e-11,1.756604075e-12,2.582036586e-13,1.498168204e-12,5.708331422e-13,1.290114733e-13,2.462202429e-13,1.174662838e-12,3.068478964e-12,3.568447645e-13,8.255501722e-13,8.036927141e-13,1.641511870e-12,1.500084222e-12,3.013604479e-12,2.464869689e-12,2.773292009e-12,3.058470768e-12,2.276201848e-12,9.346260032e-13,1.436238172e-12,5.887732171e-12,1.815001191e-12,7.943563124e-13,1.852783752e-12,4.555649336e-12,2.944958954e-12,8.302339951e-12,1.736303710e-12,2.718664841e-13
1.1016,2.128562582e-11,4.735742084e-12,1.156190901e-11,1.794409710e-12,2.612701858e-13,1.510325314e-12,5.557185053e-13,1.312004512e-13,2.485085321e-13,1.172273307e-12,3.218906335e-12,3.509842757e-13,8.268414098e-13,8.113388226e-13,1.674622033e-12,1.523137479e-12,3.077648944e-12,2.503962053e-12,2.824612455e-12,3.141300047e-12,2.322553665e-12,9.561803514e-13,1.467264034e-12,5.931589651e-12,1.847432954e-12,8.168006690e-13,1.899922750e-12,4.592493250e-12,3.007662919e-12,8.405348279e-12,1.782328989e-12,2.740296389e-13
1.1094,2.147362124e-11,4.798454552e-12,1.163713625e-11,1.827278589e-12,2.641197031e-13,1.517810782e-12,5.401959670e-13,1.328431489e-13,2.498783689e-13,1.167878855e-12,3.373300072e-12,3.454547708e-13,8.253325485e-13,8.175612542e-13,1.705642489e-12,1.543818549e-12,3.133091178e-12,2.541268882e-12,2.873889024e-12,3.216064627e-12,2.362291092e-12,9.762706177e-13,1.493838408e-12,5.956759211e-12,1.879442886e-12,8.384153136e-13,1.947848797e-12,4.626936642e-12,3.070470796e-12,8.486602823e-12,1.826826916e-12,2.750538792e-13
1.1172,2.161662860e-11,4.850454730e-12,1.167337533e-11,1.856552925e-12,2.670255364e-13,1.522303346e-12,5.231117989e-13,1.348242101e-13,2.505955084e-13,1.162435092e-12,3.525087212e-12,3.405163577e-13,8.224338265e-13,8.236451612e-13,1.735846967e-12,1.563693701e-12,3.183475827e-12,2.578849293e-12,2.922144756e-12,3.283436101e-12,2.396337103e-12,9.952483986e-13,1.515897164e-12,5.963110586e-12,1.912101408e-12,8.591406351e-13,1.994492657e-12,4.659813669e-12,3.134523289e-12,8.552428988e-12,1.872183911e-12,2.750418972e-13
1.125,2.171185106e-11,4.891895948e-12,1.168152770e-11,1.881899894e-12,2.699997787e-13,1.522706126e-12,5.079650014e-13,1.367926780e-13,2.509560323e-13,1.155779330e-12,3.674014681e-12,3.367097870e-13,8.187820385e-13,8.299798738e-13,1.764754014e-12,1.583006781e-12,3.230751953e-12,2.615657267e-12,2.967963496e-12,3.344324626e-12,2.425393144e-12,1.012822155e-12,1.535103766e-12,5.956233392e-12,1.945878662e-12,8.793567044e-13,2.044108815e-12,4.688173700e-12,3.199619557e-12,8.603419054e-12,1.916010799e-12,2.741895497e-13
1.1328,2.175572275e-11,4.920102742e-12,1.165417724e-11,1.902180022e-12,2.729994043e-13,1.519904215e-12,4.970404267e-13,1.386318838e-13,2.511156409e-13,1.147846332e-12,3.830743561e-12,3.342369435e-13,8.147756737e-13,8.361844480e-13,1.791144929e-12,1.600850188e-12,3.271221150e-12,2.649034929e-12,3.009905440e-12,3.397655348e-12,2.449809644e-12,1.027550635e-12,1.548750764e-12,5.935049468e-12,1.974443615e-12,8.981342563e-13,2.094370095e-12,4.707944421e-12,3.265257934e-12,8.630963664e-12,1.957159315e-12,2.720985302e-13
1.1406,2.175555828e-11,4.937222169e-12,1.158800754e-11,1.918688733e-12,2.762185650e-13,1.513542443e-12,4.885517445e-13,1.408542965e-13,2.512919962e-13,1.140576743e-12,3.986276006e-12,3.329854904e-13,8.117806545e-13,8.440030355e-13,1.819820812e-12,1.620483451e-12,3.307643166e-12,2.681394444e-12,3.050455891e-12,3.445128887e-12,2.471419084e-12,1.040711115e-12,1.559251667e-12,5.899795540e-12,1.998511824e-12,9.148924077e-13,2.140544492e-12,4.720093366e-12,3.329642970e-12,8.642364679e-12,1.997779699e-12,2.690034595e-13
1.1484,2.172471990e-11,4.943197984e-12,1.149623223e-11,1.930363524e-12,2.796646040e-13,1.502563709e-12,4.818665360e-13,1.428689641e-13,2.517946954e-13,1.131532250e-12,4.131183381e-12,3.329118959e-13,8.111720544e-13,8.549483737e-13,1.852623635e-12,1.644529159e-12,3.345661209e-12,2.714876783e-12,3.092568303e-12,3.489446908e-12,2.492791156e-12,1.052671461e-12,1.568762813e-12,5.855254725e-12,2.022481790e-12,9.303106131e-13,2.185585045e-12,4.726479148e-12,3.391517861e-12,8.643667129e-12,2.036642617e-12,2.656181903e-13
1.1562,2.165876475e-11,4.934462506e-12,1.137315288e-11,1.935236696e-12,2.831580545e-13,1.489621127e-12,4.752977955e-13,1.449566720e-13,2.529105831e-13,1.118963063e-12,4.278368978e-12,3.349306020e-13,8.132262131e-13,8.695546821e-13,1.887599147e-12,1.672411993e-12,3.384957631e-12,2.747802881e-12,3.136081769e-12,3.530732600e-12,2.515893892e-12,1.061956200e-12,1.575126303e-12,5.800056417e-12,2.043466498e-12,9.441886787e-13,2.228280530e-12,4.723921862e-12,3.449978697e-12,8.623207606e-12,2.071937705e-12,2.617944184e-13
1.1641,2.153993987e-11,4.912653055e-12,1.121748151e-11,1.935998384e-12,2.866997513e-13,1.474530798e-12,4.672504225e-13,1.475933654e-13,2.547408072e-13,1.106539612e-12,4.425450650e-12,3.395644942e-13,8.174201762e-13,8.884454235e-13,1.926142273e-12,1.704071393e-12,3.423967809e-12,2.779018517e-12,3.179098402e-12,3.568072119e-12,2.539169384e-12,1.069195515e-12,1.581038100e-12,5.729666060e-12,2.060688333e-12,9.563225258e-13,2.266609683e-12,4.707975200e-12,3.503608972e-12,8.572813812e-12,2.104089186e-12,2.577217601e-13
1.1719,2.136181768e-11,4.878940264e-12,1.103666079e-11,1.933866872e-12,2.902949324e-13,1.455915663e-12,4.611162213e-13,1.501388830e-13,2.571782699e-13,1.093131024e-12,4.563937004e-12,3.459617900e-13,8.233668997e-13,9.110345966e-13,1.968289634e-12,1.738753823e-12,3.462365523e-12,2.807788947e-12,3.220431047e-12,3.602842489e-12,2.559839194e-12,1.074204382e-12,1.586712589e-12,5.647879375e-12,2.072648188e-12,9.672337404e-13,2.301565690e-12,4.675594715e-12,3.549973383e-12,8.496611816e-12,2.132855538e-12,2.539735421e-13
1.1797,2.113435957e-11,4.832529412e-12,1.082796840e-11,1.926288651e-12,2.936547590e-13,1.435231493e-12,4.578162876e-13,1.529357014e-13,2.600904924e-13,1.076183993e-12,4.710435532e-12,3.536924896e-13,8.308576222e-13,9.364507952e-13,2.013404095e-12,1.775822249e-12,3.501186343e-12,2.834095203e-12,3.260936066e-12,3.637856079e-12,2.579847071e-12,1.076319454e-12,1.590136656e-12,5.559733271e-12,2.075622473e-12,9.766888606e-13,2.329920495e-12,4.626598400e-12,3.585744407e-12,8.403497227e-12,2.157347902e-12,2.503323251e-13
1.1875,2.086578424e-11,4.774522518e-12,1.059789544e-11,1.912668903e-12,2.963645347e-13,1.411509231e-12,4.533197924e-13,1.561945064e-13,2.632851075e-13,1.059075739e-12,4.868800360e-12,3.626676595e-13,8.393898485e-13,9.646499543e-13,2.063209572e-12,1.816282811e-12,3.541883651e-12,2.860112170e-12,3.302645949e-12,3.673114316e-12,2.603069377e-12,1.077456507e-12,1.595390875e-12,5.458998419e-12,2.074283745e-12,9.846367098e-13,2.351035794e-12,4.564414042e-12,3.609576249e-12,8.292536729e-12,2.176176276e-12,2.468625911e-13
1.1953,2.054511024e-11,4.702521957e-12,1.034644097e-11,1.893321548e-12,2.982842768e-13,1.384992516e-12,4.469792936e-13,1.595318596e-13,2.664862740e-13,1.042787374e-12,5.023553997e-12,3.727761156e-13,8.479916906e-13,9.951915377e-13,2.115954987e-12,1.858383718e-12,3.581445700e-12,2.886092286e-12,3.345445020e-12,3.707448794e-12,2.629575518e-12,1.078013571e-12,1.602741707e-12,5.342699497e-12,2.071704025e-12,9.915780670e-13,2.366011016e-12,4.488728002e-12,3.620886735e-12,8.154700875e-12,2.188347783e-12,2.437798999e-13
1.2031,2.016027765e-11,4.617206020e-12,1.007003567e-11,1.868927370e-12,2.993902297e-13,1.356757315e-12,4.404411142e-13,1.632088824e-13,2.693942015e-13,1.023857315e-12,5.178665905e-12,3.841853810e-13,8.547401909e-13,1.026621765e-12,2.167589245e-12,1.897839647e-12,3.614588183e-12,2.908780211e-12,3.385332748e-12,3.739136933e-12,2.655144034e-12,1.076720105e-12,1.609000321e-12,5.225130985e-12,2.063676958e-12,9.972767455e-13,2.372990487e-12,4.397669218e-12,3.617806691e-12,7.995841905e-12,2.194419250e-12,2.406283243e-13
1.2109,1.971878711e-11,4.523703597e-12,9.783192355e-12,1.841057600e-12,2.993455067e-13,1.325692827e-12,4.349344771e-13,1.667811370e-13,2.714723283e-13,1.000932017e-12,5.343970238e-12,3.956315627e-13,8.578308432e-13,1.056255202e-12,2.215239559e-12,1.931529991e-12,3.636893240e-12,2.925181891e-12,3.418063538e-12,3.763608272e-12,2.674936577e-12,1.073399716e-12,1.614055331e-12,5.111485932e-12,2.051077666e-12,1.001516686e-12,2.373519360e-12,4.297989692e-12,3.601080193e-12,7.823563481e-12,2.193686149e-12,2.373193881e-13
1.2188,1.922732625e-11,4.419629050e-12,9.484423885e-12,1.808896536e-12,2.979381441e-13,1.294383830e-12,4.318227190e-13,1.702744115e-13,2.721789077e-13,9.770926232e-13,5.513861428e-12,4.058768182e-13,8.568195287e-13,1.082084794e-12,2.256774675e-12,1.957936802e-12,3.645207693e-12,2.934670052e-12,3.442948381e-12,3.780237855e-12,2.688868188e-12,1.067929221e-12,1.616776006e-12,4.987516617e-12,2.038491563e-12,1.004541998e-12,2.368694948e-12,4.195509890e-12,3.573319111e-12,7.632404217e-12,2.185096028e-12,2.339414421e-13
1.2266,1.868435558e-11,4.304311530e-12,9.166965602e-12,1.771776080e-12,2.953854015e-13,1.262917508e-12,4.291561287e-13,1.744164081e-13,2.713882820e-13,9.553395811e-13,5.682655877e-12,4.157811308e-13,8.512483403e-13,1.104324358e-12,2.293050118e-12,1.977430275e-12,3.640817434e-12,2.938465137e-12,3.460570990e-12,3.792605259e-12,2.698556424e-12,1.061097053e-12,1.617492300e-12,4.851355725e-12,2.026987245e-12,1.006323779e-12,2.358241790e-12,4.087203116e-12,3.535220415e-12,7.421851550e-12,2.170283444e-12,2.301708804e-13
1.2344,1.809846593e-11,4.183108866e-12,8.841230340e-12,1.731044662e-12,2.917372897e-13,1.227934534e-12,4.257100202e-13,1.783585072e-13,2.690591849e-13,9.333571570e-13,5.851593769e-12,4.255353242e-13,8.409129131e-13,1.122804639e-12,2.324552418e-12,1.990239310e-12,3.625113109e-12,2.938003127e-12,3.470731558e-12,3.799097740e-12,2.702036200e-12,1.053437154e-12,1.615805040e-12,4.710982638e-12,2.015678655e-12,1.006721664e-12,2.345288478e-12,3.973672327e-12,3.488159430e-12,7.192922623e-12,2.150210246e-12,2.258055444e-13
1.2422,1.748039827e-11,4.055539754e-12,8.506175992e-12,1.686793768e-12,2.869604397e-13,1.191966746e-12,4.239232762e-13,1.818911544e-13,2.651574475e-13,9.095801690e-13,6.018338784e-12,4.344117253e-13,8.267937951e-13,1.136781895e-12,2.348848532e-12,1.995437399e-12,3.596343577e-12,2.933937979e-12,3.474074399e-12,3.797109378e-12,2.699029002e-12,1.044276193e-12,1.608968519e-12,4.565055282e-12,2.005809702e-12,1.005516024e-12,2.330083380e-12,3.859973627e-12,3.434551725e-12,6.949276338e-12,2.124287354e-12,2.206786924e-13
1.25,1.683008638e-11,3.919892897e-12,8.160506743e-12,1.638853150e-12,2.812922352e-13,1.156133395e-12,4.226901422e-13,1.858879097e-13,2.599267836e-13,8.865091324e-13,6.174481132e-12,4.424937987e-13,8.093271045e-13,1.146331007e-12,2.365047323e-12,1.992767847e-12,3.553883007e-12,2.925270668e-12,3.470269407e-12,3.787006076e-12,2.690920354e-12,1.034298877e-12,1.599013529e-12,4.418292835e-12,2.000756090e-12,1.002483252e-12,2.311620569e-12,3.748200774e-12,3.375743274e-12,6.700775486e-12,2.093202346e-12,2.147972034e-13
1.2578,1.615063730e-11,3.776757713e-12,7.810924215e-12,1.587525140e-12,2.749226549e-13,1.118922375e-12,4.199263011e-13,1.899849852e-13,2.536602644e-13,8.636949060e-13,6.319390689e-12,4.499387048e-13,7.887470101e-13,1.151453913e-12,2.373329790e-12,1.982319928e-12,3.497501930e-12,2.909861305e-12,3.457258755e-12,3.767540108e-12,2.676034513e-12,1.023465761e-12,1.586307341e-12,4.276727693e-12,2.000067705e-12,9.974859937e-13,2.292227033e-12,3.642018555e-12,3.313348353e-12,6.442114058e-12,2.057516733e-12,2.083172453e-13
1.2656,1.545466122e-11,3.627062688e-12,7.457200101e-12,1.533332803e-12,2.681227864e-13,1.082109708e-12,4.170902303e-13,1.939898055e-13,2.466852599e-13,8.398558121e-13,6.459217408e-12,4.574296799e-13,7.665882768e-13,1.153906507e-12,2.376263156e-12,1.966945144e-12,3.430642374e-12,2.889161045e-12,3.436750769e-12,3.741012678e-12,2.655555925e-12,1.011127933e-12,1.568498696e-12,4.133815346e-12,2.001439153e-12,9.900949015e-13,2.272342108e-12,3.544297793e-12,3.248953717e-12,6.168797968e-12,2.017821162e-12,2.011004671e-13
1.2734,1.474986896e-11,3.473986740e-12,7.102299186e-12,1.477692509e-12,2.613016482e-13,1.045469116e-12,4.137974301e-13,1.979683331e-13,2.394666900e-13,8.166675381e-13,6.589590958e-12,4.657474565e-13,7.449374598e-13,1.156882470e-12,2.378879827e-12,1.951441634e-12,3.360496760e-12,2.867398680e-12,3.413410260e-12,3.712043570e-12,2.632845543e-12,9.985185525e-13,1.547904623e-12,3.987475911e-12,2.006542116e-12,9.802651578e-13,2.251927496e-12,3.453002168e-12,3.183735822e-12,5.889503274e-12,1.975644401e-12,1.933044948e-13
1.2812,1.403932068e-11,3.317189428e-12,6.747407088e-12,1.420266371e-12,2.545681372e-13,1.008899215e-12,4.103888237e-13,2.016006385e-13,2.324000513e-13,7.949843011e-13,6.704843067e-12,4.750404162e-13,7.251205382e-13,1.161229041e-12,2.381154618e-12,1.936531756e-12,3.288523836e-12,2.844863937e-12,3.388065633e-12,3.678834416e-12,2.607063560e-12,9.854532433e-13,1.525022485e-12,3.842246003e-12,2.015400429e-12,9.683601781e-13,2.231907043e-12,3.366642054e-12,3.118452645e-12,5.606045578e-12,1.930987318e-12,1.852749664e-13
1.2891,1.332781430e-11,3.156445058e-12,6.394093048e-12,1.360538748e-12,2.478975153e-13,9.737726453e-13,4.082653045e-13,2.053424682e-13,2.257709307e-13,7.742817785e-13,6.807766570e-12,4.858444214e-13,7.070495021e-13,1.166913358e-12,2.382002595e-12,1.922156064e-12,3.215218033e-12,2.819814984e-12,3.359627400e-12,3.641341121e-12,2.579196168e-12,9.711368151e-13,1.499566661e-12,3.701751603e-12,2.024335655e-12,9.538771120e-13,2.210553470e-12,3.282672115e-12,3.051907695e-12,5.320940137e-12,1.883345602e-12,1.769577028e-13
1.2969,1.261601416e-11,2.996339848e-12,6.049039370e-12,1.300605159e-12,2.413253602e-13,9.389063510e-13,4.063828541e-13,2.091951602e-13,2.197270952e-13,7.539315545e-13,6.898486121e-12,4.979628259e-13,6.909710164e-13,1.174730520e-12,2.384444832e-12,1.910017479e-12,3.143827031e-12,2.792211565e-12,3.329420417e-12,3.604209178e-12,2.553183879e-12,9.563180005e-13,1.474721738e-12,3.568949444e-12,2.033853815e-12,9.365709655e-13,2.186828904e-12,3.200206715e-12,2.983854353e-12,5.035332821e-12,1.833616489e-12,1.684618317e-13
1.3047,1.191104976e-11,2.836062152e-12,5.708647159e-12,1.241007806e-12,2.348908488e-13,9.052533519e-13,4.073901116e-13,2.127476102e-13,2.144209066e-13,7.346494428e-13,6.979851382e-12,5.109517971e-13,6.781075880e-13,1.185089308e-12,2.388476611e-12,1.899902268e-12,3.073803747e-12,2.761533428e-12,3.298374150e-12,3.566823508e-12,2.529595919e-12,9.406484932e-13,1.451630181e-12,3.437957096e-12,2.048243945e-12,9.176262502e-13,2.162299827e-12,3.124492574e-12,2.915674546e-12,4.746094277e-12,1.782388165e-12,1.600540616e-13
1.3125,1.122863861e-11,2.673667972e-12,5.376307312e-12,1.180602069e-12,2.286701182e-13,8.745391989e-13,4.109936808e-13,2.164464689e-13,2.101286966e-13,7.177758188e-13,7.056604901e-12,5.256118035e-13,6.682771946e-13,1.198732757e-12,2.393544830e-12,1.892861145e-12,3.006466132e-12,2.727772864e-12,3.265899157e-12,3.527586263e-12,2.508243955e-12,9.240199736e-13,1.431192290e-12,3.305210947e-12,2.064706330e-12,8.974816795e-13,2.137137910e-12,3.051737497e-12,2.846069141e-12,4.461472194e-12,1.729108004e-12,1.518424959e-13
1.3203,1.057028787e-11,2.514455575e-12,5.064192904e-12,1.119931175e-12,2.225872045e-13,8.458332622e-13,4.103844512e-13,2.201273856e-13,2.068022083e-13,7.011498259e-13,7.123447983e-12,5.416858654e-13,6.607373654e-13,1.215962873e-12,2.402343827e-12,1.890339095e-12,2.944466613e-12,2.691701626e-12,3.231977592e-12,3.488192039e-12,2.489542672e-12,9.069118548e-13,1.413966027e-12,3.178859220e-12,2.075013235e-12,8.753916393e-13,2.109057251e-12,2.971449502e-12,2.774190918e-12,4.184548540e-12,1.673212698e-12,1.439932795e-13
1.3281,9.932238306e-12,2.362025973e-12,4.767264415e-12,1.060099471e-12,2.165848280e-13,8.191868800e-13,4.103297842e-13,2.234410151e-13,2.041378214e-13,6.831269312e-13,7.182873139e-12,5.583990850e-13,6.551145641e-13,1.235417763e-12,2.412992150e-12,1.889137107e-12,2.884750168e-12,2.652061710e-12,3.196218649e-12,3.448842999e-12,2.472909250e-12,8.885261393e-13,1.399082642e-12,3.060057093e-12,2.080587538e-12,8.518744337e-13,2.076254237e-12,2.886395072e-12,2.701311602e-12,3.914574236e-12,1.615735497e-12,1.365596898e-13
1.3359,9.316769064e-12,2.214657766e-12,4.477841349e-12,1.001831943e-12,2.106320412e-13,7.946406634e-13,4.174708929e-13,2.268146453e-13,2.020136103e-13,6.665554367e-13,7.245489501e-12,5.758035334e-13,6.500910163e-13,1.255538149e-12,2.421651998e-12,1.886437552e-12,2.825184463e-12,2.607469633e-12,3.157369980e-12,3.409756090e-12,2.458580812e-12,8.686880264e-13,1.388104003e-12,2.946282389e-12,2.086301380e-12,8.281608123e-13,2.040170481e-12,2.799188875e-12,2.625644637e-12,3.657967045e-12,1.557300900e-12,1.295361974e-13
1.3438,8.721754747e-12,2.071119675e-12,4.200095202e-12,9.450919188e-13,2.043303601e-13,7.718738598e-13,4.233113671e-13,2.299524432e-13,2.002491105e-13,6.515524629e-13,7.305928938e-12,5.928094443e-13,6.450046726e-13,1.275207548e-12,2.429694870e-12,1.882959257e-12,2.766078869e-12,2.558786708e-12,3.115174604e-12,3.370440642e-12,2.446544534e-12,8.480200596e-13,1.381407952e-12,2.842006375e-12,2.088666596e-12,8.042536766e-13,2.002720399e-12,2.703665444e-12,2.545800368e-12,3.410822918e-12,1.496155834e-12,1.230349576e-13
1.3516,8.153729147e-12,1.933576765e-12,3.940435333e-12,8.895068891e-13,1.975561015e-13,7.508591511e-13,4.250553307e-13,2.325571402e-13,1.986387455e-13,6.361977366e-13,7.361948491e-12,6.090217207e-13,6.399332331e-13,1.293871673e-12,2.437370003e-12,1.878847260e-12,2.707203287e-12,2.508041977e-12,3.070685148e-12,3.329627359e-12,2.436523697e-12,8.273659277e-13,1.378788843e-12,2.745540515e-12,2.087701658e-12,7.801957412e-13,1.962503986e-12,2.604070535e-12,2.464490640e-12,3.173863989e-12,1.432999376e-12,1.171030082e-13
1.3594,7.622118673e-12,1.804272151e-12,3.699151327e-12,8.358085000e-13,1.906600749e-13,7.312661815e-13,4.307454899e-13,2.352050745e-13,1.971445247e-13,6.238186742e-13,7.423307607e-12,6.255232909e-13,6.339885390e-13,1.310984735e-12,2.441140827e-12,1.872346546e-12,2.648638673e-12,2.456278692e-12,3.024184347e-12,3.288885638e-12,2.428112835e-12,8.071107414e-13,1.380428677e-12,2.651871892e-12,2.085924755e-12,7.568105424e-13,1.918676106e-12,2.505637375e-12,2.382823056e-12,2.953211514e-12,1.370428583e-12,1.117944406e-13
1.3672,7.117284037e-12,1.682066042e-12,3.470316980e-12,7.844036854e-13,1.835477184e-13,7.144833062e-13,4.390585537e-13,2.378367076e-13,1.955019143e-13,6.150092662e-13,7.476540933e-12,6.411899366e-13,6.264868365e-13,1.324865094e-12,2.440568324e-12,1.861600380e-12,2.587394615e-12,2.402732186e-12,2.973883390e-12,3.246669039e-12,2.417744081e-12,7.860230793e-13,1.382392145e-12,2.563634660e-12,2.079093377e-12,7.340522142e-13,1.873350167e-12,2.401721531e-12,2.299563873e-12,2.741209174e-12,1.307421032e-12,1.070896299e-13
1.375,6.632841441e-12,1.566376912e-12,3.254258730e-12,7.352170915e-13,1.760303253e-13,6.999069997e-13,4.446280614e-13,2.398881878e-13,1.933334290e-13,6.040379137e-13,7.505768907e-12,6.543472403e-13,6.171306067e-13,1.334377952e-12,2.437263481e-12,1.846626535e-12,2.521492372e-12,2.347793516e-12,2.918896247e-12,3.199520793e-12,2.403082948e-12,7.645095540e-13,1.383661529e-12,2.481506840e-12,2.068391646e-12,7.114776009e-13,1.826896088e-12,2.293446412e-12,2.214953094e-12,2.540358316e-12,1.243216102e-12,1.028721505e-13
1.3828,6.176075661e-12,1.457365941e-12,3.052905558e-12,6.886012350e-13,1.683474578e-13,6.845441214e-13,4.504119440e-13,2.412828302e-13,1.906098738e-13,5.921724694e-13,7.530141867e-12,6.657893102e-13,6.056675411e-13,1.339755931e-12,2.429534756e-12,1.827751423e-12,2.452794899e-12,2.293030622e-12,2.860979881e-12,3.149769114e-12,2.386238881e-12,7.441535302e-13,1.386126244e-12,2.401962979e-12,2.059190315e-12,6.895295006e-13,1.778200200e-12,2.188685756e-12,2.130044900e-12,2.357641696e-12,1.179573482e-12,9.923120112e-14
1.3906,5.746387628e-12,1.353287173e-12,2.862001820e-12,6.441298157e-13,1.605412259e-13,6.695797221e-13,4.605389816e-13,2.421667267e-13,1.873739783e-13,5.844375513e-13,7.555739280e-12,6.760583683e-13,5.924107553e-13,1.340623026e-12,2.415166607e-12,1.803786921e-12,2.380429068e-12,2.238245388e-12,2.800797481e-12,3.098768492e-12,2.367045213e-12,7.241798105e-13,1.386550227e-12,2.327313140e-12,2.050679508e-12,6.682060149e-13,1.728377590e-12,2.085326310e-12,2.045505623e-12,2.184631395e-12,1.116698224e-12,9.620746685e-14
1.3984,5.336625408e-12,1.254091408e-12,2.682214615e-12,6.016497211e-13,1.525028687e-13,6.567512899e-13,4.732977881e-13,2.426053358e-13,1.835782604e-13,5.781747094e-13,7.556024028e-12,6.843957780e-13,5.775548467e-13,1.336671364e-12,2.395289630e-12,1.775317387e-12,2.304590503e-12,2.183985563e-12,2.737822434e-12,3.045689001e-12,2.342910297e-12,7.044328045e-13,1.383279256e-12,2.261047165e-12,2.042219832e-12,6.466638404e-13,1.678592845e-12,1.981227174e-12,1.961943691e-12,2.017919739e-12,1.054240589e-12,9.358833060e-14
1.4062,4.947216548e-12,1.160955324e-12,2.515914709e-12,5.618551973e-13,1.443998271e-13,6.450455708e-13,4.861392393e-13,2.425062776e-13,1.793895103e-13,5.717086445e-13,7.530061801e-12,6.909274773e-13,5.613965360e-13,1.328944172e-12,2.372366231e-12,1.744683362e-12,2.228201764e-12,2.131696984e-12,2.673191021e-12,2.992621624e-12,2.313881513e-12,6.858556006e-13,1.377332030e-12,2.199427513e-12,2.033818823e-12,6.247349873e-13,1.628242975e-12,1.881383497e-12,1.879745472e-12,1.860084660e-12,9.928736394e-13,9.127429809e-14
1.4141,4.584081965e-12,1.073231830e-12,2.362655871e-12,5.242684498e-13,1.363942276e-13,6.347073701e-13,5.010764181e-13,2.419025554e-13,1.749414662e-13,5.670119171e-13,7.495131971e-12,6.959083162e-13,5.443709903e-13,1.317499653e-12,2.345655069e-12,1.711053468e-12,2.149163612e-12,2.079614383e-12,2.607442324e-12,2.938758390e-12,2.281477817e-12,6.679182263e-13,1.367178468e-12,2.138925402e-12,2.025491447e-12,6.026924396e-13,1.576835672e-12,1.788499228e-12,1.798474745e-12,1.712813715e-12,9.332580357e-13,8.929844971e-14
1.4219,4.243360632e-12,9.891415266e-13,2.220801673e-12,4.880198524e-13,1.284827536e-13,6.257805937e-13,5.193719172e-13,2.409086847e-13,1.701423187e-13,5.622809397e-13,7.444867253e-12,6.988116256e-13,5.266275100e-13,1.301636944e-12,2.312335866e-12,1.672587166e-12,2.065192942e-12,2.025928615e-12,2.540037621e-12,2.882128697e-12,2.246528214e-12,6.502844553e-13,1.352860287e-12,2.081113661e-12,2.020450502e-12,5.803349305e-13,1.525066813e-12,1.701164324e-12,1.718175036e-12,1.575206855e-12,8.754920170e-13,8.757467412e-14
1.4297,3.915325310e-12,9.079550179e-13,2.087171921e-12,4.536542519e-13,1.207682169e-13,6.167572660e-13,5.394549017e-13,2.391096522e-13,1.652182175e-13,5.563549540e-13,7.376204613e-12,7.003319220e-13,5.090658437e-13,1.283785957e-12,2.275957181e-12,1.632916330e-12,1.980927345e-12,1.972650213e-12,2.471883013e-12,2.825007649e-12,2.207935801e-12,6.330685963e-13,1.335051209e-12,2.026892401e-12,2.018395708e-12,5.573231517e-13,1.473806467e-12,1.617457273e-12,1.640107672e-12,1.439710144e-12,8.189936044e-13,8.591212627e-14
1.4375,3.603057449e-12,8.316730275e-13,1.963957022e-12,4.223197438e-13,1.134778864e-13,6.071884960e-13,5.641350323e-13,2.362919969e-13,1.605576905e-13,5.501881425e-13,7.299516638e-12,7.018101649e-13,4.924875314e-13,1.267013805e-12,2.242506473e-12,1.596656159e-12,1.901405879e-12,1.921433438e-12,2.403773082e-12,2.769024696e-12,2.164467324e-12,6.162115175e-13,1.312906662e-12,1.976999899e-12,2.016079168e-12,5.335506413e-13,1.421981679e-12,1.538471175e-12,1.563265423e-12,1.309512341e-12,7.640991934e-13,8.414330570e-14
1.4453,3.311857969e-12,7.603810027e-13,1.850783693e-12,3.938005428e-13,1.066024391e-13,5.982696048e-13,5.963221685e-13,2.331966558e-13,1.560936215e-13,5.446684670e-13,7.211736278e-12,7.029397235e-13,4.766221729e-13,1.250249026e-12,2.208434552e-12,1.561519751e-12,1.825245567e-12,1.870255076e-12,2.335290069e-12,2.714272065e-12,2.118715953e-12,5.996418733e-13,1.286917477e-12,1.932572031e-12,2.012237665e-12,5.092443795e-13,1.368403486e-12,1.467035740e-12,1.485569318e-12,1.190165637e-12,7.116219065e-13,8.218760595e-14
1.4531,3.039291909e-12,6.919975309e-13,1.743711579e-12,3.669745043e-13,9.999842372e-14,5.911829496e-13,6.304000590e-13,2.302439784e-13,1.517839995e-13,5.414729657e-13,7.108499505e-12,7.031507674e-13,4.615755041e-13,1.232330885e-12,2.170255106e-12,1.525009360e-12,1.749331233e-12,1.816738886e-12,2.265901132e-12,2.660207094e-12,2.072754583e-12,5.825734432e-13,1.258373789e-12,1.891144215e-12,2.006414478e-12,4.847926077e-13,1.315050852e-12,1.400618045e-12,1.409355387e-12,1.073993071e-12,6.614248852e-13,8.005779073e-14
1.4609,2.786178001e-12,6.286610493e-13,1.647166299e-12,3.424409169e-13,9.381728050e-14,5.853460087e-13,6.618850819e-13,2.269793060e-13,1.479683709e-13,5.389846264e-13,6.997669068e-12,7.029506290e-13,4.477814895e-13,1.215281398e-12,2.133576962e-12,1.490451298e-12,1.675811996e-12,1.761516440e-12,2.195222158e-12,2.605607952e-12,2.024623364e-12,5.650621395e-13,1.229363558e-12,1.850295656e-12,2.000831150e-12,4.603855499e-13,1.264020010e-12,1.335718096e-12,1.337630471e-12,9.617172940e-13,6.139443548e-13,7.775981764e-14
1.4688,2.554175302e-12,5.723238777e-13,1.561066432e-12,3.214349916e-13,8.822750787e-14,5.803298826e-13,6.972387639e-13,2.232639091e-13,1.448082518e-13,5.355115094e-13,6.885866010e-12,7.028591385e-13,4.352836972e-13,1.200075138e-12,2.099979200e-12,1.459085486e-12,1.607357167e-12,1.705761508e-12,2.123828567e-12,2.552002647e-12,1.974792805e-12,5.478533973e-13,1.201241978e-12,1.810308763e-12,1.995363450e-12,4.361368151e-13,1.214489802e-12,1.274615398e-12,1.269191599e-12,8.602688713e-13,5.697034350e-13,7.517389826e-14
1.4766,2.342703719e-12,5.216939038e-13,1.481765795e-12,3.034658516e-13,8.312449726e-14,5.770076492e-13,7.409791438e-13,2.194070961e-13,1.421744222e-13,5.334357220e-13,6.773101144e-12,7.027896928e-13,4.239681669e-13,1.185765761e-12,2.065773292e-12,1.428657836e-12,1.542187326e-12,1.648771467e-12,2.052255765e-12,2.500390076e-12,1.926242413e-12,5.302897869e-13,1.173323238e-12,1.770029062e-12,1.986196670e-12,4.122336232e-13,1.165385380e-12,1.217278195e-12,1.203074746e-12,7.685904589e-13,5.283606084e-13,7.223994284e-14
1.4844,2.150577730e-12,4.767323809e-13,1.411345299e-12,2.879163881e-13,7.843901689e-14,5.748831624e-13,7.886795157e-13,2.154197400e-13,1.399759928e-13,5.327691146e-13,6.657334141e-12,7.023528635e-13,4.135305811e-13,1.172384269e-12,2.032278200e-12,1.399844339e-12,1.480194725e-12,1.590799882e-12,1.979993660e-12,2.449358495e-12,1.878483982e-12,5.121247014e-13,1.146644236e-12,1.728856304e-12,1.974629073e-12,3.889196036e-13,1.117633128e-12,1.159345036e-12,1.140722250e-12,6.846079705e-13,4.897375725e-13,6.909827024e-14
1.4922,1.975705427e-12,4.369730541e-13,1.347621477e-12,2.748419968e-13,7.421771449e-14,5.729709431e-13,8.399923550e-13,2.112390214e-13,1.382638933e-13,5.329256688e-13,6.542721454e-12,7.018488896e-13,4.038993106e-13,1.160375856e-12,2.001264020e-12,1.374098175e-12,1.423594684e-12,1.533320501e-12,1.907375432e-12,2.399272603e-12,1.829804451e-12,4.939877365e-13,1.122052423e-12,1.689604781e-12,1.959875875e-12,3.663295802e-13,1.071637811e-12,1.100769157e-12,1.082087512e-12,6.076702891e-13,4.535286484e-13,6.582397890e-14
1.5,1.819043132e-12,4.016998025e-13,1.290921875e-12,2.641106165e-13,7.044876721e-14,5.714345831e-13,8.972870027e-13,2.069948427e-13,1.370014455e-13,5.352137521e-13,6.434062209e-12,7.012443738e-13,3.949524792e-13,1.148497477e-12,1.969945893e-12,1.349753153e-12,1.370578270e-12,1.475647113e-12,1.834633170e-12,2.349599090e-12,1.780542075e-12,4.756223389e-13,1.098242300e-12,1.651927677e-12,1.937062279e-12,3.442549223e-13,1.025709366e-12,1.044330150e-12,1.025642126e-12,5.405156466e-13,4.196286237e-13,6.239696111e-14
1.5078,1.677954237e-12,3.712135832e-13,1.241163284e-12,2.558112368e-13,6.704354021e-14,5.705332599e-13,9.584970369e-13,2.026615364e-13,1.358503821e-13,5.379591918e-13,6.324089093e-12,6.988758367e-13,3.860398087e-13,1.134827596e-12,1.936329046e-12,1.325086476e-12,1.318302535e-12,1.416709782e-12,1.761035403e-12,2.299073972e-12,1.731301956e-12,4.568574064e-13,1.075928210e-12,1.611939859e-12,1.910306892e-12,3.229267995e-13,9.810888647e-13,9.896699095e-13,9.719055076e-13,4.819306174e-13,3.884595286e-13,5.889974938e-14
1.5156,1.548157260e-12,3.443715911e-13,1.192198723e-12,2.497772577e-13,6.395663089e-14,5.704738169e-13,1.025358115e-12,1.980828712e-13,1.346348807e-13,5.399071660e-13,6.209162880e-12,6.944989269e-13,3.770253047e-13,1.119632285e-12,1.902326220e-12,1.301352819e-12,1.268431197e-12,1.358103016e-12,1.687441694e-12,2.249575766e-12,1.681708260e-12,4.380859411e-13,1.055906970e-12,1.572345999e-12,1.883335797e-12,3.033262789e-13,9.413154586e-13,9.354022032e-13,9.227097369e-13,4.265904111e-13,3.601873140e-13,5.549245316e-14
1.5234,1.433208760e-12,3.206451451e-13,1.148963203e-12,2.449803831e-13,6.124797010e-14,5.706227519e-13,1.099622167e-12,1.932767084e-13,1.334749523e-13,5.421993767e-13,6.096707805e-12,6.894010613e-13,3.680519648e-13,1.103943020e-12,1.869342175e-12,1.279532781e-12,1.222630201e-12,1.301633635e-12,1.615131083e-12,2.201890249e-12,1.631138190e-12,4.196468698e-13,1.036761777e-12,1.537157082e-12,1.851407682e-12,2.855832815e-13,9.044669236e-13,8.829174999e-13,8.783318149e-13,3.791516671e-13,3.348665207e-13,5.232181360e-14
1.5312,1.331748613e-12,2.998417802e-13,1.112715890e-12,2.405599391e-13,5.888061377e-14,5.701380632e-13,1.177131943e-12,1.882986845e-13,1.321602965e-13,5.447977872e-13,5.986590364e-12,6.829280515e-13,3.587110734e-13,1.086708768e-12,1.834510903e-12,1.257583588e-12,1.178544333e-12,1.247312708e-12,1.544116819e-12,2.155139240e-12,1.580498206e-12,4.017371222e-13,1.017940017e-12,1.502080427e-12,1.815786404e-12,2.689336143e-13,8.676833279e-13,8.336795646e-13,8.380465150e-13,3.399118984e-13,3.121117588e-13,4.938910208e-14
1.5391,1.237513290e-12,2.803785160e-13,1.074195603e-12,2.366796243e-13,5.675352408e-14,5.693079018e-13,1.259200821e-12,1.829659036e-13,1.304408617e-13,5.482972092e-13,5.877810221e-12,6.746856127e-13,3.489328438e-13,1.067486853e-12,1.796388881e-12,1.234749416e-12,1.134945354e-12,1.194948079e-12,1.474683952e-12,2.110064676e-12,1.530900984e-12,3.840596174e-13,9.990022838e-13,1.466603948e-12,1.781120193e-12,2.534520327e-13,8.333678871e-13,7.864812019e-13,8.007034033e-13,3.022113168e-13,2.914087825e-13,4.665793558e-14
1.5469,1.150233406e-12,2.621742771e-13,1.036753727e-12,2.341056648e-13,5.492900977e-14,5.681361403e-13,1.348318882e-12,1.771467896e-13,1.285066743e-13,5.542982694e-13,5.778629957e-12,6.658960929e-13,3.389527298e-13,1.047700189e-12,1.758559138e-12,1.213044974e-12,1.093535128e-12,1.144663392e-12,1.406852600e-12,2.066995141e-12,1.480735756e-12,3.665861938e-13,9.789272694e-13,1.435608235e-12,1.744793364e-12,2.394625280e-13,8.022476978e-13,7.420694396e-13,7.647523680e-13,2.691723582e-13,2.728431845e-13,4.427239150e-14
1.5547,1.068471648e-12,2.456598106e-13,1.002553264e-12,2.330700248e-13,5.339301356e-14,5.673610984e-13,1.439430985e-12,1.711115502e-13,1.264054609e-13,5.620550191e-13,5.690500683e-12,6.561595450e-13,3.286090461e-13,1.027506913e-12,1.722832190e-12,1.193457237e-12,1.054965816e-12,1.096554528e-12,1.340543265e-12,2.026462499e-12,1.428906545e-12,3.498438311e-13,9.576839316e-13,1.406424844e-12,1.705167168e-12,2.264632754e-13,7.720273623e-13,7.019815686e-13,7.299621539e-13,2.410919139e-13,2.563036861e-13,4.226443931e-14
1.5625,9.917283602e-13,2.303117103e-13,9.672214440e-13,2.328428473e-13,5.197678555e-14,5.682158402e-13,1.534198032e-12,1.649292236e-13,1.239856989e-13,5.691269570e-13,5.608775240e-12,6.448542370e-13,3.179393022e-13,1.006583921e-12,1.687706117e-12,1.175972900e-12,1.019352033e-12,1.051311571e-12,1.276783688e-12,1.990139304e-12,1.376949861e-12,3.338319678e-13,9.350525600e-13,1.377524731e-12,1.665111080e-12,2.143108978e-13,7.431324981e-13,6.627760399e-13,6.971275814e-13,2.143173971e-13,2.415503723e-13,4.048782417e-14
1.5703,9.222777552e-13,2.161227285e-13,9.353654563e-13,2.327842546e-13,5.070266818e-14,5.694522022e-13,1.642450362e-12,1.582480429e-13,1.213557340e-13,5.767858461e-13,5.535971730e-12,6.331878048e-13,3.073031737e-13,9.860509253e-13,1.653600200e-12,1.160716940e-12,9.869535511e-13,1.009691822e-12,1.216152332e-12,1.958744585e-12,1.325549144e-12,3.184936369e-13,9.106629735e-13,1.352831062e-12,1.625280613e-12,2.034485103e-13,7.166971511e-13,6.240818141e-13,6.669440024e-13,1.905788056e-13,2.285921623e-13,3.895839557e-14
1.5781,8.583391403e-13,2.033482139e-13,9.076959886e-13,2.333453688e-13,4.967492092e-14,5.705770287e-13,1.762607371e-12,1.512281048e-13,1.186346297e-13,5.887417285e-13,5.475300261e-12,6.215953156e-13,2.969009040e-13,9.666547719e-13,1.622081586e-12,1.148046199e-12,9.574036100e-13,9.716066295e-13,1.158886980e-12,1.932967625e-12,1.275205631e-12,3.041800153e-13,8.852300892e-13,1.330319318e-12,1.585734255e-12,1.938858949e-13,6.923108618e-13,5.913458984e-13,6.400611072e-13,1.692110641e-13,2.175548611e-13,3.771899689e-14
1.5859,7.996377180e-13,1.925005261e-13,8.810329213e-13,2.352383989e-13,4.884003751e-14,5.730733009e-13,1.881962369e-12,1.443552427e-13,1.158536915e-13,6.022450262e-13,5.426160774e-12,6.095128272e-13,2.867752924e-13,9.481783830e-13,1.592993953e-12,1.138750938e-12,9.313149086e-13,9.364504744e-13,1.105188847e-12,1.912770847e-12,1.226502819e-12,2.906999610e-13,8.588574467e-13,1.308270742e-12,1.547854863e-12,1.854877845e-13,6.703156928e-13,5.631140701e-13,6.158991527e-13,1.506965110e-13,2.086186909e-13,3.666277278e-14
1.5938,7.470148820e-13,1.837337269e-13,8.579643995e-13,2.384548647e-13,4.818618194e-14,5.763466267e-13,1.999402953e-12,1.374239775e-13,1.131279222e-13,6.130470483e-13,5.391606744e-12,5.970724028e-13,2.768518646e-13,9.306647809e-13,1.566021886e-12,1.132545478e-12,9.090727085e-13,9.033772553e-13,1.053758482e-12,1.896598602e-12,1.177431534e-12,2.775180458e-13,8.305766880e-13,1.289892545e-12,1.510273482e-12,1.781312539e-13,6.508819456e-13,5.341530124e-13,5.934274507e-13,1.360956853e-13,2.014802346e-13,3.567625172e-14
1.6016,6.989020542e-13,1.768167488e-13,8.384278334e-13,2.429117458e-13,4.776346482e-14,5.800242170e-13,2.125175343e-12,1.300947567e-13,1.104741315e-13,6.243280543e-13,5.374760843e-12,5.843376728e-13,2.672091585e-13,9.141059439e-13,1.541257546e-12,1.128401855e-12,8.895928643e-13,8.717344225e-13,1.004015860e-12,1.884595895e-12,1.127422920e-12,2.646768703e-13,8.008824579e-13,1.274755401e-12,1.471387667e-12,1.715580028e-13,6.332426708e-13,5.063869878e-13,5.735728943e-13,1.231067635e-13,1.959355347e-13,3.470390986e-14
1.6094,6.559625474e-13,1.720104622e-13,8.208534146e-13,2.485249686e-13,4.755305372e-14,5.851191305e-13,2.259466964e-12,1.227280788e-13,1.078666153e-13,6.383950223e-13,5.371740026e-12,5.713419582e-13,2.580006691e-13,8.982418929e-13,1.517650840e-12,1.125856214e-12,8.722906660e-13,8.413923382e-13,9.568804586e-13,1.877456746e-12,1.079015485e-12,2.524981154e-13,7.715804944e-13,1.261849379e-12,1.433922434e-12,1.659885902e-13,6.184595718e-13,4.819713533e-13,5.578602298e-13,1.131134831e-13,1.921794014e-13,3.373760681e-14
1.6172,6.190443976e-13,1.687783396e-13,8.052754164e-13,2.550460883e-13,4.760552022e-14,5.906220921e-13,2.398218501e-12,1.157162799e-13,1.053686560e-13,6.534000980e-13,5.381973620e-12,5.586841320e-13,2.490871994e-13,8.834723572e-13,1.494941940e-12,1.124902336e-12,8.572247023e-13,8.123571467e-13,9.117642602e-13,1.874427785e-12,1.032343057e-12,2.408058841e-13,7.426283636e-13,1.252454046e-12,1.398780498e-12,1.616344801e-13,6.072139396e-13,4.585557875e-13,5.457523791e-13,1.055105179e-13,1.901432693e-13,3.275888696e-14
1.625,5.884645366e-13,1.665670442e-13,7.924462709e-13,2.623693033e-13,4.793233148e-14,5.959146486e-13,2.543923950e-12,1.089128462e-13,1.029955518e-13,6.693767484e-13,5.411838978e-12,5.465109319e-13,2.406482428e-13,8.706198192e-13,1.474910180e-12,1.126644672e-12,8.449613127e-13,7.851224773e-13,8.681303138e-13,1.875809817e-12,9.862245520e-13,2.292245380e-13,7.130515346e-13,1.244762631e-12,1.363115013e-12,1.581382839e-13,5.975303884e-13,4.356371625e-13,5.356452758e-13,9.876782814e-14,1.896968385e-13,3.176088593e-14
1.6328,5.644506211e-13,1.654066435e-13,7.833093887e-13,2.696584165e-13,4.838591139e-14,6.016389652e-13,2.691347501e-12,1.022280819e-13,1.007969087e-13,6.859962238e-13,5.459708359e-12,5.346674104e-13,2.330378288e-13,8.596622210e-13,1.457716814e-12,1.131581541e-12,8.358000135e-13,7.600963828e-13,8.269789340e-13,1.882035979e-12,9.413150308e-13,2.179123982e-13,6.840537951e-13,1.236197584e-12,1.328357623e-12,1.554721696e-13,5.901127412e-13,4.143219547e-13,5.278406197e-13,9.550237409e-14,1.903216563e-13,3.076671599e-14
1.6406,5.450887298e-13,1.644570024e-13,7.732153324e-13,2.763338328e-13,4.902513796e-14,6.065417597e-13,2.835147146e-12,9.585344741e-14,9.878139337e-14,7.020006073e-13,5.521044605e-12,5.231166035e-13,2.259555584e-13,8.495394095e-13,1.440977197e-12,1.137779524e-12,8.282424086e-13,7.362136339e-13,7.880128331e-13,1.892052287e-12,8.976996784e-13,2.071125788e-13,6.565321000e-13,1.229116080e-12,1.296258256e-12,1.537864694e-13,5.867099297e-13,3.938386415e-13,5.232195467e-13,9.424127678e-14,1.918134539e-13,2.972942159e-14
1.6484,5.302102655e-13,1.634648336e-13,7.592236308e-13,2.833256643e-13,5.005798473e-14,6.100637377e-13,2.983703869e-12,8.977338392e-14,9.679642753e-14,7.184337580e-13,5.601565505e-12,5.117351231e-13,2.193668254e-13,8.397135144e-13,1.423645257e-12,1.143805379e-12,8.211420555e-13,7.126591044e-13,7.502422481e-13,1.904700533e-12,8.550865928e-13,1.966467210e-13,6.292398955e-13,1.226671830e-12,1.262877739e-12,1.529164358e-13,5.852831349e-13,3.737954528e-13,5.208794675e-13,9.435017713e-14,1.950068155e-13,2.867245288e-14
1.6562,5.211383601e-13,1.628125283e-13,7.453593264e-13,2.906214590e-13,5.146289480e-14,6.135855725e-13,3.136469653e-12,8.392651780e-14,9.491440725e-14,7.369626618e-13,5.702491209e-12,5.013298817e-13,2.137894839e-13,8.314099558e-13,1.407694651e-12,1.150595191e-12,8.151171191e-13,6.905741723e-13,7.140067879e-13,1.918997963e-12,8.139647027e-13,1.864466082e-13,6.022736448e-13,1.224965528e-12,1.227720390e-12,1.529411236e-13,5.855325410e-13,3.549751533e-13,5.208695578e-13,9.761115648e-14,1.999802745e-13,2.768870564e-14
1.6641,5.185579673e-13,1.622619911e-13,7.325594308e-13,2.973459345e-13,5.316927292e-14,6.171162541e-13,3.281860069e-12,7.847751801e-14,9.339249890e-14,7.576609207e-13,5.818067905e-12,4.926984779e-13,2.093179748e-13,8.259655357e-13,1.395378629e-12,1.159938502e-12,8.114161674e-13,6.713176733e-13,6.799702249e-13,1.935834692e-12,7.742909512e-13,1.767252518e-13,5.768317948e-13,1.220583081e-12,1.194157858e-12,1.538711199e-13,5.890792257e-13,3.367866699e-13,5.240391290e-13,1.026666100e-13,2.062599533e-13,2.670640398e-14
1.6719,5.221630271e-13,1.618192996e-13,7.204502343e-13,3.036476514e-13,5.517076945e-14,6.201081113e-13,3.422938298e-12,7.350189525e-14,9.224163756e-14,7.786751387e-13,5.950723359e-12,4.852364354e-13,2.059674227e-13,8.232727556e-13,1.386777113e-12,1.172746278e-12,8.113103507e-13,6.551519577e-13,6.486281797e-13,1.957726034e-12,7.363214661e-13,1.676783218e-13,5.524422422e-13,1.219990997e-12,1.160314223e-12,1.553713919e-13,5.946122565e-13,3.188674999e-13,5.290077743e-13,1.107589547e-13,2.137111705e-13,2.568016100e-14
1.6797,5.295577805e-13,1.617355561e-13,7.115084239e-13,3.095258247e-13,5.742163436e-14,6.228521973e-13,3.569658986e-12,6.887703584e-14,9.133987410e-14,7.981347377e-13,6.100725726e-12,4.787093263e-13,2.037317373e-13,8.229381548e-13,1.381067571e-12,1.188372636e-12,8.144363377e-13,6.415142772e-13,6.199020153e-13,1.984695328e-12,7.008697091e-13,1.593353050e-13,5.288148058e-13,1.226535261e-12,1.124948019e-12,1.574093783e-13,6.014229595e-13,3.029448437e-13,5.353277637e-13,1.217741645e-13,2.219903913e-13,2.472804532e-14
1.6875,5.414501376e-13,1.625451297e-13,7.054202738e-13,3.153737969e-13,5.994266294e-14,6.254514211e-13,3.718672938e-12,6.441085549e-14,9.062146274e-14,8.163813630e-13,6.264266617e-12,4.732974284e-13,2.023476135e-13,8.247485883e-13,1.377758027e-12,1.206134125e-12,8.195536114e-13,6.297027698e-13,5.930025335e-13,2.015831349e-12,6.680005758e-13,1.514815429e-13,5.068986145e-13,1.235100755e-12,1.092175249e-12,1.601856361e-13,6.105795874e-13,2.894551031e-13,5.446024542e-13,1.330584812e-13,2.312839867e-13,2.390080166e-14
1.6953,5.589127606e-13,1.641208555e-13,7.002722645e-13,3.219332302e-13,6.275243499e-14,6.276428057e-13,3.862381184e-12,6.014518338e-14,9.016301078e-14,8.354499133e-13,6.447811625e-12,4.690331014e-13,2.019782356e-13,8.288336120e-13,1.377094323e-12,1.226339393e-12,8.272891982e-13,6.199021674e-13,5.680017608e-13,2.051744941e-12,6.377573022e-13,1.440993343e-13,4.868767844e-13,1.244833332e-12,1.062933886e-12,1.638073248e-13,6.221836796e-13,2.769729143e-13,5.563034127e-13,1.455621297e-13,2.416740715e-13,2.315905373e-14
1.7031,5.773384095e-13,1.651145598e-13,6.963054445e-13,3.279593880e-13,6.579907933e-14,6.285084990e-13,4.002581059e-12,5.631604598e-14,9.011844268e-14,8.559342791e-13,6.653820180e-12,4.666670983e-13,2.027902733e-13,8.360076993e-13,1.380342446e-12,1.249117786e-12,8.381159962e-13,6.126930097e-13,5.455253342e-13,2.091940179e-12,6.102615007e-13,1.374597686e-13,4.681935532e-13,1.256053873e-12,1.034202564e-12,1.682538600e-13,6.352547383e-13,2.648717650e-13,5.686490781e-13,1.588520052e-13,2.526916414e-13,2.251064102e-14
1.7109,5.949422482e-13,1.655698757e-13,6.933704077e-13,3.325870155e-13,6.913098475e-14,6.282475036e-13,4.140416635e-12,5.279254441e-14,9.041062055e-14,8.751129250e-13,6.874472008e-12,4.659871397e-13,2.044627211e-13,8.458064095e-13,1.386893300e-12,1.273939736e-12,8.509824875e-13,6.077955498e-13,5.254344358e-13,2.135387777e-12,5.851314582e-13,1.313702946e-13,4.506485471e-13,1.266760618e-12,1.005691671e-12,1.735079687e-13,6.489805826e-13,2.533636980e-13,5.822371773e-13,1.724230988e-13,2.647862063e-13,2.205673219e-14
1.7188,6.136403848e-13,1.665304208e-13,6.903169637e-13,3.375639878e-13,7.286644453e-14,6.287987428e-13,4.265535458e-12,4.954879096e-14,9.096862183e-14,8.930788048e-13,7.105022362e-12,4.662689603e-13,2.067132794e-13,8.564168515e-13,1.393348686e-12,1.299201628e-12,8.655144290e-13,6.043644682e-13,5.073655871e-13,2.181673131e-12,5.623946007e-13,1.254457128e-13,4.343139786e-13,1.280739144e-12,9.791806264e-13,1.797659571e-13,6.644876778e-13,2.433220228e-13,5.986202138e-13,1.866789333e-13,2.785262789e-13,2.186944371e-14
1.7266,6.326547243e-13,1.680705535e-13,6.868806879e-13,3.434293051e-13,7.695725142e-14,6.289974146e-13,4.375242666e-12,4.688632361e-14,9.191430287e-14,9.133425867e-13,7.337250838e-12,4.680882159e-13,2.094342235e-13,8.670800633e-13,1.397053831e-12,1.322270338e-12,8.808312482e-13,6.018799300e-13,4.911121779e-13,2.229462965e-12,5.422967285e-13,1.198415807e-13,4.193128884e-13,1.299526296e-12,9.548249776e-13,1.869590490e-13,6.822823827e-13,2.351075878e-13,6.171425052e-13,2.004305193e-13,2.937784525e-13,2.187555875e-14
1.7344,6.521566665e-13,1.700566551e-13,6.822530424e-13,3.484117063e-13,8.123011218e-14,6.260145215e-13,4.483500745e-12,4.450852648e-14,9.322275785e-14,9.328395567e-13,7.567911768e-12,4.711648941e-13,2.128911101e-13,8.784332116e-13,1.399457338e-12,1.343432619e-12,8.957301768e-13,6.008113525e-13,4.766575706e-13,2.278232533e-12,5.242795931e-13,1.147951431e-13,4.057282339e-13,1.316523901e-12,9.320192007e-13,1.948599458e-13,7.012747950e-13,2.275668464e-13,6.370347690e-13,2.154651903e-13,3.103337859e-13,2.202361808e-14
1.7422,6.737215792e-13,1.724565601e-13,6.759781156e-13,3.527236603e-13,8.573932794e-14,6.213465766e-13,4.590634892e-12,4.208421474e-14,9.484070967e-14,9.471647075e-13,7.806972796e-12,4.749202944e-13,2.172528272e-13,8.913968121e-13,1.404827281e-12,1.365725302e-12,9.116017150e-13,6.019961117e-13,4.641899405e-13,2.329086271e-12,5.076272028e-13,1.102723331e-13,3.936087427e-13,1.330217282e-12,9.110355854e-13,2.037543438e-13,7.220100428e-13,2.201709627e-13,6.596973233e-13,2.320402236e-13,3.282218118e-13,2.236273325e-14
1.75,6.971173170e-13,1.752817489e-13,6.692173484e-13,3.580694641e-13,9.064425295e-14,6.164744279e-13,4.679783479e-12,3.992395199e-14,9.673418092e-14,9.596278217e-13,8.047956355e-12,4.799035780e-13,2.219898060e-13,9.052963073e-13,1.412456331e-12,1.387953528e-12,9.290314626e-13,6.050811244e-13,4.536574569e-13,2.382269794e-12,4.925719554e-13,1.062326335e-13,3.828387070e-13,1.345913683e-12,8.907219280e-13,2.136552324e-13,7.438244327e-13,2.129081482e-13,6.846891180e-13,2.487238948e-13,3.477580289e-13,2.293028561e-14
1.7578,7.208200811e-13,1.781992255e-13,6.608186782e-13,3.635043580e-13,9.584868655e-14,6.094089757e-13,4.749586355e-12,3.813762901e-14,9.882516024e-14,9.719465949e-13,8.280474421e-12,4.859949921e-13,2.269830365e-13,9.188223365e-13,1.418116492e-12,1.407173588e-12,9.461812491e-13,6.094827694e-13,4.450688298e-13,2.436531778e-12,4.796759474e-13,1.027177953e-13,3.729259987e-13,1.364211580e-12,8.685181655e-13,2.240710082e-13,7.649823435e-13,2.055602362e-13,7.099731485e-13,2.677490272e-13,3.685928683e-13,2.372434706e-14
1.7656,7.443332818e-13,1.811316869e-13,6.502745805e-13,3.682428117e-13,1.013241550e-13,6.002922760e-13,4.810796053e-12,3.660078769e-14,1.013077012e-13,9.826762735e-13,8.518503087e-12,4.934143678e-13,2.326418958e-13,9.328550839e-13,1.423284390e-12,1.424714125e-12,9.629294251e-13,6.154190913e-13,4.384002026e-13,2.489967155e-12,4.685593324e-13,9.977748152e-14,3.638580458e-13,1.380634527e-12,8.464340020e-13,2.351247110e-13,7.870089706e-13,1.988228784e-13,7.364006062e-13,2.886717148e-13,3.904782351e-13,2.467952876e-14
1.7734,7.696746851e-13,1.849941353e-13,6.395517223e-13,3.739154545e-13,1.071868506e-13,5.910706890e-13,4.860825379e-12,3.526888353e-14,1.042979661e-13,9.931524399e-13,8.760786398e-12,5.026847925e-13,2.389120225e-13,9.476794349e-13,1.428777895e-12,1.440442151e-12,9.790801722e-13,6.223450776e-13,4.330543261e-13,2.542076102e-12,4.586713640e-13,9.727283225e-14,3.563785772e-13,1.394823300e-12,8.288131995e-13,2.471998850e-13,8.108137845e-13,1.928441457e-13,7.645994697e-13,3.107689327e-13,4.140718032e-13,2.575796397e-14
1.7812,7.973314662e-13,1.896228603e-13,6.275535162e-13,3.803777968e-13,1.133910610e-13,5.808496761e-13,4.894512601e-12,3.416915100e-14,1.077185346e-13,1.002711559e-12,8.991124555e-12,5.133343742e-13,2.458596958e-13,9.626563050e-13,1.432520378e-12,1.453539429e-12,9.941678300e-13,6.300280297e-13,4.288159522e-13,2.594601630e-12,4.502059635e-13,9.512507954e-14,3.504185814e-13,1.410917994e-12,8.137741261e-13,2.601406488e-13,8.352074962e-13,1.874251735e-13,7.936348003e-13,3.355514585e-13,4.391853342e-13,2.699837239e-14
1.7891,8.253287070e-13,1.944660748e-13,6.146498584e-13,3.867175603e-13,1.199686161e-13,5.684508511e-13,4.919370843e-12,3.347193040e-14,1.118321273e-13,1.009406684e-12,9.223263684e-12,5.260935053e-13,2.539014133e-13,9.799738755e-13,1.439003591e-12,1.468372950e-12,1.011068545e-12,6.399662622e-13,4.261207328e-13,2.648360685e-12,4.429175848e-13,9.355534485e-14,3.452212134e-13,1.428263199e-12,7.978498167e-13,2.737368801e-13,8.602281345e-13,1.836117497e-13,8.242962399e-13,3.611473049e-13,4.654974183e-13,2.834965266e-14
