Time,Fp1,AF3,F7,F3,FC1,FC5,T7,C3,CP1,CP5,P7,P3,Pz,PO3,O1,Oz,O2,PO4,P4,P8,CP6,CP2,C4,T8,FC6,FC2,F4,F8,AF4,Fp2,Fz,Cz,
0,7.620498328e-08,4.469821447e-08,2.039474723e-08,4.151358436e-09,7.905180706e-09,2.013105243e-08,1.029033733e-08,8.081480215e-09,1.191442418e-09,6.466650910e-09,1.569236515e-08,7.932563713e-09,1.317738322e-08,2.402081669e-09,2.065528023e-08,1.251118072e-09,2.847495870e-08,1.179007199e-08,1.766815175e-08,2.982618339e-08,1.056151444e-08,7.638803892e-09,1.993127373e-08,2.754557017e-08,4.270657135e-08,6.913912914e-09,2.460819380e-08,4.706055762e-08,1.519165199e-09,4.529877023e-08,1.319491017e-11,4.108487859e-11
0.0078125,7.533015411e-08,4.419259336e-08,2.015816352e-08,4.100265193e-09,7.817520012e-09,1.987125963e-08,1.016622318e-08,7.979925950e-09,1.175396040e-09,6.399662295e-09,1.549454398e-08,7.824898604e-09,1.302016509e-08,2.379636714e-09,2.042628316e-08,1.235461142e-09,2.815976995e-08,1.165016054e-08,1.745488926e-08,2.952709982e-08,1.042794584e-08,7.535588288e-09,1.970680117e-08,2.723863898e-08,4.225044446e-08,6.846023795e-09,2.434270959e-08,4.644835391e-08,1.514053978e-09,4.479276165e-08,1.275071719e-11,4.006134334e-11
0.015625,7.125372136e-08,4.180787003e-08,1.906642001e-08,3.876008001e-09,7.396940526e-09,1.877506772e-08,9.611676573e-09,7.541621283e-09,1.110000505e-09,6.058837089e-09,1.464147769e-08,7.388792978e-09,1.231097785e-08,2.254707831e-09,1.932590419e-08,1.167412578e-09,2.664522329e-08,1.101604144e-08,1.650236313e-08,2.796324723e-08,9.854371253e-09,7.116420139e-09,1.864419762e-08,2.577075900e-08,3.998904075e-08,6.484757718e-09,2.303850261e-08,4.388002415e-08,1.443632314e-09,4.237893035e-08,1.195564513e-11,3.758083851e-11
0.023438,6.457006395e-08,3.789506618e-08,1.727566084e-08,3.509651438e-09,6.706075626e-09,1.699045926e-08,8.704519291e-09,6.827054671e-09,1.003993233e-09,5.497256048e-09,1.325255062e-08,6.682248055e-09,1.115197919e-08,2.048399524e-09,1.752145545e-08,1.056998049e-09,2.415962197e-08,9.979941042e-09,1.494702213e-08,2.538355795e-08,8.920340975e-09,6.436746597e-09,1.690112687e-08,2.336346338e-08,3.626921151e-08,5.887758704e-09,2.089431938e-08,3.970672177e-08,1.323570799e-09,3.841805160e-08,1.082018598e-11,3.377574178e-11
0.03125,5.615474703e-08,3.296664494e-08,1.502026702e-08,3.048992327e-09,5.835457444e-09,1.474982972e-08,7.563436273e-09,5.929529934e-09,8.711545982e-10,4.788571024e-09,1.150863345e-08,5.796954599e-09,9.694758940e-09,1.787606730e-09,1.524897534e-08,9.186161079e-10,2.102856476e-08,8.677329432e-09,1.299214606e-08,2.212596503e-08,7.747638996e-09,5.584893485e-09,1.470597647e-08,2.033182688e-08,3.157881548e-08,5.133355400e-09,1.819137710e-08,3.447184290e-08,1.168448515e-09,3.342916727e-08,9.404560582e-12,2.904991474e-11
0.039062,4.700170686e-08,2.760313387e-08,1.256893916e-08,2.549655693e-09,4.887127750e-09,1.232545201e-08,6.325013534e-09,4.957114497e-09,7.276468387e-10,4.013992554e-09,9.618385254e-09,4.840784855e-09,8.112075930e-09,1.501026288e-09,1.277190392e-08,7.684584272e-10,1.761669134e-08,7.262052237e-09,1.087020559e-08,1.856135573e-08,6.477509859e-09,4.664974386e-09,1.231628824e-08,1.702958599e-08,2.646004864e-08,4.307352654e-09,1.524321695e-08,2.880863033e-08,9.922417839e-10,2.799592388e-08,7.893230161e-12,2.406808159e-11
0.046875,3.800728566e-08,2.232946893e-08,1.016191237e-08,2.060552689e-09,3.953940543e-09,9.954573417e-09,5.110456922e-09,4.004906646e-09,5.874638873e-10,3.249371852e-09,7.766444484e-09,3.907075742e-09,6.558565902e-09,1.216769652e-09,1.033249779e-08,6.211744707e-10,1.425760680e-08,5.872310276e-09,8.788420276e-09,1.503875015e-08,5.233993511e-09,3.766845204e-09,9.965626142e-09,1.377940675e-08,2.141383444e-08,3.490656404e-09,1.233818883e-08,2.326974318e-08,8.128276950e-10,2.264953268e-08,6.455621468e-12,1.934479498e-11
0.054688,2.983383469e-08,1.753571371e-08,7.975093283e-09,1.616759957e-09,3.105444517e-09,7.805252486e-09,4.007734275e-09,3.141138314e-09,4.604725554e-10,2.552942563e-09,6.085987347e-09,3.061293065e-09,5.147749729e-09,9.572760502e-10,8.113502604e-09,4.875045027e-10,1.120243796e-08,4.610094367e-09,6.898596608e-09,1.182976011e-08,4.106440300e-09,2.953493082e-09,7.828695193e-09,1.082481271e-08,1.682202121e-08,2.746328034e-09,9.695050159e-09,1.824915925e-08,6.469734311e-10,1.778850976e-08,5.165206544e-12,1.512669492e-11
0.0625,2.286533574e-08,1.344800548e-08,6.110168696e-09,1.238533059e-09,2.381922611e-09,5.973975943e-09,3.067635100e-09,2.405076847e-09,3.522972025e-10,1.958529183e-09,4.653787883e-09,2.340818185e-09,3.945111757e-09,7.355557383e-10,6.220858606e-09,3.736048744e-10,8.596354254e-09,3.534114642e-09,5.288028855e-09,9.091220414e-09,3.145926157e-09,2.260829724e-09,6.006505485e-09,8.305916493e-09,1.290564440e-08,2.111027300e-09,7.440790974e-09,1.397253615e-08,5.041236010e-10,1.364345374e-08,4.033776799e-12,1.151910361e-11
0.070312,1.719994304e-08,1.012350989e-08,4.594265563e-09,9.313966052e-10,1.793400945e-09,4.487960005e-09,2.303944912e-09,1.807471229e-09,2.645451317e-10,1.474203547e-09,3.490639715e-09,1.756442606e-09,2.967806975e-09,5.544393530e-10,4.680594899e-09,2.810934225e-10,6.475581104e-09,2.659660198e-09,3.979658267e-09,6.859419768e-09,2.366421571e-09,1.699188123e-09,4.524401705e-09,6.257376447e-09,9.717678751e-09,1.593093099e-09,5.605857542e-09,1.050201970e-08,3.855723263e-10,1.027145525e-08,3.091691838e-12,8.596515472e-12
0.078125,1.276908389e-08,7.522157369e-09,3.409277986e-09,6.915936300e-10,1.332775430e-09,3.328769135e-09,1.707463980e-09,1.340919150e-09,1.961009494e-10,1.094357419e-09,2.582288546e-09,1.300789131e-09,2.203823640e-09,4.119140774e-10,3.474286054e-09,2.088133020e-10,4.814793527e-09,1.976010614e-09,2.957240899e-09,5.108188101e-09,1.758137179e-09,1.261417643e-09,3.364416960e-09,4.653877952e-09,7.220157039e-09,1.186513697e-09,4.168339782e-09,7.794099998e-09,2.905663183e-10,7.631821667e-09,2.341625427e-12,6.334564161e-12
0.085938,9.390472779e-09,5.537572272e-09,2.505946849e-09,5.089071568e-10,9.813441525e-10,2.446410129e-09,1.253217716e-09,9.855899176e-10,1.440063354e-10,8.042494038e-10,1.890694152e-09,9.540940952e-10,1.621451693e-09,3.028117223e-10,2.553784210e-09,1.537410566e-10,3.547186341e-09,1.454825144e-09,2.178030981e-09,3.769769566e-09,1.295031803e-09,9.283481998e-10,2.479410491e-09,3.430545224e-09,5.313987963e-09,8.756798404e-10,3.070912484e-09,5.732486656e-09,2.168072758e-10,5.617771776e-09,1.755378904e-12,4.622573839e-12
0.09375,6.864589057e-09,4.053268353e-09,1.830637768e-09,3.722869755e-10,7.185597975e-10,1.786744756e-09,9.138610396e-10,7.199182475e-10,1.050519626e-10,5.873272860e-10,1.374048003e-09,6.949303295e-10,1.186058542e-09,2.211994713e-10,1.865771700e-09,1.126070173e-10,2.599185896e-09,1.065193330e-09,1.595440457e-09,2.768376427e-09,9.488860991e-10,6.793265939e-10,1.817562770e-09,2.515864756e-09,3.889160687e-09,6.431323051e-10,2.250265284e-09,4.191339764e-09,1.610758455e-10,4.111806461e-09,1.291866932e-12,3.331102489e-12
0.10156,4.995735123e-09,2.954336180e-09,1.331144002e-09,2.711797114e-10,5.240098951e-10,1.298940372e-09,6.631065739e-10,5.233972218e-10,7.624878286e-11,4.267526717e-10,9.924234375e-10,5.033921284e-10,8.639484754e-10,1.607190724e-10,1.356752672e-09,8.220996238e-11,1.897271688e-09,7.769291602e-10,1.164343754e-09,2.026087219e-09,6.929091025e-10,4.951785367e-10,1.327569550e-09,1.838707042e-09,2.834668028e-09,4.707446804e-10,1.642568544e-09,3.051772992e-09,1.191423841e-10,2.997105161e-09,9.298600051e-13,2.368963243e-12
0.10938,3.620646682e-09,2.144895720e-09,9.639592602e-10,1.967880107e-10,3.806745340e-10,9.405710998e-10,4.790601960e-10,3.789333949e-10,5.509613356e-11,3.085030683e-10,7.124827539e-10,3.628465740e-10,6.269461170e-10,1.160812122e-10,9.820607745e-10,5.986281379e-11,1.380029165e-09,5.647563940e-10,8.470018413e-10,1.477944101e-09,5.046427688e-10,3.598426799e-10,9.665062102e-10,1.339579403e-09,2.057872415e-09,3.433990187e-10,1.194545705e-09,2.214174149e-09,8.758336021e-11,2.176086050e-09,6.574341906e-13,1.663928982e-12
0.11719,2.612641748e-09,1.550764969e-09,6.950917281e-10,1.422519279e-10,2.754178237e-10,6.783640557e-10,3.445573219e-10,2.731567760e-10,3.963129388e-11,2.217591550e-10,5.081648027e-10,2.602120513e-10,4.531904900e-10,8.328116062e-11,7.073023159e-10,4.348496960e-11,1.000084955e-09,4.091081628e-10,6.141430085e-10,1.074255747e-09,3.666174370e-10,2.607380809e-10,7.012432066e-10,9.727598837e-10,1.487437538e-09,2.495657448e-10,8.652352290e-10,1.600720413e-09,6.391433142e-11,1.573373801e-09,4.593868566e-13,1.155365218e-12
0.125,1.873355779e-09,1.114371317e-09,4.980891380e-10,1.022117172e-10,1.980744111e-10,4.862104664e-10,2.461968817e-10,1.956067139e-10,2.831060890e-11,1.581978512e-10,3.590700481e-10,1.851782756e-10,3.256635490e-10,5.925171522e-11,5.058757694e-10,3.146874742e-11,7.208356896e-10,2.947961704e-10,4.430105979e-10,7.769204881e-10,2.652089690e-10,1.879821486e-10,5.061690942e-10,7.029601869e-10,1.068561094e-09,1.804285180e-10,6.230986531e-10,1.150615134e-09,4.630703083e-11,1.130754144e-09,3.193800315e-13,7.902890038e-13
0.13281,1.331614763e-09,7.941457228e-10,3.538698723e-10,7.289565781e-11,1.413547430e-10,3.454838016e-10,1.741772395e-10,1.387745998e-10,2.001332055e-11,1.116151428e-10,2.502530382e-10,1.302432163e-10,2.319978514e-10,4.164664534e-11,3.581906832e-10,2.261190909e-11,5.155775049e-10,2.107969394e-10,3.172290185e-10,5.584131196e-10,1.906758581e-10,1.344494202e-10,3.626553411e-10,5.048547443e-10,7.612030325e-10,1.295377167e-10,4.451934557e-10,8.202125401e-10,3.331076235e-11,8.059419395e-10,2.219797138e-13,5.323718270e-13
0.14062,9.420226964e-10,5.633202427e-10,2.502103447e-10,5.171518025e-11,1.003826814e-10,2.442603073e-10,1.226768457e-10,9.794106335e-11,1.407447095e-11,7.829135155e-11,1.729630163e-10,9.108048535e-11,1.646092126e-10,2.910551718e-11,2.523672342e-10,1.625884124e-11,3.674923267e-10,1.502012667e-10,2.263422694e-10,3.997178308e-10,1.367002616e-10,9.587671268e-11,2.589376956e-10,3.611191812e-10,5.396844338e-10,9.266368958e-11,3.167621868e-10,5.821755185e-10,2.380501140e-11,5.718337274e-10,1.658716176e-13,3.538160639e-13
0.14844,6.604292590e-10,3.960444062e-10,1.754670480e-10,3.635546641e-11,7.067393543e-11,1.710875042e-10,8.559140061e-11,6.842559510e-11,9.802261487e-12,5.430145540e-11,1.177567859e-10,6.293975373e-11,1.158494942e-10,2.011105018e-11,1.760134202e-10,1.165560207e-11,2.601041296e-10,1.063118666e-10,1.603726540e-10,2.844412041e-10,9.744829326e-11,6.788538363e-11,1.835815388e-10,2.568123474e-10,3.792595957e-10,6.583236054e-11,2.235266736e-10,4.097897822e-10,1.690597314e-11,4.023196529e-10,1.372228494e-13,2.283376584e-13
0.15625,4.583056665e-10,2.756665476e-10,1.218403168e-10,2.529400338e-11,4.925475673e-11,1.186064817e-10,5.909077856e-11,4.728379256e-11,6.755252615e-12,3.718477822e-11,7.882471691e-11,4.295454315e-11,8.078075904e-11,1.373440545e-11,1.214196745e-10,8.340063733e-12,1.825778376e-10,7.464724565e-11,1.126918407e-10,2.006632437e-10,6.899688334e-11,4.769983893e-11,1.290554064e-10,1.811605242e-10,2.637247068e-10,4.635890304e-11,1.562337173e-10,2.857428547e-10,1.184974244e-11,2.802628847e-10,1.229867204e-13,1.445480745e-13
0.16406,3.129567603e-10,1.888041529e-10,8.347111338e-11,1.727791500e-11,3.379380479e-11,8.100795808e-11,4.026085468e-11,3.217400020e-11,4.606463692e-12,2.503536336e-11,5.156187710e-11,2.886231791e-11,5.566690959e-11,9.254242769e-12,8.244278676e-11,5.968524290e-12,1.268116842e-10,5.191938557e-11,7.834457208e-11,1.399264218e-10,4.843172715e-11,3.319699837e-11,8.965973342e-11,1.264840436e-10,1.805891333e-10,3.219812143e-11,1.075187562e-10,1.968285851e-10,8.149406511e-12,1.922897867e-10,1.197477203e-13,9.259162421e-14
0.17188,2.124660074e-10,1.286524975e-10,5.680373283e-11,1.177484836e-11,2.305759562e-11,5.497486333e-11,2.715222907e-11,2.170980407e-11,3.104304280e-12,1.666293780e-11,3.313798458e-11,1.916067706e-11,3.812101667e-11,6.184748470e-12,5.555288781e-11,4.285027834e-12,8.766379030e-11,3.595852577e-11,5.421109145e-11,9.718339934e-11,3.390160657e-11,2.298140327e-11,6.201282822e-11,8.799438176e-11,1.228135592e-10,2.229002669e-11,7.367480656e-11,1.346863989e-10,5.586980792e-12,1.311736491e-10,1.176763573e-13,5.923590199e-14
0.17969,1.420872539e-10,8.639917986e-11,3.814266608e-11,7.894625978e-12,1.551144824e-11,3.673317575e-11,1.805633801e-11,1.442328247e-11,2.063564877e-12,1.091783462e-11,2.073238737e-11,1.250527923e-11,2.578753448e-11,4.108354869e-12,3.693518184e-11,3.079926423e-12,5.999216754e-11,2.463685415e-11,3.707931253e-11,6.683685484e-11,2.348851794e-11,1.573544335e-11,4.239862866e-11,6.072162083e-11,8.225556508e-11,1.525414344e-11,4.977868632e-11,9.081674369e-11,3.785524887e-12,8.817421803e-11,1.187393500e-13,3.890116176e-14
0.1875,9.404615813e-11,5.749651094e-11,2.534978085e-11,5.247738047e-12,1.033021608e-11,2.429596313e-11,1.184900315e-11,9.464137417e-12,1.358944388e-12,7.016663780e-12,1.263702324e-11,8.054894327e-12,1.731637976e-11,2.702999818e-12,2.428716038e-11,2.236076148e-12,4.081669924e-11,1.680388240e-11,2.520687263e-11,4.565851455e-11,1.621541446e-11,1.072956597e-11,2.880593463e-11,4.167584782e-11,5.449212628e-11,1.037911553e-11,3.339278988e-11,6.073536651e-11,2.548214280e-12,5.871185000e-11,1.244195262e-13,2.850852148e-14
0.19531,5.898017931e-11,3.615518667e-11,1.605134574e-11,3.258806831e-12,6.528272178e-12,1.536949614e-11,7.507376006e-12,6.008585977e-12,8.734297294e-13,4.409599879e-12,7.494917261e-12,5.092367022e-12,1.114649166e-11,1.789128357e-12,1.550862674e-11,1.629754650e-12,2.688382799e-11,1.109538886e-11,1.640450322e-11,2.980804162e-11,1.070332137e-11,7.000883679e-12,1.854274172e-11,2.725857009e-11,3.415703650e-11,6.610592686e-12,2.098346505e-11,3.842911227e-11,1.594301353e-12,3.671875388e-11,1.396227313e-13,3.276103982e-14
0.20312,3.826053963e-11,2.356820817e-11,1.046349440e-11,2.097685014e-12,4.259195537e-12,9.971063277e-12,4.893480938e-12,3.876931854e-12,5.736099279e-13,2.779650665e-12,4.360401512e-12,3.229994004e-12,7.404106799e-12,1.187115456e-12,1.000644873e-11,1.217196684e-12,1.817452044e-11,7.550777142e-12,1.104260990e-11,2.012592218e-11,7.378301359e-12,4.733043301e-12,1.245859143e-11,1.850184541e-11,2.223337724e-11,4.450552608e-12,1.383376581e-11,2.524865026e-11,1.140104984e-12,2.397429505e-11,1.478536860e-13,3.328663162e-14
0.21094,2.418861134e-11,1.509110438e-11,6.642151604e-12,1.342336110e-12,2.716227697e-12,6.286161281e-12,2.971672455e-12,2.413510728e-12,3.600938977e-13,1.674441656e-12,2.410776782e-12,1.971539768e-12,4.835245635e-12,8.211566732e-13,6.425546560e-12,9.314612074e-13,1.218876702e-11,5.098774584e-12,7.339055833e-12,1.347415824e-11,5.024990664e-12,3.158879186e-12,8.261547954e-12,1.269393984e-11,1.408466008e-11,2.972673558e-12,9.015174346e-12,1.631025648e-11,7.929230728e-13,1.533053220e-11,1.374700216e-13,2.776703121e-14
0.21875,1.501274180e-11,9.493945310e-12,4.139257765e-12,8.408083530e-13,1.702433324e-12,3.876247442e-12,1.785730858e-12,1.462828551e-12,2.235860365e-13,9.796737626e-13,1.228020143e-12,1.157104527e-12,3.138096322e-12,5.728339097e-13,4.036697188e-12,7.239382718e-13,8.176692841e-12,3.449011549e-12,4.861815178e-12,9.050027532e-12,3.441270600e-12,2.105157319e-12,5.461398026e-12,8.708540681e-12,8.829993514e-12,1.966661159e-12,5.800369028e-12,1.043945038e-11,5.171365995e-13,9.665880854e-12,1.184297726e-13,2.079351026e-14
0.22656,9.197815748e-12,5.949427116e-12,2.554821652e-12,5.281971801e-13,1.061120522e-12,2.338587386e-12,1.030085567e-12,8.610912565e-13,1.379729924e-13,5.431352427e-13,5.628768758e-13,6.545386297e-13,2.042822370e-12,4.008366937e-13,2.525871084e-12,5.775988275e-13,5.542782745e-12,2.356985069e-12,3.245535121e-12,6.150253964e-12,2.377667304e-12,1.417298609e-12,3.638589180e-12,6.128362548e-12,5.522336905e-12,1.318130412e-12,3.772669113e-12,6.695969531e-12,3.360383823e-13,6.075171163e-12,1.022743183e-13,1.608912534e-14
0.23438,5.510659359e-12,3.629768374e-12,1.553558809e-12,3.146176148e-13,6.424828507e-13,1.387247496e-12,6.341051357e-13,5.069648086e-13,9.203706965e-14,3.105533203e-13,2.715142113e-13,3.815314159e-13,1.340006313e-12,2.782328431e-13,1.557605751e-12,4.713761931e-13,3.775316840e-12,1.635204886e-12,2.175284796e-12,4.169495051e-12,1.653083264e-12,9.611851563e-13,2.415933454e-12,4.287276515e-12,3.428335174e-12,8.770677993e-13,2.392249103e-12,4.256253409e-12,2.659362690e-13,3.750894618e-12,9.804682427e-14,1.726010397e-14
0.24219,3.265691947e-12,2.206046472e-12,9.475526620e-13,1.865503262e-13,3.820077682e-13,8.235286326e-13,4.067624375e-13,3.022663254e-13,6.446469153e-14,1.784114878e-13,1.611395894e-13,2.353970220e-13,8.990809375e-13,1.960421954e-13,9.802973848e-13,3.953297226e-13,2.612424611e-12,1.159631207e-12,1.484808650e-12,2.885136615e-12,1.166273343e-12,6.656892381e-13,1.631394844e-12,3.136009934e-12,2.102146854e-12,6.066924875e-13,1.520676269e-12,2.722743730e-12,2.641025683e-13,2.324480495e-12,9.824599721e-14,2.138178439e-14
0.25,1.929898474e-12,1.310228944e-12,5.770056632e-13,1.011300593e-13,2.179009254e-13,4.864667303e-13,2.973296896e-13,1.853281702e-13,5.136485790e-14,1.201690888e-13,1.650842758e-13,1.620404251e-13,6.230535363e-13,1.515899413e-13,6.488373056e-13,3.417637509e-13,1.860277399e-12,8.529128079e-13,1.034306376e-12,2.079188500e-12,8.380991222e-13,4.724753637e-13,1.116608472e-12,2.373540043e-12,1.324433587e-12,4.226666984e-13,9.393262723e-13,1.774545842e-12,2.457527851e-13,1.443460367e-12,9.325397084e-14,2.337634568e-14
0.25781,1.611518275e-13,1.072828966e-13,5.029410310e-14,2.688123516e-14,1.470983489e-14,4.921487523e-14,2.047692404e-13,3.628240261e-14,2.633658814e-14,9.487525303e-14,4.835272069e-13,7.478675868e-14,1.051348880e-13,9.832932200e-14,1.773485761e-13,2.072769827e-13,4.434021144e-13,2.209505619e-13,2.238395346e-13,6.220495397e-13,2.704761527e-13,1.184108074e-13,2.558894599e-13,1.033329354e-12,2.883036943e-13,1.363064632e-13,1.720163771e-13,4.555273577e-13,1.615229226e-13,2.619445128e-13,8.095000703e-14,2.319629359e-14
0.26562,2.738836120e-13,7.720710088e-14,3.697887055e-14,2.975887942e-14,9.267049858e-15,4.593447667e-14,2.656035703e-13,4.602653038e-14,3.309714156e-14,1.186665672e-13,6.283088485e-13,1.106282909e-13,8.886639464e-14,9.807079191e-14,2.326937990e-13,1.932296899e-13,3.036604214e-13,1.538169760e-13,1.111227286e-13,3.440361045e-13,1.429254961e-13,7.482288587e-14,1.246445099e-13,6.975652695e-13,2.048679970e-13,8.120728568e-14,8.230026492e-14,2.815782632e-13,1.187117716e-13,2.139463091e-13,7.182247389e-14,2.253825814e-14
0.27344,2.932901953e-13,1.304518394e-13,3.529616215e-14,3.614636873e-14,2.287038736e-14,5.261276398e-14,2.091752735e-13,3.182371864e-14,2.661731015e-14,9.906984424e-14,4.871506546e-13,5.426516754e-14,6.590770407e-14,6.328776067e-14,1.276257010e-13,1.808635001e-13,2.354820903e-13,1.558445211e-13,1.354338627e-13,4.194526789e-13,1.843327202e-13,8.666046281e-14,1.866671252e-13,7.101487180e-13,3.737532622e-13,9.460582343e-14,1.346283636e-13,3.910024799e-13,1.476642781e-13,3.225830872e-13,6.777597781e-14,2.229892318e-14
0.28125,3.162295908e-13,1.322215484e-13,2.955610240e-14,3.427644993e-14,2.493142251e-14,4.726536483e-14,1.875262804e-13,2.908289726e-14,2.369783993e-14,1.013352785e-13,4.187453416e-13,3.817617220e-14,7.120334718e-14,5.113436749e-14,1.072128177e-13,1.850296773e-13,2.272744317e-13,1.708818914e-13,1.304172779e-13,4.110118935e-13,1.720100159e-13,8.423139887e-14,1.793885669e-13,5.911071456e-13,4.301951300e-13,8.574403603e-14,1.218699179e-13,3.681335274e-13,1.648673353e-13,3.394947348e-13,6.647241457e-14,2.437403060e-14
0.28906,2.475456150e-13,9.167873726e-14,1.815651619e-14,2.566255726e-14,1.626280163e-14,3.791204094e-14,1.561648647e-13,2.520368954e-14,2.319793476e-14,8.289692757e-14,3.182307258e-13,2.902667013e-14,9.911067419e-14,3.908870278e-14,9.445111795e-14,2.010302144e-13,2.815806938e-13,2.120396866e-13,1.481772555e-13,4.159798763e-13,1.719149079e-13,1.012428635e-13,1.644966384e-13,4.830851877e-13,3.585282118e-13,6.716469006e-14,8.462919281e-14,3.227409681e-13,1.461215910e-13,2.637857154e-13,6.360628907e-14,2.376281539e-14
0.29688,1.963677900e-13,5.859735387e-14,1.419398333e-14,2.619096845e-14,1.661136687e-14,4.167515964e-14,1.396667198e-13,3.097115166e-14,2.361750961e-14,7.418780306e-14,2.907801271e-13,2.625091276e-14,9.127312477e-14,3.131243040e-14,8.581936626e-14,2.006192463e-13,2.493763203e-13,2.069550595e-13,1.228823201e-13,3.205313841e-13,1.494346971e-13,1.012263249e-13,1.132870012e-13,3.437502932e-13,3.000177382e-13,4.334855782e-14,7.077429996e-14,3.506722586e-13,1.110993110e-13,2.112922501e-13,5.917123923e-14,2.013725966e-14
0.30469,1.634453510e-13,4.304577095e-14,1.364757979e-14,2.746336347e-14,1.775012745e-14,4.729520885e-14,1.245962217e-13,3.584085255e-14,2.446611597e-14,5.788559738e-14,2.534103888e-13,2.004233971e-14,9.470196231e-14,3.721096192e-14,9.919085068e-14,2.062756581e-13,2.552278314e-13,2.115076975e-13,1.137159501e-13,2.459115830e-13,1.344537377e-13,1.008273365e-13,8.503965226e-14,2.672889289e-13,2.353205027e-13,3.410093663e-14,6.775103213e-14,3.832588284e-13,8.685535512e-14,1.812957923e-13,5.840798164e-14,1.856705024e-14
0.3125,1.552011696e-13,5.699271954e-14,2.081324657e-14,3.238322774e-14,2.165181833e-14,6.844202389e-14,1.051270811e-13,4.083938134e-14,2.390993173e-14,4.011079393e-14,2.245485463e-13,1.136996062e-14,9.290774094e-14,4.792400010e-14,9.736409439e-14,2.134909749e-13,2.846922490e-13,2.283623431e-13,1.214603637e-13,2.416097806e-13,1.403285687e-13,9.760864852e-14,9.421167086e-14,2.777103025e-13,2.756455256e-13,4.209336928e-14,9.684258985e-14,5.353531914e-13,8.714214283e-14,2.340381434e-13,6.027638924e-14,2.051072967e-14
0.32031,1.237364426e-13,4.827656504e-14,2.284966726e-14,3.284415223e-14,1.662712894e-14,6.314478384e-14,9.488526618e-14,3.821799204e-14,2.419487659e-14,3.080461081e-14,2.047884252e-13,7.335643330e-15,1.100220914e-13,6.527929151e-14,1.063674788e-13,2.284967443e-13,3.525265925e-13,2.523879681e-13,1.269619353e-13,2.823423257e-13,1.258028645e-13,8.808891163e-14,9.641342193e-14,2.745663902e-13,2.761047089e-13,4.608275109e-14,1.001276035e-13,5.546189191e-13,8.887286856e-14,2.390238384e-13,6.020697655e-14,2.179070719e-14
0.32812,1.128447277e-13,5.362526213e-14,2.838217970e-14,3.240970544e-14,1.402777455e-14,5.118559003e-14,8.403631672e-14,3.266705141e-14,2.555850801e-14,3.344292539e-14,2.031548686e-13,8.028900751e-15,1.300824526e-13,7.947452082e-14,1.240610989e-13,2.465241562e-13,4.305697977e-13,2.795413006e-13,1.354930244e-13,3.360466440e-13,1.157948414e-13,8.586054726e-14,1.060599269e-13,2.628895094e-13,2.972696650e-13,4.524351674e-14,1.139162613e-13,5.875413111e-13,8.823752273e-14,2.628420387e-13,5.705902978e-14,1.908264041e-14
0.33594,1.119616893e-13,4.201291116e-14,2.711658738e-14,3.480200828e-14,1.334948148e-14,3.849518228e-14,7.877830477e-14,2.738598878e-14,2.647703133e-14,3.960721133e-14,2.258079145e-13,1.295371663e-14,1.322976402e-13,8.814386995e-14,1.244077034e-13,2.551865735e-13,4.131442778e-13,2.637020091e-13,1.157487500e-13,2.985997253e-13,8.993387038e-14,7.888419246e-14,8.155986678e-14,2.015320361e-13,2.607975696e-13,3.515704282e-14,1.048541881e-13,5.819987247e-13,8.047991408e-14,2.499702805e-13,5.435482001e-14,1.508816596e-14
0.34375,1.417548982e-13,4.565644182e-14,3.128638603e-14,3.498663805e-14,1.522287980e-14,2.931666348e-14,6.501476443e-14,1.987004536e-14,2.648855384e-14,4.178898596e-14,2.512053295e-13,1.740165863e-14,1.322237468e-13,1.043528567e-13,1.444398122e-13,2.689307804e-13,3.969991417e-13,2.482193204e-13,9.927299837e-14,2.407833985e-13,7.322802464e-14,7.584657598e-14,6.415364223e-14,1.616524575e-13,2.404243430e-13,3.384757839e-14,1.077146102e-13,6.120771238e-13,8.110957288e-14,2.685059979e-13,5.417003966e-14,1.208458715e-14
0.35156,1.714067993e-13,5.370009234e-14,4.041661324e-14,3.570224688e-14,2.048386513e-14,3.118817191e-14,5.554113142e-14,1.738533751e-14,2.480864270e-14,4.420183246e-14,2.818320155e-13,2.069905119e-14,1.269596546e-13,1.205821545e-13,1.626934606e-13,2.815975214e-13,3.747049453e-13,2.270874487e-13,8.440825752e-14,1.936731355e-13,5.823288831e-14,6.772499863e-14,4.822648223e-14,1.468170752e-13,2.443941348e-13,3.921660564e-14,1.281099334e-13,6.467650648e-13,9.485959097e-14,3.000026750e-13,5.669752265e-14,1.028656900e-14
0.35938,1.971009724e-13,6.073196262e-14,6.329981304e-14,3.432180941e-14,2.199317248e-14,3.385378114e-14,5.048878342e-14,1.519270793e-14,2.415520709e-14,4.213528464e-14,3.222794292e-13,3.043876016e-14,1.320235673e-13,1.340298493e-13,1.996427168e-13,3.080731578e-13,4.016048663e-13,2.232030243e-13,7.726253910e-14,1.389395564e-13,4.813262682e-14,6.508425037e-14,4.023780750e-14,1.337814047e-13,2.370537835e-13,4.486218570e-14,1.534704875e-13,6.524517951e-13,1.201484573e-13,3.372846067e-13,6.074693476e-14,9.119512841e-15
0.36719,2.066949965e-13,5.613849551e-14,8.602666086e-14,3.256652037e-14,2.331506866e-14,3.898487224e-14,4.890272093e-14,1.585889846e-14,2.298447036e-14,4.031626234e-14,3.605589100e-13,3.956615624e-14,1.297179790e-13,1.381640271e-13,2.131854774e-13,3.335723197e-13,4.124533951e-13,2.129075152e-13,6.787633677e-14,8.876533751e-14,3.926163459e-14,5.632037066e-14,3.304585765e-14,1.140717505e-13,2.300963197e-13,4.752875502e-14,1.756201797e-13,6.706250736e-13,1.431727735e-13,3.637417785e-13,6.391220778e-14,8.761993448e-15
0.375,2.442034221e-13,6.811635889e-14,1.232325036e-13,3.420288967e-14,2.540104338e-14,4.863046103e-14,5.474241023e-14,1.599515186e-14,2.202993680e-14,4.175258430e-14,3.991095284e-13,4.537696428e-14,1.283262226e-13,1.468726261e-13,2.329434671e-13,3.623828213e-13,4.246143677e-13,2.037608795e-13,6.049031002e-14,6.123988700e-14,3.763120680e-14,4.814680529e-14,3.280805351e-14,1.130341021e-13,2.163412188e-13,5.024752957e-14,1.898345092e-13,6.990237549e-13,1.437019531e-13,3.921889575e-13,6.326255740e-14,9.073437385e-15
0.38281,2.251745302e-13,5.886880911e-14,1.377032647e-13,3.289569970e-14,2.501557715e-14,5.546125602e-14,5.741315595e-14,1.613971898e-14,2.104067511e-14,4.785525937e-14,4.222782666e-13,4.728944749e-14,1.254776656e-13,1.635908553e-13,2.480955138e-13,3.917449799e-13,4.424816817e-13,2.001938173e-13,5.671903732e-14,7.280095400e-14,4.017515615e-14,4.094370391e-14,2.963315718e-14,1.224452586e-13,1.888265381e-13,4.426181708e-14,1.818529460e-13,7.453105993e-13,1.205651068e-13,3.806293323e-13,5.912394041e-14,9.300881450e-15
0.39062,1.869867279e-13,5.581646480e-14,1.423317133e-13,3.165378717e-14,2.556360893e-14,5.886673257e-14,6.489035748e-14,1.431861914e-14,2.099938648e-14,5.875144590e-14,4.539283374e-13,4.831053652e-14,1.218779699e-13,1.850815932e-13,2.798090644e-13,4.252174974e-13,4.794275135e-13,2.040613109e-13,5.557461210e-14,1.028276131e-13,5.112013802e-14,3.810447840e-14,3.067288326e-14,1.545558690e-13,1.743454262e-13,4.034626489e-14,1.759353741e-13,7.712612864e-13,9.884774391e-14,3.785531238e-13,5.463633646e-14,9.281362279e-15
0.39844,1.527436522e-13,5.652143953e-14,1.435227829e-13,2.749183631e-14,2.798558952e-14,5.372434171e-14,7.142276509e-14,1.240994896e-14,2.230466227e-14,7.045453736e-14,4.844849677e-13,5.438023210e-14,1.275620878e-13,2.078070497e-13,3.288391666e-13,4.673390762e-13,5.470176986e-13,2.216582382e-13,6.303288956e-14,1.317716144e-13,6.465733246e-14,4.036938990e-14,3.618966459e-14,1.789443550e-13,1.758055904e-13,3.944144051e-14,1.728151406e-13,7.516642110e-13,9.077249746e-14,3.707659847e-13,5.214236973e-14,9.207258908e-15
0.40625,1.419410376e-13,6.167009036e-14,1.527119882e-13,2.579317515e-14,2.939130162e-14,5.323437896e-14,8.192624047e-14,1.088462064e-14,2.378918152e-14,7.881058631e-14,5.215931842e-13,6.062593944e-14,1.309061063e-13,2.237821566e-13,3.730713078e-13,5.102006996e-13,5.975161367e-13,2.388844793e-13,7.490036313e-14,1.569720011e-13,8.982475686e-14,4.636752503e-14,4.140642045e-14,2.228829231e-13,1.860099965e-13,4.320257420e-14,1.829948930e-13,7.035641390e-13,9.469992479e-14,3.659844599e-13,5.078115710e-14,9.924998804e-15
0.41406,1.425835886e-13,5.557472711e-14,1.573106191e-13,2.406954294e-14,3.000830968e-14,4.920746024e-14,8.787326706e-14,9.305962641e-15,2.498901477e-14,8.082220893e-14,5.444646872e-13,6.642804124e-14,1.379215471e-13,2.317337122e-13,3.998785740e-13,5.512961647e-13,6.325730210e-13,2.554918833e-13,9.192355602e-14,1.978780727e-13,1.190431830e-13,5.495507019e-14,4.372860332e-14,2.802291874e-13,1.848441460e-13,4.975618205e-14,2.031743715e-13,6.283687043e-13,1.038210394e-13,3.287170043e-13,4.961999965e-14,1.200498014e-14
0.42188,1.429546395e-13,4.676104845e-14,1.559619275e-13,2.172481198e-14,3.029090523e-14,4.994780177e-14,9.651911615e-14,9.414045089e-15,2.631895990e-14,8.313724186e-14,5.749616917e-13,7.324851025e-14,1.436370966e-13,2.320911299e-13,4.152957546e-13,5.869880831e-13,6.568060238e-13,2.721863121e-13,1.142613225e-13,2.725910571e-13,1.580622026e-13,6.465449180e-14,5.120990732e-14,3.703205765e-13,1.949638869e-13,6.078065515e-14,2.375850123e-13,5.830254530e-13,1.149505798e-13,2.956183689e-13,4.832338149e-14,1.515750366e-14
0.42969,1.421347444e-13,3.988379336e-14,1.556970510e-13,1.965410080e-14,3.110901545e-14,5.101739939e-14,1.040274345e-13,9.866726300e-15,2.707463568e-14,8.101979112e-14,5.871348300e-13,7.828467146e-14,1.462767874e-13,2.254741134e-13,4.147996195e-13,6.168795933e-13,6.654402470e-13,2.833725976e-13,1.314009989e-13,3.304232982e-13,1.971930000e-13,7.406810084e-14,5.988988615e-14,4.476904967e-13,1.899886249e-13,6.931271348e-14,2.539712280e-13,5.457531567e-13,1.159798620e-13,2.559006523e-13,4.623321322e-14,1.822045030e-14
0.4375,1.324645850e-13,3.789192678e-14,1.676288510e-13,1.709325751e-14,2.647987655e-14,5.906509298e-14,1.199671020e-13,1.195806789e-14,2.757127552e-14,8.656281032e-14,6.055137453e-13,8.292500504e-14,1.494578738e-13,2.229977851e-13,4.314992773e-13,6.428909785e-13,6.848979332e-13,2.980305432e-13,1.472087719e-13,3.840910193e-13,2.385959471e-13,8.315737682e-14,6.910597158e-14,5.102929388e-13,1.695467758e-13,7.000190343e-14,2.440800342e-13,4.991375004e-13,1.065842783e-13,2.161466031e-13,4.347391580e-14,2.073578629e-14
0.44531,1.406177580e-13,5.046752926e-14,1.867914397e-13,1.746109240e-14,2.215981203e-14,6.885180892e-14,1.379561051e-13,1.441428104e-14,2.647818953e-14,9.415127745e-14,6.041335470e-13,8.027114419e-14,1.484691220e-13,2.232514007e-13,4.531908650e-13,6.602013417e-13,7.034679900e-13,3.078361944e-13,1.593821101e-13,4.428532303e-13,2.787946291e-13,8.873357356e-14,8.188537592e-14,5.767127069e-13,1.640844793e-13,7.172993042e-14,2.390396308e-13,4.611090169e-13,9.574821937e-14,1.992396026e-13,4.002034533e-14,2.320075344e-14
0.45312,1.496885134e-13,6.589014429e-14,2.010354379e-13,1.790403898e-14,1.875127969e-14,7.614250562e-14,1.548525049e-13,1.673996985e-14,2.598458654e-14,1.030786658e-13,6.046340066e-13,7.886077425e-14,1.490049052e-13,2.237178030e-13,4.772708506e-13,6.672195729e-13,7.302753161e-13,3.188019874e-13,1.734949149e-13,5.104659483e-13,3.224369031e-13,9.516032627e-14,1.003335642e-13,6.325628487e-13,1.821983907e-13,7.637076735e-14,2.420557690e-13,4.320816040e-13,8.594118272e-14,1.872249671e-13,3.663396139e-14,2.583502711e-14
0.46094,1.389758678e-13,6.760413430e-14,1.876258673e-13,1.738891779e-14,1.929857042e-14,6.882875235e-14,1.581410717e-13,1.612245371e-14,2.481363228e-14,1.005231866e-13,5.715142547e-13,7.230590999e-14,1.359825205e-13,2.146128199e-13,4.634484735e-13,6.564739672e-13,7.126383405e-13,3.112314803e-13,1.711571165e-13,5.311446275e-13,3.490688290e-13,9.520624319e-14,1.090468236e-13,6.427702260e-13,2.043326424e-13,8.095694213e-14,2.389588799e-13,4.165189684e-13,7.717867724e-14,1.816116507e-13,3.334150451e-14,2.780994452e-14
0.46875,1.164706249e-13,6.464834812e-14,1.673212760e-13,1.674800514e-14,2.083853175e-14,5.791889311e-14,1.552532405e-13,1.385763762e-14,2.290983454e-14,9.252099061e-14,5.198183528e-13,6.466129573e-14,1.183472168e-13,1.980309603e-13,4.285964297e-13,6.343113751e-13,6.665234757e-13,2.915466403e-13,1.572547669e-13,5.118259677e-13,3.593649425e-13,9.131072513e-14,1.088914748e-13,6.145685335e-13,2.039467149e-13,8.098723774e-14,2.133790475e-13,3.692791638e-13,6.790036876e-14,1.604621880e-13,3.044360630e-14,2.886402681e-14
0.47656,9.955099575e-14,6.051674566e-14,1.484591540e-13,1.680316670e-14,2.138123317e-14,4.970641608e-14,1.543699316e-13,1.320234862e-14,2.045049155e-14,8.406230997e-14,4.664457794e-13,5.927226675e-14,1.007218632e-13,1.786568917e-13,3.910637018e-13,6.037503260e-13,6.004159939e-13,2.633818946e-13,1.391099819e-13,4.767380703e-13,3.543636487e-13,8.436438757e-14,1.026526738e-13,5.811853751e-13,1.896565763e-13,7.872986704e-14,1.859891104e-13,3.222222625e-13,6.203062712e-14,1.404334703e-13,2.838076521e-14,2.935747219e-14
0.48438,1.184229059e-13,7.184254232e-14,1.468132201e-13,1.954384918e-14,2.087048354e-14,4.789627722e-14,1.531150789e-13,1.246846260e-14,1.800711579e-14,7.639484888e-14,4.147133759e-13,5.560725293e-14,9.007527080e-14,1.582919708e-13,3.554441485e-13,5.703974080e-13,5.376929278e-13,2.381826937e-13,1.299458321e-13,4.651456157e-13,3.571737247e-13,8.130187504e-14,1.075587737e-13,5.729583457e-13,1.933637607e-13,8.222373234e-14,1.774707307e-13,2.915545300e-13,6.205878874e-14,1.263407680e-13,2.725470645e-14,2.897644635e-14
0.49219,1.508237996e-13,8.572383857e-14,1.475963574e-13,2.186073984e-14,1.976574950e-14,4.318266345e-14,1.480245461e-13,1.220036783e-14,1.644650462e-14,7.072780520e-14,3.682021611e-13,5.331501595e-14,8.649496591e-14,1.425046193e-13,3.282067050e-13,5.375940983e-13,4.920481796e-13,2.207536292e-13,1.292463966e-13,4.697607430e-13,3.610320306e-13,8.084111704e-14,1.187292165e-13,5.645760104e-13,2.191200060e-13,8.889701864e-14,1.845692516e-13,2.839363269e-13,6.491727527e-14,1.213122415e-13,2.704386533e-14,2.723653177e-14
0.5,1.962604793e-13,1.100325415e-13,1.529727315e-13,2.506258725e-14,1.919772196e-14,4.246801065e-14,1.399473536e-13,1.289116488e-14,1.448696427e-14,6.517345099e-14,3.123360561e-13,4.814196296e-14,8.089186000e-14,1.290194152e-13,2.994295938e-13,5.006806121e-13,4.443541870e-13,2.008363758e-13,1.269654387e-13,4.665621073e-13,3.561630613e-13,7.838760797e-14,1.283667475e-13,5.496283030e-13,2.465193866e-13,9.371993455e-14,1.903001693e-13,2.912788061e-13,6.712023446e-14,1.305220819e-13,2.743467979e-14,2.500529727e-14
0.50781,2.091718941e-13,1.227087116e-13,1.549901923e-13,2.659512377e-14,1.716023633e-14,4.076153055e-14,1.398180505e-13,1.584245451e-14,1.301492555e-14,6.428596991e-14,2.758463253e-13,4.591850411e-14,7.730601929e-14,1.226764751e-13,2.887201949e-13,4.666521369e-13,4.031239622e-13,1.786914275e-13,1.167185699e-13,4.428609394e-13,3.326499568e-13,7.075121959e-14,1.247599096e-13,5.139863802e-13,2.445407832e-13,9.054677948e-14,1.789605760e-13,2.687693584e-13,6.666209905e-14,1.239977571e-13,2.855537706e-14,2.333067631e-14
0.51562,2.179364699e-13,1.371164591e-13,1.614918833e-13,2.904267394e-14,1.480967835e-14,4.323601059e-14,1.458869427e-13,2.016135606e-14,1.138915128e-14,6.493574423e-14,2.494814980e-13,4.620922064e-14,7.418303290e-14,1.168562389e-13,2.836919734e-13,4.331740891e-13,3.531769714e-13,1.508212239e-13,9.945820136e-14,3.975554215e-13,3.022502038e-13,6.050529623e-14,1.140405223e-13,4.778867933e-13,2.255419606e-13,8.284524281e-14,1.606377857e-13,2.462682846e-13,6.486789205e-14,1.144102881e-13,2.994574183e-14,2.211424920e-14
0.52344,2.346698766e-13,1.618016969e-13,1.766828001e-13,3.390917946e-14,1.568144298e-14,5.257275913e-14,1.513845621e-13,2.501456884e-14,1.079480949e-14,6.460096203e-14,2.302359763e-13,4.885083385e-14,7.683631064e-14,1.094984066e-13,2.777971525e-13,4.006971583e-13,3.146697945e-13,1.317754340e-13,8.967814659e-14,3.504488726e-13,2.838827473e-13,5.687463017e-14,1.093380806e-13,4.508799931e-13,2.108350426e-13,7.575462205e-14,1.467984852e-13,2.422040182e-13,5.977796940e-14,1.069759898e-13,3.131253370e-14,2.002707616e-14
0.53125,2.500008539e-13,1.774324653e-13,1.856570136e-13,3.838362987e-14,1.715381114e-14,5.567620482e-14,1.453213931e-13,2.498993726e-14,9.339305729e-15,5.928471383e-14,1.963762986e-13,4.553813362e-14,7.002431706e-14,9.989421157e-14,2.541131360e-13,3.635595367e-13,2.610290330e-13,1.089588300e-13,7.613966019e-14,2.884911620e-13,2.667992764e-13,5.220383866e-14,1.005509016e-13,4.131556732e-13,1.927102456e-13,6.861791381e-14,1.317573891e-13,2.413458263e-13,5.456251565e-14,1.005097097e-13,3.304165417e-14,1.743365660e-14
0.53906,2.448641989e-13,1.808672001e-13,1.873151352e-13,4.088195300e-14,2.031065055e-14,5.048650184e-14,1.308855156e-13,2.091263314e-14,7.907247092e-15,5.057338939e-14,1.579662326e-13,3.662749240e-14,5.812920074e-14,9.061523103e-14,2.178921836e-13,3.239887877e-13,2.103181267e-13,9.159939667e-14,6.474985105e-14,2.423094685e-13,2.555020674e-13,4.822475830e-14,9.560735365e-14,3.837083759e-13,1.852469247e-13,6.610790401e-14,1.231840794e-13,2.216689154e-13,5.350676924e-14,9.877041053e-14,3.535706789e-14,1.515312551e-14
0.54688,2.330490881e-13,1.761951783e-13,1.856535077e-13,4.257744727e-14,2.352869233e-14,4.652718359e-14,1.192031679e-13,1.796199913e-14,7.041069593e-15,4.246814767e-14,1.356103847e-13,3.124098335e-14,4.714682794e-14,8.183407142e-14,1.873777661e-13,2.859856385e-13,1.667749086e-13,7.772711990e-14,5.389288713e-14,2.028033798e-13,2.475877596e-13,4.475806668e-14,9.342543084e-14,3.559678950e-13,1.873640320e-13,6.517968404e-14,1.248680074e-13,1.963398283e-13,5.703926723e-14,9.869475347e-14,3.869278263e-14,1.392231605e-14
0.55469,2.183005654e-13,1.763304502e-13,1.910344925e-13,4.418116869e-14,2.615659631e-14,4.523074830e-14,1.063738692e-13,1.681521942e-14,7.316838916e-15,3.426906850e-14,1.186498747e-13,2.854626522e-14,4.328823453e-14,7.243649353e-14,1.620083922e-13,2.513819145e-13,1.409151382e-13,7.685536109e-14,5.358669906e-14,1.847850571e-13,2.524222601e-13,4.775326816e-14,9.719693844e-14,3.406370795e-13,1.976612502e-13,6.715768286e-14,1.320627607e-13,1.928017342e-13,6.378353989e-14,1.033352529e-13,4.285494455e-14,1.310433174e-14
0.5625,2.220807759e-13,1.859557190e-13,2.046181639e-13,4.603472658e-14,2.715579085e-14,4.384152733e-14,9.394393333e-14,1.653466497e-14,7.494043336e-15,2.910048779e-14,1.052950985e-13,2.718322353e-14,4.229707440e-14,6.663894542e-14,1.523171642e-13,2.235598107e-13,1.317586416e-13,8.296174923e-14,5.736025764e-14,1.769882975e-13,2.611357578e-13,5.064165340e-14,9.984091989e-14,3.214476195e-13,2.132569800e-13,6.959309108e-14,1.413271398e-13,1.967774671e-13,7.495592168e-14,1.068414320e-13,4.839083232e-14,1.243946511e-14
0.57031,2.362986292e-13,2.000226197e-13,2.250496545e-13,4.801811906e-14,2.720181706e-14,4.181468735e-14,8.155047568e-14,1.601358643e-14,7.545329608e-15,2.562010575e-14,9.492153837e-14,2.632369823e-14,4.331063165e-14,6.594001035e-14,1.541048010e-13,2.012118158e-13,1.340572584e-13,9.693124560e-14,6.797304033e-14,1.875485037e-13,2.754668530e-13,5.551215209e-14,1.043457796e-13,3.107891168e-13,2.336922179e-13,7.370769346e-14,1.522820093e-13,2.076630496e-13,8.830044322e-14,1.151920771e-13,5.455055131e-14,1.215910265e-14
0.57812,2.577262077e-13,2.176737326e-13,2.475779145e-13,5.135077858e-14,2.801912255e-14,4.578993451e-14,7.733490343e-14,1.546759889e-14,7.511317885e-15,2.511385936e-14,1.009488105e-13,2.941078680e-14,4.737270263e-14,6.993225312e-14,1.713843098e-13,1.871847085e-13,1.444903068e-13,1.138190945e-13,8.026154641e-14,2.022628007e-13,2.975492229e-13,6.248021561e-14,1.133796181e-13,3.033529545e-13,2.555114230e-13,7.752136541e-14,1.702850357e-13,2.246964337e-13,9.746256949e-14,1.290830909e-13,5.930595667e-14,1.207515333e-14
0.58594,2.644285404e-13,2.281126627e-13,2.675257828e-13,5.369610416e-14,2.898620713e-14,4.717306592e-14,7.671438537e-14,1.403567344e-14,8.374487016e-15,2.607575431e-14,1.245154157e-13,3.706888920e-14,5.676685787e-14,7.714095484e-14,2.034709126e-13,1.817911283e-13,1.623700811e-13,1.369641248e-13,9.629359297e-14,2.175896151e-13,3.217645310e-13,7.396224462e-14,1.220379446e-13,2.978625993e-13,2.660211484e-13,7.964482731e-14,1.854086424e-13,2.561775550e-13,1.000360483e-13,1.447436133e-13,6.198301241e-14,1.157943036e-14
0.59375,2.605688748e-13,2.376361944e-13,2.852888557e-13,5.476772386e-14,2.995181690e-14,4.708515257e-14,7.825268100e-14,1.391502563e-14,1.004031602e-14,2.768037869e-14,1.552219563e-13,4.693139517e-14,6.867834084e-14,8.640774775e-14,2.422531791e-13,1.835650514e-13,1.828021320e-13,1.621791836e-13,1.127893347e-13,2.272911049e-13,3.396553398e-13,8.604743445e-14,1.295312973e-13,2.905665989e-13,2.733611067e-13,8.125088718e-14,2.031274085e-13,2.916749385e-13,1.056562165e-13,1.647746902e-13,6.360385100e-14,1.090961965e-14
0.60156,2.424708579e-13,2.340389364e-13,2.959086137e-13,5.417856911e-14,3.010027733e-14,4.599634680e-14,8.018959659e-14,1.533199711e-14,1.149613019e-14,2.956236960e-14,1.867604461e-13,5.584828278e-14,7.872669253e-14,9.962495287e-14,2.860803308e-13,1.936290662e-13,2.032143291e-13,1.858949402e-13,1.260758119e-13,2.352894600e-13,3.418050216e-13,9.386651108e-14,1.311467033e-13,2.793041322e-13,2.750105822e-13,8.256777344e-14,2.178075131e-13,3.014240957e-13,1.210656392e-13,1.803145827e-13,6.557893912e-14,1.084512891e-14
0.60938,2.247295548e-13,2.228703874e-13,2.997309681e-13,5.303428620e-14,2.956914330e-14,4.712057091e-14,7.969333089e-14,1.559464923e-14,1.172476442e-14,3.134433275e-14,2.074525609e-13,5.993712620e-14,8.230657180e-14,1.156457029e-13,3.239890379e-13,2.060729653e-13,2.141849053e-13,2.006080186e-13,1.322958882e-13,2.507312117e-13,3.337359962e-13,9.538239552e-14,1.315548085e-13,2.721041962e-13,2.818810722e-13,8.401693891e-14,2.350186706e-13,3.046688165e-13,1.354299626e-13,2.007505138e-13,6.600826019e-14,1.125436317e-14
0.61719,2.255424455e-13,2.115294327e-13,3.076641264e-13,5.521211613e-14,2.966061928e-14,5.717989468e-14,8.463970171e-14,1.597261893e-14,1.128878225e-14,3.408358706e-14,2.324678077e-13,6.558217756e-14,8.350059278e-14,1.317945929e-13,3.613490280e-13,2.212163307e-13,2.247674260e-13,2.104788394e-13,1.366508041e-13,2.649965535e-13,3.269624498e-13,9.656088405e-14,1.310114683e-13,2.667427964e-13,2.846243954e-13,8.167101505e-14,2.425626867e-13,3.305951311e-13,1.301734954e-13,2.172411006e-13,6.245560217e-14,1.136821253e-14
0.625,2.351277449e-13,1.990563823e-13,3.173638831e-13,5.822365403e-14,2.871266850e-14,6.818066733e-14,9.196295159e-14,1.748137630e-14,1.155689245e-14,3.625471315e-14,2.602686193e-13,7.510999571e-14,8.629548753e-14,1.446193865e-13,3.930634373e-13,2.385484326e-13,2.364995045e-13,2.199929438e-13,1.434012370e-13,2.725492812e-13,3.188512017e-13,1.013037918e-13,1.265442971e-13,2.574210828e-13,2.787264995e-13,7.465459720e-14,2.364063833e-13,3.686630460e-13,1.113574749e-13,2.259965417e-13,5.620489956e-14,1.088621325e-14
0.63281,2.373146753e-13,1.875648059e-13,3.378526998e-13,6.462918257e-14,2.739280882e-14,8.239423618e-14,1.071435037e-13,2.260109757e-14,1.193356090e-14,4.040292091e-14,2.871229819e-13,8.567340311e-14,9.146936413e-14,1.553178060e-13,4.248744597e-13,2.578529651e-13,2.590182551e-13,2.332625771e-13,1.534643743e-13,2.753839159e-13,3.069112051e-13,1.082269081e-13,1.174023001e-13,2.461365461e-13,2.660355605e-13,6.753844155e-14,2.193614882e-13,3.714283940e-13,1.002462900e-13,2.174234138e-13,5.069936318e-14,1.070476372e-14
0.64062,2.167725307e-13,1.665528831e-13,3.564401217e-13,7.237469725e-14,2.458103053e-14,9.941461501e-14,1.222503647e-13,3.046312430e-14,1.198791996e-14,4.514880437e-14,2.987835632e-13,9.036160023e-14,9.521045595e-14,1.663573363e-13,4.514857838e-13,2.760110139e-13,2.836390178e-13,2.445313807e-13,1.613549490e-13,2.800613288e-13,2.849765774e-13,1.121003185e-13,1.027265223e-13,2.318132875e-13,2.450375368e-13,6.041868804e-14,1.928390226e-13,3.419543672e-13,1.010722208e-13,1.943292097e-13,4.735153514e-14,1.179879392e-14
0.64844,2.039958010e-13,1.562598347e-13,3.823009621e-13,8.486672962e-14,2.260393284e-14,1.277393133e-13,1.421360624e-13,4.043300368e-14,1.184975368e-14,5.236118309e-14,3.040751065e-13,9.184892100e-14,9.799346734e-14,1.816351825e-13,4.814429156e-13,2.921555357e-13,3.135317918e-13,2.535566160e-13,1.681039086e-13,2.930617368e-13,2.630875083e-13,1.129723553e-13,8.993384536e-14,2.207124832e-13,2.238002935e-13,5.287886373e-14,1.645433879e-13,3.245024081e-13,9.909543536e-14,1.731673621e-13,4.423701652e-14,1.347215196e-14
0.65625,1.771240127e-13,1.349987208e-13,3.824469109e-13,9.321845795e-14,1.928401443e-14,1.393653578e-13,1.530503540e-13,4.510532763e-14,1.183338383e-14,5.857952114e-14,3.019634742e-13,8.934174532e-14,9.801065249e-14,1.964042509e-13,5.026230207e-13,3.049793971e-13,3.368080067e-13,2.552773778e-13,1.685879943e-13,3.067893267e-13,2.406550099e-13,1.079085913e-13,7.793411204e-14,2.066290591e-13,1.962540459e-13,4.227402213e-14,1.299062835e-13,3.004826929e-13,8.589845753e-14,1.441921873e-13,4.081846713e-14,1.432211063e-14
0.66406,1.569423750e-13,1.226211397e-13,3.711442562e-13,1.011272668e-13,1.645659065e-14,1.379907375e-13,1.632562686e-13,4.668890025e-14,1.248846963e-14,6.508974550e-14,3.061149704e-13,9.123668138e-14,1.002211864e-13,2.055740765e-13,5.172174998e-13,3.148072458e-13,3.594214302e-13,2.576991718e-13,1.709397274e-13,3.201837863e-13,2.269354769e-13,1.032347815e-13,7.203218710e-14,1.981282405e-13,1.774975391e-13,3.486747420e-14,1.040316227e-13,2.752374983e-13,7.229182104e-14,1.264382441e-13,3.959496392e-14,1.462928288e-14
0.67188,1.399342131e-13,1.108255577e-13,3.540787658e-13,1.099089711e-13,1.412589676e-14,1.390316810e-13,1.755645510e-13,4.926289196e-14,1.334830383e-14,6.747683273e-14,3.095900184e-13,9.613518238e-14,1.023634625e-13,2.035426681e-13,5.105610033e-13,3.203921838e-13,3.721352082e-13,2.586665514e-13,1.741988933e-13,3.210852034e-13,2.182535772e-13,1.004753028e-13,6.939099584e-14,1.895020480e-13,1.630391640e-13,3.051452320e-14,8.345800868e-14,2.492250316e-13,6.531689760e-14,1.091815051e-13,4.136538502e-14,1.607471105e-14
0.67969,1.453057723e-13,1.144788971e-13,3.473023805e-13,1.239117251e-13,1.355255119e-14,1.568975618e-13,1.930954386e-13,5.455239242e-14,1.431091325e-14,6.753071299e-14,3.099147035e-13,1.014328223e-13,1.040517530e-13,1.992129136e-13,4.968254650e-13,3.265737189e-13,3.834308033e-13,2.624078337e-13,1.790201151e-13,3.256707079e-13,2.135521488e-13,9.932238776e-14,7.056898248e-14,1.893534900e-13,1.600410122e-13,2.970702223e-14,7.505657713e-14,2.561382706e-13,6.684989720e-14,1.089983292e-13,4.508287823e-14,1.827816863e-14
0.6875,1.540104139e-13,1.207065832e-13,3.345391346e-13,1.349429554e-13,1.410418007e-14,1.717012305e-13,2.024881279e-13,5.606333779e-14,1.520905430e-14,6.524459466e-14,2.886718698e-13,9.703180846e-14,1.034640594e-13,1.980877037e-13,4.712133985e-13,3.322826916e-13,3.973628636e-13,2.682639721e-13,1.833301730e-13,3.386368019e-13,2.072440944e-13,9.742527270e-14,7.203003889e-14,1.905585909e-13,1.584457563e-13,2.842854574e-14,7.000527626e-14,2.680699074e-13,7.124554997e-14,1.117217670e-13,5.054667725e-14,1.887999878e-14
0.69531,1.681889773e-13,1.340888322e-13,3.078319872e-13,1.410617869e-13,1.605349318e-14,1.684131929e-13,1.990150957e-13,5.289233292e-14,1.637160297e-14,6.415465681e-14,2.591610083e-13,8.773847000e-14,1.021242966e-13,2.001912800e-13,4.430537558e-13,3.383061434e-13,4.088405139e-13,2.745931548e-13,1.854783344e-13,3.499740693e-13,2.010067966e-13,9.489080744e-14,7.104713925e-14,1.928303926e-13,1.522279571e-13,2.751405922e-14,7.025737738e-14,2.708975251e-13,7.876779082e-14,1.241332677e-13,5.889188187e-14,1.745422965e-14
0.70312,1.731813381e-13,1.467016150e-13,2.763001846e-13,1.435590646e-13,1.825966144e-14,1.512629054e-13,1.864329563e-13,4.715188064e-14,1.842436390e-14,6.135237983e-14,2.245009991e-13,7.891189315e-14,1.045037660e-13,1.977019199e-13,4.073188993e-13,3.456091385e-13,4.290653118e-13,2.912305072e-13,1.944719688e-13,3.616219527e-13,2.013213044e-13,9.485352940e-14,6.760524519e-14,1.935893961e-13,1.427490810e-13,2.821481430e-14,6.985305991e-14,2.536649028e-13,8.793863339e-14,1.338179909e-13,6.928594416e-14,1.616325876e-14
0.71094,1.793839976e-13,1.660017345e-13,2.509555206e-13,1.488533452e-13,2.096764832e-14,1.415399950e-13,1.769952215e-13,4.426583613e-14,2.062117340e-14,5.689348197e-14,1.995682367e-13,7.676506797e-14,1.084785700e-13,1.896963150e-13,3.738059361e-13,3.536718034e-13,4.532814645e-13,3.138376533e-13,2.047807113e-13,3.724824431e-13,2.025338649e-13,9.341518787e-14,6.197430968e-14,1.917521622e-13,1.329655275e-13,2.973927507e-14,7.071574423e-14,2.371157515e-13,9.513072864e-14,1.441400582e-13,7.822293071e-14,1.636366425e-14
0.71875,1.887229554e-13,1.841270104e-13,2.340386707e-13,1.542774772e-13,2.236820188e-14,1.420266661e-13,1.708225465e-13,4.319969951e-14,2.291334280e-14,5.009239740e-14,1.807273442e-13,7.796127175e-14,1.184307751e-13,1.841948454e-13,3.500200038e-13,3.622898718e-13,4.967308583e-13,3.479508629e-13,2.231825224e-13,4.065431135e-13,2.091498187e-13,9.375538863e-14,6.021577963e-14,1.947875755e-13,1.326749191e-13,2.866361577e-14,6.946832052e-14,2.366777973e-13,9.665221069e-14,1.489886260e-13,8.428814594e-14,1.667523489e-14
0.72656,1.940574776e-13,1.966170385e-13,2.124386982e-13,1.559716029e-13,2.304309314e-14,1.381344647e-13,1.623683680e-13,4.096733929e-14,2.452900909e-14,4.329996487e-14,1.642403767e-13,7.518921962e-14,1.289643480e-13,1.851761428e-13,3.350594747e-13,3.692084073e-13,5.453633254e-13,3.826951090e-13,2.399655505e-13,4.497607039e-13,2.174931460e-13,9.263953624e-14,5.947559062e-14,1.959586351e-13,1.333559499e-13,2.608045081e-14,6.869475297e-14,2.266671218e-13,1.013770051e-13,1.502978259e-13,9.033991334e-14,1.561291350e-14
0.73438,1.896940307e-13,1.950993809e-13,1.810313218e-13,1.501608348e-13,2.334265546e-14,1.198324306e-13,1.469717789e-13,3.613230554e-14,2.638983535e-14,3.744651645e-14,1.464183951e-13,6.817990553e-14,1.425983987e-13,1.880082385e-13,3.230172722e-13,3.728278588e-13,5.906787553e-13,4.189798378e-13,2.599485135e-13,4.921958120e-13,2.332115814e-13,9.435256991e-14,6.232708493e-14,2.015189348e-13,1.414252392e-13,2.586125083e-14,7.049979265e-14,2.042265175e-13,1.178641447e-13,1.489466500e-13,9.848756126e-14,1.376500131e-14
0.74219,1.738041728e-13,1.857135151e-13,1.483827888e-13,1.416491586e-13,2.452450071e-14,9.648262262e-14,1.264173193e-13,3.149360086e-14,2.875470587e-14,3.131528944e-14,1.273372456e-13,6.232998484e-14,1.545934316e-13,1.847816453e-13,3.036109126e-13,3.746108733e-13,6.145004789e-13,4.504041793e-13,2.771150208e-13,5.036015193e-13,2.519164568e-13,9.810379923e-14,6.477319116e-14,2.041017072e-13,1.440201019e-13,2.720306862e-14,7.533975217e-14,1.731661814e-13,1.400023886e-13,1.433245775e-13,1.059055271e-13,1.275848127e-14
0.75,1.627928844e-13,1.732110046e-13,1.240631621e-13,1.336898842e-13,2.611331530e-14,7.652902162e-14,1.060640909e-13,2.758553531e-14,3.124816428e-14,2.559603824e-14,1.101545355e-13,5.991665286e-14,1.649992171e-13,1.773160286e-13,2.791824892e-13,3.732609030e-13,6.214447424e-13,4.769028835e-13,2.899466122e-13,5.028042150e-13,2.696548520e-13,1.014356461e-13,6.885235429e-14,2.103576857e-13,1.500418479e-13,2.799139250e-14,8.058337900e-14,1.571845262e-13,1.504553510e-13,1.352753009e-13,1.094271400e-13,1.257302259e-14
0.75781,1.589561020e-13,1.662854634e-13,1.110014077e-13,1.305360110e-13,2.940870236e-14,6.230169020e-14,8.768209188e-14,2.404124060e-14,3.291851472e-14,2.158070867e-14,9.700354934e-14,5.779748666e-14,1.700193106e-13,1.722197310e-13,2.566180200e-13,3.651541466e-13,6.171249031e-13,4.913805189e-13,2.930485551e-13,5.095499628e-13,2.800176797e-13,9.893163860e-14,7.422370630e-14,2.232257189e-13,1.588820054e-13,2.827017184e-14,8.695624643e-14,1.450125720e-13,1.416144701e-13,1.304987734e-13,1.078866130e-13,1.229188817e-14
0.76562,1.629452638e-13,1.596419416e-13,1.082440484e-13,1.303768773e-13,3.270491506e-14,5.898246535e-14,7.666840644e-14,2.249724618e-14,3.389917736e-14,1.940185159e-14,9.148256740e-14,5.542396257e-14,1.730002545e-13,1.714227066e-13,2.395303987e-13,3.523157467e-13,6.057675112e-13,4.980324838e-13,2.915572009e-13,5.327527270e-13,2.910425874e-13,9.399575100e-14,8.072696799e-14,2.503211820e-13,1.682858487e-13,2.701154502e-14,8.871076436e-14,1.368802146e-13,1.237866372e-13,1.285726725e-13,1.033399995e-13,1.141701669e-14
0.77344,1.699178084e-13,1.564146094e-13,1.129019544e-13,1.306596427e-13,3.680191449e-14,6.165151213e-14,6.987448661e-14,2.271862350e-14,3.523812880e-14,1.819356814e-14,9.159462067e-14,5.575906085e-14,1.767401178e-13,1.709985706e-13,2.261762194e-13,3.385852860e-13,5.861637532e-13,5.015468516e-13,2.918184404e-13,5.578270346e-13,3.072349391e-13,9.211957421e-14,8.663637419e-14,2.913318270e-13,1.721710863e-13,2.656737640e-14,8.872170637e-14,1.324318655e-13,1.172682303e-13,1.329045844e-13,9.897815514e-14,1.032940036e-14
0.78125,1.750258109e-13,1.487929024e-13,1.241422964e-13,1.244005789e-13,3.889101866e-14,6.043434899e-14,6.719435269e-14,2.245476027e-14,3.732249043e-14,1.912419134e-14,9.121706495e-14,5.869584926e-14,1.815316680e-13,1.667907957e-13,2.106054003e-13,3.234430861e-13,5.573189698e-13,5.022913454e-13,2.935474642e-13,5.723049704e-13,3.290915445e-13,9.346336096e-14,9.092710668e-14,3.442108404e-13,1.737530916e-13,2.735178518e-14,8.638158103e-14,1.345152337e-13,1.241566216e-13,1.368256980e-13,9.610929242e-14,9.412928285e-15
0.78906,1.810018471e-13,1.416417334e-13,1.399527942e-13,1.136390093e-13,4.023629872e-14,5.407812044e-14,6.443137749e-14,2.123885596e-14,3.979187090e-14,2.084767495e-14,8.889064523e-14,6.523508411e-14,1.860936088e-13,1.626556769e-13,1.997481811e-13,3.098440951e-13,5.312830659e-13,5.002032411e-13,2.956353383e-13,5.767209622e-13,3.503572678e-13,9.569128045e-14,9.393988955e-14,3.983809702e-13,1.782589075e-13,2.895641384e-14,8.279428980e-14,1.477632419e-13,1.289233728e-13,1.397721562e-13,9.365453961e-14,9.076769274e-15
0.79688,1.841508968e-13,1.325446334e-13,1.614727541e-13,1.018391496e-13,3.904642494e-14,5.087348333e-14,6.388233545e-14,2.091000566e-14,4.140385689e-14,2.308461608e-14,8.721763338e-14,7.253739947e-14,1.888048046e-13,1.610184628e-13,1.928804724e-13,2.955010833e-13,5.135932063e-13,4.937219483e-13,2.968199219e-13,5.863647765e-13,3.691059636e-13,9.601389068e-14,9.825057785e-14,4.538346123e-13,1.846749896e-13,2.805818850e-14,7.497826390e-14,1.646665834e-13,1.195587287e-13,1.389959304e-13,8.839872800e-14,9.291176810e-15
0.80469,1.801963341e-13,1.210571962e-13,1.809800305e-13,9.136663257e-14,3.736561300e-14,4.863141911e-14,6.231380179e-14,2.124974004e-14,4.072456723e-14,2.488627253e-14,8.509036090e-14,7.518938163e-14,1.859293794e-13,1.624769430e-13,1.911039374e-13,2.826071365e-13,5.019050128e-13,4.795846350e-13,2.925730580e-13,6.115235296e-13,3.784777245e-13,9.072315395e-14,1.025744422e-13,5.069403178e-13,1.929493476e-13,2.550895108e-14,6.189917173e-14,1.672751632e-13,1.051923685e-13,1.326966705e-13,8.004052347e-14,9.544667684e-15
0.8125,1.687859061e-13,1.095690950e-13,2.021255364e-13,8.184981293e-14,3.557704113e-14,4.688632361e-14,6.260292698e-14,2.140332244e-14,3.837978169e-14,2.845754102e-14,8.498736395e-14,7.353516347e-14,1.798304644e-13,1.655327200e-13,1.908439565e-13,2.723910185e-13,4.928111192e-13,4.609809123e-13,2.851202571e-13,6.379530168e-13,3.836686769e-13,8.289424068e-14,1.090745686e-13,5.564912934e-13,2.079931219e-13,2.351332212e-14,5.030492263e-14,1.601512854e-13,9.507103810e-14,1.245961742e-13,7.063425010e-14,9.285242372e-15
0.82031,1.585981033e-13,9.774996893e-14,2.214393483e-13,7.259821600e-14,3.448038286e-14,4.736906624e-14,6.505501507e-14,2.162497527e-14,3.559617207e-14,3.164878588e-14,8.658865659e-14,7.152500738e-14,1.700534907e-13,1.645406739e-13,1.890443950e-13,2.634309591e-13,4.775721955e-13,4.352476760e-13,2.739919584e-13,6.317688316e-13,3.862209719e-13,7.653937923e-14,1.137732174e-13,5.810121932e-13,2.188711978e-13,2.153762618e-14,3.935626871e-14,1.609560646e-13,8.615769808e-14,1.149759284e-13,6.218113741e-14,8.633173417e-15
0.82812,1.460324027e-13,8.854158153e-14,2.386996830e-13,6.474188164e-14,3.399628136e-14,5.221999075e-14,6.965204893e-14,2.177996025e-14,3.333177663e-14,3.377755454e-14,9.372728267e-14,7.382795552e-14,1.588657981e-13,1.585907310e-13,1.877044512e-13,2.567644970e-13,4.593217815e-13,4.066155956e-13,2.625107590e-13,5.904384127e-13,3.872877684e-13,7.334871499e-14,1.174620794e-13,5.820416181e-13,2.245899381e-13,1.978971870e-14,3.184960212e-14,1.675651742e-13,7.451954925e-14,1.086747315e-13,5.508419161e-14,7.881397814e-15
0.83594,1.355860908e-13,8.052789248e-14,2.460761104e-13,5.812443806e-14,3.362953961e-14,5.667014623e-14,7.282679449e-14,2.205532455e-14,3.123510682e-14,3.509203518e-14,1.051721679e-13,7.848218889e-14,1.458041529e-13,1.487127043e-13,1.873343275e-13,2.512387032e-13,4.382469725e-13,3.749185086e-13,2.495018822e-13,5.430511042e-13,3.820824705e-13,7.039723988e-14,1.185659424e-13,5.698956076e-13,2.209116094e-13,1.787367908e-14,2.511349731e-14,1.693629760e-13,6.577941100e-14,1.049354575e-13,4.917848347e-14,7.464444645e-15
0.84375,1.325670048e-13,7.992257740e-14,2.492399197e-13,5.454723475e-14,3.397230129e-14,5.821357307e-14,7.407896896e-14,2.199808699e-14,2.860869091e-14,3.787111770e-14,1.143452537e-13,7.981215473e-14,1.315975324e-13,1.391576662e-13,1.844712966e-13,2.454311651e-13,4.163909277e-13,3.419963763e-13,2.334658943e-13,5.115495591e-13,3.692745437e-13,6.489675356e-14,1.193389710e-13,5.608458211e-13,2.250902360e-13,1.749815132e-14,2.177354937e-14,1.642409672e-13,6.579741123e-14,1.106981496e-13,4.420273823e-14,7.324995044e-15
0.85156,1.424649104e-13,8.118870761e-14,2.479360484e-13,5.177338616e-14,3.402110995e-14,5.567178591e-14,7.497684109e-14,2.122680920e-14,2.523952764e-14,4.266347620e-14,1.185416828e-13,7.587721628e-14,1.165491830e-13,1.340775293e-13,1.837476424e-13,2.378241129e-13,3.974962382e-13,3.075028151e-13,2.140876220e-13,4.950014056e-13,3.491564534e-13,5.664887126e-14,1.201701309e-13,5.476254792e-13,2.346612834e-13,1.835577324e-14,2.013268618e-14,1.634230049e-13,7.038327605e-14,1.216902051e-13,4.053862367e-14,7.363760794e-15
0.85938,1.626271032e-13,8.578849468e-14,2.459193029e-13,5.030376017e-14,3.422493588e-14,5.612348467e-14,7.743393231e-14,2.126684834e-14,2.130941532e-14,4.566482155e-14,1.180930945e-13,6.901759862e-14,1.004719353e-13,1.294796679e-13,1.820207291e-13,2.263305594e-13,3.760397621e-13,2.707572056e-13,1.901303334e-13,4.769820987e-13,3.241076420e-13,4.675592381e-14,1.190114551e-13,5.197295726e-13,2.394628648e-13,2.003156995e-14,1.936952927e-14,1.751747843e-13,7.281386410e-14,1.359371523e-13,3.813916411e-14,7.577811328e-15
0.86719,1.850973621e-13,8.720546149e-14,2.374973808e-13,4.958374248e-14,3.355466448e-14,6.043119257e-14,7.924138745e-14,2.218537086e-14,1.801629774e-14,4.399000495e-14,1.182398230e-13,6.500021199e-14,8.665599953e-14,1.219678945e-13,1.774111086e-13,2.125469762e-13,3.523531250e-13,2.374889178e-13,1.685340126e-13,4.631005870e-13,3.005490005e-13,3.930295331e-14,1.156402548e-13,4.818053994e-13,2.315757499e-13,2.093578699e-14,1.678954843e-14,1.944389994e-13,7.386529560e-14,1.441925052e-13,3.680315111e-14,8.149475769e-15
0.875,2.033253192e-13,8.802184063e-14,2.246083017e-13,5.026814418e-14,3.269090152e-14,6.344367689e-14,7.909967500e-14,2.265327138e-14,1.503327472e-14,3.982033620e-14,1.155716064e-13,6.059875835e-14,7.289675376e-14,1.101640539e-13,1.633851057e-13,1.961899309e-13,3.169480866e-13,2.049749560e-13,1.461228439e-13,4.501690691e-13,2.778026125e-13,3.343385041e-14,1.088415484e-13,4.444385499e-13,2.156493450e-13,2.197192743e-14,1.452230522e-14,2.082423416e-13,7.867930426e-14,1.481093708e-13,3.628248023e-14,9.107498386e-15
0.88281,2.178875207e-13,8.926078160e-14,2.074532142e-13,5.293092856e-14,3.271959595e-14,6.387629374e-14,7.720589005e-14,2.169222084e-14,1.247498274e-14,3.726656082e-14,1.088667572e-13,5.489417101e-14,6.162899739e-14,9.865249157e-14,1.479312181e-13,1.783411618e-13,2.803325646e-13,1.759454664e-13,1.273477183e-13,4.393224632e-13,2.581386109e-13,2.983324098e-14,1.036146299e-13,4.101496431e-13,2.032974535e-13,2.367822775e-14,1.438414387e-14,2.182443175e-13,8.432833519e-14,1.498149005e-13,3.621253619e-14,1.036212579e-14
0.89062,2.254622170e-13,8.883161436e-14,1.868875823e-13,5.624735224e-14,3.316787841e-14,6.195962127e-14,7.342072144e-14,1.984672641e-14,1.010842400e-14,3.417645989e-14,9.971506876e-14,4.835802124e-14,5.052209414e-14,9.162850503e-14,1.338701885e-13,1.611430537e-13,2.410800083e-13,1.477657916e-13,1.071048399e-13,4.074406141e-13,2.346717632e-13,2.646732337e-14,9.466336924e-14,3.645385248e-13,1.813674195e-13,2.483575184e-14,1.472885173e-14,2.248518652e-13,8.537747238e-14,1.451359946e-13,3.613230135e-14,1.167950009e-14
0.89844,2.245683080e-13,8.645962539e-14,1.645738318e-13,6.130409844e-14,3.405154750e-14,6.362418174e-14,6.932210454e-14,1.857941786e-14,8.225995602e-15,2.973051978e-14,9.438753113e-14,4.374036203e-14,4.223406510e-14,9.142057015e-14,1.286749723e-13,1.482558777e-13,2.109877092e-13,1.250027609e-13,8.946366122e-14,3.710045341e-13,2.105497622e-13,2.359160142e-14,8.476347645e-14,3.132113374e-13,1.554172925e-13,2.458830563e-14,1.491094314e-14,2.300080906e-13,8.169299290e-14,1.357977931e-13,3.562499224e-14,1.273088348e-14
0.90625,2.150461241e-13,8.268935608e-14,1.429455894e-13,6.741730019e-14,3.433465207e-14,6.477203476e-14,6.439780840e-14,1.703019272e-14,6.704109390e-15,2.583634536e-14,9.361595332e-14,4.001287615e-14,3.616329291e-14,9.839632099e-14,1.317863370e-13,1.407843416e-13,1.872542831e-13,1.069523788e-13,7.327080421e-14,3.411088949e-13,1.838850151e-13,1.945770364e-14,7.480353612e-14,2.662069352e-13,1.312790739e-13,2.418007945e-14,1.590802305e-14,2.243215201e-13,7.782582496e-14,1.236623779e-13,3.491412706e-14,1.329565775e-14
0.91406,2.032910899e-13,8.267005733e-14,1.289549864e-13,7.572283850e-14,3.491213002e-14,7.024625412e-14,6.055406865e-14,1.657886421e-14,5.784100222e-15,2.466310806e-14,1.000938442e-13,3.921688202e-14,3.381318196e-14,1.103729353e-13,1.434223611e-13,1.396609759e-13,1.718688334e-13,9.546204645e-14,6.117895909e-14,3.221380725e-13,1.588001705e-13,1.574271595e-14,6.711036075e-14,2.311028671e-13,1.153439159e-13,2.423962943e-14,1.675553617e-14,2.111372897e-13,7.806217758e-14,1.171719306e-13,3.466605732e-14,1.378791283e-14
0.92188,2.009611482e-13,8.813826337e-14,1.247924314e-13,8.511846711e-14,3.619651644e-14,8.027328484e-14,6.027462285e-14,1.681460435e-14,5.424142191e-15,2.472864360e-14,1.156222515e-13,4.245450516e-14,3.354454542e-14,1.228400496e-13,1.553491180e-13,1.422397170e-13,1.544394139e-13,8.744773938e-14,5.188616102e-14,2.982783531e-13,1.346304385e-13,1.352735003e-14,6.150708617e-14,2.067286370e-13,1.050234732e-13,2.653472156e-14,1.964526204e-14,2.029589234e-13,8.432884363e-14,1.178200666e-13,3.522862420e-14,1.463361076e-14
0.92969,2.007589372e-13,9.559341942e-14,1.260952549e-13,9.552152432e-14,3.803617285e-14,9.458553423e-14,6.100549194e-14,1.856789137e-14,5.430548844e-15,2.456948211e-14,1.384063001e-13,4.801421591e-14,3.522395889e-14,1.372663797e-13,1.673708919e-13,1.491065897e-13,1.363966092e-13,8.316719431e-14,4.359330817e-14,2.620868154e-13,1.120284758e-13,1.301794641e-14,5.462791260e-14,1.852178762e-13,9.365126072e-14,2.890330334e-14,2.287861894e-14,1.964237353e-13,9.348217994e-14,1.202652734e-13,3.584314714e-14,1.567049278e-14
0.9375,2.080900773e-13,1.023697962e-13,1.350432525e-13,1.060320805e-13,3.922504070e-14,1.101962299e-13,6.414786479e-14,1.999117355e-14,5.464204676e-15,2.686704143e-14,1.685140383e-13,5.393674905e-14,3.948383081e-14,1.601255163e-13,1.889905532e-13,1.619735519e-13,1.237084816e-13,8.408778576e-14,3.740104273e-14,2.231976007e-13,9.096223102e-14,1.353743859e-14,4.748074647e-14,1.702298617e-13,8.213999504e-14,2.959014162e-14,2.599210463e-14,1.967089332e-13,9.960588537e-14,1.217705454e-13,3.547498373e-14,1.603021621e-14
0.94531,2.151726681e-13,1.037857083e-13,1.481377693e-13,1.157878389e-13,3.892404947e-14,1.256858487e-13,6.728356448e-14,2.142158936e-14,5.419530271e-15,3.319671555e-14,2.043576771e-13,5.892576499e-14,4.623318496e-14,1.897613191e-13,2.211574837e-13,1.792746717e-13,1.196156599e-13,9.008204941e-14,3.315699547e-14,1.893331207e-13,7.069247023e-14,1.423513564e-14,3.838277556e-14,1.595840050e-13,6.632103891e-14,2.646487351e-14,2.504500174e-14,1.935486828e-13,9.859086709e-14,1.177313629e-13,3.371700332e-14,1.547284345e-14
0.95312,2.301521966e-13,1.057534004e-13,1.702721629e-13,1.245392764e-13,3.829306500e-14,1.408131869e-13,7.440835936e-14,2.224131304e-14,5.382789634e-15,4.240944579e-14,2.483028437e-13,6.518286785e-14,5.528559577e-14,2.178144257e-13,2.583430539e-13,1.979627557e-13,1.242593006e-13,1.007534312e-13,3.334848894e-14,1.686748035e-13,5.400708481e-14,1.604073606e-14,3.236819027e-14,1.583186759e-13,5.602622256e-14,2.270384671e-14,2.365286285e-14,1.919762907e-13,9.588294470e-14,1.159466242e-13,3.161720170e-14,1.421625032e-14
0.96094,2.447096370e-13,1.076796263e-13,1.977662813e-13,1.323462992e-13,3.752029286e-14,1.562782466e-13,8.352765443e-14,2.357444483e-14,5.509713690e-15,5.115246073e-14,2.940994312e-13,7.173734003e-14,6.409208501e-14,2.391906861e-13,2.893107464e-13,2.140466428e-13,1.306064021e-13,1.125443583e-13,3.513928681e-14,1.522888295e-13,4.026599796e-14,1.866530452e-14,2.731944262e-14,1.607895446e-13,4.774482847e-14,1.969793697e-14,2.393601809e-14,1.859186779e-13,9.685094027e-14,1.128596369e-13,2.976368518e-14,1.292756207e-14
0.96875,2.611470699e-13,1.070643066e-13,2.317087452e-13,1.375403578e-13,3.588280931e-14,1.721517198e-13,9.656344153e-14,2.516850449e-14,5.551301019e-15,6.053605289e-14,3.423444142e-13,7.708276385e-14,7.203502073e-14,2.573772073e-13,3.207048238e-13,2.278268587e-13,1.404686717e-13,1.253391681e-13,3.765556816e-14,1.350391323e-13,2.916223180e-14,2.142433355e-14,2.466851407e-14,1.667395226e-13,4.469763020e-14,1.848100344e-14,2.621869573e-14,1.812171910e-13,1.017396600e-13,1.084174926e-13,2.793169203e-14,1.207667297e-14
0.97656,2.768022800e-13,1.016772620e-13,2.653907207e-13,1.390691404e-13,3.317894576e-14,1.853501690e-13,1.089932015e-13,2.661830976e-14,5.327313446e-15,7.124484474e-14,3.825983680e-13,7.882423233e-14,7.827826459e-14,2.734334629e-13,3.492026354e-13,2.378462154e-13,1.535678907e-13,1.382541223e-13,4.044694636e-14,1.159635190e-13,1.992252041e-14,2.235328998e-14,2.302846418e-14,1.718755064e-13,4.441290798e-14,1.818593762e-14,2.976798510e-14,1.729572126e-13,1.040096102e-13,9.942694762e-14,2.588332072e-14,1.156789221e-14
0.98438,2.943344913e-13,9.539148690e-14,2.948782674e-13,1.374852581e-13,3.058618906e-14,1.944113589e-13,1.210828829e-13,2.773605218e-14,4.869505879e-15,8.290072212e-14,4.148922014e-13,7.824859420e-14,8.279592918e-14,2.809906398e-13,3.669633814e-13,2.419112042e-13,1.650352130e-13,1.489223503e-13,4.440018057e-14,9.895257479e-14,1.499927123e-14,2.272829382e-14,2.477430043e-14,1.769038892e-13,4.605789555e-14,1.853434473e-14,3.308721406e-14,1.696879415e-13,1.013170732e-13,9.243084687e-14,2.392929234e-14,1.089468679e-14
0.99219,3.155383021e-13,9.346671537e-14,3.185286686e-13,1.349306976e-13,2.906167811e-14,2.013754744e-13,1.319904955e-13,2.888019961e-14,4.332943654e-15,9.305074239e-14,4.317644475e-13,7.520546469e-14,8.274771894e-14,2.734564585e-13,3.591024544e-13,2.377306520e-13,1.686379240e-13,1.533385226e-13,4.745874095e-14,8.810119743e-14,1.588862158e-14,2.292379362e-14,2.761018989e-14,1.831884251e-13,4.665622764e-14,1.870987856e-14,3.648890066e-14,1.692080516e-13,9.857722957e-14,9.009460716e-14,2.250532108e-14,9.740007835e-15
1,3.350271903e-13,9.418093428e-14,3.348709071e-13,1.303179755e-13,2.762329863e-14,2.063245019e-13,1.427173369e-13,3.074842512e-14,3.829428473e-15,1.023190639e-13,4.371302343e-13,7.026847860e-14,7.924089251e-14,2.560474761e-13,3.358219243e-13,2.286965813e-13,1.683093300e-13,1.530078649e-13,4.945392900e-14,8.601183743e-14,2.219736923e-14,2.296260594e-14,3.191699670e-14,1.914316465e-13,4.779599508e-14,1.968319493e-14,4.029573358e-14,1.726702213e-13,9.975508812e-14,9.224646553e-14,2.170847906e-14,8.413415139e-15
1.0078,3.488890788e-13,9.439678000e-14,3.435357327e-13,1.234520421e-13,2.610745597e-14,2.092533246e-13,1.522112559e-13,3.316911366e-14,3.560959991e-15,1.118789212e-13,4.291917085e-13,6.344334581e-14,7.423360746e-14,2.342282021e-13,3.062483275e-13,2.153707313e-13,1.697434888e-13,1.503648836e-13,5.108629338e-14,8.974536716e-14,3.248897945e-14,2.252588016e-14,3.808566120e-14,1.993714363e-13,5.308597934e-14,2.225499579e-14,4.530801330e-14,1.712641999e-13,1.017945866e-13,9.447568619e-14,2.113465945e-14,7.312621906e-15
1.0156,3.481690913e-13,9.005015123e-14,3.390497183e-13,1.144021514e-13,2.395633877e-14,2.101456576e-13,1.605685776e-13,3.652532286e-14,3.492836304e-15,1.233799102e-13,4.138843110e-13,5.646785305e-14,6.988172143e-14,2.126533424e-13,2.781237449e-13,2.014100041e-13,1.750712715e-13,1.477000252e-13,5.367229630e-14,9.541634308e-14,4.682132850e-14,2.218919779e-14,4.762874533e-14,2.016111526e-13,5.831579225e-14,2.540519305e-14,4.893972960e-14,1.698899439e-13,9.939605548e-14,9.128353687e-14,2.056485494e-14,6.476641709e-15
1.0234,3.329091088e-13,8.157742781e-14,3.199456163e-13,1.041471244e-13,2.172767958e-14,2.090906268e-13,1.657832380e-13,3.998241355e-14,3.604651274e-15,1.334988052e-13,3.910470354e-13,4.970624302e-14,6.681049073e-14,1.910186619e-13,2.498099348e-13,1.881085209e-13,1.832763661e-13,1.457394717e-13,5.710416926e-14,1.009070674e-13,6.564885983e-14,2.245181332e-14,5.920735943e-14,1.952733167e-13,6.220582479e-14,2.834472005e-14,5.140171326e-14,1.698791024e-13,9.282556026e-14,8.338049649e-14,2.002424154e-14,5.722615148e-15
1.0312,3.118540045e-13,7.407018484e-14,2.941320576e-13,9.404414570e-14,2.003001170e-14,2.081551388e-13,1.688134923e-13,4.340678344e-14,3.708882536e-15,1.399705784e-13,3.667356710e-13,4.438512474e-14,6.307588504e-14,1.690530694e-13,2.210058353e-13,1.761315018e-13,1.906265894e-13,1.430063168e-13,6.090380806e-14,1.084681216e-13,8.936356736e-14,2.291036551e-14,7.271682111e-14,1.876357041e-13,6.984899197e-14,3.183015965e-14,5.539981849e-14,1.819447827e-13,8.563190285e-14,7.691512135e-14,1.982763041e-14,5.051666638e-15
1.0391,2.887166304e-13,6.509430728e-14,2.657705555e-13,8.342759883e-14,1.813709270e-14,2.024528333e-13,1.662942600e-13,4.445237128e-14,3.889298637e-15,1.396148442e-13,3.414118641e-13,4.101352076e-14,5.935092634e-14,1.474080821e-13,1.953474432e-13,1.671351697e-13,1.974617774e-13,1.424563406e-13,6.528502106e-14,1.134083079e-13,1.158261183e-13,2.438510984e-14,8.841716323e-14,1.802465414e-13,7.969610820e-14,3.677416382e-14,5.945352704e-14,1.997395926e-13,8.039524854e-14,7.166595760e-14,2.020376835e-14,4.502139989e-15
1.0469,2.638442173e-13,5.493957100e-14,2.385487874e-13,7.273446988e-14,1.642034662e-14,1.920745383e-13,1.593869777e-13,4.291734400e-14,3.916518881e-15,1.344273689e-13,3.148772819e-13,3.843489091e-14,5.441359046e-14,1.262771017e-13,1.737225400e-13,1.604523461e-13,1.999569555e-13,1.421862988e-13,6.887202406e-14,1.160077486e-13,1.437399449e-13,2.644223523e-14,1.059296406e-13,1.760419888e-13,8.892002363e-14,4.242696267e-14,6.184703411e-14,2.225632401e-13,7.820025106e-14,6.934550753e-14,2.102429618e-14,4.072512291e-15
1.0547,2.363166537e-13,4.353578708e-14,2.094422144e-13,6.187869697e-14,1.453464095e-14,1.778421474e-13,1.478398463e-13,3.977442184e-14,3.918933680e-15,1.267280293e-13,2.870365230e-13,3.553210306e-14,5.007717962e-14,1.071775439e-13,1.578051655e-13,1.558544629e-13,2.042138352e-13,1.442227216e-13,7.304538083e-14,1.182269805e-13,1.723633892e-13,2.948667733e-14,1.236867787e-13,1.684818098e-13,9.660766284e-14,4.739188964e-14,6.374043530e-14,2.483279785e-13,7.761481501e-14,6.833614711e-14,2.200772334e-14,3.712419726e-15
1.0625,2.139690445e-13,3.503197831e-14,1.839018379e-13,5.215058459e-14,1.303949456e-14,1.629211835e-13,1.327086715e-13,3.593816219e-14,3.853705944e-15,1.163864215e-13,2.566880391e-13,3.174840333e-14,4.433781490e-14,9.035909152e-14,1.436619369e-13,1.531825715e-13,2.059211935e-13,1.445394326e-13,7.541847149e-14,1.184054995e-13,1.990356830e-13,3.205125807e-14,1.360479416e-13,1.616750764e-13,1.055094292e-13,5.000524300e-14,6.475332687e-14,2.717312420e-13,7.753038294e-14,6.994511345e-14,2.296427034e-14,3.511216108e-15
1.0703,2.008839815e-13,2.940253727e-14,1.622528069e-13,4.441110503e-14,1.182842227e-14,1.494583074e-13,1.154112867e-13,3.158919159e-14,3.819625362e-15,1.037619093e-13,2.254013520e-13,2.781985044e-14,3.893005581e-14,7.730911638e-14,1.319901899e-13,1.530416610e-13,2.103678825e-13,1.458441910e-13,7.748584638e-14,1.175951695e-13,2.222568543e-13,3.379749403e-14,1.431358145e-13,1.545320635e-13,1.142190310e-13,5.134103437e-14,6.714128636e-14,2.883785344e-13,7.767497040e-14,7.314701114e-14,2.407630169e-14,3.518412241e-15
1.0781,1.885172189e-13,2.507521891e-14,1.427420777e-13,3.827471097e-14,1.103766794e-14,1.346886545e-13,9.597452448e-14,2.626360779e-14,3.756491509e-15,8.923041936e-14,1.947335104e-13,2.427268227e-14,3.293942763e-14,6.717009774e-14,1.214907154e-13,1.535392092e-13,2.115670067e-13,1.445131953e-13,7.660195169e-14,1.138711114e-13,2.377309761e-13,3.377782602e-14,1.450130675e-13,1.497917069e-13,1.224365132e-13,5.185904077e-14,6.855950387e-14,2.905968349e-13,7.742051321e-14,7.743295193e-14,2.512189951e-14,3.694486872e-15
1.0859,1.747405957e-13,2.192935416e-14,1.241202005e-13,3.281746906e-14,1.058206708e-14,1.194994714e-13,7.819512645e-14,2.160813053e-14,3.943835356e-15,7.569876126e-14,1.690727552e-13,2.233110343e-14,2.870414032e-14,5.925893793e-14,1.142500429e-13,1.543832939e-13,2.157299341e-13,1.430024165e-13,7.559213273e-14,1.108122295e-13,2.483827725e-13,3.325038577e-14,1.443936047e-13,1.447784836e-13,1.295687867e-13,5.179663212e-14,6.988946823e-14,2.872719015e-13,7.643904468e-14,8.321085116e-14,2.617090833e-14,4.111585541e-15
1.0938,1.538647711e-13,1.859747209e-14,1.035517787e-13,2.726460711e-14,1.026690439e-14,1.016635740e-13,6.175248131e-14,1.764113677e-14,4.271338898e-15,6.346736371e-14,1.487997377e-13,2.209048814e-14,2.564038505e-14,5.363463111e-14,1.085227823e-13,1.556114990e-13,2.187046673e-13,1.392999881e-13,7.346016002e-14,1.079112524e-13,2.542359864e-13,3.234718368e-14,1.407152660e-13,1.432322403e-13,1.405490947e-13,5.062032963e-14,7.054499668e-14,2.763602378e-13,7.405720044e-14,9.118131507e-14,2.724456564e-14,4.759122458e-15
1.1016,1.368693396e-13,1.796582461e-14,8.726304321e-14,2.313281777e-14,1.052747498e-14,8.562115975e-14,4.830099114e-14,1.489041345e-14,4.665883142e-15,5.380915574e-14,1.320086814e-13,2.295770075e-14,2.327719567e-14,5.078210146e-14,1.039520399e-13,1.564318679e-13,2.218598253e-13,1.331224837e-13,7.057498494e-14,1.039285859e-13,2.556490346e-13,3.041354478e-14,1.332116731e-13,1.443473727e-13,1.504349978e-13,4.802663066e-14,7.182005417e-14,2.588395697e-13,7.149248761e-14,1.010484999e-13,2.852198116e-14,5.570099038e-15
1.1094,1.246564611e-13,1.876560692e-14,7.457780103e-14,2.113501178e-14,1.104290010e-14,7.177728029e-14,3.746848029e-14,1.259887117e-14,4.997957301e-15,4.649842439e-14,1.180403311e-13,2.446353045e-14,2.209577046e-14,5.031220822e-14,1.009822029e-13,1.558345450e-13,2.239910445e-13,1.253802431e-13,6.740179798e-14,9.954887663e-14,2.533091301e-13,2.846050424e-14,1.247667301e-13,1.470416979e-13,1.540816478e-13,4.535021079e-14,7.336569770e-14,2.403843373e-13,6.919289582e-14,1.127850986e-13,2.999596797e-14,6.473859475e-15
1.1172,1.154006645e-13,1.983573051e-14,6.638458031e-14,2.049101308e-14,1.115272865e-14,5.878856841e-14,2.893661947e-14,1.041523601e-14,5.474885717e-15,4.178210357e-14,1.077864030e-13,2.695130608e-14,2.235353408e-14,5.078039060e-14,9.944439209e-14,1.525532702e-13,2.257321355e-13,1.166370651e-13,6.438710818e-14,9.230524474e-14,2.491794025e-13,2.708219273e-14,1.153770862e-13,1.455919177e-13,1.473373746e-13,4.238467743e-14,7.354266793e-14,2.243603511e-13,6.675682484e-14,1.231239184e-13,3.160284218e-14,7.390376839e-15
1.125,1.092655762e-13,2.281665006e-14,6.060471432e-14,2.063044078e-14,1.099203616e-14,4.444332668e-14,2.176265872e-14,8.152302641e-15,6.175177251e-15,3.893609030e-14,1.012323891e-13,3.073168071e-14,2.491971661e-14,5.216939210e-14,9.935649700e-14,1.489792838e-13,2.290201239e-13,1.097330232e-13,6.306346249e-14,8.674699061e-14,2.457573833e-13,2.723184199e-14,1.076600085e-13,1.423057191e-13,1.376308517e-13,4.054083899e-14,7.492292676e-14,2.150242243e-13,6.424046420e-14,1.355696049e-13,3.315708961e-14,8.292375645e-15
1.1328,1.111615257e-13,2.848309693e-14,5.724413862e-14,2.250475389e-14,1.081508530e-14,3.300107201e-14,1.707902119e-14,6.476604068e-15,6.860118364e-15,3.728914967e-14,9.597238955e-14,3.538363071e-14,2.765058784e-14,5.463940844e-14,9.887841419e-14,1.465625765e-13,2.316430445e-13,1.023005162e-13,6.101907827e-14,8.129798299e-14,2.385340159e-13,2.710809011e-14,9.874939871e-14,1.393736500e-13,1.251974913e-13,3.902961903e-14,7.711775462e-14,2.057748704e-13,6.249809725e-14,1.470908362e-13,3.473334257e-14,9.352726995e-15
1.1406,1.198220691e-13,3.446215244e-14,5.332770422e-14,2.566465074e-14,1.073568790e-14,2.577321103e-14,1.462598854e-14,5.504105788e-15,7.349418835e-15,3.673904797e-14,8.841230341e-14,4.019445675e-14,3.209402565e-14,5.834738868e-14,9.753324018e-14,1.455683422e-13,2.349195603e-13,9.624176945e-14,5.920864104e-14,7.887539299e-14,2.248945529e-13,2.664294070e-14,8.980262953e-14,1.338251196e-13,1.086168817e-13,3.870447500e-14,7.906823924e-14,1.957094901e-13,6.307502132e-14,1.572767741e-13,3.660297560e-14,1.062631301e-14
1.1484,1.304566897e-13,3.871378480e-14,4.951657539e-14,2.918390066e-14,1.059283517e-14,2.162600474e-14,1.499049213e-14,5.029381216e-15,7.852353842e-15,3.679196088e-14,7.927973297e-14,4.496549998e-14,3.947524336e-14,6.397674868e-14,9.736242071e-14,1.475327751e-13,2.385318590e-13,9.321040710e-14,5.883628596e-14,7.646753036e-14,2.065530577e-13,2.653845532e-14,8.076151974e-14,1.256289921e-13,8.825581040e-14,3.863041263e-14,7.919023019e-14,1.808097928e-13,6.423853559e-14,1.612821586e-13,3.870573414e-14,1.200727117e-14
1.1562,1.437787320e-13,4.296665998e-14,4.737400368e-14,3.257505305e-14,1.073137174e-14,1.902909246e-14,1.848043202e-14,4.829778145e-15,8.574104686e-15,3.747329130e-14,7.202065723e-14,5.071350200e-14,5.061680647e-14,7.140493904e-14,1.007897749e-13,1.532532634e-13,2.480325441e-13,9.557075182e-14,6.145662837e-14,7.621821243e-14,1.870792794e-13,2.812744713e-14,7.203380643e-14,1.162572991e-13,6.839699721e-14,3.865511407e-14,7.856797029e-14,1.651761236e-13,6.495372763e-14,1.625001707e-13,4.049357970e-14,1.335042879e-14
1.1641,1.572781280e-13,4.679093233e-14,4.812867436e-14,3.621458267e-14,1.101539790e-14,1.817205699e-14,2.576193968e-14,4.634070381e-15,8.990705306e-15,3.821405470e-14,6.689133922e-14,5.584489008e-14,6.303732538e-14,8.199245872e-14,1.080452302e-13,1.653467468e-13,2.628976582e-13,1.028746150e-13,6.539728007e-14,7.807764754e-14,1.681153683e-13,2.987469129e-14,6.348649748e-14,1.104843739e-13,5.039213382e-14,3.836009562e-14,7.840372363e-14,1.545694154e-13,6.636518939e-14,1.617477514e-13,4.171391315e-14,1.476394869e-14
1.1719,1.759537342e-13,5.217549864e-14,5.172745092e-14,4.050270308e-14,1.151801075e-14,2.097443560e-14,3.593838445e-14,4.800433271e-15,9.267257382e-15,3.987401748e-14,6.541318194e-14,6.135827848e-14,7.690640752e-14,9.476798422e-14,1.204639241e-13,1.830665673e-13,2.850567190e-13,1.164829584e-13,7.079935530e-14,8.392848092e-14,1.497372841e-13,3.146358708e-14,5.539253544e-14,1.066742990e-13,3.876704000e-14,3.873498074e-14,7.999940608e-14,1.504109622e-13,6.982752563e-14,1.660025320e-13,4.278562565e-14,1.632507767e-14
1.1797,1.951048351e-13,5.813802427e-14,5.714583001e-14,4.481666280e-14,1.213742918e-14,2.636135744e-14,4.831006993e-14,5.426984993e-15,9.464614153e-15,4.145106820e-14,6.382805190e-14,6.652690006e-14,9.256777260e-14,1.088436370e-13,1.338186913e-13,2.028711186e-13,3.052793108e-13,1.335843829e-13,7.738409185e-14,8.814707871e-14,1.318504431e-13,3.363628088e-14,4.826682997e-14,1.047925628e-13,3.259423848e-14,3.943739610e-14,8.281499692e-14,1.507968606e-13,7.302513709e-14,1.720310682e-13,4.397397761e-14,1.788667278e-14
1.1875,2.163170632e-13,6.531132361e-14,6.467093222e-14,4.788851274e-14,1.234641831e-14,3.057913850e-14,6.102200211e-14,5.859294952e-15,9.896558797e-15,4.276784761e-14,6.221257068e-14,7.204613268e-14,1.114740004e-13,1.259192793e-13,1.505888542e-13,2.250890470e-13,3.244263164e-13,1.562541451e-13,8.660097382e-14,8.983095872e-14,1.160258909e-13,3.766872827e-14,4.181287982e-14,1.023055945e-13,3.045278448e-14,3.983766752e-14,8.600358668e-14,1.519516819e-13,7.423729613e-14,1.792237044e-13,4.496622573e-14,1.929582561e-14
1.1953,2.287841801e-13,6.996319655e-14,7.228994042e-14,4.955353070e-14,1.201223392e-14,3.225339814e-14,7.432212568e-14,5.790694419e-15,1.030778580e-14,4.353511535e-14,5.985695154e-14,7.710014385e-14,1.306612216e-13,1.455476113e-13,1.682736332e-13,2.470928736e-13,3.369296281e-13,1.802730785e-13,9.554837318e-14,8.792337821e-14,1.022534593e-13,4.143212984e-14,3.611739776e-14,9.895932272e-14,2.925809836e-14,3.969243812e-14,8.851720827e-14,1.539929262e-13,7.452590883e-14,1.814518829e-13,4.554946075e-14,2.063751119e-14
1.2031,2.400982297e-13,7.224315723e-14,8.086407902e-14,5.109389421e-14,1.134398753e-14,3.551125502e-14,8.898766902e-14,5.834198338e-15,1.064963020e-14,4.343729926e-14,5.820240331e-14,8.235700357e-14,1.513621113e-13,1.684727013e-13,1.900780898e-13,2.701961603e-13,3.504923645e-13,2.085457979e-13,1.058827854e-13,8.525721507e-14,9.049170691e-14,4.491878567e-14,3.214413639e-14,9.575220825e-14,3.161049604e-14,3.941399286e-14,9.176619042e-14,1.586124309e-13,7.613794863e-14,1.842361462e-13,4.599389374e-14,2.191969388e-14
1.2109,2.483426345e-13,7.221758287e-14,9.159486060e-14,5.268371364e-14,1.065964983e-14,4.066678431e-14,1.046834897e-13,6.099400647e-15,1.100689296e-14,4.210943153e-14,5.606410297e-14,8.764932791e-14,1.728764570e-13,1.922214966e-13,2.121591877e-13,2.915770075e-13,3.612097410e-13,2.387525691e-13,1.177563836e-13,7.947372288e-14,8.202530269e-14,4.863296002e-14,2.990304546e-14,9.141058413e-14,3.505905498e-14,3.904658870e-14,9.393148083e-14,1.632644625e-13,7.743497103e-14,1.853351672e-13,4.629886474e-14,2.273808318e-14
1.2188,2.612235204e-13,7.163517071e-14,1.058241453e-13,5.414688738e-14,1.019244307e-14,4.671055879e-14,1.191612386e-13,6.068415669e-15,1.146501528e-14,3.950009750e-14,5.267741145e-14,9.295122297e-14,1.964317142e-13,2.156735781e-13,2.348229111e-13,3.108262949e-13,3.734566696e-13,2.718274031e-13,1.329344933e-13,7.305674182e-14,7.782434781e-14,5.495660346e-14,3.035535949e-14,8.457793394e-14,4.118538249e-14,3.871958673e-14,9.587682577e-14,1.615930823e-13,7.645511340e-14,1.876695916e-13,4.590610425e-14,2.269766071e-14
1.2266,2.732383220e-13,7.168300270e-14,1.211612807e-13,5.463411040e-14,9.445695723e-15,5.149379407e-14,1.305437876e-13,5.632229548e-15,1.209482557e-14,3.645020454e-14,4.830916004e-14,9.815202005e-14,2.169457555e-13,2.367701683e-13,2.543519666e-13,3.258646135e-13,3.806985117e-13,3.016292537e-13,1.464076216e-13,6.642654459e-14,7.314854090e-14,6.145558706e-14,3.088322525e-14,7.692459672e-14,4.686496794e-14,3.776243679e-14,9.657629696e-14,1.553391646e-13,7.471817150e-14,1.882550915e-13,4.476149384e-14,2.202050150e-14
1.2344,2.835440657e-13,7.068239962e-14,1.342204179e-13,5.542541668e-14,8.830371095e-15,5.590492982e-14,1.393527842e-13,5.555838608e-15,1.256440313e-14,3.324314900e-14,4.480367779e-14,1.023483431e-13,2.307426859e-13,2.554053146e-13,2.702394538e-13,3.356519001e-13,3.862692779e-13,3.254062065e-13,1.563584981e-13,6.364789642e-14,6.763066236e-14,6.559252846e-14,3.159971182e-14,7.282317444e-14,5.302305820e-14,3.655250597e-14,9.742582862e-14,1.526430998e-13,7.418043300e-14,1.919852203e-13,4.317115509e-14,2.120882040e-14
1.2422,2.880768218e-13,7.180443373e-14,1.453453756e-13,5.702695218e-14,7.986974182e-15,6.041736258e-14,1.461175131e-13,5.989066207e-15,1.273701753e-14,2.999115946e-14,4.144702931e-14,1.042980087e-13,2.348933339e-13,2.712682648e-13,2.793756887e-13,3.392038057e-13,3.844474801e-13,3.389213431e-13,1.596167661e-13,6.113899783e-14,6.150839921e-14,6.515708114e-14,3.085220652e-14,6.937017517e-14,5.905592775e-14,3.510172926e-14,9.650376857e-14,1.563802203e-13,7.392033030e-14,1.996217081e-13,4.135014830e-14,2.048687698e-14
1.25,2.927485991e-13,7.333493798e-14,1.570125298e-13,5.918461599e-14,7.622921951e-15,6.616418919e-14,1.530492306e-13,6.665249896e-15,1.264251771e-14,2.627293115e-14,3.832644240e-14,1.036000633e-13,2.329873654e-13,2.831095572e-13,2.828133597e-13,3.361324557e-13,3.801506001e-13,3.451354543e-13,1.610524623e-13,5.993601357e-14,5.892402637e-14,6.327791585e-14,3.084602705e-14,6.966022009e-14,6.562750224e-14,3.376216259e-14,9.499272491e-14,1.623069999e-13,7.369358214e-14,2.101899214e-13,3.936692639e-14,1.943033272e-14
1.2578,2.987279296e-13,7.402145181e-14,1.659713465e-13,6.073336826e-14,7.341002717e-15,7.223042302e-14,1.582149271e-13,7.111663601e-15,1.258345907e-14,2.228707268e-14,3.608730973e-14,1.018345907e-13,2.255182002e-13,2.871566028e-13,2.790172009e-13,3.258750091e-13,3.699101522e-13,3.437228214e-13,1.610079381e-13,5.843674143e-14,5.890574474e-14,6.193064188e-14,3.101527077e-14,7.342854792e-14,7.275018636e-14,3.252716811e-14,9.342377212e-14,1.652889803e-13,7.420515254e-14,2.207123916e-13,3.703247331e-14,1.784859096e-14
1.2656,2.972962086e-13,6.845304588e-14,1.668250219e-13,6.158159830e-14,7.240425708e-15,7.572214971e-14,1.604387330e-13,7.774683164e-15,1.267250380e-14,1.858902372e-14,3.531115699e-14,1.005359993e-13,2.162235879e-13,2.840035418e-13,2.717929586e-13,3.109964771e-13,3.614784215e-13,3.399905817e-13,1.634822797e-13,5.993860532e-14,6.259638218e-14,6.272505692e-14,3.267786294e-14,8.479760987e-14,7.772574434e-14,3.159766430e-14,9.253140465e-14,1.642600444e-13,7.537298631e-14,2.265774566e-13,3.453976914e-14,1.610791900e-14
1.2734,2.915581070e-13,6.172251093e-14,1.612333497e-13,6.293795280e-14,7.065890675e-15,7.559005271e-14,1.570194739e-13,8.658245955e-15,1.279899539e-14,1.512061413e-14,3.549048087e-14,9.844366834e-14,2.026729661e-13,2.761137112e-13,2.609473636e-13,2.927228931e-13,3.505269244e-13,3.313550041e-13,1.641217417e-13,6.150145349e-14,6.795948689e-14,6.333504560e-14,3.402560858e-14,1.003553633e-13,8.078146131e-14,3.116881762e-14,9.375809053e-14,1.642150864e-13,7.544298625e-14,2.310995633e-13,3.222917936e-14,1.465356880e-14
1.2812,2.843774374e-13,5.684673273e-14,1.526044196e-13,6.496583487e-14,7.090298738e-15,7.350772436e-14,1.494202104e-13,9.358182838e-15,1.302052041e-14,1.210334994e-14,3.597226791e-14,9.534063844e-14,1.880844585e-13,2.673556260e-13,2.488090870e-13,2.730729256e-13,3.411770691e-13,3.202760597e-13,1.638152789e-13,6.605371449e-14,7.485459248e-14,6.362322287e-14,3.550450060e-14,1.185895644e-13,8.348941338e-14,3.113537220e-14,9.681447627e-14,1.669630418e-13,7.466434713e-14,2.348618746e-13,3.016564847e-14,1.360111608e-14
1.2891,2.826427601e-13,5.261562661e-14,1.457658800e-13,6.605621759e-14,6.979419332e-15,7.153248249e-14,1.390864857e-13,9.169563633e-15,1.332784810e-14,9.693008527e-15,3.831527477e-14,9.076658316e-14,1.714707477e-13,2.578702915e-13,2.349041449e-13,2.527218179e-13,3.277792932e-13,3.052581432e-13,1.592707320e-13,7.117616153e-14,7.765637225e-14,6.225545149e-14,3.577597388e-14,1.352991739e-13,8.659309881e-14,3.150263549e-14,1.019337113e-13,1.707608080e-13,7.631357253e-14,2.399590869e-13,2.862465193e-14,1.288745522e-14
1.2969,2.862859216e-13,4.712471993e-14,1.401307747e-13,6.719230837e-14,6.932471630e-15,7.247669123e-14,1.290995281e-13,9.006445712e-15,1.373353149e-14,8.195117996e-15,4.475337954e-14,8.622288098e-14,1.564550287e-13,2.489383844e-13,2.232877521e-13,2.352827926e-13,3.157424445e-13,2.907379996e-13,1.543466529e-13,7.786763249e-14,7.850621536e-14,6.125072000e-14,3.637841444e-14,1.547372410e-13,9.106817167e-14,3.203476227e-14,1.066341299e-13,1.781068002e-13,8.004058228e-14,2.476495601e-13,2.754975550e-14,1.248958716e-14
1.3047,2.908960703e-13,4.105977980e-14,1.333117955e-13,6.915880027e-14,7.032051460e-15,7.407507383e-14,1.173531824e-13,9.278875039e-15,1.416324128e-14,7.676730801e-15,5.454332435e-14,8.185074041e-14,1.430232372e-13,2.403113783e-13,2.149864739e-13,2.210936357e-13,3.045431936e-13,2.774737257e-13,1.502871344e-13,8.429796134e-14,8.040876953e-14,6.155301026e-14,3.744857040e-14,1.751660633e-13,9.589258781e-14,3.222274532e-14,1.121604891e-13,1.929019844e-13,8.289028361e-14,2.562257480e-13,2.690942095e-14,1.250748321e-14
1.3125,2.975564282e-13,3.777551823e-14,1.245797160e-13,7.141636052e-14,7.527300960e-15,7.245107888e-14,1.029786548e-13,9.125926575e-15,1.489326770e-14,8.028007298e-15,6.455057842e-14,7.813760073e-14,1.327409244e-13,2.334386702e-13,2.105939576e-13,2.113705777e-13,2.939622616e-13,2.672811150e-13,1.478156759e-13,9.009193232e-14,8.374047557e-14,6.337503397e-14,3.948445243e-14,1.957467436e-13,1.020546801e-13,3.208209045e-14,1.188228406e-13,2.123480049e-13,8.477664653e-14,2.675736759e-13,2.642180062e-14,1.278129269e-14
1.3203,3.041758579e-13,3.592051177e-14,1.130220022e-13,7.131781333e-14,8.132885960e-15,6.676962960e-14,8.586699923e-14,7.780519460e-15,1.622082346e-14,9.019057338e-15,7.605224178e-14,7.644992642e-14,1.238532047e-13,2.287405739e-13,2.091794362e-13,2.052161702e-13,2.828351755e-13,2.580288313e-13,1.436828462e-13,9.601700466e-14,8.337605852e-14,6.362705068e-14,4.110519790e-14,2.125437919e-13,1.093954952e-13,3.192327881e-14,1.261909807e-13,2.269468832e-13,8.857918483e-14,2.776807381e-13,2.614764810e-14,1.311921567e-14
1.3281,3.108686280e-13,3.559621743e-14,1.026611372e-13,6.948858666e-14,8.798542886e-15,6.160818091e-14,6.913476740e-14,6.267788802e-15,1.778049912e-14,1.012580756e-14,8.851366581e-14,7.668280002e-14,1.166376116e-13,2.283062109e-13,2.099742480e-13,2.033085479e-13,2.719475437e-13,2.498537473e-13,1.377557236e-13,1.033140393e-13,7.893601892e-14,6.165646368e-14,4.224566147e-14,2.325315997e-13,1.150479501e-13,3.225011510e-14,1.322643849e-13,2.406690472e-13,9.684776963e-14,2.898735522e-13,2.608234828e-14,1.370313181e-14
1.3359,3.114738094e-13,3.746804747e-14,9.309864755e-14,6.843701421e-14,9.392243079e-15,5.847391977e-14,5.426467170e-14,5.197971194e-15,1.896556317e-14,1.241525648e-14,1.012906626e-13,7.792777858e-14,1.110917380e-13,2.320795698e-13,2.157451758e-13,2.068479760e-13,2.636874619e-13,2.435220769e-13,1.316713982e-13,1.120157764e-13,7.372998829e-14,5.876418168e-14,4.304834301e-14,2.576676620e-13,1.191503282e-13,3.286198875e-14,1.367567361e-13,2.566341147e-13,1.068727359e-13,3.026295962e-13,2.629494268e-14,1.452122283e-14
1.3438,3.056967296e-13,4.172182771e-14,8.399912886e-14,6.937378245e-14,1.047708686e-14,5.628546999e-14,4.201859403e-14,5.025815636e-15,1.977629925e-14,1.611666444e-14,1.137259895e-13,8.049102103e-14,1.086159057e-13,2.369595488e-13,2.261877722e-13,2.149961870e-13,2.606043642e-13,2.406534253e-13,1.284764315e-13,1.221663082e-13,7.184346721e-14,5.792658785e-14,4.532297270e-14,2.911051657e-13,1.220782881e-13,3.291310977e-14,1.396944637e-13,2.828204612e-13,1.158764079e-13,3.184751123e-13,2.632748228e-14,1.498359688e-14
1.3516,3.006441500e-13,4.802687335e-14,7.446469117e-14,7.061722637e-14,1.194770974e-14,5.478652248e-14,3.316274103e-14,5.482972612e-15,2.056340238e-14,2.098464553e-14,1.263175405e-13,8.466849396e-14,1.074393054e-13,2.374259128e-13,2.352435865e-13,2.257287112e-13,2.603206143e-13,2.392591224e-13,1.273380404e-13,1.319084922e-13,7.307152659e-14,5.842014497e-14,4.873226798e-14,3.281824229e-13,1.265911283e-13,3.191266950e-14,1.412495265e-13,3.172591436e-13,1.251039582e-13,3.386735188e-13,2.629305517e-14,1.462431712e-14
1.3594,2.998790590e-13,5.185103995e-14,6.631687907e-14,6.985029351e-14,1.316860012e-14,5.417911427e-14,2.764536921e-14,6.118074760e-15,2.130869567e-14,2.628476136e-14,1.404992462e-13,8.986897934e-14,1.065641511e-13,2.339532724e-13,2.408958846e-13,2.376583018e-13,2.623999904e-13,2.380209280e-13,1.268303020e-13,1.414267337e-13,7.582447762e-14,5.800155294e-14,5.276431429e-14,3.693625663e-13,1.335190766e-13,3.013706646e-14,1.411449739e-13,3.544908984e-13,1.373527159e-13,3.630730858e-13,2.608586205e-14,1.359612971e-14
1.3672,3.085301741e-13,5.515550866e-14,6.161479535e-14,6.773846393e-14,1.393968294e-14,5.622667755e-14,2.612430374e-14,6.548725636e-15,2.134018442e-14,3.289299690e-14,1.553076612e-13,9.246593447e-14,1.039839918e-13,2.298753607e-13,2.444549767e-13,2.510228977e-13,2.647657888e-13,2.346612587e-13,1.243866417e-13,1.498252332e-13,7.958798313e-14,5.433997749e-14,5.692023791e-14,4.109056730e-13,1.474681956e-13,2.852875091e-14,1.404270163e-13,3.966631774e-13,1.521110374e-13,3.957767914e-13,2.576894096e-14,1.265413582e-14
1.375,3.182555262e-13,5.890950628e-14,5.886616568e-14,6.615405094e-14,1.428154668e-14,6.073421115e-14,2.743052044e-14,7.250061779e-15,2.060131163e-14,3.985648291e-14,1.713435862e-13,9.372972156e-14,1.008638630e-13,2.264069706e-13,2.502813203e-13,2.655203559e-13,2.691867827e-13,2.297277327e-13,1.207588366e-13,1.586178992e-13,8.508044903e-14,4.880311279e-14,6.179331056e-14,4.541560591e-13,1.662670004e-13,2.690051990e-14,1.392425900e-13,4.492693096e-13,1.661184836e-13,4.355069054e-13,2.563544661e-14,1.183713984e-14
1.3828,3.326893903e-13,6.439839982e-14,5.556945569e-14,6.552237988e-14,1.486873878e-14,6.696628016e-14,3.009025764e-14,8.282221914e-15,1.968300684e-14,4.645408541e-14,1.883073943e-13,9.575428405e-14,9.794221835e-14,2.208084541e-13,2.558011168e-13,2.795037443e-13,2.751210102e-13,2.241080526e-13,1.167769603e-13,1.682194954e-13,9.201713533e-14,4.342039499e-14,6.749069837e-14,4.950605529e-13,1.927328074e-13,2.543215668e-14,1.398969141e-13,5.142320084e-13,1.793563572e-13,4.848412856e-13,2.593704868e-14,1.080971368e-14
1.3906,3.358166068e-13,6.563687715e-14,5.084119678e-14,6.393492324e-14,1.523618878e-14,7.017354704e-14,3.374048094e-14,9.078244861e-15,1.908832858e-14,5.340858501e-14,2.057305268e-13,9.955348544e-14,9.685710748e-14,2.130503243e-13,2.612575253e-13,2.934936551e-13,2.843644608e-13,2.200429315e-13,1.138838350e-13,1.777376563e-13,1.000094018e-13,3.934815269e-14,7.310605922e-14,5.326773627e-13,2.207126072e-13,2.403460802e-14,1.400710651e-13,5.766930186e-13,1.941942739e-13,5.295457913e-13,2.682263343e-14,9.443625529e-15
1.3984,3.349558274e-13,6.485488822e-14,4.527188126e-14,6.046092229e-14,1.580198359e-14,6.856773711e-14,3.833750591e-14,9.124578055e-15,1.840520575e-14,6.125641908e-14,2.226023189e-13,1.022826340e-13,9.548222684e-14,2.041885491e-13,2.655249088e-13,3.044542129e-13,2.940452257e-13,2.152583004e-13,1.117215169e-13,1.882737579e-13,1.096003710e-13,3.585507958e-14,7.866729729e-14,5.699150511e-13,2.509025433e-13,2.348488332e-14,1.430031307e-13,6.402879603e-13,2.133777292e-13,5.728234830e-13,2.848957027e-14,7.880781420e-15
1.4062,3.329481043e-13,6.470612486e-14,3.997208282e-14,5.617936324e-14,1.659725526e-14,6.512965517e-14,4.453548491e-14,9.057726131e-15,1.730618255e-14,6.876952108e-14,2.385529583e-13,1.030190198e-13,9.366835176e-14,1.971025799e-13,2.702047752e-13,3.119234570e-13,3.036714514e-13,2.094343251e-13,1.089714123e-13,1.972423922e-13,1.189945152e-13,3.245171250e-14,8.312384694e-14,6.066327371e-13,2.786747042e-13,2.326279084e-14,1.478399180e-13,7.076382484e-13,2.340719832e-13,6.172260646e-13,3.092687961e-14,6.531216794e-15
1.4141,3.376767274e-13,6.849082782e-14,3.564943654e-14,5.306833887e-14,1.776644265e-14,6.367588126e-14,5.197451593e-14,9.565719437e-15,1.610850633e-14,7.483142303e-14,2.545948020e-13,1.037084900e-13,9.097715006e-14,1.920819243e-13,2.752284586e-13,3.158609630e-13,3.130458360e-13,2.030415774e-13,1.061591383e-13,2.060477348e-13,1.274793881e-13,2.928538268e-14,8.711586672e-14,6.417708302e-13,3.067291250e-13,2.363931167e-14,1.565742322e-13,7.888731102e-13,2.530708356e-13,6.656195481e-13,3.384426725e-14,5.446943909e-15
1.4219,3.449407591e-13,7.457608195e-14,3.266912678e-14,5.158364168e-14,1.889527502e-14,6.503905528e-14,6.092829806e-14,1.094263183e-14,1.511109609e-14,8.077686891e-14,2.713865740e-13,1.059872387e-13,8.744453356e-14,1.872362048e-13,2.783667492e-13,3.158670676e-13,3.176488524e-13,1.947522768e-13,1.025267978e-13,2.112758989e-13,1.349347621e-13,2.671206989e-14,8.990254483e-14,6.702201988e-13,3.343631101e-13,2.444536962e-14,1.663433919e-13,8.757841808e-13,2.708362102e-13,7.143177475e-13,3.700738193e-14,4.606454771e-15
1.4297,3.491208594e-13,8.237770853e-14,3.245539000e-14,5.089107021e-14,1.981568007e-14,6.561014695e-14,7.146089044e-14,1.254148024e-14,1.442643777e-14,8.759670349e-14,2.869955129e-13,1.094064423e-13,8.331655030e-14,1.817738486e-13,2.783612656e-13,3.122494317e-13,3.159061315e-13,1.857828940e-13,9.898139975e-14,2.147271531e-13,1.418033684e-13,2.500090242e-14,9.167243751e-14,6.955968012e-13,3.629867830e-13,2.616876833e-14,1.779960472e-13,9.653094167e-13,2.908767539e-13,7.598691967e-13,4.093351270e-14,4.009699096e-15
1.4375,3.536557155e-13,9.044200871e-14,3.460236584e-14,5.019045581e-14,2.054384492e-14,6.476439904e-14,8.389008771e-14,1.406464556e-14,1.387547820e-14,9.483946674e-14,3.006043964e-13,1.123625928e-13,7.781898077e-14,1.750087248e-13,2.765086840e-13,3.045080027e-13,3.074344973e-13,1.742981205e-13,9.479559206e-14,2.169773974e-13,1.481829447e-13,2.341094013e-14,9.185027608e-14,7.171371891e-13,3.885768946e-13,2.827081207e-14,1.904694811e-13,1.050961856e-12,3.108867094e-13,8.036192726e-13,4.564352856e-14,3.658292833e-15
1.4453,3.586952865e-13,9.762499001e-14,3.859699031e-14,4.943286643e-14,2.078582436e-14,6.384200889e-14,9.668439277e-14,1.547104427e-14,1.317911828e-14,1.010413769e-13,3.097377041e-13,1.139299749e-13,7.064652856e-14,1.676479854e-13,2.724867700e-13,2.927009409e-13,2.939223847e-13,1.601545526e-13,8.991222634e-14,2.149432609e-13,1.537629058e-13,2.185623446e-14,9.104887505e-14,7.214163549e-13,4.061501551e-13,2.946930552e-14,1.999524558e-13,1.129894476e-12,3.219565027e-13,8.399801571e-13,4.959501792e-14,3.562419375e-15
1.4531,3.645472922e-13,1.021240210e-13,4.334609517e-14,4.876383829e-14,1.996485511e-14,6.501128064e-14,1.093144688e-13,1.707187980e-14,1.250869059e-14,1.069606088e-13,3.141224360e-13,1.143856076e-13,6.415379981e-14,1.611144465e-13,2.695198663e-13,2.795123022e-13,2.800143473e-13,1.468750957e-13,8.553253142e-14,2.086711628e-13,1.570169532e-13,2.094067555e-14,8.918445585e-14,7.055320895e-13,4.117638845e-13,2.912638428e-14,2.030554065e-13,1.193321549e-12,3.213375457e-13,8.637965890e-13,5.129965852e-14,3.661020537e-15
1.4609,3.618007337e-13,1.021374222e-13,4.808943575e-14,4.775415208e-14,1.804809218e-14,6.595450659e-14,1.206788199e-13,1.847776267e-14,1.172382233e-14,1.121630964e-13,3.100455449e-13,1.117754584e-13,5.799436105e-14,1.539696173e-13,2.645108933e-13,2.659473591e-13,2.643462861e-13,1.345034980e-13,8.079572776e-14,2.004826286e-13,1.579203689e-13,1.974951653e-14,8.663947442e-14,6.700838910e-13,4.095518775e-13,2.831136875e-14,1.993901256e-13,1.223130587e-12,3.151476468e-13,8.697551505e-13,5.087704872e-14,3.795826909e-15
1.4688,3.488048630e-13,9.798973474e-14,5.211412508e-14,4.595903323e-14,1.585927761e-14,6.666317396e-14,1.303917449e-13,1.982172294e-14,1.106820453e-14,1.162209911e-13,3.007488260e-13,1.071498811e-13,5.272904045e-14,1.448826453e-13,2.564594227e-13,2.510733098e-13,2.494859541e-13,1.238194976e-13,7.596413041e-14,1.938405414e-13,1.553301890e-13,1.834977768e-14,8.283808520e-14,6.220685776e-13,3.988616288e-13,2.771212662e-14,1.921592812e-13,1.204267869e-12,3.078155169e-13,8.514723598e-13,4.945507299e-14,3.897366282e-15
1.4766,3.286676249e-13,9.135175702e-14,5.574008517e-14,4.345969869e-14,1.372571677e-14,6.772247141e-14,1.380619707e-13,2.120536329e-14,1.047214196e-14,1.165958551e-13,2.869498031e-13,1.015971560e-13,4.763100996e-14,1.320777605e-13,2.415258906e-13,2.345009027e-13,2.319721736e-13,1.130240595e-13,7.121724986e-14,1.865195276e-13,1.514333880e-13,1.721935483e-14,7.876998357e-14,5.624115163e-13,3.828128319e-13,2.707520749e-14,1.829255165e-13,1.155324450e-12,2.976271168e-13,8.177698915e-13,4.691104477e-14,4.129084937e-15
1.4844,3.096082367e-13,8.353718907e-14,5.779061416e-14,4.118217749e-14,1.174817607e-14,7.173165598e-14,1.436484341e-13,2.302028799e-14,9.866638752e-15,1.137911919e-13,2.699297716e-13,9.591051722e-14,4.326862498e-14,1.165352938e-13,2.217461014e-13,2.170516180e-13,2.155079567e-13,1.032776610e-13,6.593530043e-14,1.757849727e-13,1.454686469e-13,1.632215959e-14,7.286357930e-14,4.883122586e-13,3.534194223e-13,2.522139346e-14,1.698050388e-13,1.086835307e-12,2.788358242e-13,7.724320388e-13,4.299512341e-14,4.583853415e-15
1.4922,2.926035169e-13,7.623093021e-14,5.985000432e-14,3.894114267e-14,9.718841186e-15,7.705822978e-14,1.474695048e-13,2.508278927e-14,9.070781848e-15,1.095433346e-13,2.479207053e-13,8.913478776e-14,3.885723103e-14,1.000785192e-13,1.978067887e-13,1.980681876e-13,1.999937258e-13,9.422369731e-14,6.088646436e-14,1.651393166e-13,1.396735520e-13,1.547429333e-14,6.652341793e-14,4.102624054e-13,3.169117947e-13,2.272743631e-14,1.550874755e-13,1.015825385e-12,2.516417464e-13,7.208546973e-13,3.764853201e-14,5.225462103e-15
1.5,2.747688917e-13,6.883198977e-14,6.127629552e-14,3.607645529e-14,7.874552113e-15,8.074382061e-14,1.490420629e-13,2.682928466e-14,8.300266969e-15,1.053861502e-13,2.230746625e-13,8.098192681e-14,3.444512531e-14,8.401772989e-14,1.734451103e-13,1.793653838e-13,1.876651182e-13,8.630065363e-14,5.533887638e-14,1.540650181e-13,1.329958949e-13,1.471914750e-14,5.883251318e-14,3.366950573e-13,2.743775002e-13,2.016542797e-14,1.390844142e-13,9.338497530e-13,2.196005950e-13,6.595407621e-13,3.203819558e-14,5.778665148e-15
1.5078,2.591329072e-13,6.274062822e-14,6.411990017e-14,3.271082019e-14,6.349917622e-15,8.198429062e-14,1.488704864e-13,2.788400208e-14,7.642587532e-15,1.017988144e-13,1.993020264e-13,7.227396023e-14,3.018017603e-14,6.867104686e-14,1.498881327e-13,1.620529835e-13,1.784475667e-13,7.931434812e-14,4.965362294e-14,1.441590464e-13,1.248945157e-13,1.423580999e-14,5.144877435e-14,2.759137168e-13,2.350019559e-13,1.845342399e-14,1.265806089e-13,8.448007760e-13,1.859159063e-13,5.917942088e-13,2.675700937e-14,6.082292516e-15
1.5156,2.447389084e-13,5.693390927e-14,6.640001156e-14,2.934441994e-14,5.167542924e-15,8.096466208e-14,1.468613949e-13,2.788285232e-14,7.231129501e-15,9.707262405e-14,1.762978013e-13,6.302621561e-14,2.611490717e-14,5.501888502e-14,1.278317495e-13,1.473298031e-13,1.714135891e-13,7.302296141e-14,4.331014229e-14,1.357293928e-13,1.136848556e-13,1.387995923e-14,4.428547595e-14,2.227651522e-13,1.974966805e-13,1.718577380e-14,1.161110492e-13,7.459277373e-13,1.548104240e-13,5.210383083e-13,2.237125307e-14,6.161345118e-15
1.5234,2.318863099e-13,5.277578342e-14,6.878178869e-14,2.647469904e-14,4.157143745e-15,7.931716522e-14,1.437261340e-13,2.741651806e-14,7.038099618e-15,9.056129356e-14,1.573050362e-13,5.460447048e-14,2.243181865e-14,4.342464997e-14,1.096162343e-13,1.357025219e-13,1.677433498e-13,6.771685344e-14,3.727571591e-14,1.327859616e-13,1.011801622e-13,1.335565024e-14,3.807919956e-14,1.828827770e-13,1.648712467e-13,1.691753128e-14,1.096245172e-13,6.494946520e-13,1.301332918e-13,4.533744056e-13,1.934130056e-14,6.189489289e-15
1.5312,2.187103034e-13,4.991761725e-14,7.017961829e-14,2.418171761e-14,3.348663291e-15,7.535241991e-14,1.395545438e-13,2.631878463e-14,7.137724751e-15,8.217300255e-14,1.415579586e-13,4.699663056e-14,1.930423312e-14,3.416085568e-14,9.549524796e-14,1.275879990e-13,1.666832852e-13,6.365085866e-14,3.207742114e-14,1.293569949e-13,8.822747165e-14,1.300895251e-14,3.256906040e-14,1.553461563e-13,1.360923228e-13,1.694875921e-14,1.042800282e-13,5.617721816e-13,1.114393490e-13,3.914349162e-13,1.769860541e-14,6.284792450e-15
1.5391,2.043182345e-13,4.892912192e-14,7.145478778e-14,2.303685345e-14,2.883309559e-15,6.898765189e-14,1.355700054e-13,2.465423609e-14,7.321904688e-15,7.430400007e-14,1.318158019e-13,4.009856677e-14,1.633411381e-14,2.725803091e-14,8.592187577e-14,1.238282245e-13,1.694588095e-13,6.078203773e-14,2.758608656e-14,1.225836667e-13,7.572367177e-14,1.289424619e-14,2.759188476e-14,1.404880707e-13,1.112475801e-13,1.659205651e-14,9.914284811e-14,4.850672099e-13,9.569615402e-14,3.352717661e-13,1.691116046e-14,6.423621755e-15
1.5469,1.918246489e-13,4.928327726e-14,7.067059871e-14,2.322223391e-14,2.629741524e-15,6.042555949e-14,1.313864986e-13,2.220349908e-14,7.599468136e-15,6.721983013e-14,1.255749632e-13,3.315050657e-14,1.381571600e-14,2.225253519e-14,7.924008853e-14,1.246284021e-13,1.756055863e-13,5.941685699e-14,2.391787500e-14,1.140007988e-13,6.277920303e-14,1.348460328e-14,2.287179682e-14,1.348830127e-13,9.047119898e-14,1.534830927e-14,9.357820072e-14,4.144675049e-13,8.163969917e-14,2.865152666e-13,1.651560301e-14,6.525933033e-15
1.5547,1.807150679e-13,5.061305677e-14,6.856254195e-14,2.473597574e-14,2.597498161e-15,5.226363118e-14,1.268744738e-13,1.965921319e-14,8.046415972e-15,6.110702893e-14,1.213918136e-13,2.661118217e-14,1.153712960e-14,1.859463153e-14,7.476259986e-14,1.286085037e-13,1.834334468e-13,5.855880389e-14,2.057642491e-14,1.072433540e-13,5.010124458e-14,1.443925095e-14,1.885525725e-14,1.387930557e-13,7.495169849e-14,1.433576244e-14,9.026349200e-14,3.479968368e-13,7.078388365e-14,2.431269761e-13,1.668210505e-14,6.653463417e-15
1.5625,1.700092389e-13,5.241720524e-14,6.462424864e-14,2.723262853e-14,2.777175806e-15,4.508175971e-14,1.220846232e-13,1.740529776e-14,8.775870075e-15,5.505636611e-14,1.194615848e-13,2.159473660e-14,1.014749373e-14,1.630743381e-14,7.350593589e-14,1.359326607e-13,1.934531248e-13,5.900426429e-14,1.913010331e-14,1.041913295e-13,3.942493247e-14,1.656390409e-14,1.636101758e-14,1.485933701e-13,6.522626976e-14,1.417952919e-14,8.857346813e-14,2.885830257e-13,6.317698458e-14,2.050125213e-13,1.751326547e-14,6.885447313e-15
1.5703,1.589810981e-13,5.441923864e-14,5.978510424e-14,3.098506036e-14,3.035842838e-15,4.050815358e-14,1.180899030e-13,1.585148672e-14,9.506710743e-15,4.944534550e-14,1.210675013e-13,1.807493084e-14,9.318123794e-15,1.559603637e-14,7.589170816e-14,1.464121011e-13,2.033465101e-13,5.993187559e-14,1.906630177e-14,1.018126923e-13,3.177282816e-14,1.949306177e-14,1.482922203e-14,1.623392809e-13,5.894902576e-14,1.386799518e-14,8.445679520e-14,2.388810753e-13,5.591995295e-14,1.706651652e-13,1.876383544e-14,7.061412257e-15
1.5781,1.469650486e-13,5.545874293e-14,5.367996995e-14,3.549731210e-14,3.103567805e-15,3.888040972e-14,1.142166755e-13,1.501761322e-14,1.007930769e-14,4.451483135e-14,1.245039199e-13,1.561658188e-14,9.288891961e-15,1.667079629e-14,8.115829764e-14,1.586884434e-13,2.150805947e-13,6.201490722e-14,2.057236350e-14,1.007378956e-13,2.629921928e-14,2.318964231e-14,1.391594273e-14,1.779169900e-13,5.558678725e-14,1.272181922e-14,7.631081103e-14,1.971554896e-13,4.829491053e-14,1.396752624e-13,2.026650776e-14,7.244515602e-15
1.5859,1.356773754e-13,5.620787864e-14,4.737844321e-14,4.075071951e-14,3.025109687e-15,3.885978028e-14,1.104027323e-13,1.445528733e-14,1.033597896e-14,4.088554155e-14,1.277178602e-13,1.309950369e-14,9.408349224e-15,1.905160977e-14,8.849895144e-14,1.710777748e-13,2.261561487e-13,6.340265661e-14,2.205031920e-14,1.018393744e-13,2.245324008e-14,2.622933356e-14,1.306908368e-14,1.970270918e-13,5.376900555e-14,1.119005942e-14,6.700719199e-14,1.609228031e-13,4.338962809e-14,1.152152482e-13,2.224550479e-14,7.551606145e-15
1.5938,1.238933283e-13,5.766714253e-14,4.301884214e-14,4.675367663e-14,3.171822094e-15,3.996750901e-14,1.062647607e-13,1.392758403e-14,1.051006694e-14,3.811283079e-14,1.312073749e-13,1.101405883e-14,1.013810032e-14,2.250311103e-14,9.950673561e-14,1.834221305e-13,2.356326574e-13,6.445398484e-14,2.414664812e-14,1.062961625e-13,2.021578563e-14,2.887828556e-14,1.312410582e-14,2.208126352e-13,5.355482788e-14,1.016165571e-14,5.946678109e-14,1.293487170e-13,4.240174885e-14,9.769740012e-14,2.469059222e-14,7.950026585e-15
1.6016,1.140463684e-13,6.071455544e-14,4.078552774e-14,5.269353419e-14,3.461804852e-15,4.237753451e-14,1.008733500e-13,1.319877033e-14,1.070102591e-14,3.489662565e-14,1.338715432e-13,9.867653242e-15,1.107017348e-14,2.639321163e-14,1.107300701e-13,1.941902539e-13,2.380491691e-13,6.425808852e-14,2.640592071e-14,1.086663408e-13,1.981356232e-14,3.171795079e-14,1.391619056e-14,2.468036516e-13,5.574142911e-14,9.844865033e-15,5.381167239e-14,1.038393998e-13,4.297830461e-14,8.795685317e-14,2.726269368e-14,8.416147305e-15
1.6094,1.033230624e-13,6.510700029e-14,4.246153823e-14,5.928412859e-14,3.629612980e-15,4.814565580e-14,9.548157292e-14,1.260913917e-14,1.079106690e-14,3.156856532e-14,1.387298419e-13,9.858895504e-15,1.222187952e-14,3.127268706e-14,1.240612641e-13,2.047137134e-13,2.360006285e-13,6.391052438e-14,2.890930292e-14,1.107275989e-13,2.124789124e-14,3.478398256e-14,1.568469575e-14,2.720150521e-13,6.343646500e-14,9.875710246e-15,4.834734803e-14,8.468364861e-14,4.213772458e-14,8.068903507e-14,2.920498089e-14,8.820676259e-15
1.6172,9.488849030e-14,7.219919349e-14,5.015846022e-14,6.746928185e-14,3.978277094e-15,5.814661139e-14,9.090890986e-14,1.213117815e-14,1.069946531e-14,2.878115745e-14,1.455234395e-13,1.041043410e-14,1.343901339e-14,3.687002657e-14,1.384381811e-13,2.129869296e-13,2.319567998e-13,6.295375203e-14,3.109680612e-14,1.144451311e-13,2.456515529e-14,3.709158825e-14,1.826020235e-14,2.978669149e-13,7.714471276e-14,1.071483351e-14,4.518518280e-14,7.532983999e-14,4.098021685e-14,7.595891924e-14,3.108913217e-14,9.382549508e-15
1.625,8.731796645e-14,8.181449227e-14,6.394554894e-14,7.683977125e-14,4.559061213e-15,7.157756217e-14,8.768465880e-14,1.211090028e-14,1.051922718e-14,2.708490673e-14,1.532936597e-13,1.151465918e-14,1.484713499e-14,4.356781081e-14,1.551153912e-13,2.184982374e-13,2.281882032e-13,6.120080186e-14,3.343616602e-14,1.204008156e-13,2.985437301e-14,3.835993722e-14,2.302970518e-14,3.188907757e-13,9.694050683e-14,1.293233001e-14,4.571102751e-14,7.561518834e-14,4.217031249e-14,7.270311441e-14,3.330501561e-14,1.030502379e-14
1.6328,8.254623039e-14,9.361380690e-14,8.300450817e-14,8.807817913e-14,5.441506205e-15,8.789610338e-14,8.571689674e-14,1.238931200e-14,1.046986896e-14,2.642316408e-14,1.621770675e-13,1.342098571e-14,1.681931857e-14,5.156370038e-14,1.732355338e-13,2.227142509e-13,2.254249736e-13,6.016937517e-14,3.580373281e-14,1.264667926e-13,3.666070042e-14,3.932794335e-14,2.954504934e-14,3.357058463e-13,1.216293432e-13,1.666493346e-14,5.048743164e-14,8.341256514e-14,4.792576333e-14,7.234285895e-14,3.583532870e-14,1.158460624e-14
1.6406,7.962945534e-14,1.061447770e-13,1.079075525e-13,9.992622941e-14,6.361639699e-15,1.059486769e-13,8.506789658e-14,1.294634117e-14,1.068488030e-14,2.659463869e-14,1.705256288e-13,1.600789408e-14,1.924465586e-14,6.003372164e-14,1.902001161e-13,2.245986058e-13,2.206863941e-13,5.938000676e-14,3.852269802e-14,1.307657799e-13,4.479862495e-14,4.135455443e-14,3.826531251e-14,3.480143080e-13,1.493103037e-13,2.160696107e-14,5.824824130e-14,1.008123647e-13,5.716554734e-14,7.551563521e-14,3.786465799e-14,1.305725442e-14
1.6484,7.977677243e-14,1.167461719e-13,1.359639359e-13,1.117240305e-13,7.321963815e-15,1.240212111e-13,8.662224183e-14,1.372944628e-14,1.118996447e-14,2.769860645e-14,1.784137022e-13,1.880264643e-14,2.196129697e-14,6.861031834e-14,2.058805828e-13,2.251305941e-13,2.164269314e-13,5.914650170e-14,4.064545048e-14,1.351215384e-13,5.288510919e-14,4.424124694e-14,4.800401162e-14,3.565767934e-13,1.737888481e-13,2.757532297e-14,6.764553172e-14,1.266947447e-13,6.860203992e-14,8.396824478e-14,3.910943753e-14,1.474762815e-14
1.6562,8.404074782e-14,1.249416342e-13,1.627779129e-13,1.240042890e-13,8.271732376e-15,1.412033432e-13,9.021270224e-14,1.469139516e-14,1.198493674e-14,2.952070511e-14,1.860000383e-13,2.158441848e-14,2.517884002e-14,7.765053702e-14,2.213558502e-13,2.263083113e-13,2.153688692e-13,5.975354974e-14,4.292824301e-14,1.415516016e-13,6.191536264e-14,4.758990260e-14,5.910828508e-14,3.630880580e-13,1.912815267e-13,3.441018400e-14,7.830535890e-14,1.629051092e-13,8.117043955e-14,9.884700312e-14,3.960183492e-14,1.679610489e-14
1.6641,8.943026878e-14,1.297502444e-13,1.898816732e-13,1.339245606e-13,9.333239630e-15,1.536896464e-13,9.641415510e-14,1.554378608e-14,1.283823914e-14,3.181184838e-14,1.924237305e-13,2.397325526e-14,2.873191249e-14,8.645077620e-14,2.351444895e-13,2.272281562e-13,2.175140927e-13,6.101611218e-14,4.487469932e-14,1.482216089e-13,7.053457852e-14,5.105757871e-14,7.118199052e-14,3.635896271e-13,2.027404776e-13,4.228202110e-14,9.061432129e-14,1.988490137e-13,9.494833076e-14,1.146615584e-13,3.962643952e-14,1.924376045e-14
1.6719,9.733180218e-14,1.328900859e-13,2.144187250e-13,1.427812164e-13,1.037994983e-14,1.644762392e-13,1.048885980e-13,1.671972007e-14,1.366804830e-14,3.486731911e-14,1.983697871e-13,2.633399442e-14,3.198116665e-14,9.426037979e-14,2.450400752e-13,2.286489268e-13,2.205641790e-13,6.280462363e-14,4.641619327e-14,1.529777471e-13,7.983923403e-14,5.478358450e-14,8.335840091e-14,3.634386169e-13,2.096454417e-13,5.113816226e-14,1.054388780e-13,2.359968056e-13,1.109638598e-13,1.311833233e-13,3.939126047e-14,2.229809025e-14
1.6797,1.078163860e-13,1.334437994e-13,2.363285865e-13,1.493552845e-13,1.151435491e-14,1.707515440e-13,1.151213264e-13,1.795400208e-14,1.426517036e-14,3.809160241e-14,2.036818403e-13,2.850129867e-14,3.485877184e-14,1.010718001e-13,2.512874808e-13,2.315495508e-13,2.252133942e-13,6.555006354e-14,4.767801396e-14,1.558422084e-13,9.003532719e-14,5.892825616e-14,9.519295677e-14,3.644060761e-13,2.106373305e-13,6.047432883e-14,1.214654198e-13,2.773716593e-13,1.292775218e-13,1.522712788e-13,3.889169488e-14,2.582684023e-14
1.6875,1.203587684e-13,1.303669180e-13,2.488623514e-13,1.543350751e-13,1.263929513e-14,1.729970104e-13,1.252334898e-13,1.943969302e-14,1.451864701e-14,4.071655944e-14,2.071217597e-13,2.997046875e-14,3.742321178e-14,1.069136886e-13,2.540203660e-13,2.352993930e-13,2.321495988e-13,6.901953527e-14,4.952152265e-14,1.579558048e-13,1.025991606e-13,6.326071201e-14,1.064859618e-13,3.642946300e-13,2.028259569e-13,7.001410560e-14,1.374499237e-13,3.197640924e-13,1.468638023e-13,1.777462679e-13,3.793482314e-14,2.964557692e-14
1.6953,1.305772049e-13,1.239141404e-13,2.506784823e-13,1.585163675e-13,1.379246755e-14,1.716495390e-13,1.335023177e-13,2.109871787e-14,1.454373442e-14,4.286805670e-14,2.088096604e-13,3.098656720e-14,4.077790523e-14,1.129446523e-13,2.554927935e-13,2.409357315e-13,2.436293202e-13,7.433370670e-14,5.326016112e-14,1.613153251e-13,1.178054867e-13,6.824735660e-14,1.184555614e-13,3.635052478e-13,1.901765918e-13,7.982363230e-14,1.546356516e-13,3.560957464e-13,1.632384518e-13,2.019002714e-13,3.674605293e-14,3.376592243e-14
1.7031,1.389281729e-13,1.157902868e-13,2.483853400e-13,1.613603578e-13,1.460333949e-14,1.691456823e-13,1.410968004e-13,2.308568804e-14,1.444937322e-14,4.514306330e-14,2.097491067e-13,3.206519344e-14,4.512085348e-14,1.199972568e-13,2.581651009e-13,2.500950422e-13,2.618608326e-13,8.236559293e-14,5.913388242e-14,1.677439816e-13,1.356335244e-13,7.364067653e-14,1.313070953e-13,3.640419673e-13,1.755601120e-13,8.853657949e-14,1.706348310e-13,3.805714167e-13,1.761236018e-13,2.213482273e-13,3.527569874e-14,3.781385326e-14
1.7109,1.458649190e-13,1.075129764e-13,2.407124153e-13,1.656776844e-13,1.535297305e-14,1.687682988e-13,1.476260944e-13,2.560524721e-14,1.424932706e-14,4.720490772e-14,2.100564741e-13,3.368307911e-14,5.014915820e-14,1.286175368e-13,2.617051707e-13,2.625383783e-13,2.856478658e-13,9.342654115e-14,6.649291674e-14,1.759819790e-13,1.551303761e-13,7.918019250e-14,1.432195160e-13,3.634055449e-13,1.611373837e-13,9.520307243e-14,1.837817662e-13,3.940753087e-13,1.840728174e-13,2.357429037e-13,3.356673866e-14,4.157895009e-14
1.7188,1.486825741e-13,9.671563541e-14,2.300221478e-13,1.703126850e-13,1.606973210e-14,1.695799745e-13,1.527426825e-13,2.842595274e-14,1.409363721e-14,4.891471446e-14,2.108737215e-13,3.603607107e-14,5.572002475e-14,1.384595250e-13,2.658991450e-13,2.774249558e-13,3.133812326e-13,1.070567619e-13,7.455790147e-14,1.844672085e-13,1.745767140e-13,8.400501051e-14,1.530863358e-13,3.605025802e-13,1.431124708e-13,9.901926064e-14,1.918802107e-13,3.945247731e-13,1.838846585e-13,2.419810142e-13,3.143691639e-14,4.461302067e-14
1.7266,1.417926751e-13,8.381232427e-14,2.129212559e-13,1.772560877e-13,1.741308815e-14,1.747064092e-13,1.558491569e-13,3.192125000e-14,1.406117786e-14,5.013898282e-14,2.123968651e-13,3.901401148e-14,6.169453363e-14,1.484368564e-13,2.693351628e-13,2.938070477e-13,3.429585183e-13,1.225507101e-13,8.232989991e-14,1.912401499e-13,1.915590315e-13,8.731558215e-14,1.594063454e-13,3.522773271e-13,1.252643576e-13,1.004644543e-13,1.956036498e-13,3.810684624e-13,1.767053966e-13,2.354268389e-13,2.930711767e-14,4.686610764e-14
1.7344,1.298646371e-13,7.084457465e-14,1.990382743e-13,1.864233812e-13,1.946171433e-14,1.855288350e-13,1.594600573e-13,3.585897895e-14,1.421124477e-14,5.082501990e-14,2.153467242e-13,4.224290672e-14,6.798869095e-14,1.576935526e-13,2.725720845e-13,3.112015462e-13,3.724213408e-13,1.383328684e-13,8.932305365e-14,1.966806919e-13,2.053312935e-13,8.907611046e-14,1.641076416e-13,3.433060794e-13,1.082863855e-13,1.003610998e-13,1.972177034e-13,3.561346431e-13,1.648530012e-13,2.201508530e-13,2.775114230e-14,4.850242104e-14
1.7422,1.170221840e-13,5.999968044e-14,1.912066691e-13,1.983559034e-13,2.201976277e-14,2.021065083e-13,1.647945452e-13,3.994349916e-14,1.453300906e-14,5.174506951e-14,2.200122694e-13,4.551428789e-14,7.386361485e-14,1.660649473e-13,2.753184010e-13,3.287081841e-13,4.003072701e-13,1.536152430e-13,9.480845101e-14,2.009627835e-13,2.156716089e-13,8.899552303e-14,1.675932461e-13,3.353022921e-13,9.511428636e-14,9.883042630e-14,1.962577535e-13,3.240358062e-13,1.498588656e-13,1.998778468e-13,2.659566416e-14,4.937391445e-14
1.75,1.050871702e-13,5.143127439e-14,1.938187967e-13,2.127831161e-13,2.479090430e-14,2.215950067e-13,1.729934754e-13,4.371746377e-14,1.511440021e-14,5.319089414e-14,2.263933528e-13,4.870208331e-14,7.945787223e-14,1.739421178e-13,2.772567786e-13,3.450147332e-13,4.229714999e-13,1.678853663e-13,9.875924188e-14,2.016501325e-13,2.227684714e-13,8.766562104e-14,1.723127568e-13,3.276041367e-13,8.717932774e-14,9.603096297e-14,1.942948827e-13,2.899241346e-13,1.344095965e-13,1.799671133e-13,2.580260785e-14,4.940878125e-14
1.7578,9.375799871e-14,4.517755027e-14,2.080074505e-13,2.310650216e-13,2.789028556e-14,2.444418673e-13,1.831747490e-13,4.718536050e-14,1.605526841e-14,5.574213998e-14,2.353570279e-13,5.215518616e-14,8.494842210e-14,1.822146961e-13,2.806051639e-13,3.609517830e-13,4.419614726e-13,1.814096210e-13,1.011207429e-13,2.000844829e-13,2.256372609e-13,8.531419883e-14,1.771047855e-13,3.187406037e-13,8.388851885e-14,9.148739614e-14,1.895221372e-13,2.560982534e-13,1.195185291e-13,1.601427856e-13,2.526132558e-14,4.872142351e-14
1.7656,8.440499666e-14,4.101814587e-14,2.366520166e-13,2.521552462e-13,3.178246314e-14,2.700394400e-13,1.963697967e-13,4.987664310e-14,1.747223358e-14,5.932005743e-14,2.460676772e-13,5.578327849e-14,9.109111185e-14,1.896073144e-13,2.845020278e-13,3.744390545e-13,4.550648643e-13,1.931459296e-13,1.033403013e-13,1.970561934e-13,2.263994658e-13,8.372585455e-14,1.837556503e-13,3.095001914e-13,8.638052175e-14,8.600579742e-14,1.830675011e-13,2.283207446e-13,1.062807000e-13,1.437260563e-13,2.508769899e-14,4.759522286e-14
1.7734,8.033741993e-14,3.812307301e-14,2.836288011e-13,2.752740191e-13,3.572530772e-14,2.937801246e-13,2.126806718e-13,5.128939525e-14,1.922790282e-14,6.381772972e-14,2.584198657e-13,5.986179378e-14,9.780841541e-14,1.955406906e-13,2.894498850e-13,3.831926206e-13,4.636774086e-13,2.030895827e-13,1.057140734e-13,1.946979936e-13,2.250833688e-13,8.329026439e-14,1.908065250e-13,3.027516633e-13,9.098297682e-14,8.043315397e-14,1.739977497e-13,2.088710512e-13,9.511445516e-14,1.336542959e-13,2.544590694e-14,4.653041498e-14
1.7812,8.011521975e-14,3.575760463e-14,3.464896891e-13,2.991549981e-13,3.963974819e-14,3.124635970e-13,2.299570931e-13,5.105717342e-14,2.128820351e-14,6.852677853e-14,2.699084144e-13,6.408025419e-14,1.052534238e-13,1.996791421e-13,2.935887275e-13,3.858835251e-13,4.659103444e-13,2.110851042e-13,1.092207434e-13,1.931151047e-13,2.235147025e-13,8.477144790e-14,1.989649522e-13,2.981897612e-13,9.793782831e-14,7.614046824e-14,1.649721302e-13,1.986236285e-13,8.668679687e-14,1.291475719e-13,2.645636592e-14,4.560991396e-14
1.7891,8.324105280e-14,3.361819976e-14,4.253398835e-13,3.230298462e-13,4.348548048e-14,3.269646683e-13,2.473553821e-13,4.984263571e-14,2.340187370e-14,7.346645010e-14,2.795850814e-13,6.846520520e-14,1.123563466e-13,2.022764007e-13,2.961511857e-13,3.822615683e-13,4.598816937e-13,2.162994672e-13,1.125682669e-13,1.907386559e-13,2.192376411e-13,8.750160109e-14,2.052798941e-13,2.941912073e-13,1.039942438e-13,7.275316606e-14,1.556584816e-13,1.919856291e-13,8.219289662e-14,1.285579061e-13,2.833908091e-14,4.511796612e-14
