Time,Fp1,AF3,F7,F3,FC1,FC5,T7,C3,CP1,CP5,P7,P3,Pz,PO3,O1,Oz,O2,PO4,P4,P8,CP6,CP2,C4,T8,FC6,FC2,F4,F8,AF4,Fp2,Fz,Cz,
0,1.941358147e-09,1.427455837e-08,4.356817008e-10,9.862080141e-10,4.814262165e-11,1.369665559e-09,7.702295466e-11,2.530174157e-09,2.292404636e-09,6.386763834e-09,4.285303286e-10,1.683108115e-09,2.545079191e-10,3.851819748e-09,8.677147235e-12,1.040815489e-11,3.071331282e-10,1.106223694e-10,4.148242034e-09,1.076069874e-09,5.484351589e-10,2.237425551e-08,1.087089711e-09,1.775128541e-10,1.503741153e-10,1.197447536e-10,5.144541523e-12,1.637645906e-08,1.928259362e-08,8.452518646e-12,3.722974178e-09,5.929852628e-09
0.0078125,1.999022969e-09,1.465892664e-08,4.472324098e-10,1.011708395e-09,4.974056295e-11,1.407588713e-09,7.931092428e-11,2.601963258e-09,2.358012343e-09,6.569738191e-09,4.406341082e-10,1.730336498e-09,2.586162011e-10,3.956688113e-09,8.991791656e-12,1.081110516e-11,3.154825439e-10,1.138267674e-10,4.263280117e-09,1.099878226e-09,5.620833057e-10,2.298576842e-08,1.116499915e-09,1.840830454e-10,1.548147451e-10,1.227576589e-10,5.147851838e-12,1.682082233e-08,1.977175539e-08,8.653380844e-12,3.823119503e-09,6.094574935e-09
0.015625,1.900066269e-09,1.387935338e-08,4.233722597e-10,9.567954819e-10,4.838435496e-11,1.333857371e-09,7.557324416e-11,2.467420196e-09,2.236742925e-09,6.232542026e-09,4.178532743e-10,1.640679257e-09,2.427987869e-10,3.747835879e-09,8.606657294e-12,1.038838264e-11,2.987615328e-10,1.080740233e-10,4.040160126e-09,1.038587384e-09,5.312844287e-10,2.177294963e-08,1.057266792e-09,1.781223501e-10,1.470720810e-10,1.161370976e-10,4.793871133e-12,1.593237453e-08,1.869374436e-08,8.275977886e-12,3.619828114e-09,5.776267379e-09
0.023438,1.675191434e-09,1.216310566e-08,3.713828041e-10,8.373270808e-10,4.314296829e-11,1.170628821e-09,6.686874947e-11,2.165581188e-09,1.963245574e-09,5.478125582e-09,3.669158409e-10,1.438851447e-09,2.094456296e-10,3.288104132e-09,7.631747777e-12,9.265406328e-12,2.618852226e-10,9.513893119e-11,3.544450581e-09,9.028144766e-10,4.638204551e-10,1.908946381e-08,9.265723160e-10,1.594051423e-10,1.295324257e-10,1.013276388e-10,4.075422453e-12,1.395642245e-08,1.633476774e-08,7.305045148e-12,3.171752332e-09,5.071173131e-09
0.03125,1.361925911e-09,9.875653990e-09,3.006363236e-10,6.788393779e-10,3.464200955e-11,9.509007133e-10,5.421230505e-11,1.761875072e-09,1.598188281e-09,4.452950777e-09,2.984071241e-10,1.171262872e-09,1.679562799e-10,2.669081364e-09,6.274236627e-12,7.594702002e-12,2.126364551e-10,7.733923800e-11,2.880825918e-09,7.299938040e-10,3.760995772e-10,1.550759250e-08,7.525401679e-10,1.290600668e-10,1.053095192e-10,8.218999874e-11,3.219099909e-12,1.134373116e-08,1.324985932e-08,5.809269577e-12,2.575684795e-09,4.119353005e-09
0.039062,1.024704002e-09,7.452858612e-09,2.252800846e-10,5.114341346e-10,2.584574227e-11,7.168386115e-10,4.055023143e-11,1.332833923e-09,1.210766207e-09,3.356857422e-09,2.254098742e-10,8.884560830e-10,1.265521767e-10,2.010513334e-09,4.797344556e-12,5.738778215e-12,1.604413958e-10,5.825494783e-11,2.176140719e-09,5.541024709e-10,2.845796892e-10,1.170957715e-08,5.683057568e-10,9.612941481e-11,7.926191995e-11,6.235982313e-11,2.434471609e-12,8.587088788e-09,1.001951305e-08,4.249105096e-12,1.944781919e-09,3.104918248e-09
0.046875,7.242296711e-10,5.273692723e-09,1.584171645e-10,3.611412414e-10,1.821369331e-11,5.066545597e-10,2.858466623e-11,9.452925395e-10,8.598997021e-10,2.373208452e-09,1.595327628e-10,6.318586862e-10,8.932049854e-11,1.420600532e-09,3.429752613e-12,4.065104248e-12,1.135042547e-10,4.119176634e-11,1.541322871e-09,3.941934678e-10,2.018205809e-10,8.290179640e-09,4.024002098e-10,6.749607891e-11,5.596224389e-11,4.431273723e-11,1.755045947e-12,6.092801193e-09,7.102178344e-09,2.931919304e-12,1.376662629e-09,2.195131822e-09
0.054688,4.831565615e-10,3.523070502e-09,1.051819736e-10,2.406882036e-10,1.183186063e-11,3.378049937e-10,1.901201209e-11,6.325375633e-10,5.760652646e-10,1.582931115e-09,1.064332429e-10,4.240158746e-10,5.948448402e-11,9.477124104e-10,2.303931643e-12,2.703842381e-12,7.577360578e-11,2.750289991e-11,1.030474718e-09,2.640856334e-10,1.351189133e-10,5.540420696e-09,2.690020519e-10,4.408652320e-11,3.726219773e-11,2.966706354e-11,1.227548863e-12,4.079439327e-09,4.753007686e-09,1.886148577e-12,9.197637579e-10,1.464904834e-09
0.0625,3.050085932e-10,2.240234423e-09,6.632666215e-11,1.525631748e-10,7.186498392e-12,2.136463130e-10,1.189987717e-11,4.024651306e-10,3.674221078e-10,1.000856958e-09,6.725448527e-11,2.714253983e-10,3.828395695e-11,6.005207789e-10,1.457915289e-12,1.674003798e-12,4.813902997e-11,1.738843815e-11,6.552128392e-10,1.704587034e-10,8.657516978e-11,3.523120929e-09,1.712100512e-10,2.671567654e-11,2.347232321e-11,1.902228180e-11,8.886325356e-13,2.603663194e-09,3.040880174e-09,1.138198556e-12,5.847610046e-10,9.282244345e-10
0.070312,1.867796532e-10,1.381857159e-09,4.080820484e-11,9.374184069e-11,4.276682596e-12,1.306245958e-10,7.246934983e-12,2.477131106e-10,2.267162304e-10,6.118785116e-10,4.086346357e-11,1.683260404e-10,2.428059537e-11,3.688756927e-10,8.773686303e-13,9.814020478e-13,2.965361491e-11,1.064451566e-11,4.035642878e-10,1.075647013e-10,5.400290198e-11,2.171523324e-09,1.056540729e-10,1.563089950e-11,1.432426239e-11,1.185136622e-11,6.765002227e-13,1.610147761e-09,1.892148129e-09,6.827662083e-13,3.601322124e-10,5.698675552e-10
0.078125,1.144170971e-10,8.492565871e-10,2.539725677e-11,5.732747233e-11,2.514154404e-12,7.926151504e-11,4.415892898e-12,1.510023494e-10,1.385146539e-10,3.716888156e-10,2.442266599e-11,1.034416272e-10,1.546594039e-11,2.259366352e-10,5.108212798e-13,5.569082809e-13,1.818430231e-11,6.487727217e-12,2.470917827e-10,6.746808718e-11,3.355304707e-11,1.331636002e-09,6.488017223e-11,9.016513464e-12,8.745995240e-12,7.296770716e-12,5.388902282e-13,9.874032347e-10,1.173278738e-09,4.138766206e-13,2.203097685e-10,3.487001901e-10
0.085938,7.189104640e-11,5.362028446e-10,1.650226013e-11,3.600368293e-11,1.568263731e-12,4.910076862e-11,2.689122928e-12,9.394020609e-11,8.642374722e-11,2.303550676e-10,1.471188068e-11,6.507976481e-11,1.041279588e-11,1.418771233e-10,2.962970764e-13,3.137568971e-13,1.144487031e-11,4.034030244e-12,1.549184991e-10,4.410425978e-11,2.152680576e-11,8.374038776e-10,4.087130211e-11,5.286197055e-12,5.510949948e-12,4.611720648e-12,4.628027894e-13,6.197936273e-10,7.507743982e-10,2.606737906e-13,1.380021568e-10,2.188002360e-10
0.09375,4.883950167e-11,3.606987152e-10,1.174232562e-11,2.411997130e-11,1.134417187e-12,3.235945136e-11,1.719463009e-12,6.180212609e-11,5.695725366e-11,1.519201644e-10,9.310318407e-12,4.325703416e-11,7.531300422e-12,9.519834275e-11,1.825391206e-13,1.921790407e-13,7.657882697e-12,2.686779047e-12,1.032307003e-10,3.067796279e-11,1.464102983e-11,5.601217270e-10,2.735991431e-11,3.535595749e-12,3.790063750e-12,3.068591121e-12,4.102205392e-13,4.112803025e-10,5.105160552e-10,1.889277742e-13,9.178581845e-11,1.467623252e-10
0.10156,3.621021086e-11,2.609506063e-10,9.112857280e-12,1.739281464e-11,8.601091301e-13,2.300939956e-11,1.155802815e-12,4.361215460e-11,4.022890325e-11,1.081836115e-10,6.341273442e-12,3.076388197e-11,5.712049108e-12,6.900154934e-11,1.288069914e-13,1.360639588e-13,5.496383766e-12,1.944683087e-12,7.397080928e-11,2.251771982e-11,1.057287228e-11,4.028192600e-10,1.967104795e-11,2.638249910e-12,2.862332426e-12,2.153515524e-12,3.517488595e-13,2.914323583e-10,3.704663156e-10,1.423923197e-13,6.564659345e-11,1.064572812e-10
0.10938,2.862791524e-11,2.005012308e-10,7.402292814e-12,1.332949964e-11,6.323520179e-13,1.748267979e-11,7.878387185e-13,3.285249318e-11,3.029176404e-11,8.229452073e-11,4.694573181e-12,2.321184836e-11,4.442259149e-12,5.325562126e-11,1.163425216e-13,1.181464526e-13,4.178230195e-12,1.515143373e-12,5.645865356e-11,1.717100454e-11,8.004858135e-12,3.080713741e-10,1.499453577e-11,2.070886393e-12,2.318641933e-12,1.583417830e-12,2.835626656e-13,2.188276997e-10,2.832019783e-10,1.013633611e-13,5.008943994e-11,8.222065156e-11
0.11719,2.355132083e-11,1.680399847e-10,6.193505370e-12,1.112559084e-11,6.029851066e-13,1.441321723e-11,5.185153135e-13,2.733145627e-11,2.542615904e-11,6.737425120e-11,3.887981701e-12,1.964263615e-11,4.044235401e-12,4.416948128e-11,1.279379146e-13,1.220458937e-13,3.456031914e-12,1.248133243e-12,4.708882200e-11,1.552982810e-11,6.844662310e-12,2.574752541e-10,1.250722327e-11,1.800675225e-12,1.966841912e-12,1.368078755e-12,2.553319627e-13,1.833960554e-10,2.419630795e-10,7.577225302e-14,4.211951264e-11,6.820665638e-11
0.125,2.114544302e-11,1.448013298e-10,5.354676524e-12,9.475812342e-12,6.142742371e-13,1.248089296e-11,4.105739204e-13,2.359148187e-11,2.198391850e-11,5.906286209e-11,3.465904953e-12,1.684160094e-11,3.359133605e-12,3.824181831e-11,1.616455817e-13,1.544643357e-13,2.916032349e-12,1.103109563e-12,4.071220261e-11,1.322472851e-11,5.803851504e-12,2.218883972e-10,1.072047774e-11,2.046323653e-12,1.770432177e-12,1.156167732e-12,2.174220394e-13,1.560506579e-10,2.055875679e-10,7.438964004e-14,3.648898354e-11,5.929604693e-11
0.13281,1.853964570e-11,1.258779361e-10,4.507366594e-12,8.064194244e-12,4.429066546e-13,1.086068908e-11,3.256669715e-13,2.065589318e-11,1.937516316e-11,5.228468880e-11,3.159397064e-12,1.470079638e-11,2.612935274e-12,3.304487907e-11,2.024054144e-13,1.704877549e-13,2.484969101e-12,9.609710703e-13,3.558947733e-11,1.112133280e-11,5.021047288e-12,1.930232426e-10,9.287543613e-12,1.724664842e-12,1.547276550e-12,9.855097773e-13,1.593045356e-13,1.348004038e-10,1.762188910e-10,6.209442146e-14,3.191252330e-11,5.164899078e-11
0.14062,1.472750597e-11,1.076660437e-10,3.427353374e-12,6.725739663e-12,4.230226402e-13,9.098218198e-12,2.171113913e-13,1.800654682e-11,1.720506552e-11,4.436927385e-11,2.823275778e-12,1.314416312e-11,2.270725237e-12,2.705830558e-11,2.484315227e-13,1.849050591e-13,2.077434807e-12,7.671152449e-13,3.065701403e-11,1.065216214e-11,4.555341434e-12,1.654089595e-10,7.961997251e-12,1.216416706e-12,1.234752296e-12,9.229572844e-13,1.305634732e-13,1.187571402e-10,1.552877446e-10,6.491659107e-14,2.760264786e-11,4.301512874e-11
0.14844,1.279207373e-11,9.478713938e-11,2.715461071e-12,5.778074278e-12,4.860314135e-13,7.957508494e-12,2.047589229e-13,1.612637226e-11,1.545366625e-11,4.029849421e-11,2.630128408e-12,1.181899439e-11,1.923274151e-12,2.302781986e-11,3.031029262e-13,2.195628799e-13,1.773734320e-12,6.498897712e-13,2.728469286e-11,9.601935669e-12,4.136718528e-12,1.462816470e-10,7.046205101e-12,1.245123089e-12,1.035527400e-12,8.207073116e-13,1.171642080e-13,1.060969309e-10,1.365269517e-10,7.747131634e-14,2.435513096e-11,3.775882368e-11
0.15625,1.156914484e-11,8.519010885e-11,2.275970262e-12,5.128186915e-12,3.804198248e-13,7.165627294e-12,2.105118852e-13,1.476884668e-11,1.404762924e-11,3.754632946e-11,2.468633360e-12,1.075880227e-11,1.490851375e-12,2.019817726e-11,3.406647080e-13,2.316797275e-13,1.568048301e-12,5.775689578e-13,2.482229590e-11,8.172154869e-12,3.741035256e-12,1.323153393e-10,6.371919951e-12,1.142362546e-12,9.000379937e-13,7.068557374e-13,9.060291326e-14,9.631744422e-11,1.202365899e-10,7.353982918e-14,2.183515535e-11,3.419827543e-11
0.16406,9.124218919e-12,7.417206671e-11,1.722932312e-12,4.483767983e-12,3.460445830e-13,6.099441723e-12,2.193341379e-13,1.323268144e-11,1.254077648e-11,3.243148280e-11,2.193362200e-12,9.874853231e-12,1.349166979e-12,1.658500041e-11,3.660692577e-13,2.228182824e-13,1.337149083e-12,4.582704732e-13,2.179239242e-11,7.797033456e-12,3.499722038e-12,1.163054126e-10,5.615584301e-12,7.300721311e-13,6.905992744e-13,6.497457094e-13,7.566317381e-14,8.829649042e-11,1.077898014e-10,8.023874708e-14,1.899562674e-11,2.926318064e-11
0.17188,7.661841577e-12,6.589411142e-11,1.368707308e-12,4.092451714e-12,4.269511293e-13,5.405813890e-12,2.971823000e-13,1.215423994e-11,1.131944106e-11,2.914500365e-11,1.990767008e-12,9.126125466e-12,1.240089080e-12,1.420100865e-11,3.884838140e-13,2.299365871e-13,1.163047300e-12,3.830268964e-13,1.949602936e-11,7.221665328e-12,3.228854850e-12,1.048950849e-10,5.055514975e-12,5.511692093e-13,5.436754702e-13,5.837691907e-13,7.942409172e-14,8.203973813e-11,9.660530397e-11,1.028813856e-13,1.679575865e-11,2.617009956e-11
0.17969,7.119377191e-12,6.058270057e-11,1.227616915e-12,3.907924285e-12,3.523790722e-13,5.070879282e-12,3.649366348e-13,1.149866476e-11,1.043879497e-11,2.751508809e-11,1.879591973e-12,8.509380490e-12,1.020994782e-12,1.307317353e-11,4.045241515e-13,2.427937244e-13,1.049755459e-12,3.517949200e-13,1.800875779e-11,5.990815033e-12,2.909126640e-12,9.800374877e-11,4.698242968e-12,5.107422035e-13,4.717983094e-13,4.859017719e-13,7.289740083e-14,7.739505345e-11,8.629138776e-11,9.548725411e-14,1.529966812e-11,2.476996193e-11
0.1875,5.657293322e-12,5.382738987e-11,9.564392390e-13,3.620148107e-12,2.629839655e-13,4.521460986e-12,4.346467210e-13,1.055540480e-11,9.525227607e-12,2.379634307e-11,1.702486347e-12,7.919430294e-12,9.720253390e-13,1.150624252e-11,4.149676036e-13,2.403616281e-13,8.864692810e-13,2.824457576e-13,1.589542579e-11,5.374082334e-12,2.682732277e-12,8.841305956e-11,4.226517054e-12,5.082424855e-13,3.663276889e-13,4.279943936e-13,6.729585649e-14,7.293369826e-11,7.809612737e-11,7.255542050e-14,1.354855961e-11,2.194158833e-11
0.19531,4.500632005e-12,4.828056257e-11,7.136491032e-13,3.392881800e-12,2.988922415e-13,4.140863040e-12,5.852670187e-13,9.753312550e-12,8.834672018e-12,2.075106882e-11,1.589752876e-12,7.404715844e-12,9.374638644e-13,1.054031640e-11,4.307519726e-13,2.550657198e-13,7.329986043e-13,2.202352593e-13,1.405503414e-11,4.970567232e-12,2.486173849e-12,8.046862038e-11,3.848684358e-12,6.497263195e-13,2.781528659e-13,3.824864823e-13,8.270629042e-14,6.898102000e-11,7.092563894e-11,7.138841200e-14,1.209532322e-11,1.973443106e-11
0.20312,4.209449944e-12,4.536692232e-11,6.275080426e-13,3.293997945e-12,2.753647958e-13,4.070755550e-12,6.846415844e-13,9.265738026e-12,8.411450996e-12,1.959278997e-11,1.579739459e-12,6.924426085e-12,7.631928231e-13,1.053001697e-11,4.563099409e-13,2.926524812e-13,6.339764923e-13,1.994403624e-13,1.298771452e-11,3.981243369e-12,2.275682736e-12,7.623242212e-11,3.653996274e-12,6.878616052e-13,2.524101156e-13,3.101401768e-13,9.578959255e-14,6.555643941e-11,6.397530084e-11,6.781474710e-14,1.124565024e-11,1.904837144e-11
0.21094,3.509479658e-12,4.141539343e-11,5.175978893e-13,3.057679223e-12,2.237544897e-13,3.791257149e-12,6.784020939e-13,8.528099679e-12,7.929069019e-12,1.727550557e-11,1.503099498e-12,6.447767106e-12,6.742513422e-13,9.902031228e-12,4.790483181e-13,3.141049699e-13,5.413930871e-13,1.702093677e-13,1.159544991e-11,3.284450834e-12,2.131112380e-12,6.961850595e-11,3.386562862e-12,6.616383928e-13,2.204610851e-13,2.650973509e-13,9.679959817e-14,6.154594014e-11,5.828765551e-11,5.109283911e-14,1.024921605e-11,1.720072820e-11
0.21875,2.904061129e-12,3.776513987e-11,4.245398505e-13,2.820560548e-12,2.790022570e-13,3.554787877e-12,7.312176125e-13,7.807800472e-12,7.479316943e-12,1.504300181e-11,1.425763616e-12,5.995802570e-12,6.545208285e-13,9.413267088e-12,4.917764774e-13,3.262956652e-13,4.860652554e-13,1.459734331e-13,1.031115847e-11,3.001772925e-12,2.033548111e-12,6.298478410e-11,3.137838950e-12,8.957796335e-13,2.027590143e-13,2.496026147e-13,1.018564923e-13,5.748314481e-11,5.371844615e-11,4.825774716e-14,9.386546779e-12,1.531610432e-11
0.22656,2.989683770e-12,3.632312229e-11,4.328080393e-13,2.731456888e-12,2.890108446e-13,3.600872225e-12,7.966188321e-13,7.423473045e-12,7.181867469e-12,1.452849388e-11,1.409602349e-12,5.549911521e-12,5.654237153e-13,9.709914452e-12,4.959286923e-13,3.489897442e-13,5.030136976e-13,1.556142452e-13,9.780840297e-12,2.524179143e-12,1.883120670e-12,5.960979375e-11,3.021123156e-12,1.087820076e-12,2.286639405e-13,2.419676764e-13,1.171988003e-13,5.374490935e-11,4.944853043e-11,5.072256271e-14,9.072691119e-12,1.481054055e-11
0.23438,2.989726586e-12,3.417974614e-11,4.774400577e-13,2.582205261e-12,2.245321185e-13,3.501806940e-12,7.310239869e-13,6.970537303e-12,6.763751371e-12,1.350598585e-11,1.323514620e-12,5.084595613e-12,5.282613909e-13,9.416491300e-12,4.781127267e-13,3.506972969e-13,5.586198519e-13,1.823481027e-13,9.174772337e-12,2.262470706e-12,1.737015591e-12,5.513035310e-11,2.827152466e-12,9.538153436e-13,2.563821263e-13,2.617528874e-13,1.249667335e-13,4.969744507e-11,4.605255817e-11,5.081229480e-14,8.661522859e-12,1.376912187e-11
0.24219,3.192077011e-12,3.174470728e-11,5.974487438e-13,2.431664035e-12,2.377768196e-13,3.351721880e-12,6.635459701e-13,6.491350962e-12,6.250599190e-12,1.230729588e-11,1.186832088e-12,4.608413643e-12,5.660817127e-13,8.923825670e-12,4.318356765e-13,3.150571212e-13,6.573256808e-13,2.365535307e-13,8.590928823e-12,2.343236792e-12,1.613132022e-12,5.012094189e-11,2.578221980e-12,9.067892293e-13,3.040834665e-13,2.998770942e-13,1.171892008e-13,4.563038840e-11,4.380105680e-11,6.539940863e-14,8.236594885e-12,1.243879928e-11
0.25,3.889334821e-12,3.094427056e-11,7.763925604e-13,2.392068908e-12,2.590328489e-13,3.406222886e-12,6.710899855e-13,6.272994435e-12,5.852672860e-12,1.248215879e-11,1.100641911e-12,4.151139202e-12,5.338687373e-13,9.030544599e-12,3.694139446e-13,2.718606669e-13,7.867201400e-13,3.041153087e-13,8.564188698e-12,2.325209929e-12,1.440273274e-12,4.781607507e-11,2.416330610e-12,1.084504946e-12,3.743557246e-13,3.256229955e-13,1.071973347e-13,4.204508969e-11,4.178263416e-11,7.945451100e-14,8.171730334e-12,1.222885015e-11
0.25781,4.171653148e-12,2.981725004e-11,8.840409075e-13,2.311551266e-12,1.862482249e-13,3.321372110e-12,6.138654451e-13,5.981116390e-12,5.401151894e-12,1.237692599e-11,1.007560036e-12,3.700519838e-12,5.262655952e-13,8.750998816e-12,3.002188704e-13,2.314495765e-13,8.608613779e-13,3.448332952e-13,8.432976014e-12,2.401027567e-12,1.271656418e-12,4.541196862e-11,2.248184804e-12,1.037202956e-12,3.959702597e-13,3.483408713e-13,1.027697918e-13,3.852263824e-11,4.009437939e-11,8.042600880e-14,7.956627118e-12,1.182131599e-11
0.26562,4.279148206e-12,2.795883115e-11,1.006940235e-12,2.146876115e-12,1.272292592e-13,3.005223160e-12,4.993079508e-13,5.480284320e-12,4.875810301e-12,1.174875365e-11,8.866891181e-13,3.292088217e-12,5.749653796e-13,7.941985832e-12,2.335880232e-13,1.784661690e-13,9.010322304e-13,3.837515924e-13,8.075308170e-12,2.708485074e-12,1.153555646e-12,4.201501158e-11,2.044949741e-12,8.020979923e-13,3.834551445e-13,3.711308676e-13,9.256551550e-14,3.506322656e-11,3.905790392e-11,9.289704340e-14,7.526419275e-12,1.085607734e-11
0.27344,4.781032856e-12,2.722581824e-11,1.191661952e-12,2.038524605e-12,1.192096739e-13,2.782075537e-12,4.458545489e-13,5.066477143e-12,4.440606258e-12,1.202926890e-11,8.127866926e-13,2.958676884e-12,5.640821580e-13,7.548724479e-12,1.790542172e-13,1.248066451e-13,9.299403972e-13,4.339244229e-13,8.030384612e-12,2.712695380e-12,1.048316913e-12,4.049254786e-11,1.944841748e-12,7.380808256e-13,3.857403426e-13,3.588863031e-13,7.145644760e-14,3.218722978e-11,3.781272497e-11,1.148589091e-13,7.313410987e-12,1.063455830e-11
0.28125,4.845851965e-12,2.654349055e-11,1.259388260e-12,1.914818499e-12,9.225967251e-14,2.540205367e-12,3.945627705e-13,4.640226971e-12,4.059020422e-12,1.211493534e-11,7.634704163e-13,2.682686533e-12,5.409403196e-13,7.145773093e-12,1.432000024e-13,8.861565271e-14,9.041933988e-13,4.396583094e-13,7.930650435e-12,2.585175192e-12,9.576857781e-13,3.920091711e-11,1.889358599e-12,7.992431477e-13,3.608447632e-13,3.314342371e-13,5.487282378e-14,2.968333160e-11,3.632901975e-11,1.181945427e-13,7.075260746e-12,1.039426240e-11
0.28906,4.352157712e-12,2.492518866e-11,1.244846133e-12,1.711063006e-12,7.295767767e-14,2.131212417e-12,2.945110093e-13,4.061278722e-12,3.653056833e-12,1.120084732e-11,6.798724095e-13,2.462747062e-12,5.821625307e-13,6.311944394e-12,1.242568259e-13,6.339278156e-14,8.302586779e-13,4.137525769e-13,7.501158587e-12,2.652219126e-12,9.163478460e-13,3.660100174e-11,1.812068508e-12,7.394286499e-13,2.985642210e-13,3.160162306e-13,4.702858664e-14,2.736012612e-11,3.499893592e-11,1.178916949e-13,6.619241448e-12,9.454323265e-12
0.29688,4.183574741e-12,2.395790425e-11,1.304939160e-12,1.565449320e-12,7.710700790e-14,1.829527014e-12,2.258497134e-13,3.591531999e-12,3.335131279e-12,1.068249893e-11,6.201072271e-13,2.289774033e-12,6.012095933e-13,5.854139354e-12,1.157947511e-13,4.248464768e-14,7.699558835e-13,4.086587889e-13,7.273674342e-12,2.555932299e-12,8.862124474e-13,3.502827124e-11,1.796338533e-12,6.349797011e-13,2.625229972e-13,2.939678531e-13,3.942472125e-14,2.559641799e-11,3.342361770e-11,1.332280755e-13,6.325699504e-12,8.912587656e-12
0.30469,4.080366637e-12,2.334198026e-11,1.326561752e-12,1.472301789e-12,6.931297587e-14,1.664916294e-12,1.933914175e-13,3.262899583e-12,3.094601786e-12,1.034620376e-11,5.811615779e-13,2.142390400e-12,6.023307294e-13,5.669432053e-12,1.142945258e-13,3.168386132e-14,7.107594741e-13,3.934364374e-13,7.134218429e-12,2.249095885e-12,8.638303406e-13,3.418105769e-11,1.814634802e-12,6.960626613e-13,2.462797571e-13,2.599536191e-13,3.163217007e-14,2.423831235e-11,3.157191805e-11,1.346134596e-13,6.106858686e-12,8.718267039e-12
0.3125,3.613457688e-12,2.185463425e-11,1.260306011e-12,1.372625299e-12,7.611041473e-14,1.513974381e-12,1.540911837e-13,2.944072527e-12,2.824854868e-12,9.184335226e-12,5.214324527e-13,1.991217481e-12,6.704455447e-13,5.278960810e-12,1.126563793e-13,2.749539779e-14,6.361072253e-13,3.504811819e-13,6.700110466e-12,2.091421839e-12,8.773953926e-13,3.225341947e-11,1.772698485e-12,8.756705020e-13,2.276768516e-13,2.367556146e-13,3.007170350e-14,2.291754250e-11,2.977148655e-11,1.180158793e-13,5.669742823e-12,8.104911875e-12
0.32031,3.392450422e-12,2.061352583e-11,1.268601925e-12,1.334865680e-12,1.055491599e-13,1.477344709e-12,1.369863909e-13,2.729723123e-12,2.591014208e-12,8.201833120e-12,4.701082942e-13,1.853644945e-12,7.285474097e-13,5.107096638e-12,1.059773489e-13,2.116169196e-14,5.770978159e-13,3.171333830e-13,6.336213485e-12,1.953999923e-12,9.022658789e-13,3.086493716e-11,1.745900791e-12,9.835193983e-13,2.307160405e-13,2.151532827e-13,3.106493365e-14,2.178278929e-11,2.805762572e-11,1.083099875e-13,5.265936346e-12,7.789090277e-12
0.32812,3.418195461e-12,1.995557573e-11,1.305125455e-12,1.369420101e-12,1.141785261e-13,1.553589509e-12,1.430457880e-13,2.660689512e-12,2.430473053e-12,7.776789637e-12,4.412019595e-13,1.740524851e-12,7.393351257e-13,5.171165341e-12,9.533574224e-14,1.755911538e-14,5.320187181e-13,2.912734387e-13,6.132108432e-12,1.655577236e-12,9.120346667e-13,3.043628744e-11,1.755934115e-12,1.042093535e-12,2.456627633e-13,1.786275099e-13,2.736780158e-14,2.083328443e-11,2.627052436e-11,1.032954086e-13,4.974765067e-12,7.914638968e-12
0.33594,3.158759505e-12,1.873287498e-11,1.247720536e-12,1.393090348e-12,1.271844099e-13,1.576037881e-12,1.337967642e-13,2.566206470e-12,2.274775843e-12,7.084504003e-12,4.097634734e-13,1.665517108e-12,7.697005628e-13,4.920815314e-12,8.239550766e-14,1.813115681e-14,4.895672941e-13,2.517751617e-13,5.703736140e-12,1.452879128e-12,9.182096527e-13,2.903477759e-11,1.703375335e-12,1.228094280e-12,2.350101136e-13,1.451179363e-13,2.196884128e-14,1.965054759e-11,2.457176501e-11,8.577662460e-14,4.552960345e-12,7.665077166e-12
0.34375,2.899618456e-12,1.752476365e-11,1.182842514e-12,1.436001302e-12,1.702852371e-13,1.600065819e-12,1.234206409e-13,2.508006740e-12,2.183979575e-12,6.508458207e-12,3.828799290e-13,1.653592366e-12,7.823323722e-13,4.612269554e-12,6.631815608e-14,1.815836013e-14,4.601356507e-13,2.153486603e-13,5.262221917e-12,1.373145547e-12,9.020482954e-13,2.749584256e-11,1.644965624e-12,1.435695388e-12,2.148022950e-13,1.253216424e-13,1.912673355e-14,1.851628577e-11,2.311367347e-11,6.855489070e-14,4.165551448e-12,7.324721808e-12
0.35156,2.829861239e-12,1.691917159e-11,1.139619389e-12,1.508849788e-12,1.907241196e-13,1.652190811e-12,1.330456984e-13,2.540940504e-12,2.201206962e-12,6.453456946e-12,3.836671230e-13,1.705843381e-12,7.169567603e-13,4.460366816e-12,4.828639329e-14,2.020371353e-14,4.490269677e-13,1.969417542e-13,4.998193308e-12,1.241107008e-12,8.405027589e-13,2.666397063e-11,1.619613566e-12,1.461151746e-12,2.040030197e-13,1.127599833e-13,1.717851407e-14,1.764476572e-11,2.172048811e-11,6.322702745e-14,3.957820353e-12,7.247456351e-12
0.35938,2.539176558e-12,1.603807558e-11,1.011624536e-12,1.529890042e-12,1.851350815e-13,1.607387579e-12,1.494621238e-13,2.555767640e-12,2.289494830e-12,6.211145613e-12,3.853145222e-13,1.808976232e-12,6.238510918e-13,4.107059433e-12,3.617001918e-14,2.612351053e-14,4.528023516e-13,1.888736362e-13,4.664535209e-12,1.196147533e-12,7.470288201e-13,2.506689435e-11,1.542018057e-12,1.429439967e-12,1.832805045e-13,1.128725012e-13,1.664971028e-14,1.677594813e-11,2.038151450e-11,5.881307062e-14,3.764366401e-12,6.759427191e-12
0.36719,2.106183139e-12,1.498734297e-11,8.316398730e-13,1.504999427e-12,1.948457560e-13,1.494310333e-12,1.712264123e-13,2.572217420e-12,2.442253550e-12,5.809974640e-12,3.869938391e-13,1.953359219e-12,5.408320513e-13,3.618417301e-12,2.613914586e-14,2.957440305e-14,4.665584482e-13,1.914542588e-13,4.302623897e-12,1.276853085e-12,6.413949239e-13,2.294833763e-11,1.425070203e-12,1.480154898e-12,1.592023229e-13,1.218754383e-13,2.242572037e-14,1.610509333e-11,1.928581460e-11,5.091264340e-14,3.600077078e-12,5.939532880e-12
0.375,1.853013931e-12,1.437313099e-11,6.951156051e-13,1.470953147e-12,2.012247443e-13,1.414235213e-12,2.172295586e-13,2.649557056e-12,2.660707671e-12,5.711380757e-12,4.034079879e-13,2.109327182e-12,4.378472425e-13,3.319838396e-12,1.812061411e-14,3.302824843e-14,4.922739104e-13,2.106428828e-13,4.082696478e-12,1.298850346e-12,5.370456423e-13,2.147583049e-11,1.324205109e-12,1.467712183e-12,1.536793654e-13,1.334134187e-13,3.580771312e-14,1.576468339e-11,1.835076966e-11,4.761178385e-14,3.562884682e-12,5.368290642e-12
0.38281,1.649333755e-12,1.368912625e-11,5.896246470e-13,1.386228950e-12,1.689463788e-13,1.326276455e-12,2.913169506e-13,2.683555737e-12,2.815606859e-12,5.486729061e-12,4.097432717e-13,2.206854566e-12,3.382684221e-13,3.088244990e-12,1.384283011e-14,3.749007594e-14,5.099806213e-13,2.293690666e-13,3.868347329e-12,1.309336326e-12,4.466572077e-13,1.997488821e-11,1.201909884e-12,1.327486044e-12,1.688229446e-13,1.440980045e-13,5.609480861e-14,1.541613803e-11,1.745934109e-11,4.996566723e-14,3.500310436e-12,4.850187559e-12
0.39062,1.432722754e-12,1.278298827e-11,5.074938907e-13,1.247862952e-12,1.302513089e-13,1.221193274e-12,3.901830363e-13,2.628968922e-12,2.849775762e-12,5.042763614e-12,3.968624828e-13,2.214695824e-12,2.841192558e-13,2.862538858e-12,1.187747084e-14,4.061016546e-14,5.128409287e-13,2.398138190e-13,3.588916581e-12,1.353912424e-12,3.907748333e-13,1.823575725e-11,1.048901606e-12,1.252619432e-12,1.997096650e-13,1.526680923e-13,8.107301844e-14,1.494840642e-11,1.678777638e-11,5.142704977e-14,3.370128745e-12,4.311309919e-12
0.39844,1.384496333e-12,1.219468275e-11,4.946377400e-13,1.118104271e-12,1.105141027e-13,1.183059681e-12,5.039541955e-13,2.569639594e-12,2.796775418e-12,4.815747754e-12,3.802677789e-13,2.148184441e-12,2.562043165e-13,2.844435516e-12,1.179257252e-14,4.105767486e-14,5.178420613e-13,2.464372751e-13,3.395269879e-12,1.316413473e-12,3.658555886e-13,1.716105945e-11,9.198893198e-13,1.228553350e-12,2.408142547e-13,1.516590116e-13,1.121316713e-13,1.451153693e-11,1.630528775e-11,5.010556141e-14,3.288756410e-12,4.095834850e-12
0.40625,1.410649447e-12,1.171581812e-11,5.272964836e-13,9.962702558e-13,8.959712345e-14,1.181460042e-12,6.017739432e-13,2.454342399e-12,2.619648469e-12,4.712725950e-12,3.559004660e-13,1.984439776e-12,2.481609041e-13,2.941302031e-12,1.244971315e-14,3.886147351e-14,5.035384059e-13,2.360818840e-13,3.215900550e-12,1.187753600e-12,3.630236030e-13,1.645355743e-11,8.236944627e-13,1.146999037e-12,2.742568067e-13,1.426649900e-13,1.439881392e-13,1.385273853e-11,1.580731551e-11,4.851166625e-14,3.184972034e-12,4.108695291e-12
0.41406,1.390698741e-12,1.108959344e-11,5.744587740e-13,8.732699570e-13,7.157527025e-14,1.174095426e-12,6.733503246e-13,2.256936856e-12,2.316720536e-12,4.510154587e-12,3.106442387e-13,1.738907691e-12,2.723074850e-13,3.033071023e-12,1.344238198e-14,3.698389599e-14,4.674617138e-13,2.054529279e-13,2.961111563e-12,1.065549333e-12,3.766791792e-13,1.564926493e-11,7.474172605e-13,1.032238281e-12,2.919142338e-13,1.340882630e-13,1.675610574e-13,1.292757449e-11,1.537691422e-11,4.698869856e-14,3.027603855e-12,4.116799621e-12
0.42188,1.414687403e-12,1.067905333e-11,6.411711588e-13,7.955121667e-13,6.683684522e-14,1.200831779e-12,7.292709806e-13,2.070564943e-12,1.995420298e-12,4.445224364e-12,2.644785723e-13,1.469681547e-12,3.092926435e-13,3.226140935e-12,1.444630617e-14,3.503987112e-14,4.360244907e-13,1.731240595e-13,2.763990554e-12,9.576276280e-13,3.973803962e-13,1.524766144e-11,7.213839498e-13,9.549350156e-13,2.958891065e-13,1.281769583e-13,1.788276680e-13,1.205519223e-11,1.512988931e-11,4.459073519e-14,2.931909858e-12,4.219110494e-12
0.42969,1.439828537e-12,1.045675212e-11,6.851578258e-13,7.586738183e-13,6.560796850e-14,1.238092075e-12,7.537958863e-13,1.936083420e-12,1.735662639e-12,4.490540983e-12,2.259797449e-13,1.226855702e-12,3.281539832e-13,3.418328335e-12,1.442056378e-14,3.130081687e-14,4.072475782e-13,1.441655576e-13,2.627398060e-12,8.299639579e-13,4.100932579e-13,1.514276521e-11,7.399537911e-13,8.742974768e-13,2.798261975e-13,1.211105845e-13,1.778373846e-13,1.130559411e-11,1.482979241e-11,3.945767622e-14,2.880349754e-12,4.335309215e-12
0.4375,1.367235728e-12,1.009815997e-11,6.745724181e-13,7.351127254e-13,6.427018944e-14,1.233692108e-12,7.348554645e-13,1.806313131e-12,1.533548217e-12,4.383509941e-12,1.881008202e-13,1.032022377e-12,3.382578042e-13,3.456767839e-12,1.392423274e-14,2.827468639e-14,3.776146268e-13,1.189339896e-13,2.477395647e-12,7.438567734e-13,4.120097995e-13,1.483550507e-11,7.760676922e-13,7.407952689e-13,2.424430735e-13,1.188882736e-13,1.656902877e-13,1.063048873e-11,1.447418550e-11,3.249250933e-14,2.812981420e-12,4.238019119e-12
0.44531,1.254621430e-12,9.769800882e-12,6.234816909e-13,7.338559905e-13,6.838731766e-14,1.213770326e-12,6.961342709e-13,1.732627470e-12,1.435276744e-12,4.197352747e-12,1.556302244e-13,9.075253217e-13,3.433469386e-13,3.416946679e-12,1.292854398e-14,2.713101328e-14,3.621724072e-13,1.062884435e-13,2.377488712e-12,7.330475838e-13,4.063598470e-13,1.452818009e-11,8.156942748e-13,6.205399601e-13,1.987646414e-13,1.257109546e-13,1.430127102e-13,1.022267232e-11,1.427249521e-11,2.682657826e-14,2.772892235e-12,3.984792261e-12
0.45312,1.193227818e-12,9.589835645e-12,5.563467759e-13,7.476914857e-13,7.068528522e-14,1.194559511e-12,6.582751594e-13,1.701009246e-12,1.421263241e-12,4.071921223e-12,1.365817999e-13,8.495789298e-13,3.252542697e-13,3.358852363e-12,1.140156485e-14,2.695284957e-14,3.672653061e-13,1.082974675e-13,2.361881804e-12,7.505632150e-13,3.884365989e-13,1.438714975e-11,8.449245187e-13,5.282301146e-13,1.619368768e-13,1.385374162e-13,1.141672709e-13,1.003778484e-11,1.410878084e-11,2.358516431e-14,2.776458149e-12,3.729606066e-12
0.46094,1.113359273e-12,9.262860810e-12,4.767329857e-13,7.458916996e-13,6.343148228e-14,1.155758516e-12,6.277436098e-13,1.671859168e-12,1.447842763e-12,3.844835917e-12,1.285756020e-13,8.369670690e-13,2.814748086e-13,3.208823416e-12,1.144127238e-14,3.013300459e-14,3.825328272e-13,1.190239480e-13,2.350348003e-12,7.888860417e-13,3.580100001e-13,1.398502863e-11,8.308037324e-13,4.449404508e-13,1.344189530e-13,1.551540183e-13,8.587820547e-14,9.845208222e-12,1.375852871e-11,2.195022043e-14,2.728554291e-12,3.388825094e-12
0.46875,1.015858005e-12,8.835567538e-12,3.961731521e-13,7.269215027e-13,5.204561958e-14,1.082192858e-12,5.919387498e-13,1.596214546e-12,1.459328093e-12,3.554998093e-12,1.271561600e-13,8.514875541e-13,2.483058794e-13,2.961303602e-12,1.340293632e-14,3.515355931e-14,3.966649787e-13,1.316397930e-13,2.333156264e-12,8.684934815e-13,3.296481838e-13,1.342049590e-11,7.789127661e-13,3.497277135e-13,1.185852110e-13,1.797239608e-13,6.859520192e-14,9.665205793e-12,1.351680054e-11,2.287648682e-14,2.650194189e-12,3.022553727e-12
0.47656,9.618970121e-13,8.480220402e-12,3.398547880e-13,7.041792384e-13,4.553496708e-14,1.003123420e-12,5.476711082e-13,1.506438568e-12,1.463875228e-12,3.363595035e-12,1.357635088e-13,8.915235656e-13,2.174546978e-13,2.716217183e-12,1.445568365e-14,3.985799351e-14,4.117274257e-13,1.454364434e-13,2.347030825e-12,9.355736236e-13,3.053058913e-13,1.297867918e-11,7.044591726e-13,2.794420411e-13,1.150327452e-13,2.046083072e-13,5.932059910e-14,9.519754535e-12,1.330697504e-11,2.443176218e-14,2.578232121e-12,2.778042497e-12
0.48438,9.254037358e-13,8.104992228e-12,3.231356439e-13,6.760264695e-13,4.237424277e-14,9.255961279e-13,5.126336932e-13,1.398601536e-12,1.433941617e-12,3.244256316e-12,1.533421187e-13,9.226850677e-13,1.847909317e-13,2.500314772e-12,1.678116520e-14,4.569075276e-14,4.166497302e-13,1.554040451e-13,2.340613571e-12,9.398768303e-13,2.818263828e-13,1.251101246e-11,6.214481432e-13,2.309318519e-13,1.189080013e-13,2.174143278e-13,5.764163336e-14,9.213402131e-12,1.282486403e-11,2.499971702e-14,2.470126070e-12,2.652340627e-12
0.49219,8.359000371e-13,7.626641607e-12,3.131460440e-13,6.383928328e-13,4.146906731e-14,8.203603450e-13,4.690374351e-13,1.276528484e-12,1.378584985e-12,3.085560049e-12,1.731511532e-13,9.621048499e-13,1.663400849e-13,2.225989223e-12,2.069174177e-14,4.961662632e-14,3.961261490e-13,1.520922049e-13,2.276665104e-12,9.330227837e-13,2.693622991e-13,1.192854952e-11,5.432402197e-13,1.891868512e-13,1.185540705e-13,2.216967668e-13,6.311215947e-14,8.907417911e-12,1.229435628e-11,2.395787876e-14,2.316698872e-12,2.557885090e-12
0.5,7.495452937e-13,7.218499660e-12,3.181272432e-13,6.086578599e-13,4.702466331e-14,7.117496878e-13,4.063183337e-13,1.192132458e-12,1.341117557e-12,2.948457489e-12,2.028856872e-13,1.020872457e-12,1.591620339e-13,1.970649311e-12,2.390706968e-14,5.310360773e-14,3.628510872e-13,1.418193776e-13,2.204210830e-12,9.194812237e-13,2.689961031e-13,1.146263543e-11,4.930265228e-13,1.543406897e-13,1.157590955e-13,2.156339301e-13,6.954568610e-14,8.775784397e-12,1.178650615e-11,2.455357873e-14,2.175427103e-12,2.530238821e-12
0.50781,7.104495940e-13,6.924291889e-12,3.288872396e-13,5.891181249e-13,5.156831672e-14,6.218580640e-13,3.348818291e-13,1.152441995e-12,1.311419016e-12,2.876899633e-12,2.439906579e-13,1.062772675e-12,1.465354025e-13,1.799148999e-12,2.798848980e-14,5.545371904e-14,3.160942212e-13,1.267396982e-13,2.126000064e-12,8.393963264e-13,2.665078003e-13,1.115374315e-11,4.880024182e-13,1.543336432e-13,1.104620644e-13,1.930918566e-13,7.101249979e-14,8.713482484e-12,1.104807884e-11,2.748347171e-14,2.052666810e-12,2.586278950e-12
0.51562,6.662836799e-13,6.623239059e-12,3.195593090e-13,5.650313226e-13,5.072654926e-14,5.372241267e-13,2.694336590e-13,1.140137837e-12,1.295400008e-12,2.731318994e-12,2.923384161e-13,1.092761544e-12,1.345345533e-13,1.656534651e-12,3.087347661e-14,5.219589646e-14,2.588188353e-13,1.072150912e-13,2.007106973e-12,7.354514422e-13,2.685341220e-13,1.078409025e-11,5.184480254e-13,1.977770883e-13,9.815192567e-14,1.571047561e-13,6.727301736e-14,8.746408957e-12,1.022608148e-11,3.473400531e-14,1.922359436e-12,2.593169868e-12
0.52344,6.654719869e-13,6.419107900e-12,2.993780105e-13,5.480695041e-13,5.138429206e-14,4.693875694e-13,2.058751025e-13,1.126287562e-12,1.263902442e-12,2.530563914e-12,3.474549933e-13,1.084591577e-12,1.385823056e-13,1.588348202e-12,3.244851601e-14,4.799452778e-14,2.032316295e-13,8.833650827e-14,1.893938892e-12,6.718910929e-13,2.738964394e-13,1.047233607e-11,5.857368525e-13,2.562954315e-13,8.449267904e-14,1.242398868e-13,6.247846037e-14,8.905710149e-12,9.642331594e-12,4.883286613e-14,1.836247603e-12,2.561394607e-12
0.53125,7.604343651e-13,6.379714568e-12,2.872283910e-13,5.334831152e-13,5.366096883e-14,4.323543070e-13,1.496137864e-13,1.104645112e-12,1.219553411e-12,2.437999548e-12,4.081788857e-13,1.034142814e-12,1.386115760e-13,1.616907310e-12,3.615731034e-14,4.655917411e-14,1.594523542e-13,7.706719042e-14,1.822879017e-12,5.940761486e-13,2.738208434e-13,1.033054668e-11,6.676342367e-13,3.341479426e-13,7.736946419e-14,9.312620995e-14,5.515427470e-14,8.976844708e-12,9.059799926e-12,6.976964380e-14,1.780330384e-12,2.603733241e-12
0.53906,8.904875515e-13,6.412928931e-12,2.783102287e-13,5.224996094e-13,5.220088332e-14,4.120691787e-13,1.037206416e-13,1.038662078e-12,1.124291957e-12,2.386264772e-12,4.597945559e-13,9.268844885e-13,1.453117056e-13,1.670624589e-12,4.016350361e-14,4.327373928e-14,1.301229128e-13,7.473549631e-14,1.777186619e-12,5.027908581e-13,2.677210919e-13,1.020768253e-11,7.430722156e-13,4.638526048e-13,7.576891951e-14,6.433432603e-14,4.704075172e-14,8.866628713e-12,8.588983733e-12,9.311849517e-14,1.743855450e-12,2.651616089e-12
0.54688,1.043345974e-12,6.439565459e-12,2.693590012e-13,5.135248445e-13,4.664158281e-14,3.992916579e-13,7.356439962e-14,9.272368193e-13,9.883848568e-13,2.292086717e-12,4.878971679e-13,7.906710694e-13,1.739500323e-13,1.705785834e-12,4.307637828e-14,3.772710068e-14,1.168867266e-13,8.205400153e-14,1.751373217e-12,4.682073399e-13,2.681510185e-13,1.000610755e-11,7.897800528e-13,6.126835323e-13,7.906565699e-14,4.379094333e-14,3.945770135e-14,8.622822409e-12,8.458051078e-12,1.158500410e-13,1.702816713e-12,2.631836120e-12
0.55469,1.276344407e-12,6.595254315e-12,2.763840088e-13,5.260832888e-13,4.066119081e-14,4.085382361e-13,5.593754428e-14,8.159887343e-13,8.350206730e-13,2.310509161e-12,4.949804029e-13,6.501143025e-13,1.996119610e-13,1.754606050e-12,4.611844608e-14,3.300648246e-14,1.192306232e-13,9.930884041e-14,1.794834898e-12,4.439603510e-13,2.635790884e-13,9.955715410e-12,8.060869112e-13,7.010969336e-13,8.984871398e-14,3.088835355e-14,3.336010885e-14,8.251557914e-12,8.455846853e-12,1.377531311e-13,1.684156078e-12,2.698110242e-12
0.5625,1.452285666e-12,6.798829479e-12,2.886159498e-13,5.649427896e-13,3.683093142e-14,4.380311413e-13,4.545345727e-14,7.309856195e-13,6.829478532e-13,2.374246255e-12,4.775360318e-13,5.128962299e-13,2.253143591e-13,1.794279625e-12,4.808287441e-14,2.880911500e-14,1.314699013e-13,1.185961376e-13,1.871550575e-12,4.137763489e-13,2.511910662e-13,9.943350257e-12,7.839747947e-13,7.416366622e-13,9.954073223e-14,2.118879290e-14,2.973417176e-14,7.699308542e-12,8.462451857e-12,1.531143760e-13,1.668763968e-12,2.794330128e-12
0.57031,1.492296917e-12,6.841155926e-12,2.733619288e-13,6.094969258e-13,3.934691793e-14,4.621021861e-13,3.995423461e-14,6.847772749e-13,5.612374498e-13,2.290307897e-12,4.315429597e-13,4.159582979e-13,2.687981994e-13,1.717368063e-12,4.781052319e-14,2.393413624e-14,1.458034602e-13,1.331853609e-13,1.915599167e-12,4.399806320e-13,2.448707734e-13,9.699162129e-12,7.108350510e-13,8.129591929e-13,1.020448178e-13,1.580394041e-14,2.725752944e-14,7.145807836e-12,8.621540817e-12,1.525735759e-13,1.613053278e-12,2.745391797e-12
0.57812,1.547918141e-12,6.903252521e-12,2.583157475e-13,6.717328793e-13,4.281944510e-14,5.068701929e-13,4.013128255e-14,6.878349500e-13,4.837321489e-13,2.217710882e-12,3.695945148e-13,3.586614900e-13,3.039450134e-13,1.654310343e-12,4.665972795e-14,1.912501546e-14,1.602497853e-13,1.495234919e-13,1.960797546e-12,4.753831614e-13,2.395198752e-13,9.468221246e-12,6.245509981e-13,8.432859084e-13,1.040953572e-13,1.369519770e-14,2.399136597e-14,6.620530538e-12,8.747833119e-12,1.422048696e-13,1.561234664e-12,2.692522698e-12
0.58594,1.615900691e-12,7.009635362e-12,2.483625118e-13,7.435897910e-13,3.867283792e-14,5.757784412e-13,4.478891532e-14,7.315587045e-13,4.543666400e-13,2.203966226e-12,3.124645868e-13,3.334695619e-13,3.188626914e-13,1.670954147e-12,4.326456064e-14,1.571203163e-14,1.702736150e-13,1.614652599e-13,2.000374926e-12,4.714434008e-13,2.288294413e-13,9.315240449e-12,5.416670379e-13,7.532605728e-13,1.050159869e-13,1.358459729e-14,2.162317490e-14,6.037837038e-12,8.625237346e-12,1.343822447e-13,1.521009275e-12,2.691766764e-12
0.59375,1.550989493e-12,6.893829556e-12,2.283218945e-13,7.802125152e-13,3.752271498e-14,6.178894500e-13,5.583289591e-14,7.619135925e-13,4.539191149e-13,2.068520114e-12,2.649372671e-13,3.319152646e-13,3.464135068e-13,1.641597715e-12,3.853995037e-14,1.481968482e-14,1.713977927e-13,1.566463853e-13,1.940171635e-12,5.035745513e-13,2.297945062e-13,8.899740779e-12,4.644237400e-13,6.570881992e-13,9.990676841e-14,1.660981361e-14,2.199241465e-14,5.431736864e-12,8.468580686e-12,1.273601740e-13,1.433695590e-12,2.578968074e-12
0.60156,1.512514797e-12,6.665591964e-12,2.126152768e-13,7.810371538e-13,4.684702938e-14,6.505590975e-13,6.620460955e-14,7.854831254e-13,4.833938433e-13,1.909334206e-12,2.350626046e-13,3.499047461e-13,3.704650101e-13,1.637197225e-12,3.222197073e-14,1.410967649e-14,1.719463934e-13,1.462080472e-13,1.822740008e-12,5.472908464e-13,2.423976190e-13,8.371659265e-12,3.979609959e-13,6.272351952e-13,9.863142176e-14,2.321798958e-14,2.278581762e-14,4.849450984e-12,8.262945998e-12,1.152514895e-13,1.318257322e-12,2.438953240e-12
0.60938,1.596979046e-12,6.479228480e-12,2.192552592e-13,7.494407097e-13,5.947174556e-14,6.816406915e-13,7.053362386e-14,7.996399091e-13,5.275536213e-13,1.887990158e-12,2.298623259e-13,3.687136243e-13,3.619620513e-13,1.712474099e-12,2.475430916e-14,1.438447024e-14,1.712437741e-13,1.358894481e-13,1.713834486e-12,5.107556955e-13,2.559859718e-13,8.005905737e-12,3.545813514e-13,5.775892021e-13,1.066390539e-13,3.252355770e-14,2.510735884e-14,4.250335605e-12,7.812594226e-12,1.086553560e-13,1.208484545e-12,2.443746582e-12
0.61719,1.585277686e-12,6.105631635e-12,2.177745077e-13,6.728136374e-13,8.272761625e-14,6.702023527e-13,7.339542183e-14,7.967148262e-13,5.865362159e-13,1.808296458e-12,2.399184103e-13,3.990205237e-13,3.353749494e-13,1.722851608e-12,1.887821951e-14,1.980922011e-14,1.746596188e-13,1.208361758e-13,1.563071026e-12,4.775334652e-13,2.772524764e-13,7.497923533e-12,3.193927842e-13,4.990137763e-13,1.119452854e-13,4.621378815e-14,3.098655485e-14,3.718336390e-12,7.336732472e-12,1.163712591e-13,1.068108142e-12,2.389052732e-12
0.625,1.530528314e-12,5.585676548e-12,2.148616450e-13,5.678040862e-13,1.162170431e-13,6.198954474e-13,8.060103566e-14,7.893369967e-13,6.491673072e-13,1.678953861e-12,2.548724979e-13,4.332916935e-13,3.261599826e-13,1.684284853e-12,1.453415487e-14,2.672164614e-14,1.844624297e-13,1.085950865e-13,1.410061569e-12,4.803868489e-13,3.026630798e-13,6.910205943e-12,2.882333842e-13,5.051294974e-13,1.228454795e-13,6.637621382e-14,3.903455437e-14,3.347171635e-12,7.034159235e-12,1.269535751e-13,9.310708855e-13,2.260022983e-12
0.63281,1.556081876e-12,5.165070680e-12,2.203440134e-13,4.639498954e-13,1.357857296e-13,5.730564093e-13,8.104003384e-14,8.158940181e-13,7.278902461e-13,1.673889941e-12,2.699748703e-13,4.680977843e-13,2.869345805e-13,1.669873771e-12,1.077951257e-14,3.447801578e-14,2.015677228e-13,1.044783043e-13,1.323457394e-12,4.299167642e-13,3.109734833e-13,6.565590397e-12,2.723108656e-13,5.439643861e-13,1.421684486e-13,9.544547841e-14,4.433423013e-14,3.173743244e-12,6.676996245e-12,1.345907859e-13,8.450620946e-13,2.229823086e-12
0.64062,1.506468707e-12,4.762829363e-12,2.188162294e-13,3.739410254e-13,1.391781884e-13,5.205496292e-13,6.867271343e-14,8.485382646e-13,7.958851106e-13,1.653096100e-12,2.745283551e-13,4.985833181e-13,2.249293547e-13,1.612272453e-12,9.214660798e-15,4.872670341e-14,2.216924714e-13,1.079993137e-13,1.274709677e-12,3.617891804e-13,3.057411357e-13,6.284847575e-12,2.642984272e-13,5.008817082e-13,1.586952671e-13,1.320906881e-13,5.250744979e-14,3.157317170e-12,6.399999437e-12,1.431758246e-13,8.022607195e-13,2.157963410e-12
0.64844,1.318122118e-12,4.308468452e-12,2.048693408e-13,3.064377569e-13,1.460072875e-13,4.527825686e-13,5.949389602e-14,8.835268601e-13,8.531279692e-13,1.541383792e-12,2.511324447e-13,5.179536895e-13,1.941648880e-13,1.478003232e-12,1.112145845e-14,6.856888216e-14,2.430726370e-13,1.188900516e-13,1.248058493e-12,3.515999344e-13,2.935916432e-13,5.928045245e-12,2.577056756e-13,4.744633058e-13,1.772421429e-13,1.651288195e-13,6.030601160e-14,3.291112129e-12,6.352675839e-12,1.545148874e-13,8.047067331e-13,1.914911934e-12
0.65625,1.204631638e-12,4.012506430e-12,2.103401391e-13,2.636939670e-13,1.486992090e-13,4.048524878e-13,5.756332679e-14,9.209912600e-13,8.972814478e-13,1.549033551e-12,2.156845964e-13,5.210530672e-13,1.685349941e-13,1.388337070e-12,1.517478400e-14,8.872641790e-14,2.657449017e-13,1.394412604e-13,1.274916497e-12,3.388376368e-13,2.691351239e-13,5.784924799e-12,2.593957132e-13,4.853213271e-13,2.096389731e-13,1.892535302e-13,5.899071214e-14,3.464097958e-12,6.255582271e-12,1.568814145e-13,8.600098313e-13,1.715501049e-12
0.66406,1.136137312e-12,3.830432439e-12,2.190427875e-13,2.426280572e-13,1.229808717e-13,3.775498515e-13,4.785667390e-14,9.442048230e-13,9.248247843e-13,1.582005558e-12,1.830565908e-13,5.059584087e-13,1.376220763e-13,1.335565912e-12,2.204512549e-14,1.109982810e-13,2.867835759e-13,1.629460854e-13,1.316685082e-12,3.403409231e-13,2.313868357e-13,5.709565660e-12,2.603566682e-13,4.327168238e-13,2.408337422e-13,2.140597938e-13,5.289403153e-14,3.612149862e-12,6.087215404e-12,1.441722176e-13,9.325008213e-13,1.554939360e-12
0.67188,1.011998147e-12,3.571789027e-12,2.101091828e-13,2.176031963e-13,8.732040419e-14,3.269054690e-13,3.506774205e-14,9.009209651e-13,9.056401366e-13,1.521522490e-12,1.470660601e-13,4.793649258e-13,1.273980301e-13,1.191575088e-12,3.102752071e-14,1.303199373e-13,2.870656234e-13,1.738065119e-13,1.302914521e-12,4.026878514e-13,1.983545853e-13,5.449820008e-12,2.495490144e-13,3.291128899e-13,2.638633044e-13,2.286797128e-13,4.698720979e-14,3.701379076e-12,6.008670308e-12,1.301993328e-13,9.775579989e-13,1.311627058e-12
0.67969,9.779268249e-13,3.396559916e-12,2.129371529e-13,1.908229139e-13,6.936584806e-14,2.792010570e-13,3.337203118e-14,8.367501407e-13,8.733034214e-13,1.539690183e-12,1.208353289e-13,4.455247505e-13,1.257848733e-13,1.077999818e-12,4.103745186e-14,1.451623005e-13,2.856281183e-13,1.867783380e-13,1.298380501e-12,4.559068591e-13,1.711370286e-13,5.298391434e-12,2.323698981e-13,2.838578885e-13,2.942806260e-13,2.250727068e-13,3.917166810e-14,3.749269905e-12,5.848939315e-12,1.154728182e-13,1.024674596e-12,1.127974831e-12
0.6875,1.034062111e-12,3.323286745e-12,2.274755981e-13,1.700204727e-13,5.558830122e-14,2.521959619e-13,3.073387387e-14,7.752255064e-13,8.404012097e-13,1.612135961e-12,1.094923298e-13,4.094413031e-13,1.069372394e-13,1.028114908e-12,5.521393778e-14,1.598165856e-13,2.893355732e-13,2.001229474e-13,1.303225188e-12,4.969849690e-13,1.383548949e-13,5.270474328e-12,2.134638959e-13,2.452733586e-13,3.187587919e-13,2.076283503e-13,2.896033878e-14,3.741134341e-12,5.545733544e-12,9.459869643e-14,1.054633194e-12,1.050971236e-12
0.69531,9.944116023e-13,3.113752171e-12,2.187650420e-13,1.395924270e-13,4.497467914e-14,2.089092749e-13,2.479095494e-14,6.753781756e-13,7.765533990e-13,1.549818487e-12,1.084045944e-13,3.787119397e-13,9.659336145e-14,9.055242998e-13,7.252958032e-14,1.645160889e-13,2.634955186e-13,1.890637507e-13,1.226484747e-12,5.660783441e-13,1.148417069e-13,5.085352702e-12,1.883610724e-13,1.785134207e-13,3.138870147e-13,1.896155430e-13,2.170797494e-14,3.726421582e-12,5.321532581e-12,7.037865614e-14,1.015713526e-12,9.690571413e-13
0.70312,9.647974958e-13,2.910700707e-12,2.268921759e-13,1.095694296e-13,4.631159069e-14,1.680448660e-13,2.627302697e-14,5.862081426e-13,7.166248511e-13,1.501672558e-12,1.130554021e-13,3.571399053e-13,9.698354678e-14,7.937162440e-13,8.736914460e-14,1.614281869e-13,2.315017818e-13,1.679437095e-13,1.144905765e-12,6.041308946e-13,9.973883349e-14,4.965726734e-12,1.680841063e-13,1.488737752e-13,2.990214049e-13,1.725758560e-13,1.970283018e-14,3.717624429e-12,5.134066607e-12,5.542349213e-14,9.702149015e-13,9.345686935e-13
0.71094,1.011379328e-12,2.838509318e-12,2.651661245e-13,9.454723666e-14,4.261956367e-14,1.517142795e-13,2.903021311e-14,5.285385372e-13,6.569237193e-13,1.547057623e-12,1.215757391e-13,3.310686270e-13,9.829890784e-14,7.734799764e-13,1.010734382e-13,1.525564918e-13,2.015828100e-13,1.493517456e-13,1.104054626e-12,5.604427013e-13,8.179680666e-14,5.063928015e-12,1.659824235e-13,1.469469825e-13,2.870400551e-13,1.607572001e-13,2.303238259e-14,3.671815893e-12,4.903335298e-12,4.606123568e-14,9.528727432e-13,9.944629373e-13
0.71875,9.418284758e-13,2.686847143e-12,3.028636411e-13,8.748558044e-14,3.226777498e-14,1.407912384e-13,2.929986619e-14,4.891829699e-13,5.982788727e-13,1.461286893e-12,1.230083256e-13,3.092385126e-13,1.110441533e-13,7.571923006e-13,1.156375124e-13,1.335225860e-13,1.672112276e-13,1.257780260e-13,1.026637032e-12,5.310278294e-13,6.882199048e-14,4.996866746e-12,1.707980663e-13,1.296534450e-13,2.587726581e-13,1.673004016e-13,3.181062086e-14,3.588434178e-12,4.763773162e-12,4.150636525e-14,9.188987882e-13,9.935654781e-13
0.72656,8.024386971e-13,2.537969197e-12,3.577576503e-13,9.229068756e-14,3.068964798e-14,1.414736213e-13,3.684944026e-14,4.634967905e-13,5.363183085e-13,1.344504747e-12,1.131709791e-13,2.876201788e-13,1.346352934e-13,7.850934669e-13,1.271235303e-13,1.165717225e-13,1.348723512e-13,9.746107846e-14,9.475134941e-13,5.204294755e-13,6.130573983e-14,4.889636948e-12,1.887973754e-13,1.370411313e-13,2.211527739e-13,1.981805426e-13,4.631624235e-14,3.470439440e-12,4.739374571e-12,4.443462183e-14,9.156572733e-13,9.764140401e-13
0.73438,7.476247982e-13,2.517805111e-12,4.305878609e-13,1.049926062e-13,3.087380726e-14,1.583408903e-13,4.570869627e-14,4.744692097e-13,4.949747841e-13,1.351630676e-12,1.014999784e-13,2.713960123e-13,1.466094653e-13,8.857733631e-13,1.379674792e-13,1.025893934e-13,1.080112565e-13,7.253399954e-14,9.182196795e-13,4.627510319e-13,5.368217585e-14,4.929988455e-12,2.126115430e-13,1.798676316e-13,1.983485180e-13,2.493332893e-13,6.505477375e-14,3.308661471e-12,4.621427670e-12,4.814340103e-14,9.579962737e-13,1.024765033e-12
0.74219,6.706954664e-13,2.479746106e-12,4.671648566e-13,1.197535119e-13,2.090697506e-14,1.710243856e-13,5.052423805e-14,4.853834102e-13,4.643198339e-13,1.299845975e-12,9.097014617e-14,2.640923924e-13,1.598281143e-13,9.515714366e-13,1.463845197e-13,8.463401742e-14,9.258968034e-14,5.685697762e-14,8.866820696e-13,4.352951809e-13,4.626556006e-14,4.797026304e-12,2.290299981e-13,2.021330917e-13,1.784924484e-13,3.261811526e-13,9.267136827e-14,3.123298601e-12,4.549008113e-12,4.975587542e-14,1.014596509e-12,9.920819811e-13
0.75,5.219729193e-13,2.404699869e-12,4.629672754e-13,1.352348778e-13,1.396613814e-14,1.847394264e-13,6.051987159e-14,4.950517013e-13,4.456974501e-13,1.187621264e-12,7.824445049e-14,2.692012072e-13,1.754522660e-13,9.923882635e-13,1.458771390e-13,6.674176524e-14,8.445438077e-14,4.436342072e-14,8.400755793e-13,4.625089024e-13,4.273023685e-14,4.486768637e-12,2.386399950e-13,2.438637057e-13,1.488843019e-13,4.074204453e-13,1.210091351e-13,2.956971683e-12,4.538024817e-12,5.309740072e-14,1.073823432e-12,8.763344968e-13
0.75781,4.389085052e-13,2.465007761e-12,4.566805044e-13,1.599324202e-13,1.903131487e-14,2.150086448e-13,7.401156498e-14,5.136649869e-13,4.392330028e-13,1.209311965e-12,6.662857499e-14,2.820756059e-13,1.670274599e-13,1.068409181e-12,1.377493684e-13,5.485657595e-14,8.346035295e-14,3.960031402e-14,8.451216504e-13,4.498358950e-13,3.960717407e-14,4.350486327e-12,2.452392264e-13,3.349166905e-13,1.299562470e-13,4.703990298e-13,1.425051748e-13,2.831402149e-12,4.432988289e-12,5.696645793e-14,1.161652813e-12,8.386588033e-13
0.76562,4.114145756e-13,2.511928099e-12,4.278879961e-13,1.804304859e-13,2.432817160e-14,2.368260254e-13,7.882016837e-14,5.300928767e-13,4.386782376e-13,1.207665459e-12,6.129862823e-14,3.015451158e-13,1.430359697e-13,1.087360898e-12,1.289334524e-13,4.906246813e-14,8.442904640e-14,3.847312653e-14,8.396257630e-13,4.292492038e-13,3.836481629e-14,4.196959720e-12,2.477995737e-13,3.895225871e-13,1.186651156e-13,5.164369862e-13,1.599674113e-13,2.741309708e-12,4.287239837e-12,5.349402785e-14,1.213265856e-12,8.117940292e-13
0.77344,3.820110201e-13,2.476110405e-12,3.513080915e-13,1.902538863e-13,2.626144602e-14,2.456586277e-13,8.345323817e-14,5.272128893e-13,4.351572309e-13,1.116571103e-12,6.392985850e-14,3.278720405e-13,1.301549048e-13,1.001400600e-12,1.173469436e-13,4.823458142e-14,8.361071071e-14,3.689462448e-14,7.910707543e-13,4.494067911e-13,4.367596039e-14,3.910712297e-12,2.398746310e-13,3.944584540e-13,9.923098041e-14,5.396195984e-13,1.742159261e-13,2.683066901e-12,4.185548207e-12,4.744995686e-14,1.193881888e-12,7.665829384e-13
0.78125,4.215770746e-13,2.544957390e-12,2.737674689e-13,1.988433760e-13,3.631852680e-14,2.637312424e-13,9.817268800e-14,5.191686466e-13,4.239187180e-13,1.125374330e-12,6.933950580e-14,3.445020068e-13,1.180879258e-13,9.443396424e-13,1.012426074e-13,4.993728888e-14,8.175654070e-14,3.686094511e-14,7.628829372e-13,4.224059030e-13,5.445464003e-14,3.820760765e-12,2.414345917e-13,4.237829891e-13,8.049721609e-14,5.188782072e-13,1.776288971e-13,2.632703983e-12,4.017455958e-12,4.589466765e-14,1.158470821e-12,8.320293326e-13
0.78906,5.049770011e-13,2.650013828e-12,2.188309641e-13,2.050021237e-13,5.818735168e-14,2.759195738e-13,1.077722432e-13,5.070194607e-13,4.080465552e-13,1.151132790e-12,7.277078030e-14,3.523517775e-13,1.009607885e-13,8.990066245e-13,8.448462529e-14,5.185679114e-14,8.414249456e-14,3.897587365e-14,7.403011877e-13,3.530462771e-13,7.094234537e-14,3.820580656e-12,2.474464936e-13,4.704710888e-13,6.849058566e-14,4.620852948e-13,1.706145252e-13,2.561545498e-12,3.817357879e-12,4.869258586e-14,1.102702293e-12,9.511971302e-13
0.79688,6.073087086e-13,2.664226262e-12,1.621708019e-13,1.948513973e-13,7.767466382e-14,2.657486410e-13,1.099885488e-13,4.561863791e-13,3.664178350e-13,1.077376788e-12,7.542457379e-14,3.467018284e-13,1.017928954e-13,7.873160752e-13,6.983214116e-14,5.470217500e-14,9.180487365e-14,3.965089266e-14,6.817848572e-13,3.261803250e-13,9.377898420e-14,3.684288493e-12,2.378108291e-13,4.424744805e-13,6.071774021e-14,3.926405934e-13,1.620323366e-13,2.447690056e-12,3.707965910e-12,5.655208450e-14,9.848589420e-13,1.080912621e-12
0.80469,7.764383210e-13,2.766629701e-12,1.123182037e-13,1.921758132e-13,8.382362562e-14,2.661855872e-13,1.216703075e-13,3.973809614e-13,3.221741993e-13,1.071578080e-12,7.846328591e-14,3.271437010e-13,1.156124493e-13,7.110233545e-13,5.827687354e-14,5.908945916e-14,1.104207960e-13,4.334306916e-14,6.482063485e-13,3.074155979e-13,1.133824773e-13,3.662376051e-12,2.295043533e-13,3.653255533e-13,5.541361656e-14,3.223363430e-13,1.561536478e-13,2.315042025e-12,3.625322066e-12,6.955174186e-14,8.763150723e-13,1.299159224e-12
0.8125,9.360244970e-13,2.942338447e-12,8.417240574e-14,2.053340487e-13,8.788348528e-14,2.810608212e-13,1.311104224e-13,3.463462745e-13,2.780659713e-13,1.123460099e-12,7.757811626e-14,2.922003307e-13,1.423428839e-13,6.971184276e-13,5.021888730e-14,6.365604368e-14,1.396997988e-13,5.303393798e-14,6.537165981e-13,2.736826981e-13,1.297561700e-13,3.741782617e-12,2.180307280e-13,3.230469553e-13,5.252487031e-14,2.554630369e-13,1.531858764e-13,2.165000054e-12,3.558886630e-12,8.316716536e-14,8.104372752e-13,1.518297513e-12
0.82031,9.503861431e-13,2.974117290e-12,6.565129364e-14,2.294352753e-13,1.018380399e-13,2.921109659e-13,1.231154643e-13,2.964373841e-13,2.409437398e-13,1.068732282e-12,7.144421824e-14,2.517636955e-13,1.883167096e-13,6.699162461e-13,4.666180289e-14,6.766496702e-14,1.758746770e-13,6.730171423e-14,6.492296991e-13,2.824151220e-13,1.437827393e-13,3.620774932e-12,1.909509557e-13,2.914502271e-13,5.129708309e-14,2.028309446e-13,1.517790830e-13,2.019984460e-12,3.577180726e-12,9.562852494e-14,7.383622767e-13,1.570462378e-12
0.82812,9.272324747e-13,2.988884913e-12,5.331865229e-14,2.715278614e-13,1.115553574e-13,3.202557242e-13,1.107071776e-13,2.628543580e-13,2.202204491e-13,1.030658271e-12,6.616308252e-14,2.152438545e-13,2.348482135e-13,6.769390283e-13,4.596037666e-14,7.071102209e-14,2.141671046e-13,8.671958324e-14,6.654636122e-13,3.011069306e-13,1.487814107e-13,3.500206317e-12,1.595018403e-13,2.245722280e-13,5.216200998e-14,1.682445002e-13,1.487016469e-13,1.918084644e-12,3.613149022e-12,1.110811685e-13,6.876289262e-13,1.586843259e-12
0.83594,9.251549863e-13,3.039317635e-12,5.298088535e-14,3.311564231e-13,1.009626772e-13,3.639615156e-13,1.046013631e-13,2.598542860e-13,2.223414383e-13,1.053023048e-12,6.458585602e-14,1.855996109e-13,2.695317324e-13,7.325183667e-13,4.702469581e-14,7.437585836e-14,2.454676889e-13,1.068877127e-13,7.093846311e-13,2.830944581e-13,1.415620014e-13,3.497725038e-12,1.366902284e-13,1.495788325e-13,5.283970597e-14,1.476734339e-13,1.416079561e-13,1.896270375e-12,3.583648981e-12,1.204472864e-13,6.750949719e-13,1.600626935e-12
0.84375,8.062811128e-13,2.886411069e-12,5.213763775e-14,3.758160545e-13,8.533439492e-14,3.770142511e-13,9.115823391e-14,2.685203493e-13,2.437183347e-13,9.722786052e-13,6.926502894e-14,1.746455122e-13,2.935153355e-13,7.292169451e-13,4.919627932e-14,7.967890525e-14,2.568223174e-13,1.161826850e-13,7.094303145e-13,2.793458362e-13,1.330285825e-13,3.315232929e-12,1.183969560e-13,1.093132971e-13,4.687605095e-14,1.360942393e-13,1.307319573e-13,1.939656140e-12,3.522373775e-12,1.138868696e-13,6.374744583e-13,1.439965943e-12
0.85156,6.240131398e-13,2.607797444e-12,4.797033063e-14,3.986322898e-13,7.837435632e-14,3.701926715e-13,8.131452001e-14,2.861950503e-13,2.764566020e-13,8.445919601e-13,8.224168549e-14,1.806748468e-13,3.090833863e-13,7.022002831e-13,5.060493518e-14,8.315776243e-14,2.479531571e-13,1.157179019e-13,6.904454040e-13,2.848394539e-13,1.249960563e-13,3.077659607e-12,1.074214678e-13,8.866554068e-14,4.152984502e-14,1.261285482e-13,1.151490966e-13,2.062682562e-12,3.438761287e-12,1.029047678e-13,5.799326100e-13,1.207850548e-12
0.85938,5.033859408e-13,2.371523138e-12,5.102424450e-14,4.051390045e-13,7.691002618e-14,3.579318055e-13,8.761411055e-14,3.080344406e-13,3.186194381e-13,7.962761427e-13,1.057025231e-13,2.044121661e-13,2.843464248e-13,6.939199405e-13,4.901920654e-14,8.075404187e-14,2.237739250e-13,1.093479501e-13,6.816992853e-13,2.433516997e-13,1.143491952e-13,2.974249875e-12,1.087672669e-13,6.516977944e-14,4.070418754e-14,1.106480810e-13,9.400881338e-14,2.252660308e-12,3.273828046e-12,9.466787195e-14,5.322801258e-13,1.048399452e-12
0.86719,4.176429648e-13,2.088848789e-12,6.344934453e-14,3.857168369e-13,7.846097828e-14,3.196612472e-13,1.046413676e-13,3.109519734e-13,3.512133273e-13,7.186569743e-13,1.326210685e-13,2.378052353e-13,2.389177788e-13,6.449529176e-13,4.573734994e-14,7.437448950e-14,1.894480099e-13,9.562253680e-14,6.426949920e-13,1.902187594e-13,1.094910139e-13,2.806856801e-12,1.106695044e-13,6.587248849e-14,4.203279530e-14,9.136915540e-14,7.331776494e-14,2.446205207e-12,3.105687109e-12,8.327093603e-14,4.691932158e-13,8.968008201e-13
0.875,3.360137285e-13,1.762316057e-12,8.149672166e-14,3.399285203e-13,8.140040715e-14,2.546642042e-13,1.258483038e-13,3.006988030e-13,3.768092844e-13,6.208345973e-13,1.646012861e-13,2.744126113e-13,2.003106039e-13,5.518109288e-13,4.382399570e-14,6.743985537e-14,1.515514828e-13,7.574621779e-14,5.865712610e-13,1.636004746e-13,1.082352931e-13,2.575350041e-12,1.138030248e-13,8.566248673e-14,4.490580735e-14,7.526073330e-14,6.151219746e-14,2.624653231e-12,3.007743516e-12,6.863444925e-14,3.997159921e-13,7.323983538e-13
0.88281,3.169251870e-13,1.556764130e-12,1.119438421e-13,2.830060929e-13,8.054553218e-14,1.964223608e-13,1.593131267e-13,2.973791302e-13,4.011284356e-13,6.122018206e-13,1.956967805e-13,3.061377161e-13,1.602526409e-13,4.907247853e-13,3.992194935e-14,5.697827064e-14,1.203329297e-13,5.734643256e-14,5.631093217e-13,1.353117787e-13,1.055143350e-13,2.491143439e-12,1.183704743e-13,9.162562233e-14,5.366268254e-14,5.996482642e-14,5.705202886e-14,2.777424178e-12,2.945934049e-12,5.928809521e-14,3.592045868e-13,6.583879687e-13
0.89062,3.189613701e-13,1.427421615e-12,1.654315877e-13,2.348284109e-13,7.963821626e-14,1.563764516e-13,1.999580263e-13,3.069422037e-13,4.256755233e-13,6.252593632e-13,2.089400524e-13,3.303368797e-13,1.198162502e-13,4.487685807e-13,3.670627587e-14,4.541535345e-14,1.035086767e-13,4.643636573e-14,5.513782176e-13,1.138385181e-13,1.011757389e-13,2.418888348e-12,1.178223257e-13,9.044577847e-14,5.962368949e-14,4.997592280e-14,6.119441487e-14,2.850859644e-12,2.925756966e-12,5.738602969e-14,3.405643495e-13,6.096651488e-13
0.89844,2.810393809e-13,1.295794830e-12,2.519953920e-13,1.978723508e-13,8.462253662e-14,1.247128199e-13,2.215374426e-13,3.221079448e-13,4.448340140e-13,6.462747319e-13,2.095679409e-13,3.456749103e-13,9.617237606e-14,3.811933353e-13,3.467074603e-14,3.479991703e-14,9.512897581e-14,3.897700255e-14,5.275095418e-13,1.078765178e-13,9.925635478e-14,2.288722660e-12,1.116825977e-13,1.010383428e-13,5.848224051e-14,4.675638023e-14,7.207105955e-14,2.839003945e-12,2.957674597e-12,5.965792431e-14,3.263618586e-13,5.434885836e-13
0.90625,2.545682342e-13,1.250076900e-12,3.617732733e-13,1.701040890e-13,8.285564314e-14,1.123644248e-13,2.311454067e-13,3.625170339e-13,4.799541240e-13,7.396623695e-13,2.012467179e-13,3.569398651e-13,8.372389841e-14,3.459115589e-13,3.083709766e-14,2.408584928e-14,9.803213174e-14,3.749491125e-14,5.365760007e-13,1.059193274e-13,9.303071606e-14,2.270447111e-12,1.096115843e-13,1.075811783e-13,5.764616919e-14,4.817260354e-14,8.367845412e-14,2.784287209e-12,2.958863332e-12,6.481027760e-14,3.332525521e-13,5.221847863e-13
0.91406,2.404440675e-13,1.242986492e-12,4.783708552e-13,1.476112080e-13,6.669483016e-14,1.129926427e-13,2.440498269e-13,4.009045465e-13,5.065162315e-13,8.385502716e-13,1.802652033e-13,3.568074925e-13,6.931053096e-14,3.319994123e-13,2.826790456e-14,1.566502859e-14,1.022696752e-13,3.929091380e-14,5.522059470e-13,1.062489890e-13,8.269782571e-14,2.299231692e-12,1.099477520e-13,9.551145681e-14,5.649382150e-14,5.205654604e-14,9.300091657e-14,2.673435854e-12,2.911347801e-12,7.305872041e-14,3.451431214e-13,5.293169013e-13
0.92188,1.938128299e-13,1.188028164e-12,6.117329025e-13,1.359689433e-13,5.335616542e-14,1.186452225e-13,2.519058190e-13,4.110844013e-13,5.073496796e-13,8.831364095e-13,1.492994839e-13,3.436951109e-13,6.204870816e-14,2.983912474e-13,2.743497215e-14,1.062238755e-14,1.002744881e-13,3.979973587e-14,5.389141105e-13,1.137986745e-13,7.550062170e-14,2.276504565e-12,1.103270543e-13,8.832470069e-14,5.488035664e-14,5.513125856e-14,9.955201032e-14,2.516440777e-12,2.829437537e-12,8.482873414e-14,3.359849385e-13,5.337087766e-13
0.92969,1.388343943e-13,1.153301765e-12,7.569859401e-13,1.329844809e-13,4.835413467e-14,1.323391234e-13,2.432322311e-13,4.096218533e-13,5.000134594e-13,9.491430397e-13,1.192273591e-13,3.287089848e-13,5.774216957e-14,2.745381607e-13,2.547531821e-14,9.124976577e-15,9.922816957e-14,4.162928837e-14,5.296212828e-13,1.134197835e-13,7.013156131e-14,2.320406099e-12,1.159441608e-13,9.024043172e-14,5.795751497e-14,5.567643387e-14,9.967923022e-14,2.378983312e-12,2.690903492e-12,9.842578549e-14,3.246496204e-13,5.801123174e-13
0.9375,1.097563522e-13,1.148910311e-12,8.727281329e-13,1.279280261e-13,4.590413458e-14,1.412912723e-13,2.264756568e-13,3.869551790e-13,4.690012086e-13,1.004174635e-12,9.501014448e-14,3.061900446e-13,4.902918831e-14,2.703943050e-13,2.257016922e-14,9.763868004e-15,9.355677818e-14,4.399001415e-14,5.232793711e-13,1.023862077e-13,6.673081546e-14,2.419247939e-12,1.244118904e-13,9.926502214e-14,6.933625225e-14,5.272265324e-14,9.289923732e-14,2.268921306e-12,2.502822599e-12,1.065118884e-13,3.148801706e-13,6.605261180e-13
0.94531,8.856789115e-14,1.096333690e-12,9.347309449e-13,1.153366484e-13,4.566591294e-14,1.343736634e-13,2.159953038e-13,3.314817818e-13,4.148637240e-13,9.483629189e-13,7.520736287e-14,2.826039561e-13,4.261594598e-14,2.522107839e-13,2.007605076e-14,1.237793620e-14,8.099798259e-14,4.362467539e-14,4.819412033e-13,1.025218873e-13,6.599139617e-14,2.406005481e-12,1.263315306e-13,1.180087632e-13,8.546342535e-14,4.889356895e-14,8.039520024e-14,2.176515925e-12,2.316728616e-12,1.106788813e-13,2.911131067e-13,7.049684771e-13
0.95312,7.668009556e-14,1.046620913e-12,9.598365964e-13,1.038729710e-13,4.983336788e-14,1.217408177e-13,2.102900052e-13,2.714104023e-13,3.585870004e-13,8.660924740e-13,6.412122978e-14,2.686272986e-13,4.131649132e-14,2.364706959e-13,1.843473875e-14,1.809341175e-14,6.786945167e-14,4.138115505e-14,4.310719744e-13,1.065970309e-13,6.847537536e-14,2.378976850e-12,1.261588154e-13,1.364058095e-13,1.050220462e-13,4.597451465e-14,6.609346153e-14,2.153016120e-12,2.145664900e-12,1.161766478e-13,2.715383259e-13,7.520134755e-13
0.96094,8.098829076e-14,1.036188392e-12,9.496118982e-13,9.692114774e-14,5.766186896e-14,1.100605901e-13,2.025128241e-13,2.212863756e-13,3.086736116e-13,8.138292031e-13,6.018120177e-14,2.631516642e-13,4.438237045e-14,2.406455214e-13,1.780684574e-14,2.551962065e-14,5.563711710e-14,4.031072253e-14,3.934924488e-13,1.075303022e-13,7.195801741e-14,2.389805621e-12,1.244026199e-13,1.426864861e-13,1.278998857e-13,4.531144025e-14,5.091584957e-14,2.190465786e-12,1.987375647e-12,1.220177847e-13,2.679131750e-13,8.074172188e-13
0.96875,7.745001999e-14,9.734215973e-13,8.721909257e-13,9.019791991e-14,7.356285514e-14,9.023915464e-14,1.933021627e-13,1.922859031e-13,2.808486454e-13,7.057690165e-13,6.028489546e-14,2.736390158e-13,5.227004828e-14,2.307644170e-13,1.878223824e-14,3.516801731e-14,4.371239647e-14,4.102757761e-14,3.368588053e-13,1.177906341e-13,7.878498116e-14,2.269878043e-12,1.167541552e-13,1.533770179e-13,1.413909418e-13,4.630974174e-14,3.887159580e-14,2.259185168e-12,1.828603941e-12,1.203002487e-13,2.580646464e-13,7.869280219e-13
0.97656,7.382716953e-14,9.002710964e-13,7.473941641e-13,8.971552179e-14,9.086603531e-14,7.098518064e-14,1.939024284e-13,1.879682685e-13,2.761660845e-13,5.833080112e-13,6.089148954e-14,2.950077367e-13,6.562469822e-14,2.149432693e-13,2.121565668e-14,4.784085585e-14,3.413828652e-14,4.161007195e-14,2.748450042e-13,1.323110002e-13,8.617860082e-14,2.105166782e-12,1.102451684e-13,1.739468587e-13,1.431131482e-13,4.773753187e-14,2.841268168e-14,2.359541404e-12,1.702948880e-12,1.189554528e-13,2.568011216e-13,7.300101178e-13
0.98438,8.538673547e-14,8.619637426e-13,6.145341834e-13,1.007289009e-13,1.039527996e-13,5.998395765e-14,2.017944396e-13,2.085450043e-13,2.929817211e-13,5.172531346e-13,6.348391075e-14,3.217821376e-13,8.078540893e-14,2.114866917e-13,2.456653070e-14,6.155684721e-14,2.790600880e-14,4.500060651e-14,2.321964282e-13,1.334887054e-13,9.306455730e-14,2.000141230e-12,1.081256290e-13,1.809933300e-13,1.420789231e-13,4.763526974e-14,2.372408898e-14,2.472942273e-12,1.588503738e-12,1.242170580e-13,2.653575752e-13,6.937638786e-13
0.99219,1.095651828e-13,8.219328193e-13,4.819344544e-13,1.261897635e-13,1.153263670e-13,5.628180206e-14,2.008598550e-13,2.498793087e-13,3.211479954e-13,4.611840042e-13,6.162948042e-14,3.458205548e-13,9.522717424e-14,2.010628355e-13,2.820601428e-14,7.264544800e-14,2.423401542e-14,5.261396574e-14,2.031934533e-13,1.326732630e-13,9.936196493e-14,1.878607811e-12,1.106281631e-13,1.808272200e-13,1.365311089e-13,4.548628645e-14,2.443109178e-14,2.537173998e-12,1.492962313e-12,1.284880449e-13,2.724558353e-13,6.335544742e-13
1,1.447370628e-13,7.929054472e-13,3.500228721e-13,1.638823781e-13,1.288550531e-13,5.975964500e-14,1.924980551e-13,3.008906449e-13,3.481304894e-13,4.074509146e-13,5.642800924e-14,3.601755541e-13,1.107489728e-13,1.796678303e-13,3.290271466e-14,8.289646319e-14,2.396363935e-14,6.330699605e-14,1.860066203e-13,1.406703157e-13,1.037092590e-13,1.739108200e-12,1.156742581e-13,1.918570648e-13,1.224156862e-13,4.174756989e-14,3.052767530e-14,2.540402312e-12,1.445418597e-12,1.288468652e-13,2.801582957e-13,5.528612236e-13
1.0078,1.990235427e-13,8.233122423e-13,2.369633224e-13,2.099414682e-13,1.373806749e-13,7.203699131e-14,1.817203890e-13,3.586993440e-13,3.721693827e-13,3.969699985e-13,5.249359123e-14,3.599495793e-13,1.284543708e-13,1.725562205e-13,3.832807663e-14,9.324097827e-14,2.801569081e-14,7.533660728e-14,1.984839675e-13,1.450669555e-13,1.039002901e-13,1.683630846e-12,1.267786929e-13,2.037617170e-13,1.066940453e-13,3.670053852e-14,4.338465876e-14,2.495441695e-12,1.450838511e-12,1.279913537e-13,2.983395504e-13,4.998124510e-13
1.0156,2.628659554e-13,8.879210390e-13,1.515789520e-13,2.542548224e-13,1.330503813e-13,8.851641858e-14,1.645643472e-13,4.010279341e-13,3.769699573e-13,4.026585528e-13,4.797849548e-14,3.429119803e-13,1.457053277e-13,1.751073823e-13,4.233105252e-14,9.842757472e-14,3.583162682e-14,8.808997492e-14,2.375553687e-13,1.616100882e-13,9.832437189e-14,1.655685687e-12,1.350689946e-13,1.991847754e-13,9.485441735e-14,3.136400665e-14,6.131662230e-14,2.368041478e-12,1.499557227e-12,1.260852859e-13,3.174798371e-13,4.600175187e-13
1.0234,3.394064258e-13,9.652464557e-13,9.189833048e-14,2.912000580e-13,1.267304639e-13,1.060621321e-13,1.389477950e-13,4.265603418e-13,3.609705365e-13,3.995887816e-13,4.351966910e-14,3.120063685e-13,1.599701725e-13,1.841979158e-13,4.488240099e-14,9.746668642e-14,4.666210596e-14,1.025261047e-13,2.999709624e-13,1.994715766e-13,8.801891864e-14,1.609652274e-12,1.354161395e-13,1.856927397e-13,8.714641169e-14,2.794532578e-14,8.298864667e-14,2.177685650e-12,1.603274478e-12,1.199806917e-13,3.319607399e-13,4.110097789e-13
1.0312,4.233663811e-13,1.076456274e-12,5.359513810e-14,3.140220325e-13,1.186950962e-13,1.262781591e-13,1.111636243e-13,4.432957855e-13,3.385875780e-13,4.184285646e-13,4.021893372e-14,2.736715350e-13,1.724630934e-13,2.147898278e-13,4.689397971e-14,9.373759150e-14,5.980812015e-14,1.132284939e-13,3.862145205e-13,2.478952961e-13,7.438792501e-14,1.613928987e-12,1.322983911e-13,1.793865834e-13,8.458030420e-14,2.848251655e-14,1.081129632e-13,1.979616438e-12,1.747206053e-12,1.093843437e-13,3.537027075e-13,3.758382440e-13
1.0391,4.916205088e-13,1.184708149e-12,3.299524981e-14,3.125642814e-13,1.021688077e-13,1.439045246e-13,9.068753439e-14,4.352177295e-13,3.057381881e-13,4.436808818e-13,3.820519980e-14,2.338662977e-13,1.839116475e-13,2.538652165e-13,4.759580473e-14,8.829844969e-14,7.252979994e-14,1.188882430e-13,4.744490650e-13,3.073518185e-13,5.892246041e-14,1.639797843e-12,1.235984722e-13,1.707336202e-13,8.599929588e-14,3.104982033e-14,1.342633617e-13,1.784701599e-12,1.889383204e-12,9.606618655e-14,3.698748882e-13,3.626778884e-13
1.0469,5.337781558e-13,1.256540157e-12,2.657523651e-14,2.902808181e-13,8.307552221e-14,1.522769022e-13,8.238637860e-14,4.034501179e-13,2.697038611e-13,4.505065132e-13,3.562241325e-14,1.989633977e-13,1.895830327e-13,2.851640966e-13,4.489621297e-14,7.864398796e-14,8.182823468e-14,1.209682204e-13,5.546341691e-13,3.758680059e-13,4.381876198e-14,1.634375521e-12,1.084328856e-13,1.569178725e-13,9.004253445e-14,3.558288042e-14,1.575268822e-13,1.598586302e-12,2.019711495e-12,8.263289745e-14,3.740472702e-13,3.393944698e-13
1.0547,5.784328142e-13,1.331856427e-12,2.967954768e-14,2.606278040e-13,6.962035279e-14,1.601525893e-13,8.682551928e-14,3.628529114e-13,2.369202064e-13,4.630290611e-13,3.180011312e-14,1.721350093e-13,1.906056656e-13,3.230739337e-13,4.055378124e-14,6.669822576e-14,8.657875652e-14,1.209899672e-13,6.285447293e-13,4.286600143e-13,3.094012146e-14,1.656999275e-12,9.426503843e-14,1.442068675e-13,9.733642249e-14,4.018517230e-14,1.744768198e-13,1.450950257e-12,2.142972898e-12,6.850532842e-14,3.786169230e-13,3.267131726e-13
1.0625,6.144188693e-13,1.412152677e-12,3.653835332e-14,2.290516060e-13,6.292436026e-14,1.650010244e-13,1.090179152e-13,3.217433341e-13,2.097894654e-13,4.885461495e-13,2.726684960e-14,1.509521697e-13,1.821379227e-13,3.555566598e-13,3.577769485e-14,5.623375437e-14,8.796580399e-14,1.220283931e-13,6.968446319e-13,4.576912918e-13,2.172264134e-14,1.722128547e-12,8.633083598e-14,1.341976360e-13,1.042289898e-13,4.368825610e-14,1.824265537e-13,1.336135823e-12,2.227757546e-12,5.342660447e-14,3.891882376e-13,3.268723556e-13
1.0703,6.287683707e-13,1.464936139e-12,4.605264925e-14,1.976269286e-13,6.264695954e-14,1.610328409e-13,1.429175163e-13,2.814138278e-13,1.919625953e-13,4.896403215e-13,2.207975731e-14,1.375326196e-13,1.667311405e-13,3.666165774e-13,3.017891684e-14,4.714658028e-14,8.605053820e-14,1.220539827e-13,7.390792288e-13,4.776679306e-13,1.535691654e-14,1.760072810e-12,8.156681482e-14,1.274431200e-13,1.096370030e-13,4.476201129e-14,1.783031892e-13,1.232377644e-12,2.247738357e-12,4.196027061e-14,3.963578106e-13,3.146623796e-13
1.0781,6.487006442e-13,1.528981655e-12,5.558729131e-14,1.793657174e-13,7.133833214e-14,1.555402152e-13,1.815791951e-13,2.439225961e-13,1.777860859e-13,4.954542991e-13,1.713742633e-14,1.261463140e-13,1.536566611e-13,3.672088771e-13,2.366257279e-14,3.839208548e-14,8.163488080e-14,1.243991288e-13,7.766008657e-13,4.753289572e-13,1.273641719e-14,1.815407990e-12,8.461399391e-14,1.234928804e-13,1.130249039e-13,4.285718886e-14,1.654599668e-13,1.137244685e-12,2.241649383e-12,3.555099919e-14,4.126988347e-13,3.039351595e-13
1.0859,6.773358876e-13,1.605983302e-12,6.486226065e-14,1.706211388e-13,8.541362894e-14,1.501428713e-13,2.196782769e-13,2.109920719e-13,1.668873901e-13,5.163761640e-13,1.337928917e-14,1.133224559e-13,1.397417680e-13,3.679872401e-13,1.768181094e-14,3.188314116e-14,7.894511773e-14,1.282742326e-13,8.111388224e-13,4.517776959e-13,1.251328599e-14,1.893877991e-12,9.170057947e-14,1.144288588e-13,1.145878953e-13,4.027562760e-14,1.452603429e-13,1.054288326e-12,2.206697525e-12,3.263483571e-14,4.425954886e-13,3.018299702e-13
1.0938,6.948722483e-13,1.653129744e-12,7.088336669e-14,1.652479828e-13,9.847658306e-14,1.426862298e-13,2.494095347e-13,1.868547566e-13,1.587488201e-13,5.198071212e-13,1.109758200e-14,1.000964960e-13,1.270112670e-13,3.648711496e-13,1.336167290e-14,2.906691197e-14,8.046345302e-14,1.310962572e-13,8.239468565e-13,4.257628649e-13,1.412158539e-14,1.932181645e-12,9.868049166e-14,1.045816101e-13,1.119547389e-13,3.793289944e-14,1.201001136e-13,9.762868105e-13,2.111968256e-12,3.544400043e-14,4.729911851e-13,2.974293473e-13
1.1016,6.906993941e-13,1.664057251e-12,7.426280546e-14,1.576803318e-13,1.060467173e-13,1.331649898e-13,2.686333620e-13,1.621125683e-13,1.475733734e-13,5.148686368e-13,9.946998116e-15,8.573701099e-14,1.216320381e-13,3.572995075e-13,1.052144136e-14,2.829868898e-14,8.464156578e-14,1.301843080e-13,8.184654297e-13,4.070340102e-13,1.703633281e-14,1.929350745e-12,1.026625987e-13,1.011023783e-13,1.060229386e-13,3.848574705e-14,9.611240993e-14,9.134167351e-13,2.019881963e-12,4.615093921e-14,5.004182096e-13,2.941709183e-13
1.1094,6.757929240e-13,1.649838268e-12,7.597214410e-14,1.451092510e-13,1.079735331e-13,1.255308415e-13,2.734717857e-13,1.393387842e-13,1.356878551e-13,5.191289144e-13,1.074050827e-14,7.427634026e-14,1.205399804e-13,3.549811751e-13,9.448772151e-15,2.961338051e-14,9.118055824e-14,1.247147022e-13,8.011809048e-13,3.897485304e-13,2.065894828e-14,1.911535467e-12,1.057568549e-13,1.071077562e-13,9.726454629e-14,4.252316019e-14,7.840496111e-14,8.896016325e-13,1.943343151e-12,6.416445883e-14,5.213056362e-13,3.034062070e-13
1.1172,6.451159720e-13,1.599903027e-12,7.784592899e-14,1.282523102e-13,1.046176187e-13,1.182609463e-13,2.628010066e-13,1.221614715e-13,1.243383959e-13,5.240589814e-13,1.270952391e-14,6.767698935e-14,1.206922753e-13,3.512603644e-13,1.079679960e-14,3.280590859e-14,9.793754046e-14,1.148399385e-13,7.667218326e-13,3.755208870e-13,2.338750266e-14,1.861939158e-12,1.045511404e-13,1.191872147e-13,8.843845280e-14,4.989374775e-14,6.967065323e-14,8.999718932e-13,1.860738725e-12,8.775357381e-14,5.287381111e-13,3.216519984e-13
1.125,5.832702336e-13,1.508199307e-12,7.641259771e-14,1.080857392e-13,9.340450353e-14,1.100686447e-13,2.392839045e-13,1.103945836e-13,1.148416139e-13,5.174065762e-13,1.608265341e-14,6.709468926e-14,1.218552159e-13,3.392768742e-13,1.461423383e-14,3.717840346e-14,1.015424124e-13,1.017272049e-13,7.132371370e-13,3.666282913e-13,2.501103895e-14,1.765484365e-12,1.047713153e-13,1.479908434e-13,7.977930225e-14,6.028060584e-14,7.240804819e-14,9.468562223e-13,1.799980504e-12,1.160566040e-13,5.171009719e-13,3.320439973e-13
1.1328,4.926567804e-13,1.395153241e-12,6.875271125e-14,8.953350651e-14,7.765207969e-14,1.036163929e-13,2.133783955e-13,1.153057515e-13,1.184354445e-13,5.054490478e-13,2.253701183e-14,7.746127678e-14,1.210241849e-13,3.153401740e-13,2.082326480e-14,4.310053664e-14,1.016852047e-13,8.576406772e-14,6.507088255e-13,3.578670311e-13,2.528592126e-14,1.651576342e-12,1.108416887e-13,1.923726141e-13,7.028319437e-14,7.079871484e-14,8.439593175e-14,1.044675374e-12,1.756337065e-12,1.430203016e-13,4.864860526e-13,3.336261488e-13
1.1406,4.007004792e-13,1.289554604e-12,6.145892907e-14,7.847718226e-14,6.269948718e-14,9.950349852e-14,1.860145403e-13,1.325301109e-13,1.304048180e-13,5.007294496e-13,3.311135019e-14,9.381531122e-14,1.131314774e-13,2.865842662e-13,2.939300721e-14,4.960828918e-14,9.786885791e-14,7.267085567e-14,5.909127306e-13,3.394542008e-13,2.323199843e-14,1.545990082e-12,1.224894259e-13,2.370426681e-13,6.241483952e-14,7.880602123e-14,1.030883305e-13,1.150747005e-12,1.682704580e-12,1.693961069e-13,4.480952643e-13,3.316454017e-13
1.1484,3.148317900e-13,1.181200796e-12,5.382251688e-14,7.435974839e-14,5.212796790e-14,9.551168699e-14,1.600721025e-13,1.629054053e-13,1.508680369e-13,4.824837543e-13,4.761349989e-14,1.158208392e-13,9.816563964e-14,2.484262802e-13,4.015316712e-14,5.507774507e-14,8.756359259e-14,6.363954196e-14,5.268146073e-13,3.131074659e-13,2.136404508e-14,1.434052495e-12,1.415572998e-13,2.793895302e-13,5.878048545e-14,8.262593967e-14,1.265497892e-13,1.255918917e-12,1.579221824e-12,1.900579349e-13,4.028092165e-13,3.127053958e-13
1.1562,2.280809113e-13,1.067961524e-12,4.331028078e-14,7.617683299e-14,4.560362422e-14,9.348606900e-14,1.371228376e-13,2.048263194e-13,1.796481116e-13,4.382439541e-13,6.572719010e-14,1.415570661e-13,8.045731422e-14,2.012646325e-13,5.156650123e-14,6.011565766e-14,7.568908885e-14,5.851993420e-14,4.574588992e-13,2.926237176e-13,2.191567619e-14,1.316758086e-12,1.622829414e-13,3.265059198e-13,5.936900454e-14,8.231780748e-14,1.492442065e-13,1.358931916e-12,1.456978945e-12,1.979161367e-13,3.510743888e-13,2.773785596e-13
1.1641,1.584874255e-13,9.758546685e-13,3.409452855e-14,8.265922596e-14,4.352569904e-14,9.536586738e-14,1.208782028e-13,2.475953740e-13,2.080992997e-13,3.962229062e-13,8.473748667e-14,1.627420354e-13,6.382374936e-14,1.575619308e-13,6.335555742e-14,6.600316770e-14,6.436379690e-14,5.809723410e-14,3.921194062e-13,2.735418166e-13,2.332938505e-14,1.234531730e-12,1.823381743e-13,3.593973594e-13,6.184329292e-14,7.830674048e-14,1.680952280e-13,1.432633070e-12,1.310726919e-12,1.942142682e-13,3.074696922e-13,2.497279703e-13
1.1719,1.100813004e-13,8.866375331e-13,3.131066708e-14,8.654767205e-14,4.296878773e-14,9.778281562e-14,1.140682549e-13,2.831279446e-13,2.342820285e-13,3.467949176e-13,1.004363046e-13,1.796136146e-13,4.702703766e-14,1.252782771e-13,7.548864450e-14,6.944688694e-14,5.098245889e-14,6.090467851e-14,3.284936394e-13,2.549649067e-13,2.739341906e-14,1.163994825e-12,1.922256832e-13,3.563053326e-13,6.613883125e-14,7.045992699e-14,1.801739522e-13,1.468236808e-12,1.137994521e-12,1.812380019e-13,2.657965568e-13,2.266888492e-13
1.1797,8.377434999e-14,8.034950134e-13,3.660004414e-14,8.806943805e-14,4.233188806e-14,1.000259289e-13,1.149787122e-13,3.008072542e-13,2.507081495e-13,2.862338091e-13,1.088684882e-13,1.906783060e-13,3.183554204e-14,1.056025149e-13,8.615908717e-14,6.967018736e-14,3.876322380e-14,6.535828297e-14,2.682306183e-13,2.596493727e-13,3.172676983e-14,1.102647888e-12,1.903110594e-13,3.363181020e-13,7.501610133e-14,6.171302751e-14,1.805916858e-13,1.473776857e-12,1.010233256e-12,1.590635982e-13,2.333388109e-13,2.091640666e-13
1.1875,7.770285843e-14,7.468595580e-13,4.981312068e-14,8.645095117e-14,4.225408607e-14,1.027319426e-13,1.178105197e-13,3.027860501e-13,2.606495494e-13,2.370748419e-13,1.118550866e-13,1.963589961e-13,2.077617900e-14,1.030723375e-13,9.309984140e-14,6.802201719e-14,2.937422724e-14,6.830293665e-14,2.245801981e-13,2.774603822e-13,3.452474831e-14,1.079217905e-12,1.765460073e-13,3.068248882e-13,8.540692059e-14,5.573258162e-14,1.751855954e-13,1.458636054e-12,9.333678064e-13,1.306922763e-13,2.142495080e-13,2.076314543e-13
1.1953,9.023292166e-14,7.137054540e-13,7.149429224e-14,7.989819688e-14,4.313243509e-14,1.036048378e-13,1.284695923e-13,2.925422177e-13,2.631880695e-13,2.072770558e-13,1.060251454e-13,1.958781762e-13,1.521025918e-14,1.149978746e-13,9.582704846e-14,6.373456998e-14,2.226955595e-14,6.930450046e-14,2.022462977e-13,2.840904234e-13,3.531168075e-14,1.087025676e-12,1.543992064e-13,2.641781893e-13,9.323745156e-14,5.299433750e-14,1.646725383e-13,1.404867493e-12,8.941439079e-13,1.012507536e-13,2.043240759e-13,2.161299599e-13
1.2031,1.183674157e-13,6.892765963e-13,1.039826807e-13,6.898027744e-14,4.132131842e-14,9.745642389e-14,1.489202016e-13,2.601114104e-13,2.525706321e-13,1.914046726e-13,9.606088975e-14,1.926356210e-13,1.222570453e-14,1.317262971e-13,9.639786886e-14,5.838985260e-14,1.772016693e-14,7.155788488e-14,1.968827470e-13,3.001102397e-13,3.470716438e-14,1.091103390e-12,1.260221577e-13,2.085522853e-13,9.694297845e-14,5.485678802e-14,1.492119125e-13,1.324849591e-12,9.154649016e-13,7.517173355e-14,2.000808014e-13,2.233373261e-13
1.2109,1.684491493e-13,6.809262588e-13,1.468603559e-13,5.684236490e-14,3.358475515e-14,9.108676794e-14,1.741793603e-13,2.203448237e-13,2.372468439e-13,1.974127793e-13,8.393278781e-14,1.872564641e-13,1.067063716e-14,1.614866873e-13,9.324846681e-14,5.132385106e-14,1.540781656e-14,7.355557840e-14,2.076797780e-13,3.149366420e-13,3.225917028e-14,1.108507927e-12,9.898172094e-14,1.651217424e-13,9.984897008e-14,5.972934448e-14,1.317328970e-13,1.227306508e-12,9.629753379e-13,5.334120999e-14,1.990535494e-13,2.390497102e-13
1.2188,2.269853015e-13,6.935684829e-13,1.874534301e-13,4.929429537e-14,2.605078445e-14,8.985480035e-14,1.985343586e-13,1.883051311e-13,2.192113685e-13,2.258002200e-13,7.136306004e-14,1.762719305e-13,1.014150896e-14,1.945134911e-13,8.426900018e-14,4.316949683e-14,1.608085240e-14,7.129424983e-14,2.305820337e-13,3.064252794e-13,2.752435304e-14,1.149494532e-12,7.762103357e-14,1.426997319e-13,9.826441110e-14,6.726262362e-14,1.166260957e-13,1.097914424e-12,9.925440176e-13,3.640431915e-14,2.032387725e-13,2.690425587e-13
1.2266,2.671932142e-13,6.840582386e-13,2.154667570e-13,4.526062232e-14,2.487483435e-14,9.047391237e-14,2.262464197e-13,1.680848422e-13,1.981932063e-13,2.449858026e-13,6.304546331e-14,1.637811448e-13,1.110591691e-14,2.122280910e-13,7.294402860e-14,3.587190627e-14,1.732052987e-14,6.440080176e-14,2.402994595e-13,2.903111814e-13,2.455309682e-14,1.153702331e-12,6.377604772e-14,1.405008013e-13,8.853683901e-14,7.604669360e-14,1.070028322e-13,9.637057827e-13,1.000260232e-12,2.380230921e-14,1.967396393e-13,3.018706232e-13
1.2344,3.169270277e-13,6.580629605e-13,2.378044440e-13,4.701772631e-14,2.382692675e-14,9.933394669e-14,2.570996367e-13,1.674288188e-13,1.797234636e-13,2.680627037e-13,5.718598591e-14,1.488239162e-13,1.234974194e-14,2.307131226e-13,6.130351987e-14,3.006099601e-14,1.874053712e-14,5.732696308e-14,2.439151480e-13,2.732329344e-13,2.473908005e-14,1.144234998e-12,5.695013752e-14,1.584394771e-13,7.629941435e-14,8.665156884e-14,1.042717538e-13,8.516044420e-13,9.823718169e-13,1.596159160e-14,1.821574916e-13,3.494453386e-13
1.2422,3.799109740e-13,6.474862160e-13,2.535771659e-13,5.674849082e-14,2.383730725e-14,1.229873194e-13,2.787290367e-13,1.829926667e-13,1.621556751e-13,3.086318093e-13,5.414850309e-14,1.299183826e-13,1.393823444e-14,2.513665699e-13,4.906715285e-14,2.549048232e-14,2.070096046e-14,4.903161334e-14,2.473769491e-13,2.478427877e-13,2.653409780e-14,1.161412734e-12,5.684702125e-14,1.874134574e-13,6.627153398e-14,9.697414570e-14,1.091840595e-13,7.610451756e-13,9.086915622e-13,1.309789655e-14,1.668573318e-13,4.316825336e-13
1.25,4.036668328e-13,6.209364579e-13,2.429638420e-13,7.084776928e-14,3.224745721e-14,1.482147568e-13,2.849025244e-13,2.080375260e-13,1.426297770e-13,3.179961320e-13,5.195811495e-14,1.093579519e-13,1.861939141e-14,2.598834785e-13,3.759135652e-14,2.299716801e-14,2.136391735e-14,3.905230044e-14,2.436632146e-13,2.145841799e-13,3.267170902e-14,1.156752112e-12,5.931440565e-14,2.418795496e-13,5.778074002e-14,1.039355325e-13,1.206282586e-13,7.108977290e-13,8.137504988e-13,1.388621547e-14,1.473404511e-13,5.032376317e-13
1.2578,3.941671418e-13,5.813567197e-13,2.153151855e-13,9.137176728e-14,4.763250895e-14,1.767853235e-13,2.851269124e-13,2.337450801e-13,1.264177681e-13,3.068623707e-13,4.844870901e-14,9.164177441e-14,2.520761573e-14,2.642584828e-13,2.916117694e-14,2.286490748e-14,1.977352874e-14,2.938728091e-14,2.403886853e-13,1.911511291e-13,4.100553262e-14,1.129354030e-12,6.193984929e-14,3.177161343e-13,5.297230243e-14,1.115364912e-13,1.375705566e-13,7.155432613e-13,7.338722375e-13,1.762460468e-14,1.262362917e-13,5.630877110e-13
1.2656,4.021092863e-13,5.699471570e-13,1.889671469e-13,1.144603529e-13,6.332972741e-14,2.093878196e-13,2.779405018e-13,2.506785387e-13,1.081427661e-13,3.164822723e-13,4.423062506e-14,7.594473438e-14,3.358439166e-14,2.772428025e-13,2.377225669e-14,2.287968235e-14,1.756615033e-14,2.254438121e-14,2.599111373e-13,1.720736789e-13,4.852066194e-14,1.142585258e-12,6.345719160e-14,3.813012593e-13,5.659286169e-14,1.236229986e-13,1.579769728e-13,7.575634086e-13,6.749264775e-13,2.740776964e-14,1.163981488e-13,6.336523895e-13
1.2734,3.903001118e-13,5.634996182e-13,1.647616309e-13,1.330441778e-13,7.942565786e-14,2.304701843e-13,2.511073767e-13,2.553969328e-13,9.242049997e-14,3.143713458e-13,4.029252799e-14,6.561619999e-14,4.596310140e-14,2.871541240e-13,2.096058769e-14,2.143615863e-14,1.435810377e-14,1.778970034e-14,2.939167465e-13,1.498220527e-13,5.518438022e-14,1.147346994e-12,6.163854386e-14,4.296722478e-13,6.371831734e-14,1.339062344e-13,1.767411380e-13,8.333089209e-13,6.483735297e-13,4.320493042e-14,1.165768416e-13,6.557634152e-13
1.2812,3.485885224e-13,5.517808672e-13,1.421415449e-13,1.448263074e-13,9.886421213e-14,2.347583321e-13,2.104390021e-13,2.430765836e-13,7.823595149e-14,2.930727781e-13,3.696708763e-14,6.180241187e-14,5.890682877e-14,2.809780699e-13,2.018022899e-14,2.062067564e-14,1.151171039e-14,1.520099106e-14,3.326312362e-13,1.461253375e-13,6.164737714e-14,1.115400345e-12,5.673326038e-14,4.871315553e-13,7.133070375e-14,1.392192889e-13,1.883883638e-13,9.223121163e-13,6.796386651e-13,6.304455563e-14,1.274267228e-13,6.158697210e-13
1.2891,3.171250866e-13,5.544248652e-13,1.312088707e-13,1.471836910e-13,1.142440700e-13,2.288900138e-13,1.707175532e-13,2.248750233e-13,6.984637424e-14,2.897103448e-13,3.721268432e-14,6.439458284e-14,6.661674407e-14,2.784886158e-13,2.085739211e-14,2.071602472e-14,9.386757437e-15,1.485412026e-14,3.803265309e-13,1.499850194e-13,6.814169967e-14,1.103180080e-12,5.209044581e-14,5.348212561e-13,7.935130715e-14,1.417553720e-13,1.919015053e-13,1.009107600e-12,7.382027636e-13,8.939636019e-14,1.487184235e-13,5.628292490e-13
1.2969,3.028907246e-13,5.579912239e-13,1.364470694e-13,1.410837757e-13,1.153726809e-13,2.132773337e-13,1.321313315e-13,2.097043351e-13,6.919089949e-14,2.872466709e-13,4.230817367e-14,7.374383132e-14,7.468915328e-14,2.733069665e-13,2.373993549e-14,1.950836674e-14,8.215155187e-15,1.582356721e-14,4.172834327e-13,1.541779726e-13,7.477053377e-14,1.085230333e-12,5.022811820e-14,5.331244032e-13,8.191850832e-14,1.408214690e-13,1.892336132e-13,1.078602258e-12,8.226986146e-13,1.193259758e-13,1.750886222e-13,4.991610465e-13
1.3047,2.876761005e-13,5.412910297e-13,1.562064328e-13,1.264385630e-13,1.086466160e-13,1.843987121e-13,9.427494203e-14,1.910778753e-13,7.387350874e-14,2.593247963e-13,5.213736798e-14,8.824689070e-14,8.651385747e-14,2.452021462e-13,2.581933021e-14,1.743867174e-14,9.040298388e-15,1.739797876e-14,4.238568564e-13,1.801299646e-13,8.439232369e-14,1.016918045e-12,4.725979935e-14,5.321700332e-13,7.653370893e-14,1.340246419e-13,1.768565190e-13,1.107553103e-12,9.410491622e-13,1.455295609e-13,1.964171640e-13,4.201635681e-13
1.3125,2.884369457e-13,5.253127920e-13,1.869072164e-13,1.087512787e-13,1.039667263e-13,1.515957317e-13,6.300319239e-14,1.795653930e-13,8.119582414e-14,2.358910147e-13,6.577199483e-14,1.023644698e-13,9.703760555e-14,2.153364538e-13,2.591870454e-14,1.601850824e-14,1.056182274e-14,2.000886222e-14,4.084104160e-13,2.007841970e-13,9.923024809e-14,9.588242724e-13,4.691994621e-14,5.514121457e-13,6.738472037e-14,1.218418681e-13,1.564575492e-13,1.101176618e-12,1.062902719e-12,1.637119427e-13,2.151368803e-13,3.659357561e-13
1.3203,3.240289703e-13,5.207616320e-13,2.322346199e-13,9.553135557e-14,9.650016193e-14,1.260964952e-13,4.326574183e-14,1.763107102e-13,8.765277606e-14,2.259159336e-13,8.020941324e-14,1.132952090e-13,1.085769528e-13,1.916963355e-13,2.539148286e-14,1.518817821e-14,1.281589628e-14,2.347701347e-14,3.804951633e-13,1.963366668e-13,1.190785960e-13,9.316260229e-13,4.892903884e-14,5.457017218e-13,5.977044756e-14,1.054106269e-13,1.324044471e-13,1.052741909e-12,1.181337872e-12,1.764927083e-13,2.278041401e-13,3.582923101e-13
1.3281,3.477869399e-13,5.011962212e-13,2.955958737e-13,9.006279450e-14,8.178535744e-14,1.066078218e-13,3.232615789e-14,1.727479221e-13,9.011002919e-14,2.019372703e-13,9.087299024e-14,1.206458121e-13,1.281998212e-13,1.586204331e-13,2.473186392e-14,1.485017562e-14,1.541269546e-14,2.767801987e-14,3.308549087e-13,1.899784261e-13,1.398235660e-13,8.831092717e-13,5.055064756e-14,5.273966429e-13,5.532997667e-14,8.942331363e-14,1.113378062e-13,9.703750610e-13,1.316493355e-12,1.804631977e-13,2.217541445e-13,3.710259952e-13
1.3359,3.636878557e-13,4.932108295e-13,3.681702312e-13,9.447162539e-14,6.597495184e-14,9.707434808e-14,2.710780542e-14,1.699173148e-13,8.847576865e-14,1.883158026e-13,9.517660005e-14,1.205803303e-13,1.503148637e-13,1.251962141e-13,2.237449655e-14,1.498640176e-14,1.830464262e-14,3.192601146e-14,2.739579596e-13,1.811163827e-13,1.539867525e-13,8.546106935e-13,5.421567373e-14,5.353477139e-13,5.698736233e-14,7.475195061e-14,9.155641740e-14,8.689542515e-13,1.443909294e-12,1.691834277e-13,2.083074520e-13,4.140111119e-13
1.3438,4.026458943e-13,5.174400988e-13,4.327931653e-13,1.111343394e-13,5.553651959e-14,1.007625177e-13,2.790422842e-14,1.640322206e-13,8.501889155e-14,2.025674261e-13,9.548994361e-14,1.116592060e-13,1.654486763e-13,1.044091164e-13,1.997114163e-14,1.528791727e-14,2.155978575e-14,3.702252484e-14,2.333829170e-13,1.529325129e-13,1.596210385e-13,8.729187529e-13,6.278720995e-14,5.320273858e-13,6.722349160e-14,5.934282415e-14,7.335246377e-14,7.522807412e-13,1.519311100e-12,1.469811018e-13,1.945325911e-13,4.797951240e-13
1.3516,4.201588787e-13,5.395220420e-13,4.836798748e-13,1.338890441e-13,4.969618079e-14,1.102058762e-13,3.604323942e-14,1.517123788e-13,8.458798768e-14,2.184143457e-13,8.874133706e-14,9.883142192e-14,1.782268056e-13,8.811645042e-14,1.803327304e-14,1.583999517e-14,2.384104742e-14,4.131858938e-14,2.010869979e-13,1.213497104e-13,1.572616295e-13,8.735153544e-13,7.818579936e-14,4.816793679e-13,8.039301461e-14,4.768476379e-14,6.058329821e-14,6.360656902e-13,1.574540394e-12,1.229856205e-13,1.743694755e-13,5.078146224e-13
1.3594,3.896962921e-13,5.735916961e-13,5.319016530e-13,1.633688488e-13,4.557059217e-14,1.225143369e-13,4.613954236e-14,1.349372512e-13,9.156490668e-14,2.465388547e-13,7.658477832e-14,8.667636833e-14,1.903455244e-13,7.692773005e-14,1.647311375e-14,1.637881931e-14,2.520524650e-14,4.136067722e-14,1.737841914e-13,1.011149365e-13,1.465566694e-13,8.647345981e-13,1.016132379e-13,4.365141254e-13,9.216059413e-14,4.088123936e-14,5.046619552e-14,5.341954573e-13,1.582857346e-12,9.811328101e-14,1.497964240e-13,4.991511880e-13
1.3672,3.593982813e-13,6.399652648e-13,5.573542693e-13,1.953143471e-13,4.041772829e-14,1.378637796e-13,5.481843176e-14,1.151747608e-13,1.084307312e-13,2.958302027e-13,6.378735481e-14,7.664789586e-14,1.899561153e-13,7.913266972e-14,1.605937658e-14,1.617790927e-14,2.723802157e-14,3.970494293e-14,1.629148457e-13,8.568096058e-14,1.272921211e-13,8.858367672e-13,1.324871481e-13,4.025125174e-13,1.043788597e-13,3.816313858e-14,4.225664164e-14,4.518086475e-13,1.516639767e-12,7.159999305e-14,1.358563746e-13,4.893763415e-13
1.375,3.337738259e-13,6.863065171e-13,5.413910912e-13,2.157784816e-13,3.632740235e-14,1.433894323e-13,6.971243598e-14,9.703798838e-14,1.351783949e-13,3.167518568e-13,5.387694790e-14,7.408489871e-14,1.725871963e-13,8.631198175e-14,1.610314513e-14,1.449239267e-14,2.780146767e-14,3.640722493e-14,1.557289347e-13,7.314919190e-14,1.049603684e-13,8.773012107e-13,1.635008978e-13,3.358577850e-13,1.124510653e-13,3.727939604e-14,3.491149128e-14,4.033228914e-13,1.407375221e-12,4.981017530e-14,1.251215718e-13,4.475774374e-13
1.3828,2.797296999e-13,7.124525886e-13,4.944042443e-13,2.234644537e-13,3.639829241e-14,1.374666664e-13,9.021521405e-14,7.881959935e-14,1.670451787e-13,3.116271923e-13,4.717526012e-14,7.901340138e-14,1.569056896e-13,9.798059399e-14,1.661942528e-14,1.278178222e-14,2.763250604e-14,3.145089987e-14,1.447243380e-13,7.427373487e-14,8.498772968e-14,8.309847712e-13,1.928785875e-13,2.707432754e-13,1.132712276e-13,3.848356338e-14,3.062413913e-14,3.926894884e-13,1.298034584e-12,3.416022428e-14,1.191900717e-13,3.717876480e-13
1.3906,2.144256553e-13,7.459065560e-13,4.347897031e-13,2.179698692e-13,4.071090998e-14,1.234420526e-13,1.098116000e-13,6.795694840e-14,2.001910397e-13,3.146120689e-13,4.386002172e-14,9.106695485e-14,1.451601078e-13,1.198513059e-13,1.604727096e-14,1.159202958e-14,2.674938037e-14,2.611510042e-14,1.389576766e-13,7.330257123e-14,7.051792903e-14,8.113557475e-13,2.158622783e-13,2.356091595e-13,1.113123027e-13,4.220958319e-14,2.902357289e-14,4.306920616e-13,1.179211718e-12,2.314032189e-14,1.233208092e-13,3.105582328e-13
1.3984,1.703855869e-13,7.606675129e-13,3.681502100e-13,2.003101755e-13,4.907551653e-14,1.060347038e-13,1.258796167e-13,6.445015660e-14,2.232369942e-13,3.013012653e-13,4.213355414e-14,1.059092376e-13,1.284288904e-13,1.386689612e-13,1.524536512e-14,9.520148285e-15,2.539425002e-14,2.248259855e-14,1.363624214e-13,6.420002822e-14,6.067007510e-14,7.927585517e-13,2.223067313e-13,2.158524809e-13,1.108743655e-13,4.824709942e-14,3.054526436e-14,5.042850806e-13,1.082157676e-12,1.533571966e-14,1.337264487e-13,2.780026637e-13
1.4062,1.399679072e-13,7.475114740e-13,3.011826125e-13,1.732105945e-13,6.028905820e-14,8.458483172e-14,1.469903349e-13,6.102391417e-14,2.272664271e-13,2.608454494e-13,4.188821990e-14,1.196465863e-13,1.107401699e-13,1.507638908e-13,1.437404583e-14,7.871212413e-15,2.497302500e-14,2.181673579e-14,1.304866770e-13,6.363856926e-14,5.455574314e-14,7.526974983e-13,2.072968004e-13,2.182224840e-13,1.142636859e-13,5.332114109e-14,3.641882667e-14,5.965981074e-13,1.050973222e-12,1.163567852e-14,1.481860691e-13,2.683135972e-13
1.4141,1.167669265e-13,7.476328318e-13,2.499878532e-13,1.420077054e-13,7.177432169e-14,6.445841117e-14,1.645045822e-13,6.097551757e-14,2.191532779e-13,2.395627520e-13,4.241233351e-14,1.288751304e-13,1.025750382e-13,1.718769680e-13,1.243509948e-14,7.295915133e-15,2.587347792e-14,2.470078438e-14,1.275960930e-13,6.539477065e-14,5.036393360e-14,7.458959054e-13,1.834060943e-13,2.531331297e-13,1.203361998e-13,5.768355026e-14,4.685540130e-14,6.869322221e-13,1.057600686e-12,1.105624480e-14,1.693384701e-13,2.921597255e-13
1.4219,1.086437608e-13,7.705711294e-13,2.302566780e-13,1.206521794e-13,8.262558553e-14,5.183952968e-14,1.674880561e-13,6.305614037e-14,1.995173115e-13,2.376736557e-13,4.157210445e-14,1.295329311e-13,1.040859007e-13,1.939280949e-13,1.176319419e-14,7.476783863e-15,3.087155933e-14,3.155098778e-14,1.339854280e-13,6.774256575e-14,4.681571717e-14,7.628424458e-13,1.518369520e-13,2.972538021e-13,1.268390651e-13,6.218834185e-14,6.272126783e-14,7.420896906e-13,1.099149677e-12,1.197689952e-14,1.965302612e-13,3.287631633e-13
1.4297,1.142129001e-13,7.757549368e-13,2.362272795e-13,1.083111970e-13,9.589091469e-14,4.503521108e-14,1.591092912e-13,5.964450722e-14,1.665754483e-13,2.317492843e-13,3.981305158e-14,1.199274305e-13,1.089872338e-13,1.993393882e-13,1.241444724e-14,9.280887561e-15,3.964901482e-14,4.135065755e-14,1.351409672e-13,8.164162921e-14,4.366950345e-14,7.561142006e-13,1.144851163e-13,3.444216840e-13,1.312722444e-13,6.487569447e-14,7.981829752e-14,7.411961336e-13,1.166998183e-12,1.456810481e-14,2.156631525e-13,3.502020042e-13
1.4375,1.326541349e-13,7.970366217e-13,2.686522869e-13,1.091564795e-13,1.038026683e-13,4.339201021e-14,1.492736680e-13,5.430432838e-14,1.316331371e-13,2.463672378e-13,3.931958205e-14,1.044825241e-13,1.119539928e-13,2.081666196e-13,1.419135669e-14,1.232577338e-14,5.206351720e-14,5.592594932e-14,1.372429820e-13,1.014569082e-13,3.893958810e-14,7.604209682e-13,8.045727021e-14,4.177833966e-13,1.343214022e-13,6.374401951e-14,9.364242900e-14,6.926412251e-13,1.216483201e-12,1.933225310e-14,2.329012869e-13,3.675498684e-13
1.4453,1.671941250e-13,8.344783788e-13,3.145059416e-13,1.242001547e-13,9.663893797e-14,4.608889656e-14,1.313525327e-13,5.315855560e-14,1.034730808e-13,2.763390492e-13,4.284252001e-14,8.452656626e-14,1.156251769e-13,2.190203378e-13,1.784929602e-14,1.695567275e-14,6.853716892e-14,7.627702283e-14,1.449260982e-13,1.221299943e-13,3.391971766e-14,7.798665814e-13,5.347148758e-14,4.718369874e-13,1.337215542e-13,5.900953205e-14,1.030154741e-13,6.047613709e-13,1.212880501e-12,2.601156014e-14,2.474871889e-13,3.742813581e-13
1.4531,1.981319646e-13,8.220005917e-13,3.517264179e-13,1.413934789e-13,8.288483276e-14,4.689586039e-14,1.054295443e-13,5.726020155e-14,8.435311688e-14,2.753118130e-13,5.008797052e-14,6.523226422e-14,1.203362237e-13,2.057679801e-13,2.223196782e-14,2.253375379e-14,8.329925491e-14,9.681629611e-14,1.423489257e-13,1.478040138e-13,3.247738462e-14,7.486264726e-13,3.544003712e-14,4.820351549e-13,1.240698373e-13,5.206032482e-14,1.069813196e-13,5.050705446e-13,1.165907025e-12,3.322566797e-14,2.414346147e-13,3.377162670e-13
1.4609,2.111798695e-13,7.605879478e-13,3.700571334e-13,1.552238816e-13,7.158429468e-14,4.994135235e-14,8.536977483e-14,6.821259327e-14,7.672295474e-14,2.606257319e-13,6.230292851e-14,5.126613175e-14,1.213016158e-13,1.793972105e-13,2.641714151e-14,2.865071582e-14,9.344149351e-14,1.141113035e-13,1.281591606e-13,1.705908584e-13,3.498826701e-14,6.894494803e-13,2.441788635e-14,4.904925399e-13,1.078350308e-13,4.232982157e-14,1.015957507e-13,4.269183896e-13,1.064279571e-12,3.818149115e-14,2.165155941e-13,2.755741750e-13
1.4688,2.269313295e-13,6.964456406e-13,3.735619167e-13,1.675350094e-13,5.999630951e-14,6.090761917e-14,7.317725932e-14,8.623337488e-14,7.637633071e-14,2.601713957e-13,7.559293638e-14,4.264405854e-14,1.138620140e-13,1.573547808e-13,2.941789224e-14,3.347353646e-14,9.950874594e-14,1.286818466e-13,1.159303026e-13,1.734603188e-13,3.979220953e-14,6.499232809e-13,1.961771789e-14,4.929997693e-13,9.200999283e-14,3.149283995e-14,8.852808374e-14,3.807123439e-13,9.115754607e-13,4.077075847e-14,1.866994943e-13,2.284721254e-13
1.4766,2.538807135e-13,6.021887439e-13,3.473343792e-13,1.724896060e-13,4.757780435e-14,8.092395503e-14,6.931251121e-14,1.112532059e-13,8.181408484e-14,2.327960653e-13,8.626391433e-14,3.902655056e-14,1.005258142e-13,1.362952720e-13,3.296979672e-14,3.651790727e-14,1.009003021e-13,1.397934471e-13,1.036930538e-13,1.621552396e-13,4.750319726e-14,5.892345292e-13,1.849688518e-14,4.496785996e-13,7.557345040e-14,2.266266195e-14,7.346344997e-14,3.717710574e-13,7.520190485e-13,4.305571722e-14,1.525353239e-13,1.869725124e-13
1.4844,2.625267054e-13,4.817121663e-13,2.976958664e-13,1.668783349e-13,3.797914612e-14,1.131632171e-13,7.440330010e-14,1.415948936e-13,8.787990437e-14,1.867379438e-13,9.292837317e-14,3.945166141e-14,8.739955447e-14,1.189159018e-13,3.845997502e-14,3.900806764e-14,9.448139539e-14,1.411919660e-13,8.894536933e-14,1.495741461e-13,5.491516539e-14,5.224912983e-13,2.025585527e-14,3.837110505e-13,5.717855157e-14,1.730454297e-14,6.144065410e-14,3.894801127e-13,6.188757347e-13,4.197500829e-14,1.146578338e-13,1.518183673e-13
1.4922,2.487092846e-13,3.874817106e-13,2.403147123e-13,1.561343219e-13,3.134657375e-14,1.554024090e-13,8.538774766e-14,1.714478704e-13,9.291433109e-14,1.608348771e-13,9.380011028e-14,4.228790825e-14,7.381166608e-14,1.140346065e-13,4.633292215e-14,4.273481980e-14,8.309857059e-14,1.333138042e-13,8.151985818e-14,1.347418965e-13,5.944223121e-14,4.988273984e-13,2.517849217e-14,3.325315882e-13,4.122001243e-14,1.626281953e-14,5.707410489e-14,4.214535678e-13,5.224637313e-13,3.644873819e-14,8.540640747e-14,1.418411260e-13
1.5,2.352406931e-13,3.303165862e-13,1.943843835e-13,1.457349121e-13,2.767533265e-14,2.018911116e-13,9.688962952e-14,1.905758640e-13,9.306279532e-14,1.409108732e-13,8.810051818e-14,4.855530697e-14,5.710767580e-14,1.173081072e-13,5.740988114e-14,4.763018810e-14,6.907257350e-14,1.196681754e-13,8.359387654e-14,1.089236293e-13,6.190731259e-14,4.925819803e-13,3.095608685e-14,2.846047839e-13,2.949284442e-14,1.879570025e-14,6.071831983e-14,4.480670481e-13,4.692647962e-13,2.981563303e-14,6.669374136e-14,1.461373380e-13
1.5078,2.300357508e-13,3.082849558e-13,1.671407459e-13,1.358390098e-13,2.571818128e-14,2.492882319e-13,1.079488905e-13,2.007822390e-13,9.261056201e-14,1.158956791e-13,7.887959726e-14,6.155566141e-14,4.216962049e-14,1.243395359e-13,7.272314872e-14,5.606726898e-14,5.488535800e-14,1.026475213e-13,9.477174542e-14,8.334862154e-14,6.136295629e-14,4.849327273e-13,3.585355129e-14,2.348710873e-13,2.002135341e-14,2.732033414e-14,7.700107880e-14,4.689725090e-13,4.593976320e-13,2.512575808e-14,5.924755751e-14,1.564850889e-13
1.5156,2.163470971e-13,3.197865931e-13,1.684109236e-13,1.259923398e-13,2.270614887e-14,2.883321601e-13,1.186751393e-13,2.020135123e-13,9.538242433e-14,1.063176982e-13,7.073434883e-14,8.270167574e-14,3.184056455e-14,1.342018895e-13,8.709382788e-14,6.803161035e-14,4.276688075e-14,8.334058045e-14,1.119161604e-13,7.366356430e-14,5.811393383e-14,5.028640600e-13,4.201039454e-14,2.030142039e-13,1.256161549e-14,4.034553336e-14,9.773200815e-14,5.023238601e-13,4.608697673e-13,2.188377544e-14,6.130957798e-14,1.797215504e-13
1.5234,1.879415741e-13,3.421275235e-13,2.025975857e-13,1.145925215e-13,1.763702925e-14,3.074245775e-13,1.234944523e-13,1.878762539e-13,9.928825889e-14,1.022007031e-13,6.653933094e-14,1.116054847e-13,2.585779753e-14,1.338169402e-13,9.800693327e-14,8.219646266e-14,3.332005981e-14,6.463621872e-14,1.259465236e-13,7.572136310e-14,5.316908831e-14,5.136050667e-13,4.479007711e-14,1.988388196e-13,7.814914262e-15,5.722338192e-14,1.184922992e-13,5.450931306e-13,4.637652719e-13,2.092842503e-14,6.969704232e-14,1.950870544e-13
1.5312,1.571846230e-13,3.532742389e-13,2.657665312e-13,1.003616880e-13,1.603208291e-14,2.995447266e-13,1.234564552e-13,1.617595437e-13,1.068740764e-13,8.439496793e-14,6.698029464e-14,1.461346291e-13,2.308146153e-14,1.180013198e-13,1.060084121e-13,9.889293687e-14,2.746947881e-14,4.971113744e-14,1.327670178e-13,7.720079829e-14,5.014075866e-14,4.897513769e-13,4.292406111e-14,2.171973409e-13,5.373630712e-15,7.894290438e-14,1.350071822e-13,6.148237310e-13,4.602093603e-13,2.336596439e-14,8.433414203e-14,1.876698938e-13
1.5391,1.343849090e-13,3.586018789e-13,3.470007985e-13,8.352750128e-14,1.755371907e-14,2.739422646e-13,1.246756927e-13,1.360176999e-13,1.200562205e-13,7.270803608e-14,6.907845894e-14,1.777505942e-13,2.272773837e-14,1.020317429e-13,1.072337786e-13,1.132384834e-13,2.330303503e-14,3.787911037e-14,1.380664828e-13,7.758416393e-14,4.733616049e-14,4.690623062e-13,3.875445451e-14,2.509711041e-13,4.132287075e-15,1.068348036e-13,1.447010773e-13,7.136575976e-13,4.451311083e-13,2.603820869e-14,1.106748252e-13,1.738141216e-13
1.5469,1.105357573e-13,3.509249800e-13,4.395575925e-13,6.671079412e-14,2.016358313e-14,2.378319157e-13,1.282233423e-13,1.127255787e-13,1.316976693e-13,6.675984199e-14,6.962290808e-14,1.997457773e-13,2.358591278e-14,9.051977508e-14,9.823330452e-14,1.188040334e-13,2.017661435e-14,2.999798342e-14,1.379493771e-13,8.645049622e-14,4.506714169e-14,4.583319717e-13,3.464562632e-14,2.809975444e-13,3.967865573e-15,1.381217743e-13,1.428451459e-13,8.264255308e-13,4.251780410e-13,2.823227811e-14,1.457101572e-13,1.639944525e-13
1.5547,7.960582320e-14,3.137904483e-13,5.360846976e-13,4.998441351e-14,2.521702359e-14,1.881625628e-13,1.277590240e-13,9.340731429e-14,1.384885360e-13,5.301341561e-14,6.608710726e-14,2.078640229e-13,2.447282717e-14,8.113064880e-14,8.299393448e-14,1.142525996e-13,1.778626690e-14,2.510167387e-14,1.278537515e-13,9.914953954e-14,4.380513484e-14,4.367486135e-13,3.070409967e-14,3.024576630e-13,5.097821785e-15,1.694798252e-13,1.311739990e-13,9.292968626e-13,4.237083664e-13,3.038310698e-14,1.863850698e-13,1.441348444e-13
1.5625,5.420909269e-14,2.722757155e-13,6.173006436e-13,3.746612912e-14,3.299173971e-14,1.355515823e-13,1.282987256e-13,8.313669593e-14,1.383260558e-13,4.098951568e-14,6.226631045e-14,1.993123764e-13,2.536167242e-14,8.073404991e-14,6.640230105e-14,1.032747248e-13,1.552262838e-14,2.259357127e-14,1.144677037e-13,9.967595535e-14,4.485671783e-14,4.341670148e-13,2.809055324e-14,3.172789516e-13,6.976459002e-15,1.956835473e-13,1.178426595e-13,1.006758422e-12,4.283065330e-13,3.054167876e-14,2.288427476e-13,1.275381781e-13
1.5703,4.336223872e-14,2.466481955e-13,6.633103969e-13,3.151514943e-14,3.679543342e-14,9.463171090e-14,1.345795674e-13,7.878196685e-14,1.291243552e-13,3.904488863e-14,5.717141217e-14,1.769886060e-13,2.581830038e-14,8.773168000e-14,5.125859529e-14,8.646283355e-14,1.281163570e-14,2.169171142e-14,1.055771323e-13,9.119728817e-14,4.704615693e-14,4.559327122e-13,2.885118187e-14,3.143030183e-13,9.151174794e-15,2.163985408e-13,1.059352630e-13,1.036204017e-12,4.367770742e-13,2.775590800e-14,2.689313807e-13,1.244618605e-13
1.5781,3.788514116e-14,2.131879520e-13,6.932040101e-13,2.807531074e-14,3.586898133e-14,6.359786794e-14,1.386676280e-13,8.097344267e-14,1.180419954e-13,3.860956312e-14,5.374474457e-14,1.562346720e-13,2.532921643e-14,9.041710706e-14,4.023463102e-14,6.735158621e-14,1.080780010e-14,2.301865135e-14,8.995844560e-14,8.282587846e-14,4.899991551e-14,4.593445479e-13,2.930285468e-14,2.829051789e-13,1.094963569e-14,2.302598444e-13,1.002423628e-13,1.017912629e-12,4.400623566e-13,2.628600408e-14,2.845742475e-13,1.311173121e-13
1.5859,3.601660262e-14,1.835645382e-13,7.062897106e-13,2.914554138e-14,3.480500468e-14,4.186829519e-14,1.380916752e-13,8.430048132e-14,1.051218949e-13,4.529705229e-14,5.507558334e-14,1.394360069e-13,2.330243027e-14,9.270907733e-14,3.354193564e-14,4.919964825e-14,9.407021838e-15,2.385999492e-14,7.201550043e-14,7.308561612e-14,5.049723468e-14,4.587620328e-13,3.006294926e-14,2.387402139e-13,1.322443070e-14,2.357658058e-13,1.018665479e-13,9.519140241e-13,4.287693766e-13,2.749607742e-14,2.801982752e-13,1.481035706e-13
1.5938,4.748575677e-14,1.657483511e-13,6.881732923e-13,3.055611662e-14,3.284165998e-14,2.823796496e-14,1.375673418e-13,8.977408289e-14,9.795241775e-14,6.180228816e-14,6.091511458e-14,1.358473264e-13,2.150144355e-14,9.242629170e-14,3.145527570e-14,3.477915424e-14,8.835580849e-15,2.524254917e-14,5.851233050e-14,5.582020019e-14,5.125812509e-14,4.598899633e-13,3.103130661e-14,2.036183888e-13,1.514537360e-14,2.337100381e-13,1.096073309e-13,8.574099940e-13,3.937938581e-13,3.143489956e-14,2.637850529e-13,1.663148795e-13
1.6016,6.955268133e-14,1.452262568e-13,6.454813326e-13,3.046625483e-14,2.862464411e-14,2.031411005e-14,1.377112701e-13,9.242830600e-14,9.743478865e-14,8.477560053e-14,7.010535630e-14,1.442562012e-13,2.024174375e-14,8.295869263e-14,3.117925298e-14,2.506510065e-14,9.029264214e-15,2.794651292e-14,4.452995029e-14,4.161676948e-14,4.969698682e-14,4.308730282e-13,3.081188943e-14,1.782370750e-13,1.506188286e-14,2.279637109e-13,1.202503577e-13,7.441538053e-13,3.389083347e-13,3.939906961e-14,2.340500879e-13,1.694383977e-13
1.6094,9.401683935e-14,1.238971332e-13,5.968583680e-13,2.964667441e-14,2.416835814e-14,1.644648891e-14,1.332349451e-13,8.997912214e-14,1.019446106e-13,1.175510823e-13,7.743919963e-14,1.607337696e-13,1.981319131e-14,6.858794058e-14,3.294546921e-14,1.938763361e-14,9.994202430e-15,3.085805245e-14,3.195677839e-14,3.531022275e-14,4.565390782e-14,3.856951666e-13,2.981113116e-14,1.681529671e-13,1.414938969e-14,2.221513142e-13,1.281198273e-13,6.200752775e-13,2.838464747e-13,4.879263227e-14,1.975223750e-13,1.633430913e-13
1.6172,1.183715736e-13,1.096509252e-13,5.391831194e-13,2.680654813e-14,2.154003513e-14,1.422085997e-14,1.232751640e-13,8.643992840e-14,1.117285701e-13,1.563868890e-13,8.141054380e-14,1.793068791e-13,1.997785013e-14,5.850210091e-14,3.656640266e-14,1.817995974e-14,1.246040352e-14,3.454601976e-14,2.290807065e-14,2.788915552e-14,3.991876622e-14,3.550084405e-13,3.094111962e-14,1.795049682e-13,1.242855917e-14,2.186010856e-13,1.321399998e-13,5.112222338e-13,2.363988911e-13,5.690433824e-14,1.656632514e-13,1.555335310e-13
1.625,1.484154864e-13,9.974225378e-14,4.789998001e-13,2.298566440e-14,2.105275671e-14,1.204156817e-14,1.149384262e-13,7.681482708e-14,1.186096990e-13,1.833761254e-13,8.067077260e-14,1.913325236e-13,2.003830216e-14,5.265384536e-14,4.012655601e-14,1.900248249e-14,1.616887995e-14,3.906935732e-14,1.803058953e-14,2.099750093e-14,3.325047125e-14,3.270205827e-13,3.394461159e-14,2.026684391e-13,1.034087722e-14,2.161280810e-13,1.282311095e-13,4.154295728e-13,2.052157018e-13,6.189773330e-14,1.441239595e-13,1.381073625e-13
1.6328,1.763085750e-13,9.172987994e-14,4.151433623e-13,1.931040288e-14,2.187002999e-14,9.960873644e-15,1.041684988e-13,6.421680966e-14,1.192644005e-13,2.001477184e-13,7.590885073e-14,1.902769454e-13,1.968743174e-14,5.240422146e-14,4.616510650e-14,2.115913899e-14,2.048433541e-14,4.366236725e-14,1.620604998e-14,1.933323971e-14,2.798994785e-14,3.020044518e-13,3.883716431e-14,2.314052557e-13,8.118413024e-15,2.125579104e-13,1.165569767e-13,3.352521886e-13,1.920922083e-13,6.329983971e-14,1.320315515e-13,1.135976441e-13
1.6406,1.910651902e-13,9.283805623e-14,3.505561659e-13,1.630003810e-14,2.309353864e-14,8.035980477e-15,9.140956964e-14,5.121527090e-14,1.149702314e-13,2.101267669e-13,7.174398003e-14,1.774478424e-13,1.999463930e-14,5.687452315e-14,5.521360633e-14,2.511601007e-14,2.557304773e-14,4.805132143e-14,1.814006624e-14,1.835384190e-14,2.531705666e-14,2.927324806e-13,4.434008991e-14,2.612485327e-13,6.387935313e-15,2.064424076e-13,1.004977299e-13,2.835789569e-13,1.922682012e-13,5.987140921e-14,1.271005791e-13,9.880743955e-14
1.6484,1.952723954e-13,9.785272291e-14,2.867288361e-13,1.494812670e-14,2.549195000e-14,6.996446447e-15,7.781438865e-14,4.237017275e-14,1.053053532e-13,2.025767380e-13,7.276044641e-14,1.554031111e-13,2.109804328e-14,6.075732846e-14,6.603681072e-14,3.007733728e-14,3.125122980e-14,5.074605504e-14,2.200970941e-14,1.741765809e-14,2.553654327e-14,2.867567283e-13,4.670840640e-14,2.796680421e-13,5.462036416e-15,1.973698703e-13,8.489021592e-14,2.608272613e-13,1.953454647e-13,5.236355088e-14,1.232908235e-13,9.663381279e-14
1.6562,1.980447955e-13,1.055956499e-13,2.253547474e-13,1.454251637e-14,3.110316675e-14,6.281951735e-15,6.733960778e-14,3.549311606e-14,9.056861126e-14,1.787002365e-13,8.180486677e-14,1.275969492e-13,2.353483753e-14,6.315900094e-14,7.795926736e-14,3.651198289e-14,3.872295530e-14,5.313881595e-14,2.745471757e-14,1.843009602e-14,2.831720434e-14,2.721928493e-13,4.627561893e-14,2.739427135e-13,5.345483099e-15,1.834212407e-13,7.415585777e-14,2.646215012e-13,2.045551359e-13,4.337310359e-14,1.186282188e-13,1.058577340e-13
1.6641,1.974842117e-13,1.216123433e-13,1.720502424e-13,1.608541996e-14,3.912591792e-14,8.525190610e-15,5.943157644e-14,3.409036631e-14,7.478580626e-14,1.548488621e-13,9.813958267e-14,9.940346622e-14,2.900389753e-14,6.618246833e-14,9.156553324e-14,4.373517099e-14,4.610453208e-14,5.467404946e-14,3.466237537e-14,2.062746123e-14,3.315102027e-14,2.606557825e-13,4.282120088e-14,2.550477996e-13,6.284789286e-15,1.632772654e-13,7.110368827e-14,2.933044091e-13,2.179422084e-13,3.461200994e-14,1.125357687e-13,1.304556626e-13
1.6719,1.939809864e-13,1.459207074e-13,1.267515722e-13,1.852062506e-14,5.531480252e-14,1.466691271e-14,5.528027397e-14,3.736284221e-14,5.941054068e-14,1.381207102e-13,1.204976128e-13,7.645397266e-14,4.106718992e-14,6.804982382e-14,1.046729156e-13,5.386958415e-14,5.671029660e-14,6.004422310e-14,4.395848900e-14,2.265848647e-14,3.831729383e-14,2.540134903e-13,3.740787631e-14,2.298348226e-13,8.686673321e-15,1.412758772e-13,7.952235133e-14,3.368614235e-13,2.450001940e-13,2.749034188e-14,1.079989514e-13,1.639206902e-13
1.6797,2.011792300e-13,1.779491793e-13,9.467932140e-14,2.339481430e-14,8.074842936e-14,2.637447485e-14,5.961198017e-14,4.503560780e-14,4.743817705e-14,1.265704049e-13,1.414238065e-13,6.132230552e-14,6.167388955e-14,7.031366876e-14,1.105172035e-13,6.196900378e-14,6.896766502e-14,6.960437727e-14,5.794944068e-14,2.618296756e-14,4.056156127e-14,2.500686866e-13,3.084311742e-14,1.989609854e-13,1.305424645e-14,1.232036409e-13,9.890699455e-14,3.854842473e-13,3.000639103e-13,2.242129588e-14,1.095174341e-13,1.980445000e-13
1.6875,2.231709277e-13,2.225949604e-13,7.275338972e-14,3.259755218e-14,1.206435530e-13,4.655764589e-14,7.267559879e-14,5.679729596e-14,3.736006779e-14,1.273540934e-13,1.614851306e-13,5.431394774e-14,9.053946395e-14,7.921037113e-14,1.151746027e-13,6.996576700e-14,8.498224523e-14,8.706712729e-14,7.917520272e-14,2.726143492e-14,4.228332407e-14,2.608286184e-13,2.515743099e-14,1.666192527e-13,2.027521950e-14,1.096700484e-13,1.266487046e-13,4.293478539e-13,3.829268550e-13,1.986938564e-14,1.215282508e-13,2.338406486e-13
1.6953,2.544997783e-13,2.790163361e-13,5.968645256e-14,4.910082402e-14,1.715407076e-13,7.710051199e-14,9.474120094e-14,7.490217992e-14,2.933100442e-14,1.410057628e-13,1.755594595e-13,5.354176557e-14,1.243918140e-13,9.904075769e-14,1.145477272e-13,7.607072573e-14,1.030579958e-13,1.120213082e-13,1.120969236e-13,2.503286983e-14,4.299839872e-14,2.919329489e-13,2.176492524e-14,1.490108327e-13,3.104695785e-14,1.042564503e-13,1.617469676e-13,4.676463203e-13,4.933089923e-13,1.955994316e-14,1.508433687e-13,2.573478286e-13
1.7031,2.912970599e-13,3.364081998e-13,5.239990095e-14,7.432696844e-14,2.293397539e-13,1.182940293e-13,1.228448897e-13,9.839693396e-14,2.340842995e-14,1.590876452e-13,1.777202552e-13,5.566812664e-14,1.601039657e-13,1.273111510e-13,1.092748237e-13,7.881285679e-14,1.226249752e-13,1.394394948e-13,1.523761031e-13,2.267272266e-14,4.120211901e-14,3.335916952e-13,2.068498348e-14,1.492203695e-13,4.440195151e-14,1.052743326e-13,1.962583276e-13,4.907703588e-13,6.128129223e-13,2.059910217e-14,1.918073533e-13,2.589018321e-13
1.7109,3.277501437e-13,3.947010348e-13,4.707242554e-14,1.101789830e-13,2.867768765e-13,1.683806680e-13,1.529620204e-13,1.265168204e-13,1.812310610e-14,1.782431677e-13,1.676005017e-13,5.752702899e-14,1.885297744e-13,1.633427211e-13,9.776781258e-14,7.611842332e-14,1.409770279e-13,1.648442965e-13,1.986472760e-13,2.214335973e-14,3.800980314e-14,3.808674824e-13,2.139632592e-14,1.698851807e-13,5.978881963e-14,1.107766247e-13,2.273991407e-13,4.976281884e-13,7.234924051e-13,2.229639268e-14,2.424054494e-13,2.412913306e-13
1.7188,3.598235664e-13,4.416434076e-13,4.313424177e-14,1.498576255e-13,3.297308331e-13,2.182656964e-13,1.793282357e-13,1.531806389e-13,1.485305442e-14,1.999528389e-13,1.489525044e-13,5.733852187e-14,2.021206695e-13,1.935313318e-13,8.486940611e-14,6.974174689e-14,1.530154735e-13,1.800484153e-13,2.393398197e-13,2.272231355e-14,3.462881009e-14,4.262212609e-13,2.334675117e-14,2.096021790e-13,7.498787003e-14,1.143639875e-13,2.461992102e-13,5.005216060e-13,7.945624270e-13,2.389949890e-14,2.878644105e-13,2.140346544e-13
1.7266,3.759884464e-13,4.663363432e-13,4.214351385e-14,1.894496513e-13,3.486270392e-13,2.595565840e-13,1.973977690e-13,1.723395251e-13,1.213331702e-14,2.155038641e-13,1.248431171e-13,5.436289051e-14,2.013365975e-13,2.107204102e-13,7.389960405e-14,6.234610077e-14,1.574821316e-13,1.813803414e-13,2.634294386e-13,2.625884829e-14,3.102580634e-14,4.549986147e-13,2.455388062e-14,2.679341113e-13,8.852437924e-14,1.124564334e-13,2.514606512e-13,4.812971765e-13,8.086577839e-13,2.537387424e-14,3.158381266e-13,1.827282005e-13
1.7344,3.839203010e-13,4.596927749e-13,4.452979110e-14,2.160631996e-13,3.388016236e-13,2.799600023e-13,2.061706183e-13,1.828839829e-13,9.210640689e-15,2.204323987e-13,9.818257362e-14,4.759936167e-14,1.818668747e-13,2.132707081e-13,7.009528219e-14,5.722581377e-14,1.547143345e-13,1.678949454e-13,2.659871877e-13,3.372571780e-14,2.829603633e-14,4.581755284e-13,2.539173622e-14,3.372194761e-13,9.703191569e-14,1.054808271e-13,2.443645875e-13,4.478763479e-13,7.742040178e-13,2.546583380e-14,3.185690684e-13,1.513357409e-13
1.7422,3.985187854e-13,4.338067389e-13,5.337841480e-14,2.243745128e-13,3.043272413e-13,2.778574106e-13,2.079537331e-13,1.862755455e-13,8.389768863e-15,2.236812530e-13,7.258965178e-14,4.001473752e-14,1.521909239e-13,2.067156789e-13,7.451268985e-14,5.736302825e-14,1.462700440e-13,1.470965880e-13,2.512985720e-13,4.446131731e-14,2.646783042e-14,4.430905546e-13,2.635514166e-14,4.164214543e-13,9.836119984e-14,9.363238627e-14,2.272932114e-13,4.035407870e-13,7.049069183e-13,2.445625824e-14,2.977950050e-13,1.238546120e-13
1.75,4.267610076e-13,3.908150511e-13,6.956816295e-14,2.114885014e-13,2.479276181e-13,2.489048851e-13,2.030593989e-13,1.817550899e-13,8.176398816e-15,2.192847212e-13,5.148330271e-14,3.377204691e-14,1.258598915e-13,1.977711307e-13,8.947063855e-14,6.488562798e-14,1.316237603e-13,1.246889788e-13,2.215835098e-13,5.543993302e-14,2.490055508e-14,4.194699060e-13,2.886371853e-14,4.925919977e-13,9.695797650e-14,7.725245705e-14,2.030941936e-13,3.511268255e-13,6.191396531e-13,2.247522576e-14,2.560107434e-13,1.073011685e-13
1.7578,4.800176382e-13,3.483858746e-13,9.316984190e-14,1.815479161e-13,1.839798738e-13,2.020352506e-13,1.999050130e-13,1.790788281e-13,8.609842370e-15,2.093933486e-13,3.837075781e-14,2.945149167e-14,1.099390431e-13,1.994130205e-13,1.164115435e-13,8.195374707e-14,1.207059369e-13,1.108845409e-13,1.911985477e-13,7.114532952e-14,2.316460237e-14,3.950422182e-13,3.399904476e-14,5.623025405e-13,9.300828235e-14,6.241093868e-14,1.810953096e-13,2.889825556e-13,5.586995967e-13,2.064663072e-14,2.081081647e-13,9.412099874e-14
1.7656,5.607412740e-13,3.208201360e-13,1.227795026e-13,1.387842355e-13,1.244031605e-13,1.485266181e-13,1.972890312e-13,1.853113934e-13,1.073796307e-14,1.967662768e-13,3.136193909e-14,2.708097199e-14,1.088955876e-13,2.192770883e-13,1.456758857e-13,1.043271547e-13,1.166601125e-13,1.119813531e-13,1.704053747e-13,9.136749144e-14,2.156374880e-14,3.826088445e-13,4.337200770e-14,6.174360830e-13,8.869266290e-14,5.200156198e-14,1.641953196e-13,2.253707112e-13,5.326461777e-13,1.805376040e-14,1.628132204e-13,8.419451189e-14
1.7734,6.632288140e-13,3.200122280e-13,1.543105656e-13,9.780887582e-14,8.314887920e-14,1.001753630e-13,1.980790596e-13,2.039061051e-13,1.499577709e-14,1.907441799e-13,3.316029238e-14,2.696805463e-14,1.254371336e-13,2.561384745e-13,1.731722207e-13,1.290406444e-13,1.202628287e-13,1.320691566e-13,1.702076086e-13,1.108382876e-13,2.034682445e-14,3.928533542e-13,5.727486239e-14,6.627827239e-13,8.686261692e-14,5.047359966e-14,1.562726669e-13,1.693732581e-13,5.508835452e-13,1.593688390e-14,1.351920968e-13,7.680814746e-14
1.7812,7.576542519e-13,3.356221579e-13,1.822945820e-13,6.483431109e-14,6.012301507e-14,6.080447203e-14,2.108445901e-13,2.319428243e-13,2.232409719e-14,1.849292760e-13,4.198052239e-14,2.913884071e-14,1.505794573e-13,2.972704142e-13,1.914015832e-13,1.505444995e-13,1.308390981e-13,1.648302151e-13,1.852350337e-13,1.346103102e-13,2.095184220e-14,4.122128779e-13,7.378577252e-14,7.028221668e-13,8.902888982e-14,5.884553532e-14,1.577124803e-13,1.225969927e-13,5.976825812e-13,1.463263078e-14,1.239786553e-13,6.884333293e-14
1.7891,8.325068150e-13,3.626083158e-13,2.055105329e-13,4.760844050e-14,5.804433602e-14,3.827110154e-14,2.353157601e-13,2.578854702e-13,3.167488101e-14,1.841363242e-13,5.474292358e-14,3.350600831e-14,1.776318156e-13,3.310107547e-13,1.952352413e-13,1.626749952e-13,1.455979551e-13,2.038216151e-13,2.092260690e-13,1.676803949e-13,2.395042382e-14,4.352399761e-13,9.312991861e-14,7.406490012e-13,9.336968667e-14,7.403260626e-14,1.638145059e-13,9.040545686e-14,6.500795322e-13,1.343191561e-14,1.256971574e-13,6.243730348e-14
