Time,Fp1,AF3,F7,F3,FC1,FC5,T7,C3,CP1,CP5,P7,P3,Pz,PO3,O1,Oz,O2,PO4,P4,P8,CP6,CP2,C4,T8,FC6,FC2,F4,F8,AF4,Fp2,Fz,Cz,
0,2.279313584e-09,8.389662795e-10,6.191606596e-10,2.098227751e-10,1.705183849e-10,1.603706141e-10,6.293827014e-10,1.453966786e-10,1.097865615e-10,1.883956871e-11,1.436983183e-10,1.908439023e-11,8.480835897e-11,8.295653261e-11,3.153142445e-11,5.451152785e-11,8.370141922e-11,1.099235069e-10,4.608857575e-11,2.808630465e-10,1.308131090e-10,5.037656103e-11,8.129072217e-10,4.378734518e-10,4.927121821e-10,1.669942300e-10,2.000490997e-10,1.486111509e-09,5.623397387e-11,3.366968123e-09,1.263222013e-08,6.024500821e-10
0.0078125,2.279140047e-09,8.394767098e-10,6.185761761e-10,2.096493681e-10,1.708828537e-10,1.600749538e-10,6.284444829e-10,1.454360416e-10,1.099376118e-10,1.880229307e-11,1.433798244e-10,1.905788992e-11,8.501749931e-11,8.309047100e-11,3.163760173e-11,5.447256713e-11,8.388134866e-11,1.101733716e-10,4.608937781e-11,2.808547062e-10,1.307563384e-10,5.036814113e-11,8.152266576e-10,4.370362442e-10,4.918251653e-10,1.672976063e-10,1.998103954e-10,1.483837721e-09,5.682867803e-11,3.363896715e-09,1.265108923e-08,6.040300602e-10
0.015625,2.277325445e-09,8.393744678e-10,6.175253941e-10,2.093215416e-10,1.711349176e-10,1.596598185e-10,6.270222439e-10,1.453821252e-10,1.100181504e-10,1.875275263e-11,1.429544776e-10,1.901970726e-11,8.516645280e-11,8.317016288e-11,3.172747710e-11,5.440290722e-11,8.401233848e-11,1.103550974e-10,4.606383449e-11,2.806748828e-10,1.306181825e-10,5.032033712e-11,8.169430709e-10,4.359004787e-10,4.905764038e-10,1.674924093e-10,1.994354525e-10,1.480469082e-09,5.740222832e-11,3.358396188e-09,1.266180209e-08,6.052008788e-10
0.023438,2.273859057e-09,8.386495469e-10,6.160100361e-10,2.088391030e-10,1.712742547e-10,1.591262745e-10,6.251193262e-10,1.452360083e-10,1.100276013e-10,1.869113105e-11,1.424251683e-10,1.897034004e-11,8.525367521e-11,8.319492711e-11,3.180106727e-11,5.430429763e-11,8.409254512e-11,1.104689272e-10,4.601241687e-11,2.803276341e-10,1.303994766e-10,5.023253840e-11,8.180408510e-10,4.344725216e-10,4.889683518e-10,1.675793079e-10,1.989251069e-10,1.476011861e-09,5.795362059e-11,3.350468518e-09,1.266426789e-08,6.059523902e-10
0.03125,2.268719389e-09,8.372923878e-10,6.140262371e-10,2.082008090e-10,1.713009341e-10,1.584729048e-10,6.227258763e-10,1.449987759e-10,1.099663612e-10,1.861720284e-11,1.417905956e-10,1.890947960e-11,8.527827355e-11,8.316447223e-11,3.185837146e-11,5.417661433e-11,8.412323832e-11,1.105152383e-10,4.593512124e-11,2.798151248e-10,1.301002953e-10,5.010565057e-11,8.185167856e-10,4.327489655e-10,4.869935264e-10,1.675573882e-10,1.982775030e-10,1.470445656e-09,5.848205722e-11,3.340094013e-09,1.265851827e-08,6.062845590e-10
0.039062,2.261978483e-09,8.353312922e-10,6.115892183e-10,2.074141467e-10,1.712130687e-10,1.577039410e-10,6.198559972e-10,1.446707309e-10,1.098351017e-10,1.853092382e-11,1.410504415e-10,1.883706998e-11,8.524280102e-11,8.307910988e-11,3.189958478e-11,5.401885340e-11,8.410578250e-11,1.104937394e-10,4.583160498e-11,2.791366126e-10,1.297196224e-10,4.994200118e-11,8.183856973e-10,4.307334035e-10,4.846667189e-10,1.674248336e-10,1.974973030e-10,1.463810813e-09,5.898760117e-11,3.327379815e-09,1.264463399e-08,6.062013588e-10
0.046875,2.253652547e-09,8.327652924e-10,6.086982555e-10,2.064782867e-10,1.710102804e-10,1.568217319e-10,6.165169265e-10,1.442523359e-10,1.096340792e-10,1.843261364e-11,1.402053680e-10,1.875405568e-11,8.514625799e-11,8.293932844e-11,3.192412751e-11,5.383270816e-11,8.403875004e-11,1.104029841e-10,4.570257815e-11,2.782929784e-10,1.292586190e-10,4.973939455e-11,8.176276224e-10,4.284356744e-10,4.820015848e-10,1.671816093e-10,1.965898610e-10,1.456133897e-09,5.947073543e-11,3.312358633e-09,1.262264793e-08,6.056944710e-10
0.054688,2.243727359e-09,8.295883677e-10,6.053469205e-10,2.053892252e-10,1.706950948e-10,1.558240412e-10,6.127028768e-10,1.437446841e-10,1.093644031e-10,1.832224995e-11,1.392557825e-10,1.866091904e-11,8.498699633e-11,8.274507903e-11,3.193340827e-11,5.362054955e-11,8.392385913e-11,1.102451626e-10,4.554962314e-11,2.772891698e-10,1.287197622e-10,4.949578066e-11,8.162310775e-10,4.258583024e-10,4.789969914e-10,1.668293620e-10,1.955563660e-10,1.447410850e-09,5.993196673e-11,3.295001603e-09,1.259266501e-08,6.047659264e-10
0.0625,2.232279220e-09,8.258328081e-10,6.015621504e-10,2.041568704e-10,1.702684983e-10,1.547153679e-10,6.084350289e-10,1.431497293e-10,1.090272867e-10,1.819987484e-11,1.382060733e-10,1.855771332e-11,8.476719239e-11,8.249730732e-11,3.192888057e-11,5.338237744e-11,8.376330446e-11,1.100230805e-10,4.537334022e-11,2.761294357e-10,1.281044214e-10,4.921474007e-11,8.142204212e-10,4.230102025e-10,4.756640864e-10,1.663696444e-10,1.943989834e-10,1.437688285e-09,6.037052716e-11,3.275420268e-09,1.255478780e-08,6.034260959e-10
0.070312,2.219340204e-09,8.215062861e-10,5.973586539e-10,2.027863938e-10,1.697312858e-10,1.535004454e-10,6.037296560e-10,1.424699807e-10,1.086236882e-10,1.806657977e-11,1.370610681e-10,1.844488205e-11,8.448818770e-11,8.219674883e-11,3.190857549e-11,5.311754276e-11,8.355560065e-11,1.097362256e-10,4.517318478e-11,2.748133086e-10,1.274136707e-10,4.889857006e-11,8.116050125e-10,4.199001600e-10,4.720083520e-10,1.658037067e-10,1.931159396e-10,1.426985740e-09,6.078404305e-11,3.253676584e-09,1.250911053e-08,6.016771602e-10
0.078125,2.204930596e-09,8.166153112e-10,5.927381586e-10,2.012774818e-10,1.690858770e-10,1.521805741e-10,5.985941094e-10,1.417071042e-10,1.081551926e-10,1.792354054e-11,1.358261110e-10,1.832294670e-11,8.415061100e-11,8.184231772e-11,3.187083305e-11,5.282706955e-11,8.330073253e-11,1.093846408e-10,4.494929341e-11,2.733420619e-10,1.266496320e-10,4.854653609e-11,8.083909542e-10,4.165316115e-10,4.680346487e-10,1.651329737e-10,1.917091671e-10,1.415311135e-09,6.117244784e-11,3.229789432e-09,1.245581232e-08,5.995263970e-10
0.085938,2.189144779e-09,8.111959854e-10,5.877287403e-10,1.996399004e-10,1.683334242e-10,1.507625492e-10,5.930541862e-10,1.408622468e-10,1.076231173e-10,1.777079042e-11,1.345083121e-10,1.819240407e-11,8.375538106e-11,8.143446067e-11,3.181638020e-11,5.251345745e-11,8.300017827e-11,1.089695045e-10,4.470352569e-11,2.717265166e-10,1.258166007e-10,4.815890341e-11,8.045898120e-10,4.129232405e-10,4.637702588e-10,1.643604315e-10,1.901933721e-10,1.402742741e-09,6.153905611e-11,3.203901067e-09,1.239501704e-08,5.969817094e-10
0.09375,2.172008454e-09,8.052546977e-10,5.823465210e-10,1.978789215e-10,1.674755621e-10,1.492518247e-10,5.871203065e-10,1.399376632e-10,1.070288673e-10,1.760837968e-11,1.331081531e-10,1.805361439e-11,8.330324042e-11,8.097508649e-11,3.174637727e-11,5.217870900e-11,8.265466363e-11,1.084929031e-10,4.443804729e-11,2.699779534e-10,1.249187119e-10,4.773639663e-11,8.002032882e-10,4.090909553e-10,4.592257625e-10,1.634889058e-10,1.885740085e-10,1.389315055e-09,6.188371239e-11,3.176071254e-09,1.232684875e-08,5.940468616e-10
0.10156,2.153537998e-09,7.988003438e-10,5.765927898e-10,1.959950641e-10,1.665150376e-10,1.476495101e-10,5.807997770e-10,1.389362110e-10,1.063743085e-10,1.743725378e-11,1.316247978e-10,1.790670848e-11,8.279797951e-11,8.046464941e-11,3.166250599e-11,5.182271008e-11,8.226681013e-11,1.079583722e-10,4.415312998e-11,2.680955264e-10,1.239558042e-10,4.728148700e-11,7.952539190e-10,4.050306898e-10,4.543951021e-10,1.625165800e-10,1.868431538e-10,1.375019201e-09,6.220099331e-11,3.146299620e-09,1.225156110e-08,5.907344695e-10
0.10938,2.133813253e-09,7.918640513e-10,5.704804304e-10,1.939948296e-10,1.654529928e-10,1.459586996e-10,5.741168248e-10,1.378600840e-10,1.056600322e-10,1.725776991e-11,1.300638256e-10,1.775183735e-11,8.224246070e-11,7.990511385e-11,3.156573781e-11,5.144434674e-11,8.183888631e-11,1.073665970e-10,4.384764183e-11,2.660747218e-10,1.229267814e-10,4.679696126e-11,7.897624633e-10,4.007442613e-10,4.492895734e-10,1.614420042e-10,1.850022532e-10,1.359896659e-09,6.248837456e-11,3.114688586e-09,1.216934339e-08,5.870517809e-10
0.11719,2.112853229e-09,7.844484495e-10,5.640150645e-10,1.918805569e-10,1.642924170e-10,1.441809676e-10,5.670757549e-10,1.367111409e-10,1.048869422e-10,1.706958819e-11,1.284284005e-10,1.758901173e-11,8.163578541e-11,7.930045383e-11,3.145550105e-11,5.104405479e-11,8.137063159e-11,1.067171114e-10,4.352190777e-11,2.639201241e-10,1.218346957e-10,4.628240534e-11,7.837291481e-10,3.962427973e-10,4.439216253e-10,1.602713238e-10,1.830599356e-10,1.343976871e-09,6.274822226e-11,3.081299480e-09,1.208033508e-08,5.830025659e-10
0.125,2.090709623e-09,7.765745422e-10,5.572184323e-10,1.896564023e-10,1.630380590e-10,1.423205271e-10,5.596892108e-10,1.354917229e-10,1.040580507e-10,1.687321724e-11,1.267206528e-10,1.741842124e-11,8.098014534e-11,7.865201583e-11,3.133217875e-11,5.062378126e-11,8.086260993e-11,1.060126082e-10,4.317787598e-11,2.616410305e-10,1.206836923e-10,4.573881773e-11,7.771824373e-10,3.915384054e-10,4.383093917e-10,1.590110596e-10,1.810236287e-10,1.327298372e-09,6.298149554e-11,3.046212491e-09,1.198476417e-08,5.786066562e-10
0.13281,2.067495021e-09,7.682849477e-10,5.501256891e-10,1.873319717e-10,1.616913508e-10,1.403853373e-10,5.519882427e-10,1.342043019e-10,1.031756597e-10,1.666912740e-11,1.249454182e-10,1.724070091e-11,8.027887185e-11,7.795983105e-11,3.119636477e-11,5.018417974e-11,8.031639662e-11,1.052546573e-10,4.281597451e-11,2.592435150e-10,1.194754960e-10,4.516902885e-11,7.701468710e-10,3.866470329e-10,4.324766568e-10,1.576620113e-10,1.789009687e-10,1.309934198e-09,6.318742388e-11,3.009577866e-09,1.188282958e-08,5.738770823e-10
0.14062,2.043230170e-09,7.595851966e-10,5.427363016e-10,1.849083249e-10,1.602537182e-10,1.383762535e-10,5.439766847e-10,1.328508674e-10,1.022409400e-10,1.645726881e-11,1.231042094e-10,1.705632973e-11,7.953258862e-11,7.722513944e-11,3.104748695e-11,4.972517067e-11,7.973375123e-11,1.044441964e-10,4.243528688e-11,2.567314099e-10,1.182112078e-10,4.457342488e-11,7.626200750e-10,3.815761954e-10,4.264241519e-10,1.562254877e-10,1.766939164e-10,1.291903694e-09,6.336662146e-11,2.971435432e-09,1.177474019e-08,5.688157017e-10
0.14844,2.017964896e-09,7.504992377e-10,5.350615643e-10,1.823910027e-10,1.587289275e-10,1.362966884e-10,5.356754582e-10,1.314343470e-10,1.012564293e-10,1.623896100e-11,1.212019275e-10,1.686585537e-11,7.874466369e-11,7.644788759e-11,3.088672365e-11,4.924957529e-11,7.911718212e-11,1.035855103e-10,4.203710282e-11,2.541110093e-10,1.168932871e-10,4.395388326e-11,7.546320268e-10,3.763318215e-10,4.201621578e-10,1.547048875e-10,1.744046126e-10,1.273239722e-09,6.351892613e-11,2.931859234e-09,1.166076426e-08,5.634373300e-10
0.15625,1.991819363e-09,7.410746138e-10,5.271458352e-10,1.797947125e-10,1.571201169e-10,1.341580688e-10,5.271280775e-10,1.299589547e-10,1.002252814e-10,1.601531004e-11,1.192464992e-10,1.666958862e-11,7.791910767e-11,7.562818497e-11,3.071635116e-11,4.876026664e-11,7.846860531e-11,1.026818379e-10,4.162428759e-11,2.513905524e-10,1.155261658e-10,4.331342379e-11,7.462153840e-10,3.709327765e-10,4.137211227e-10,1.531033834e-10,1.720425407e-10,1.254019853e-09,6.364240378e-11,2.891017338e-09,1.154110178e-08,5.577567650e-10
0.16406,1.964827459e-09,7.313218229e-10,5.189994527e-10,1.771228639e-10,1.554311386e-10,1.319626194e-10,5.183347197e-10,1.284270015e-10,9.914927818e-11,1.578500220e-11,1.172379048e-10,1.646685783e-11,7.705635981e-11,7.476973710e-11,3.053564699e-11,4.825590902e-11,7.778972898e-11,1.017346854e-10,4.119842675e-11,2.485738815e-10,1.141153057e-10,4.265166337e-11,7.373764577e-10,3.653921172e-10,4.071088114e-10,1.514257697e-10,1.696139796e-10,1.234264000e-09,6.373638993e-11,2.848961298e-09,1.141597664e-08,5.517839566e-10
0.17188,1.937032145e-09,7.212583483e-10,5.106233073e-10,1.743776102e-10,1.536654032e-10,1.297096013e-10,5.093015237e-10,1.268395378e-10,9.802901342e-11,1.554780533e-11,1.151795987e-10,1.625807729e-11,7.615754567e-11,7.387604012e-11,3.034286278e-11,4.773604631e-11,7.708191913e-11,1.007464778e-10,4.076019915e-11,2.456619469e-10,1.126629949e-10,4.196955387e-11,7.281429603e-10,3.597143035e-10,4.003331595e-10,1.496757747e-10,1.671220854e-10,1.214003672e-09,6.380141712e-11,2.805761582e-09,1.128566557e-08,5.455346694e-10
0.17969,1.908534489e-09,7.109198196e-10,5.020484979e-10,1.715696619e-10,1.518245161e-10,1.274080481e-10,5.000720713e-10,1.252003476e-10,9.686614078e-11,1.530591751e-11,1.130821201e-10,1.604522581e-11,7.522513121e-11,7.294709832e-11,3.013934880e-11,4.720347360e-11,7.634435848e-11,9.971730930e-11,4.030916121e-11,2.426589289e-10,1.111667200e-10,4.127047645e-11,7.185408031e-10,3.539084396e-10,3.934166910e-10,1.478542111e-10,1.645712173e-10,1.193314111e-09,6.383700393e-11,2.761574766e-09,1.115038677e-08,5.390192986e-10
0.1875,1.879385408e-09,7.003229825e-10,4.932957594e-10,1.687030908e-10,1.499130499e-10,1.250635904e-10,4.906643569e-10,1.235134432e-10,9.566424907e-11,1.505979659e-11,1.109466528e-10,1.582852606e-11,7.426161632e-11,7.198351566e-11,2.992714723e-11,4.665818690e-11,7.557670510e-11,9.864639236e-11,3.984362992e-11,2.395680433e-10,1.096262667e-10,4.055543322e-11,7.085794946e-10,3.479827036e-10,3.863666433e-10,1.459641863e-10,1.619622677e-10,1.172219981e-09,6.384225967e-11,2.716463548e-09,1.101042250e-08,5.322511889e-10
0.19531,1.849640864e-09,6.894920455e-10,4.843770682e-10,1.657813922e-10,1.479361208e-10,1.226774302e-10,4.810869584e-10,1.217804446e-10,9.442581488e-11,1.480835188e-11,1.087722904e-10,1.560697740e-11,7.326942863e-11,7.098856628e-11,2.970569738e-11,4.609904252e-11,7.478103516e-11,9.753619765e-11,3.936425669e-11,2.363931090e-10,1.080486335e-10,3.982516988e-11,6.982858905e-10,3.419509311e-10,3.791986772e-10,1.440105515e-10,1.593000588e-10,1.150756988e-09,6.381696836e-11,2.670500567e-09,1.086608372e-08,5.252509769e-10
0.20312,1.819377349e-09,6.784540505e-10,4.753175767e-10,1.628160213e-10,1.458959342e-10,1.202581015e-10,4.713695220e-10,1.200051182e-10,9.315198755e-11,1.455259248e-11,1.065682900e-10,1.538146020e-11,7.224943390e-11,6.996473775e-11,2.947508488e-11,4.552943511e-11,7.396079244e-11,9.639093582e-11,3.887416519e-11,2.331478578e-10,1.064402210e-10,3.908211668e-11,6.876796402e-10,3.358349861e-10,3.719410403e-10,1.419960930e-10,1.565951282e-10,1.128999922e-09,6.376097241e-11,2.623823126e-09,1.071758318e-08,5.180261471e-10
0.21094,1.788658924e-09,6.672302225e-10,4.661423477e-10,1.598152024e-10,1.437972996e-10,1.178152994e-10,4.615354942e-10,1.181936137e-10,9.184622462e-11,1.429453932e-11,1.043433307e-10,1.515337702e-11,7.120479416e-11,6.891335839e-11,2.923810802e-11,4.495276669e-11,7.312110112e-11,9.521608583e-11,3.837509508e-11,2.298448512e-10,1.048018906e-10,3.832902606e-11,6.767811703e-10,3.296459147e-10,3.646012395e-10,1.399240644e-10,1.538520140e-10,1.106986944e-09,6.367380577e-11,2.576525535e-09,1.056522647e-08,5.105876524e-10
0.21875,1.757568480e-09,6.558531273e-10,4.568705347e-10,1.567818347e-10,1.416452224e-10,1.153516983e-10,4.516018024e-10,1.163492466e-10,9.051247561e-11,1.403448978e-11,1.020993985e-10,1.492277412e-11,7.014063427e-11,6.783735311e-11,2.899547467e-11,4.436811401e-11,7.226396073e-11,9.401553768e-11,3.786785443e-11,2.264833518e-10,1.031365261e-10,3.756836298e-11,6.656313932e-10,3.233894914e-10,3.571869776e-10,1.377992795e-10,1.510736073e-10,1.084754846e-09,6.355514996e-11,2.528707542e-09,1.040937909e-08,5.029600916e-10
0.22656,1.726134599e-09,6.443325465e-10,4.475074451e-10,1.537175800e-10,1.394405977e-10,1.128665595e-10,4.415810847e-10,1.144733622e-10,8.915198748e-11,1.377168637e-11,9.983707033e-11,1.468947298e-11,6.905687555e-11,6.674021332e-11,2.874492076e-11,4.377464426e-11,7.138546002e-11,9.278752737e-11,3.735350382e-11,2.230638197e-10,1.014501678e-10,3.680000817e-11,6.542440001e-10,3.170794304e-10,3.497186372e-10,1.356260952e-10,1.482671571e-10,1.062350818e-09,6.340490992e-11,2.480445599e-09,1.025028099e-08,4.951546191e-10
0.23438,1.694374764e-09,6.326767657e-10,4.380599939e-10,1.506275649e-10,1.371876787e-10,1.103633793e-10,4.314895305e-10,1.125689358e-10,8.776628486e-11,1.350633011e-11,9.756036450e-11,1.445372393e-11,6.795304810e-11,6.562361595e-11,2.848609662e-11,4.317430037e-11,7.048547383e-11,9.153116567e-11,3.683185274e-11,2.195960229e-10,9.974439306e-11,3.602352360e-11,6.426280771e-10,3.107290644e-10,3.422122260e-10,1.334081391e-10,1.454384296e-10,1.039811326e-09,6.322292114e-11,2.431801949e-09,1.008822695e-08,4.871800423e-10
0.24219,1.662411603e-09,6.209346379e-10,4.285608789e-10,1.475234399e-10,1.348940444e-10,1.078517493e-10,4.213614133e-10,1.106405223e-10,8.635892365e-11,1.323986265e-11,9.527750794e-11,1.421604653e-11,6.683341097e-11,6.448807533e-11,2.821971600e-11,4.256888869e-11,6.956950964e-11,9.025068467e-11,3.630267602e-11,2.160877976e-10,9.801822922e-11,3.524220447e-11,6.308224223e-10,3.043475649e-10,3.346846477e-10,1.311484226e-10,1.425924601e-10,1.017193783e-09,6.300980391e-11,2.382930078e-09,9.923593664e-09,4.790587696e-10
0.25,1.630327479e-09,6.091320160e-10,4.190355212e-10,1.444124085e-10,1.325635914e-10,1.053386843e-10,4.112151479e-10,1.086930896e-10,8.493319902e-11,1.297347636e-11,9.299437164e-11,1.397736389e-11,6.570048290e-11,6.333440065e-11,2.794541451e-11,4.195883110e-11,6.863921822e-11,8.894956233e-11,3.576748320e-11,2.125450068e-10,9.627509153e-11,3.445860419e-11,6.188455492e-10,2.979444037e-10,3.271468722e-10,1.288516794e-10,1.397349542e-10,9.945357273e-10,6.276834993e-11,2.333929363e-09,9.756660574e-09,4.708068306e-10
0.25781,1.598133640e-09,5.972721845e-10,4.094930996e-10,1.412968258e-10,1.301999164e-10,1.028264291e-10,4.010568631e-10,1.067300552e-10,8.349165221e-11,1.270741665e-11,9.071359387e-11,1.373861624e-11,6.455623414e-11,6.216489293e-11,2.766534429e-11,4.134554763e-11,6.769543607e-11,8.763108968e-11,3.522843147e-11,2.089772836e-10,9.452201116e-11,3.367291012e-11,6.067150071e-10,2.915342168e-10,3.196066139e-10,1.265255257e-10,1.368715759e-10,9.718584398e-10,6.250171746e-11,2.284826965e-09,9.587711625e-09,4.624377940e-10
0.26562,1.565907876e-09,5.853913920e-10,3.999547933e-10,1.381843781e-10,1.278083335e-10,1.003185776e-10,3.909139077e-10,1.047527875e-10,8.203683136e-11,1.244162171e-11,8.843863280e-11,1.350010404e-11,6.340526859e-11,6.098360473e-11,2.738278952e-11,4.073111668e-11,6.674300194e-11,8.630056725e-11,3.468706273e-11,2.053912429e-10,9.276421718e-11,3.288714130e-11,5.944758111e-10,2.851322232e-10,3.120844133e-10,1.241755165e-10,1.340093070e-10,9.492232805e-10,6.220965436e-11,2.235739776e-09,9.417088653e-09,4.539725094e-10
0.27344,1.533696302e-09,5.735078517e-10,3.904354820e-10,1.350794473e-10,1.253926439e-10,9.781791530e-11,3.807998449e-10,1.027637731e-10,8.057130544e-11,1.217598913e-11,8.617087307e-11,1.326148645e-11,6.224861513e-11,5.979405032e-11,2.709643013e-11,4.011519706e-11,6.578235960e-11,8.495906009e-11,3.414322975e-11,2.017871996e-10,9.100170811e-11,3.210269744e-11,5.821429434e-10,2.787404446e-10,3.045884630e-10,1.218038234e-10,1.311505205e-10,9.266567951e-10,6.188951392e-11,2.186734930e-09,9.245085503e-09,4.454258026e-10
0.28125,1.501495221e-09,5.616162735e-10,3.809446886e-10,1.319815922e-10,1.229572545e-10,9.532702003e-11,3.707175904e-10,1.007672521e-10,7.909752439e-11,1.191095512e-11,8.391359480e-11,1.302289174e-11,6.108514661e-11,5.859754157e-11,2.680346095e-11,3.949735241e-11,6.481013985e-11,8.360413045e-11,3.359623960e-11,1.981677715e-10,8.923366455e-11,3.131899810e-11,5.697198336e-10,2.723615303e-10,2.971162192e-10,1.194136307e-10,1.282936852e-10,9.041535316e-10,6.154079227e-11,2.137811521e-09,9.071979111e-09,4.368101783e-10
0.28906,1.469385041e-09,5.497463323e-10,3.715044654e-10,1.288977332e-10,1.205074415e-10,9.285231124e-11,3.606984153e-10,9.876674228e-11,7.761779856e-11,1.164766829e-11,8.167499053e-11,1.278534359e-11,5.991770707e-11,5.739425695e-11,2.650497149e-11,3.887988478e-11,6.382910940e-11,8.223789909e-11,3.304760604e-11,1.945409835e-10,8.746441027e-11,3.053782130e-11,5.572460181e-10,2.660129119e-10,2.896854492e-10,1.170091206e-10,1.254427884e-10,8.817678716e-10,6.116511538e-11,2.089084210e-09,8.898063639e-09,4.281431745e-10
0.29688,1.437429493e-09,5.379253362e-10,3.621180649e-10,1.258347232e-10,1.180467669e-10,9.039684039e-11,3.507588117e-10,9.676508976e-11,7.613460284e-11,1.138624092e-11,7.945610311e-11,1.254900904e-11,5.874972701e-11,5.618504092e-11,2.620294619e-11,3.826357021e-11,6.284405544e-11,8.086510018e-11,3.249899804e-11,1.909128124e-10,8.569811863e-11,2.976163145e-11,5.447521932e-10,2.597018929e-10,2.823083057e-10,1.145940095e-10,1.226030014e-10,8.595398379e-10,6.076316389e-11,2.040639935e-09,8.723637560e-09,4.194410686e-10
0.30469,1.405616524e-09,5.261522294e-10,3.527818534e-10,1.227923790e-10,1.155791064e-10,8.795946089e-11,3.408899827e-10,9.476498467e-11,7.465000475e-11,1.112580346e-11,7.725305917e-11,1.231293332e-11,5.758208022e-11,5.497273754e-11,2.589718236e-11,3.764709161e-11,6.185473493e-11,7.948725775e-11,3.195010356e-11,1.872852570e-10,8.393450637e-11,2.899026434e-11,5.322460901e-10,2.534251505e-10,2.749816936e-10,1.121731236e-10,1.197766681e-10,8.374637844e-10,6.033479246e-11,1.992468120e-09,8.548980019e-09,4.107188334e-10
0.3125,1.373982289e-09,5.144380207e-10,3.435234590e-10,1.197728345e-10,1.131091384e-10,8.554398029e-11,3.311094582e-10,9.276862075e-11,7.316542824e-11,1.086682383e-11,7.507101696e-11,1.207726511e-11,5.641571185e-11,5.376089855e-11,2.558768396e-11,3.703153685e-11,6.086086257e-11,7.810513741e-11,3.140148569e-11,1.836628120e-10,8.217514512e-11,2.822406260e-11,5.197472595e-10,2.471937865e-10,2.677194729e-10,1.097512533e-10,1.169680116e-10,8.155765127e-10,5.987978174e-11,1.944639343e-09,8.374306125e-09,4.019898333e-10
0.32031,1.342586730e-09,5.028032121e-10,3.343654479e-10,1.167806638e-10,1.106401407e-10,8.315611258e-11,3.214430035e-10,9.077874761e-11,7.168319224e-11,1.061054587e-11,7.291655684e-11,1.184303164e-11,5.525327073e-11,5.255136379e-11,2.527557690e-11,3.641793231e-11,5.986445281e-11,7.672114001e-11,3.085407697e-11,1.800511227e-10,8.042336895e-11,2.746558238e-11,5.072832144e-10,2.410190740e-10,2.605365181e-10,1.073304822e-10,1.141787085e-10,7.939186759e-10,5.939723189e-11,1.897237485e-09,8.199852016e-09,3.932669798e-10
0.32812,1.311449754e-09,4.912610650e-10,3.253055258e-10,1.138181281e-10,1.081745463e-10,8.079724241e-11,3.118949013e-10,8.879811836e-11,7.020578531e-11,1.035709675e-11,7.078873564e-11,1.161035226e-11,5.409732807e-11,5.134528931e-11,2.496114632e-11,3.580523615e-11,5.886641522e-11,7.533702432e-11,3.030710866e-11,1.764520698e-10,7.867989460e-11,2.671635349e-11,4.948732050e-10,2.349022770e-10,2.534327799e-10,1.049117425e-10,1.114081229e-10,7.724939940e-10,5.888721506e-11,1.850271145e-09,8.025897628e-09,3.845644982e-10
0.33594,1.280594514e-09,4.798226620e-10,3.163509135e-10,1.108879160e-10,1.057149884e-10,7.846832630e-11,3.024713514e-10,8.682802725e-11,6.873419448e-11,1.010629645e-11,6.868857420e-11,1.137930603e-11,5.294814622e-11,5.014367309e-11,2.464397404e-11,3.519476714e-11,5.786797044e-11,7.395460783e-11,2.976141618e-11,1.728693754e-10,7.694716992e-11,2.597573685e-11,4.825251246e-10,2.288530451e-10,2.464166690e-10,1.024981995e-10,1.086617821e-10,7.513259529e-10,5.835184766e-11,1.803781199e-09,7.852626855e-09,3.758909973e-10
0.34375,1.250056766e-09,4.684993698e-10,3.075184076e-10,1.079940842e-10,1.032649718e-10,7.617266214e-11,2.931885981e-10,8.487025689e-11,6.726986774e-11,9.858603434e-12,6.662179323e-11,1.115068405e-11,5.180602464e-11,4.894622658e-11,2.432438984e-11,3.458874952e-11,5.687138944e-11,7.257677759e-11,2.921929736e-11,1.693097784e-10,7.522939307e-11,2.524395415e-11,4.702522840e-10,2.228830451e-10,2.395013371e-10,1.000950393e-10,1.059456605e-10,7.304492910e-10,5.779270502e-11,1.757836254e-09,7.680190791e-09,3.672559061e-10
0.35156,1.219862091e-09,4.573039301e-10,2.988151672e-10,1.051393839e-10,1.008285883e-10,7.391273986e-11,2.840573818e-10,8.292787571e-11,6.581517313e-11,9.614475336e-12,6.459001632e-11,1.092461318e-11,5.067316925e-11,4.775447955e-11,2.400284511e-11,3.398598358e-11,5.587718338e-11,7.120428613e-11,2.868011344e-11,1.657745361e-10,7.352648969e-11,2.452289155e-11,4.580843333e-10,2.169921350e-10,2.326884481e-10,9.770587128e-11,1.032590953e-10,7.098744071e-10,5.721006497e-11,1.712463272e-09,7.508807288e-09,3.586753584e-10
0.35938,1.190017020e-09,4.462408840e-10,2.902412066e-10,1.023241716e-10,9.840807464e-11,7.168870184e-11,2.750772422e-10,8.100238169e-11,6.437111759e-11,9.374026624e-12,6.259153441e-11,1.070065219e-11,4.955050672e-11,4.657230521e-11,2.367935437e-11,3.338540639e-11,5.488514703e-11,6.983662868e-11,2.814260971e-11,1.622629415e-10,7.183734162e-11,2.381322029e-11,4.460375532e-10,2.111775931e-10,2.259755831e-10,9.533172492e-11,1.006007367e-10,6.896005539e-10,5.660445098e-11,1.667663197e-09,7.338639635e-09,3.501573463e-10
0.36719,1.160535201e-09,4.353143341e-10,2.818022716e-10,9.955052321e-11,9.600453575e-11,6.950229498e-11,2.662522994e-10,7.909377663e-11,6.293841767e-11,9.137189884e-12,6.062943494e-11,1.047914124e-11,4.843869729e-11,4.540012376e-11,2.335468364e-11,3.278950898e-11,5.389645999e-11,6.847623695e-11,2.760871765e-11,1.587806535e-10,7.016470488e-11,2.311460204e-11,4.341144595e-10,2.054441482e-10,2.193670759e-10,9.297424550e-11,9.797308835e-11,6.696401589e-10,5.597658750e-11,1.623461315e-09,7.169804548e-09,3.417061183e-10
0.375,1.131462580e-09,4.245440449e-10,2.735129468e-10,9.682356681e-11,9.362104318e-11,6.735760585e-11,2.576003583e-10,7.720322804e-11,6.151861440e-11,8.903898068e-12,5.870859765e-11,1.026040536e-11,4.734032771e-11,4.423626878e-11,2.302957369e-11,3.220078456e-11,5.291278209e-11,6.712577893e-11,2.708042490e-11,1.553340520e-10,6.851204957e-11,2.242769344e-11,4.223324911e-10,1.998034367e-10,2.128751924e-10,9.063679567e-11,9.538066094e-11,6.500264710e-10,5.532786118e-11,1.579924844e-09,7.002469448e-09,3.333352889e-10
0.38281,1.102813362e-09,4.139358269e-10,2.653781649e-10,9.414364896e-11,9.126104146e-11,6.525526042e-11,2.491275952e-10,7.533287729e-11,6.011236370e-11,8.674356723e-12,5.682807731e-11,1.004381606e-11,4.625553902e-11,4.308299350e-11,2.270282187e-11,3.161825974e-11,5.193509577e-11,6.578456840e-11,2.655673045e-11,1.519250851e-10,6.688025100e-11,2.175292203e-11,4.107040074e-10,1.942614956e-10,2.065057326e-10,8.832175539e-11,9.282506631e-11,6.307728337e-10,5.465982377e-11,1.537077757e-09,6.836770247e-09,3.250533651e-10
0.39062,1.074564199e-09,4.034784997e-10,2.573945720e-10,9.150812743e-11,8.892562941e-11,6.319460790e-11,2.408299540e-10,7.348478567e-11,5.872025607e-11,8.449121962e-12,5.498666485e-11,9.829410076e-12,4.518285570e-11,4.194300410e-11,2.237369024e-11,3.104003758e-11,5.096345402e-11,6.445216464e-11,2.603610899e-11,1.485547539e-10,6.526845601e-11,2.109049676e-11,3.992292681e-10,1.888134102e-10,2.002530463e-10,8.602965212e-11,9.030390307e-11,6.118643254e-10,5.397166416e-11,1.494889446e-09,6.672790081e-09,3.168608789e-10
0.39844,1.046739874e-09,3.931846183e-10,2.495692317e-10,8.892037506e-11,8.661530624e-11,6.117822190e-11,2.327178054e-10,7.166073751e-11,5.734432181e-11,8.228726588e-12,5.318699844e-11,9.618410219e-12,4.412490755e-11,4.081527324e-11,2.204475105e-11,3.046723983e-11,4.999918832e-11,6.313137840e-11,2.551961970e-11,1.452233341e-10,6.367721282e-11,2.044172270e-11,3.879251520e-10,1.834592127e-10,1.941188992e-10,8.376165534e-11,8.781777612e-11,5.933116554e-10,5.326272006e-11,1.453388456e-09,6.510649063e-09,3.087658039e-10
0.40625,1.019367142e-09,3.830693618e-10,2.419011232e-10,8.638290923e-11,8.433170549e-11,5.920524309e-11,2.247921550e-10,6.986115297e-11,5.598597364e-11,8.012867252e-12,5.142774819e-11,9.410873438e-12,4.308490046e-11,3.969951413e-11,2.171801908e-11,2.990087011e-11,4.904506699e-11,6.182515814e-11,2.500944215e-11,1.419297648e-10,6.210887686e-11,1.980716122e-11,3.768091119e-10,1.782035167e-10,1.881099561e-10,8.152016720e-11,8.536982696e-11,5.751299449e-10,5.253557044e-11,1.412612518e-09,6.350480732e-09,3.007774620e-10
0.41406,9.924209367e-10,3.731230532e-10,2.343777625e-10,8.389248614e-11,8.207619462e-11,5.727208488e-11,2.170394850e-10,6.808549839e-11,5.464493237e-11,7.800466153e-12,4.970556557e-11,9.205455094e-12,4.206158577e-11,3.859846111e-11,2.139104369e-11,2.933811735e-11,4.809947540e-11,6.053280638e-11,2.450542649e-11,1.386743194e-10,6.056320443e-11,1.918599371e-11,3.658780294e-10,1.730430697e-10,1.822238966e-10,7.930604927e-11,8.295916910e-11,5.573061015e-10,5.179164683e-11,1.372531825e-09,6.192370606e-09,2.928973067e-10
0.42188,9.659099803e-10,3.633472564e-10,2.270074652e-10,8.144940185e-11,7.984964816e-11,5.538084489e-11,2.094686107e-10,6.633444755e-11,5.332137436e-11,7.591350257e-12,4.802284162e-11,9.002019638e-12,4.105307872e-11,3.751366672e-11,2.106155980e-11,2.877846678e-11,4.715873933e-11,5.925227855e-11,2.400639037e-11,1.354589504e-10,5.903825797e-11,1.857802584e-11,3.551306039e-10,1.679781373e-10,1.764621600e-10,7.711913382e-11,8.058596734e-11,5.398495977e-10,5.103029757e-11,1.333156648e-09,6.036378749e-09,2.851273989e-10
0.42969,9.398769090e-10,3.537597913e-10,2.198052781e-10,7.905705459e-11,7.765392913e-11,5.353427649e-11,2.020951290e-10,6.460949687e-11,5.201676492e-11,7.386794153e-12,4.638343017e-11,8.801996702e-12,4.006084724e-11,3.644367582e-11,2.073232804e-11,2.822706156e-11,4.622650548e-11,5.798565597e-11,2.351318671e-11,1.322869270e-10,5.753592305e-11,1.798395768e-11,3.445787518e-10,1.630160179e-10,1.708321317e-10,7.496163052e-11,7.825431872e-11,5.227857504e-10,5.025372737e-11,1.294540385e-09,5.882585149e-09,2.774747457e-10
0.4375,9.143251373e-10,3.443628056e-10,2.127683522e-10,7.671597304e-11,7.549083787e-11,5.173197427e-11,1.949152658e-10,6.291151788e-11,5.073212612e-11,7.187603517e-12,4.478880923e-11,8.606321940e-12,3.908750137e-11,3.538748581e-11,2.040678855e-11,2.768671663e-11,4.530783004e-11,5.673661714e-11,2.302683487e-11,1.291626576e-10,5.605907232e-11,1.740442775e-11,3.342310758e-10,1.581581562e-10,1.653333022e-10,7.283612800e-11,7.596504553e-11,5.061095422e-10,4.946479837e-11,1.256682448e-09,5.731072362e-09,2.699442161e-10
0.44531,8.892525429e-10,3.351506998e-10,2.058971686e-10,7.442682886e-11,7.336105339e-11,4.997573765e-11,1.879256717e-10,6.124119577e-11,4.946729336e-11,6.993154756e-12,4.323846908e-11,8.414496191e-12,3.813338692e-11,3.434715852e-11,2.008388735e-11,2.715459834e-11,4.439991421e-11,5.550414578e-11,2.254662759e-11,1.260880732e-10,5.460737798e-11,1.683919453e-11,3.240850607e-10,1.534058415e-10,1.599644531e-10,7.074302817e-11,7.371753823e-11,4.898167943e-10,4.866352753e-11,1.219580649e-09,5.581886735e-09,2.625360020e-10
0.45312,8.646787261e-10,3.261280969e-10,1.991999601e-10,7.219089157e-11,7.126593555e-11,4.826647246e-11,1.811294800e-10,5.959898897e-11,4.822220007e-11,6.802861077e-12,4.172957417e-11,8.225506793e-12,3.719739094e-11,3.332501834e-11,1.976092816e-11,2.662783736e-11,4.350002018e-11,5.428587808e-11,2.207201552e-11,1.230606633e-10,5.318079769e-11,1.628758201e-11,3.141440684e-10,1.487631292e-10,1.547296934e-10,6.868386767e-11,7.151436508e-11,4.739193571e-10,4.785045943e-11,1.183269005e-09,5.435075315e-09,2.552535845e-10
0.46094,8.406024098e-10,3.172981276e-10,1.926749597e-10,7.000736451e-11,6.920700326e-11,4.660174329e-11,1.745265954e-10,5.798493048e-11,4.699742162e-11,6.617097497e-12,4.026230392e-11,8.039319335e-12,3.627953137e-11,3.232088947e-11,1.943815027e-11,2.610625892e-11,4.261047521e-11,5.308294743e-11,2.160316204e-11,1.200776900e-10,5.178050184e-11,1.575007418e-11,3.044223014e-10,1.442268831e-10,1.496275761e-10,6.666132537e-11,6.935625847e-11,4.584137128e-10,4.702730094e-11,1.147748478e-09,5.290702917e-09,2.481038002e-10
0.46875,8.170072715e-10,3.086539825e-10,1.863162656e-10,6.787531395e-11,6.718435181e-11,4.498123942e-11,1.681148352e-10,5.639975536e-11,4.579348156e-11,6.436284894e-12,3.883986534e-11,7.856772325e-12,3.538018707e-11,3.133477690e-11,1.911761713e-11,2.559124663e-11,4.173221399e-11,5.189679467e-11,2.114026200e-11,1.171404662e-10,5.040638862e-11,1.522728184e-11,2.949193619e-10,1.397939997e-10,1.446520438e-10,6.467566880e-11,6.724160082e-11,4.432891910e-10,4.619524356e-11,1.112994982e-09,5.148803050e-09,2.410867043e-10
0.47656,7.939046148e-10,3.001943989e-10,1.801240739e-10,6.579540495e-11,6.519890021e-11,4.340586103e-11,1.618918825e-10,5.484446357e-11,4.461058495e-11,6.260230926e-12,3.746118089e-11,7.677978400e-12,3.449849263e-11,3.036842658e-11,1.879926687e-11,2.508369527e-11,4.086446626e-11,5.072698212e-11,2.068377473e-11,1.142529230e-10,4.905833073e-11,1.471855660e-11,2.856259858e-10,1.354683139e-10,1.398039058e-10,6.272659050e-11,6.517113937e-11,4.285512334e-10,4.535633120e-11,1.079023942e-09,5.009404734e-09,2.342005039e-10
0.48438,7.713120462e-10,2.919252289e-10,1.741009933e-10,6.376831494e-11,6.325251180e-11,4.187483302e-11,1.558592407e-10,5.331921734e-11,4.344855592e-11,6.088646412e-12,3.612382911e-11,7.502322654e-12,3.363290581e-11,2.942243117e-11,1.848077450e-11,2.458234816e-11,4.000660606e-11,4.957233626e-11,2.023344566e-11,1.114166800e-10,4.773600674e-11,1.422342973e-11,2.765485785e-10,1.312492461e-10,1.350869313e-10,6.081465341e-11,6.314543819e-11,4.142074029e-10,4.451172900e-11,1.045861033e-09,4.872560850e-09,2.274493594e-10
0.49219,7.492041907e-10,2.838373703e-10,1.682439945e-10,6.179218856e-11,6.134536979e-11,4.038732958e-11,1.500145644e-10,5.182429687e-11,4.230716872e-11,5.921394008e-12,3.482745903e-11,7.329566162e-12,3.278225911e-11,2.849608595e-11,1.816143666e-11,2.408570950e-11,3.915676502e-11,4.843147747e-11,1.978805988e-11,1.086287536e-10,4.643745637e-11,1.374177140e-11,2.676889803e-10,1.271296796e-10,1.304956695e-10,5.893985777e-11,6.116243883e-11,4.002427355e-10,4.366040451e-11,1.013475851e-09,4.738294870e-09,2.208351227e-10
0.5,7.275511238e-10,2.759177496e-10,1.625466657e-10,5.986462879e-11,5.947748377e-11,3.894265672e-11,1.443478880e-10,5.035998222e-11,4.118679451e-11,5.758160513e-12,3.357038163e-11,7.159663960e-12,3.194691257e-11,2.758998844e-11,1.784262058e-11,2.359372594e-11,3.831453626e-11,4.730457268e-11,1.934744410e-11,1.058848851e-10,4.516215902e-11,1.327344188e-11,2.590398672e-10,1.231072597e-10,1.260232927e-10,5.710360895e-11,5.922171618e-11,3.866384566e-10,4.280320504e-11,9.818323694e-10,4.606612111e-09,2.143575062e-10
0.50781,7.063689959e-10,2.681732613e-10,1.570107769e-10,5.798653498e-11,5.764985159e-11,3.754058021e-11,1.388600056e-10,4.892559274e-11,4.008775717e-11,5.598630028e-12,3.235198706e-11,6.992592098e-12,3.112801799e-11,2.670525312e-11,1.752419912e-11,2.310663186e-11,3.748148933e-11,4.619330221e-11,1.891264485e-11,1.031849456e-10,4.391216856e-11,1.281901028e-11,2.506091028e-10,1.191858098e-10,1.216739102e-10,5.530818221e-11,5.732526105e-11,3.734031182e-10,4.194270884e-11,9.509521251e-10,4.477542019e-09,2.080195266e-10
0.51562,6.856624460e-10,2.606069572e-10,1.516380831e-10,5.615800340e-11,5.586243179e-11,3.618094931e-11,1.335545135e-10,4.752113825e-11,3.900993828e-11,5.442868316e-12,3.117316776e-11,6.828648190e-12,3.032538053e-11,2.584131041e-11,1.720550059e-11,2.262536405e-11,3.665823340e-11,4.509876548e-11,1.848430186e-11,1.005333601e-10,4.268839875e-11,1.237812354e-11,2.424004650e-10,1.153663197e-10,1.174494939e-10,5.355275836e-11,5.547298964e-11,3.605424729e-10,4.107970613e-11,9.208362569e-10,4.351114792e-09,2.018205758e-10
0.52344,6.654047186e-10,2.532077415e-10,1.464204192e-10,5.437639533e-11,5.411465374e-11,3.486253852e-11,1.284232123e-10,4.614762591e-11,3.795359808e-11,5.291148167e-12,3.003281780e-11,6.668007536e-12,2.953881356e-11,2.499694156e-11,1.688802212e-11,2.215108276e-11,3.584541045e-11,4.402178691e-11,1.806236752e-11,9.793280704e-11,4.149025571e-11,1.194953241e-11,2.344025336e-10,1.116464092e-10,1.133438375e-10,5.183572608e-11,5.366349157e-11,3.480401024e-10,4.021496369e-11,8.914462426e-10,4.227343642e-09,1.957581645e-10
0.53125,6.456052514e-10,2.459785392e-10,1.413568946e-10,5.264269953e-11,5.240665895e-11,3.358581640e-11,1.234666354e-10,4.480463583e-11,3.691887377e-11,5.143632115e-12,2.893078811e-11,6.510500604e-12,2.876924766e-11,2.417274621e-11,1.657231196e-11,2.168269784e-11,3.504310716e-11,4.296222898e-11,1.764661416e-11,9.538099622e-11,4.031819485e-11,1.153380606e-11,2.266151980e-10,1.080278419e-10,1.093580271e-10,5.015811611e-11,5.189818935e-11,3.358971813e-10,3.935082182e-11,8.627981322e-10,4.106221513e-09,1.898347413e-10
0.53906,6.262816731e-10,2.389260915e-10,1.364535062e-10,5.095884985e-11,5.073902408e-11,3.235206352e-11,1.186888363e-10,4.349116586e-11,3.590532510e-11,5.000309785e-12,2.786718950e-11,6.355898885e-12,2.801629089e-11,2.337048521e-11,1.625669307e-11,2.121892280e-11,3.425012103e-11,4.191850181e-11,1.723695319e-11,9.287642196e-11,3.917290528e-11,1.113155252e-11,2.190438720e-10,1.045126270e-10,1.054947757e-10,4.852121180e-11,5.017860356e-11,3.241210354e-10,3.848932825e-11,8.349117744e-10,3.987734860e-09,1.840523320e-10
0.54688,6.074071277e-10,2.320408185e-10,1.317034192e-10,4.932181279e-11,4.911272111e-11,3.115920737e-11,1.140778870e-10,4.220785516e-11,3.491302567e-11,4.861130651e-12,2.683965430e-11,6.204050094e-12,2.727871885e-11,2.259023668e-11,1.594171284e-11,2.076117850e-11,3.346775953e-11,4.089109073e-11,1.683351174e-11,9.042144164e-11,3.805353050e-11,1.074155745e-11,2.116851846e-10,1.010957562e-10,1.017466457e-10,4.692481451e-11,4.850278788e-11,3.126917791e-10,3.763168271e-11,8.077390635e-10,3.871885678e-09,1.784105919e-10
0.55469,5.889644258e-10,2.253161528e-10,1.270977904e-10,4.772968729e-11,4.752759334e-11,3.000521726e-11,1.096271268e-10,4.095521115e-11,3.394221591e-11,4.726158516e-12,2.584809029e-11,6.055248273e-12,2.655686544e-11,2.183063004e-11,1.562985723e-11,2.031130352e-11,3.269831733e-11,3.988249653e-11,1.643657121e-11,8.801758011e-11,3.695905418e-11,1.036343403e-11,2.045353064e-10,9.777263796e-11,9.810885263e-11,4.536821131e-11,4.686929419e-11,3.015958880e-10,3.677845113e-11,7.812569835e-10,3.758658303e-09,1.729080172e-10
0.5625,5.709634524e-10,2.187540348e-10,1.226385940e-10,4.618377393e-11,4.598227510e-11,2.889042201e-11,1.053389685e-10,3.973227055e-11,3.299257163e-11,4.595448242e-12,2.489355346e-11,5.910028788e-12,2.585149526e-11,2.109103363e-11,1.532136255e-11,1.986982853e-11,3.194145798e-11,3.889348000e-11,1.604686870e-11,8.566475791e-11,3.588997256e-11,9.997373173e-12,1.975896891e-10,9.454389224e-11,9.458254365e-11,4.385096806e-11,4.527880505e-11,2.908357666e-10,3.592991837e-11,7.554834668e-10,3.648024913e-09,1.675411971e-10
0.57031,5.533957065e-10,2.123506890e-10,1.183248387e-10,4.468213879e-11,4.447684546e-11,2.781338341e-11,1.012057918e-10,3.853861276e-11,3.206414547e-11,4.468870792e-12,2.397365665e-11,5.768305472e-12,2.516230880e-11,2.037110639e-11,1.501521040e-11,1.943659647e-11,3.119714265e-11,3.792331170e-11,1.566495965e-11,8.336360776e-11,3.484690743e-11,9.642343450e-12,1.908453972e-10,9.140864221e-11,9.116469804e-11,4.237301769e-11,4.373001068e-11,2.804006311e-10,3.508665332e-11,7.303974919e-10,3.539986742e-09,1.623097228e-10
0.57812,5.362449354e-10,2.060999900e-10,1.141479426e-10,4.322152153e-11,4.301152553e-11,2.677162579e-11,9.722029797e-11,3.737469629e-11,3.115707718e-11,4.346194960e-12,2.308631692e-11,5.629630715e-12,2.448820462e-11,1.967024235e-11,1.471152857e-11,1.901021061e-11,3.046520930e-11,3.697062839e-11,1.528985181e-11,8.111245974e-11,3.382889396e-11,9.297949164e-12,1.843013251e-10,8.836375405e-11,8.785132530e-11,4.093324695e-11,4.222059365e-11,2.702786758e-10,3.424921002e-11,7.059696233e-10,3.434523675e-09,1.572134115e-10
0.58594,5.195117775e-10,2.000014409e-10,1.101016351e-10,4.180227089e-11,4.158491267e-11,2.576458913e-11,9.338055911e-11,3.624021537e-11,3.027061129e-11,4.227191191e-12,2.223057146e-11,5.493928665e-12,2.382815726e-11,1.898875989e-11,1.441060347e-11,1.858920080e-11,2.974328239e-11,3.603367642e-11,1.492013851e-11,7.890751078e-11,3.283467133e-11,8.964665482e-12,1.779498390e-10,8.540718205e-11,8.464072314e-11,3.953007691e-11,4.075107973e-11,2.604680480e-10,3.341959786e-11,6.822027333e-10,3.331591260e-09,1.522473668e-10
0.59375,5.032003659e-10,1.940586268e-10,1.061840689e-10,4.042544284e-11,4.019661586e-11,2.479191585e-11,8.968108417e-11,3.513434983e-11,2.940411358e-11,4.111725299e-12,2.140460852e-11,5.361352944e-12,2.318215233e-11,1.832730207e-11,1.411245828e-11,1.817419770e-11,2.903164694e-11,3.511268599e-11,1.455608632e-11,7.674858680e-11,3.186423734e-11,8.642059338e-12,1.717888919e-10,8.253723696e-11,8.153091702e-11,3.816427925e-11,3.932260823e-11,2.509639256e-10,3.260134935e-11,6.590990583e-10,3.231182078e-09,1.474105356e-10
0.60156,4.873011749e-10,1.882691872e-10,1.023929583e-10,3.908947637e-11,3.884686390e-11,2.385239176e-11,8.611814546e-11,3.405667951e-11,2.855779846e-11,3.999778372e-12,2.060834673e-11,5.232020765e-12,2.255056500e-11,1.768555504e-11,1.381762117e-11,1.776626019e-11,2.833297462e-11,3.420898889e-11,1.419869303e-11,7.463751162e-11,3.091771317e-11,8.329598735e-12,1.658214800e-10,7.975142231e-11,7.851911535e-11,3.683699528e-11,3.793355728e-11,2.417567051e-10,3.179443464e-11,6.366406990e-10,3.133270754e-09,1.427046172e-10
0.60938,4.717970170e-10,1.826236143e-10,9.872487190e-11,3.779234921e-11,3.753431325e-11,2.294493808e-11,8.268890795e-11,3.300679262e-11,2.773182712e-11,3.891237915e-12,1.984182033e-11,5.105825916e-12,2.193353302e-11,1.706293200e-11,1.352636316e-11,1.736504462e-11,2.764634371e-11,3.332214552e-11,1.384799735e-11,7.257295356e-11,2.999440681e-11,8.027382890e-12,1.600375411e-10,7.704611086e-11,7.560107471e-11,3.554669194e-11,3.658169785e-11,2.328337464e-10,3.099562964e-11,6.148008964e-10,3.037793786e-09,1.381255639e-10
0.61719,4.566874445e-10,1.771211798e-10,9.517917382e-11,3.653395651e-11,3.625806450e-11,2.206886460e-11,7.938851505e-11,3.198408317e-11,2.692570528e-11,3.785918836e-12,1.910305492e-11,4.982413609e-12,2.133120503e-11,1.645905924e-11,1.323802947e-11,1.697034467e-11,2.697007908e-11,3.245157418e-11,1.350364985e-11,7.055341510e-11,2.909392427e-11,7.735201319e-12,1.544295732e-10,7.441973558e-11,7.277567795e-11,3.429187368e-11,3.526742983e-11,2.241897056e-10,3.020570649e-11,5.935729164e-10,2.944723854e-09,1.336703325e-10
0.625,4.419758831e-10,1.717639413e-10,9.175309818e-11,3.531358514e-11,3.501800982e-11,2.122324405e-11,7.621381828e-11,3.098810481e-11,2.613869855e-11,3.683801726e-12,1.839150019e-11,4.861674885e-12,2.074283161e-11,1.587352672e-11,1.295228895e-11,1.658271548e-11,2.630580104e-11,3.159815712e-11,1.316576826e-11,6.858002719e-11,2.821637681e-11,7.452449014e-12,1.490002129e-10,7.187352776e-11,7.004403656e-11,3.307270029e-11,3.399162108e-11,2.158258361e-10,2.942821805e-11,5.729589046e-10,2.854034838e-09,1.293385647e-10
0.63281,4.276431325e-10,1.665415605e-10,8.843815568e-11,3.412860009e-11,3.381312046e-11,2.040650107e-11,7.315842315e-11,3.001847998e-11,2.537057743e-11,3.584885245e-12,1.770755970e-11,4.743662848e-12,2.016741783e-11,1.530599792e-11,1.266971165e-11,1.620215542e-11,2.565457954e-11,3.076258889e-11,1.283453011e-11,6.665252325e-11,2.736116923e-11,7.178821222e-12,1.437430323e-10,6.940458339e-11,6.739981007e-11,3.188868652e-11,3.275216535e-11,2.077280591e-10,2.866320416e-11,5.529278738e-10,2.765667730e-09,1.251264679e-10
0.64062,4.136802892e-10,1.614501618e-10,8.523313917e-11,3.297878660e-11,3.264280811e-11,1.961797972e-11,7.021700195e-11,2.907468632e-11,2.462136519e-11,3.488965415e-12,1.704990144e-11,4.628068648e-12,1.960546657e-11,1.475600449e-11,1.239027309e-11,1.582805713e-11,2.501532105e-11,2.994451236e-11,1.250960972e-11,6.476841864e-11,2.652733185e-11,6.914496543e-12,1.386524027e-10,6.700825732e-11,6.483662550e-11,3.073879933e-11,3.154691842e-11,1.998830174e-10,2.790971313e-11,5.334591082e-10,2.679585427e-09,1.210316449e-10
0.64844,4.000966473e-10,1.564963552e-10,8.214171441e-11,3.186559033e-11,3.150713486e-11,1.885807498e-11,6.739082170e-11,2.815602931e-11,2.389055199e-11,3.395788802e-12,1.641635052e-11,4.514666905e-12,1.905733835e-11,1.422312345e-11,1.211343834e-11,1.546007266e-11,2.438747639e-11,2.914307791e-11,1.219047615e-11,6.292720553e-11,2.571494810e-11,6.659380955e-12,1.337299323e-10,6.468613050e-11,6.235746147e-11,2.962288357e-11,3.037717910e-11,1.922967759e-10,2.716980130e-11,5.145701948e-10,2.595754132e-09,1.170532966e-10
0.65625,3.868791572e-10,1.516750342e-10,7.915639071e-11,3.078716357e-11,3.040525884e-11,1.812574382e-11,6.467568994e-11,2.726178207e-11,2.317758521e-11,3.305281514e-12,1.580495902e-11,4.403722425e-12,1.852240720e-11,1.370766447e-11,1.184003795e-11,1.509833937e-11,2.377128567e-11,2.835787821e-11,1.187715623e-11,6.113021182e-11,2.492450418e-11,6.412761955e-12,1.289675068e-10,6.243896324e-11,5.996375898e-11,2.854110282e-11,2.924468445e-11,1.849659461e-10,2.644544355e-11,4.962483771e-10,2.514118565e-09,1.131874411e-10
0.66406,3.740161224e-10,1.469805130e-10,7.627109095e-11,2.974190505e-11,2.933635520e-11,1.741974898e-11,6.206580583e-11,2.639167181e-11,2.248224081e-11,3.217625533e-12,1.521585476e-11,4.295476552e-12,1.800068515e-11,1.321003588e-11,1.157112660e-11,1.474331854e-11,2.316699342e-11,2.758921299e-11,1.157011893e-11,5.937705651e-11,2.415519188e-11,6.174346990e-12,1.243566503e-10,6.026207989e-11,5.765215329e-11,2.749297998e-11,2.814911707e-11,1.778783116e-10,2.573642795e-11,4.784643566e-10,2.434636708e-09,1.094314973e-10
0.67188,3.615165450e-10,1.424166329e-10,7.349015658e-11,2.873104346e-11,2.830005664e-11,1.674037486e-11,5.956252535e-11,2.554578448e-11,2.180411465e-11,3.133054879e-12,1.465100282e-11,4.190031366e-12,1.749199915e-11,1.272954183e-11,1.130615618e-11,1.439546049e-11,2.257495371e-11,2.683715698e-11,1.126964593e-11,5.766656443e-11,2.340599376e-11,5.944164286e-12,1.198973487e-10,5.815362161e-11,5.541970862e-11,2.647711151e-11,2.708889438e-11,1.710323627e-10,2.504226057e-11,4.612207821e-10,2.357270808e-09,1.057840651e-10
0.67969,3.493664067e-10,1.379777682e-10,7.080961550e-11,2.775331992e-11,2.729546492e-11,1.608662466e-11,5.716077782e-11,2.472365872e-11,2.114301968e-11,3.051475183e-12,1.410987428e-11,4.087540161e-12,1.699565676e-11,1.226474072e-11,1.104495287e-11,1.405483835e-11,2.199531154e-11,2.610172050e-11,1.097592357e-11,5.599944593e-11,2.267771480e-11,5.721602955e-12,1.155854439e-10,5.611356462e-11,5.326086168e-11,2.549218395e-11,2.606142137e-11,1.644169052e-10,2.436275777e-11,4.445013602e-10,2.281982649e-09,1.022412825e-10
0.6875,3.375449595e-10,1.336555934e-10,6.822049123e-11,2.680615257e-11,2.632172899e-11,1.545652426e-11,5.485108266e-11,2.392440360e-11,2.049887373e-11,2.972479660e-12,1.358967508e-11,3.987748237e-12,1.651183230e-11,1.181513121e-11,1.078829779e-11,1.372091194e-11,2.142765630e-11,2.538284872e-11,1.068874494e-11,5.437562676e-11,2.197098263e-11,5.506390104e-12,1.114159680e-10,5.413875588e-11,5.117259084e-11,2.453796731e-11,2.506548052e-11,1.580167833e-10,2.369794758e-11,4.282780216e-10,2.208739671e-09,9.880061030e-11
0.69531,3.260596905e-10,1.294526860e-10,6.572329035e-11,2.588989153e-11,2.537851452e-11,1.484983881e-11,5.263243826e-11,2.314759193e-11,1.987081997e-11,2.895784432e-12,1.308868383e-11,3.890005342e-12,1.604029109e-11,1.138161031e-11,1.053538819e-11,1.339263102e-11,2.087101771e-11,2.467911424e-11,1.040700863e-11,5.279153718e-11,2.128358792e-11,5.298907474e-12,1.073863913e-10,5.222695412e-11,4.915759331e-11,2.361406327e-11,2.410242584e-11,1.518352790e-10,2.304852721e-11,4.125603637e-10,2.137484900e-09,9.546025494e-11
0.70312,3.149083743e-10,1.253678738e-10,6.331632726e-11,2.500411751e-11,2.446533994e-11,1.426595145e-11,5.050298469e-11,2.239286839e-11,1.925838728e-11,2.821415884e-12,1.260595730e-11,3.794238246e-12,1.558012894e-11,1.096414082e-11,1.028488818e-11,1.306943176e-11,2.032470119e-11,2.398944206e-11,1.013017817e-11,5.124463223e-11,2.061342437e-11,5.098744757e-12,1.034909751e-10,5.037704393e-11,4.721288478e-11,2.271951177e-11,2.317182703e-11,1.458694405e-10,2.241477923e-11,3.973424330e-10,2.068162999e-09,9.221745540e-11
0.71094,3.040728987e-10,1.213949909e-10,6.099249642e-11,2.414652542e-11,2.358131725e-11,1.370301817e-11,4.845670268e-11,2.165936162e-11,1.866214871e-11,2.749360492e-12,1.214110278e-11,3.700945877e-12,1.513165379e-11,1.056064764e-11,1.003745296e-11,1.275187659e-11,1.978925141e-11,2.331502017e-11,9.859232449e-12,4.973627764e-11,1.996159401e-11,4.905211160e-12,9.972672874e-11,4.858655588e-11,4.533243256e-11,2.185424869e-11,2.227120392e-11,1.401041312e-10,2.179585441e-11,3.825911678e-10,2.000748720e-09,8.907147275e-11
0.71875,2.935519653e-10,1.175332393e-10,5.875069510e-11,2.331671703e-11,2.272526467e-11,1.316078908e-11,4.649131864e-11,2.094645746e-11,1.808182712e-11,2.679264223e-12,1.169406220e-11,3.610085785e-12,1.469503606e-11,1.017015997e-11,9.793913487e-12,1.244031599e-11,1.926505981e-11,2.265608046e-11,9.594436669e-12,4.826623725e-11,1.932885293e-11,4.718419814e-12,9.609080463e-11,4.685393851e-11,4.351672962e-11,2.101801437e-11,2.140028397e-11,1.345366699e-10,2.119141799e-11,3.683034128e-10,1.935202528e-09,8.602042668e-11
0.72656,2.833450117e-10,1.137812216e-10,5.659092722e-11,2.251490335e-11,2.189622424e-11,1.263975291e-11,4.460467637e-11,2.025422874e-11,1.751633272e-11,2.610884845e-12,1.126386003e-11,3.521192898e-12,1.426918382e-11,9.794137677e-12,9.553630351e-12,1.213386356e-11,1.875075233e-11,2.201043157e-11,9.334319618e-12,4.683057446e-11,1.871260799e-11,4.538332733e-12,9.257501696e-11,4.517728329e-11,4.176526666e-11,2.020880639e-11,2.055939116e-11,1.291661531e-10,2.060243918e-11,3.544798094e-10,1.871478123e-09,8.305965009e-11
0.73438,2.734406525e-10,1.101352784e-10,5.450925521e-11,2.173984159e-11,2.109378868e-11,1.213894057e-11,4.279349286e-11,1.958268060e-11,1.696543052e-11,2.544563052e-12,1.084986757e-11,3.434313576e-12,1.385358576e-11,9.433128547e-12,9.316112850e-12,1.183176839e-11,1.824492440e-11,2.137693467e-11,9.078056863e-12,4.542740025e-11,1.811061349e-11,4.364381101e-12,8.917529020e-11,4.355315625e-11,4.007369206e-11,1.942506218e-11,1.974713577e-11,1.239825653e-10,2.002966245e-11,3.410991321e-10,1.809546052e-09,8.018646965e-11
0.74219,2.638324256e-10,1.065926408e-10,5.250280629e-11,2.099034778e-11,2.031752133e-11,1.165710957e-11,4.105580180e-11,1.893120238e-11,1.642901429e-11,2.480621152e-12,1.045207514e-11,3.349606963e-12,1.344822746e-11,9.085669097e-12,9.081743481e-12,1.153454028e-11,1.774826367e-11,2.075643599e-11,8.826504511e-12,4.405857213e-11,1.752391286e-11,4.196246444e-12,8.589016978e-11,4.198084119e-11,3.844071087e-11,1.866708612e-11,1.896264888e-11,1.189797414e-10,1.947238993e-11,3.281505672e-10,1.749357158e-09,7.739906730e-11
0.75,2.545148910e-10,1.031498232e-10,5.056957599e-11,2.026588427e-11,1.956671085e-11,1.119376420e-11,3.938843915e-11,1.829864317e-11,1.590649224e-11,2.418792240e-12,1.006961677e-11,3.266852412e-12,1.305292817e-11,8.750581662e-12,8.851201597e-12,1.124316594e-11,1.726269187e-11,2.015017390e-11,8.580725987e-12,4.272608606e-11,1.695444710e-11,4.033960160e-12,8.271593754e-11,4.046158965e-11,3.686569625e-11,1.793488207e-11,1.820541400e-11,1.141536760e-10,1.892917723e-11,3.156271063e-10,1.690864046e-09,7.469526626e-11
0.75781,2.454827242e-10,9.980678472e-11,4.870770909e-11,1.956629713e-11,1.884049060e-11,1.074838719e-11,3.778880037e-11,1.768396249e-11,1.539788305e-11,2.358806338e-12,9.701929867e-12,3.186121170e-12,1.266814801e-11,8.427317385e-12,8.625240386e-12,1.095822639e-11,1.678923972e-11,1.955920936e-11,8.341068541e-12,4.143048533e-11,1.640244640e-11,3.877600440e-12,7.965226538e-11,3.899403540e-11,3.534608727e-11,1.722718101e-11,1.747413750e-11,1.094982148e-10,1.839971574e-11,3.035149733e-10,1.634050608e-09,7.207459926e-11
0.76562,2.367328863e-10,9.656408399e-11,4.691536317e-11,1.889108448e-11,1.813786850e-11,1.032008276e-11,3.625473270e-11,1.708709349e-11,1.490337805e-11,2.300770975e-12,9.348905266e-12,3.107736474e-12,1.229394082e-11,8.115287774e-12,8.404002737e-12,1.067963509e-11,1.632713439e-11,1.898305980e-11,8.106980530e-12,4.017013997e-11,1.586641477e-11,3.726879928e-12,7.669524247e-11,3.757525579e-11,3.388025256e-11,1.654290875e-11,1.676827130e-11,1.050089892e-10,1.788497593e-11,2.918073810e-10,1.578878304e-09,6.953478094e-11
0.77344,2.282548279e-10,9.341555625e-11,4.518877002e-11,1.823866177e-11,1.745824371e-11,9.908116945e-12,3.478228338e-11,1.650844866e-11,1.442233223e-11,2.244648025e-12,9.009530878e-12,3.031553645e-12,1.192939255e-11,7.814408919e-12,8.187062139e-12,1.040691353e-11,1.587526221e-11,1.842006741e-11,7.877540706e-12,3.894210913e-11,1.534489204e-11,3.581286307e-12,7.383551791e-11,3.620364635e-11,3.246698133e-11,1.588152533e-11,1.608758559e-11,1.006809082e-10,1.738467330e-11,2.804932731e-10,1.525287593e-09,6.707149614e-11
0.78125,2.200396703e-10,9.035771359e-11,4.352566659e-11,1.760832565e-11,1.680124345e-11,9.512227889e-12,3.336979582e-11,1.594756823e-11,1.395413180e-11,2.190144430e-12,8.683073607e-12,2.957316838e-12,1.157454234e-11,7.524831083e-12,7.974584261e-12,1.014002465e-11,1.543408335e-11,1.787052526e-11,7.652855885e-12,3.774611275e-11,1.483823044e-11,3.440961028e-12,7.107229786e-11,3.487849225e-11,3.110479903e-11,1.524226805e-11,1.543104059e-11,9.650877469e-11,1.689720912e-11,2.695578106e-10,1.473248871e-09,6.468325260e-11
0.78906,2.120882347e-10,8.739363126e-11,4.192605062e-11,1.700076251e-11,1.616596694e-11,9.132030218e-12,3.201606123e-11,1.540340916e-11,1.349869921e-11,2.137187846e-12,8.369314625e-12,2.885031013e-12,1.122980096e-11,7.246234124e-12,7.766825775e-12,9.879212472e-12,1.500423896e-11,1.733558006e-11,7.433669914e-12,3.658378574e-11,1.434723309e-11,3.306105448e-12,6.840678460e-11,3.359846726e-11,2.979221296e-11,1.462441307e-11,1.479809505e-11,9.248903025e-11,1.642284808e-11,2.589971864e-10,1.422738582e-09,6.236908106e-11
0.79688,2.043975832e-10,8.452168687e-11,4.038770613e-11,1.641524537e-11,1.555161610e-11,8.766804458e-12,3.071670193e-11,1.487555892e-11,1.305568548e-11,2.085951499e-12,8.067505422e-12,2.814506138e-12,1.089402671e-11,6.978113228e-12,7.562986562e-12,9.623974715e-12,1.458448997e-11,1.681383507e-11,7.219614413e-12,3.545395671e-11,1.387089079e-11,3.175968969e-12,6.583183138e-11,3.236182243e-11,2.852736496e-11,1.402776554e-11,1.418883559e-11,8.861738549e-11,1.596289806e-11,2.488069735e-10,1.373714392e-09,6.012637316e-11
0.80469,1.969600051e-10,8.173647993e-11,3.890759266e-11,1.584999180e-11,1.495807286e-11,8.415931829e-12,2.946966863e-11,1.436395293e-11,1.262453645e-11,2.036446367e-12,7.777184599e-12,2.745465653e-12,1.056624048e-11,6.719954883e-12,7.362445668e-12,9.373618082e-12,1.417372360e-11,1.630361782e-11,7.009888852e-12,3.435430795e-11,1.340797930e-11,3.050174959e-12,6.334437611e-11,3.116755523e-11,2.730890655e-11,1.345223746e-11,1.360249777e-11,8.488972535e-11,1.551637978e-11,2.389757664e-10,1.326135791e-09,5.795408053e-11
0.8125,1.897669479e-10,7.903531999e-11,3.748364692e-11,1.530449803e-11,1.438500734e-11,8.078727615e-12,2.827424757e-11,1.386804494e-11,1.220514218e-11,1.988399951e-12,7.498018096e-12,2.678035803e-12,1.024721359e-11,6.471445123e-12,7.166008643e-12,9.128457420e-12,1.377285642e-11,1.580585424e-11,6.804778193e-12,3.328493454e-11,1.295874023e-11,2.929409348e-12,6.094705114e-11,3.001439606e-11,2.613447553e-11,1.289733463e-11,1.303742707e-11,8.129898208e-11,1.508195138e-11,2.294888470e-10,1.279966662e-09,5.585133302e-11
0.82031,1.828099398e-10,7.641659227e-11,3.611420212e-11,1.477885325e-11,1.383155989e-11,7.754761732e-12,2.712677029e-11,1.338716191e-11,1.179754103e-11,1.941599636e-12,7.229326225e-12,2.612505338e-12,9.937520266e-12,6.232774998e-12,6.974442161e-12,8.889102108e-12,1.338262661e-11,1.532146030e-11,6.604762232e-12,3.224594098e-11,1.252312332e-11,2.813624858e-12,5.863603474e-11,2.890016855e-11,2.500117801e-11,1.236216625e-11,1.249277222e-11,7.783704041e-11,1.466075240e-11,2.203319184e-10,1.235172514e-09,5.381501544e-11
0.82812,1.760901729e-10,7.387992799e-11,3.479937009e-11,1.427267352e-11,1.329703928e-11,7.444217897e-12,2.602536358e-11,1.292098206e-11,1.140146841e-11,1.896141595e-12,6.971161461e-12,2.548920075e-12,9.636533594e-12,6.003804288e-12,6.787140491e-12,8.655294867e-12,1.300213902e-11,1.484946237e-11,6.409544221e-12,3.123593285e-11,1.210034928e-11,2.701777297e-12,5.640412328e-11,2.782453584e-11,2.391069227e-11,1.184586826e-11,1.196954113e-11,7.450598738e-11,1.425393019e-11,2.115056461e-10,1.191722607e-09,5.184240543e-11
0.83594,1.696068753e-10,7.142387644e-11,3.353750260e-11,1.378498629e-11,1.278113333e-11,7.146507835e-12,2.496949180e-11,1.246922344e-11,1.101654199e-11,1.852108578e-12,6.723386616e-12,2.487099618e-12,9.343889878e-12,5.783728150e-12,6.603362249e-12,8.426441578e-12,1.263056202e-11,1.438897679e-11,6.218739802e-12,3.025414888e-11,1.169026265e-11,2.593532917e-12,5.424835856e-11,2.678818773e-11,2.286531311e-11,1.134799692e-11,1.146812427e-11,7.130860233e-11,1.386052396e-11,2.030109685e-10,1.149582675e-09,4.993240407e-11
0.84375,1.633436826e-10,6.904305053e-11,3.232354802e-11,1.331433892e-11,1.228344914e-11,6.860256568e-12,2.395590134e-11,1.203151980e-11,1.064242509e-11,1.809255696e-12,6.484726603e-12,2.426799755e-12,9.059748041e-12,5.572239272e-12,6.423494203e-12,8.202580567e-12,1.226813251e-11,1.394012225e-11,6.032296487e-12,2.930029957e-11,1.129260800e-11,2.489368769e-12,5.216825753e-11,2.578864109e-11,2.186053096e-11,1.086813925e-11,1.098616319e-11,6.823400691e-11,1.347917985e-11,1.948263911e-10,1.108719444e-09,4.808382283e-11
0.85156,1.572914670e-10,6.673492473e-11,3.115602185e-11,1.286016861e-11,1.180319602e-11,6.585157595e-12,2.298280197e-11,1.160764258e-11,1.027882718e-11,1.767307892e-12,6.254616034e-12,2.367864102e-12,8.783762517e-12,5.369382957e-12,6.248073639e-12,7.984085727e-12,1.191527699e-11,1.350298406e-11,5.850332171e-12,2.837363774e-11,1.090664286e-11,2.389322163e-12,5.016205101e-11,2.482275401e-11,2.089136550e-11,1.040553408e-11,1.052172548e-11,6.527198906e-11,1.310915235e-11,1.869350830e-10,1.069103761e-09,4.629476876e-11
0.85938,1.514522622e-10,6.450025591e-11,3.003546734e-11,1.242267740e-11,1.133960110e-11,6.321184800e-12,2.205013790e-11,1.119725696e-11,9.925583133e-12,1.726255266e-12,6.033242593e-12,2.310269700e-12,8.515230254e-12,5.174451984e-12,6.076698419e-12,7.770780255e-12,1.157178214e-11,1.307722610e-11,5.673009178e-12,2.747363881e-11,1.053235584e-11,2.292797654e-12,4.822603352e-11,2.389063202e-11,1.995855745e-11,9.959643385e-12,1.007519288e-11,6.242234303e-11,1.274984343e-11,1.793351034e-10,1.030703819e-09,4.456339956e-11
0.86719,1.458179730e-10,6.233613868e-11,2.895819500e-11,1.200102119e-11,1.089224275e-11,6.067344976e-12,2.115511271e-11,1.079967863e-11,9.582512988e-12,1.686176602e-12,5.820036448e-12,2.254031509e-12,8.253868071e-12,4.986687513e-12,5.908854197e-12,7.562098256e-12,1.123702048e-11,1.266248575e-11,5.500190046e-12,2.659975908e-11,1.016984967e-11,2.199457071e-12,4.635767987e-11,2.299213986e-11,1.906260572e-11,9.530197928e-12,9.646341429e-12,5.968339749e-11,1.240123002e-11,1.720146084e-10,9.934904916e-10,4.288843309e-11
0.875,1.403828208e-10,6.024018319e-11,2.792173979e-11,1.159434325e-11,1.046068177e-11,5.823294805e-12,2.029478449e-11,1.041437238e-11,9.249302791e-12,1.647096943e-12,5.614463944e-12,2.199129945e-12,7.999760958e-12,4.806092076e-12,5.744656631e-12,7.357956464e-12,1.091060142e-11,1.225860135e-11,5.331593408e-12,2.575142872e-11,9.818421153e-12,2.109552376e-12,4.455606177e-11,2.212532160e-11,1.820145076e-11,9.116644563e-12,9.234321258e-12,5.705184238e-11,1.206431659e-11,1.649662554e-10,9.574353240e-10,4.126837342e-11
0.88281,1.351510065e-10,5.821354108e-11,2.692728854e-11,1.120297366e-11,1.004451575e-11,5.589565464e-12,1.946881574e-11,1.004133598e-11,8.925787152e-12,1.609046439e-12,5.416596241e-12,2.145535610e-12,7.752928647e-12,4.632621149e-12,5.584157555e-12,7.158623158e-12,1.059238290e-11,1.186537949e-11,5.167286139e-12,2.492854961e-11,9.477668778e-12,2.023163326e-12,4.281856554e-11,2.128981498e-11,1.737435312e-11,8.718651449e-12,8.839650072e-12,5.452689983e-11,1.174013403e-11,1.581963136e-10,9.225020936e-10,3.970144560e-11
0.89062,1.301147733e-10,5.625427637e-11,2.597329829e-11,1.082659831e-11,9.643536879e-12,5.365820467e-12,1.867698909e-11,9.680567455e-12,8.611931418e-12,1.572037428e-12,5.226308258e-12,2.093256772e-12,7.513223849e-12,4.465781426e-12,5.427213874e-12,6.964057021e-12,1.028236290e-11,1.148250568e-11,5.007260350e-12,2.413033911e-11,9.147796120e-12,1.939911229e-12,4.114272078e-11,2.048572076e-11,1.658086855e-11,8.336238709e-12,8.462278818e-12,5.210433447e-11,1.142809172e-11,1.516948975e-10,8.886592611e-10,3.818659700e-11
0.89844,1.252596301e-10,5.435792828e-11,2.505662402e-11,1.046401550e-11,9.257183398e-12,5.151270767e-12,1.791788264e-11,9.331584769e-12,8.307376924e-12,1.536014478e-12,5.043323177e-12,2.042267699e-12,7.280385354e-12,4.305164317e-12,5.273914709e-12,6.773956839e-12,9.980590192e-12,1.110970180e-11,4.851044428e-12,2.335547261e-11,8.828695320e-12,1.859609719e-12,3.952747683e-11,1.971136354e-11,1.581917599e-11,7.968752431e-12,8.100450112e-12,4.977760251e-11,1.112618844e-11,1.454413389e-10,8.558843918e-10,3.672243602e-11
0.90625,1.205799864e-10,5.252202095e-11,2.417610007e-11,1.011465162e-11,8.884703922e-12,4.945640562e-12,1.718992146e-11,8.993894569e-12,8.011583087e-12,1.500871190e-12,4.867189026e-12,1.992396331e-12,7.054024976e-12,4.150648703e-12,5.123839875e-12,6.587715230e-12,9.686366417e-12,1.074629993e-11,4.698220849e-12,2.260360744e-11,8.519781949e-12,1.782289316e-12,3.797011023e-11,1.896538956e-11,1.508789881e-11,7.615159204e-12,7.752927590e-12,4.754321196e-11,1.083321251e-11,1.394266124e-10,8.241510301e-10,3.530663979e-11
0.91406,1.160687509e-10,5.074430895e-11,2.333029682e-11,9.777997668e-12,8.525708969e-12,4.748576091e-12,1.649232718e-11,8.667419642e-12,7.724377980e-12,1.466521318e-12,4.697100755e-12,1.943430670e-12,6.833763418e-12,4.002155979e-12,4.975988651e-12,6.404542349e-12,9.398684979e-12,1.039134771e-11,4.548693992e-12,2.187408577e-11,8.220186894e-12,1.707790922e-12,3.646817136e-11,1.824679001e-11,1.438614113e-11,7.274982218e-12,7.419347917e-12,4.539808799e-11,1.054894548e-11,1.336417887e-10,7.934313063e-10,3.393788021e-11
0.92188,1.117148127e-10,4.902200654e-11,2.251739334e-11,9.453116324e-12,8.179748483e-12,4.559539803e-12,1.582425612e-11,8.351936449e-12,7.445811680e-12,1.432954417e-12,4.532803833e-12,1.895283043e-12,6.619546046e-12,3.859228644e-12,4.830460335e-12,6.224669076e-12,9.117939109e-12,1.004494211e-11,4.402635493e-12,2.116544495e-11,7.929481777e-12,1.635958541e-12,3.502089063e-11,1.755395383e-11,1.371258240e-11,6.947831718e-12,7.098983586e-12,4.333812538e-11,1.027222218e-11,1.280725891e-10,7.637007181e-10,3.261544631e-11
0.92969,1.075116120e-10,4.735308821e-11,2.173620190e-11,9.139554040e-12,7.846311394e-12,4.378237459e-12,1.518368835e-11,8.046695149e-12,7.175681695e-12,1.400092206e-12,4.374623888e-12,1.847930452e-12,6.411543300e-12,3.721218922e-12,4.688307208e-12,6.049187344e-12,8.844998630e-12,9.707972392e-12,4.260392482e-12,2.047791731e-11,7.648146239e-12,1.566758922e-12,3.362574212e-11,1.688677686e-11,1.306620616e-11,6.633240605e-12,6.791159490e-12,4.136036367e-11,1.000158716e-11,1.227089742e-10,7.349311031e-10,3.133772045e-11
0.9375,1.034549967e-10,4.573611022e-11,2.098518559e-11,8.837131778e-12,7.525197059e-12,4.204437130e-12,1.456918377e-11,7.751168125e-12,6.913631451e-12,1.367730418e-12,4.222300477e-12,1.801315645e-12,6.209509364e-12,3.588054260e-12,4.549320635e-12,5.877974215e-12,8.579130426e-12,9.380117094e-12,4.121777355e-12,1.981221077e-11,7.375973927e-12,1.500104852e-12,3.228014802e-11,1.624555734e-11,1.244641950e-11,6.331108678e-12,6.495850886e-12,3.946285609e-11,9.737300323e-12,1.175440233e-10,7.070942755e-10,3.010329871e-11
0.94531,9.954091668e-11,4.416999727e-11,2.026322831e-11,8.545239379e-12,7.215937855e-12,4.037829092e-12,1.398050760e-11,7.465439278e-12,6.659433990e-12,1.335837280e-12,4.075295504e-12,1.755404128e-12,6.012725282e-12,3.459872839e-12,4.412403088e-12,5.709894151e-12,8.319080610e-12,9.059996247e-12,3.985981114e-12,1.916652470e-11,7.111646035e-12,1.435833016e-12,3.098349003e-11,1.562848804e-11,1.185253818e-11,6.041154774e-12,6.213065136e-12,3.764359195e-11,9.480138340e-12,1.125714721e-10,6.801686057e-10,2.891118738e-11
0.95312,9.576511646e-11,4.265329901e-11,1.956965929e-11,8.263278632e-12,6.917858845e-12,3.878095985e-12,1.341635191e-11,7.189441986e-12,6.412923351e-12,1.304565742e-12,3.933686013e-12,1.710298963e-12,5.821003563e-12,3.336341462e-12,4.277946367e-12,5.545097237e-12,8.065003357e-12,8.747384229e-12,3.852905849e-12,1.853934753e-11,6.855115900e-12,1.373787142e-12,2.973429208e-11,1.503445049e-11,1.128376825e-11,5.762812766e-12,5.942251504e-12,3.589979806e-11,9.229679875e-12,1.077841525e-10,6.541326630e-10,2.776001142e-11
0.96094,9.230156882e-11,4.118795854e-11,1.889883520e-11,8.014763971e-12,6.630088087e-12,3.736234402e-12,1.291903908e-11,6.925370047e-12,6.173719471e-12,1.279524166e-12,3.816920791e-12,1.667023820e-12,5.641155472e-12,3.214032389e-12,4.140664984e-12,5.392943626e-12,7.797808381e-12,8.420281033e-12,3.728902115e-12,1.794699426e-11,6.625215255e-12,1.304793824e-12,2.846463491e-11,1.452449991e-11,1.078342448e-11,5.496280580e-12,5.672575639e-12,3.428909530e-11,8.981440718e-12,1.032877805e-10,6.289000635e-10,2.664577337e-11
0.96875,8.884840977e-11,3.976855659e-11,1.825831642e-11,7.758492073e-12,6.353622946e-12,3.594043786e-12,1.243118076e-11,6.672583825e-12,5.942781729e-12,1.253382806e-12,3.698305362e-12,1.625731121e-12,5.461393364e-12,3.094525932e-12,4.013681421e-12,5.244525329e-12,7.561153177e-12,8.128515647e-12,3.609515799e-12,1.738478557e-11,6.403699860e-12,1.244011308e-12,2.730192346e-11,1.400772498e-11,1.028184186e-11,5.239776477e-12,5.419379842e-12,3.272155767e-11,8.740230504e-12,9.889448085e-11,6.046103982e-10,2.557465079e-11
0.97656,8.543644423e-11,3.840828283e-11,1.764834302e-11,7.504241960e-12,6.086009106e-12,3.451988266e-12,1.191674466e-11,6.427081843e-12,5.721031726e-12,1.224075878e-12,3.567914517e-12,1.584474184e-12,5.288609533e-12,2.980717929e-12,3.896123680e-12,5.095560371e-12,7.346447938e-12,7.862855150e-12,3.490641467e-12,1.683436328e-11,6.179586743e-12,1.192960986e-12,2.621134281e-11,1.347455868e-11,9.773741220e-12,4.992878694e-12,5.185403761e-12,3.117610530e-11,8.511034202e-12,9.462136289e-11,5.811919019e-10,2.454192044e-11
0.98438,8.218345242e-11,3.708981081e-11,1.705952982e-11,7.259904293e-12,5.828410931e-12,3.316531135e-12,1.144051748e-11,6.189033191e-12,5.506540230e-12,1.197010221e-12,3.448730548e-12,1.545337785e-12,5.121542409e-12,2.869667567e-12,3.780165616e-12,4.952539446e-12,7.131636849e-12,7.597647916e-12,3.376052981e-12,1.629942831e-11,5.963486930e-12,1.140830773e-12,2.514842325e-11,1.297108210e-11,9.294542586e-12,4.756383074e-12,4.958524089e-12,2.970649674e-11,8.288155945e-12,9.052718163e-11,5.585487311e-10,2.354533026e-11
0.99219,7.905276529e-11,3.580383209e-11,1.648613730e-11,7.020735243e-12,5.580321221e-12,3.185649679e-12,1.099771949e-11,5.958656824e-12,5.299298034e-12,1.172055435e-12,3.339357433e-12,1.508627282e-12,4.958987198e-12,2.761140254e-12,3.666783812e-12,4.815880475e-12,6.920627960e-12,7.337271249e-12,3.266583511e-12,1.578331005e-11,5.757091747e-12,1.088183930e-12,2.411834848e-11,1.249267130e-11,8.837422549e-12,4.529698205e-12,4.737643576e-12,2.829870784e-11,8.070492233e-12,8.657618327e-11,5.366727311e-10,2.258376793e-11
1,7.606604828e-11,3.458576546e-11,1.594640259e-11,6.795864012e-12,5.340313525e-12,3.061335684e-12,1.055472655e-11,5.735138898e-12,5.100237184e-12,1.146142619e-12,3.227664493e-12,1.472011764e-12,4.806310669e-12,2.657925668e-12,3.559045300e-12,4.681298657e-12,6.719959001e-12,7.089585239e-12,3.159101145e-12,1.528115920e-11,5.554624012e-12,1.041711030e-12,2.313554228e-11,1.202575729e-11,8.399028602e-12,4.312161264e-12,4.531821237e-12,2.695604564e-11,7.862346987e-12,8.282551414e-11,5.155727845e-10,2.165922379e-11
1.0078,7.320045680e-11,3.340888674e-11,1.542828360e-11,6.578627099e-12,5.109454929e-12,2.942135512e-12,1.013179106e-11,5.518617731e-12,4.907588403e-12,1.120945511e-12,3.120793956e-12,1.436188624e-12,4.657586588e-12,2.558242287e-12,3.453692072e-12,4.549895407e-12,6.522834794e-12,6.846258283e-12,3.053749070e-12,1.479185755e-11,5.357085184e-12,9.964237621e-13,2.218705952e-11,1.157563763e-11,7.979698305e-12,4.104027349e-12,4.334608422e-12,2.567004906e-11,7.660184767e-12,7.922566980e-11,4.951899173e-10,2.076727795e-11
1.0156,7.042021797e-11,3.225383880e-11,1.492099394e-11,6.362217277e-12,4.887922934e-12,2.825432304e-12,9.734937801e-12,5.309169613e-12,4.720653754e-12,1.097086097e-12,3.020833658e-12,1.401774314e-12,4.509829462e-12,2.461033823e-12,3.349756142e-12,4.422443567e-12,6.328496283e-12,6.606449120e-12,2.951197426e-12,1.431574491e-11,5.164541982e-12,9.503150919e-13,2.126889141e-11,1.114010954e-11,7.574134068e-12,3.904890077e-12,4.142496222e-12,2.442669172e-11,7.462090172e-12,7.573152379e-11,4.754974499e-10,1.990538093e-11
1.0234,6.777821903e-11,3.115396313e-11,1.444076952e-11,6.159297811e-12,4.674450218e-12,2.715325324e-12,9.346802077e-12,5.106327598e-12,4.540297786e-12,1.072719550e-12,2.921472600e-12,1.367250498e-12,4.369826362e-12,2.368475721e-12,3.248755367e-12,4.297127115e-12,6.139326233e-12,6.373848875e-12,2.850488615e-12,1.385186615e-11,4.975648303e-12,9.077099917e-13,2.038460137e-11,1.072125227e-11,7.191146393e-12,3.714135077e-12,3.962906109e-12,2.325111201e-11,7.272316723e-12,7.242462762e-11,4.565034709e-10,1.907636823e-11
1.0312,6.525892778e-11,3.009877928e-11,1.398411188e-11,5.966083007e-12,4.469287734e-12,2.610504022e-12,8.973146783e-12,4.909785305e-12,4.365673326e-12,1.048106800e-12,2.824840990e-12,1.333049555e-12,4.234658347e-12,2.279942855e-12,3.149776908e-12,4.174035401e-12,5.953383141e-12,6.145885017e-12,2.751700355e-12,1.339988045e-11,4.791413194e-12,8.668577431e-13,1.953203350e-11,1.031919443e-11,6.828255920e-12,3.531812119e-12,3.793233415e-12,2.213416204e-11,7.090381977e-12,6.927555086e-11,4.381766187e-10,1.827804002e-11
1.0391,6.282170091e-11,2.906975085e-11,1.354237531e-11,5.773728337e-12,4.272329352e-12,2.507437597e-12,8.617786572e-12,4.719294923e-12,4.196198690e-12,1.023831227e-12,2.732338763e-12,1.299976250e-12,4.100455357e-12,2.194253588e-12,3.052784841e-12,4.053607407e-12,5.771089233e-12,5.922399273e-12,2.655140259e-12,1.295935038e-11,4.611364402e-12,8.262340422e-13,1.871114154e-11,9.926613177e-12,6.474761883e-12,3.357433396e-12,3.628924763e-12,2.105053155e-11,6.914228025e-12,6.622529273e-11,4.204892311e-10,1.750718338e-11
1.0469,6.050666084e-11,2.808679581e-11,1.312426166e-11,5.592093374e-12,4.082523489e-12,2.410160775e-12,8.275774310e-12,4.535051557e-12,4.032394982e-12,9.996749203e-13,2.642413498e-12,1.267175895e-12,3.972024473e-12,2.112405948e-12,2.958455147e-12,3.935887505e-12,5.592829469e-12,5.704488543e-12,2.560831444e-12,1.253188266e-11,4.436047120e-12,7.879442543e-13,1.791941568e-11,9.550546221e-12,6.140556853e-12,3.190296982e-12,3.473806643e-12,2.002397694e-11,6.745001154e-12,6.333023386e-11,4.034358360e-10,1.676479131e-11
1.0547,5.830021409e-11,2.714367431e-11,1.272611890e-11,5.420359189e-12,3.900163339e-12,2.318591944e-12,7.948029065e-12,4.357395973e-12,3.873750190e-12,9.758773873e-13,2.555823654e-12,1.234677393e-12,3.848661881e-12,2.034258702e-12,2.866431569e-12,3.821180001e-12,5.418543113e-12,5.492056065e-12,2.469071419e-12,1.211899779e-11,4.266849569e-12,7.514688419e-13,1.715643626e-11,9.192915609e-12,5.825890720e-12,3.030648181e-12,3.327457438e-12,1.905286283e-11,6.581903082e-12,6.057927279e-11,3.869897065e-10,1.604974487e-11
1.0625,5.616036714e-11,2.622425299e-11,1.234069967e-11,5.250066542e-12,3.725535841e-12,2.229068339e-12,7.632008792e-12,4.186009626e-12,3.719858950e-12,9.523326926e-13,2.471707516e-12,1.202954583e-12,3.727148330e-12,1.959145789e-12,2.776947864e-12,3.709165309e-12,5.250124216e-12,5.286485513e-12,2.379704566e-12,1.171888105e-11,4.102450968e-12,7.161940527e-13,1.642562029e-11,8.844104372e-12,5.519612506e-12,2.878589803e-12,3.186938152e-12,1.811142447e-11,6.423493234e-12,5.792158675e-11,3.711231631e-10,1.536007585e-11
1.0703,5.411542963e-11,2.533865901e-11,1.197237990e-11,5.086808784e-12,3.557869389e-12,2.144036165e-12,7.329653570e-12,4.020693625e-12,3.571107899e-12,9.290563085e-13,2.390639528e-12,1.171670806e-12,3.609711243e-12,1.887224240e-12,2.689734103e-12,3.600311241e-12,5.086259363e-12,5.086717267e-12,2.292901549e-12,1.133173775e-11,3.943426554e-12,6.823802527e-13,1.572160773e-11,8.510909343e-12,5.230133216e-12,2.733497416e-12,3.053982503e-12,1.721793690e-11,6.270196796e-12,5.538831840e-11,3.558264262e-10,1.469607571e-11
1.0781,5.216898508e-11,2.448737025e-11,1.162039121e-11,4.932079651e-12,3.396927362e-12,2.064111964e-12,7.043146275e-12,3.861580683e-12,3.427238804e-12,9.062588894e-13,2.313654671e-12,1.140698598e-12,3.496438326e-12,1.818126284e-12,2.604375499e-12,3.495042835e-12,4.925906660e-12,4.892044393e-12,2.208993606e-12,1.095919526e-11,3.791188819e-12,6.495873959e-13,1.504207480e-11,8.197236623e-12,4.960442257e-12,2.595103141e-12,2.928857758e-12,1.637780369e-11,6.122213179e-12,5.298213261e-11,3.410837903e-10,1.405679588e-11
1.0859,5.029375488e-11,2.366380460e-11,1.128276522e-11,4.780874951e-12,3.242736026e-12,1.986782142e-12,6.764505288e-12,3.708444938e-12,3.287833455e-12,8.836099964e-13,2.238203241e-12,1.109999519e-12,3.385524737e-12,1.751482696e-12,2.521662184e-12,3.392305970e-12,4.771488090e-12,4.704636853e-12,2.127445576e-12,1.059974245e-11,3.644037230e-12,6.184141690e-13,1.439252007e-11,7.893389785e-12,4.700541097e-12,2.463393480e-12,2.810106459e-12,1.556944467e-11,5.979717174e-12,5.067329458e-11,3.268754181e-10,1.344081415e-11
1.0938,4.849545928e-11,2.286872768e-11,1.095932366e-11,4.634673042e-12,3.094926872e-12,1.912927577e-12,6.496280427e-12,3.561195027e-12,3.152951513e-12,8.615730547e-13,2.165272661e-12,1.079644951e-12,3.277363474e-12,1.687089985e-12,2.441434317e-12,3.292395089e-12,4.622218331e-12,4.523351567e-12,2.048406212e-12,1.025357717e-11,3.502352050e-12,5.884843244e-13,1.376935613e-11,7.602790376e-12,4.453509559e-12,2.337970565e-12,2.697560586e-12,1.479905156e-11,5.841945805e-12,4.846724732e-11,3.131866476e-10,1.284785487e-11
1.1016,4.677423219e-11,2.209942420e-11,1.064639972e-11,4.493769733e-12,2.953298557e-12,1.842787510e-12,6.244011700e-12,3.419917775e-12,3.022656946e-12,8.406765477e-13,2.096963092e-12,1.050011059e-12,3.172346270e-12,1.624655915e-12,2.363399483e-12,3.196251465e-12,4.477066675e-12,4.347282783e-12,1.972601219e-12,9.922717784e-12,3.367867015e-12,5.590351787e-13,1.316878721e-11,7.329884718e-12,4.222128322e-12,2.218477431e-12,2.590561450e-12,1.407158764e-11,5.707500934e-12,4.636062504e-11,3.000034825e-10,1.227739626e-11
1.1094,4.512401859e-11,2.135807973e-11,1.034632988e-11,4.357108384e-12,2.817598744e-12,1.775511203e-12,5.999702798e-12,3.284265048e-12,2.896959405e-12,8.201738745e-13,2.030540571e-12,1.021003292e-12,3.071050799e-12,1.564506697e-12,2.288443108e-12,3.103117666e-12,4.338145654e-12,4.178903441e-12,1.899775360e-12,9.605770690e-12,3.239260206e-12,5.314438152e-13,1.259441208e-11,7.068505244e-12,4.001900345e-12,2.104815768e-12,2.489310300e-12,1.337761832e-11,5.577484968e-12,4.434897366e-11,2.873123527e-10,1.172900500e-11
1.1172,4.354508789e-11,2.064486801e-11,1.006015794e-11,4.225372385e-12,2.687471372e-12,1.711407122e-12,5.763567566e-12,3.153941055e-12,2.775705225e-12,8.000886972e-13,1.966132871e-12,9.927273133e-13,2.973187465e-12,1.506344389e-12,2.216227977e-12,3.013112885e-12,4.204846000e-12,4.017614651e-12,1.829856830e-12,9.301584427e-12,3.116286681e-12,5.053919691e-13,1.204469050e-11,6.819360489e-12,3.793796078e-12,1.996917834e-12,2.394180950e-12,1.271814011e-11,5.452836658e-12,4.243192502e-11,2.750977939e-10,1.120184081e-11
1.125,4.202724680e-11,1.995279770e-11,9.783023927e-12,4.096938911e-12,2.562751684e-12,1.649772245e-12,5.541449671e-12,3.028962225e-12,2.658832136e-12,7.811718459e-13,1.906153129e-12,9.656935715e-13,2.877670441e-12,1.449142330e-12,2.146229284e-12,2.927288621e-12,4.076145975e-12,3.862188744e-12,1.763216622e-12,9.011312325e-12,2.999958679e-12,4.794983909e-13,1.151723071e-11,6.584294210e-12,3.596921249e-12,1.894634237e-12,2.303819586e-12,1.209032774e-11,5.332387161e-12,4.059232231e-11,2.633460799e-10,1.069483937e-11
1.1328,4.057518576e-11,1.928666064e-11,9.518022113e-12,3.972688821e-12,2.443061491e-12,1.590990339e-12,5.328720504e-12,2.909186138e-12,2.546573257e-12,7.630724939e-13,1.849313488e-12,9.395316213e-13,2.785856652e-12,1.393120764e-12,2.079290989e-12,2.845256863e-12,3.953567147e-12,3.714070490e-12,1.699587054e-12,8.734315083e-12,2.889102276e-12,4.549717113e-13,1.101283090e-11,6.360343194e-12,3.410166473e-12,1.797528660e-12,2.218332749e-12,1.149339042e-11,5.216356488e-12,3.883797954e-11,2.520489461e-10,1.020813800e-11
1.1406,3.919175569e-11,1.864830975e-11,9.266291056e-12,3.853468041e-12,2.328039409e-12,1.535476788e-12,5.124495874e-12,2.794291868e-12,2.438658062e-12,7.454573209e-13,1.795111959e-12,9.137774147e-13,2.698143637e-12,1.338767614e-12,2.015347716e-12,2.766412393e-12,3.836513747e-12,3.572649844e-12,1.638727143e-12,8.468767703e-12,2.783089517e-12,4.321122816e-13,1.052961706e-11,6.146837987e-12,3.235015469e-12,1.705214033e-12,2.138129369e-12,1.092969025e-11,5.105038089e-12,3.717393779e-11,2.411915014e-10,9.741100632e-12
1.1484,3.829457539e-11,1.824885754e-11,9.074659235e-12,3.819292365e-12,2.208119257e-12,1.508852910e-12,4.891026917e-12,2.683640142e-12,2.339974771e-12,7.215449169e-13,1.719659182e-12,8.789173082e-13,2.647277200e-12,1.295489287e-12,1.964564035e-12,2.682400422e-12,3.733774406e-12,3.455026226e-12,1.575728422e-12,8.211076426e-12,2.681298393e-12,4.182634857e-13,9.997474551e-12,6.006016197e-12,3.177382964e-12,1.610695665e-12,2.160116958e-12,1.076443500e-11,5.037422068e-12,3.628053717e-11,2.308808776e-10,9.283786768e-12
1.1562,3.717435015e-11,1.772150423e-11,8.864342519e-12,3.738883467e-12,2.106658837e-12,1.469012461e-12,4.701235552e-12,2.577334633e-12,2.237196762e-12,7.016324446e-13,1.663029430e-12,8.493563115e-13,2.572390578e-12,1.253521673e-12,1.905881260e-12,2.604497480e-12,3.624533187e-12,3.323026091e-12,1.515907472e-12,7.967127976e-12,2.585818961e-12,4.001410466e-13,9.549269136e-12,5.846407457e-12,3.064972709e-12,1.536797632e-12,2.131652484e-12,1.039958585e-11,4.954232041e-12,3.502901569e-11,2.207606685e-10,8.854182873e-12
1.1641,3.584777395e-11,1.707780832e-11,8.623493820e-12,3.606531333e-12,2.016310005e-12,1.415057891e-12,4.532535088e-12,2.475639467e-12,2.134624716e-12,6.868631014e-13,1.622720973e-12,8.266572882e-13,2.477833662e-12,1.207333058e-12,1.842869034e-12,2.534107475e-12,3.516828464e-12,3.187961263e-12,1.461315731e-12,7.737205087e-12,2.494671710e-12,3.767506429e-13,9.146852690e-12,5.652757140e-12,2.890448516e-12,1.472504943e-12,2.046860132e-12,9.822914157e-12,4.852071494e-12,3.340911622e-11,2.109420001e-10,8.443458965e-12
1.1719,3.465493000e-11,1.650447412e-11,8.405121057e-12,3.495938635e-12,1.925678269e-12,1.367392946e-12,4.368364171e-12,2.378204172e-12,2.038718463e-12,6.718187469e-13,1.580833905e-12,8.034588532e-13,2.395733883e-12,1.162686597e-12,1.786247258e-12,2.466547282e-12,3.416269741e-12,3.064509682e-12,1.409335253e-12,7.518327419e-12,2.407627765e-12,3.567399454e-13,8.751191830e-12,5.477419845e-12,2.744851855e-12,1.407227462e-12,1.982577431e-12,9.342321292e-12,4.757626046e-12,3.198661612e-11,2.015854913e-10,8.049171966e-12
1.1797,3.355426675e-11,1.597973179e-11,8.205177995e-12,3.402316990e-12,1.837348144e-12,1.323932663e-12,4.208873273e-12,2.284760524e-12,1.947406470e-12,6.561588142e-13,1.537397329e-12,7.793990802e-13,2.321893889e-12,1.120599483e-12,1.734134589e-12,2.401628792e-12,3.320898779e-12,2.948804914e-12,1.359644474e-12,7.311690305e-12,2.325741025e-12,3.394080781e-13,8.367133964e-12,5.319720176e-12,2.620773026e-12,1.344655023e-12,1.934234986e-12,8.929977765e-12,4.669344129e-12,3.070614992e-11,1.926256714e-10,7.671145709e-12
1.1875,3.245727197e-11,1.544472030e-11,8.001498215e-12,3.295234506e-12,1.754745182e-12,1.279171071e-12,4.060073055e-12,2.194928168e-12,1.858691109e-12,6.423388662e-13,1.500347581e-12,7.576345760e-13,2.244327681e-12,1.077538089e-12,1.682234213e-12,2.340809391e-12,3.230940804e-12,2.837578424e-12,1.313203038e-12,7.115765775e-12,2.247903787e-12,3.206823957e-13,8.003037133e-12,5.157838810e-12,2.488891132e-12,1.287084170e-12,1.873901995e-12,8.487743893e-12,4.578680299e-12,2.939672737e-11,1.840110304e-10,7.309065977e-12
1.1953,3.141060291e-11,1.493494150e-11,7.806255355e-12,3.192607319e-12,1.674037679e-12,1.235899248e-12,3.917248740e-12,2.108404604e-12,1.774719035e-12,6.291346158e-13,1.464791281e-12,7.366896265e-13,2.171590831e-12,1.034786010e-12,1.633306054e-12,2.282809914e-12,3.145196330e-12,2.732692038e-12,1.269150972e-12,6.927610908e-12,2.172906986e-12,3.030628823e-13,7.652831528e-12,5.001372753e-12,2.364773448e-12,1.230845392e-12,1.817485132e-12,8.070244552e-12,4.490834295e-12,2.815129216e-11,1.757775716e-10,6.962358118e-12
1.2031,3.041622902e-11,1.445656479e-11,7.626088249e-12,3.101132681e-12,1.594842451e-12,1.194515241e-12,3.779433982e-12,2.025290660e-12,1.695291740e-12,6.159722051e-13,1.428921784e-12,7.157478520e-13,2.105473376e-12,9.937970934e-13,1.587985398e-12,2.226768587e-12,3.061369062e-12,2.632825225e-12,1.227048068e-12,6.746485645e-12,2.100896303e-12,2.876977864e-13,7.315823713e-12,4.854738432e-12,2.251536754e-12,1.175959160e-12,1.769041150e-12,7.687866696e-12,4.406400969e-12,2.698434455e-11,1.679096067e-10,6.630444541e-12
1.2109,2.946423719e-11,1.399061766e-11,7.448467533e-12,3.006198255e-12,1.519356740e-12,1.154589119e-12,3.650281999e-12,1.945414512e-12,1.618995680e-12,6.041344708e-13,1.397337997e-12,6.961996390e-13,2.039893559e-12,9.529848580e-13,1.544138331e-12,2.173253468e-12,2.981367000e-12,2.537613036e-12,1.187387773e-12,6.571251246e-12,2.031560804e-12,2.721768988e-13,6.991112099e-12,4.709424347e-12,2.141369234e-12,1.123806187e-12,1.718401076e-12,7.314291683e-12,4.322377813e-12,2.585658065e-11,1.603731466e-10,6.312198005e-12
1.2188,2.855493435e-11,1.354256569e-11,7.276968505e-12,2.912386581e-12,1.446353255e-12,1.115943309e-12,3.526698790e-12,1.868287988e-12,1.546593192e-12,5.929855537e-13,1.367560678e-12,6.776658475e-13,1.977582374e-12,9.125038132e-13,1.502721345e-12,2.122574436e-12,2.905860401e-12,2.447818142e-12,1.150030040e-12,6.401678333e-12,1.964259446e-12,2.574578209e-13,6.679097570e-12,4.566341726e-12,2.035591765e-12,1.073293125e-12,1.668759077e-12,6.955746132e-12,4.239621257e-12,2.477786879e-11,1.531650314e-10,6.007947347e-12
1.2266,2.767466426e-11,1.311261764e-11,7.118672165e-12,2.824886827e-12,1.375029474e-12,1.077702373e-12,3.407715494e-12,1.793858420e-12,1.478305083e-12,5.818929218e-13,1.337511684e-12,6.595861711e-13,1.920300343e-12,8.731469532e-13,1.464196814e-12,2.074490224e-12,2.832446450e-12,2.361968608e-12,1.114667437e-12,6.237966212e-12,1.898892524e-12,2.445532559e-13,6.381377927e-12,4.427946625e-12,1.933884707e-12,1.024039921e-12,1.621390317e-12,6.609826482e-12,4.158585255e-12,2.373854570e-11,1.462751728e-10,5.717690033e-12
1.2344,2.684356545e-11,1.270170801e-11,6.964161547e-12,2.737999877e-12,1.306095698e-12,1.041178681e-12,3.295258782e-12,1.722170706e-12,1.413399650e-12,5.715344755e-13,1.309863126e-12,6.422823215e-13,1.865420128e-12,8.340497366e-13,1.427021195e-12,2.028096622e-12,2.760983583e-12,2.279695549e-12,1.080912732e-12,6.077303354e-12,1.835019654e-12,2.317484877e-13,6.093046555e-12,4.292485048e-12,1.838975091e-12,9.763235165e-13,1.576016044e-12,6.283757719e-12,4.080530944e-12,2.275630890e-11,1.396928036e-10,5.439384379e-12
1.2422,2.606172046e-11,1.231066874e-11,6.813317538e-12,2.652438080e-12,1.239282764e-12,1.006595480e-12,3.187304249e-12,1.653018723e-12,1.351797376e-12,5.617250107e-13,1.283801073e-12,6.254544299e-13,1.813025875e-12,7.951947823e-13,1.391138465e-12,1.982964306e-12,2.691600862e-12,2.200795213e-12,1.048377035e-12,5.918463773e-12,1.772244983e-12,2.192993457e-13,5.814503424e-12,4.159978727e-12,1.750776199e-12,9.299412417e-13,1.533495591e-12,5.979101346e-12,4.005704669e-12,2.183407152e-11,1.334050812e-10,5.172762973e-12
1.25,2.529903127e-11,1.192954434e-11,6.673644789e-12,2.569896028e-12,1.174444070e-12,9.725449082e-13,3.084278918e-12,1.586425983e-12,1.293295432e-12,5.521274390e-13,1.258224493e-12,6.090534771e-13,1.763193860e-12,7.573893572e-13,1.357141011e-12,1.939852804e-12,2.623391042e-12,2.124155121e-12,1.017462423e-12,5.763698998e-12,1.710896472e-12,2.081323738e-13,5.549688814e-12,4.030788102e-12,1.663465152e-12,8.848581034e-13,1.490025728e-12,5.677450421e-12,3.932251823e-12,2.093400048e-11,1.273914846e-10,4.918291962e-12
1.2578,2.457695814e-11,1.156462702e-11,6.538853935e-12,2.489416378e-12,1.111748593e-12,9.400590040e-13,2.986381408e-12,1.522390208e-12,1.237698001e-12,5.429706603e-13,1.234204755e-12,5.933266818e-13,1.716110291e-12,7.207218010e-13,1.325135016e-12,1.898787269e-12,2.557600353e-12,2.051158069e-12,9.883935062e-13,5.612747702e-12,1.650936124e-12,1.974629786e-13,5.293877707e-12,3.904818027e-12,1.581249644e-12,8.409878252e-13,1.448926957e-12,5.392297252e-12,3.862470150e-12,2.008561552e-11,1.216479735e-10,4.674435796e-12
1.2656,2.390743764e-11,1.122147332e-11,6.407340104e-12,2.411899042e-12,1.051203907e-12,9.097026238e-13,2.891729381e-12,1.460599163e-12,1.185012683e-12,5.343218987e-13,1.211620625e-12,5.781278252e-13,1.672184785e-12,6.852152987e-13,1.295234211e-12,1.859371119e-12,2.494701708e-12,1.982272649e-12,9.608979392e-13,5.464364806e-12,1.592385755e-12,1.872504191e-13,5.046225510e-12,3.782668463e-12,1.507351792e-12,7.988616234e-13,1.413683466e-12,5.133420350e-12,3.798176730e-12,1.930802807e-11,1.161633630e-10,4.441051271e-12
1.2734,2.325798979e-11,1.088662596e-11,6.285830094e-12,2.335651747e-12,9.930617625e-13,8.801486635e-13,2.803063799e-12,1.400988821e-12,1.134806734e-12,5.264286124e-13,1.191019681e-12,5.636837172e-13,1.629456362e-12,6.510070142e-13,1.267190381e-12,1.822182216e-12,2.433140828e-12,1.915415642e-12,9.352144915e-13,5.319726959e-12,1.535839538e-12,1.777489238e-13,4.811469456e-12,3.664289308e-12,1.435383703e-12,7.591017483e-13,1.377936472e-12,4.878081575e-12,3.736645859e-12,1.855284836e-11,1.109124860e-10,4.218783204e-12
1.2812,2.263920047e-11,1.056482158e-11,6.169936498e-12,2.261018257e-12,9.369765029e-13,8.517081242e-13,2.719481177e-12,1.343672570e-12,1.087051971e-12,5.191726430e-13,1.172099168e-12,5.499411837e-13,1.588757057e-12,6.183215610e-13,1.241186446e-12,1.787017564e-12,2.373464525e-12,1.851240062e-12,9.112052589e-13,5.178655400e-12,1.481054610e-12,1.687995405e-13,4.587225214e-12,3.549870624e-12,1.366849531e-12,7.209362148e-13,1.343406571e-12,4.633000427e-12,3.678592202e-12,1.783521581e-11,1.058945618e-10,4.006318115e-12
1.2891,2.206946588e-11,1.026519533e-11,6.056640642e-12,2.190919892e-12,8.827094576e-13,8.253384030e-13,2.637743924e-12,1.288569305e-12,1.041914371e-12,5.122585616e-13,1.153704704e-12,5.364312435e-13,1.551896913e-12,5.873427611e-13,1.217447600e-12,1.753317258e-12,2.316580074e-12,1.790730394e-12,8.882756827e-13,5.040611828e-12,1.427914214e-12,1.607160964e-13,4.371587708e-12,3.440642719e-12,1.306223195e-12,6.842096697e-13,1.315193576e-12,4.413445780e-12,3.625868091e-12,1.718573116e-11,1.011048553e-10,3.803243846e-12
1.2969,2.152238595e-11,9.973459145e-12,5.950761886e-12,2.122077440e-12,8.309678337e-13,8.006173260e-13,2.562443421e-12,1.235622208e-12,9.988287646e-13,5.063593748e-13,1.137793844e-12,5.235558010e-13,1.515965530e-12,5.576637196e-13,1.195398899e-12,1.722018815e-12,2.261761917e-12,1.732414730e-12,8.667963713e-13,4.907376890e-12,1.377286363e-12,1.531515106e-13,4.167170366e-12,3.336352324e-12,1.249209670e-12,6.499515648e-13,1.287468201e-12,4.201794633e-12,3.576046420e-12,1.656482805e-11,9.651542635e-11,3.609951064e-12
1.3047,2.099773913e-11,9.689589713e-12,5.851414979e-12,2.053734522e-12,7.816009614e-13,7.769384477e-13,2.493102432e-12,1.184734239e-12,9.577099592e-13,5.014696915e-13,1.124290335e-12,5.114267483e-13,1.480956342e-12,5.293726404e-13,1.175436221e-12,1.693247227e-12,2.209405714e-12,1.676842801e-12,8.470357200e-13,4.778865518e-12,1.328786601e-12,1.459470244e-13,3.973042232e-12,3.235786304e-12,1.194449726e-12,6.179494043e-13,1.260027238e-12,3.996268544e-12,3.529222732e-12,1.597174249e-11,9.212100368e-11,3.425562620e-12
1.3125,2.051628372e-11,9.425919298e-12,5.757421772e-12,1.990414177e-12,7.341476005e-13,7.545068473e-13,2.424728934e-12,1.135735940e-12,9.187996836e-13,4.966557599e-13,1.110669543e-12,4.994321220e-13,1.449716840e-12,5.031264147e-13,1.157945728e-12,1.665947221e-12,2.159828921e-12,1.624802968e-12,8.284028746e-13,4.653528767e-12,1.281652182e-12,1.397264064e-13,3.787727445e-12,3.140000356e-12,1.145381847e-12,5.878613903e-13,1.238584161e-12,3.811576575e-12,3.487841043e-12,1.543851513e-11,8.792330833e-11,3.249823453e-12
1.3203,2.006376724e-11,9.173140312e-12,5.669126532e-12,1.929371608e-12,6.893050391e-13,7.338143004e-13,2.361669815e-12,1.088713784e-12,8.814826910e-13,4.922625220e-13,1.098723730e-12,4.879427565e-13,1.419748562e-12,4.785965597e-13,1.141729748e-12,1.640486721e-12,2.112150518e-12,1.574727724e-12,8.109337255e-13,4.532242204e-12,1.236637652e-12,1.338708100e-13,3.611739075e-12,3.049773665e-12,1.100946176e-12,5.604038482e-13,1.219571196e-12,3.639348259e-12,3.450734957e-12,1.494282684e-11,8.390086380e-11,3.082691775e-12
1.3281,1.963177416e-11,8.926336820e-12,5.584678307e-12,1.868186327e-12,6.470687783e-13,7.144912156e-13,2.304308074e-12,1.043754904e-12,8.455850110e-13,4.886707440e-13,1.089206455e-12,4.772867681e-13,1.389783413e-12,4.555872283e-13,1.126978405e-12,1.617325683e-12,2.066603009e-12,1.526958120e-12,7.950126169e-13,4.415675966e-12,1.193809842e-12,1.281585832e-13,3.444561311e-12,2.963418477e-12,1.059201303e-12,5.353731295e-13,1.200957551e-12,3.473215872e-12,3.417006196e-12,1.447293646e-11,8.004524419e-11,2.923382600e-12
1.3359,1.923354468e-11,8.694959510e-12,5.506443586e-12,1.811195147e-12,6.067655780e-13,6.959172917e-13,2.247070732e-12,1.000694038e-12,8.114791447e-13,4.852008872e-13,1.079494144e-12,4.667989566e-13,1.362457024e-12,4.346572469e-13,1.114831233e-12,1.595861289e-12,2.023369649e-12,1.482538856e-12,7.803860707e-13,4.303166762e-12,1.152437791e-12,1.235803847e-13,3.285847619e-12,2.880910397e-12,1.021179867e-12,5.122512250e-13,1.186646064e-12,3.321410315e-12,3.387749329e-12,1.404941461e-11,7.635931836e-11,2.771839599e-12
1.3438,1.886421049e-11,8.474975155e-12,5.433383804e-12,1.757002707e-12,5.688687741e-13,6.784067320e-13,2.193070772e-12,9.594328112e-13,7.787046687e-13,4.819558355e-13,1.070691414e-12,4.564912959e-13,1.336512657e-12,4.152280940e-13,1.104248248e-12,1.576055431e-12,1.981905977e-12,1.440254763e-12,7.668118874e-13,4.194981516e-12,1.112947195e-12,1.194891373e-13,3.135214160e-12,2.803113568e-12,9.872719895e-13,4.916455812e-13,1.175321535e-12,3.181759439e-12,3.362478987e-12,1.366404212e-11,7.282849055e-11,2.627738581e-12
1.3516,1.851554463e-11,8.260964617e-12,5.361436132e-12,1.702729644e-12,5.336176008e-13,6.620427802e-13,2.144007888e-12,9.199521434e-13,7.470352825e-13,4.792987310e-13,1.063949467e-12,4.467203129e-13,1.310644099e-12,3.966117513e-13,1.094444052e-12,1.557893863e-12,1.942688956e-12,1.399953742e-12,7.543254426e-13,4.091354358e-12,1.075608947e-12,1.152929618e-13,2.992315124e-12,2.728957733e-12,9.565762358e-13,4.737064950e-13,1.165182353e-12,3.049216083e-12,3.340667024e-12,1.330544824e-11,6.944347701e-11,2.490532835e-12
1.3594,1.819344521e-11,8.058398192e-12,5.295974122e-12,1.651869149e-12,5.003945720e-13,6.464952652e-13,2.096133279e-12,8.821586219e-13,7.168811080e-13,4.768850022e-13,1.057199083e-12,4.371417656e-13,1.286807557e-12,3.794881127e-13,1.086298761e-12,1.541067490e-12,1.906012812e-12,1.362557447e-12,7.429631661e-13,3.992361431e-12,1.040033524e-12,1.120149510e-13,2.857837722e-12,2.658667087e-12,9.285949915e-13,4.578207292e-13,1.157929840e-12,2.926806316e-12,3.322785580e-12,1.298181650e-11,6.620596957e-11,2.360673664e-12
1.3672,1.789741289e-11,7.866708258e-12,5.236709155e-12,1.604023048e-12,4.692601222e-13,6.319719995e-13,2.050575659e-12,8.459571295e-13,6.879393570e-13,4.747876175e-13,1.050643295e-12,4.276478059e-13,1.264415960e-12,3.639417190e-13,1.079681810e-12,1.525939874e-12,1.871674076e-12,1.327627709e-12,7.326530623e-13,3.898374570e-12,1.006269446e-12,1.093478065e-13,2.730634759e-12,2.592579273e-12,9.034239873e-13,4.439127793e-13,1.152995193e-12,2.813921664e-12,3.308647922e-12,1.269182434e-11,6.310773019e-11,2.237483490e-12
1.375,1.762342169e-11,7.682750491e-12,5.176722042e-12,1.556364892e-12,4.404155217e-13,6.183614285e-13,2.007986208e-12,8.112577703e-13,6.598740060e-13,4.730999007e-13,1.045102851e-12,4.183645187e-13,1.242264172e-12,3.493170688e-13,1.073923872e-12,1.512390818e-12,1.839846843e-12,1.294732184e-12,7.230915848e-13,3.808660633e-12,9.741833884e-13,1.065788235e-13,2.609344738e-12,2.528984207e-12,8.809749844e-13,4.320810182e-13,1.149477470e-12,2.707630832e-12,3.298094682e-12,1.243061857e-11,6.014125914e-11,2.119971551e-12
1.3828,1.737408506e-11,7.508596326e-12,5.122439471e-12,1.511185045e-12,4.135069106e-13,6.053567764e-13,1.967358483e-12,7.780447143e-13,6.330063587e-13,4.714645806e-13,1.039692838e-12,4.092270257e-13,1.221456974e-12,3.358914913e-13,1.069177228e-12,1.499748655e-12,1.809831924e-12,1.263791774e-12,7.142164767e-13,3.722810293e-12,9.434940850e-13,1.044346945e-13,2.495160271e-12,2.468095850e-12,8.605174442e-13,4.221162907e-13,1.147698234e-12,2.608455104e-12,3.291119330e-12,1.219850217e-11,5.730563141e-11,2.008916918e-12
1.3906,1.714922151e-11,7.344056182e-12,5.076148361e-12,1.468763823e-12,3.884205682e-13,5.931596031e-13,1.929606857e-12,7.463132675e-13,6.073052093e-13,4.699756596e-13,1.034670808e-12,4.004510549e-13,1.202129129e-12,3.240075573e-13,1.065503993e-12,1.488238579e-12,1.781252117e-12,1.234759492e-12,7.062796241e-13,3.641541053e-12,9.142004130e-13,1.029031541e-13,2.387639888e-12,2.410226980e-12,8.417065843e-13,4.137781948e-13,1.147186267e-12,2.515605812e-12,3.287466759e-12,1.199377535e-11,5.459554789e-11,1.903942651e-12
1.3984,1.694656357e-11,7.188277815e-12,5.029395832e-12,1.427042625e-12,3.651542665e-13,5.816743715e-13,1.893349531e-12,7.158775503e-13,5.825195667e-13,4.687987318e-13,1.030277298e-12,3.921557218e-13,1.183878172e-12,3.133969194e-13,1.062896307e-12,1.478295499e-12,1.755086242e-12,1.208113795e-12,6.993380325e-13,3.564661552e-12,8.861766266e-13,1.014349522e-13,2.284753128e-12,2.353806743e-12,8.249737849e-13,4.068258167e-13,1.148035553e-12,2.428434277e-12,3.287018608e-12,1.181750186e-11,5.200542795e-11,1.803754755e-12
1.4062,1.676607864e-11,7.041446491e-12,4.986916859e-12,1.387064116e-12,3.435309437e-13,5.707035569e-13,1.859542902e-12,6.866511519e-13,5.587720315e-13,4.678609243e-13,1.026509649e-12,3.842618738e-13,1.166770121e-12,3.040545058e-13,1.061653683e-12,1.470133160e-12,1.731368356e-12,1.183870584e-12,6.935752224e-13,3.492246806e-12,8.596923739e-13,1.003736464e-13,2.186870879e-12,2.299815906e-12,8.099641178e-13,4.011332960e-13,1.149728730e-12,2.347501143e-12,3.289030182e-12,1.166789759e-11,4.953172107e-11,1.708928770e-12
1.4141,1.660566559e-11,6.902319420e-12,4.952458341e-12,1.348990173e-12,3.234638488e-13,5.601995295e-13,1.830274129e-12,6.587808043e-13,5.361535856e-13,4.673313618e-13,1.024281226e-12,3.769968870e-13,1.150686040e-12,2.961077159e-13,1.062141141e-12,1.464078781e-12,1.709941631e-12,1.161996645e-12,6.891717838e-13,3.425122511e-12,8.349198259e-13,9.983924337e-14,2.094482272e-12,2.248848079e-12,7.955953483e-13,3.965964746e-13,1.151370630e-12,2.270630793e-12,3.293190838e-12,1.153954143e-11,4.717136082e-11,1.619423881e-12
1.4219,1.646490815e-11,6.772069325e-12,4.917712817e-12,1.312002188e-12,3.047780363e-13,5.499890608e-13,1.802010737e-12,6.322466878e-13,5.146237179e-13,4.672844913e-13,1.023280092e-12,3.703918586e-13,1.136250927e-12,2.894693256e-13,1.064500496e-12,1.459905224e-12,1.691379341e-12,1.142842406e-12,6.858014154e-13,3.362456049e-12,8.112180447e-13,9.963351847e-14,2.006385351e-12,2.198998871e-12,7.821701097e-13,3.930221376e-13,1.154505749e-12,2.197613899e-12,3.300948789e-12,1.143580415e-11,4.492397864e-11,1.533953945e-12
1.4297,1.634581356e-11,6.651250046e-12,4.885430215e-12,1.276721299e-12,2.873559169e-13,5.405332368e-13,1.775565559e-12,6.068780742e-13,4.941252916e-13,4.677518711e-13,1.023002703e-12,3.642401149e-13,1.123302956e-12,2.840895425e-13,1.068255254e-12,1.457350278e-12,1.675050410e-12,1.125698074e-12,6.834274033e-13,3.303379294e-12,7.887984637e-13,9.972905698e-14,1.922092535e-12,2.151482928e-12,7.706899185e-13,3.904620034e-13,1.159436712e-12,2.130687302e-12,3.312697114e-12,1.135830774e-11,4.278516507e-11,1.452620357e-12
1.4375,1.610276943e-11,6.435033233e-12,4.748424175e-12,1.203785803e-12,2.727998733e-13,5.067385244e-13,1.689548010e-12,5.818284476e-13,4.747137399e-13,4.695351397e-13,1.027878004e-12,3.620867356e-13,1.112205287e-12,2.765915475e-13,1.067291727e-12,1.459380582e-12,1.660011786e-12,1.113746526e-12,6.814315332e-13,3.246047380e-12,7.689746067e-13,9.634057286e-14,1.804287480e-12,2.088505985e-12,7.456155578e-13,3.895752246e-13,1.168912247e-12,2.025982748e-12,3.325498764e-12,1.099429833e-11,4.068745542e-11,1.369778532e-12
1.4453,1.600902593e-11,6.312597330e-12,4.704932358e-12,1.162213614e-12,2.569180477e-13,4.910540796e-13,1.655260190e-12,5.569027083e-13,4.560215572e-13,4.712708374e-13,1.031738823e-12,3.583137893e-13,1.102770121e-12,2.709747182e-13,1.073656643e-12,1.462468414e-12,1.648888828e-12,1.101029760e-12,6.808902654e-13,3.194242849e-12,7.513180930e-13,9.685693208e-14,1.725014639e-12,2.045167111e-12,7.374726932e-13,3.878686605e-13,1.180530196e-12,1.979866816e-12,3.342834864e-12,1.088405744e-11,3.877870314e-11,1.297730000e-12
1.4531,1.599411611e-11,6.248526148e-12,4.701400130e-12,1.141623076e-12,2.409410293e-13,4.877789028e-13,1.644904625e-12,5.333877542e-13,4.375700037e-13,4.731616558e-13,1.032328329e-12,3.529958810e-13,1.093160853e-12,2.685396592e-13,1.084673630e-12,1.464951730e-12,1.642081983e-12,1.088926807e-12,6.814423360e-13,3.149127601e-12,7.338324727e-13,9.971910666e-14,1.666502212e-12,2.006127600e-12,7.317966384e-13,3.867746393e-13,1.186959553e-12,1.931025996e-12,3.364189555e-12,1.096389475e-11,3.698254171e-11,1.229879789e-12
1.4609,1.597699301e-11,6.173113859e-12,4.695697686e-12,1.116417916e-12,2.271110464e-13,4.824387857e-13,1.633842235e-12,5.111815254e-13,4.202078918e-13,4.759505728e-13,1.035782010e-12,3.488212862e-13,1.084732795e-12,2.676189779e-13,1.095191157e-12,1.469850416e-12,1.636533850e-12,1.079620407e-12,6.834222528e-13,3.109447342e-12,7.182415917e-13,1.017465801e-13,1.603632387e-12,1.971424656e-12,7.271110635e-13,3.867020366e-13,1.195334646e-12,1.890809842e-12,3.388391934e-12,1.100392298e-11,3.525359401e-11,1.164884601e-12
1.4688,1.596250271e-11,6.093598531e-12,4.696934963e-12,1.089869371e-12,2.145991929e-13,4.760819404e-13,1.623724206e-12,4.897815140e-13,4.039188666e-13,4.791908736e-13,1.040969786e-12,3.454597097e-13,1.078099747e-12,2.682359153e-13,1.106962131e-12,1.477672796e-12,1.633043245e-12,1.073121237e-12,6.870074349e-13,3.075953750e-12,7.052734031e-13,1.035288536e-13,1.538782562e-12,1.943982326e-12,7.241716789e-13,3.874256614e-13,1.207165940e-12,1.863951763e-12,3.415899974e-12,1.101375505e-11,3.360218729e-11,1.103013430e-12
1.4766,1.598787559e-11,6.037584107e-12,4.695428325e-12,1.069895895e-12,2.026365496e-13,4.723246403e-13,1.614856956e-12,4.694173041e-13,3.882677664e-13,4.827126464e-13,1.045541655e-12,3.421024033e-13,1.073003863e-12,2.707593825e-13,1.121602626e-12,1.486285889e-12,1.633572385e-12,1.069113726e-12,6.912776560e-13,3.047353771e-12,6.928677156e-13,1.066299903e-13,1.484728165e-12,1.914336885e-12,7.211258592e-13,3.890895373e-13,1.217450781e-12,1.828848669e-12,3.447139814e-12,1.111103846e-11,3.203600476e-11,1.044758618e-12
1.4844,1.602862180e-11,5.985500017e-12,4.698045974e-12,1.050363151e-12,1.919729781e-13,4.695080224e-13,1.610000757e-12,4.502572893e-13,3.736316238e-13,4.870883398e-13,1.051911742e-12,3.394388915e-13,1.068693317e-12,2.745436097e-13,1.136767206e-12,1.496245481e-12,1.635358583e-12,1.066743961e-12,6.965734910e-13,3.022302732e-12,6.814839489e-13,1.093711324e-13,1.431438530e-12,1.887332835e-12,7.188325287e-13,3.912125068e-13,1.227669720e-12,1.797478886e-12,3.481202594e-12,1.121998062e-11,3.054234379e-11,9.891705423e-13
1.4922,1.607221756e-11,5.931290443e-12,4.716305022e-12,1.030983794e-12,1.823853096e-13,4.672698597e-13,1.611303140e-12,4.321430932e-13,3.602091417e-13,4.921819306e-13,1.059908950e-12,3.374475548e-13,1.065697680e-12,2.796764075e-13,1.152642039e-12,1.508406072e-12,1.637870349e-12,1.066133944e-12,7.036725280e-13,3.001948158e-12,6.723402430e-13,1.116848903e-13,1.375821033e-12,1.869099266e-12,7.188098001e-13,3.933942079e-13,1.239628083e-12,1.781194892e-12,3.517598543e-12,1.130215934e-11,2.911904906e-11,9.362378623e-13
1.5,1.615047947e-11,5.892588635e-12,4.728001887e-12,1.015378592e-12,1.732157019e-13,4.653899958e-13,1.610088014e-12,4.150932741e-13,3.476639984e-13,4.975238742e-13,1.067414755e-12,3.357143463e-13,1.065032783e-12,2.863602971e-13,1.170982799e-12,1.521922027e-12,1.644191616e-12,1.068542050e-12,7.118420589e-13,2.986274308e-12,6.641891372e-13,1.152642404e-13,1.327792477e-12,1.849041021e-12,7.191389867e-13,3.959427823e-13,1.250842781e-12,1.760804410e-12,3.557058071e-12,1.144457945e-11,2.776821063e-11,8.867375597e-13
1.5078,1.625004045e-11,5.861264887e-12,4.738187199e-12,1.000582533e-12,1.648922287e-13,4.641610062e-13,1.609948351e-12,3.990782940e-13,3.360821443e-13,5.033141837e-13,1.076002989e-12,3.345990725e-13,1.065640969e-12,2.939704190e-13,1.190770569e-12,1.537246257e-12,1.653274094e-12,1.073134597e-12,7.208032855e-13,2.974354531e-12,6.569564858e-13,1.189930157e-13,1.282965993e-12,1.829239018e-12,7.201780412e-13,3.987650755e-13,1.261632896e-12,1.739591475e-12,3.599375652e-12,1.161689864e-11,2.648412628e-11,8.399891039e-13
1.5156,1.634685228e-11,5.827945335e-12,4.766870892e-12,9.862058633e-13,1.574638829e-13,4.648267628e-13,1.618959494e-12,3.839420058e-13,3.256744603e-13,5.097492007e-13,1.086566066e-12,3.341987619e-13,1.066777967e-12,3.023483607e-13,1.211181792e-12,1.554808461e-12,1.662930978e-12,1.078773855e-12,7.309199412e-13,2.966208921e-12,6.516108177e-13,1.219990820e-13,1.236185493e-12,1.818644508e-12,7.234801291e-13,4.016258162e-13,1.273318431e-12,1.730998442e-12,3.643611346e-12,1.176489421e-11,2.526424496e-11,7.957639410e-13
1.5234,1.647207313e-11,5.805157679e-12,4.792747491e-12,9.745211674e-13,1.504429834e-13,4.657768191e-13,1.627066782e-12,3.697163014e-13,3.162019754e-13,5.165926299e-13,1.097180414e-12,3.342297184e-13,1.069631564e-12,3.117382884e-13,1.233124762e-12,1.573380421e-12,1.674861723e-12,1.086610367e-12,7.414218369e-13,2.960674940e-12,6.468234751e-13,1.256738144e-13,1.193888782e-12,1.807392525e-12,7.265533239e-13,4.047454826e-13,1.284798924e-12,1.722080653e-12,3.690498479e-12,1.195416556e-11,2.410859014e-11,7.548027312e-13
1.5312,1.662497267e-11,5.791324075e-12,4.809995965e-12,9.636717200e-13,1.441260830e-13,4.662349866e-13,1.632118147e-12,3.564176823e-13,3.075157797e-13,5.237536406e-13,1.107979880e-12,3.347140128e-13,1.073843933e-12,3.218764948e-13,1.256491686e-12,1.593136127e-12,1.689429929e-12,1.096501593e-12,7.520572718e-13,2.956622410e-12,6.418507865e-13,1.297258472e-13,1.155119104e-12,1.792194845e-12,7.286987505e-13,4.080560193e-13,1.295844337e-12,1.708853668e-12,3.741013859e-12,1.218432854e-11,2.301238717e-11,7.164798462e-13
1.5391,1.677570840e-11,5.777384108e-12,4.840111538e-12,9.532365505e-13,1.386799064e-13,4.682188957e-13,1.644561619e-12,3.439149079e-13,2.997908508e-13,5.313295328e-13,1.120218578e-12,3.357031155e-13,1.078366914e-12,3.326529804e-13,1.280717254e-12,1.615130883e-12,1.705008291e-12,1.107157832e-12,7.636400908e-13,2.954962853e-12,6.381259230e-13,1.332472129e-13,1.115304400e-12,1.783145786e-12,7.329860564e-13,4.114415378e-13,1.307411117e-12,1.703730761e-12,3.795053081e-12,1.240046128e-11,2.197262323e-11,6.803619081e-13
1.5469,1.695181726e-11,5.772495045e-12,4.871016470e-12,9.449955965e-13,1.336742656e-13,4.706333851e-13,1.658280398e-12,3.321425775e-13,2.930755817e-13,5.392677936e-13,1.133029259e-12,3.372438373e-13,1.084450471e-12,3.444184165e-13,1.306381957e-12,1.638597431e-12,1.722450056e-12,1.119673824e-12,7.758803029e-13,2.955578097e-12,6.355192232e-13,1.372837090e-13,1.078381160e-12,1.775817163e-12,7.389316284e-13,4.152047615e-13,1.320079901e-12,1.703428208e-12,3.853220324e-12,1.264828740e-11,2.098987399e-11,6.472829952e-13
1.5547,1.716196116e-11,5.778153578e-12,4.891203931e-12,9.381202794e-13,1.292630485e-13,4.720080776e-13,1.667160223e-12,3.210691726e-13,2.872139377e-13,5.475900854e-13,1.145915065e-12,3.394489441e-13,1.092369117e-12,3.573287122e-13,1.333813255e-12,1.663023739e-12,1.742205210e-12,1.134470692e-12,7.883770142e-13,2.957291784e-12,6.327336072e-13,1.419592188e-13,1.045054729e-12,1.764272613e-12,7.441225276e-13,4.192702968e-13,1.333678742e-12,1.700670058e-12,3.915914602e-12,1.294264427e-11,2.006066023e-11,6.168365171e-13
1.5625,1.737169295e-11,5.785164918e-12,4.918181237e-12,9.323299652e-13,1.257622272e-13,4.744601635e-13,1.680675342e-12,3.106367613e-13,2.821286275e-13,5.564829127e-13,1.159752027e-12,3.422198981e-13,1.100474417e-12,3.712637590e-13,1.362410949e-12,1.689149544e-12,1.762726384e-12,1.149996567e-12,8.017616904e-13,2.960492050e-12,6.299604994e-13,1.462113728e-13,1.011329432e-12,1.755256848e-12,7.495563367e-13,4.233701653e-13,1.347600920e-12,1.700154876e-12,3.982543227e-12,1.323098515e-11,1.918011375e-11,5.881678539e-13
1.5703,1.760164311e-11,5.799413357e-12,4.949015246e-12,9.286742404e-13,1.229363624e-13,4.776450214e-13,1.697254935e-12,3.007596858e-13,2.778506987e-13,5.657440764e-13,1.174223503e-12,3.455032711e-13,1.109240587e-12,3.861886165e-13,1.391919110e-12,1.716664541e-12,1.784315183e-12,1.166726060e-12,8.157976959e-13,2.964888603e-12,6.273706634e-13,1.505902536e-13,9.786291574e-13,1.747533460e-12,7.558680167e-13,4.277023164e-13,1.362421579e-12,1.703941175e-12,4.053674376e-12,1.354034890e-11,1.834746015e-11,5.619697058e-13
1.5781,1.787026736e-11,5.824865540e-12,4.972070623e-12,9.266882097e-13,1.207389458e-13,4.793495514e-13,1.709026127e-12,2.912839889e-13,2.742730552e-13,5.749046307e-13,1.188620614e-12,3.494291423e-13,1.119605071e-12,4.023299531e-13,1.422719680e-12,1.745047157e-12,1.807773209e-12,1.185395767e-12,8.298249671e-13,2.969143604e-12,6.245248172e-13,1.557254937e-13,9.486304829e-13,1.735833553e-12,7.614516671e-13,4.322158814e-13,1.378314829e-12,1.707652474e-12,4.129680736e-12,1.389522026e-11,1.756095550e-11,5.384642799e-13
1.5859,1.814373185e-11,5.853518998e-12,4.998183430e-12,9.261872048e-13,1.193452565e-13,4.808670756e-13,1.722127446e-12,2.821520441e-13,2.712078651e-13,5.840060820e-13,1.203423364e-12,3.539572619e-13,1.130285889e-12,4.198845445e-13,1.454984333e-12,1.774961354e-12,1.832280295e-12,1.204661984e-12,8.442592841e-13,2.973873321e-12,6.217282785e-13,1.608489156e-13,9.193118451e-13,1.724514736e-12,7.662050458e-13,4.366176013e-13,1.393805357e-12,1.709642665e-12,4.209385075e-12,1.425291996e-11,1.681626641e-11,5.166252447e-13
1.5938,1.843071670e-11,5.887315810e-12,5.029391279e-12,9.274161262e-13,1.186616519e-13,4.828146787e-13,1.738568233e-12,2.734088629e-13,2.687097178e-13,5.932904566e-13,1.218800842e-12,3.590066729e-13,1.141149726e-12,4.386835893e-13,1.488370779e-12,1.806474111e-12,1.857861215e-12,1.224567444e-12,8.590953271e-13,2.979655802e-12,6.190299103e-13,1.659088949e-13,8.905158329e-13,1.714214862e-12,7.709712508e-13,4.411947926e-13,1.409548224e-12,1.712935181e-12,4.293017084e-12,1.462410218e-11,1.611173519e-11,4.963943807e-13
1.6016,1.875520542e-11,5.930724753e-12,5.057823124e-12,9.300326567e-13,1.185941180e-13,4.837013781e-13,1.752150221e-12,2.649890179e-13,2.668691724e-13,6.026046843e-13,1.234347885e-12,3.646451888e-13,1.153404527e-12,4.586818284e-13,1.522699752e-12,1.838938664e-12,1.884951565e-12,1.246057382e-12,8.737792587e-13,2.985435851e-12,6.159737285e-13,1.715573054e-13,8.632563195e-13,1.701420217e-12,7.755440170e-13,4.461969041e-13,1.427299977e-12,1.719882591e-12,4.381673999e-12,1.503519709e-11,1.544649737e-11,4.783267091e-13
1.6094,1.909296787e-11,5.978924465e-12,5.088429223e-12,9.343940794e-13,1.191639330e-13,4.842646367e-13,1.765653870e-12,2.568315339e-13,2.654860228e-13,6.118471508e-13,1.250077824e-12,3.708799052e-13,1.166424599e-12,4.802502415e-13,1.558381829e-12,1.872608459e-12,1.913145620e-12,1.268384841e-12,8.887029208e-13,2.991422237e-12,6.128351650e-13,1.775253817e-13,8.372802203e-13,1.688370504e-12,7.796588581e-13,4.513559751e-13,1.445833252e-12,1.727077723e-12,4.474828539e-12,1.545944693e-11,1.481692810e-11,4.618296030e-13
1.6172,1.944213363e-11,6.031439557e-12,5.123117752e-12,9.402756782e-13,1.204221735e-13,4.851605019e-13,1.781814897e-12,2.489646816e-13,2.644020985e-13,6.211589673e-13,1.266131172e-12,3.777544155e-13,1.179377702e-12,5.034881586e-13,1.595558236e-12,1.908004028e-12,1.942718759e-12,1.291364380e-12,9.041958342e-13,2.998427912e-12,6.098011135e-13,1.834167315e-13,8.121370345e-13,1.675745672e-12,7.833821942e-13,4.565928769e-13,1.464172328e-12,1.732936347e-12,4.572236878e-12,1.589617320e-11,1.422038654e-11,4.462857783e-13
1.625,1.982388028e-11,6.091495059e-12,5.158438314e-12,9.471325985e-13,1.223980564e-13,4.854515924e-13,1.797176248e-12,2.413494061e-13,2.636840457e-13,6.306071388e-13,1.282692895e-12,3.853713522e-13,1.192861517e-12,5.282486769e-13,1.633944520e-12,1.945020052e-12,1.973877957e-12,1.315617754e-12,9.198436417e-13,3.005873734e-12,6.065970293e-13,1.894662275e-13,7.872370477e-13,1.662079951e-12,7.868097752e-13,4.619112820e-13,1.483620501e-12,1.742636500e-12,4.674631880e-12,1.636396341e-11,1.365675489e-11,4.320654310e-13
1.6328,2.022851745e-11,6.158611128e-12,5.196586264e-12,9.561633944e-13,1.249367274e-13,4.856518703e-13,1.812281133e-12,2.339771662e-13,2.632710991e-13,6.402680751e-13,1.299766249e-12,3.935718435e-13,1.207020057e-12,5.546950546e-13,1.673787803e-12,1.983391469e-12,2.006197803e-12,1.340580714e-12,9.355647841e-13,3.013612649e-12,6.035287861e-13,1.957888763e-13,7.629960859e-13,1.648757884e-12,7.898462074e-13,4.671082436e-13,1.504150739e-12,1.755566036e-12,4.781925533e-12,1.685393565e-11,1.312426257e-11,4.190320999e-13
1.6406,2.064960744e-11,6.231864265e-12,5.236180484e-12,9.672398554e-13,1.280135789e-13,4.862410278e-13,1.828301809e-12,2.269164020e-13,2.630086833e-13,6.501492964e-13,1.317133462e-12,4.021688792e-13,1.221263603e-12,5.827957426e-13,1.715007501e-12,2.022912907e-12,2.039848058e-12,1.365777878e-12,9.514699041e-13,3.022234668e-12,6.009545000e-13,2.022061520e-13,7.402355044e-13,1.635850352e-12,7.924902425e-13,4.722811269e-13,1.524898208e-12,1.767271516e-12,4.893812710e-12,1.736310045e-11,1.261923060e-11,4.065101553e-13
1.6484,2.109519628e-11,6.310182793e-12,5.276201399e-12,9.790067844e-13,1.317934982e-13,4.865911258e-13,1.844574798e-12,2.201189027e-13,2.629234025e-13,6.600872193e-13,1.335073935e-12,4.112909563e-13,1.235481603e-12,6.122438841e-13,1.756693962e-12,2.063434945e-12,2.074553899e-12,1.391428899e-12,9.674905861e-13,3.031620649e-12,5.986943574e-13,2.086546258e-13,7.178099057e-13,1.623596350e-12,7.957283774e-13,4.775653885e-13,1.546673553e-12,1.782918255e-12,5.010880031e-12,1.789295100e-11,1.214063801e-11,3.946708535e-13
1.6562,2.156745321e-11,6.395781518e-12,5.320027077e-12,9.929138524e-13,1.361580026e-13,4.868883986e-13,1.861785219e-12,2.135125380e-13,2.630775446e-13,6.701177632e-13,1.353549180e-12,4.211073326e-13,1.250152123e-12,6.433543151e-13,1.799233503e-12,2.104936665e-12,2.109943376e-12,1.417558695e-12,9.836357166e-13,3.041465915e-12,5.965060102e-13,2.152941146e-13,6.956121125e-13,1.612677959e-12,7.997826974e-13,4.827804968e-13,1.570334519e-12,1.805079205e-12,5.134209914e-12,1.844841755e-11,1.168931857e-11,3.836629746e-13
1.6641,2.206659583e-11,6.490610159e-12,5.364832677e-12,1.009581862e-12,1.410650685e-13,4.871461811e-13,1.878806782e-12,2.071485949e-13,2.634370643e-13,6.804703202e-13,1.372445004e-12,4.317539325e-13,1.265416791e-12,6.766043354e-13,1.843784867e-12,2.147711296e-12,2.146812920e-12,1.444203780e-12,9.998264622e-13,3.051966434e-12,5.942812133e-13,2.221690287e-13,6.750960059e-13,1.600956629e-12,8.033339624e-13,4.880654248e-13,1.595324571e-12,1.826749014e-12,5.263986754e-12,1.903849571e-11,1.126237018e-11,3.729248997e-13
1.6719,2.258451001e-11,6.589121037e-12,5.410265438e-12,1.027003092e-12,1.467147744e-13,4.872568529e-13,1.896149190e-12,2.010620173e-13,2.640080772e-13,6.911945290e-13,1.392779771e-12,4.433423675e-13,1.280674938e-12,7.117151715e-13,1.889949683e-12,2.192346777e-12,2.185151432e-12,1.471308006e-12,1.016212915e-12,3.063945172e-12,5.923401400e-13,2.290193698e-13,6.550148131e-13,1.589611618e-12,8.068063758e-13,4.936621825e-13,1.621135573e-12,1.849543832e-12,5.398970836e-12,1.964437649e-11,1.085590331e-11,3.624311833e-13
1.6797,2.312610757e-11,6.693086012e-12,5.461105384e-12,1.046058286e-12,1.529012870e-13,4.879354651e-13,1.915600745e-12,1.952186852e-13,2.648279909e-13,7.020978419e-13,1.414172732e-12,4.555974939e-13,1.296111805e-12,7.483596633e-13,1.937400470e-12,2.238806432e-12,2.224660785e-12,1.499146144e-12,1.033222089e-12,3.078113321e-12,5.909917454e-13,2.359342219e-13,6.346231933e-13,1.580805429e-12,8.112101776e-13,4.992463722e-13,1.648372308e-12,1.879489951e-12,5.539231822e-12,2.026806719e-11,1.047082084e-11,3.524978750e-13
1.6875,2.370759357e-11,6.809724698e-12,5.513893290e-12,1.068301644e-12,1.594788651e-13,4.888302461e-13,1.934080164e-12,1.895932756e-13,2.658570522e-13,7.129286381e-13,1.435102611e-12,4.682445473e-13,1.312409310e-12,7.865160667e-13,1.986652893e-12,2.286609810e-12,2.266268133e-12,1.528253561e-12,1.050788746e-12,3.093939885e-12,5.898705677e-13,2.431759556e-13,6.158580880e-13,1.571481677e-12,8.152053641e-13,5.046248289e-13,1.677354650e-12,1.911930911e-12,5.686601257e-12,2.093906451e-11,1.010730897e-11,3.428744091e-13
1.6953,2.431096109e-11,6.932027632e-12,5.567468806e-12,1.091863790e-12,1.667704843e-13,4.893875298e-13,1.952065723e-12,1.841853825e-13,2.670501166e-13,7.236834540e-13,1.456787014e-12,4.815618483e-13,1.328601678e-12,8.258140382e-13,2.037016087e-12,2.336007037e-12,2.309525499e-12,1.557958832e-12,1.068714391e-12,3.111043325e-12,5.890681031e-13,2.502782158e-13,5.980177861e-13,1.562492412e-12,8.187650883e-13,5.101404749e-13,1.707459264e-12,1.944754805e-12,5.841167471e-12,2.163260083e-11,9.761889150e-12,3.333557023e-13
1.7031,2.493216384e-11,7.058062100e-12,5.627024314e-12,1.116653207e-12,1.746448909e-13,4.904205470e-13,1.973077275e-12,1.790368065e-13,2.684501927e-13,7.345501165e-13,1.480133323e-12,4.956755118e-13,1.344234828e-12,8.660545883e-13,2.088050469e-12,2.387077773e-12,2.353589862e-12,1.587984318e-12,1.087073376e-12,3.130064114e-12,5.891890798e-13,2.570910205e-13,5.799921802e-13,1.557216862e-12,8.238981888e-13,5.159670055e-13,1.739259556e-12,1.984303872e-12,6.002501533e-12,2.233755923e-11,9.434781756e-12,3.241135785e-13
1.7109,2.560244731e-11,7.198285431e-12,5.688731010e-12,1.144604495e-12,1.827588455e-13,4.919640140e-13,1.993626814e-12,1.741986497e-13,2.701013668e-13,7.455455860e-13,1.503608272e-12,5.103395166e-13,1.360795276e-12,9.076924415e-13,2.140805300e-12,2.439529088e-12,2.399895885e-12,1.619655678e-12,1.105846288e-12,3.151147163e-12,5.899860163e-13,2.643231557e-13,5.638435708e-13,1.552667224e-12,8.302493966e-13,5.220385752e-13,1.773884397e-12,2.030497549e-12,6.171813905e-12,2.309782901e-11,9.127235186e-12,3.153239788e-13
1.7188,2.630332977e-11,7.346480010e-12,5.749366788e-12,1.174346151e-12,1.913722609e-13,4.936064758e-13,2.013533892e-12,1.696558936e-13,2.719903367e-13,7.566815098e-13,1.527937144e-12,5.257300324e-13,1.378157582e-12,9.508485666e-13,2.195408552e-12,2.494267004e-12,2.448913877e-12,1.652952257e-12,1.125417123e-12,3.174591243e-12,5.913637067e-13,2.717640881e-13,5.492890899e-13,1.548685537e-12,8.366675932e-13,5.283335684e-13,1.810194969e-12,2.078894698e-12,6.348748225e-12,2.389203035e-11,8.835271377e-12,3.069651202e-13
1.7266,2.701334133e-11,7.495946572e-12,5.812950658e-12,1.204745961e-12,2.005498712e-13,4.957864038e-13,2.036994449e-12,1.653594653e-13,2.741649950e-13,7.681051515e-13,1.554433940e-12,5.420898456e-13,1.395436699e-12,9.951483272e-13,2.251469961e-12,2.551857840e-12,2.499743016e-12,1.687079851e-12,1.146272782e-12,3.201315018e-12,5.939608275e-13,2.787541874e-13,5.346239153e-13,1.548582845e-12,8.438721484e-13,5.347748444e-13,1.847394766e-12,2.130947130e-12,6.532159592e-12,2.468972061e-11,8.557446163e-12,2.989060848e-13
1.7344,2.777107838e-11,7.658744250e-12,5.876437298e-12,1.237774391e-12,2.099473952e-13,4.981492732e-13,2.060368780e-12,1.613117307e-13,2.767312293e-13,7.798845763e-13,1.581747004e-12,5.592077100e-13,1.413873012e-12,1.040614159e-12,2.309564373e-12,2.611398113e-12,2.553323633e-12,1.722993754e-12,1.168035082e-12,3.231141773e-12,5.976083231e-13,2.858420822e-13,5.214941006e-13,1.549639642e-12,8.521591202e-13,5.413944551e-13,1.887137635e-12,2.189113440e-12,6.723424852e-12,2.554021322e-11,8.296483757e-12,2.914026324e-13
1.7422,2.857307231e-11,7.833274955e-12,5.937745774e-12,1.273283589e-12,2.197006668e-13,5.003991829e-13,2.082772377e-12,1.575709175e-13,2.796990303e-13,7.921401675e-13,1.609942821e-12,5.770926850e-13,1.433666097e-12,1.087554081e-12,2.369808531e-12,2.673185351e-12,2.610204379e-12,1.761107305e-12,1.190636676e-12,3.263636804e-12,6.018665858e-13,2.933750709e-13,5.103650826e-13,1.551000353e-12,8.609171761e-13,5.483835390e-13,1.929434296e-12,2.251112896e-12,6.923268424e-12,2.644059123e-11,8.050270650e-12,2.846975754e-13
1.75,2.938717017e-11,8.009367330e-12,6.002438343e-12,1.309491321e-12,2.300251089e-13,5.033501866e-13,2.108932710e-12,1.541540012e-13,2.830547558e-13,8.049079972e-13,1.640112195e-12,5.959581853e-13,1.453522334e-12,1.135994634e-12,2.431944972e-12,2.738020738e-12,2.669171722e-12,1.800745405e-12,1.214647088e-12,3.298592574e-12,6.069610413e-13,3.009046958e-13,4.996736908e-13,1.555720919e-12,8.702085587e-13,5.557900624e-13,1.972927775e-12,2.315052920e-12,7.130935417e-12,2.734790240e-11,7.816262793e-12,2.785178494e-13
1.7578,3.024516712e-11,8.196494228e-12,6.067971135e-12,1.347433605e-12,2.406728072e-13,5.066896315e-13,2.135394322e-12,1.509798221e-13,2.868958353e-13,8.178368218e-13,1.671171663e-12,6.156777022e-13,1.474110326e-12,1.185772756e-12,2.496220627e-12,2.804844880e-12,2.730053700e-12,1.842275939e-12,1.239651152e-12,3.334671024e-12,6.127658130e-13,3.086485239e-13,4.901923416e-13,1.561756588e-12,8.805156146e-13,5.635754087e-13,2.018884587e-12,2.384274232e-12,7.347612764e-12,2.829973324e-11,7.597445952e-12,2.730572692e-13
1.7656,3.115689090e-11,8.398373451e-12,6.129102058e-12,1.388109160e-12,2.515762621e-13,5.095065699e-13,2.159423232e-12,1.479726831e-13,2.912683465e-13,8.308251408e-13,1.702882821e-12,6.362284917e-13,1.496008607e-12,1.236834057e-12,2.562629705e-12,2.873255291e-12,2.793318293e-12,1.885720867e-12,1.265105944e-12,3.371605916e-12,6.190288001e-13,3.167620132e-13,4.823409618e-13,1.567585861e-12,8.916960822e-13,5.717422383e-13,2.068064677e-12,2.459786502e-12,7.574025121e-12,2.931042995e-11,7.394180067e-12,2.686649856e-13
1.7734,3.208405252e-11,8.604407999e-12,6.189210073e-12,1.430106287e-12,2.629313793e-13,5.121611794e-13,2.185133971e-12,1.451456932e-13,2.960901125e-13,8.442756045e-13,1.736328832e-12,6.578708644e-13,1.518147514e-12,1.289270577e-12,2.631132384e-12,2.944346760e-12,2.858770562e-12,1.930475620e-12,1.291521811e-12,3.410856856e-12,6.258665208e-13,3.247142523e-13,4.749757955e-13,1.575213202e-12,9.028864412e-13,5.803111033e-13,2.118526395e-12,2.536226902e-12,7.808642926e-12,3.033469633e-11,7.203088901e-12,2.648413201e-13
1.7812,3.304026986e-11,8.817838517e-12,6.249342728e-12,1.473243816e-12,2.746301529e-13,5.150116244e-13,2.211153301e-12,1.425230876e-13,3.013763879e-13,8.581391788e-13,1.771087506e-12,6.805844916e-13,1.540872711e-12,1.343041772e-12,2.701654467e-12,3.017863002e-12,2.926373714e-12,1.977077932e-12,1.318914422e-12,3.451906443e-12,6.329150374e-13,3.326516215e-13,4.684849810e-13,1.583414810e-12,9.143648784e-13,5.893721841e-13,2.170560012e-12,2.614830306e-12,8.051291193e-12,3.138712750e-11,7.025423177e-12,2.616125999e-13
1.7891,3.404638020e-11,9.044763155e-12,6.307255289e-12,1.518752146e-12,2.864492069e-13,5.177451254e-13,2.234674634e-12,1.400698590e-13,3.071974905e-13,8.717572736e-13,1.806211308e-12,7.040942715e-13,1.565046750e-12,1.397933913e-12,2.773660768e-12,3.092967966e-12,2.996018285e-12,2.025688298e-12,1.346745979e-12,3.493230521e-12,6.398652146e-13,3.409706061e-13,4.631836652e-13,1.591062839e-12,9.272802136e-13,5.989094292e-13,2.226019445e-12,2.701456801e-12,8.302409661e-12,3.249186164e-11,6.863357575e-12,2.595203888e-13
