Time,Fp1,AF3,F7,F3,FC1,FC5,T7,C3,CP1,CP5,P7,P3,Pz,PO3,O1,Oz,O2,PO4,P4,P8,CP6,CP2,C4,T8,FC6,FC2,F4,F8,AF4,Fp2,Fz,Cz,
0,1.276511301e-08,7.812814644e-09,1.183512295e-08,3.608263277e-09,6.199855751e-10,2.857660644e-09,1.175733872e-08,1.970259907e-10,3.667395830e-10,3.192808336e-09,1.476625643e-08,2.839925656e-09,8.407002767e-11,3.946066102e-09,6.588504963e-09,1.181978032e-08,1.255747034e-08,9.449114642e-09,6.819976292e-09,1.577187779e-08,9.406686518e-09,1.584999648e-09,6.291677185e-10,1.674351219e-08,1.067244958e-08,3.012931271e-11,7.256839656e-09,1.074908118e-08,9.245126153e-09,3.200470703e-08,1.279109584e-10,2.911451614e-09
0.0078125,1.307791524e-08,8.011562590e-09,1.213428141e-08,3.699777365e-09,6.358334926e-10,2.929353447e-09,1.205449891e-08,2.042802664e-10,3.761690443e-10,3.271427924e-09,1.513329597e-08,2.910450017e-09,8.715225946e-11,4.052699542e-09,6.754027925e-09,1.211327254e-08,1.287131895e-08,9.691563709e-09,6.996964099e-09,1.616629949e-08,9.648026319e-09,1.626662998e-09,6.483491052e-10,1.717259779e-08,1.095258438e-08,3.093173374e-11,7.447267812e-09,1.102244970e-08,9.481064135e-09,3.277077735e-08,1.312000719e-10,2.989017559e-09
0.015625,1.235563588e-08,7.575809618e-09,1.147357692e-08,3.498574837e-09,6.012906353e-10,2.769687098e-09,1.139731220e-08,1.987252645e-10,3.557408465e-10,3.092030600e-09,1.430409439e-08,2.750910912e-09,8.386293794e-11,3.837878203e-09,6.385199170e-09,1.144907077e-08,1.216726508e-08,9.166201524e-09,6.619186668e-09,1.528300404e-08,9.125199051e-09,1.539397747e-09,6.169995254e-10,1.624197171e-08,1.036373507e-08,2.928487475e-11,7.047072475e-09,1.042307513e-08,8.964985264e-09,3.094285678e-08,1.240614848e-10,2.829243824e-09
0.023438,1.078178522e-08,6.620397295e-09,1.002238500e-08,3.057020796e-09,5.255578521e-10,2.418572737e-09,9.954779110e-09,1.781992674e-10,3.110669103e-10,2.697646675e-09,1.248520213e-08,2.400950019e-09,7.488068044e-11,3.363111950e-09,5.574946375e-09,9.992816649e-09,1.062284435e-08,8.011962883e-09,5.788646476e-09,1.334359627e-08,7.976474620e-09,1.347037923e-09,5.448026451e-10,1.419572646e-08,9.069686673e-09,2.567772905e-11,6.167640611e-09,9.108160725e-09,7.836747251e-09,2.697605931e-08,1.084078445e-10,2.477391133e-09
0.03125,8.737246299e-09,5.371211680e-09,8.130345385e-09,2.480201946e-09,4.264036844e-10,1.961560365e-09,8.073943609e-09,1.440168158e-10,2.523642835e-10,2.186847157e-09,1.012254482e-08,1.946361073e-09,6.090966218e-11,2.732812626e-09,4.520429801e-09,8.101221072e-09,8.613934062e-09,6.501012449e-09,4.697901315e-09,1.082168009e-08,6.472827279e-09,1.093886490e-09,4.429909532e-10,1.151948603e-08,7.362762331e-09,2.088627882e-11,5.007659830e-09,7.389523987e-09,6.357287869e-09,2.184350657e-08,8.786748955e-11,2.011181046e-09
0.039062,6.606313495e-09,4.063093067e-09,6.153446189e-09,1.876616435e-09,3.224781386e-10,1.484774945e-09,6.108867036e-09,1.076004806e-10,1.906490363e-10,1.656202121e-09,7.661070962e-09,1.472891565e-09,4.555671249e-11,2.066042768e-09,3.420462620e-09,6.130938721e-09,6.518884616e-09,4.917880315e-09,3.552409842e-09,8.192349577e-09,4.897098167e-09,8.276068228e-10,3.328195117e-10,8.716860961e-09,5.565001558e-09,1.580677799e-11,3.785617429e-09,5.590725462e-09,4.805041832e-09,1.651054215e-08,6.632435985e-11,1.518884951e-09
0.046875,4.680663956e-09,2.880758803e-09,4.364239742e-09,1.330449111e-09,2.285585037e-10,1.052668788e-09,4.331454339e-09,7.598889631e-11,1.349918328e-10,1.175321347e-09,5.433214803e-09,1.044369581e-09,3.206612599e-11,1.464489360e-09,2.425133813e-09,4.348120282e-09,4.623306456e-09,3.486977027e-09,2.517828066e-09,5.812252097e-09,3.472603785e-09,5.869043685e-10,2.348488414e-10,6.182068932e-09,3.943079822e-09,1.123841666e-11,2.683007747e-09,3.963973258e-09,3.404517360e-09,1.169270567e-08,4.688737728e-11,1.075101567e-09
0.054688,3.129793291e-09,1.928094919e-09,2.920947443e-09,8.899267543e-10,1.528602384e-10,7.035960375e-10,2.898696481e-09,4.971617334e-11,9.019039985e-11,7.869573950e-10,3.636009285e-09,6.987152766e-10,2.112380285e-11,9.798839544e-10,1.622568129e-09,2.910336841e-09,3.094634827e-09,2.333919261e-09,1.684615383e-09,3.891771694e-09,2.324445129e-09,3.927861635e-10,1.562085740e-10,4.138522349e-09,2.637815256e-09,7.565414843e-12,1.795474014e-09,2.652609227e-09,2.277706259e-09,7.813635854e-09,3.123661425e-11,7.181005199e-10
0.0625,2.002278467e-09,1.233560790e-09,1.869350356e-09,5.685394215e-10,9.761909018e-11,4.492387386e-10,1.855530756e-09,3.019135572e-11,5.746892367e-11,5.049405076e-10,2.329183158e-09,4.474789176e-10,1.291953841e-11,6.244453052e-10,1.038937172e-09,1.865317267e-09,1.982468877e-09,1.492977772e-09,1.076293419e-09,2.494223461e-09,1.486748808e-09,2.508683520e-10,9.785958691e-11,2.648138736e-09,1.683460289e-09,4.860799936e-12,1.146145767e-09,1.696335220e-09,1.455526462e-09,4.998782883e-09,1.983768825e-11,4.569101006e-10
0.070312,1.246393971e-09,7.674715944e-10,1.163116851e-09,3.525385711e-10,6.052516097e-11,2.782639947e-10,1.155424114e-09,1.781152063e-11,3.552166562e-11,3.155940005e-10,1.451784176e-09,2.788783179e-10,7.560200133e-12,3.857236598e-10,6.473608761e-10,1.164066045e-09,1.235750607e-09,9.283474035e-10,6.680382696e-10,1.555316297e-09,9.241536645e-10,1.554993172e-10,5.913397971e-11,1.647011847e-09,1.043360839e-09,3.045988616e-12,7.102951243e-10,1.053900843e-09,9.039820777e-10,3.113167930e-09,1.219544630e-11,2.819039278e-10
0.078125,7.733966304e-10,4.759971679e-10,7.202554747e-10,2.171243172e-10,3.729455936e-11,1.709337372e-10,7.167081704e-10,1.030522163e-11,2.182875894e-11,1.965267344e-10,9.008696476e-10,1.730462001e-10,4.331677692e-12,2.368447387e-10,4.018569604e-10,7.238427990e-10,7.669015230e-10,5.746139023e-10,4.127499116e-10,9.651505369e-10,5.717227008e-10,9.583783418e-11,3.544664783e-11,1.019874641e-09,6.441759944e-10,1.912659893e-12,4.381858724e-10,6.517869180e-10,5.592919393e-10,1.933285137e-09,7.423011373e-12,1.730724738e-10
0.085938,4.966464677e-10,3.051974747e-10,4.606373735e-10,1.376043034e-10,2.364972588e-11,1.081290697e-10,4.593292811e-10,6.008869187e-12,1.379086033e-11,1.268468339e-10,5.778130355e-10,1.110462728e-10,2.458604563e-12,1.491887443e-10,2.579841837e-10,4.657726143e-10,4.915944133e-10,3.665884640e-10,2.626544054e-10,6.184245948e-10,3.646084358e-10,6.075932192e-11,2.150559795e-11,6.514848424e-10,4.095623579e-10,1.240158512e-12,2.779296900e-10,4.159243716e-10,3.563256172e-10,1.244627964e-09,4.631596342e-12,1.092182056e-10
0.09375,3.399557283e-10,2.086833972e-10,3.133015304e-10,9.255494972e-11,1.591801853e-11,7.266422718e-11,3.129664706e-10,3.951738502e-12,9.266343502e-12,8.713609345e-11,3.938384546e-10,7.575744709e-11,1.510109273e-12,9.986320988e-11,1.761219776e-10,3.186540432e-10,3.345647695e-10,2.482375795e-10,1.775399508e-10,4.204890822e-10,2.469881196e-10,4.091128268e-11,1.396179628e-11,4.423888692e-10,2.770874900e-10,8.569460955e-13,1.872322307e-10,2.826144896e-10,2.409128802e-10,8.552272723e-10,3.061482611e-12,7.337927396e-11
0.10156,2.487320567e-10,1.529679861e-10,2.276435258e-10,6.654724083e-11,1.144718525e-11,5.226617380e-11,2.274443496e-10,2.792449819e-12,6.676480348e-12,6.374368946e-11,2.860686822e-10,5.508459671e-11,1.017207910e-12,7.180293904e-11,1.281560881e-10,2.321245326e-10,2.423978915e-10,1.793436094e-10,1.283003532e-10,3.041893597e-10,1.787315026e-10,2.948394473e-11,9.881269476e-12,3.210293249e-10,2.009739198e-10,6.330283357e-13,1.350717642e-10,2.057712418e-10,1.738040922e-10,6.280733354e-10,2.170678435e-12,5.298822621e-11
0.10938,1.919944819e-10,1.185315923e-10,1.741680085e-10,5.055412427e-11,8.720123596e-12,3.973407828e-11,1.738924532e-10,1.946098003e-12,5.125234274e-12,4.892737417e-11,2.187661136e-10,4.216909029e-11,7.390587269e-13,5.489790237e-11,9.814076939e-11,1.777602661e-10,1.847498888e-10,1.366445111e-10,9.804273666e-11,2.313784319e-10,1.364479269e-10,2.248518935e-11,7.506656499e-12,2.457610012e-10,1.542057997e-10,4.884349589e-13,1.030775137e-10,1.584867486e-10,1.320805067e-10,4.866411877e-10,1.653186912e-12,4.067034270e-11
0.11719,1.668905770e-10,1.027513433e-10,1.500646799e-10,4.337518266e-11,7.460641091e-12,3.442516195e-11,1.493246260e-10,1.607298979e-12,4.396722088e-12,4.265669893e-11,1.893970053e-10,3.651580282e-11,5.705376673e-13,4.639576960e-11,8.463883259e-11,1.536338784e-10,1.589677333e-10,1.165103130e-10,8.345621600e-11,1.989606167e-10,1.165652460e-10,1.916720550e-11,5.940574498e-12,2.107640968e-10,1.308415072e-10,4.072403378e-13,8.724119620e-11,1.368353769e-10,1.118030455e-10,4.254029395e-10,1.416393626e-12,3.443988236e-11
0.125,1.422793916e-10,8.799550737e-11,1.273010445e-10,3.695987971e-11,6.383911070e-12,2.934693865e-11,1.265439060e-10,1.759143919e-12,3.802742039e-12,3.620078372e-11,1.612881272e-10,3.107194923e-11,6.068426302e-13,4.003023106e-11,7.184182291e-11,1.302663141e-10,1.348745087e-10,9.906287716e-11,7.125974977e-11,1.684603324e-10,9.906162425e-11,1.640554365e-11,5.411882025e-12,1.792508297e-10,1.119174298e-10,3.394916620e-13,7.472442221e-11,1.169154114e-10,9.489583327e-11,3.619745027e-10,1.247114734e-12,2.969937982e-11
0.13281,1.215725450e-10,7.549227253e-11,1.085053386e-10,3.178075113e-11,5.547370897e-12,2.517019622e-11,1.079211460e-10,1.296706479e-12,3.322840662e-12,3.079033457e-11,1.384265107e-10,2.662063657e-11,5.313041284e-13,3.493845098e-11,6.140805747e-11,1.111405427e-10,1.155140293e-10,8.523209440e-11,6.159216789e-11,1.439234333e-10,8.495507640e-11,1.419318929e-11,4.802918615e-12,1.535461848e-10,9.671716785e-11,2.865082974e-13,6.485661329e-11,1.003358593e-10,8.161434488e-11,3.077174421e-10,1.119509986e-12,2.586606862e-11
0.14062,1.079820892e-10,6.648408258e-11,9.619837357e-11,2.836914475e-11,4.984407624e-12,2.265920638e-11,9.553526910e-11,1.020434708e-12,2.959161252e-12,2.767677877e-11,1.245011666e-10,2.388416834e-11,4.166763610e-13,3.060490755e-11,5.464375832e-11,9.919311948e-11,1.033918181e-10,7.539263016e-11,5.425848509e-11,1.289103943e-10,7.494457983e-11,1.257864846e-11,3.831679900e-12,1.356215708e-10,8.441034885e-11,2.449907711e-13,5.706687975e-11,8.844535838e-11,7.181745620e-11,2.724638753e-10,1.012945551e-12,2.250305487e-11
0.14844,9.452519890e-11,5.804679307e-11,8.461758782e-11,2.517207900e-11,4.479647109e-12,2.009629361e-11,8.403334511e-11,1.226017982e-12,2.633285120e-12,2.440566241e-11,1.104194227e-10,2.115539335e-11,4.579804456e-13,2.730462875e-11,4.808353054e-11,8.739934811e-11,9.159091178e-11,6.670828326e-11,4.805278983e-11,1.142718639e-10,6.611893929e-11,1.116816346e-11,3.557982931e-12,1.193524228e-10,7.462914975e-11,2.209719068e-13,5.096306714e-11,7.726711014e-11,6.359780965e-11,2.358069169e-10,9.159824936e-13,1.988121686e-11
0.15625,8.210262933e-11,5.055906017e-11,7.423201197e-11,2.229392593e-11,4.046820613e-12,1.766325976e-11,7.381458682e-11,9.888440565e-13,2.354442137e-12,2.118028050e-11,9.703354731e-11,1.858754418e-11,4.340300960e-13,2.474724405e-11,4.202954677e-11,7.638526700e-11,8.068470612e-11,5.919395660e-11,4.286316637e-11,1.008504665e-10,5.859922695e-11,9.970236926e-12,3.388313285e-12,1.052939623e-10,6.688192010e-11,2.118994702e-13,4.616962057e-11,6.729406728e-11,5.684636973e-11,2.005526225e-10,8.224563798e-13,1.778927336e-11
0.16406,7.387818845e-11,4.502620756e-11,6.730096673e-11,2.025558258e-11,3.724526051e-12,1.612330706e-11,6.694699104e-11,7.270222246e-13,2.116697874e-12,1.930096793e-11,8.851948645e-11,1.699424364e-11,3.181394154e-13,2.216112199e-11,3.799898611e-11,6.944943766e-11,7.369570294e-11,5.350643841e-11,3.861434117e-11,9.271826117e-11,5.314173104e-11,8.971415100e-12,2.788914053e-12,9.537206372e-11,5.997883577e-11,2.101591028e-13,4.190849008e-11,5.980811219e-11,5.144866262e-11,1.769025668e-10,7.235426925e-13,1.565981712e-11
0.17188,6.643660261e-11,4.026457290e-11,6.081546659e-11,1.833008191e-11,3.407877577e-12,1.459394256e-11,6.064361136e-11,9.047657814e-13,1.921435408e-12,1.742510977e-11,8.014941053e-11,1.544421695e-11,3.229116558e-13,2.013291740e-11,3.419845414e-11,6.274751444e-11,6.681409026e-11,4.828130126e-11,3.486868447e-11,8.463437558e-11,4.824734039e-11,8.103295066e-12,2.580342553e-12,8.653575581e-11,5.422549661e-11,2.119500418e-13,3.834793638e-11,5.315724382e-11,4.669077734e-11,1.553227236e-10,6.348050632e-13,1.397063339e-11
0.17969,5.931582794e-11,3.610422154e-11,5.429518738e-11,1.644877426e-11,3.100918310e-12,1.295737857e-11,5.454112633e-11,8.099192235e-13,1.769481115e-12,1.525719386e-11,7.111581268e-11,1.378059426e-11,3.284283625e-13,1.866898879e-11,3.034814226e-11,5.562348200e-11,5.950059527e-11,4.340818126e-11,3.161909906e-11,7.588723211e-11,4.372459322e-11,7.354242355e-12,2.580067079e-12,7.837294694e-11,4.968343676e-11,2.158329597e-13,3.550943590e-11,4.712863957e-11,4.265019896e-11,1.340156551e-10,5.588867641e-13,1.276094454e-11
0.1875,5.489479082e-11,3.313761943e-11,4.967395675e-11,1.507441766e-11,2.840308064e-12,1.189420502e-11,5.036193000e-11,5.409486198e-13,1.640363921e-12,1.394030882e-11,6.523186957e-11,1.273156803e-11,2.354298958e-13,1.698113107e-11,2.776419272e-11,5.096814249e-11,5.452146407e-11,3.952352472e-11,2.878984601e-11,7.021019567e-11,4.018619110e-11,6.706360067e-12,2.146254129e-12,7.236240632e-11,4.509027642e-11,2.080753245e-13,3.250154787e-11,4.272048849e-11,3.915638206e-11,1.212610331e-10,4.981995905e-13,1.151014684e-11
0.19531,5.127847902e-11,3.076080163e-11,4.574883805e-11,1.395979606e-11,2.605211398e-12,1.104102686e-11,4.681058341e-11,6.304219257e-13,1.532403226e-12,1.288248842e-11,6.031207133e-11,1.184762244e-11,2.108357685e-13,1.549043829e-11,2.561867902e-11,4.699739024e-11,5.014780038e-11,3.612475020e-11,2.628236431e-11,6.508896396e-11,3.699935226e-11,6.154958960e-12,1.864627202e-12,6.697421527e-11,4.093628730e-11,1.917247864e-13,2.967484063e-11,3.912677345e-11,3.601970348e-11,1.119980961e-10,4.529139225e-13,1.050828158e-11
0.20312,4.708732809e-11,2.851302249e-11,4.152670911e-11,1.288702543e-11,2.373537734e-12,1.007525429e-11,4.291789336e-11,6.328654100e-13,1.432744014e-12,1.152743373e-11,5.451952610e-11,1.080398259e-11,2.273230332e-13,1.437725669e-11,2.332736372e-11,4.240308510e-11,4.515300873e-11,3.295802222e-11,2.413118785e-11,5.882537289e-11,3.384522437e-11,5.657497560e-12,1.870241229e-12,6.132643827e-11,3.762834055e-11,1.716699237e-13,2.727633863e-11,3.579173339e-11,3.319918931e-11,1.023889480e-10,4.248036327e-13,9.901765872e-12
0.21094,4.414653633e-11,2.683489987e-11,3.862005939e-11,1.220267807e-11,2.185627497e-12,9.508945349e-12,4.009726493e-11,4.138787900e-13,1.321627402e-12,1.072691828e-11,5.071469569e-11,1.015218717e-11,1.696186481e-13,1.301209671e-11,2.184754604e-11,3.938444420e-11,4.164375387e-11,3.048155160e-11,2.223736910e-11,5.439595749e-11,3.126275491e-11,5.199975856e-12,1.594660746e-12,5.669451412e-11,3.427675834e-11,1.448160644e-13,2.471068616e-11,3.339986773e-11,3.060714388e-11,9.803023225e-11,4.033325302e-13,9.212449892e-12
0.21875,4.172149699e-11,2.550082582e-11,3.661185460e-11,1.177009115e-11,2.034122491e-12,9.159467825e-12,3.790807971e-11,4.274660463e-13,1.206752395e-12,1.028113016e-11,4.819510552e-11,9.741292871e-12,1.270103243e-13,1.164104082e-11,2.089220761e-11,3.740665924e-11,3.913454212e-11,2.856509389e-11,2.065581525e-11,5.112570101e-11,2.915603888e-11,4.797710448e-12,1.333830179e-12,5.277022809e-11,3.121618852e-11,1.151155088e-13,2.227857284e-11,3.161625299e-11,2.825505899e-11,9.606179416e-11,3.877527860e-13,8.592321659e-12
0.22656,3.813262391e-11,2.394244471e-11,3.413229876e-11,1.125755987e-11,1.883811660e-12,8.579760873e-12,3.504396517e-11,4.707806924e-13,1.095089120e-12,9.498137491e-12,4.461213012e-11,9.127539528e-12,1.354813918e-13,1.063673305e-11,1.962284340e-11,3.472627498e-11,3.598717368e-11,2.671071272e-11,1.930493903e-11,4.672510780e-11,2.702258498e-11,4.436642498e-12,1.347272929e-12,4.843357853e-11,2.889859355e-11,8.838852123e-14,2.034309384e-11,2.971017546e-11,2.603448787e-11,9.141043274e-11,3.756787347e-13,8.254722694e-12
0.23438,3.489187769e-11,2.248814876e-11,3.204596397e-11,1.082406984e-11,1.755235509e-12,8.089032995e-12,3.247076431e-11,3.366034397e-13,9.895148086e-13,8.903481048e-12,4.175779967e-11,8.627448089e-12,1.229369468e-13,9.633964590e-12,1.863714974e-11,3.271632972e-11,3.350866057e-11,2.509126190e-11,1.804491118e-11,4.314808630e-11,2.517760095e-11,4.099539944e-12,1.217311061e-12,4.467984026e-11,2.674333870e-11,6.853382098e-14,1.860520445e-11,2.814720319e-11,2.401381159e-11,8.825313971e-11,3.540832959e-13,7.802678711e-12
0.24219,3.243511670e-11,2.123959499e-11,3.056461614e-11,1.047981529e-11,1.649839672e-12,7.757053733e-12,3.049864666e-11,3.547615692e-13,9.003390232e-13,8.617432270e-12,4.004880619e-11,8.322926182e-12,1.273372006e-13,8.671611311e-12,1.804741882e-11,3.161544664e-11,3.197301579e-11,2.380348819e-11,1.694731459e-11,4.082207776e-11,2.373324632e-11,3.810951807e-12,1.031356742e-12,4.182443680e-11,2.477881733e-11,5.444323116e-14,1.710046896e-11,2.701137792e-11,2.225664470e-11,8.654491662e-11,3.301116385e-13,7.292154669e-12
0.25,2.936379152e-11,1.971799743e-11,2.841552426e-11,9.908735983e-12,1.538079478e-12,7.188690074e-12,2.798078653e-11,4.343723587e-13,8.448555044e-13,7.955355251e-12,3.710908096e-11,7.717588121e-12,1.617941039e-13,8.152996114e-12,1.686305345e-11,2.946176114e-11,2.959101776e-11,2.223507012e-11,1.583948531e-11,3.734915489e-11,2.207808633e-11,3.587524279e-12,1.058838139e-12,3.862488902e-11,2.334216705e-11,4.852328601e-14,1.611246055e-11,2.546465754e-11,2.065167677e-11,8.090797951e-11,3.047118014e-13,6.965770294e-12
0.25781,2.663205390e-11,1.817380433e-11,2.619651440e-11,9.263170387e-12,1.433228974e-12,6.611039539e-12,2.557924372e-11,3.312852951e-13,8.093302858e-13,7.268321211e-12,3.413278782e-11,7.046440759e-12,1.588244041e-13,7.756732069e-12,1.559959121e-11,2.725924008e-11,2.730450032e-11,2.065275236e-11,1.474689771e-11,3.406743107e-11,2.050531963e-11,3.375075818e-12,1.019421068e-12,3.578709767e-11,2.207043722e-11,5.012100713e-14,1.533729508e-11,2.391043854e-11,1.923582126e-11,7.471866952e-11,2.724007875e-13,6.567925883e-12
0.26562,2.502092303e-11,1.691716893e-11,2.462534502e-11,8.746290536e-12,1.352619905e-12,6.267433614e-12,2.398890081e-11,3.032584753e-13,7.920725715e-13,6.913499697e-12,3.224151453e-11,6.561850332e-12,1.686606343e-13,7.370522519e-12,1.468740629e-11,2.582566823e-11,2.583500919e-11,1.931940674e-11,1.373311151e-11,3.199824745e-11,1.922777192e-11,3.198090855e-12,8.731867204e-13,3.377977796e-11,2.079186323e-11,5.430862311e-14,1.461575945e-11,2.269362985e-11,1.802106217e-11,7.046185745e-11,2.403353930e-13,6.062644789e-12
0.27344,2.344188054e-11,1.568645151e-11,2.294674711e-11,8.188134429e-12,1.272850574e-12,5.879279408e-12,2.241490582e-11,3.844956255e-13,7.947891764e-13,6.394468693e-12,2.973727220e-11,5.936703142e-12,2.172137364e-13,7.265212924e-12,1.343908264e-11,2.373741596e-11,2.387917542e-11,1.786176773e-11,1.275051443e-11,2.943440308e-11,1.786434421e-11,3.065784556e-12,8.854414980e-13,3.164973881e-11,1.979431453e-11,6.035931960e-14,1.411128686e-11,2.120328230e-11,1.687664993e-11,6.435232910e-11,2.136972493e-13,5.691701912e-12
0.28125,2.208547342e-11,1.455306853e-11,2.130218186e-11,7.664264742e-12,1.197716179e-12,5.501730774e-12,2.100428182e-11,3.198496465e-13,7.971644570e-13,5.827874006e-12,2.703104997e-11,5.252690016e-12,2.130007688e-13,7.197987687e-12,1.209642591e-11,2.141564686e-11,2.181732456e-11,1.643061102e-11,1.182848833e-11,2.685771991e-11,1.653482033e-11,2.941916106e-12,8.843604937e-13,2.966335876e-11,1.892882902e-11,6.662272929e-14,1.365848385e-11,1.968168701e-11,1.582220917e-11,5.789909146e-11,1.891354009e-13,5.353811607e-12
0.28906,2.147759535e-11,1.373088808e-11,2.031528256e-11,7.321596740e-12,1.139472174e-12,5.322509089e-12,2.026710962e-11,2.565014427e-13,7.913795361e-13,5.562828557e-12,2.533711216e-11,4.785148497e-12,1.761594758e-13,6.970448712e-12,1.116934314e-11,1.990321093e-11,2.051367691e-11,1.529205341e-11,1.100189861e-11,2.542933336e-11,1.548524350e-11,2.831983209e-12,7.497272643e-13,2.825844600e-11,1.790825352e-11,6.838863201e-14,1.301101098e-11,1.844316279e-11,1.482161462e-11,5.383183982e-11,1.711292452e-13,4.929381734e-12
0.29688,2.079398896e-11,1.308578270e-11,1.947459285e-11,7.033332089e-12,1.077493340e-12,5.121786083e-12,1.952839558e-11,3.145906498e-13,7.825024679e-13,5.253068413e-12,2.362498613e-11,4.348621715e-12,1.818446661e-13,6.828479518e-12,1.028866499e-11,1.842275467e-11,1.920693790e-11,1.425583717e-11,1.028096408e-11,2.406042245e-11,1.450123543e-11,2.752977437e-12,7.064297125e-13,2.686274304e-11,1.702350432e-11,6.562713143e-14,1.240527387e-11,1.728523677e-11,1.392020934e-11,4.999278232e-11,1.624562271e-13,4.618905074e-12
0.30469,1.984738672e-11,1.251398997e-11,1.856393237e-11,6.730024547e-12,1.008209685e-12,4.833840978e-12,1.862341639e-11,2.896546896e-13,7.630171105e-13,4.827601933e-12,2.172010485e-11,3.898273553e-12,1.791637233e-13,6.703837942e-12,9.408821110e-12,1.687768623e-11,1.782627581e-11,1.330539902e-11,9.658192493e-12,2.262407600e-11,1.358484059e-11,2.676799522e-12,7.090934427e-13,2.545409190e-11,1.631271697e-11,6.117466073e-14,1.187416775e-11,1.617399686e-11,1.317192292e-11,4.592308374e-11,1.571393228e-13,4.397390267e-12
0.3125,1.926053554e-11,1.216235138e-11,1.806249461e-11,6.488872531e-12,9.451987016e-13,4.623877829e-12,1.795857113e-11,2.205310351e-13,7.283767991e-13,4.573594401e-12,2.057291394e-11,3.615923979e-12,1.372960293e-13,6.365062062e-12,8.904594584e-12,1.607252782e-11,1.709325999e-11,1.262210881e-11,9.124589243e-12,2.204473086e-11,1.290030546e-11,2.583405644e-12,6.133289125e-13,2.437696743e-11,1.545660149e-11,5.404246933e-14,1.119007989e-11,1.533808882e-11,1.257583626e-11,4.374451170e-11,1.514654377e-13,4.110633044e-12
0.32031,1.859733208e-11,1.190776019e-11,1.769827971e-11,6.222658651e-12,8.821353997e-13,4.394317008e-12,1.723736663e-11,2.536743617e-13,6.874619624e-13,4.340552401e-12,1.971340008e-11,3.432689804e-12,1.173062213e-13,6.006534558e-12,8.587933795e-12,1.561487283e-11,1.663689188e-11,1.213389530e-11,8.721382410e-12,2.170193346e-11,1.238281272e-11,2.487038189e-12,5.688379695e-13,2.339862139e-11,1.468032473e-11,4.586059941e-14,1.056029672e-11,1.469629440e-11,1.218475581e-11,4.215951596e-11,1.492442336e-13,3.884606069e-12
0.32812,1.764242360e-11,1.166190315e-11,1.724418386e-11,5.871640871e-12,8.151304066e-13,4.078220321e-12,1.628881264e-11,2.555979312e-13,6.441742576e-13,4.004911790e-12,1.871114094e-11,3.256303756e-12,1.160736665e-13,5.716061231e-12,8.266588335e-12,1.508771928e-11,1.611046891e-11,1.171319963e-11,8.408074524e-12,2.112965909e-11,1.192691862e-11,2.382767962e-12,5.930882614e-13,2.233886739e-11,1.410968307e-11,3.962818320e-14,1.008841119e-11,1.410330987e-11,1.197123583e-11,4.000014759e-11,1.465854475e-13,3.757497052e-12
0.33594,1.696818537e-11,1.149723367e-11,1.707390543e-11,5.514571864e-12,7.580065030e-13,3.831467539e-12,1.552394566e-11,1.852141422e-13,5.922952745e-13,3.800572701e-12,1.816945601e-11,3.190109244e-12,9.541726854e-14,5.288874931e-12,8.150156904e-12,1.493845216e-11,1.595243005e-11,1.143175870e-11,8.141152606e-12,2.094289785e-11,1.159427118e-11,2.241458851e-12,5.576134073e-13,2.143529017e-11,1.342015510e-11,3.607356862e-14,9.530244955e-12,1.360635428e-11,1.178606012e-11,3.866906324e-11,1.378015376e-13,3.581692862e-12
0.34375,1.648747427e-11,1.137221298e-11,1.709467830e-11,5.178424202e-12,7.121880679e-13,3.661071312e-12,1.493382784e-11,1.757669449e-13,5.440623997e-13,3.700693820e-12,1.789853085e-11,3.189214463e-12,8.466161939e-14,4.871023417e-12,8.100107517e-12,1.490169354e-11,1.590410193e-11,1.119473650e-11,7.910368276e-12,2.082470642e-11,1.132411117e-11,2.103776607e-12,5.385675863e-13,2.065817120e-11,1.274736718e-11,3.487238205e-14,9.011106733e-12,1.326395778e-11,1.164537170e-11,3.796740668e-11,1.298314013e-13,3.428806200e-12
0.35156,1.591171529e-11,1.119514479e-11,1.701913070e-11,4.832835789e-12,6.717123269e-13,3.484382942e-12,1.432312114e-11,1.864614200e-13,5.038100897e-13,3.571561999e-12,1.738311597e-11,3.148492434e-12,9.091749092e-14,4.599275927e-12,7.896697288e-12,1.450809985e-11,1.553041116e-11,1.088954803e-11,7.701244166e-12,2.017366093e-11,1.098581417e-11,1.979267039e-12,5.766264493e-13,1.974487385e-11,1.222887437e-11,3.548062398e-14,8.628681105e-12,1.289300340e-11,1.145345681e-11,3.672007656e-11,1.230357577e-13,3.368270736e-12
0.35938,1.549887552e-11,1.095582141e-11,1.694828063e-11,4.508539495e-12,6.379211086e-13,3.374638680e-12,1.384486972e-11,1.520356449e-13,4.681750908e-13,3.512219503e-12,1.688666234e-11,3.096635875e-12,8.900486032e-14,4.351581137e-12,7.611965487e-12,1.393013178e-11,1.496814953e-11,1.043227662e-11,7.382191219e-12,1.928215240e-11,1.052480325e-11,1.859269481e-12,5.518712870e-13,1.877264563e-11,1.158957267e-11,3.673367082e-14,8.170611812e-12,1.238846182e-11,1.100920780e-11,3.535710529e-11,1.132123877e-13,3.271004543e-12
0.36719,1.532245317e-11,1.066501783e-11,1.688062910e-11,4.241388488e-12,6.154386646e-13,3.330476791e-12,1.354363915e-11,1.505024797e-13,4.411935303e-13,3.532184418e-12,1.650972814e-11,3.042918044e-12,8.870936821e-14,4.155033198e-12,7.319028046e-12,1.337920803e-11,1.440400533e-11,9.941709149e-12,7.036024394e-12,1.842032824e-11,1.004863002e-11,1.757621288e-12,4.994050874e-13,1.790787192e-11,1.089747635e-11,3.797472132e-14,7.686797211e-12,1.193679147e-11,1.043826910e-11,3.469154423e-11,1.041022291e-13,3.150295641e-12
0.375,1.499108880e-11,1.019451779e-11,1.646023311e-11,3.979726696e-12,5.974217740e-13,3.240432647e-12,1.313543918e-11,1.747521947e-13,4.277073937e-13,3.471178380e-12,1.581821825e-11,2.895812826e-12,1.024393726e-13,4.110116015e-12,6.872293889e-12,1.254706628e-11,1.353026094e-11,9.374142425e-12,6.683590328e-12,1.715063920e-11,9.499697308e-12,1.686775658e-12,4.929473311e-13,1.696486397e-11,1.030746867e-11,3.818802944e-14,7.289927902e-12,1.143762043e-11,9.766477833e-12,3.362463412e-11,9.828232668e-14,3.078756586e-12
0.38281,1.450583411e-11,9.509695045e-12,1.568446603e-11,3.704512272e-12,5.755273126e-13,3.115220266e-12,1.261133036e-11,1.652963787e-13,4.157320556e-13,3.366073830e-12,1.496220064e-11,2.706225132e-12,1.028788089e-13,4.060334812e-12,6.369916662e-12,1.162165267e-11,1.253804049e-11,8.764702351e-12,6.304689908e-12,1.573526302e-11,8.904395363e-12,1.615166811e-12,4.695801210e-13,1.595693173e-11,9.677113394e-12,3.659245019e-14,6.849900306e-12,1.070621583e-11,8.905618431e-12,3.189288310e-11,9.375699142e-14,2.969770205e-12
0.39062,1.407433562e-11,8.717354533e-12,1.477835818e-11,3.455249498e-12,5.567222732e-13,2.998916857e-12,1.211195390e-11,1.679564927e-13,4.036667136e-13,3.288156845e-12,1.425662318e-11,2.544276191e-12,9.168407690e-14,3.956658841e-12,5.972056273e-12,1.095499019e-11,1.177605131e-11,8.263613550e-12,5.974543555e-12,1.464742119e-11,8.411121326e-12,1.540321445e-12,4.195368782e-13,1.513153106e-11,9.029922714e-12,3.391363680e-14,6.387011009e-12,9.980323577e-12,8.035343966e-12,3.060996550e-11,9.151515579e-14,2.808916700e-12
0.39844,1.346294098e-11,7.851711811e-12,1.365818632e-11,3.240286828e-12,5.427096988e-13,2.836072766e-12,1.148660549e-11,1.960881140e-13,3.965783467e-13,3.136981144e-12,1.348753572e-11,2.375571397e-12,8.972348556e-14,3.881427222e-12,5.632426592e-12,1.040010115e-11,1.112363252e-11,7.876635298e-12,5.733438438e-12,1.371370373e-11,8.025248886e-12,1.483829175e-12,4.088608626e-13,1.442232843e-11,8.525967948e-12,3.154584728e-14,6.052216388e-12,9.313430781e-12,7.297583639e-12,2.932048877e-11,9.199868962e-14,2.676475304e-12
0.40625,1.259808557e-11,6.963061921e-12,1.240927284e-11,3.040936279e-12,5.227213251e-13,2.639440907e-12,1.071713844e-11,1.890118069e-13,3.829278577e-13,2.928914456e-12,1.265105074e-11,2.219616475e-12,8.413164140e-14,3.746227359e-12,5.340425807e-12,9.909089779e-12,1.055174393e-11,7.583962141e-12,5.557623873e-12,1.289798912e-11,7.709919806e-12,1.416066389e-12,4.158074195e-13,1.377230094e-11,8.130023492e-12,2.985808764e-14,5.800237243e-12,8.574062572e-12,6.652367838e-12,2.729793231e-11,9.537837681e-14,2.546105456e-12
0.41406,1.168938226e-11,6.141282977e-12,1.125049655e-11,2.886655860e-12,4.986578662e-13,2.463923248e-12,9.941670129e-12,1.656440448e-13,3.601551587e-13,2.745823935e-12,1.198880415e-11,2.123044609e-12,6.604431518e-14,3.497361936e-12,5.177612246e-12,9.652601168e-12,1.023691251e-11,7.420022984e-12,5.436209814e-12,1.246287428e-11,7.505953461e-12,1.332786154e-12,4.078979621e-13,1.332560159e-11,7.795955921e-12,2.951378103e-14,5.608490833e-12,7.884446210e-12,6.140384552e-12,2.523444337e-11,1.012459094e-13,2.383312768e-12
0.42188,1.080876405e-11,5.467836143e-12,1.025979582e-11,2.794444239e-12,4.788374577e-13,2.299401478e-12,9.180256199e-12,1.672056551e-13,3.380994737e-13,2.562994003e-12,1.145608610e-11,2.059005094e-12,5.135111854e-14,3.257039610e-12,5.082039572e-12,9.500329367e-12,1.006315338e-11,7.357269301e-12,5.384290812e-12,1.229911796e-11,7.404208575e-12,1.261106833e-12,4.171581088e-13,1.305296921e-11,7.611938976e-12,3.167735261e-14,5.567828318e-12,7.397135535e-12,5.869376349e-12,2.352805759e-11,1.103047188e-13,2.245951392e-12
0.42969,9.782039932e-12,4.887184544e-12,9.364367832e-12,2.712660877e-12,4.517671914e-13,2.124463073e-12,8.379267198e-12,1.634518945e-13,3.127760953e-13,2.356924551e-12,1.091147150e-11,2.003613861e-12,4.368541433e-14,3.029961746e-12,4.978981643e-12,9.286545583e-12,9.856924829e-12,7.313186990e-12,5.345430790e-12,1.212856253e-11,7.292371017e-12,1.188223370e-12,4.391000328e-13,1.277206590e-11,7.500254656e-12,3.441676844e-14,5.582891251e-12,6.900753097e-12,5.650535475e-12,2.120932049e-11,1.231311049e-13,2.135258677e-12
0.4375,8.740869349e-12,4.387848494e-12,8.508719809e-12,2.611793257e-12,4.165045756e-13,1.942228297e-12,7.584407589e-12,1.378692375e-13,2.809957687e-13,2.163473651e-12,1.040587775e-11,1.959371855e-12,3.490553818e-14,2.775967925e-12,4.873169482e-12,9.069919207e-12,9.667698556e-12,7.258131827e-12,5.269759457e-12,1.201354438e-11,7.143910170e-12,1.099080069e-12,4.362657956e-13,1.247896861e-11,7.365483763e-12,3.798585979e-14,5.563582860e-12,6.363869782e-12,5.447303311e-12,1.853779023e-11,1.362730560e-13,2.001192442e-12
0.44531,7.942714496e-12,3.992216693e-12,7.783483332e-12,2.503722076e-12,3.830569810e-13,1.774137724e-12,6.947652207e-12,1.226331900e-13,2.522439848e-13,2.018785198e-12,1.005973472e-11,1.938433386e-12,2.779263845e-14,2.561150752e-12,4.798763281e-12,8.946994674e-12,9.590221637e-12,7.242408707e-12,5.210259196e-12,1.205726848e-11,7.012190192e-12,1.020679244e-12,4.147581738e-13,1.222988174e-11,7.196807063e-12,4.048428035e-14,5.489051389e-12,5.963242316e-12,5.303842371e-12,1.660883170e-11,1.535652792e-13,1.880969917e-12
0.45312,7.303572444e-12,3.686271889e-12,7.120250175e-12,2.366726719e-12,3.485872115e-13,1.610186842e-12,6.450251576e-12,1.203645739e-13,2.277150933e-13,1.897585673e-12,9.715244722e-12,1.917438507e-12,2.719525510e-14,2.409227046e-12,4.693786132e-12,8.784483164e-12,9.468593349e-12,7.201046902e-12,5.130823598e-12,1.196775373e-11,6.815608221e-12,9.592114272e-13,3.982160237e-13,1.186091155e-11,6.984368661e-12,3.974591646e-14,5.334491859e-12,5.552255999e-12,5.129207398e-12,1.489484676e-11,1.707485121e-13,1.797633319e-12
0.46094,6.837133461e-12,3.455655911e-12,6.378484175e-12,2.166660881e-12,3.128690069e-13,1.435033901e-12,6.051783997e-12,1.060912910e-13,2.041478425e-13,1.792522829e-12,9.276303928e-12,1.873977504e-12,3.056144742e-14,2.279176787e-12,4.520267608e-12,8.521031035e-12,9.239792537e-12,7.060261268e-12,4.979489918e-12,1.167976971e-11,6.511563819e-12,8.935665664e-13,3.727602742e-13,1.132076692e-11,6.663952911e-12,3.717619793e-14,5.019197139e-12,5.057557678e-12,4.867085877e-12,1.329198815e-11,1.796336008e-13,1.707036740e-12
0.46875,6.767307991e-12,3.387303782e-12,5.729511522e-12,1.976764001e-12,2.885984640e-13,1.298410146e-12,5.884903676e-12,8.817363120e-14,1.894583909e-13,1.750504335e-12,8.976081837e-12,1.845094923e-12,3.763780257e-14,2.181801754e-12,4.378217111e-12,8.354323618e-12,9.089578579e-12,6.894269981e-12,4.796791737e-12,1.142664904e-11,6.189933163e-12,8.516100902e-13,3.225331816e-13,1.080874038e-11,6.299009589e-12,3.381118871e-14,4.636057848e-12,4.756742724e-12,4.696545417e-12,1.288362840e-11,1.831055064e-13,1.628350007e-12
0.47656,6.969280741e-12,3.508928120e-12,5.250521690e-12,1.828779597e-12,2.772711955e-13,1.211713560e-12,5.900448394e-12,8.899637544e-14,1.869901730e-13,1.740881810e-12,8.727843431e-12,1.810188592e-12,4.927743711e-14,2.152340314e-12,4.209087849e-12,8.138582364e-12,8.862001677e-12,6.651037596e-12,4.569801484e-12,1.102918216e-11,5.827637792e-12,8.447476868e-13,2.757419201e-13,1.026633501e-11,5.939177214e-12,2.864497180e-14,4.249929276e-12,4.613563127e-12,4.584791493e-12,1.304044433e-11,1.809241589e-13,1.587599913e-12
0.48438,7.124562123e-12,3.698580344e-12,4.762486058e-12,1.697906742e-12,2.725505976e-13,1.130690139e-12,5.879694372e-12,9.067117654e-14,1.911360878e-13,1.697830906e-12,8.321687644e-12,1.720787696e-12,6.002543985e-14,2.151778019e-12,3.937133555e-12,7.679031367e-12,8.365159695e-12,6.243922359e-12,4.254485071e-12,1.029877714e-11,5.372532017e-12,8.414746126e-13,2.464878458e-13,9.610768679e-12,5.597866592e-12,2.402883426e-14,3.878685900e-12,4.511174727e-12,4.435585466e-12,1.299947366e-11,1.651327416e-13,1.542907626e-12
0.49219,7.363470949e-12,3.976816591e-12,4.371903850e-12,1.623968762e-12,2.804910253e-13,1.079656773e-12,5.892884262e-12,8.354111393e-14,2.033277750e-13,1.665666439e-12,8.001207727e-12,1.621917431e-12,6.637375619e-14,2.158752690e-12,3.670581607e-12,7.192907146e-12,7.826898372e-12,5.780079522e-12,3.912498201e-12,9.550901720e-12,4.936318742e-12,8.502414493e-13,2.124124613e-13,9.041628836e-12,5.305871249e-12,2.163521060e-14,3.590551981e-12,4.618567063e-12,4.375813846e-12,1.371871886e-11,1.412831047e-13,1.491719596e-12
0.5,7.561532906e-12,4.285818257e-12,4.159178916e-12,1.628944425e-12,2.966142826e-13,1.061717480e-12,5.893991702e-12,9.232337151e-14,2.230502365e-13,1.634732054e-12,7.798201161e-12,1.525103891e-12,7.355975806e-14,2.196488679e-12,3.429691260e-12,6.724964793e-12,7.293396234e-12,5.312637468e-12,3.590702269e-12,8.855494007e-12,4.566694997e-12,8.777573933e-13,1.833606644e-13,8.588013782e-12,5.077694695e-12,2.124121918e-14,3.412228628e-12,4.893306228e-12,4.369523747e-12,1.474738421e-11,1.200977696e-13,1.455745449e-12
0.50781,7.274223408e-12,4.406554850e-12,3.905753106e-12,1.635597928e-12,3.050787068e-13,1.016278274e-12,5.669700225e-12,1.066944251e-13,2.380807456e-13,1.537896710e-12,7.451902279e-12,1.400088816e-12,7.909826264e-14,2.220250766e-12,3.154831447e-12,6.119557388e-12,6.610301820e-12,4.796371543e-12,3.268481805e-12,7.993107661e-12,4.196297765e-12,8.898636627e-13,1.759310378e-13,8.057538819e-12,4.874281383e-12,2.222236851e-14,3.289382609e-12,5.007876158e-12,4.236604122e-12,1.476161521e-11,1.014393209e-13,1.415915528e-12
0.51562,6.748525757e-12,4.364620616e-12,3.666547384e-12,1.661345610e-12,3.110685562e-13,9.665212510e-13,5.337274535e-12,9.608645416e-14,2.493070990e-13,1.429412127e-12,7.136419100e-12,1.283894780e-12,7.407539475e-14,2.208154330e-12,2.920865978e-12,5.542932814e-12,5.954875993e-12,4.307544839e-12,2.983833043e-12,7.175896196e-12,3.890605350e-12,8.932830573e-13,1.654047089e-13,7.576758261e-12,4.688733957e-12,2.330508630e-14,3.198346063e-12,5.133121251e-12,4.108263259e-12,1.524256975e-11,8.768591120e-14,1.368745952e-12
0.52344,6.216607583e-12,4.197184170e-12,3.564975487e-12,1.717072429e-12,3.145723741e-13,9.460196361e-13,5.043886135e-12,8.499666775e-14,2.571804208e-13,1.368108125e-12,7.030443860e-12,1.230452685e-12,6.354373261e-14,2.155824529e-12,2.823814685e-12,5.230006030e-12,5.563946104e-12,3.964822056e-12,2.797796832e-12,6.645849268e-12,3.717658573e-12,9.042125236e-13,1.504229238e-13,7.247072219e-12,4.516893148e-12,2.283890351e-14,3.114057193e-12,5.318771188e-12,4.053466807e-12,1.668296989e-11,8.685161107e-14,1.337091805e-12
0.53125,5.427383264e-12,3.827150311e-12,3.423305697e-12,1.734959337e-12,3.040312684e-13,9.108232542e-13,4.683187182e-12,9.081401775e-14,2.552389746e-13,1.298691372e-12,6.831490564e-12,1.196127085e-12,5.877127709e-14,2.079810349e-12,2.751542601e-12,4.963263666e-12,5.218338652e-12,3.679886761e-12,2.656348490e-12,6.133200075e-12,3.571282089e-12,9.017396955e-13,1.553333890e-13,6.857720643e-12,4.361308966e-12,2.143073389e-14,3.005765857e-12,5.246761887e-12,3.944909318e-12,1.727785908e-11,9.575024573e-14,1.319932156e-12
0.53906,4.512188742e-12,3.296071629e-12,3.288417014e-12,1.721306197e-12,2.841570528e-13,8.805889815e-13,4.345855985e-12,7.993912384e-14,2.451152875e-13,1.248016224e-12,6.608817063e-12,1.188301728e-12,5.273769252e-14,1.967214689e-12,2.728320628e-12,4.785683077e-12,4.974261769e-12,3.470170778e-12,2.557714421e-12,5.699456182e-12,3.461870718e-12,8.852797225e-13,1.588658041e-13,6.455744127e-12,4.228470067e-12,1.937332089e-14,2.860921284e-12,5.017136370e-12,3.854654668e-12,1.812217031e-11,1.137822154e-13,1.308114166e-12
0.54688,3.828049311e-12,2.772118016e-12,3.299891881e-12,1.716608520e-12,2.677307769e-13,8.946318625e-13,4.185199702e-12,5.490962620e-14,2.354412434e-13,1.269156247e-12,6.592670613e-12,1.238365271e-12,4.228027972e-14,1.827757174e-12,2.812420555e-12,4.852298752e-12,4.980647241e-12,3.384207537e-12,2.517322243e-12,5.553216524e-12,3.433067199e-12,8.776414685e-13,1.514316246e-13,6.202240126e-12,4.136842606e-12,1.687490589e-14,2.710914480e-12,4.881382128e-12,3.910374942e-12,2.016147581e-11,1.408025574e-13,1.301677688e-12
0.55469,3.249346883e-12,2.294793788e-12,3.322353069e-12,1.682832781e-12,2.478436781e-13,9.092827559e-13,4.085049825e-12,4.768423786e-14,2.251656416e-13,1.285494056e-12,6.504292748e-12,1.277039667e-12,3.812178173e-14,1.704320780e-12,2.875042517e-12,4.912610028e-12,4.997864529e-12,3.338145863e-12,2.496342440e-12,5.452749125e-12,3.402274743e-12,8.617618629e-13,1.643077216e-13,5.937878119e-12,4.088838487e-12,1.512943541e-14,2.584569888e-12,4.610582464e-12,3.923937551e-12,2.090125500e-11,1.673324202e-13,1.302234349e-12
0.5625,2.742687229e-12,1.892334233e-12,3.353370709e-12,1.599916494e-12,2.241312613e-13,9.222618689e-13,4.003850522e-12,4.351183857e-14,2.121645080e-13,1.278226701e-12,6.279734794e-12,1.286584269e-12,3.781617145e-14,1.590379286e-12,2.883736777e-12,4.867423108e-12,4.934745309e-12,3.284169137e-12,2.461110925e-12,5.307296529e-12,3.328247824e-12,8.268667380e-13,1.789703674e-13,5.607245447e-12,4.044253830e-12,1.488943328e-14,2.463736912e-12,4.101827578e-12,3.838337746e-12,2.016677892e-11,1.899469355e-13,1.294982363e-12
0.57031,2.599031674e-12,1.678978875e-12,3.517850614e-12,1.527067144e-12,2.126457418e-13,9.648732167e-13,4.039331986e-12,3.415231311e-14,2.052664462e-13,1.301959113e-12,6.169010209e-12,1.297193308e-12,3.350120029e-14,1.489464003e-12,2.927741202e-12,4.933423388e-12,4.995414768e-12,3.280375635e-12,2.445795771e-12,5.379165049e-12,3.295497563e-12,7.957974826e-13,1.730385042e-13,5.411914983e-12,3.988449184e-12,1.731066665e-14,2.384827467e-12,3.701622503e-12,3.850372834e-12,2.039856522e-11,2.075983268e-13,1.264591989e-12
0.57812,2.618319648e-12,1.625612205e-12,3.687209891e-12,1.451111804e-12,2.083715909e-13,9.988384195e-13,4.049251982e-12,3.861633774e-14,2.009895448e-13,1.301245691e-12,6.026152422e-12,1.278516249e-12,3.247438530e-14,1.420829860e-12,2.937027205e-12,4.959700599e-12,5.020514220e-12,3.280043364e-12,2.435099826e-12,5.467222880e-12,3.261698806e-12,7.615965154e-13,1.804065583e-13,5.265402805e-12,3.922385158e-12,2.193553903e-14,2.353443866e-12,3.336749946e-12,3.815982554e-12,1.983786751e-11,2.156672908e-13,1.221767638e-12
0.58594,2.765733651e-12,1.698884580e-12,3.748030618e-12,1.339116056e-12,2.044697865e-13,9.940236837e-13,3.900546573e-12,4.165720440e-14,1.946947908e-13,1.224064367e-12,5.662030036e-12,1.202495571e-12,3.730494936e-14,1.386903233e-12,2.816783894e-12,4.735422668e-12,4.809608006e-12,3.195703220e-12,2.381803560e-12,5.351444747e-12,3.150876026e-12,7.159680796e-13,1.963263312e-13,5.033559160e-12,3.809209931e-12,2.921991598e-14,2.327448162e-12,2.835445424e-12,3.640730594e-12,1.734939205e-11,2.092770174e-13,1.168756349e-12
0.59375,3.235001587e-12,1.913269834e-12,3.856154916e-12,1.251693119e-12,2.138968601e-13,9.973148956e-13,3.742182366e-12,3.650068969e-14,1.916659683e-13,1.155822173e-12,5.368935353e-12,1.124200075e-12,3.823204842e-14,1.365653169e-12,2.702615961e-12,4.554255555e-12,4.637490734e-12,3.116125559e-12,2.326948612e-12,5.348200063e-12,3.070866072e-12,6.770597975e-13,1.858761449e-13,4.931728234e-12,3.677633523e-12,3.846728742e-14,2.339540525e-12,2.496578764e-12,3.630996703e-12,1.590243266e-11,1.922566741e-13,1.093899896e-12
0.60156,3.751990438e-12,2.185856106e-12,3.927055519e-12,1.207324860e-12,2.314545556e-13,9.928913406e-13,3.554630015e-12,5.137444437e-14,1.934735292e-13,1.091946374e-12,5.131963863e-12,1.047495589e-12,4.283440477e-14,1.382138467e-12,2.578901929e-12,4.389629549e-12,4.466392822e-12,3.023629874e-12,2.262639361e-12,5.365023352e-12,3.005108210e-12,6.563145447e-13,1.811128063e-13,4.917331163e-12,3.560179419e-12,4.846697291e-14,2.388560661e-12,2.357231858e-12,3.732062078e-12,1.552383057e-11,1.699219704e-13,1.014903609e-12
0.60938,4.140264062e-12,2.421251504e-12,3.805392759e-12,1.161023111e-12,2.422094739e-13,9.311751538e-13,3.229020946e-12,6.618165783e-14,1.946921655e-13,9.699509113e-13,4.707667251e-12,9.366105571e-13,5.726930114e-14,1.446916357e-12,2.322233819e-12,3.985799770e-12,4.064541564e-12,2.851979576e-12,2.164019875e-12,5.132154651e-12,2.886330049e-12,6.333225321e-13,2.009225268e-13,4.829473624e-12,3.506099708e-12,5.821886397e-14,2.489759336e-12,2.269211338e-12,3.828350137e-12,1.438305272e-11,1.394826060e-13,9.453185405e-13
0.61719,4.745198930e-12,2.677402783e-12,3.679121655e-12,1.143759967e-12,2.563240719e-13,8.643169184e-13,2.942799373e-12,5.135449591e-14,2.001030327e-13,8.627358752e-13,4.334173819e-12,8.340328956e-13,6.963427834e-14,1.519965328e-12,2.049053576e-12,3.570892621e-12,3.654489959e-12,2.669614803e-12,2.049277230e-12,4.920809113e-12,2.779576427e-12,6.243708317e-13,1.997659864e-13,4.808657080e-12,3.495839012e-12,6.767961116e-14,2.631892620e-12,2.382611350e-12,4.113728145e-12,1.465236797e-11,1.065179017e-13,8.822039348e-13
0.625,5.315588483e-12,2.924825543e-12,3.593386355e-12,1.173919932e-12,2.737707104e-13,8.115280424e-13,2.785973504e-12,4.519781547e-14,2.127936447e-13,7.985489376e-13,4.111316760e-12,7.569301675e-13,8.110196136e-14,1.612697685e-12,1.810953154e-12,3.247298091e-12,3.336199045e-12,2.513618796e-12,1.941354154e-12,4.824296882e-12,2.720656745e-12,6.355537370e-13,2.024130960e-13,4.872511476e-12,3.567702919e-12,7.888051358e-14,2.878307272e-12,2.675986805e-12,4.567260754e-12,1.629962397e-11,7.799789243e-14,8.279576685e-13
0.63281,5.444439381e-12,3.062413053e-12,3.418919695e-12,1.195026769e-12,2.741012833e-13,7.355960927e-13,2.681350363e-12,5.820087634e-14,2.231274404e-13,7.283911692e-13,3.815331980e-12,6.762689993e-13,1.042632179e-13,1.725037764e-12,1.541592521e-12,2.840306034e-12,2.943965922e-12,2.344761530e-12,1.833142312e-12,4.555964361e-12,2.641667689e-12,6.379645328e-13,2.383717532e-13,4.816347116e-12,3.731249860e-12,9.302160468e-14,3.260186766e-12,2.870603818e-12,4.910215107e-12,1.634962518e-11,5.541917604e-14,7.957036122e-13
0.64062,5.706192028e-12,3.147183141e-12,3.275892675e-12,1.212967855e-12,2.661509620e-13,6.659256264e-13,2.708228360e-12,4.838083336e-14,2.301216640e-13,6.887348896e-13,3.584219303e-12,6.167877406e-13,1.234249188e-13,1.802443825e-12,1.307951184e-12,2.471876349e-12,2.605479321e-12,2.216422286e-12,1.743359818e-12,4.302227172e-12,2.584067156e-12,6.321478549e-13,2.565389427e-13,4.752731429e-12,3.931404223e-12,1.120869266e-13,3.750152097e-12,3.100173440e-12,5.319436192e-12,1.629059832e-11,3.793899052e-14,7.710095041e-13
0.64844,6.259245330e-12,3.231444911e-12,3.303450783e-12,1.237548088e-12,2.619837460e-13,6.380413904e-13,2.921466495e-12,2.851770044e-14,2.374282115e-13,7.096231121e-13,3.550017824e-12,5.989195389e-13,1.250348396e-13,1.835896301e-12,1.173619178e-12,2.281318214e-12,2.449110158e-12,2.168114918e-12,1.694111946e-12,4.235502348e-12,2.596532065e-12,6.276961262e-13,2.656334211e-13,4.785458884e-12,4.153776209e-12,1.389608131e-13,4.373400420e-12,3.385386915e-12,5.829638932e-12,1.751503471e-11,2.668631147e-14,7.416824093e-13
0.65625,6.637455712e-12,3.164925682e-12,3.295191280e-12,1.243698940e-12,2.445980102e-13,6.112422736e-13,3.141334252e-12,2.832635106e-14,2.321495147e-13,7.359006023e-13,3.517270795e-12,6.044966436e-13,1.227966719e-13,1.829280626e-12,1.114035266e-12,2.155146276e-12,2.345726627e-12,2.168332107e-12,1.684349524e-12,4.094412529e-12,2.613676028e-12,5.968530091e-13,3.144548742e-13,4.740531005e-12,4.411368950e-12,1.744056707e-13,5.143575389e-12,3.360542240e-12,6.100176416e-12,1.657926960e-11,2.180214938e-14,7.165010524e-13
0.66406,7.563143869e-12,3.003259449e-12,3.312208676e-12,1.199733898e-12,2.154570569e-13,5.828324449e-13,3.377013264e-12,2.590820723e-14,2.125264613e-13,7.736205905e-13,3.487016145e-12,6.268386415e-13,1.251239832e-13,1.785375014e-12,1.115475368e-12,2.083402699e-12,2.294931130e-12,2.192314407e-12,1.687268319e-12,3.901116103e-12,2.618222291e-12,5.403798741e-13,3.449399389e-13,4.666979315e-12,4.632118719e-12,2.155676791e-13,5.930536770e-12,3.110206221e-12,6.195656650e-12,1.363896725e-11,2.267714510e-14,6.864445998e-13
0.67188,9.521281676e-12,2.812549721e-12,3.454409423e-12,1.144281446e-12,1.938559060e-13,5.785405713e-13,3.674177308e-12,1.664707599e-14,1.900392137e-13,8.504804142e-13,3.634057831e-12,6.843300543e-13,1.128236430e-13,1.674634687e-12,1.242405261e-12,2.219292105e-12,2.449887456e-12,2.284080708e-12,1.715784976e-12,3.917669651e-12,2.656664941e-12,4.834328998e-13,3.317545734e-13,4.728380956e-12,4.746562787e-12,2.582062356e-13,6.595320901e-12,2.892748636e-12,6.329160151e-12,1.178216376e-11,2.706461665e-14,6.374385703e-13
0.67969,1.192658173e-11,2.570379390e-12,3.529224847e-12,1.076703487e-12,1.710119939e-13,5.595844730e-13,3.832193008e-12,2.007309710e-14,1.639161830e-13,8.990398207e-13,3.729928746e-12,7.399869218e-13,8.870830509e-14,1.552513394e-12,1.414190562e-12,2.400274339e-12,2.659286877e-12,2.392748812e-12,1.768183487e-12,3.953826179e-12,2.676752275e-12,4.234694671e-13,3.458280250e-13,4.757575775e-12,4.787164485e-12,2.975505601e-13,7.121574429e-12,2.557385839e-12,6.249505293e-12,1.045001424e-11,3.391378890e-14,5.880296317e-13
0.6875,1.525351423e-11,2.210304334e-12,3.475389430e-12,9.860805339e-13,1.399700156e-13,5.040185848e-13,3.823454623e-12,1.978948492e-14,1.331588881e-13,9.096152519e-13,3.735015925e-12,7.866446584e-13,7.798068746e-14,1.446023113e-12,1.658907487e-12,2.652419393e-12,2.964088959e-12,2.513971366e-12,1.832174261e-12,4.018448515e-12,2.654496817e-12,3.567457686e-13,3.614648966e-13,4.712667114e-12,4.706592062e-12,3.250274971e-13,7.338002825e-12,2.096839433e-12,5.900166763e-12,8.959233238e-12,4.490610268e-14,5.442905812e-13
0.69531,1.964869557e-11,1.902305500e-12,3.443376900e-12,9.041303604e-13,1.167915251e-13,4.530132178e-13,3.792315232e-12,1.113326639e-14,1.070932343e-13,9.470227496e-13,3.905620905e-12,8.583036541e-13,7.856198390e-14,1.305396347e-12,2.076123563e-12,3.189941221e-12,3.599023783e-12,2.745058936e-12,1.946443974e-12,4.459814004e-12,2.682578327e-12,3.039680506e-13,3.203781451e-13,4.777144766e-12,4.439710090e-12,3.385056730e-13,7.120142940e-12,1.803476716e-12,5.651619517e-12,8.709830442e-12,5.726431513e-14,4.976385708e-13
0.70312,2.390045871e-11,1.671542501e-12,3.321015165e-12,9.034931312e-13,1.015576301e-13,4.068946981e-13,3.659200065e-12,1.626470932e-14,8.707499712e-14,9.647908691e-13,4.066297040e-12,9.290086406e-13,7.527171884e-14,1.148841175e-12,2.549011651e-12,3.835535182e-12,4.408124155e-12,3.069366983e-12,2.134697288e-12,5.131774603e-12,2.755568968e-12,2.619891515e-13,2.859640735e-13,4.819309879e-12,4.066856093e-12,3.345905271e-13,6.558210869e-12,1.646984109e-12,5.475209710e-12,9.144003090e-12,6.942784845e-14,4.639843065e-13
0.71094,2.714872697e-11,1.503205811e-12,2.980661697e-12,9.958413104e-13,8.593474264e-14,3.473034988e-13,3.330332683e-12,2.125238905e-14,6.993765551e-14,9.240837561e-13,4.091096070e-12,9.809300109e-13,8.494742630e-14,1.019638069e-12,3.099870103e-12,4.598294699e-12,5.427133397e-12,3.484297674e-12,2.386795475e-12,6.013623476e-12,2.844062523e-12,2.213693342e-13,2.802349746e-13,4.723594065e-12,3.619623123e-12,3.101267997e-13,5.714558366e-12,1.540436268e-12,5.199929093e-12,9.768528055e-12,7.927522551e-14,4.526160879e-13
0.71875,2.985926448e-11,1.513036203e-12,2.612711463e-12,1.196581755e-12,8.077704164e-14,3.123298836e-13,3.006583164e-12,1.114207024e-14,5.665461837e-14,9.086398096e-13,4.272953746e-12,1.060497852e-12,1.143927595e-13,8.724848660e-13,3.830725119e-12,5.687689474e-12,6.847934898e-12,4.064658746e-12,2.718064081e-12,7.354489938e-12,3.037842041e-12,1.855938459e-13,2.482325311e-13,4.704193994e-12,3.127617060e-12,2.731042597e-13,4.711815476e-12,1.580671550e-12,5.120784559e-12,1.122128840e-11,8.506577381e-14,4.501051424e-13
0.72656,3.163281304e-11,1.812787208e-12,2.307201587e-12,1.506852699e-12,8.560958289e-14,3.131148153e-13,2.727851471e-12,8.415114855e-15,4.800220326e-14,8.998433852e-13,4.456454774e-12,1.132784860e-12,1.357230710e-13,7.232828116e-13,4.517804873e-12,6.744587325e-12,8.265960675e-12,4.675531795e-12,3.073394458e-12,8.760296460e-12,3.283627861e-12,1.566212175e-13,2.133180412e-13,4.714117478e-12,2.665303920e-12,2.321280605e-13,3.734590866e-12,1.672587528e-12,5.234141994e-12,1.236309103e-11,8.910783686e-14,4.643412884e-13
0.73438,3.167691448e-11,2.466908479e-12,1.975325745e-12,1.922671347e-12,9.330943188e-14,3.279625047e-13,2.397096796e-12,1.341977256e-14,4.162545886e-14,8.335163314e-13,4.362921474e-12,1.138761573e-12,1.422596444e-13,6.222035900e-13,4.948090811e-12,7.422234398e-12,9.314612180e-12,5.149697681e-12,3.363042878e-12,9.832613652e-12,3.468884497e-12,1.316357914e-13,2.140857161e-13,4.583188831e-12,2.301790823e-12,1.886197967e-13,2.950472232e-12,1.670170664e-12,5.247014601e-12,1.208240632e-11,8.976657347e-14,4.998524804e-13
0.74219,3.070743175e-11,3.479668891e-12,1.789814846e-12,2.397151420e-12,1.100627997e-13,3.770164315e-13,2.186432341e-12,8.182301737e-15,3.831208820e-14,7.821732255e-13,4.262431031e-12,1.119587615e-12,1.558694413e-13,5.811920512e-13,5.207223421e-12,7.914456932e-12,1.016104531e-11,5.486430647e-12,3.547460801e-12,1.082038941e-11,3.641184621e-12,1.152390100e-13,2.030039259e-13,4.519142627e-12,2.047765087e-12,1.486428766e-13,2.417431328e-12,1.670713295e-12,5.179779662e-12,1.125969939e-11,8.894222016e-14,5.335868655e-13
0.75,2.971715345e-11,4.749413106e-12,1.832077263e-12,2.809858223e-12,1.303832184e-13,4.404718303e-13,2.162373626e-12,4.250407221e-15,3.903856073e-14,7.689554524e-13,4.190482224e-12,1.081358495e-12,1.692482402e-13,6.028481510e-13,5.221548811e-12,8.078912576e-12,1.057427906e-11,5.597562185e-12,3.590331234e-12,1.146802283e-11,3.758911739e-12,1.115387145e-13,1.790851773e-13,4.561813449e-12,1.922015043e-12,1.190286228e-13,2.132916951e-12,1.757974659e-12,5.083084262e-12,1.085689234e-11,9.272383744e-14,5.656355190e-13
0.75781,2.929894363e-11,6.141822372e-12,2.041765154e-12,3.030514746e-12,1.390037956e-13,4.737423130e-13,2.243785268e-12,7.104027965e-15,4.218838182e-14,7.358363286e-13,3.882824964e-12,9.708122017e-13,1.567102758e-13,6.942078883e-13,4.775413063e-12,7.492522322e-12,1.005752121e-11,5.319490973e-12,3.436457044e-12,1.118619610e-11,3.693877223e-12,1.178611408e-13,1.848223931e-13,4.509426062e-12,1.918603469e-12,9.789226324e-14,2.047845539e-12,1.904817388e-12,4.780074898e-12,1.087790301e-11,1.013788521e-13,6.024390312e-13
0.76562,2.939938618e-11,7.500919002e-12,2.417357752e-12,3.057109739e-12,1.394994835e-13,5.007012795e-13,2.498143907e-12,5.357524174e-15,4.546903058e-14,7.328961488e-13,3.591359542e-12,8.456053443e-13,1.266001331e-13,8.082252067e-13,4.051870380e-12,6.474555071e-12,8.973385023e-12,4.801445450e-12,3.153088326e-12,1.040504748e-11,3.542734215e-12,1.280117008e-13,1.889476178e-13,4.516783787e-12,2.002481678e-12,8.243893993e-14,2.041142433e-12,2.189361051e-12,4.216870324e-12,1.159429717e-11,1.114616977e-13,6.197000046e-13
0.77344,2.989230961e-11,8.568849881e-12,2.865874054e-12,2.897459909e-12,1.364282106e-13,5.241439640e-13,2.901023424e-12,4.493214256e-15,4.833896334e-14,7.866656363e-13,3.496325787e-12,7.593125641e-13,1.034455120e-13,9.117310907e-13,3.301669229e-12,5.411402106e-12,7.738298164e-12,4.195973411e-12,2.813650136e-12,9.506468316e-12,3.376242412e-12,1.418148507e-13,1.771124276e-13,4.643549905e-12,2.135175927e-12,7.423778907e-14,2.032468892e-12,2.714004146e-12,3.538724986e-12,1.350545862e-11,1.238379582e-13,6.107231686e-13
0.78125,3.024864681e-11,8.999382406e-12,3.141014927e-12,2.542593496e-12,1.221725650e-13,5.042932822e-13,3.226778780e-12,6.953322092e-15,4.877230873e-14,8.224817798e-13,3.405367631e-12,6.947015356e-13,8.406849172e-14,9.732571181e-13,2.603621207e-12,4.322705521e-12,6.334381910e-12,3.546242098e-12,2.464941163e-12,8.256194338e-12,3.128847380e-12,1.522644811e-13,1.884919507e-13,4.653895477e-12,2.253271151e-12,6.891074133e-14,1.955196956e-12,3.341542580e-12,2.857524579e-12,1.579567730e-11,1.365117962e-13,6.001181032e-13
0.78906,3.003582872e-11,8.822868660e-12,3.257029479e-12,2.051147557e-12,9.973354129e-14,4.696113599e-13,3.497770409e-12,5.398270479e-15,4.548913999e-14,8.554195932e-13,3.378835461e-12,6.661629408e-13,5.924559817e-14,9.780365408e-13,2.027736703e-12,3.325365413e-12,4.954344082e-12,2.956558765e-12,2.159318981e-12,6.850413619e-12,2.858221341e-12,1.552477257e-13,2.058157652e-13,4.585666281e-12,2.342802437e-12,6.384380678e-14,1.826399989e-12,3.963216099e-12,2.169748819e-12,1.789352949e-11,1.404491163e-13,5.805412401e-13
0.79688,2.891726079e-11,8.138967364e-12,3.258283868e-12,1.548753344e-12,7.970797311e-14,4.576542195e-13,3.726199521e-12,7.733482431e-15,3.909554255e-14,9.141216542e-13,3.527190508e-12,6.920860190e-13,3.662213536e-14,9.025886163e-13,1.710929952e-12,2.718141256e-12,4.007908170e-12,2.565424893e-12,1.950860883e-12,5.823749771e-12,2.666613005e-12,1.539409527e-13,1.976367489e-13,4.559461011e-12,2.369269422e-12,6.101252106e-14,1.679789433e-12,4.593471684e-12,1.555120410e-12,2.000882223e-11,1.383642012e-13,5.407862760e-13
0.80469,2.635319304e-11,7.014722714e-12,3.028682312e-12,1.124718069e-12,6.544352210e-14,4.483116293e-13,3.693331623e-12,1.399802386e-14,3.307985022e-14,9.151546254e-13,3.573285913e-12,7.137415227e-13,2.251329658e-14,7.863905702e-13,1.594239117e-12,2.417675888e-12,3.433589432e-12,2.313990109e-12,1.806675906e-12,5.030122763e-12,2.480425454e-12,1.559941365e-13,1.959241843e-13,4.389557254e-12,2.308378185e-12,6.231388454e-14,1.576542170e-12,5.060851267e-12,1.132324883e-12,2.102601207e-11,1.371868545e-13,5.124128433e-13
0.8125,2.246140493e-11,5.615154848e-12,2.649256280e-12,7.880938751e-13,5.471566280e-14,4.415658418e-13,3.448718289e-12,1.086218447e-14,2.815279889e-14,8.573831283e-13,3.472747378e-12,7.200424911e-13,1.371347905e-14,6.763579910e-13,1.619460548e-12,2.320969557e-12,3.116203303e-12,2.163691231e-12,1.708540618e-12,4.377377202e-12,2.297696457e-12,1.580007551e-13,2.068867558e-13,4.086869140e-12,2.196042463e-12,6.718835320e-14,1.569789354e-12,5.178227240e-12,8.539381272e-13,1.978643012e-11,1.375692635e-13,4.937173582e-13
0.82031,1.806942713e-11,4.254460812e-12,2.324692807e-12,5.553472930e-13,4.995142045e-14,4.630141304e-13,3.182358779e-12,9.543445872e-15,2.472010015e-14,8.213448269e-13,3.415694576e-12,7.355666342e-13,9.707247851e-15,5.717133158e-13,1.739597958e-12,2.436617368e-12,3.084993945e-12,2.109010448e-12,1.641432542e-12,4.060319127e-12,2.178976939e-12,1.637656461e-13,1.860997414e-13,3.831487794e-12,2.034569061e-12,7.766574683e-14,1.647653110e-12,5.071159489e-12,6.865287812e-13,1.779357133e-11,1.489303969e-13,4.701598542e-13
0.82812,1.401591589e-11,3.112995211e-12,2.076465109e-12,4.024453102e-13,4.939974801e-14,4.823845695e-13,2.880312864e-12,1.799184068e-14,2.390033993e-14,7.743517370e-13,3.282163710e-12,7.172663321e-13,8.615771624e-15,4.890574392e-13,1.807827878e-12,2.566061735e-12,3.150946755e-12,2.071318443e-12,1.572866638e-12,3.927538224e-12,2.080368323e-12,1.762632684e-13,1.520189671e-13,3.596439636e-12,1.844972611e-12,9.117088162e-14,1.768889712e-12,4.858580591e-12,6.239990421e-13,1.624440487e-11,1.741257418e-13,4.571099865e-13
0.83594,1.041181197e-11,2.209317737e-12,1.874865024e-12,3.068237678e-13,4.771434620e-14,4.812463578e-13,2.546181786e-12,1.734788147e-14,2.447547152e-14,6.973414723e-13,3.014165761e-12,6.590592199e-13,7.026008088e-15,4.507762787e-13,1.789330309e-12,2.608009567e-12,3.153823995e-12,2.009802494e-12,1.496568202e-12,3.798585830e-12,1.982114297e-12,1.861600880e-13,1.378008834e-13,3.338109820e-12,1.681307073e-12,1.057820019e-13,1.912778769e-12,4.441643661e-12,6.016130411e-13,1.464957577e-11,2.069021909e-13,4.557181066e-13
0.84375,7.706161138e-12,1.571112811e-12,1.803725881e-12,2.505807474e-13,4.347347766e-14,4.863035368e-13,2.350644536e-12,1.036565356e-14,2.325956869e-14,6.672618914e-13,2.876341136e-12,6.277564121e-13,9.249182055e-15,4.152107586e-13,1.792986109e-12,2.712544271e-12,3.218851242e-12,1.987891601e-12,1.440189143e-12,3.828492746e-12,1.938587260e-12,1.894922098e-13,1.183105546e-13,3.197586664e-12,1.553114625e-12,1.191996391e-13,1.990672820e-12,3.946545806e-12,5.372801919e-13,1.410493980e-11,2.465554102e-13,4.460422009e-13
0.85156,6.229410198e-12,1.172268515e-12,1.826384204e-12,2.255234234e-13,3.993445337e-14,4.976302211e-13,2.271614584e-12,1.408596416e-14,2.241938708e-14,6.620753229e-13,2.820467434e-12,6.058753893e-13,1.576284453e-14,3.793732911e-13,1.765944976e-12,2.792289426e-12,3.281274003e-12,1.967390448e-12,1.385988227e-12,3.918685131e-12,1.910501869e-12,1.957007556e-13,9.082305986e-14,3.129256161e-12,1.458484144e-12,1.286768317e-13,1.941553420e-12,3.589789463e-12,4.793566201e-13,1.513670261e-11,2.852138165e-13,4.392477164e-13
0.85938,5.285140750e-12,9.172746148e-13,1.842008004e-12,2.321168073e-13,3.546469930e-14,5.105419846e-13,2.240184205e-12,1.644164876e-14,2.113184015e-14,6.473629964e-13,2.755531282e-12,5.869258232e-13,2.087050178e-14,3.520825432e-13,1.683841300e-12,2.741873296e-12,3.196552811e-12,1.913487963e-12,1.325911514e-12,3.841192094e-12,1.853792140e-12,2.005809231e-13,8.125221585e-14,3.009762878e-12,1.415662458e-12,1.305281019e-13,1.793362607e-12,3.244782360e-12,4.110447622e-13,1.694366223e-11,3.080526464e-13,4.468137297e-13
0.86719,4.868027431e-12,7.521671696e-13,1.932469429e-12,2.701182770e-13,3.047058942e-14,5.490458277e-13,2.298292630e-12,1.029413379e-14,1.888189155e-14,6.609704385e-13,2.792678411e-12,5.965307790e-13,2.888127040e-14,3.230469451e-13,1.619070045e-12,2.663123164e-12,3.056231002e-12,1.852488829e-12,1.266854724e-12,3.711040409e-12,1.792226491e-12,2.054060056e-13,7.878101797e-14,2.899951524e-12,1.418611752e-12,1.267021493e-13,1.583806777e-12,2.898803678e-12,3.205230982e-13,1.963247790e-11,3.109372580e-13,4.487329655e-13
0.875,4.865570546e-12,6.588272160e-13,2.080721481e-12,3.441619614e-13,2.978735954e-14,6.218246269e-13,2.391010524e-12,1.042888704e-14,1.851632355e-14,6.837431299e-13,2.883067925e-12,6.144326274e-13,4.107728686e-14,2.946492716e-13,1.560186806e-12,2.562152919e-12,2.888968394e-12,1.751998086e-12,1.175669321e-12,3.540759064e-12,1.693217721e-12,2.237745784e-13,6.891596373e-14,2.773899686e-12,1.420415490e-12,1.202084537e-13,1.324805337e-12,2.672058653e-12,2.339650202e-13,2.247337446e-11,2.981018201e-13,4.530718825e-13
0.88281,4.904733933e-12,5.917052754e-13,2.247226227e-12,4.340507094e-13,3.068072179e-14,6.985444632e-13,2.424504685e-12,1.332107785e-14,1.945247995e-14,6.825623215e-13,2.912224428e-12,6.235702147e-13,4.885960502e-14,2.847538404e-13,1.457412588e-12,2.333311768e-12,2.577901494e-12,1.583729956e-12,1.055005329e-12,3.154615296e-12,1.530089794e-12,2.492980593e-13,6.995474704e-14,2.537309151e-12,1.410086401e-12,1.134610088e-13,1.075909653e-12,2.517995944e-12,1.789832304e-13,2.348910644e-11,2.745592356e-13,4.718255100e-13
0.89062,4.925061484e-12,5.335894176e-13,2.486431013e-12,5.311979914e-13,3.222411244e-14,7.846803956e-13,2.443450330e-12,9.872050064e-15,2.096078536e-14,6.867869798e-13,2.955431286e-12,6.395144755e-13,4.967256455e-14,2.860504797e-13,1.356469982e-12,2.052007322e-12,2.186992534e-12,1.389418028e-12,9.272078246e-13,2.654070118e-12,1.338135460e-12,2.777295214e-13,7.633845214e-14,2.256023862e-12,1.382246011e-12,1.107561992e-13,9.333340525e-13,2.384640592e-12,1.445008181e-13,2.369127673e-11,2.404226685e-13,4.846512044e-13
0.89844,5.425783572e-12,5.101319322e-13,2.838875427e-12,6.050630792e-13,3.581399686e-14,8.627688253e-13,2.485714260e-12,1.080200885e-14,2.341055376e-14,7.158729860e-13,3.088167503e-12,6.666795653e-13,5.065883263e-14,2.825136594e-13,1.304501002e-12,1.827359685e-12,1.825292074e-12,1.203124562e-12,7.974329081e-13,2.189798795e-12,1.145411958e-12,3.080496514e-13,6.680889850e-14,2.023736045e-12,1.290050158e-12,1.169198665e-13,8.796095919e-13,2.459586763e-12,1.473532198e-13,2.422415328e-11,2.124546664e-13,4.862343487e-13
0.90625,6.278772869e-12,4.870339944e-13,3.200501088e-12,6.449344882e-13,3.738734513e-14,8.808251567e-13,2.478874852e-12,1.501009023e-14,2.535540665e-14,7.350768897e-13,3.198544213e-12,6.898559666e-13,5.453989342e-14,2.810704140e-13,1.290469083e-12,1.676509340e-12,1.567455526e-12,1.073465050e-12,7.082214178e-13,1.821967856e-12,9.794236995e-13,3.285507817e-13,5.387437173e-14,1.816993267e-12,1.138810711e-12,1.347022294e-13,9.252867171e-13,2.789366900e-12,1.782278972e-13,2.412326733e-11,1.997993539e-13,4.915094504e-13
0.91406,7.547629459e-12,4.669519132e-13,3.601870973e-12,6.562595427e-13,3.515588483e-14,8.424510466e-13,2.487546810e-12,1.228825130e-14,2.571007358e-14,7.673168291e-13,3.329329644e-12,7.231257617e-13,5.714074149e-14,2.808014844e-13,1.308134169e-12,1.589568951e-12,1.398011899e-12,1.018302943e-12,6.742448454e-13,1.555950489e-12,8.661651899e-13,3.281328500e-13,4.984722341e-14,1.678864359e-12,9.683584083e-13,1.627376644e-13,1.072921480e-12,3.291489522e-12,2.420437792e-13,2.390434244e-11,2.029082111e-13,4.859535938e-13
0.92188,9.361653441e-12,4.640140187e-13,4.032127235e-12,6.472619717e-13,3.392737124e-14,7.709114946e-13,2.554191911e-12,1.176998244e-14,2.511384722e-14,8.356294738e-13,3.580343691e-12,7.814578181e-13,5.965869875e-14,2.616997073e-13,1.429150512e-12,1.675605347e-12,1.416649820e-12,1.074424713e-12,7.056030451e-13,1.501405822e-12,8.333199752e-13,3.082388781e-13,4.627189168e-14,1.663581432e-12,7.860372255e-13,1.977724337e-13,1.269130250e-12,4.003069992e-12,3.635843361e-13,2.540376281e-11,2.182521855e-13,4.583030673e-13
0.92969,1.142285080e-11,4.680203588e-13,4.384754464e-12,6.434115089e-13,3.375588009e-14,6.608964653e-13,2.616560381e-12,1.685620061e-14,2.588834958e-14,8.887687940e-13,3.755200928e-12,8.193100725e-13,6.329167202e-14,2.558354557e-13,1.527802570e-12,1.793796766e-12,1.520585659e-12,1.173795115e-12,7.684129672e-13,1.562029996e-12,8.474723512e-13,2.803060468e-13,4.073538197e-14,1.692444161e-12,6.282418611e-13,2.393081829e-13,1.482875928e-12,4.831645026e-12,5.615297341e-13,2.788543478e-11,2.473400455e-13,4.311091187e-13
0.9375,1.329232280e-11,4.680499763e-13,4.598816986e-12,6.585033595e-13,3.325890848e-14,5.236125383e-13,2.652762653e-12,1.580724985e-14,2.805544307e-14,9.205328977e-13,3.794665887e-12,8.341617566e-13,6.889760045e-14,2.725809234e-13,1.562932731e-12,1.871341434e-12,1.646965437e-12,1.280311652e-12,8.420603683e-13,1.676986840e-12,8.857642000e-13,2.463788188e-13,3.900958833e-14,1.730522554e-12,5.227502591e-13,2.784335269e-13,1.679097063e-12,5.542197096e-12,8.249614236e-13,3.026483937e-11,2.786597748e-13,4.069505426e-13
0.94531,1.485157023e-11,4.961454798e-13,4.729722670e-12,7.110980895e-13,3.748097125e-14,4.054148276e-13,2.702584533e-12,1.368504670e-14,3.286800212e-14,9.562530738e-13,3.805122816e-12,8.400137455e-13,7.924302593e-14,3.116441829e-13,1.567081780e-12,1.935280446e-12,1.774212518e-12,1.363731205e-12,8.956247334e-13,1.829465450e-12,9.387170668e-13,2.127205529e-13,4.757481539e-14,1.797755891e-12,5.029757556e-13,3.062008698e-13,1.855797177e-12,5.965867554e-12,1.153600726e-12,3.200808138e-11,2.948948314e-13,3.735628008e-13
0.95312,1.565159752e-11,5.249030519e-13,4.691285734e-12,7.986528925e-13,4.571998518e-14,3.227114111e-13,2.699797019e-12,1.825947238e-14,4.008119433e-14,9.558880735e-13,3.668141146e-12,8.090637777e-13,8.670190453e-14,3.747753534e-13,1.486613352e-12,1.900793519e-12,1.790746857e-12,1.363714417e-12,9.029850817e-13,1.896076683e-12,9.631032036e-13,1.930222045e-13,6.537961045e-14,1.809728406e-12,5.614321499e-13,3.232806033e-13,1.988661645e-12,6.124335042e-12,1.508245195e-12,3.320766862e-11,2.987087841e-13,3.484882127e-13
0.96094,1.543795539e-11,5.473235955e-13,4.410120981e-12,9.125502016e-13,5.531251712e-14,2.681659932e-13,2.580998744e-12,2.027638160e-14,4.761120123e-14,8.956319887e-13,3.295200161e-12,7.296906667e-13,8.177783509e-14,4.467310198e-13,1.295236992e-12,1.725323740e-12,1.672815458e-12,1.274686534e-12,8.692788652e-13,1.850102528e-12,9.560789142e-13,1.878381573e-13,8.841282229e-14,1.751826537e-12,7.029315113e-13,3.318832715e-13,2.070864357e-12,5.979846193e-12,1.834577279e-12,3.298408973e-11,2.955205626e-13,3.362793832e-13
0.96875,1.420132183e-11,5.673654830e-13,3.971715124e-12,1.021363660e-12,6.650600298e-14,2.481996478e-13,2.409544532e-12,2.096113050e-14,5.373962977e-14,8.157075105e-13,2.869163987e-12,6.447653078e-13,7.193963756e-14,5.016060425e-13,1.087397686e-12,1.536466668e-12,1.538590090e-12,1.163908132e-12,8.241128576e-13,1.825908647e-12,9.668729841e-13,1.866459562e-13,1.191522489e-13,1.726261860e-12,9.083056614e-13,3.239581849e-13,2.091572881e-12,5.460203864e-12,2.081914297e-12,2.988422268e-11,2.710701905e-13,3.205302050e-13
0.97656,1.219903845e-11,5.724713137e-13,3.430711750e-12,1.084744750e-12,7.837450918e-14,2.450030064e-13,2.201318662e-12,2.823838456e-14,5.929394425e-14,7.268132513e-13,2.459557183e-12,5.623617437e-13,6.552849570e-14,5.410536383e-13,9.101553214e-13,1.389341184e-12,1.436503023e-12,1.058589221e-12,7.854587340e-13,1.847139106e-12,1.004275582e-12,1.887333562e-13,1.631807582e-13,1.738601733e-12,1.138575861e-12,3.025877008e-13,2.051058138e-12,4.790733517e-12,2.270602991e-12,2.542373327e-11,2.336070958e-13,3.049961568e-13
0.98438,9.960511145e-12,5.519054247e-13,2.802910385e-12,1.098881733e-12,8.634413854e-14,2.384327021e-13,1.917164479e-12,3.324110492e-14,6.149804595e-14,6.094639327e-13,2.025550924e-12,4.721026256e-13,5.508630461e-14,5.535217326e-13,7.635219300e-13,1.277870104e-12,1.369617194e-12,9.741417793e-13,7.698500408e-13,1.897516384e-12,1.070144504e-12,1.910086670e-13,2.098176667e-13,1.786283167e-12,1.381715734e-12,2.757963622e-13,1.971576395e-12,4.252554108e-12,2.337297958e-12,2.190012131e-11,1.978067483e-13,2.957760187e-13
0.99219,7.681995537e-12,5.107993426e-13,2.164107400e-12,1.062512378e-12,8.856638371e-14,2.244822417e-13,1.615101386e-12,3.245494463e-14,5.818656090e-14,4.920857661e-13,1.667212637e-12,3.980433790e-13,3.967435492e-14,5.346926629e-13,6.753209367e-13,1.240772454e-12,1.391443015e-12,9.499398412e-13,7.923386895e-13,2.043912947e-12,1.188271753e-12,1.804668007e-13,2.476923286e-13,1.915616695e-12,1.619604871e-12,2.458965527e-13,1.844194612e-12,3.757403144e-12,2.215321479e-12,1.795820927e-11,1.657260340e-13,2.781242148e-13
1,5.543112722e-12,4.728644137e-13,1.610766705e-12,9.867808334e-13,9.010757412e-14,2.034180198e-13,1.366847050e-12,3.550051837e-14,5.313610989e-14,4.013936739e-13,1.450564565e-12,3.511837824e-13,2.826240527e-14,5.007501091e-13,6.513678010e-13,1.281773057e-12,1.494604086e-12,9.815023899e-13,8.433628758e-13,2.273743649e-12,1.338963825e-12,1.588485221e-13,2.813213793e-13,2.118331162e-12,1.830244990e-12,2.149128596e-13,1.709947028e-12,3.400109487e-12,2.079512368e-12,1.405891252e-11,1.352873396e-13,2.530916052e-13
1.0078,3.951763827e-12,4.607658287e-13,1.193070674e-12,8.891040017e-13,9.190597520e-14,1.703529469e-13,1.152777769e-12,3.976841525e-14,4.950933631e-14,3.236550604e-13,1.313648835e-12,3.104041980e-13,2.216612393e-14,4.662169787e-13,6.466040008e-13,1.328543777e-12,1.595497166e-12,1.020734622e-12,8.922626157e-13,2.455017563e-12,1.463098993e-12,1.387944411e-13,3.074010917e-13,2.314729527e-12,2.000267596e-12,1.840492229e-13,1.578993062e-12,3.381583000e-12,2.012939512e-12,1.242054625e-11,1.106567471e-13,2.355382791e-13
1.0156,2.954051654e-12,4.865521134e-13,9.123512688e-13,7.818958282e-13,8.765147105e-14,1.343716937e-13,9.880372785e-13,3.634218565e-14,4.472679893e-14,2.615951361e-13,1.247240395e-12,2.797414609e-13,1.695833129e-14,4.365061628e-13,6.486121161e-13,1.365181369e-12,1.677963083e-12,1.064146010e-12,9.296779720e-13,2.588804693e-12,1.550659868e-12,1.183412206e-13,3.101227059e-13,2.479259806e-12,2.128955894e-12,1.546503475e-13,1.445817697e-12,3.505191064e-12,1.858354852e-12,1.192171019e-11,9.313044828e-14,2.202330232e-13
1.0234,2.295055188e-12,5.712416436e-13,7.764853923e-13,6.916931949e-13,8.220444580e-14,1.072267259e-13,9.023064641e-13,3.135345908e-14,4.060730967e-14,2.275869106e-13,1.253808174e-12,2.670662347e-13,1.466305939e-14,4.207932849e-13,6.485943463e-13,1.382724952e-12,1.712506047e-12,1.091000806e-12,9.417818581e-13,2.660843740e-12,1.593906225e-12,9.856363059e-14,2.949313902e-13,2.605653132e-12,2.237476396e-12,1.295741778e-13,1.335827392e-12,3.668703307e-12,1.708672686e-12,1.196446087e-11,7.821844830e-14,2.065232264e-13
1.0312,2.023397605e-12,7.221990750e-13,7.545324376e-13,6.160079885e-13,8.097353338e-14,9.047894717e-14,8.609134973e-13,3.057421980e-14,4.103400088e-14,2.064062842e-13,1.258165106e-12,2.527998268e-13,1.553630126e-14,4.194244046e-13,6.277729211e-13,1.353018981e-12,1.675532150e-12,1.078482433e-12,9.228698056e-13,2.621186134e-12,1.574929269e-12,8.729374006e-14,2.771017027e-13,2.668327746e-12,2.325969107e-12,1.091368707e-13,1.248014085e-12,4.067766881e-12,1.696347000e-12,1.391297560e-11,6.405273004e-14,2.041710778e-13
1.0391,1.980532415e-12,8.967562143e-13,7.852053122e-13,5.494396232e-13,7.651381895e-14,8.467623230e-14,8.358837742e-13,2.761653225e-14,4.280015813e-14,1.889111000e-13,1.236002437e-12,2.357625758e-13,1.467933800e-14,4.258695885e-13,5.805124736e-13,1.274764227e-12,1.561063429e-12,1.030053296e-12,8.752927842e-13,2.457178401e-12,1.496451394e-12,8.280676049e-14,2.539146347e-13,2.628054667e-12,2.382929202e-12,8.939146591e-14,1.148885409e-12,4.400146591e-12,1.629560103e-12,1.579482427e-11,5.156346921e-14,2.085114091e-13
1.0469,1.909746209e-12,1.083322113e-12,8.398226047e-13,4.849202257e-13,6.703203011e-14,8.699589289e-14,8.327677482e-13,2.151613889e-14,4.391935786e-14,1.852372293e-13,1.230794019e-12,2.345286312e-13,1.305862440e-14,4.262692671e-13,5.437695839e-13,1.212726047e-12,1.441093139e-12,9.887098979e-13,8.307494789e-13,2.267635832e-12,1.411372988e-12,7.791468203e-14,2.258286841e-13,2.546892668e-12,2.418694779e-12,7.236310630e-14,1.032189027e-12,4.483506383e-12,1.442514683e-12,1.654001866e-11,4.144045760e-14,2.115871270e-13
1.0547,1.890668692e-12,1.256960969e-12,8.861361688e-13,4.321559438e-13,6.178287364e-14,9.388692652e-14,8.249795809e-13,1.749196678e-14,4.850751370e-14,1.817348445e-13,1.195600751e-12,2.296785593e-13,1.429271777e-14,4.291491429e-13,5.096933025e-13,1.145746908e-12,1.314380846e-12,9.372243006e-13,7.820537395e-13,2.053746655e-12,1.318331878e-12,7.853439728e-14,2.018265390e-13,2.441897364e-12,2.432989245e-12,6.001477200e-14,9.174778222e-13,4.501702023e-12,1.324017032e-12,1.811447377e-11,3.255377212e-14,2.185277346e-13
1.0625,1.932765666e-12,1.350106248e-12,8.914884950e-13,3.794741362e-13,5.662373553e-14,9.949205504e-14,7.929625577e-13,1.519333301e-14,5.222870998e-14,1.720245342e-13,1.131581021e-12,2.215581575e-13,1.521814104e-14,4.242443379e-13,4.820994950e-13,1.086352817e-12,1.201428352e-12,8.909490475e-13,7.380658187e-13,1.806991701e-12,1.217513854e-12,8.116297146e-14,1.831942930e-13,2.294900385e-12,2.383070240e-12,4.938135214e-14,7.937080497e-13,4.440917774e-12,1.192585974e-12,1.950217618e-11,2.545771432e-14,2.259745166e-13
1.0703,1.787915499e-12,1.346812105e-12,8.454240750e-13,3.237470404e-13,4.664834358e-14,1.016521613e-13,7.553950840e-13,1.155926210e-14,5.104803561e-14,1.675799798e-13,1.089393346e-12,2.248379209e-13,1.410534269e-14,4.028857781e-13,4.870192912e-13,1.069697289e-12,1.146767074e-12,8.841044644e-13,7.203256838e-13,1.600723667e-12,1.139366769e-12,7.813460052e-14,1.662905433e-13,2.143897107e-12,2.283007275e-12,4.119864316e-14,6.785227516e-13,4.008224882e-12,9.701570527e-13,1.829552579e-11,2.156816436e-14,2.253225159e-13
1.0781,1.560585488e-12,1.280258185e-12,7.789469592e-13,2.811729798e-13,3.999215202e-14,1.047124956e-13,7.258328308e-13,8.042321160e-15,4.953931080e-14,1.687965284e-13,1.072795873e-12,2.329766501e-13,1.443666696e-14,3.728872199e-13,5.261316666e-13,1.099055434e-12,1.163664370e-12,9.066018879e-13,7.184412886e-13,1.470742270e-12,1.081964052e-12,7.692451875e-14,1.475153834e-13,2.025434588e-12,2.134625878e-12,3.622016095e-14,5.910248386e-13,3.417178428e-12,7.878696652e-13,1.643744377e-11,1.983350171e-14,2.219543509e-13
1.0859,1.409160185e-12,1.153149278e-12,7.005171976e-13,2.430046878e-13,3.640607429e-14,1.081747795e-13,7.072253256e-13,6.251783702e-15,4.748228872e-14,1.720958599e-13,1.070593497e-12,2.428661298e-13,1.795345226e-14,3.380241563e-13,5.878291454e-13,1.159016409e-12,1.235869753e-12,9.500212999e-13,7.243892197e-13,1.382755364e-12,1.025998743e-12,7.779273730e-14,1.286489067e-13,1.908495778e-12,1.920827037e-12,3.319746428e-14,5.266046717e-13,2.903980995e-12,6.826053305e-13,1.529202946e-11,1.998896521e-14,2.203720631e-13
1.0938,1.203759456e-12,9.747989771e-13,6.180151059e-13,2.145524429e-13,3.232624379e-14,1.178674906e-13,7.186954504e-13,4.949934322e-15,4.098944535e-14,1.867150127e-13,1.104309450e-12,2.631186874e-13,2.333910374e-14,2.961907849e-13,6.705095228e-13,1.240184071e-12,1.345985258e-12,1.017634798e-12,7.439790212e-13,1.359071930e-12,9.812373478e-13,7.543771079e-14,1.116329086e-13,1.795650792e-12,1.680729773e-12,3.140863510e-14,4.923392490e-13,2.343838854e-12,5.858353927e-13,1.295964669e-11,1.997742542e-14,2.147826320e-13
1.1016,9.950577367e-13,8.020329102e-13,5.741121560e-13,1.945601476e-13,3.136330226e-14,1.370180244e-13,7.797235325e-13,3.490431934e-15,3.344492983e-14,2.137367113e-13,1.168379613e-12,2.884539792e-13,2.953125502e-14,2.561901458e-13,7.608793461e-13,1.334740639e-12,1.475537699e-12,1.084596345e-12,7.578034821e-13,1.395538637e-12,9.464220438e-13,7.537359549e-14,9.283107254e-14,1.711003174e-12,1.445590646e-12,3.105229253e-14,4.715973812e-13,1.785409710e-12,5.413030007e-13,1.006989301e-11,2.163897653e-14,2.074266340e-13
1.1094,9.052030783e-13,6.497971324e-13,5.648324249e-13,1.835200045e-13,3.441933329e-14,1.633832595e-13,8.674993669e-13,2.683054129e-15,2.757564460e-14,2.445069022e-13,1.235293689e-12,3.105606573e-13,3.621502249e-14,2.193129672e-13,8.391929040e-13,1.423486622e-12,1.596337839e-12,1.132795227e-12,7.569872465e-13,1.458938843e-12,9.084102381e-13,8.099924851e-14,7.405058213e-14,1.626032188e-12,1.213171116e-12,3.097241080e-14,4.470906264e-13,1.401042975e-12,5.568410774e-13,8.359713217e-12,2.458859136e-14,2.040961814e-13
1.1172,8.847921543e-13,5.260259116e-13,5.895667139e-13,1.874486879e-13,3.793895388e-14,1.978739341e-13,9.674502605e-13,2.481313156e-15,2.287527172e-14,2.766249433e-13,1.277791071e-12,3.259545717e-13,4.272918115e-14,1.941999341e-13,8.713871788e-13,1.446565614e-12,1.633218564e-12,1.140700953e-12,7.361101252e-13,1.496480189e-12,8.609138063e-13,8.931737174e-14,5.935633918e-14,1.516941895e-12,1.006735616e-12,2.987867187e-14,4.118253917e-13,1.127464504e-12,5.492476811e-13,7.129985133e-12,2.531765083e-14,2.007185360e-13
1.125,9.057389040e-13,4.384082090e-13,6.447781342e-13,2.122840527e-13,4.475950699e-14,2.361804970e-13,1.066922803e-12,2.864324127e-15,1.984293806e-14,3.071115847e-13,1.302259505e-12,3.363312599e-13,4.915763508e-14,1.789112031e-13,8.690433362e-13,1.425860485e-12,1.603846825e-12,1.110866746e-12,6.942381070e-13,1.514606945e-12,8.097819260e-13,1.032796859e-13,4.824175857e-14,1.411022551e-12,8.469757182e-13,2.847487732e-14,3.648170092e-13,8.837625020e-13,5.405504617e-13,5.957299769e-12,2.540162279e-14,1.950042140e-13
1.1328,1.003001959e-12,3.872588371e-13,7.184291228e-13,2.572783907e-13,5.488460427e-14,2.687494604e-13,1.132772239e-12,3.481715646e-15,2.012804232e-14,3.230374146e-13,1.295850359e-12,3.310616499e-13,5.343454054e-14,1.738681606e-13,8.320788326e-13,1.378381230e-12,1.524420657e-12,1.036280807e-12,6.247441919e-13,1.492194857e-12,7.421567656e-13,1.255602087e-13,3.607268552e-14,1.301749436e-12,7.074408379e-13,2.654339008e-14,2.991640112e-13,7.275416835e-13,5.556492234e-13,5.729391679e-12,2.690565956e-14,1.927081302e-13
1.1406,1.060248475e-12,3.623870890e-13,7.797214124e-13,3.216326760e-13,6.112315523e-14,2.949664869e-13,1.135090510e-12,3.392752774e-15,2.204892606e-14,3.213173250e-13,1.240857130e-12,3.099978639e-13,5.314551399e-14,1.783947633e-13,7.539695496e-13,1.281396183e-12,1.374463234e-12,9.270680778e-13,5.440970125e-13,1.402123168e-12,6.633092730e-13,1.460352864e-13,2.627914436e-14,1.182945467e-12,5.875869258e-13,2.461174740e-14,2.291786842e-13,6.285121309e-13,5.218876472e-13,5.685649669e-12,2.851877964e-14,1.922692446e-13
1.1484,1.042541308e-12,3.627341871e-13,8.412691257e-13,3.988665043e-13,6.584444259e-14,3.208285079e-13,1.099346080e-12,3.477930921e-15,2.522973780e-14,3.131912128e-13,1.176719927e-12,2.854623850e-13,4.998186288e-14,1.837670128e-13,6.638289276e-13,1.172111523e-12,1.200161731e-12,8.092070379e-13,4.677556711e-13,1.285091716e-12,5.878254383e-13,1.652766106e-13,2.102510035e-14,1.090410370e-12,4.995832788e-13,2.342440825e-14,1.707113164e-13,5.323814547e-13,4.522949200e-13,5.224969307e-12,3.122957673e-14,1.909009763e-13
1.1562,1.025128867e-12,3.893583819e-13,9.128734384e-13,4.791943360e-13,7.156940829e-14,3.475541468e-13,1.045806806e-12,5.138190168e-15,3.023429076e-14,2.996178355e-13,1.124593268e-12,2.571567663e-13,4.594819766e-14,1.879531230e-13,5.902823280e-13,1.101783640e-12,1.064748564e-12,7.019712053e-13,4.025749118e-13,1.183372316e-12,5.217224360e-13,1.864121031e-13,1.670955631e-14,1.031834544e-12,4.156304435e-13,2.486194686e-14,1.202658884e-13,4.781274362e-13,4.026342905e-13,5.146948932e-12,3.911396826e-14,1.953467737e-13
1.1641,9.787890439e-13,4.302265714e-13,9.684305206e-13,5.472923487e-13,7.122092734e-14,3.762758656e-13,9.768554501e-13,6.120396045e-15,3.387660345e-14,2.826437977e-13,1.067372060e-12,2.259831486e-13,4.016903293e-14,1.938825157e-13,5.277238863e-13,1.044982946e-12,9.580780850e-13,6.100285063e-13,3.556608361e-13,1.080308281e-12,4.653626203e-13,1.974649931e-13,1.301703400e-14,9.827883452e-13,3.318838988e-13,2.890138115e-14,8.507568198e-14,4.650631634e-13,3.658525997e-13,5.137849117e-12,5.166072678e-14,2.052565772e-13
1.1719,8.917114478e-13,4.867359024e-13,1.023182328e-12,6.003647633e-13,6.445407863e-14,4.159548432e-13,9.151144487e-13,5.474717748e-15,3.608778523e-14,2.713191979e-13,1.021525022e-12,2.012186915e-13,3.275634077e-14,1.981629121e-13,4.834776627e-13,1.003435347e-12,8.933978375e-13,5.478010449e-13,3.340889909e-13,9.991163463e-13,4.313360150e-13,1.966126499e-13,1.251089734e-14,9.603710014e-13,2.674406852e-13,3.574303996e-14,7.075304215e-14,4.736885336e-13,3.444555920e-13,4.671243277e-12,6.888144481e-14,2.174156504e-13
1.1797,8.406826323e-13,5.475649678e-13,1.092131812e-12,6.301691646e-13,5.891545978e-14,4.650389066e-13,8.871925981e-13,6.700942153e-15,3.854411801e-14,2.697492879e-13,1.001705389e-12,1.839343011e-13,2.596590155e-14,2.006797706e-13,4.681538883e-13,9.986877436e-13,8.916292863e-13,5.200550723e-13,3.331418364e-13,9.782069514e-13,4.239577897e-13,1.928317292e-13,1.697511677e-14,9.645746371e-13,2.200765061e-13,4.577438385e-14,7.537488706e-14,4.985579743e-13,3.712821809e-13,4.395054701e-12,9.197889304e-14,2.314750065e-13
1.1875,8.533335692e-13,5.950879879e-13,1.139465077e-12,6.334649651e-13,5.334547480e-14,5.069984028e-13,8.702096169e-13,8.978858344e-15,4.002114978e-14,2.706705810e-13,9.754580791e-13,1.699963397e-13,2.107185573e-14,2.084461144e-13,4.578828670e-13,9.878940875e-13,9.037441961e-13,5.096982789e-13,3.442251629e-13,9.765663835e-13,4.327438011e-13,1.837265429e-13,2.377303367e-14,9.665158564e-13,1.878841014e-13,5.743169892e-14,9.912111737e-14,5.476520867e-13,4.295379752e-13,4.565404591e-12,1.162081631e-13,2.465713390e-13
1.1953,8.524525547e-13,6.158715761e-13,1.136865139e-12,6.168407147e-13,4.557916950e-14,5.358605405e-13,8.388764532e-13,8.551653963e-15,3.879215842e-14,2.681267295e-13,9.295801086e-13,1.604103029e-13,1.662607730e-14,2.172349757e-13,4.406284502e-13,9.407299339e-13,9.053811230e-13,5.158762292e-13,3.639891542e-13,9.754513044e-13,4.576836923e-13,1.650990816e-13,2.948698715e-14,9.590911027e-13,1.835449963e-13,6.900158172e-14,1.411401888e-13,5.774544913e-13,5.062515036e-13,4.497222658e-12,1.374115267e-13,2.555481260e-13
1.2031,8.717340153e-13,6.147656281e-13,1.116568524e-12,5.845847991e-13,4.149102675e-14,5.493609739e-13,8.116277649e-13,8.691988044e-15,3.669431565e-14,2.709174254e-13,9.065874285e-13,1.600527593e-13,1.234883895e-14,2.210354053e-13,4.371859328e-13,9.037787362e-13,9.226813048e-13,5.404111080e-13,3.852663281e-13,1.007741067e-12,4.980467379e-13,1.455761933e-13,3.634183933e-14,9.656656526e-13,2.061234997e-13,7.998076683e-14,2.007075667e-13,5.915986357e-13,6.052354985e-13,4.556085621e-12,1.551353584e-13,2.548145248e-13
1.2109,9.154739622e-13,5.961390990e-13,1.068468903e-12,5.474031773e-13,4.211039753e-14,5.370601940e-13,7.755363747e-13,1.182621656e-14,3.441499466e-14,2.691817711e-13,8.849127938e-13,1.621872477e-13,9.422076504e-15,2.244759139e-13,4.325862498e-13,8.619965168e-13,9.243762125e-13,5.647912764e-13,4.005346808e-13,1.034233053e-12,5.413986874e-13,1.287660897e-13,4.850966239e-14,9.753388606e-13,2.532933962e-13,8.777887983e-14,2.778148966e-13,6.228936842e-13,6.886735133e-13,5.003893326e-12,1.647392597e-13,2.468946850e-13
1.2188,8.762493821e-13,5.407054022e-13,9.508662104e-13,4.950124847e-13,4.332831285e-14,4.880272027e-13,7.123376754e-13,1.235287363e-14,3.011130930e-14,2.560192832e-13,8.492390180e-13,1.651779723e-13,7.792398399e-15,2.233355364e-13,4.128258290e-13,7.868595761e-13,8.823075081e-13,5.809951010e-13,4.059117863e-13,1.009826663e-12,5.736524415e-13,1.107991429e-13,5.803984309e-14,9.567793942e-13,3.144521030e-13,9.303272759e-14,3.599197101e-13,6.311257434e-13,7.056985881e-13,5.007798607e-12,1.659106154e-13,2.300982906e-13
1.2266,7.804882848e-13,4.905400778e-13,8.264366971e-13,4.420774146e-13,4.848233178e-14,4.235952263e-13,6.600142349e-13,1.185893439e-14,2.485509769e-14,2.438456678e-13,8.349529769e-13,1.724411628e-13,6.490110560e-15,2.139535858e-13,4.019900719e-13,7.248127073e-13,8.429645614e-13,5.994331259e-13,4.052572790e-13,9.827767892e-13,6.035339297e-13,9.545315298e-14,6.194434634e-14,9.453938275e-13,3.810471093e-13,9.597153243e-14,4.393355865e-13,6.268730717e-13,7.142466527e-13,4.672733448e-12,1.587712500e-13,2.043372003e-13
1.2344,7.074797248e-13,4.539117409e-13,7.175224037e-13,3.907981721e-13,5.607548900e-14,3.520086723e-13,6.331042101e-13,1.600825639e-14,2.005444057e-14,2.333942006e-13,8.358045248e-13,1.790007696e-13,5.278959043e-15,2.017865156e-13,4.013901003e-13,6.893965260e-13,8.183635614e-13,6.149626533e-13,4.027847497e-13,9.644346131e-13,6.301475069e-13,8.308510721e-14,6.744957342e-14,9.507878480e-13,4.438726529e-13,9.333798592e-14,5.111234839e-13,6.492923820e-13,7.135480821e-13,4.584149390e-12,1.422660680e-13,1.739529557e-13
1.2422,6.323190138e-13,4.135138199e-13,5.990894440e-13,3.322106239e-13,5.970638074e-14,2.717605317e-13,6.074203371e-13,1.919266902e-14,1.604924634e-14,2.126331518e-13,8.030912174e-13,1.763637921e-13,5.115785530e-15,1.927544437e-13,3.783656562e-13,6.319415370e-13,7.579598724e-13,6.053399930e-13,3.905064222e-13,8.892811011e-13,6.237719151e-13,7.333865350e-14,7.269303880e-14,9.069349604e-13,4.785577073e-13,8.500505288e-14,5.499324684e-13,6.439397273e-13,6.458730693e-13,4.256332146e-12,1.200267033e-13,1.456604899e-13
1.25,5.704923170e-13,3.852463156e-13,5.049264087e-13,2.709223727e-13,6.109400599e-14,1.988971261e-13,6.049574207e-13,1.858132198e-14,1.260469579e-14,1.931706021e-13,7.793483296e-13,1.734452120e-13,7.168861421e-15,1.801006240e-13,3.615376633e-13,5.958138027e-13,7.129854401e-13,6.021343102e-13,3.890449481e-13,8.236186831e-13,6.141546288e-13,6.319044932e-14,7.224048304e-14,8.588526979e-13,5.070083051e-13,7.695289665e-14,5.694688190e-13,6.188984438e-13,5.813687127e-13,3.433877911e-12,9.794773675e-14,1.198880188e-13
1.2578,5.981887004e-13,3.753295773e-13,4.548597115e-13,2.180354576e-13,6.283411809e-14,1.406639311e-13,6.282031125e-13,2.250416272e-14,1.091413292e-14,1.810544957e-13,7.729207475e-13,1.694982170e-13,1.024491956e-14,1.685914428e-13,3.599966317e-13,5.951883690e-13,7.023511586e-13,6.078606506e-13,4.018246912e-13,8.106625635e-13,6.124845857e-13,5.364153166e-14,6.927769375e-14,8.430681212e-13,5.298951300e-13,6.725613839e-14,5.666359509e-13,6.179401474e-13,5.697800730e-13,2.766361160e-12,7.647335430e-14,9.930775100e-14
1.2656,7.414368227e-13,3.670429085e-13,4.365443358e-13,1.748974175e-13,5.918201126e-14,1.003332623e-13,6.427389985e-13,2.863673437e-14,1.095895564e-14,1.654295234e-13,7.396339346e-13,1.571409507e-13,1.279137288e-14,1.619109785e-13,3.460284724e-13,5.866122507e-13,6.810473691e-13,6.035018122e-13,4.205123741e-13,7.913924413e-13,5.961554024e-13,4.511640587e-14,6.990229286e-14,8.056301817e-13,5.389844364e-13,5.386904010e-14,5.341840827e-13,6.384874598e-13,5.781910602e-13,2.362442359e-12,5.647816931e-14,8.846021331e-14
1.2734,1.000781648e-12,3.680494319e-13,4.525791792e-13,1.397155526e-13,5.023194342e-14,7.555090665e-14,6.518415231e-13,2.696518139e-14,1.203858478e-14,1.515820219e-13,7.151094615e-13,1.444381210e-13,1.671801486e-14,1.531650782e-13,3.383000173e-13,5.996255339e-13,6.757048232e-13,6.076636339e-13,4.521458572e-13,7.982469241e-13,5.813819399e-13,3.661864678e-14,6.831061236e-14,7.783981243e-13,5.588399676e-13,4.048168618e-14,4.894426552e-13,6.867726993e-13,6.343218214e-13,1.974866946e-12,4.010181807e-14,8.544328750e-14
1.2812,1.370480338e-12,4.004398918e-13,5.175921728e-13,1.253627822e-13,4.255092999e-14,7.225078657e-14,6.708803081e-13,2.398882574e-14,1.414641675e-14,1.504671519e-13,7.311109889e-13,1.386033685e-13,2.394595266e-14,1.419758741e-13,3.567800207e-13,6.573354305e-13,7.137015960e-13,6.292553155e-13,4.956464385e-13,8.711517338e-13,5.879516006e-13,2.907588206e-14,6.426539910e-14,8.112617250e-13,6.119307273e-13,3.099785139e-14,4.543585484e-13,8.069856775e-13,7.596912186e-13,1.789806465e-12,2.912243111e-14,8.898818383e-14
1.2891,1.779090509e-12,4.612227102e-13,6.016649349e-13,1.333930692e-13,3.684613225e-14,9.062668374e-14,6.648375871e-13,2.699366341e-14,1.647304334e-14,1.483774153e-13,7.318061259e-13,1.306637880e-13,2.967731543e-14,1.348205679e-13,3.685800350e-13,6.989069168e-13,7.355787902e-13,6.338619684e-13,5.234675439e-13,9.194697496e-13,5.866912803e-13,2.481667495e-14,6.450264672e-14,8.513717885e-13,6.817540340e-13,2.376768106e-14,4.297296936e-13,9.934037939e-13,9.083271612e-13,1.899735322e-12,2.199736038e-14,1.002735976e-13
1.2969,2.188903917e-12,5.546805655e-13,7.052774395e-13,1.631639873e-13,3.233406308e-14,1.323018054e-13,6.339119156e-13,2.751496657e-14,1.799143368e-14,1.470910110e-13,7.326885850e-13,1.249676092e-13,3.219372503e-14,1.279132760e-13,3.785800704e-13,7.325957074e-13,7.446798287e-13,6.262122561e-13,5.390835796e-13,9.484494992e-13,5.783400539e-13,2.275993900e-14,6.647047305e-14,9.038257041e-13,7.771256764e-13,1.908921778e-14,4.254616897e-13,1.223185948e-12,1.070454544e-12,2.211198229e-12,1.724026295e-14,1.146323703e-13
1.3047,2.595407805e-12,6.854958475e-13,8.377623561e-13,2.102799749e-13,3.166902532e-14,1.960148892e-13,6.096144651e-13,2.184823375e-14,1.889515092e-14,1.558270999e-13,7.612405217e-13,1.274759211e-13,3.662461712e-14,1.235049817e-13,4.012595087e-13,7.831476506e-13,7.718566046e-13,6.170175723e-13,5.449296211e-13,1.004432636e-12,5.836851223e-13,2.354846468e-14,6.441350250e-14,1.002005009e-12,8.989925918e-13,1.761103766e-14,4.448650212e-13,1.475233510e-12,1.241731160e-12,2.703950456e-12,1.342183420e-14,1.256372125e-13
1.3125,2.887161959e-12,8.150671052e-13,9.463372732e-13,2.660177400e-13,3.412511931e-14,2.703230683e-13,5.764854500e-13,1.870157691e-14,1.941513612e-14,1.636176577e-13,7.763407002e-13,1.335489790e-13,4.150631617e-14,1.224088114e-13,4.139827423e-13,8.033136344e-13,7.735570279e-13,5.879359436e-13,5.284214292e-13,1.015252497e-12,5.776087816e-13,2.746226776e-14,6.337859302e-14,1.075096578e-12,1.001343649e-12,1.743597894e-14,4.724999765e-13,1.701940045e-12,1.352834908e-12,3.205424882e-12,1.038354002e-14,1.380565310e-13
1.3203,3.015562623e-12,9.248312628e-13,1.025156983e-12,3.232938162e-13,3.837678120e-14,3.560916008e-13,5.268602401e-13,2.045536951e-14,1.914766066e-14,1.687648814e-13,7.693055728e-13,1.422364680e-13,4.101736967e-14,1.254124536e-13,4.056780143e-13,7.728206650e-13,7.300829043e-13,5.369079694e-13,4.973921814e-13,9.628088557e-13,5.551999905e-13,3.240592007e-14,6.587243775e-14,1.095457533e-12,1.072858593e-12,1.860893477e-14,5.006683319e-13,1.855587454e-12,1.375141365e-12,3.484806220e-12,8.141583844e-15,1.494629339e-13
1.3281,2.988750234e-12,9.899453932e-13,1.081793718e-12,3.753837094e-13,4.388598407e-14,4.438666877e-13,4.919877033e-13,2.412366858e-14,1.890156946e-14,1.835715922e-13,7.941946503e-13,1.625983874e-13,4.017038958e-14,1.286937740e-13,4.072113391e-13,7.528088969e-13,7.025994503e-13,4.931543058e-13,4.695763094e-13,9.269546301e-13,5.409767657e-13,3.792929596e-14,6.235509547e-14,1.108271115e-12,1.108345405e-12,2.054431313e-14,5.165540893e-13,1.894238159e-12,1.327365686e-12,3.536819336e-12,6.451274430e-15,1.516033442e-13
1.3359,2.854544768e-12,1.007864516e-12,1.100640653e-12,4.099773135e-13,4.785379887e-14,5.110224968e-13,4.700655130e-13,2.788463186e-14,2.071299776e-14,2.003264671e-13,8.197608605e-13,1.869915350e-13,4.582813310e-14,1.362194006e-13,4.101533391e-13,7.276697229e-13,6.776420895e-13,4.538439155e-13,4.436233771e-13,8.895153426e-13,5.241510586e-13,4.678057131e-14,5.586383994e-14,1.084673147e-12,1.087831031e-12,2.116086442e-14,5.101154274e-13,1.827834284e-12,1.229134987e-12,3.469674118e-12,5.219930178e-15,1.501458989e-13
1.3438,2.591210245e-12,9.614476274e-13,1.060759672e-12,4.224891896e-13,4.830383062e-14,5.429488187e-13,4.434337797e-13,3.005507128e-14,2.556625201e-14,2.064433399e-13,8.006463558e-13,2.028556642e-13,5.222700186e-14,1.547967802e-13,3.867251541e-13,6.569679077e-13,6.163329240e-13,4.069086029e-13,4.148205371e-13,8.019241746e-13,4.895666516e-13,5.819422414e-14,5.384388560e-14,9.763122996e-13,1.000203365e-12,1.979963315e-14,4.759005882e-13,1.679938011e-12,1.072676343e-12,3.170174109e-12,4.492587033e-15,1.488788683e-13
1.3516,2.230640657e-12,8.864089653e-13,9.823140953e-13,4.146290316e-13,4.714336268e-14,5.477689520e-13,4.199310634e-13,3.569736565e-14,3.419182759e-14,2.128351910e-13,7.930614841e-13,2.194192822e-13,5.966357642e-14,1.814681972e-13,3.652289013e-13,5.901887523e-13,5.637352453e-13,3.698015483e-13,3.923040411e-13,7.302264258e-13,4.559597812e-13,7.186289932e-14,5.068471127e-14,8.488467615e-13,8.760651600e-13,1.815181127e-14,4.245857440e-13,1.457924393e-12,8.973405854e-13,2.640843477e-12,4.102776674e-15,1.400151567e-13
1.3594,1.883543983e-12,8.097216574e-13,8.916975364e-13,3.909917081e-13,4.512119419e-14,5.237415571e-13,4.081248550e-13,4.856953128e-14,4.738357473e-14,2.185391523e-13,7.859035047e-13,2.317904297e-13,7.698712487e-14,2.217002488e-13,3.516400083e-13,5.404123509e-13,5.298433304e-13,3.411232803e-13,3.688639915e-13,6.829835067e-13,4.229178573e-13,9.153832201e-14,4.205449564e-14,7.295610017e-13,7.318815669e-13,1.660867459e-14,3.607094033e-13,1.192112580e-12,7.487357578e-13,2.095986788e-12,4.049075151e-15,1.273938783e-13
1.3672,1.514584708e-12,7.473220061e-13,7.610888491e-13,3.466423153e-13,4.041114056e-14,4.552832099e-13,3.671762485e-13,5.691351111e-14,6.379283414e-14,2.016793192e-13,7.059217076e-13,2.204056694e-13,9.710781371e-14,2.787454753e-13,3.100364617e-13,4.613209088e-13,4.613151490e-13,2.993916319e-13,3.303444300e-13,5.951439691e-13,3.688515332e-13,1.141442615e-13,3.582256154e-14,5.856436133e-13,5.723927139e-13,1.440294631e-14,2.934177379e-13,9.299863944e-13,6.366147610e-13,1.632035697e-12,4.344283645e-15,1.178956833e-13
1.375,1.161079916e-12,7.408611617e-13,6.272353946e-13,2.953485110e-13,3.510128753e-14,3.684244711e-13,3.198345351e-13,5.432105418e-14,8.092365115e-14,1.734768868e-13,6.121487072e-13,1.951123506e-13,1.100766308e-13,3.375940957e-13,2.565779318e-13,3.795364580e-13,3.850765774e-13,2.560568359e-13,2.832655481e-13,5.006074677e-13,3.085557707e-13,1.352903538e-13,3.414563248e-14,4.526438639e-13,4.264897736e-13,1.226778425e-14,2.378213711e-13,7.015143234e-13,5.659861488e-13,1.203190761e-12,4.211722381e-15,1.077973926e-13
1.3828,8.927336581e-13,8.070470085e-13,5.279102636e-13,2.465098113e-13,3.073234200e-14,2.896514240e-13,2.862307614e-13,5.545721666e-14,9.704352507e-14,1.490855768e-13,5.490162848e-13,1.701278190e-13,1.224605641e-13,3.890604269e-13,2.172805791e-13,3.292173822e-13,3.358501981e-13,2.244446978e-13,2.349109280e-13,4.413349808e-13,2.593619662e-13,1.541373843e-13,3.088268416e-14,3.693321587e-13,3.110404178e-13,1.100225138e-14,1.992918739e-13,4.983014704e-13,5.500523797e-13,8.707491734e-13,3.760341292e-15,9.647156254e-14
1.3906,7.083657683e-13,9.351098432e-13,4.425436872e-13,1.968073647e-13,2.602848586e-14,2.192913433e-13,2.462611533e-13,6.295642634e-14,1.093063714e-13,1.228293466e-13,4.905914094e-13,1.428589596e-13,1.370719987e-13,4.292614919e-13,1.859470773e-13,2.938565637e-13,2.954586060e-13,1.993452329e-13,1.876321220e-13,3.828540089e-13,2.152660328e-13,1.675785642e-13,2.711936483e-14,3.243927405e-13,2.303992881e-13,1.107064601e-14,1.800204687e-13,3.435724829e-13,5.765010180e-13,6.935132441e-13,4.002669613e-15,9.012317725e-14
1.3984,6.039209892e-13,1.133322360e-12,3.841293508e-13,1.537223266e-13,2.152038828e-14,1.626262776e-13,2.129621407e-13,6.042950330e-14,1.143085192e-13,9.795597627e-14,4.649902189e-13,1.159902218e-13,1.386775320e-13,4.445850880e-13,1.636421540e-13,2.789122336e-13,2.700310057e-13,1.869726483e-13,1.481269131e-13,3.367887913e-13,1.836837406e-13,1.699010603e-13,2.643912918e-14,3.210966283e-13,1.842440283e-13,1.170791820e-14,1.820379310e-13,2.399344971e-13,6.205850149e-13,5.764096947e-13,4.418767765e-15,8.536236286e-14
1.4062,5.782878819e-13,1.370172163e-12,3.699512408e-13,1.259457198e-13,1.839218211e-14,1.296249904e-13,2.004199315e-13,4.884179335e-14,1.110836999e-13,8.608321996e-14,5.035271600e-13,1.012353398e-13,1.250384834e-13,4.222012350e-13,1.651128065e-13,3.029197437e-13,2.830969424e-13,1.991454583e-13,1.269047443e-13,3.387995366e-13,1.770164683e-13,1.608990633e-13,2.971624211e-14,3.644728633e-13,1.680283570e-13,1.214809678e-14,1.961766390e-13,1.714826747e-13,6.724537993e-13,5.119216654e-13,4.923922854e-15,7.901305153e-14
1.4141,5.959516295e-13,1.588404760e-12,3.762618681e-13,1.144658581e-13,1.713590791e-14,1.199214866e-13,1.900102658e-13,4.343228255e-14,1.017714212e-13,8.352784043e-14,5.593940258e-13,9.801377569e-14,1.119503156e-13,3.751487573e-13,1.782482976e-13,3.330345467e-13,3.092912709e-13,2.251635626e-13,1.260890010e-13,3.662436548e-13,1.880840377e-13,1.460125198e-13,3.392203429e-14,4.241491066e-13,1.691541815e-13,1.266330919e-14,2.145323961e-13,1.313434505e-13,7.198921147e-13,5.505487147e-13,6.016292963e-15,7.569093872e-14
1.4219,6.266798242e-13,1.759538576e-12,4.007045865e-13,1.213187451e-13,1.750282357e-14,1.290409007e-13,1.779685392e-13,4.304328980e-14,8.826993141e-14,9.000159979e-14,6.359030498e-13,1.066993794e-13,1.010406943e-13,3.164240402e-13,2.021031655e-13,3.675088967e-13,3.478106444e-13,2.654417113e-13,1.448342198e-13,4.194048842e-13,2.158742815e-13,1.260092977e-13,3.448830472e-14,5.012899043e-13,1.816747360e-13,1.334495135e-14,2.334738141e-13,1.182545021e-13,7.384488648e-13,6.119336424e-13,6.953764170e-15,7.438555744e-14
1.4297,6.396763671e-13,1.858208712e-12,4.518572083e-13,1.481083607e-13,2.023075930e-14,1.497136795e-13,1.716468215e-13,3.619295591e-14,7.072502570e-14,1.036442528e-13,7.341378737e-13,1.231022673e-13,8.096229917e-14,2.463677463e-13,2.375144050e-13,4.187451234e-13,4.091220907e-13,3.229020307e-13,1.808824254e-13,5.117740646e-13,2.599793351e-13,1.010690861e-13,3.536474524e-14,5.942873733e-13,1.975872522e-13,1.324265436e-14,2.431588071e-13,1.171106205e-13,7.094206094e-13,6.750560374e-13,6.977414476e-15,7.136367627e-14
1.4375,6.197716394e-13,1.838502616e-12,4.989753207e-13,1.864042013e-13,2.427824388e-14,1.684000969e-13,1.634934395e-13,2.594441368e-14,5.279030935e-14,1.113274525e-13,7.827068330e-13,1.346653835e-13,5.827745733e-14,1.786329936e-13,2.606993063e-13,4.492467565e-13,4.544472622e-13,3.722143239e-13,2.213881521e-13,5.926709803e-13,2.997911406e-13,7.838918406e-14,3.973175702e-14,6.594217494e-13,2.068878028e-13,1.229332883e-14,2.391886406e-13,1.322999737e-13,6.565174037e-13,8.387377688e-13,7.157599637e-15,7.228485798e-14
1.4453,5.563996142e-13,1.697686917e-12,5.300871464e-13,2.309263917e-13,2.842997769e-14,1.829480583e-13,1.473646653e-13,2.208346794e-14,3.755801060e-14,1.125297574e-13,7.774104861e-13,1.444941603e-13,4.378076189e-14,1.251041372e-13,2.715056002e-13,4.555395154e-13,4.806814833e-13,4.153685272e-13,2.648130634e-13,6.552949229e-13,3.336609060e-13,5.994674913e-14,4.157221872e-14,7.011608742e-13,2.120717580e-13,1.122169476e-14,2.278221731e-13,1.677907285e-13,5.800701954e-13,1.026874279e-12,7.547477423e-15,7.741249907e-14
1.4531,4.579940313e-13,1.469424935e-12,5.610785838e-13,2.711565340e-13,3.162815359e-14,1.934906729e-13,1.429873582e-13,2.252342884e-14,2.549070591e-14,1.181689143e-13,7.783537278e-13,1.603501489e-13,3.508542839e-14,8.577325593e-14,2.936332305e-13,4.817710871e-13,5.268726715e-13,4.694901872e-13,3.120482543e-13,7.387457427e-13,3.707457875e-13,4.431249107e-14,3.990520280e-14,7.518165911e-13,2.212749204e-13,1.037558090e-14,2.136344593e-13,2.196271577e-13,4.777726315e-13,1.138884766e-12,7.789288812e-15,8.146864522e-14
1.4609,3.644799014e-13,1.202434479e-12,5.712794301e-13,2.929154200e-13,3.360250859e-14,1.871321178e-13,1.478678187e-13,1.964067140e-14,1.635829782e-14,1.184659533e-13,7.674901090e-13,1.729859449e-13,2.674765682e-14,5.742096612e-14,3.230280638e-13,5.222712545e-13,5.762354881e-13,5.213793131e-13,3.557413781e-13,8.117113665e-13,4.043193716e-13,3.207979546e-14,4.269835092e-14,8.005078292e-13,2.364605055e-13,1.026911491e-14,2.038879967e-13,2.990585090e-13,3.845055965e-13,1.321276413e-12,8.241974917e-15,8.665045171e-14
1.4688,2.823702350e-13,9.134286112e-13,5.329443723e-13,2.949041101e-13,3.388807302e-14,1.664966847e-13,1.573692302e-13,1.422264121e-14,1.105076237e-14,1.071168762e-13,7.117643190e-13,1.781726804e-13,2.202693210e-14,4.428592261e-14,3.446309337e-13,5.499150170e-13,6.005828287e-13,5.576115339e-13,3.876304631e-13,8.395906274e-13,4.251039584e-13,2.473123635e-14,4.725251448e-14,8.287768414e-13,2.581796378e-13,1.125005042e-14,2.044232049e-13,3.955735364e-13,3.160193013e-13,1.523998914e-12,9.188905057e-15,9.268598267e-14
1.4766,2.345933385e-13,6.570502467e-13,4.850534282e-13,2.797114079e-13,3.226935714e-14,1.457839001e-13,1.794196042e-13,1.207082888e-14,9.303248363e-15,1.006077492e-13,6.804207447e-13,1.896262728e-13,2.527872915e-14,4.480371185e-14,3.769758600e-13,5.996094498e-13,6.351180635e-13,5.939409994e-13,4.116056760e-13,8.766351734e-13,4.450152317e-13,2.187259548e-14,4.671278242e-14,8.716269443e-13,2.912475602e-13,1.336965509e-14,2.180979822e-13,4.767376927e-13,2.665409873e-13,1.554984112e-12,1.009535357e-14,9.348317876e-14
1.4844,2.152227259e-13,4.554954081e-13,4.262972683e-13,2.521474118e-13,3.061746457e-14,1.277449997e-13,1.979798818e-13,1.305538456e-14,1.046469292e-14,9.750582192e-14,6.741986358e-13,2.043131226e-13,3.291857750e-14,5.536924922e-14,4.192603376e-13,6.660997417e-13,6.765868656e-13,6.291783585e-13,4.304029443e-13,9.250134240e-13,4.663516257e-13,2.271387396e-14,4.840155534e-14,9.243295761e-13,3.336919657e-13,1.640112034e-14,2.440597385e-13,5.525034255e-13,2.467606989e-13,1.502607268e-12,1.049942757e-14,8.925715446e-14
1.4922,2.353965607e-13,3.201220443e-13,3.537839463e-13,2.181026869e-13,2.965543120e-14,1.144990177e-13,2.041729942e-13,1.205420058e-14,1.395061359e-14,8.760531850e-14,6.282744293e-13,2.030190403e-13,3.903508574e-14,7.865800190e-14,4.332341296e-13,6.878424690e-13,6.710341371e-13,6.298198947e-13,4.256712239e-13,9.169980426e-13,4.662586259e-13,2.879222626e-14,5.182507695e-14,9.343037348e-13,3.730799188e-13,1.920276137e-14,2.761366146e-13,6.114052763e-13,2.587333369e-13,1.504824375e-12,1.082593234e-14,8.521112114e-14
1.5,2.959978595e-13,2.495451642e-13,2.962787754e-13,1.951249689e-13,2.960549990e-14,1.157976135e-13,2.123858335e-13,8.411763494e-15,1.885785890e-14,7.966383570e-14,5.751490815e-13,1.954176571e-13,4.622253979e-14,1.125907831e-13,4.257347674e-13,6.816321721e-13,6.385649876e-13,6.046419723e-13,4.017940408e-13,8.836861877e-13,4.497816576e-13,3.941399725e-14,4.935179680e-14,9.189516232e-13,4.109094062e-13,2.182171651e-14,3.115229918e-13,6.166076981e-13,2.776172223e-13,1.389720800e-12,1.106416101e-14,7.915472024e-14
1.5078,4.040275320e-13,2.400989283e-13,2.731658022e-13,1.833429548e-13,3.060166640e-14,1.287526702e-13,2.248361028e-13,6.324235830e-15,2.489689339e-14,7.843952559e-14,5.375588750e-13,1.863425003e-13,5.706713892e-14,1.550753133e-13,4.070827304e-13,6.627925837e-13,5.991533719e-13,5.644816492e-13,3.662431047e-13,8.499481395e-13,4.241123014e-13,5.346502606e-14,4.448895022e-14,8.876392995e-13,4.454927874e-13,2.380552415e-14,3.481768701e-13,5.804771443e-13,3.140364915e-13,1.126825462e-12,1.035748073e-14,7.124742046e-14
1.5156,5.818381929e-13,2.805563152e-13,2.907576508e-13,1.825412848e-13,3.222647477e-14,1.477203908e-13,2.352308456e-13,6.580719284e-15,3.105639651e-14,7.527315166e-14,4.738805816e-13,1.636937324e-13,6.534924068e-14,1.988127775e-13,3.657908066e-13,5.990432086e-13,5.299316416e-13,4.977340400e-13,3.184242916e-13,7.703220567e-13,3.812909315e-13,6.961610625e-14,4.371774931e-14,8.174439986e-13,4.689721085e-13,2.416944713e-14,3.832278045e-13,5.540502996e-13,3.720432718e-13,9.529007376e-13,9.010280321e-15,6.758999736e-14
1.5234,8.493287389e-13,3.645070774e-13,3.575835659e-13,1.932736241e-13,3.283208619e-14,1.752005701e-13,2.631182300e-13,6.458345919e-15,3.545642243e-14,7.558318510e-14,3.999728172e-13,1.307020831e-13,6.456621966e-14,2.358087242e-13,3.013381624e-13,4.944617684e-13,4.317473317e-13,4.063977216e-13,2.586317549e-13,6.441295395e-13,3.217300405e-13,8.374195501e-14,4.326083979e-14,7.170730594e-13,4.828825754e-13,2.344069849e-14,4.152787285e-13,5.237529546e-13,4.208876238e-13,8.526165617e-13,7.734420069e-15,6.737763388e-14
1.5312,1.216605854e-12,4.792473385e-13,4.723086981e-13,2.088400819e-13,3.146629128e-14,2.042201097e-13,3.091496685e-13,5.160943020e-15,3.692604112e-14,8.421901239e-14,3.631918845e-13,1.036154771e-13,6.092042909e-14,2.578047002e-13,2.447585458e-13,4.062217946e-13,3.581322249e-13,3.270361333e-13,2.096307412e-13,5.391014506e-13,2.756651456e-13,9.205188210e-14,4.580103121e-14,6.433522466e-13,4.990731387e-13,2.286381389e-14,4.476608612e-13,5.054109559e-13,4.657845503e-13,7.627265090e-13,6.482486630e-15,6.773016101e-14
1.5391,1.672937042e-12,6.095780827e-13,6.209581199e-13,2.216135059e-13,2.956807145e-14,2.252871864e-13,3.584084564e-13,4.008870727e-15,3.710293253e-14,9.036921563e-14,3.472535846e-13,8.279518186e-14,5.928270686e-14,2.641906310e-13,2.082283394e-13,3.422612401e-13,3.077283246e-13,2.660418650e-13,1.782279341e-13,4.502443524e-13,2.456399029e-13,9.632099648e-14,5.578119944e-14,6.006276275e-13,5.141143077e-13,2.297972661e-14,4.799468703e-13,5.388611980e-13,5.304319688e-13,8.050664544e-13,5.173609307e-15,7.050717480e-14
1.5469,2.145257101e-12,7.451187741e-13,7.919292916e-13,2.316355234e-13,2.649420195e-14,2.417008536e-13,4.139866184e-13,4.455434712e-15,3.530538396e-14,9.657871251e-14,3.516226337e-13,6.615602506e-14,5.325406396e-14,2.535037770e-13,1.881012124e-13,2.997308452e-13,2.767658448e-13,2.212705446e-13,1.627725879e-13,3.694659794e-13,2.327322918e-13,9.458766127e-14,6.993163638e-14,5.944180451e-13,5.305370427e-13,2.366527206e-14,5.055332782e-13,6.100882761e-13,5.841697124e-13,9.367470372e-13,3.963684521e-15,7.362920470e-14
1.5547,2.587839844e-12,8.523189271e-13,9.473033543e-13,2.378790707e-13,2.215169367e-14,2.526695918e-13,4.606886790e-13,5.997936101e-15,2.989738937e-14,1.067620288e-13,3.947345905e-13,5.940659499e-14,4.179735966e-14,2.227637934e-13,1.909704087e-13,3.004300295e-13,2.874505968e-13,2.083820698e-13,1.702631567e-13,3.386838647e-13,2.507801567e-13,8.297881029e-14,8.766428021e-14,6.555574338e-13,5.591695588e-13,2.627878299e-14,5.238718447e-13,6.979091254e-13,5.998022796e-13,1.093123041e-12,3.109381603e-15,7.144593131e-14
1.5625,2.957026025e-12,9.182132143e-13,1.050225437e-12,2.369869712e-13,1.905043958e-14,2.486321175e-13,4.714913179e-13,6.100107263e-15,2.412133699e-14,1.087964136e-13,4.342671193e-13,5.753274517e-14,3.297467371e-14,1.876843249e-13,2.086612988e-13,3.284397852e-13,3.199389728e-13,2.137324848e-13,1.886225736e-13,3.436352500e-13,2.850911910e-13,6.916085900e-14,1.097902318e-13,7.550731578e-13,5.916714896e-13,3.086046716e-14,5.316549926e-13,8.084708408e-13,6.152348300e-13,1.391853976e-12,2.798563828e-15,6.718634996e-14
1.5703,3.130697585e-12,9.238726605e-13,1.083694487e-12,2.311770047e-13,1.737560375e-14,2.315360826e-13,4.476452259e-13,4.740068249e-15,1.954179275e-14,1.000585778e-13,4.479422888e-13,5.737407923e-14,2.787431654e-14,1.560472347e-13,2.352745020e-13,3.708710148e-13,3.611592938e-13,2.294533608e-13,2.117889343e-13,3.673457677e-13,3.279791271e-13,5.741462969e-14,1.309143260e-13,8.685130619e-13,6.191064735e-13,3.592483021e-14,5.219308476e-13,9.066568779e-13,6.180439682e-13,1.678463602e-12,2.793088626e-15,6.282498692e-14
1.5781,3.080645024e-12,8.747469582e-13,1.047529344e-12,2.244653645e-13,1.700739215e-14,2.109828284e-13,4.122863990e-13,4.623357889e-15,1.604690869e-14,9.145937461e-14,4.656239464e-13,6.122326294e-14,2.515786953e-14,1.314927120e-13,2.684977114e-13,4.261318696e-13,4.155612540e-13,2.546911618e-13,2.362259383e-13,4.162903440e-13,3.769998605e-13,4.793484565e-14,1.440592875e-13,9.905070691e-13,6.430662857e-13,4.133321766e-14,4.976316339e-13,9.470814612e-13,5.690105850e-13,1.692275600e-12,3.134541970e-15,5.552648489e-14
1.5859,2.843593868e-12,7.885762575e-13,9.477547343e-13,2.175689235e-13,1.875450435e-14,1.894382764e-13,3.635237785e-13,5.404179943e-15,1.429031934e-14,8.107964851e-14,4.598369313e-13,6.179253621e-14,2.462703977e-14,1.210847274e-13,2.866348953e-13,4.651901860e-13,4.559967169e-13,2.700987540e-13,2.492326517e-13,4.631296048e-13,4.128766746e-13,4.247829563e-14,1.507061474e-13,1.081264945e-12,6.541317803e-13,4.666063030e-14,4.641780806e-13,9.364503445e-13,5.043601965e-13,1.642389540e-12,4.188343933e-15,4.846950377e-14
1.5938,2.441293885e-12,6.755999917e-13,7.888428073e-13,2.109028173e-13,2.164197972e-14,1.659839242e-13,3.076344416e-13,4.630379951e-15,1.461946584e-14,6.372225381e-14,4.041093603e-13,5.525030102e-14,2.494423394e-14,1.247350516e-13,2.817998269e-13,4.700832942e-13,4.634695253e-13,2.675982093e-13,2.442709271e-13,4.812913019e-13,4.193045291e-13,4.246865792e-14,1.514601482e-13,1.102014950e-12,6.344219370e-13,4.972051499e-14,4.169460755e-13,8.861378840e-13,4.492311453e-13,1.641133513e-12,5.168762425e-15,4.603002788e-14
1.6016,1.965920640e-12,5.821885388e-13,6.321777167e-13,2.153450963e-13,2.464074629e-14,1.568846415e-13,2.778180282e-13,3.423877983e-15,1.606423775e-14,4.891073220e-14,3.424060617e-13,4.921384973e-14,2.514159351e-14,1.384237678e-13,2.649416769e-13,4.531096196e-13,4.489588555e-13,2.570319329e-13,2.289780356e-13,4.827712174e-13,4.083474462e-13,4.547700129e-14,1.421812674e-13,1.065363387e-12,5.915382742e-13,5.003945747e-14,3.641480334e-13,7.787964225e-13,3.843133329e-13,1.462366801e-12,5.821999248e-15,4.681181713e-14
1.6094,1.506139851e-12,5.355117702e-13,5.052812791e-13,2.285739687e-13,2.844580730e-14,1.591918808e-13,2.739687182e-13,3.405154653e-15,1.848810749e-14,4.036883945e-14,2.966465318e-13,4.633774267e-14,2.689993495e-14,1.561199405e-13,2.427378228e-13,4.247199189e-13,4.218478682e-13,2.411071413e-13,2.070558656e-13,4.712267535e-13,3.817453449e-13,5.083530690e-14,1.236602391e-13,9.875260351e-13,5.327613970e-13,4.888036655e-14,3.155273806e-13,6.391020155e-13,3.242017348e-13,1.141496816e-12,7.055668306e-15,5.130610590e-14
1.6172,1.127263619e-12,5.381894371e-13,4.119041445e-13,2.439005755e-13,3.249787283e-14,1.655046886e-13,2.891352001e-13,3.591828499e-15,2.135921017e-14,3.424017305e-14,2.511720917e-13,4.477120439e-14,2.925433499e-14,1.710370949e-13,2.114934958e-13,3.785963770e-13,3.781675180e-13,2.191498664e-13,1.790347284e-13,4.335289982e-13,3.312676095e-13,5.663595222e-14,1.014715790e-13,8.573858039e-13,4.505088690e-13,4.532675333e-14,2.659060748e-13,5.044195347e-13,2.944062489e-13,9.356143968e-13,8.299722286e-15,5.964390630e-14
1.625,8.610720201e-13,5.897438387e-13,3.646940973e-13,2.633078417e-13,3.444801140e-14,1.767049310e-13,3.226883712e-13,4.166540581e-15,2.315194172e-14,3.225470337e-14,2.231309379e-13,4.805435684e-14,2.933268060e-14,1.786618573e-13,1.832506690e-13,3.288067293e-13,3.310740672e-13,2.012962190e-13,1.535440040e-13,3.859424278e-13,2.732758475e-13,5.835492152e-14,8.041024375e-14,7.060607975e-13,3.612729936e-13,3.970568005e-14,2.210353840e-13,3.952791278e-13,2.785226816e-13,8.456252027e-13,8.927808530e-15,6.707951448e-14
1.6328,7.153283231e-13,6.742287173e-13,3.552180583e-13,2.796264820e-13,3.497305964e-14,1.836827678e-13,3.559171099e-13,5.683902884e-15,2.354708210e-14,3.362912572e-14,2.242200481e-13,5.627301025e-14,2.751960025e-14,1.748921514e-13,1.691855218e-13,2.953546068e-13,3.025060768e-13,1.965573159e-13,1.366733799e-13,3.517381848e-13,2.210098720e-13,5.566311605e-14,5.791567311e-14,5.678686647e-13,2.783841544e-13,3.313511030e-14,1.842075745e-13,3.104031751e-13,2.639442048e-13,8.359203649e-13,1.013303976e-14,7.150037634e-14
1.6406,6.686422102e-13,7.491835670e-13,3.618547159e-13,2.760968858e-13,3.478142537e-14,1.769512094e-13,3.777070082e-13,6.364616071e-15,2.305358836e-14,3.500857144e-14,2.373645660e-13,6.590957197e-14,2.707526671e-14,1.605270654e-13,1.661239368e-13,2.759204934e-13,2.921188618e-13,1.994593148e-13,1.272211919e-13,3.241778174e-13,1.759833480e-13,5.191060008e-14,3.877903042e-14,4.516817392e-13,2.073843941e-13,2.730646918e-14,1.534706421e-13,2.651533436e-13,2.657399452e-13,9.424438405e-13,1.210282802e-14,7.385697490e-14
1.6484,6.801136932e-13,8.012820541e-13,3.724734961e-13,2.584468557e-13,3.224571148e-14,1.612809426e-13,3.931817344e-13,6.064856077e-15,2.152932800e-14,3.723965227e-14,2.618207595e-13,7.665990630e-14,2.849555406e-14,1.400588563e-13,1.721595762e-13,2.663094186e-13,2.959951509e-13,2.085106883e-13,1.233854471e-13,3.050279411e-13,1.383584217e-13,4.653071936e-14,2.465987381e-14,3.566945257e-13,1.479110319e-13,2.170713160e-14,1.240482149e-13,2.464754787e-13,2.667336895e-13,1.041830643e-12,1.356063343e-14,7.225604826e-14
1.6562,7.013232335e-13,8.147388537e-13,3.767526211e-13,2.297641774e-13,2.717466971e-14,1.393670591e-13,4.015492780e-13,6.329035023e-15,1.856058769e-14,4.088321294e-14,2.947561679e-13,8.722105624e-14,3.013520945e-14,1.196733013e-13,1.837434128e-13,2.680205442e-13,3.162388167e-13,2.245335048e-13,1.258673553e-13,3.022770162e-13,1.144184209e-13,3.919610583e-14,1.454127760e-14,2.904590270e-13,1.037565336e-13,1.662026243e-14,9.874701784e-14,2.330180901e-13,2.427261844e-13,1.142791754e-12,1.503948803e-14,6.498918077e-14
1.6641,7.176364993e-13,7.805681970e-13,3.686983873e-13,1.925022073e-13,2.227931885e-14,1.156982227e-13,4.039635586e-13,6.664117143e-15,1.498616404e-14,4.247278724e-14,3.168490285e-13,9.133913149e-14,3.103746386e-14,1.034296119e-13,1.936285053e-13,2.709534293e-13,3.367029694e-13,2.332119549e-13,1.264195752e-13,2.974576517e-13,9.753870953e-14,3.390811366e-14,8.142054073e-15,2.458555208e-13,7.482714278e-14,1.300090988e-14,7.706749694e-14,2.240448699e-13,2.138163131e-13,1.350408068e-12,1.678445710e-14,5.641852230e-14
1.6719,6.924801012e-13,7.108740793e-13,3.450141938e-13,1.559875438e-13,1.820710616e-14,9.384810859e-14,3.978557546e-13,5.466033004e-15,1.177518226e-14,4.163544944e-14,3.174577762e-13,8.903669118e-14,3.242356759e-14,9.645546659e-14,1.952903247e-13,2.646438848e-13,3.451976448e-13,2.322306769e-13,1.244998158e-13,2.845902992e-13,8.565310473e-14,3.064455962e-14,4.898271485e-15,2.115248953e-13,5.688905614e-14,1.031306232e-14,5.786733050e-14,2.178211843e-13,1.965741342e-13,1.442883186e-12,1.728192101e-14,4.804897411e-14
1.6797,6.276254365e-13,6.086371880e-13,3.182441696e-13,1.263307572e-13,1.403496330e-14,7.842768147e-14,3.964492354e-13,3.840111362e-15,8.945723831e-15,4.248632993e-14,3.059108916e-13,8.353192825e-14,3.473897457e-14,1.023878470e-13,1.815433433e-13,2.411310596e-13,3.314083256e-13,2.162231864e-13,1.160756175e-13,2.612827352e-13,7.606387212e-14,2.976040755e-14,4.118384691e-15,1.810429157e-13,4.961425819e-14,8.847195793e-15,4.333507518e-14,2.007700317e-13,1.809234563e-13,1.310808511e-12,1.693939983e-14,4.018235528e-14
1.6875,5.523113440e-13,4.983770596e-13,2.944137025e-13,1.067697305e-13,1.145411986e-14,6.855850330e-14,3.885311394e-13,3.278938360e-15,6.749045612e-15,4.219367589e-14,2.818584529e-13,7.421503572e-14,3.645440040e-14,1.164024902e-13,1.587919342e-13,2.086332987e-13,3.016873769e-13,1.901380856e-13,1.029945278e-13,2.294734358e-13,6.697227903e-14,3.057061461e-14,4.594830766e-15,1.540431381e-13,5.197589502e-14,7.483126156e-15,3.341716219e-14,1.822162391e-13,1.671511163e-13,1.214937125e-12,1.588218356e-14,3.410930499e-14
1.6953,4.976281636e-13,3.889991155e-13,2.696370547e-13,9.336996414e-14,1.032625666e-14,5.934280702e-14,3.748054557e-13,2.712171902e-15,5.287143826e-15,4.150529977e-14,2.430428881e-13,6.164761252e-14,3.622646590e-14,1.354337888e-13,1.346620579e-13,1.738534204e-13,2.609611819e-13,1.583612701e-13,8.846328660e-14,1.935431238e-13,6.043435464e-14,3.168154347e-14,6.218599447e-15,1.338870513e-13,6.510355956e-14,6.364407534e-15,2.961160290e-14,1.815453817e-13,1.709354033e-13,1.183571405e-12,1.446169226e-14,3.063307253e-14
1.7031,4.679977248e-13,2.905389786e-13,2.533851632e-13,8.490439814e-14,9.206207772e-15,5.241251136e-14,3.658836950e-13,2.125202789e-15,4.626307568e-15,4.414112176e-14,2.044202810e-13,5.002252448e-14,3.451621438e-14,1.571098681e-13,1.086241869e-13,1.371037187e-13,2.116531493e-13,1.240258816e-13,7.318629559e-14,1.599646730e-13,5.762159782e-14,3.265137748e-14,9.109352692e-15,1.207257852e-13,9.023020373e-14,5.932294710e-15,3.264338369e-14,2.031332364e-13,2.045863884e-13,1.059760970e-12,1.294190801e-14,2.894548855e-14
1.7109,4.887553579e-13,2.106286868e-13,2.474607117e-13,8.088926652e-14,8.635240471e-15,4.661061937e-14,3.631013991e-13,2.360363779e-15,4.467984218e-15,5.009673487e-14,1.789035532e-13,4.210428234e-14,3.206727767e-14,1.713890025e-13,8.579404724e-14,1.089435419e-13,1.675031561e-13,9.626543719e-14,6.203191473e-14,1.396240850e-13,6.137710696e-14,3.272217064e-14,1.296051455e-14,1.200276844e-13,1.271594638e-13,5.339952709e-15,4.184415618e-14,2.445583600e-13,2.559988715e-13,1.015852372e-12,1.129255035e-14,2.843272597e-14
1.7188,5.495808953e-13,1.526221797e-13,2.443509791e-13,7.677772914e-14,8.969003052e-15,3.980439044e-14,3.638165183e-13,2.772965674e-15,4.594376763e-15,5.861644259e-14,1.630318650e-13,3.725899887e-14,2.923644230e-14,1.763570759e-13,7.104899779e-14,9.440613964e-14,1.408730480e-13,8.106676828e-14,5.930953016e-14,1.390773608e-13,7.540316620e-14,3.117135050e-14,1.717407232e-14,1.360417881e-13,1.739192873e-13,4.456000440e-15,5.602668275e-14,3.021375729e-13,3.030404710e-13,1.133869745e-12,1.030850645e-14,2.906355981e-14
1.7266,6.079807891e-13,1.157869279e-13,2.400972370e-13,7.462247052e-14,9.758919559e-15,3.516196718e-14,3.738304515e-13,2.786420938e-15,4.467139647e-15,7.146222328e-14,1.632304505e-13,3.823875035e-14,2.625440294e-14,1.731928846e-13,6.794244265e-14,9.523308971e-14,1.380758179e-13,8.181422554e-14,6.654650715e-14,1.593972349e-13,9.895834470e-14,2.778778319e-14,2.105919401e-14,1.611755242e-13,2.204026076e-13,3.964032830e-15,7.116714610e-14,3.540059742e-13,3.361327675e-13,1.222156140e-12,9.901860931e-15,3.037414415e-14
1.7344,6.613051092e-13,9.721962086e-14,2.385076093e-13,7.712552899e-14,1.131214535e-14,3.494463202e-14,3.903460942e-13,2.891603120e-15,4.140090478e-15,8.567305834e-14,1.796970308e-13,4.394652303e-14,2.399068356e-14,1.623336887e-13,7.488138013e-14,1.114616229e-13,1.595912163e-13,9.806169540e-14,8.340886450e-14,1.996503813e-13,1.320902204e-13,2.430711065e-14,2.624728877e-14,1.974328389e-13,2.694051466e-13,4.093487238e-15,8.902522043e-14,4.061590786e-13,3.729261425e-13,1.374018657e-12,9.451603855e-15,3.183333919e-14
1.7422,6.882712192e-13,9.333087534e-14,2.376406296e-13,8.543653700e-14,1.372198549e-14,3.981095641e-14,4.028785589e-13,3.323472394e-15,3.767120273e-15,9.710372181e-14,2.013659251e-13,5.239393115e-14,2.251676788e-14,1.435475927e-13,8.738279591e-14,1.364840151e-13,1.989764270e-13,1.268410914e-13,1.089103916e-13,2.498716192e-13,1.707814019e-13,2.035511944e-14,3.250517265e-14,2.359664511e-13,3.116772500e-13,4.722435413e-15,1.062630618e-13,4.468914990e-13,3.974586288e-13,1.621237685e-12,8.990802625e-15,3.355504966e-14
1.75,6.634960944e-13,9.781613063e-14,2.296211723e-13,9.814900859e-14,1.664183280e-14,4.924143643e-14,4.068781018e-13,3.686305431e-15,3.374669439e-15,1.068855636e-13,2.239424220e-13,6.318489943e-14,2.263839158e-14,1.226842921e-13,1.048375114e-13,1.664322207e-13,2.527430336e-13,1.652366501e-13,1.403894959e-13,2.996242413e-13,2.102320998e-13,1.658110990e-14,3.846528677e-14,2.628479373e-13,3.354667897e-13,5.613520015e-15,1.174463250e-13,4.482663434e-13,3.811232835e-13,1.699247795e-12,8.447548006e-15,3.507442649e-14
1.7578,5.980931934e-13,1.118066519e-13,2.236107185e-13,1.133949503e-13,2.041985421e-14,6.424400090e-14,4.070259778e-13,3.930474844e-15,2.876815324e-15,1.146361511e-13,2.518567246e-13,7.600299445e-14,2.471054721e-14,1.016887585e-13,1.330623775e-13,2.090680005e-13,3.240034282e-13,2.134073122e-13,1.756897965e-13,3.521646798e-13,2.474949347e-13,1.418881435e-14,4.379511840e-14,2.800585689e-13,3.415012189e-13,7.097519027e-15,1.223005242e-13,4.160496956e-13,3.423256295e-13,1.613204936e-12,7.615722580e-15,3.629236825e-14
1.7656,5.419991008e-13,1.290062484e-13,2.172884779e-13,1.275055398e-13,2.388816938e-14,8.162811921e-14,3.982812844e-13,4.179516913e-15,2.572415136e-15,1.179734289e-13,2.781148391e-13,8.746970411e-14,2.780284661e-14,8.172523591e-14,1.683565940e-13,2.587349073e-13,3.985970422e-13,2.605088251e-13,2.075455164e-13,3.972485457e-13,2.744368812e-13,1.364238951e-14,4.892933053e-14,2.859871538e-13,3.329047358e-13,9.599206094e-15,1.222132390e-13,3.733335511e-13,3.104200789e-13,1.563011251e-12,6.394412137e-15,3.753704127e-14
1.7734,5.081140747e-13,1.447175398e-13,2.059785454e-13,1.365649442e-13,2.474742445e-14,9.914867685e-14,3.901374528e-13,4.565348910e-15,2.841093908e-15,1.189449332e-13,2.948945616e-13,9.736640116e-14,3.187829669e-14,6.529833257e-14,2.053410578e-13,3.067847882e-13,4.589348918e-13,2.979221550e-13,2.296579243e-13,4.184729460e-13,2.823998643e-13,1.517048284e-14,5.110865863e-14,2.717317277e-13,3.035859988e-13,1.238851436e-14,1.134371872e-13,3.229002806e-13,2.827753103e-13,1.448460056e-12,5.223551362e-15,3.936032332e-14
1.7812,5.169756359e-13,1.597398038e-13,1.933107015e-13,1.413166686e-13,2.430891025e-14,1.172576397e-13,3.972180059e-13,5.572519167e-15,3.709505925e-15,1.227684680e-13,3.179627202e-13,1.098659310e-13,3.738724793e-14,5.118678311e-14,2.501903514e-13,3.604002381e-13,5.128088120e-13,3.301006958e-13,2.442393507e-13,4.269656014e-13,2.751718914e-13,1.859395106e-14,4.962960909e-14,2.438638510e-13,2.565354561e-13,1.423054769e-14,9.720973171e-14,2.686463891e-13,2.619301476e-13,1.166076969e-12,4.504763571e-15,4.120151370e-14
1.7891,5.961153505e-13,1.763584592e-13,1.853639154e-13,1.412644968e-13,2.410358346e-14,1.339764991e-13,4.226183733e-13,6.744273389e-15,4.984301734e-15,1.281503549e-13,3.439007783e-13,1.208369670e-13,4.257517287e-14,3.976055386e-14,2.922029348e-13,4.117431116e-13,5.521147807e-13,3.474595770e-13,2.479377804e-13,4.274060346e-13,2.543661062e-13,2.350898571e-14,4.478054277e-14,2.185515554e-13,2.078745483e-13,1.525705840e-14,8.241744654e-14,2.358246444e-13,2.744479598e-13,9.432127140e-13,3.770522083e-15,4.315410691e-14
