Time,Fp1,AF3,F7,F3,FC1,FC5,T7,C3,CP1,CP5,P7,P3,Pz,PO3,O1,Oz,O2,PO4,P4,P8,CP6,CP2,C4,T8,FC6,FC2,F4,F8,AF4,Fp2,Fz,Cz,
0,4.053305279e-09,3.640823405e-09,1.753391279e-08,9.429122772e-10,1.053779611e-10,1.409056131e-09,8.474044516e-10,1.456606290e-09,3.506058865e-11,3.710867342e-09,6.005705232e-11,8.396009229e-10,4.829792152e-10,6.577444876e-10,1.929887501e-09,9.484706104e-10,1.339919112e-09,1.287533753e-10,1.874328699e-11,3.422008509e-10,3.513156405e-11,1.692410956e-09,5.555168250e-09,1.187018114e-09,3.580990231e-09,6.533694316e-11,4.476566450e-09,5.196592900e-11,5.203224164e-10,2.344449365e-08,1.370588033e-09,1.554154640e-10
0.0078125,4.163987724e-09,3.733076370e-09,1.800337697e-08,9.649808947e-10,1.082212088e-10,1.446697408e-09,8.655107871e-10,1.495458305e-09,3.628690024e-11,3.808131622e-09,6.159871536e-11,8.626907056e-10,4.938974412e-10,6.764080373e-10,1.981340641e-09,9.743476016e-10,1.377173007e-09,1.317362100e-10,1.921607335e-11,3.510939739e-10,3.673165500e-11,1.736894688e-09,5.712679826e-09,1.219829060e-09,3.678661737e-09,6.771741098e-11,4.599007410e-09,5.253966935e-11,5.339732336e-10,2.405821300e-08,1.405701416e-09,1.606297493e-10
0.015625,3.945620945e-09,3.529547268e-09,1.704525820e-08,9.104101280e-10,1.024992318e-10,1.369754772e-09,8.153193526e-10,1.415823806e-09,3.481176994e-11,3.603829501e-09,5.832957091e-11,8.174006057e-10,4.662989237e-10,6.415893785e-10,1.875107961e-09,9.227473675e-10,1.304967725e-09,1.242780488e-10,1.820271128e-11,3.319986198e-10,3.577426013e-11,1.643826810e-09,5.417611996e-09,1.156335732e-09,3.486027076e-09,6.483477118e-11,4.357157889e-09,4.964885272e-11,5.052830197e-10,2.276623431e-08,1.329420840e-09,1.533564482e-10
0.023438,3.460095631e-09,3.083926569e-09,1.492476340e-08,7.932553908e-10,8.995787783e-11,1.199582827e-09,7.098400100e-10,1.240068799e-09,3.100968512e-11,3.154756846e-09,5.114874525e-11,7.172736537e-10,4.054441198e-10,5.641332486e-10,1.642626510e-09,8.094741731e-10,1.145322683e-09,1.083397770e-10,1.585022368e-11,2.905103562e-10,3.236138067e-11,1.438461044e-09,4.757147652e-09,1.014473499e-09,3.053355404e-09,5.761186652e-11,3.817437265e-09,4.282663664e-11,4.416728822e-10,1.992197586e-08,1.162858294e-09,1.358575315e-10
0.03125,2.816578852e-09,2.501178086e-09,1.212488126e-08,6.413372775e-10,7.297652230e-11,9.750190983e-10,5.736916889e-10,1.007620116e-09,2.525715413e-11,2.562726446e-09,4.106224611e-11,5.828263495e-10,3.278864746e-10,4.580448914e-10,1.332036888e-09,6.562584407e-10,9.294533355e-10,8.762154125e-11,1.286047777e-11,2.353560755e-10,2.666818915e-11,1.168229834e-09,3.870365563e-09,8.261748565e-10,2.484225267e-09,4.713158724e-11,3.103952677e-09,3.445406469e-11,3.586183012e-10,1.618000111e-08,9.436822979e-10,1.107789484e-10
0.039062,2.136278477e-09,1.890731988e-09,9.174299949e-09,4.830832530e-10,5.486602238e-11,7.382811118e-10,4.317329449e-10,7.622414221e-10,1.894195527e-11,1.938805556e-09,3.029543737e-11,4.397355297e-10,2.485836148e-10,3.442544663e-10,1.002375448e-09,4.928082854e-10,6.992180162e-10,6.606214855e-11,9.813441614e-12,1.770630843e-10,2.028446235e-11,8.840789762e-10,2.926726180e-09,6.270757485e-10,1.885936547e-09,3.562713128e-11,2.351420853e-09,2.676945516e-11,2.717933714e-10,1.224315927e-08,7.130720295e-10,8.342912197e-11
0.046875,1.521336736e-09,1.339339214e-09,6.508310042e-09,3.406801201e-10,3.870535421e-11,5.244708324e-10,3.040030928e-10,5.407839650e-10,1.336433675e-11,1.375658209e-09,2.100565695e-11,3.110829125e-10,1.766352889e-10,2.424987633e-10,7.061199324e-10,3.466425761e-10,4.929735006e-10,4.663813659e-11,7.034559831e-12,1.247935007e-10,1.457724231e-11,6.270654045e-10,2.075559551e-09,4.469941829e-10,1.342253714e-09,2.524614942e-11,1.669732283e-09,1.989038296e-11,1.932352327e-10,8.688337869e-09,5.052256178e-10,5.892456362e-11
0.054688,1.024904723e-09,8.953922402e-10,4.360104957e-09,2.264325987e-10,2.577511733e-11,3.521231378e-10,2.011818753e-10,3.623228506e-10,8.854601452e-12,9.217854098e-10,1.378546958e-11,2.076683158e-10,1.183832949e-10,1.609740407e-10,4.684840092e-10,2.297531049e-10,3.277694389e-10,3.104941750e-11,4.774389234e-12,8.299408608e-11,9.827393027e-12,4.196997370e-10,1.389429608e-09,3.015607672e-10,9.016236958e-10,1.681508952e-11,1.118903527e-09,1.422748591e-11,1.298781313e-10,5.823751834e-09,3.380235568e-10,3.914111505e-11
0.0625,6.604306218e-10,5.720905331e-10,2.789416753e-09,1.435727536e-10,1.627891688e-11,2.257823343e-10,1.261825279e-10,2.315168018e-10,5.483825489e-12,5.894129312e-10,8.760337797e-12,1.317038130e-10,7.641867597e-11,1.010299737e-10,2.946273523e-10,1.443105593e-10,2.069193309e-10,1.981882075e-11,3.139200276e-12,5.266493318e-11,6.168139982e-12,2.680750578e-10,8.842866013e-10,1.946974822e-10,5.787069572e-10,1.048642776e-11,7.152870994e-10,1.039254650e-11,8.380483937e-11,3.730499088e-09,2.157464270e-10,2.439215111e-11
0.070312,4.148160286e-10,3.555775895e-10,1.735725757e-09,8.821700543e-11,9.963356239e-12,1.407144644e-10,7.595191912e-11,1.435668238e-10,3.275356892e-12,3.659739412e-10,5.729322476e-12,8.094030500e-11,4.827230676e-11,6.133380133e-11,1.790781830e-10,8.793575804e-11,1.269336799e-10,1.241846845e-11,2.032137742e-12,3.268484941e-11,3.726244405e-12,1.660992215e-10,5.444766098e-10,1.226208503e-10,3.603466359e-10,6.223558777e-12,4.435711160e-10,7.787414295e-12,5.290119724e-11,2.325005648e-09,1.336258302e-10,1.454122031e-11
0.078125,2.608210106e-10,2.207695945e-10,1.077910548e-09,5.382161710e-11,6.089366535e-12,8.713446826e-11,4.499484771e-11,8.854951669e-11,1.944712135e-12,2.263442143e-10,4.113959889e-12,4.964497629e-11,3.036121343e-11,3.723769858e-11,1.085369342e-10,5.389047181e-11,7.830754514e-11,7.955524176e-12,1.301512939e-12,2.062211350e-11,2.213234410e-12,1.022505533e-10,3.322868773e-10,7.733658214e-11,2.220078262e-10,3.584884749e-12,2.731608209e-10,5.785380841e-12,3.347772979e-11,1.447359284e-09,8.233013433e-11,8.500814988e-12
0.085938,1.697358718e-10,1.422388553e-10,6.911454676e-10,3.382877985e-11,3.824580632e-12,5.522223958e-11,2.756938804e-11,5.607537965e-11,1.173996020e-12,1.442279310e-10,3.411132474e-12,3.142154292e-11,1.983864724e-11,2.343444682e-11,6.828676521e-11,3.460637542e-11,5.041872281e-11,5.506884737e-12,8.487344985e-13,1.380047376e-11,1.283557062e-12,6.468892904e-11,2.064260599e-10,5.043164674e-11,1.396331782e-10,2.025228615e-12,1.727339621e-10,4.426676002e-12,2.205024756e-11,9.329633243e-10,5.211607437e-11,4.957592432e-12
0.09375,1.180169963e-10,9.829854329e-11,4.716418129e-10,2.273920981e-11,2.594689688e-12,3.671332227e-11,1.879784659e-11,3.767882265e-11,7.833303236e-13,9.801283276e-11,3.332714571e-12,2.145387813e-11,1.371264280e-11,1.619313271e-11,4.696407477e-11,2.459302734e-11,3.552016012e-11,4.246128684e-12,5.681796811e-13,1.017959663e-11,7.738465923e-13,4.341967188e-11,1.350384468e-10,3.507811243e-11,9.182766349e-11,1.166600463e-12,1.156954223e-10,3.475814371e-12,1.547119535e-11,6.441416126e-10,3.507348544e-11,3.048789854e-12
0.10156,8.816606082e-11,7.319150290e-11,3.437672614e-10,1.654717489e-11,1.924283170e-12,2.580081658e-11,1.489839080e-11,2.712941043e-11,5.745847654e-13,7.167097907e-11,3.417176829e-12,1.594623831e-11,9.932032849e-12,1.232932323e-11,3.556281678e-11,1.928203569e-11,2.739644080e-11,3.564312029e-12,3.823177017e-13,8.155253154e-12,5.088489534e-13,3.118029094e-11,9.438163213e-11,2.606456561e-11,6.358161630e-11,7.128487972e-13,8.278510515e-11,2.598000058e-12,1.154155336e-11,4.802342879e-10,2.536565315e-11,2.034424768e-12
0.10938,6.943643120e-11,5.781428085e-11,2.635972435e-10,1.306338437e-11,1.535450423e-12,1.897041253e-11,1.382601167e-11,2.069897280e-11,4.388260527e-13,5.559708249e-11,3.540978737e-12,1.262854514e-11,7.415691234e-12,9.991469108e-12,2.887893143e-11,1.603221344e-11,2.237740846e-11,3.129632652e-12,2.483286191e-13,6.850485534e-12,3.772835436e-13,2.371028529e-11,7.007839349e-11,2.055562952e-11,4.583369656e-11,4.811093035e-13,6.268966507e-11,1.752616500e-12,9.076313086e-12,3.814120713e-10,1.952491249e-11,1.482634428e-12
0.11719,5.987178954e-11,5.087100316e-11,2.227368591e-10,1.171380007e-11,1.309940286e-12,1.554519603e-11,1.455042928e-11,1.749146813e-11,3.339171380e-13,4.773242501e-11,3.664099504e-12,1.075937778e-11,6.482870971e-12,8.456399756e-12,2.517406053e-11,1.396163140e-11,1.930255900e-11,2.934529803e-12,1.845487503e-13,6.079872984e-12,3.249665061e-13,2.018401564e-11,5.730205210e-11,1.770653185e-11,3.760263744e-11,3.586700345e-13,5.306583471e-11,1.292188237e-12,7.996254315e-12,3.363466144e-10,1.672906531e-11,1.146897506e-12
0.125,5.152874129e-11,4.409574023e-11,1.892782005e-10,1.048588561e-11,1.181869349e-12,1.317768540e-11,1.516074734e-11,1.498524198e-11,3.057074322e-13,4.101991058e-11,3.887301748e-12,9.343407218e-12,5.438191894e-12,7.445921781e-12,2.208232782e-11,1.237040277e-11,1.701350875e-11,2.579038709e-12,1.402358195e-13,5.298825778e-12,3.870290530e-13,1.729917497e-11,4.962199302e-11,1.534218433e-11,3.175014688e-11,3.672280971e-13,4.562038994e-11,1.018379224e-12,7.029186977e-12,2.958474979e-10,1.447871521e-11,1.083916335e-12
0.13281,4.410932109e-11,3.806504546e-11,1.630496158e-10,9.405479164e-12,1.040159808e-12,1.166468900e-11,1.560431700e-11,1.295326314e-11,2.494077018e-13,3.515751259e-11,3.774379423e-12,8.008367202e-12,4.567264966e-12,6.337228272e-12,1.894314060e-11,1.062112580e-11,1.475571105e-11,2.194934130e-12,1.090559381e-13,4.545074593e-12,4.101994366e-13,1.503970909e-11,4.428953258e-11,1.336590717e-11,2.821493218e-11,3.907265264e-13,4.023410836e-11,7.232636179e-13,6.366350610e-12,2.599552894e-10,1.255142050e-11,9.984424374e-13
0.14062,3.791856088e-11,3.349920205e-11,1.433830353e-10,8.613678815e-12,8.599506039e-13,1.080057165e-11,1.589709264e-11,1.127060216e-11,1.661903834e-13,3.031356171e-11,3.374177929e-12,6.611542536e-12,4.304460587e-12,4.973080203e-12,1.565700364e-11,8.511123723e-12,1.208547598e-11,1.883279270e-12,1.029400524e-13,3.796229134e-12,4.336584045e-13,1.340609134e-11,3.938512818e-11,1.177850642e-11,2.690326510e-11,4.017950689e-13,3.649726314e-11,5.751310353e-13,6.006494214e-12,2.299953577e-10,1.095911031e-11,8.368525597e-13
0.14844,3.305139819e-11,2.909355587e-11,1.286806803e-10,7.691499418e-12,7.478397510e-13,1.042188979e-11,1.528063740e-11,9.951142912e-12,1.385792939e-13,2.631048833e-11,3.047008559e-12,5.601408535e-12,3.923850104e-12,4.104852947e-12,1.310053892e-11,6.948562991e-12,1.012713361e-11,1.553675425e-12,1.024405191e-13,3.136924606e-12,5.399538094e-13,1.199238826e-11,3.670062942e-11,1.050718503e-11,2.616810837e-11,4.805341731e-13,3.352410944e-11,5.533698379e-13,5.594251832e-12,2.012647938e-10,9.621459018e-12,8.373735248e-13
0.15625,2.949814561e-11,2.508984944e-11,1.178532623e-10,6.778221029e-12,6.694424936e-13,1.028349999e-11,1.408652334e-11,8.935526635e-12,1.259297616e-13,2.327342162e-11,2.692401439e-12,4.902530165e-12,3.473014492e-12,3.529414674e-12,1.113197725e-11,5.794957121e-12,8.656694101e-12,1.223737977e-12,1.078107786e-13,2.582250404e-12,5.455091523e-13,1.077158471e-11,3.478238287e-11,9.509956477e-12,2.577927049e-11,5.155975873e-13,3.106728471e-11,6.812448693e-13,5.151971872e-12,1.754100131e-10,8.535389364e-12,8.180567038e-13
0.16406,2.687753351e-11,2.202773002e-11,1.091838022e-10,6.104194312e-12,5.707623967e-13,1.016003533e-11,1.253117048e-11,8.037000216e-12,1.047841519e-13,2.098887240e-11,2.189723992e-12,4.178787287e-12,3.411754365e-12,2.781623749e-12,9.018816292e-12,4.390936678e-12,6.779729071e-12,9.539980630e-13,1.314324790e-13,2.006890158e-12,4.559503198e-13,9.741099623e-12,3.161317401e-11,8.676519017e-12,2.596019254e-11,4.634436672e-13,2.874795267e-11,9.356775011e-13,4.768169334e-12,1.525515265e-10,7.651483504e-12,6.626395205e-13
0.17188,2.537268859e-11,1.955473038e-11,1.021302010e-10,5.587176113e-12,5.312908510e-13,9.910976733e-12,1.077596383e-11,7.382565289e-12,1.189458716e-13,1.971075869e-11,1.850460472e-12,3.772755733e-12,3.262812200e-12,2.344913402e-12,7.453223211e-12,3.328303770e-12,5.287258480e-12,7.272839950e-13,1.531329052e-13,1.517175663e-12,4.355737863e-13,8.786642771e-12,2.906288171e-11,8.078465730e-12,2.534430334e-11,4.349330297e-13,2.624226101e-11,1.032681540e-12,4.259406330e-12,1.334492650e-10,7.068102295e-12,5.970085449e-13
0.17969,2.460318864e-11,1.754024238e-11,9.635174429e-11,5.242497035e-12,5.360406720e-13,9.456831127e-12,8.908277055e-12,6.943570227e-12,1.285934051e-13,1.920560664e-11,1.746400788e-12,3.637295256e-12,2.898926309e-12,2.176859309e-12,6.506387211e-12,2.730558580e-12,4.385470282e-12,5.191328045e-13,1.724486258e-13,1.162118554e-12,4.218450169e-13,7.913239867e-12,2.724271948e-11,7.676759345e-12,2.392640893e-11,4.197956998e-13,2.361018337e-11,1.134557914e-12,3.608809298e-12,1.181058509e-10,6.761152204e-12,5.776657254e-13
0.1875,2.355817469e-11,1.623304659e-11,8.996779532e-11,5.170568192e-12,5.219010835e-13,8.607985590e-12,7.323978127e-12,6.488090522e-12,1.226743125e-13,1.894345250e-11,1.788488330e-12,3.418691790e-12,2.772895196e-12,1.858277203e-12,5.476613456e-12,2.124431606e-12,3.435666568e-12,3.664248359e-13,2.030450103e-13,9.087917288e-13,3.127238027e-13,7.139266871e-12,2.412791152e-11,7.354847948e-12,2.225990528e-11,3.288845869e-13,2.075249643e-11,1.461988194e-12,2.979719680e-12,1.051482010e-10,6.547999831e-12,4.561334628e-13
0.19531,2.231976253e-11,1.528872534e-11,8.336907923e-11,5.203289958e-12,5.392233151e-13,7.538083534e-12,6.034552576e-12,6.087703348e-12,1.507393684e-13,1.875787478e-11,1.987293560e-12,3.286899325e-12,2.670302943e-12,1.692743236e-12,4.754210522e-12,1.752996258e-12,2.770047084e-12,2.692428046e-13,2.287849070e-13,7.721060814e-13,2.191185662e-13,6.452167564e-12,2.120776414e-11,7.076379363e-12,2.021591628e-11,2.302757241e-13,1.793248528e-11,1.686470990e-12,2.412756655e-12,9.454506572e-11,6.423426851e-12,3.769610825e-13
0.20312,2.085959356e-11,1.443654470e-11,7.686803328e-11,5.238073507e-12,5.810955613e-13,6.370703496e-12,4.944854500e-12,5.790808316e-12,1.710038837e-13,1.860427053e-11,2.199372152e-12,3.295473589e-12,2.323684950e-12,1.712428559e-12,4.422510325e-12,1.665547140e-12,2.550463429e-12,2.137132165e-13,2.313434167e-13,7.723092702e-13,1.899326852e-13,5.833970499e-12,1.934376430e-11,6.859903518e-12,1.750169118e-11,1.782791895e-13,1.525480120e-11,1.690321893e-12,1.838289037e-12,8.549067909e-11,6.352674168e-12,3.684060223e-13
0.21094,1.859104007e-11,1.373692133e-11,6.926393156e-11,5.279604255e-12,5.674500748e-13,5.197276335e-12,4.046765770e-12,5.396199599e-12,1.429081267e-13,1.792247648e-11,2.175478335e-12,3.070413873e-12,2.121507664e-12,1.527890927e-12,3.910325360e-12,1.510139703e-12,2.329529708e-12,1.984781526e-13,2.392791398e-13,8.619924744e-13,1.376121572e-13,5.277155686e-12,1.700355845e-11,6.511439294e-12,1.492891077e-11,1.362852412e-13,1.286162092e-11,1.876282899e-12,1.383410117e-12,7.693907052e-11,6.118472034e-12,3.077923900e-13
0.21875,1.598597147e-11,1.307137876e-11,6.141795435e-11,5.229053355e-12,5.380008144e-13,4.168025605e-12,3.299349550e-12,4.988778267e-12,1.288016168e-13,1.695079777e-11,2.100866053e-12,2.760965361e-12,2.052332471e-12,1.345623289e-12,3.413209125e-12,1.435565051e-12,2.251564015e-12,2.064638529e-13,2.524937172e-13,1.036004486e-12,7.846812758e-14,4.795596979e-12,1.474202977e-11,6.057108552e-12,1.271329911e-11,9.957625764e-14,1.090427551e-11,2.130848873e-12,1.088403766e-12,6.918480696e-11,5.757728754e-12,2.652187639e-13
0.22656,1.364486365e-11,1.222602850e-11,5.413975601e-11,4.997802833e-12,5.294689502e-13,3.393349743e-12,2.605301894e-12,4.670582899e-12,1.343869415e-13,1.591134414e-11,2.078958123e-12,2.572398854e-12,1.831242684e-12,1.349251152e-12,3.267005178e-12,1.562840896e-12,2.433152130e-12,2.359508322e-13,2.417216546e-13,1.264317073e-12,6.299941200e-14,4.371278085e-12,1.352569995e-11,5.576708050e-12,1.049629807e-11,8.378157876e-14,9.412021443e-12,2.049246257e-12,8.846505249e-13,6.272523567e-11,5.349373635e-12,2.814744321e-13
0.23438,1.147144029e-11,1.129096106e-11,4.724392576e-11,4.638686055e-12,4.811459032e-13,2.870618871e-12,2.008818539e-12,4.309686887e-12,1.127614622e-13,1.465303816e-11,1.940241440e-12,2.310063502e-12,1.677230759e-12,1.310821499e-12,3.331405852e-12,1.674084869e-12,2.487978771e-12,2.855201269e-13,2.248451007e-13,1.446066260e-12,5.084201298e-14,4.002777859e-12,1.225940078e-11,4.989882943e-12,8.623073847e-12,7.931412421e-14,8.369505728e-12,1.917786835e-12,7.918959453e-13,5.703518321e-11,4.806382390e-12,2.639683213e-13
0.24219,9.671413555e-12,1.043065378e-11,4.120798783e-11,4.230882307e-12,4.027961637e-13,2.548166914e-12,1.545975440e-12,3.926570147e-12,9.298030059e-14,1.326851657e-11,1.845703971e-12,2.007047247e-12,1.670835614e-12,1.327355462e-12,3.722970644e-12,1.915336629e-12,2.576165507e-12,3.489334058e-13,2.215032364e-13,1.619733538e-12,2.635753630e-14,3.713343478e-12,1.091687874e-11,4.333573208e-12,7.256575435e-12,9.099797507e-14,7.715971305e-12,1.942104691e-12,7.806201389e-13,5.284831932e-11,4.210032434e-12,2.520423006e-13
0.25,8.587790736e-12,9.477887074e-12,3.681252467e-11,3.725547190e-12,3.506603698e-13,2.415815398e-12,1.259677971e-12,3.614762223e-12,9.860202515e-14,1.202828301e-11,2.050605881e-12,1.882308980e-12,1.543649488e-12,1.563899928e-12,4.688468303e-12,2.439498263e-12,2.933896177e-12,4.270961674e-13,2.082323909e-13,1.790964590e-12,1.983446041e-14,3.498711135e-12,1.035582089e-11,3.712067045e-12,6.118242782e-12,1.112466323e-13,7.411667163e-12,1.787646221e-12,7.834292016e-13,5.051012751e-11,3.688959006e-12,2.892530726e-13
0.25781,7.958015704e-12,8.591856478e-12,3.363167930e-11,3.222918270e-12,3.078622289e-13,2.341478721e-12,1.109002135e-12,3.293096015e-12,9.678683686e-14,1.075571593e-11,2.315817242e-12,1.801345641e-12,1.389355010e-12,1.820000548e-12,5.978922177e-12,3.002192661e-12,3.233822455e-12,5.309607711e-13,1.841222566e-13,1.852396194e-12,2.546467110e-14,3.342737737e-12,9.846622891e-12,3.131238221e-12,5.251377387e-12,1.130308024e-13,7.280853073e-12,1.423996117e-12,7.976624763e-13,4.933754339e-11,3.254093212e-12,2.925543441e-13
0.26562,7.600714700e-12,7.930511898e-12,3.143630025e-11,2.816311587e-12,2.600032725e-13,2.278005247e-12,1.075516909e-12,2.923446105e-12,9.942816938e-14,9.409754429e-12,2.620009979e-12,1.715362313e-12,1.349427667e-12,2.143730444e-12,7.581540185e-12,3.690732765e-12,3.565636545e-12,6.517112052e-13,1.698548692e-13,1.846659094e-12,2.595293803e-14,3.262143489e-12,9.137650190e-12,2.551734980e-12,4.784732160e-12,1.138865098e-13,7.281255325e-12,1.169570643e-12,8.231131350e-13,4.925925990e-11,2.906845502e-12,2.797724888e-13
0.27344,7.554425004e-12,7.391007188e-12,3.027713313e-11,2.482840472e-12,2.415383058e-13,2.232262395e-12,1.098287836e-12,2.611960049e-12,1.234662518e-13,8.254405412e-12,3.048815900e-12,1.761457081e-12,1.229920295e-12,2.623624872e-12,9.360433023e-12,4.550250887e-12,4.152912465e-12,7.687241914e-13,1.584811525e-13,1.849955899e-12,2.496132802e-14,3.225530544e-12,8.919704235e-12,2.069970564e-12,4.491440683e-12,1.298509566e-13,7.322551669e-12,9.851822330e-13,8.097663238e-13,4.990642770e-11,2.714136942e-12,3.095625004e-13
0.28125,7.558772499e-12,6.980667931e-12,2.954266715e-11,2.226754430e-12,2.406120317e-13,2.152527559e-12,1.134430488e-12,2.335031323e-12,1.333257822e-13,7.336701956e-12,3.395192584e-12,1.830820256e-12,1.032867021e-12,2.932797185e-12,1.061525378e-11,5.135574587e-12,4.612779184e-12,8.877092555e-13,1.400359973e-13,1.817890401e-12,2.844546817e-14,3.206358099e-12,8.787776623e-12,1.696938759e-12,4.290047381e-12,1.336364563e-13,7.312971266e-12,7.065103347e-13,7.755330685e-13,5.036448616e-11,2.615093685e-12,3.172450245e-13
0.28906,7.407595441e-12,6.732040121e-12,2.881062734e-11,2.063577900e-12,2.331947705e-13,2.019449629e-12,1.217602563e-12,2.044723395e-12,1.308410823e-13,6.593472608e-12,3.472003024e-12,1.832352220e-12,9.164371850e-13,3.028676641e-12,1.120779784e-11,5.386037404e-12,4.854248994e-12,9.942568146e-13,1.249636435e-13,1.755474950e-12,4.253962476e-14,3.203674889e-12,8.321972462e-12,1.398516134e-12,4.234869477e-12,1.316177042e-13,7.240987000e-12,4.651009522e-13,7.579148104e-13,4.995282000e-11,2.529161934e-12,2.920820033e-13
0.29688,7.087803339e-12,6.461245660e-12,2.810066237e-11,1.926498491e-12,2.356695630e-13,1.882432783e-12,1.375496661e-12,1.813901553e-12,1.454498788e-13,6.124554962e-12,3.519254292e-12,1.873758358e-12,8.089565763e-13,3.144370864e-12,1.141661346e-11,5.568527715e-12,5.155972721e-12,1.050693605e-12,1.168020837e-13,1.756836358e-12,5.949973542e-14,3.193944463e-12,8.099595810e-12,1.254496876e-12,4.113459293e-12,1.494488338e-13,7.141505163e-12,3.403083972e-13,7.581947175e-13,4.824506312e-11,2.451275729e-12,3.028180575e-13
0.30469,6.691147029e-12,6.135639068e-12,2.734642386e-11,1.788075760e-12,2.425349021e-13,1.739117413e-12,1.677302420e-12,1.645198486e-12,1.535849502e-13,5.869310568e-12,3.631956835e-12,1.922587048e-12,6.494653613e-13,3.156098034e-12,1.110206103e-11,5.519657158e-12,5.326777184e-12,1.077842938e-12,1.053200405e-13,1.784521245e-12,6.132344064e-14,3.172784252e-12,8.026528062e-12,1.251910982e-12,3.859823146e-12,1.684627365e-13,6.985905988e-12,2.509414994e-13,7.702979740e-13,4.540734417e-11,2.354098963e-12,3.172260011e-13
0.3125,6.093331706e-12,5.776248565e-12,2.621292061e-11,1.650936138e-12,2.242201408e-13,1.540840365e-12,2.116136790e-12,1.479939924e-12,1.336335913e-13,5.528189872e-12,3.601148717e-12,1.832308628e-12,5.460482713e-13,2.871772520e-12,1.006772248e-11,5.014450194e-12,5.084039696e-12,1.077188755e-12,8.952478550e-14,1.782122327e-12,6.371016082e-14,3.119424487e-12,7.584552355e-12,1.379706161e-12,3.545308313e-12,1.802669900e-13,6.756552737e-12,1.867351238e-13,8.276489798e-13,4.124405549e-11,2.162197995e-12,3.006184873e-13
0.32031,5.360101031e-12,5.320103557e-12,2.494697560e-11,1.491531230e-12,1.956216882e-13,1.366927326e-12,2.688317060e-12,1.361636045e-12,1.157519862e-13,5.076042242e-12,3.506101080e-12,1.696329088e-12,4.931666617e-13,2.566219091e-12,8.918894777e-12,4.456009079e-12,4.783775274e-12,1.032089341e-12,7.806820826e-14,1.780933159e-12,7.992021929e-14,3.042845855e-12,7.231358757e-12,1.640308998e-12,3.224393251e-12,2.079818145e-13,6.555394026e-12,1.942100458e-13,9.267859046e-13,3.646809584e-11,1.921752466e-12,3.057018947e-13
0.32812,4.707583712e-12,4.821187754e-12,2.382862694e-11,1.318159387e-12,1.745773331e-13,1.228897157e-12,3.289185669e-12,1.304106216e-12,1.075215441e-13,4.561001359e-12,3.519357796e-12,1.574329048e-12,4.289796113e-13,2.331584936e-12,7.927590949e-12,3.986724764e-12,4.516776477e-12,9.531558054e-13,6.831098452e-14,1.762302519e-12,8.665572739e-14,2.941455684e-12,7.089752223e-12,1.990115351e-12,2.877361159e-12,2.349825711e-13,6.340208546e-12,2.580509497e-13,1.022219233e-12,3.194126815e-11,1.698556676e-12,3.239745324e-13
0.33594,4.142893971e-12,4.374412426e-12,2.247229284e-11,1.161952909e-12,1.441371530e-13,1.128651782e-12,3.816585620e-12,1.263294931e-12,8.802146719e-14,3.938704290e-12,3.469219700e-12,1.374645507e-12,4.040365795e-13,1.984408074e-12,6.839557450e-12,3.389724884e-12,4.017626920e-12,8.646067840e-13,5.727980469e-14,1.669618977e-12,7.548806611e-14,2.791796660e-12,6.676304209e-12,2.362649168e-12,2.625148069e-12,2.346159343e-13,6.053250155e-12,3.783933363e-13,1.111787627e-12,2.813067582e-11,1.476879669e-12,3.044163986e-13
0.34375,3.632809798e-12,3.991223823e-12,2.114096777e-11,1.032090115e-12,1.087749699e-13,1.107741160e-12,4.199311591e-12,1.256856086e-12,6.484789737e-14,3.364780734e-12,3.247095949e-12,1.143761025e-12,4.176008350e-13,1.609972314e-12,5.845848743e-12,2.802196535e-12,3.454177534e-12,7.612605771e-13,4.703875869e-14,1.524882889e-12,6.859041607e-14,2.613938658e-12,6.211353340e-12,2.754589570e-12,2.505283392e-12,2.272612286e-13,5.775689959e-12,5.541037895e-13,1.202350996e-12,2.521706940e-11,1.294635359e-12,2.799077916e-13
0.35156,3.291778161e-12,3.689012347e-12,1.995390143e-11,9.293796007e-13,8.633517752e-14,1.180088726e-12,4.443544262e-12,1.299617732e-12,5.402570974e-14,3.044384654e-12,2.920602101e-12,9.857443508e-13,4.155362127e-13,1.356024640e-12,5.122907844e-12,2.400966489e-12,3.044301812e-12,6.495603287e-13,4.114735780e-14,1.367073979e-12,6.937924721e-14,2.423415345e-12,5.947786370e-12,3.119538250e-12,2.445454810e-12,2.218003166e-13,5.503650125e-12,7.456180624e-13,1.249999356e-12,2.357903245e-11,1.194821819e-12,2.724569875e-13
0.35938,3.142559968e-12,3.508492587e-12,1.876474054e-11,8.601054663e-13,7.232846601e-14,1.321299505e-12,4.618517338e-12,1.336215923e-12,5.014389890e-14,3.071910666e-12,2.563278419e-12,8.865487727e-13,4.191053530e-13,1.141544326e-12,4.473546993e-12,2.062104287e-12,2.652487940e-12,5.525354596e-13,3.865761960e-14,1.198156594e-12,6.508829562e-14,2.214216250e-12,5.537087867e-12,3.371716931e-12,2.406674808e-12,1.944192440e-13,5.161658901e-12,9.574446601e-13,1.224914555e-12,2.310381204e-11,1.153028336e-12,2.416605937e-13
0.36719,3.024953237e-12,3.393755619e-12,1.753805616e-11,8.107188189e-13,6.196130175e-14,1.521849104e-12,4.845812280e-12,1.364911540e-12,5.123912966e-14,3.386753317e-12,2.171522245e-12,8.309926698e-13,4.388753715e-13,9.378329567e-13,3.813244486e-12,1.741923278e-12,2.274517573e-12,4.755921058e-13,3.875126727e-14,1.036102782e-12,6.049319674e-14,2.017010928e-12,5.042129041e-12,3.500641291e-12,2.392608047e-12,1.519996625e-13,4.842770073e-12,1.206188891e-12,1.178401531e-12,2.326255338e-11,1.142989646e-12,1.971350872e-13
0.375,3.016272022e-12,3.316517197e-12,1.651694318e-11,7.678177707e-13,6.124961188e-14,1.764531756e-12,5.224854568e-12,1.398343393e-12,5.999091505e-14,3.943985294e-12,1.824094596e-12,8.630683020e-13,4.254635080e-13,8.400624607e-13,3.305603742e-12,1.553912808e-12,2.054144910e-12,4.166875920e-13,4.121887884e-14,9.006275025e-13,6.229968957e-14,1.858633201e-12,4.746950621e-12,3.506992742e-12,2.313731587e-12,1.169281230e-13,4.592167047e-12,1.411852100e-12,1.106202271e-12,2.399705991e-11,1.170125040e-12,1.719607818e-13
0.38281,3.170679766e-12,3.304534649e-12,1.564537820e-11,7.369520157e-13,6.447640285e-14,1.963262849e-12,5.791285749e-12,1.392449321e-12,6.802813544e-14,4.462310608e-12,1.617130366e-12,9.276703804e-13,3.891373874e-13,8.022525818e-13,2.886774904e-12,1.435273546e-12,1.925667690e-12,3.853968750e-13,4.617486760e-14,7.970743023e-13,6.981998628e-14,1.734622110e-12,4.490303863e-12,3.330013335e-12,2.171399126e-12,8.770195379e-14,4.334211176e-12,1.510738002e-12,9.793628905e-13,2.507314956e-11,1.205035808e-12,1.518337998e-13
0.39062,3.335993270e-12,3.323945931e-12,1.492549406e-11,7.187637733e-13,6.609072886e-14,2.123180446e-12,6.487069390e-12,1.344287215e-12,7.294567536e-14,4.808643649e-12,1.636190032e-12,9.819183821e-13,3.638003328e-13,7.706771464e-13,2.477048574e-12,1.305535954e-12,1.789667535e-12,3.761078169e-13,5.319209704e-14,7.134453965e-13,8.294866598e-14,1.650308328e-12,4.205445023e-12,3.014913763e-12,2.029913677e-12,5.884564370e-14,4.107677293e-12,1.538409855e-12,8.243111240e-13,2.592492090e-11,1.221540273e-12,1.285971155e-13
0.39844,3.547608657e-12,3.335309335e-12,1.454856416e-11,6.985641821e-13,6.889110678e-14,2.256593938e-12,7.160675334e-12,1.288208839e-12,7.920565825e-14,4.882986176e-12,1.893482967e-12,1.018713529e-12,3.379846244e-13,7.693059799e-13,2.172023776e-12,1.215941127e-12,1.706928305e-12,3.707448318e-13,6.250818727e-14,6.308966352e-13,1.000818932e-13,1.605769788e-12,4.087586752e-12,2.594881326e-12,1.922634491e-12,3.952887690e-14,3.983668950e-12,1.520129128e-12,6.914929971e-13,2.657835504e-11,1.223598314e-12,1.207895976e-13
0.40625,3.904513994e-12,3.392583990e-12,1.448100142e-11,6.984401656e-13,7.143982385e-14,2.314963589e-12,7.623197311e-12,1.218275173e-12,8.093984144e-14,4.645396543e-12,2.335838137e-12,1.017710260e-12,3.081031206e-13,7.730436657e-13,1.968202627e-12,1.145951635e-12,1.636025545e-12,3.630433206e-13,7.362429811e-14,5.581379974e-13,1.130726455e-13,1.568730310e-12,4.020408397e-12,2.159366600e-12,1.820656569e-12,2.856752170e-14,3.836663419e-12,1.400749757e-12,5.570000236e-13,2.700794193e-11,1.232429600e-12,1.204832810e-13
0.41406,4.239803336e-12,3.461156043e-12,1.453539302e-11,7.144326589e-13,6.818245168e-14,2.316526838e-12,7.778567831e-12,1.129786480e-12,7.245922449e-14,4.089243741e-12,2.942927880e-12,9.387990598e-13,3.040401259e-13,7.181568958e-13,1.770638467e-12,1.022758017e-12,1.484461682e-12,3.463619747e-13,8.459439299e-14,4.884849072e-13,1.234735828e-13,1.522135472e-12,3.863605894e-12,1.745008540e-12,1.759471160e-12,2.065537902e-14,3.654497016e-12,1.193598511e-12,4.173459653e-13,2.694966763e-11,1.233674744e-12,1.162246136e-13
0.42188,4.442228210e-12,3.465487743e-12,1.462066752e-11,7.265746978e-13,6.232597030e-14,2.293773175e-12,7.520906897e-12,1.054395708e-12,5.897855089e-14,3.378356917e-12,3.551989322e-12,8.047858963e-13,3.225905907e-13,6.283401840e-13,1.608663268e-12,8.767578193e-13,1.300160102e-12,3.091492873e-13,9.331205561e-14,4.237079428e-13,1.379992746e-13,1.462515184e-12,3.709501866e-12,1.417609144e-12,1.714898927e-12,1.664762662e-14,3.492919181e-12,9.668753027e-13,3.091231828e-13,2.637312651e-11,1.226195438e-12,1.162178760e-13
0.42969,4.659560230e-12,3.448835543e-12,1.463177814e-11,7.396943395e-13,5.747108091e-14,2.230808106e-12,6.927925592e-12,9.979803350e-13,4.640366783e-14,2.669361743e-12,4.014550770e-12,6.564090963e-13,3.398835860e-13,5.391042047e-13,1.504935424e-12,7.579013596e-13,1.147187987e-12,2.580648835e-13,1.014372275e-13,3.864550402e-13,1.605077286e-13,1.384434682e-12,3.567919234e-12,1.183814288e-12,1.635889494e-12,1.497099153e-14,3.284667038e-12,7.625677755e-13,2.286354020e-13,2.567333983e-11,1.230872039e-12,1.206099731e-13
0.4375,4.727879127e-12,3.376614379e-12,1.424648353e-11,7.402757685e-13,5.129311796e-14,2.117556660e-12,6.114895178e-12,9.416079468e-13,3.412374683e-14,2.028076919e-12,4.306197827e-12,5.042471824e-13,3.630138244e-13,4.412670015e-13,1.418236724e-12,6.526636632e-13,1.007393073e-12,2.087277178e-13,1.104063691e-13,3.734658348e-13,1.915444389e-13,1.283861355e-12,3.327069919e-12,1.042794285e-12,1.525086756e-12,1.260760489e-14,3.012039783e-12,5.848424882e-13,1.678964819e-13,2.465956035e-11,1.224247931e-12,1.187625927e-13
0.44531,4.504028459e-12,3.214574534e-12,1.342583505e-11,7.118898949e-13,4.393683603e-14,1.988819544e-12,5.236830304e-12,9.025942025e-13,2.275982875e-14,1.562642074e-12,4.367095012e-12,3.647429410e-13,3.982427493e-13,3.375727274e-13,1.324270282e-12,5.573513662e-13,8.908414069e-13,1.646031361e-13,1.171180230e-13,3.797396457e-13,2.351038555e-13,1.178501186e-12,3.061276516e-12,9.445438728e-13,1.422209307e-12,1.053222403e-14,2.757141117e-12,4.322162906e-13,1.367138073e-13,2.327731701e-11,1.190172647e-12,1.128778824e-13
0.45312,4.172067128e-12,3.024891904e-12,1.235940827e-11,6.673120186e-13,3.957592854e-14,1.843227313e-12,4.420017428e-12,8.783432796e-13,1.411994081e-14,1.301213575e-12,4.108362094e-12,2.620221127e-13,4.171289449e-13,2.615347107e-13,1.255073279e-12,5.027968847e-13,8.420303382e-13,1.275251196e-13,1.174430166e-13,4.059073449e-13,2.890640878e-13,1.081704868e-12,2.870487743e-12,8.833394026e-13,1.327711691e-12,9.927282924e-15,2.523087870e-12,3.357535409e-13,1.258351759e-13,2.190732873e-11,1.147917174e-12,1.099100602e-13
0.46094,3.776036246e-12,2.844757149e-12,1.103990057e-11,6.176682793e-13,3.879307089e-14,1.660145001e-12,3.784146709e-12,8.447816703e-13,8.299892201e-15,1.217244714e-12,3.686701602e-12,2.000911637e-13,4.163146907e-13,2.154882982e-13,1.185879048e-12,4.801731987e-13,8.482874073e-13,1.081088233e-13,1.145880312e-13,4.356827662e-13,3.506855134e-13,9.888105196e-13,2.702750813e-12,8.665161572e-13,1.270331259e-12,9.488295147e-15,2.271798417e-12,2.921793238e-13,1.324215383e-13,2.033684729e-11,1.093703092e-12,1.038317067e-13
0.46875,3.256098423e-12,2.683544320e-12,9.661111896e-12,5.719020165e-13,3.997578024e-14,1.473531860e-12,3.295444702e-12,8.039199221e-13,4.682400199e-15,1.245100316e-12,3.147158150e-12,1.618854749e-13,4.285635853e-13,1.790760520e-13,1.080250773e-12,4.474243856e-13,8.514577827e-13,9.783667060e-14,1.141356078e-13,4.449098827e-13,4.235619793e-13,9.127321661e-13,2.558475516e-12,9.114175427e-13,1.288722856e-12,8.913137171e-15,2.065789150e-12,2.819819582e-13,1.545218014e-13,1.847870964e-11,1.026180828e-12,9.055393881e-14
0.47656,2.750439952e-12,2.584615206e-12,8.469760464e-12,5.476802201e-13,4.502566264e-14,1.308612437e-12,2.968692039e-12,7.661502568e-13,3.939930148e-15,1.349228715e-12,2.535540845e-12,1.518523013e-13,4.373218254e-13,1.679014052e-13,9.760227074e-13,4.248631035e-13,8.828217921e-13,9.613301928e-14,1.106797612e-13,4.471934052e-13,4.924206036e-13,8.605340553e-13,2.497283881e-12,1.062640020e-12,1.362854866e-12,8.826027537e-15,1.901972262e-12,2.882891086e-13,1.722241754e-13,1.656980673e-11,9.749218704e-13,7.749353402e-14
0.48438,2.403885741e-12,2.562266682e-12,7.547019788e-12,5.547449771e-13,5.369809597e-14,1.145553984e-12,2.783100687e-12,7.121504967e-13,4.272003583e-15,1.419061000e-12,1.945335673e-12,1.560150820e-13,4.186301572e-13,1.802043030e-13,9.026530415e-13,4.193731361e-13,9.337025571e-13,1.023805144e-13,9.913132933e-14,4.506068265e-13,5.291506342e-13,8.246479457e-13,2.478003445e-12,1.332367592e-12,1.426035098e-12,8.719804473e-15,1.713834312e-12,3.171604540e-13,1.705154825e-13,1.463285612e-11,9.500206136e-13,6.813651672e-14
0.49219,2.151290603e-12,2.566950530e-12,6.843960734e-12,5.784316634e-13,6.034278926e-14,1.006089631e-12,2.757570764e-12,6.547452461e-13,4.493153349e-15,1.443872080e-12,1.446571321e-12,1.586788268e-13,4.025219978e-13,1.951934779e-13,8.555836114e-13,4.082214517e-13,9.606300518e-13,1.140641594e-13,8.764512882e-14,4.510174026e-13,5.383006711e-13,8.078455648e-13,2.434808168e-12,1.689938378e-12,1.483279897e-12,8.089472290e-15,1.538071966e-12,3.791248143e-13,1.688577436e-13,1.269723730e-11,9.380287889e-13,5.861636350e-14
0.5,1.972395672e-12,2.555559374e-12,6.356343442e-12,6.049549363e-13,6.464796987e-14,9.138352335e-13,2.812178682e-12,6.116842580e-13,6.478019332e-15,1.403435531e-12,1.110320817e-12,1.584252083e-13,3.930777507e-13,2.192085625e-13,8.567245651e-13,4.033810785e-13,9.847552419e-13,1.306966792e-13,7.962874410e-14,4.751285375e-13,5.357597309e-13,8.146473238e-13,2.401041267e-12,2.098884609e-12,1.511367894e-12,7.876736162e-15,1.403162210e-12,4.414430635e-13,1.689660906e-13,1.085370689e-11,9.370333427e-13,5.271556963e-14
0.50781,1.936077760e-12,2.508393721e-12,6.017307318e-12,6.177376538e-13,6.847333916e-14,8.435439449e-13,2.962438717e-12,5.825932030e-13,9.447695324e-15,1.302716109e-12,9.125325474e-13,1.634164521e-13,3.541004667e-13,2.674591448e-13,9.654335513e-13,4.468018036e-13,1.054606775e-12,1.603716475e-13,7.028484044e-14,5.333783609e-13,5.025487313e-13,8.309918174e-13,2.370379173e-12,2.446106252e-12,1.423782012e-12,8.606259532e-15,1.268827165e-12,4.853443142e-13,1.627232610e-13,9.372609737e-12,9.438375992e-13,5.499069843e-14
0.51562,1.957891362e-12,2.402520615e-12,5.715062647e-12,6.042739469e-13,6.694846536e-14,7.866312927e-13,3.178715909e-12,5.662326555e-13,1.039522673e-14,1.155724425e-12,9.002553356e-13,1.595185058e-13,3.024647440e-13,3.042448501e-13,1.132809372e-12,5.019984732e-13,1.117714661e-12,2.003607366e-13,5.936207971e-14,6.125355764e-13,4.414122894e-13,8.521308743e-13,2.287475507e-12,2.663163677e-12,1.257914962e-12,1.020509904e-14,1.151866681e-12,5.495590712e-13,1.682440740e-13,8.232191403e-12,9.314437175e-13,5.827930628e-14
0.52344,1.912197415e-12,2.215828795e-12,5.459006788e-12,5.509542886e-13,5.723237707e-14,7.686976110e-13,3.446263518e-12,5.744346736e-13,1.224792600e-14,1.043752051e-12,1.084592937e-12,1.514466058e-13,2.712437093e-13,3.256602225e-13,1.335461963e-12,5.551113880e-13,1.139128227e-12,2.436949703e-13,5.231662077e-14,6.945342564e-13,3.815738073e-13,8.747774086e-13,2.174246072e-12,2.724475134e-12,1.097766493e-12,1.347616372e-14,1.116376217e-12,6.448400684e-13,2.019861431e-13,7.440881286e-12,8.816711034e-13,6.176655703e-14
0.53125,1.864358324e-12,1.996255290e-12,5.294022596e-12,4.787825200e-13,4.793181520e-14,7.487362684e-13,3.630391809e-12,5.921226709e-13,1.543296416e-14,1.018355350e-12,1.479927827e-12,1.527663013e-13,2.395670282e-13,3.547832758e-13,1.570578172e-12,6.292075496e-13,1.163425723e-12,2.868978452e-13,5.253614557e-14,7.724527993e-13,3.402360498e-13,8.802172257e-13,2.082931808e-12,2.647103454e-12,9.162075814e-13,1.771094112e-14,1.113329045e-12,7.200108146e-13,2.549084880e-13,7.071869371e-12,8.177422408e-13,6.973736552e-14
0.53906,1.831489411e-12,1.793222011e-12,5.241628632e-12,4.015758986e-13,4.003763154e-14,7.289843586e-13,3.719421879e-12,6.122540439e-13,1.579687185e-14,1.128689185e-12,2.119046038e-12,1.629636830e-13,2.095079865e-13,3.701839812e-13,1.762864821e-12,6.842569452e-13,1.156526036e-12,3.249430079e-13,5.802096419e-14,8.204257182e-13,3.047902030e-13,8.663987211e-13,1.992016552e-12,2.454717027e-12,7.471345741e-13,2.174619540e-14,1.152374863e-12,7.542100457e-13,3.424699894e-13,7.184415769e-12,7.425800753e-13,7.403485625e-14
0.54688,1.685421712e-12,1.619028635e-12,5.345466543e-12,3.333184867e-13,3.137283200e-14,7.327354567e-13,3.649368196e-12,6.359453646e-13,1.369873912e-14,1.434089437e-12,3.033721819e-12,1.806836535e-13,2.119193516e-13,3.400700383e-13,1.817755091e-12,6.669113281e-13,1.048020852e-12,3.418498001e-13,6.644427917e-14,7.988526932e-13,2.819470226e-13,8.340230259e-13,1.875519659e-12,2.228669258e-12,6.453451074e-13,2.614048823e-14,1.268502459e-12,8.107699630e-13,4.595058823e-13,7.612243048e-12,6.498273066e-13,6.805711172e-14
0.55469,1.492682192e-12,1.490727203e-12,5.609544897e-12,2.851461849e-13,2.651360141e-14,7.569760348e-13,3.411410284e-12,6.611266395e-13,1.437981347e-14,1.964638020e-12,4.179642789e-12,2.251673368e-13,2.270429306e-13,3.020466170e-13,1.773067102e-12,6.188937216e-13,8.984849810e-13,3.356630114e-13,7.840120726e-14,7.315403270e-13,2.993970784e-13,7.854603974e-13,1.815078915e-12,2.037416941e-12,6.067488352e-13,3.094186580e-14,1.405931414e-12,8.988690087e-13,5.560440145e-13,8.281393176e-12,5.701645563e-13,6.264885772e-14
0.5625,1.368725205e-12,1.428120203e-12,6.009439349e-12,2.617166461e-13,2.651893230e-14,8.085695457e-13,3.035127132e-12,6.893188164e-13,1.430974556e-14,2.744142148e-12,5.479113350e-12,2.902058886e-13,2.494921643e-13,2.740118693e-13,1.658706581e-12,5.675495906e-13,7.594705407e-13,3.135644278e-13,9.761355465e-14,6.395466564e-13,3.240280950e-13,7.167505033e-13,1.780857006e-12,1.928412122e-12,6.028869815e-13,3.311277523e-14,1.539462118e-12,9.426104355e-13,6.336518116e-13,9.253028334e-12,5.184233989e-13,5.905861498e-14
0.57031,1.251842052e-12,1.402832478e-12,6.441364140e-12,2.558393321e-13,2.934871742e-14,9.029765149e-13,2.656425814e-12,7.226185670e-13,1.143380897e-14,3.717895151e-12,6.990491788e-12,3.634044191e-13,3.049867477e-13,2.323200206e-13,1.432905514e-12,4.869028049e-13,6.196880550e-13,2.773773539e-13,1.246091076e-13,5.302196382e-13,3.585973784e-13,6.434723537e-13,1.706069283e-12,1.874276994e-12,6.461826107e-13,3.177155948e-14,1.689666978e-12,9.327060580e-13,7.127101378e-13,1.017071646e-11,4.856309458e-13,4.925416079e-14
0.57812,1.149920255e-12,1.377594402e-12,6.838657695e-12,2.591292228e-13,3.776769706e-14,1.028954114e-12,2.365697613e-12,7.626959217e-13,1.068994893e-14,4.829211895e-12,8.519114694e-12,4.633598580e-13,3.591210583e-13,1.957348101e-13,1.156339748e-12,4.000881378e-13,5.039288563e-13,2.339089563e-13,1.509277808e-13,4.235985193e-13,4.368389406e-13,5.763914768e-13,1.647484105e-12,1.900429017e-12,6.805964003e-13,3.029375231e-14,1.808152931e-12,9.470387357e-13,7.480971716e-13,1.094464898e-11,4.778897901e-13,3.907541703e-14
0.58594,1.180693133e-12,1.358536748e-12,7.144322072e-12,2.740675656e-13,5.037193576e-14,1.154178462e-12,2.235406137e-12,7.995993531e-13,1.142644925e-14,5.930269978e-12,9.776679730e-12,5.709055441e-13,3.853127720e-13,1.851036054e-13,9.257346514e-13,3.498267573e-13,4.533284838e-13,1.925847957e-13,1.721947788e-13,3.558536695e-13,5.374474390e-13,5.171260557e-13,1.620863288e-12,1.953167861e-12,6.691344175e-13,2.915639404e-14,1.827230883e-12,9.761087946e-13,6.989019022e-13,1.155108938e-11,5.028697113e-13,3.512113174e-14
0.59375,1.292261576e-12,1.344273577e-12,7.282751657e-12,3.027849795e-13,6.171424325e-14,1.257987698e-12,2.338944097e-12,8.174400943e-13,9.883230891e-15,6.835538266e-12,1.060705822e-11,6.422598632e-13,4.183583195e-13,1.936947257e-13,7.780790702e-13,3.429664318e-13,4.495088827e-13,1.632348349e-13,1.959134462e-13,3.321252748e-13,6.435792290e-13,4.852759937e-13,1.552174072e-12,2.005977140e-12,6.420403113e-13,2.716064131e-14,1.782963019e-12,9.266423627e-13,6.163488784e-13,1.182987848e-11,5.383252750e-13,3.576855100e-14
0.60156,1.440545679e-12,1.311544896e-12,7.247486185e-12,3.428272394e-13,7.521411421e-14,1.317653811e-12,2.582700831e-12,8.083118623e-13,9.398874389e-15,7.401452807e-12,1.100613340e-11,6.839595166e-13,4.478287735e-13,2.263982171e-13,7.078728726e-13,3.783647815e-13,4.932601476e-13,1.482746705e-13,2.240700316e-13,3.537229515e-13,7.937040200e-13,4.878114615e-13,1.502552540e-12,2.011497013e-12,6.264109989e-13,2.578140806e-14,1.695328534e-12,8.138163719e-13,5.300784562e-13,1.159195430e-11,5.727580085e-13,4.161590193e-14
0.60938,1.686201930e-12,1.277571687e-12,7.035444751e-12,4.043757459e-13,9.184218537e-14,1.308197868e-12,2.934953920e-12,7.669251044e-13,1.098294372e-14,7.525087614e-12,1.082490236e-11,7.067143119e-13,4.215155417e-13,2.770694403e-13,7.177343408e-13,4.382213889e-13,5.714949778e-13,1.482494794e-13,2.448070104e-13,4.178317267e-13,9.821105693e-13,5.211721413e-13,1.534244680e-12,1.970912162e-12,6.139609958e-13,2.564352083e-14,1.522906494e-12,7.165418962e-13,4.216427676e-13,1.094830177e-11,6.128443882e-13,5.073294140e-14
0.61719,1.959676984e-12,1.282140192e-12,6.718309964e-12,4.888182652e-13,1.009177494e-13,1.230455605e-12,3.253907576e-12,6.928473147e-13,9.858165401e-15,7.174424469e-12,1.001508015e-11,6.734056661e-13,3.720250937e-13,3.030460055e-13,7.480920481e-13,4.726411942e-13,6.076007764e-13,1.582121425e-13,2.557721288e-13,4.989062620e-13,1.134592797e-12,5.839871846e-13,1.574804931e-12,1.849374482e-12,6.604345612e-13,2.774855486e-14,1.311960814e-12,6.185846070e-13,3.060469616e-13,1.005365513e-11,6.472631506e-13,5.804386774e-14
0.625,2.124693504e-12,1.295516928e-12,6.268492674e-12,5.799055481e-13,1.027730055e-13,1.112828439e-12,3.510781083e-12,5.955106215e-13,7.629812421e-15,6.397346530e-12,8.770392382e-12,5.877215160e-13,3.366587712e-13,3.173596495e-13,7.876082433e-13,5.013039300e-13,6.126843734e-13,1.720437554e-13,2.657089915e-13,5.897890901e-13,1.264879376e-12,6.644241204e-13,1.636190586e-12,1.634154953e-12,7.823091048e-13,3.284630318e-14,1.123767529e-12,4.745802185e-13,2.251583964e-13,8.814349854e-12,6.616186240e-13,6.996683126e-14
0.63281,2.227748813e-12,1.305479399e-12,5.720545183e-12,6.601962896e-13,1.039698197e-13,9.857385093e-13,3.662205473e-12,4.985153784e-13,7.729075178e-15,5.338274423e-12,7.361402024e-12,4.914376632e-13,2.862345502e-13,3.371453727e-13,8.233944569e-13,5.356269514e-13,6.321429878e-13,1.827870459e-13,2.753462983e-13,6.900577222e-13,1.408126866e-12,7.335279362e-13,1.770006302e-12,1.361847068e-12,9.704673740e-13,3.620586141e-14,9.567732312e-13,3.260245625e-13,1.862938543e-13,7.403370895e-12,6.636006014e-13,8.492591899e-14
0.64062,2.288872653e-12,1.337601563e-12,5.145210433e-12,7.276688837e-13,1.003132145e-13,8.659656869e-13,3.766246866e-12,4.131941331e-13,7.574272093e-15,4.165850327e-12,5.967458390e-12,3.964296112e-13,2.242141977e-13,3.270264471e-13,7.925171947e-13,5.176876032e-13,6.137639646e-13,1.884582971e-13,2.752675288e-13,7.795944979e-13,1.496100295e-12,7.852925865e-13,1.866566934e-12,1.077447859e-12,1.211047451e-12,3.407041573e-14,8.111128535e-13,2.267881446e-13,1.778592340e-13,6.110646960e-12,6.608961254e-13,8.621271130e-14
0.64844,2.157527965e-12,1.349263284e-12,4.525406669e-12,7.555593515e-13,8.640343620e-14,7.916446621e-13,3.893252096e-12,3.510539987e-13,6.200174747e-15,3.048465796e-12,4.659833370e-12,2.968739801e-13,1.928311940e-13,2.750530184e-13,6.866196150e-13,4.489342333e-13,5.384474694e-13,1.829352026e-13,2.634530730e-13,8.338604193e-13,1.475949407e-12,8.067469423e-13,1.856092608e-12,7.888448097e-13,1.444328479e-12,3.335381190e-14,7.213009267e-13,1.597925125e-13,1.979132841e-13,5.013567806e-12,6.349686719e-13,7.970900580e-14
0.65625,1.876485581e-12,1.303908880e-12,3.914309306e-12,7.331677624e-13,7.104262268e-14,7.589016391e-13,4.139931024e-12,3.153616120e-13,6.402295063e-15,2.096107975e-12,3.632853381e-12,2.153998359e-13,1.798501425e-13,2.284261815e-13,5.688067814e-13,3.912163482e-13,4.800122948e-13,1.617377330e-13,2.438392142e-13,8.559843175e-13,1.416113096e-12,7.812527157e-13,1.830629953e-12,5.318964610e-13,1.568685637e-12,3.377012986e-14,6.742776973e-13,1.005298274e-13,2.337652496e-13,4.237949053e-12,5.915581373e-13,8.016422223e-14
0.66406,1.605614690e-12,1.234635286e-12,3.410052967e-12,6.727128273e-13,5.856481103e-14,7.615202647e-13,4.501403110e-12,3.012693570e-13,7.690671477e-15,1.364404018e-12,2.938368561e-12,1.663113832e-13,1.752167043e-13,1.939886327e-13,4.622160202e-13,3.410696171e-13,4.408208915e-13,1.343410872e-13,2.193028394e-13,8.491798167e-13,1.343164606e-12,7.198546506e-13,1.746377962e-12,3.349443275e-13,1.604569161e-12,3.023698114e-14,6.448851344e-13,7.915614659e-14,2.815859962e-13,3.992016607e-12,5.466372525e-13,7.631726617e-14
0.67188,1.352715162e-12,1.154455913e-12,3.053349514e-12,5.868945050e-13,4.545699566e-14,7.863667972e-13,4.942845577e-12,2.967628907e-13,1.022997519e-14,8.585730277e-13,2.536666408e-12,1.363390238e-13,1.962372011e-13,1.522391622e-13,3.590089903e-13,2.776078102e-13,3.878064406e-13,1.090087705e-13,1.904141398e-13,7.940596361e-13,1.206106634e-12,6.450201332e-13,1.525767784e-12,2.007676083e-13,1.584419643e-12,2.603528108e-14,6.535399804e-13,1.019917885e-13,3.354649715e-13,4.291893579e-12,4.926627896e-13,6.209953216e-14
0.67969,1.123139339e-12,1.050138699e-12,2.868521769e-12,4.821588110e-13,3.411789395e-14,8.259278825e-13,5.347780212e-12,2.979379828e-13,1.467219862e-14,5.274351065e-13,2.322175938e-12,1.270228501e-13,2.171010200e-13,1.268402187e-13,2.952771786e-13,2.398784483e-13,3.660295666e-13,8.762185619e-14,1.574633204e-13,6.984006595e-13,1.021772825e-12,5.594903469e-13,1.283423333e-12,1.207015764e-13,1.498870211e-12,2.684868121e-14,6.716104684e-13,1.631550380e-13,3.566460434e-13,4.969929100e-12,4.407797293e-13,5.419474377e-14
0.6875,1.002151432e-12,9.698938201e-13,2.906922108e-12,3.816604071e-13,2.818862607e-14,8.626093819e-13,5.583218233e-12,2.983551729e-13,1.750112893e-14,3.340882262e-13,2.172385171e-12,1.350893550e-13,2.174618176e-13,1.214941506e-13,2.740121036e-13,2.299803733e-13,3.785041174e-13,7.415731325e-14,1.233255916e-13,5.849728971e-13,8.677693467e-13,4.751776734e-13,1.085485386e-12,8.527224533e-14,1.383769329e-12,3.048196340e-14,6.820933870e-13,2.566081945e-13,3.417270327e-13,5.986357871e-12,4.118228086e-13,5.174712295e-14
0.69531,9.951737331e-13,9.534361854e-13,3.115306301e-12,3.063884436e-13,2.636600488e-14,8.910545276e-13,5.591344365e-12,2.910553440e-13,1.886174324e-14,2.260776761e-13,2.062546856e-12,1.474666553e-13,2.236901745e-13,1.219717599e-13,2.714792593e-13,2.231745748e-13,3.935555038e-13,7.242980298e-14,9.515264411e-14,4.748645316e-13,7.452744849e-13,4.155181121e-13,8.889610494e-13,8.753496238e-14,1.340144983e-12,3.939555832e-14,7.053369449e-13,3.780840071e-13,3.152101269e-13,7.071993495e-12,4.089487372e-13,4.498328186e-14
0.70312,1.049180119e-12,9.715869517e-13,3.386932663e-12,2.581995492e-13,2.806257259e-14,9.181605459e-13,5.341970227e-12,2.817038850e-13,2.298901833e-14,1.851813578e-13,2.034497416e-12,1.619471172e-13,2.310161500e-13,1.374399896e-13,2.984076273e-13,2.342506839e-13,4.244309108e-13,7.476795347e-14,7.258693041e-14,3.633552447e-13,6.135759295e-13,3.767749783e-13,7.473610545e-13,1.206813553e-13,1.429710876e-12,5.637227117e-14,7.433536558e-13,5.447559899e-13,2.817241754e-13,7.896778435e-12,4.244751625e-13,4.366348223e-14
0.71094,1.151965073e-12,1.023828045e-12,3.701275062e-12,2.368611067e-13,3.261755131e-14,9.280425532e-13,4.938981301e-12,2.714896559e-13,2.662222097e-14,1.961350849e-13,2.069355533e-12,1.842364779e-13,2.030175297e-13,1.657995715e-13,3.658223490e-13,2.768479020e-13,4.930412298e-13,8.619290310e-14,5.261112081e-14,2.767381632e-13,4.954529827e-13,3.618185101e-13,7.095710027e-13,1.872542678e-13,1.655398908e-12,7.660879241e-14,7.845569857e-13,7.755523618e-13,2.334898934e-13,8.431253227e-12,4.621095238e-13,5.013643746e-14
0.71875,1.219457201e-12,1.115424684e-12,3.960902449e-12,2.417163313e-13,3.555292470e-14,9.111402389e-13,4.611369071e-12,2.548029094e-13,2.371452426e-14,2.623651677e-13,2.139601878e-12,1.879585529e-13,1.677590657e-13,1.808348849e-13,4.636175312e-13,3.264601946e-13,5.519565599e-13,1.037712425e-13,3.991160602e-14,2.280414142e-13,4.266128721e-13,3.745623843e-13,7.303167991e-13,2.856560238e-13,1.984091931e-12,1.024569150e-13,8.465086721e-13,1.008323588e-12,1.996455434e-13,8.562755029e-12,5.009552461e-13,5.619658761e-14
0.72656,1.204263033e-12,1.184960183e-12,4.115441627e-12,2.516760842e-13,3.741269482e-14,8.728231707e-13,4.617104424e-12,2.336768841e-13,2.081701566e-14,3.912966021e-13,2.363279546e-12,1.826464615e-13,1.496742741e-13,2.064950996e-13,6.201936036e-13,4.066204738e-13,6.327396592e-13,1.210551174e-13,3.410879445e-14,2.117575930e-13,3.709628550e-13,4.057476107e-13,8.223867582e-13,4.167928848e-13,2.316913087e-12,1.364404622e-13,9.333359966e-13,1.186104932e-12,1.897296774e-13,8.221924033e-12,5.186523419e-13,6.996223026e-14
0.73438,1.126494413e-12,1.190052786e-12,4.165156183e-12,2.549835400e-13,4.056273340e-14,8.169492056e-13,5.134712228e-12,2.117213143e-13,2.169415946e-14,5.902835618e-13,2.778562733e-12,1.809193798e-13,1.231134688e-13,2.477754248e-13,8.440297958e-13,5.243015310e-13,7.607881214e-13,1.376789059e-13,3.145841330e-14,2.241185320e-13,3.079618684e-13,4.435617886e-13,9.814635097e-13,5.919052410e-13,2.630044157e-12,1.644267514e-13,1.009042058e-12,1.379863750e-12,1.917335883e-13,7.470009189e-12,5.149172027e-13,9.091237846e-14
0.74219,1.018354844e-12,1.160952387e-12,4.131539449e-12,2.521899907e-13,4.000120396e-14,7.502163291e-13,6.274276211e-12,1.882299997e-13,2.037209715e-14,8.686170078e-13,3.239932438e-12,1.716273690e-13,9.020916165e-14,2.691262731e-13,1.092497486e-12,6.330675444e-13,8.793883968e-13,1.608342772e-13,3.062349767e-14,2.547833078e-13,2.484933944e-13,4.871131319e-13,1.104833202e-12,8.034076050e-13,2.876539028e-12,1.786014832e-13,1.075425203e-12,1.592606922e-12,2.035827321e-13,6.577077767e-12,4.864440625e-13,1.015519749e-13
0.75,8.625725450e-13,1.088292524e-12,4.000185411e-12,2.360763773e-13,3.407872699e-14,7.126361190e-13,7.957191927e-12,1.671973369e-13,1.637725834e-14,1.223751058e-12,3.752175465e-12,1.492481523e-13,7.523044876e-14,2.820513745e-13,1.360870112e-12,7.376988215e-13,9.783228263e-13,1.807148874e-13,3.267978046e-14,2.881390886e-13,2.041682731e-13,5.223894158e-13,1.200250743e-12,1.045528147e-12,2.916841474e-12,1.878457561e-13,1.125354842e-12,1.716308383e-12,2.215404408e-13,5.624385036e-12,4.226912478e-13,1.082353592e-13
0.75781,6.810314937e-13,9.450649660e-13,3.759353116e-12,2.013013460e-13,2.929314169e-14,7.402727661e-13,9.942797364e-12,1.606477118e-13,1.633982483e-14,1.670362847e-12,4.324222677e-12,1.365627487e-13,7.212509429e-14,3.072134543e-13,1.616910837e-12,8.422187178e-13,1.086309422e-12,1.899195268e-13,3.730481945e-14,3.184208315e-13,1.651235438e-13,5.329590117e-13,1.304807765e-12,1.326235001e-12,2.732417948e-12,1.894911366e-13,1.124529921e-12,1.728595915e-12,2.253524974e-13,4.650597226e-12,3.456234859e-13,1.201391667e-13
0.76562,5.301525033e-13,7.805268730e-13,3.447197687e-12,1.622348908e-13,2.642432427e-14,8.515660589e-13,1.192421065e-11,1.716352415e-13,2.165357653e-14,2.223953409e-12,4.890312685e-12,1.370751167e-13,7.731817398e-14,3.072917738e-13,1.774761594e-12,8.846940288e-13,1.137058972e-12,1.940978617e-13,4.342765176e-14,3.330444139e-13,1.243670455e-13,5.217245422e-13,1.324813549e-12,1.644712538e-12,2.456287317e-12,1.721394847e-13,1.091323404e-12,1.748243775e-12,2.239884023e-13,3.889609869e-12,2.745857257e-13,1.199111736e-13
0.77344,4.066070124e-13,6.363886516e-13,3.051079339e-12,1.272566224e-13,2.152449904e-14,1.062376651e-12,1.347218935e-11,2.033377168e-13,2.820094844e-14,2.849827184e-12,5.297187401e-12,1.384308341e-13,9.608128201e-14,2.704326805e-13,1.808313116e-12,8.472306466e-13,1.077735995e-12,1.886004670e-13,4.893764376e-14,3.200609377e-13,9.375457448e-14,4.884502811e-13,1.243942498e-12,1.954425500e-12,2.139337719e-12,1.434852763e-13,1.052296679e-12,1.767178012e-12,2.284343100e-13,3.405445874e-12,2.085134870e-13,1.020584163e-13
0.78125,3.081212638e-13,5.039797813e-13,2.593741666e-12,9.966872745e-14,1.759929703e-14,1.352917434e-12,1.426012063e-11,2.540507349e-13,3.502165581e-14,3.530610145e-12,5.643469959e-12,1.546532599e-13,1.137992248e-13,2.480532811e-13,1.790678373e-12,8.011453568e-13,9.852068183e-13,1.708690759e-13,5.295287677e-14,2.917867148e-13,7.932246195e-14,4.353267672e-13,1.173254955e-12,2.247284052e-12,1.811439525e-12,1.179677458e-13,1.023150242e-12,1.700700887e-12,2.393489734e-13,3.187672745e-12,1.585304837e-13,8.547503663e-14
0.78906,2.429902751e-13,3.931438179e-13,2.129185378e-12,8.268681248e-14,1.735693258e-14,1.680921925e-12,1.404740597e-11,3.085703115e-13,4.735885781e-14,4.220807057e-12,6.030185215e-12,1.978393737e-13,1.357922295e-13,2.362803636e-13,1.692507462e-12,7.399956692e-13,8.775671636e-13,1.488638417e-13,5.759064142e-14,2.686683669e-13,7.965570701e-14,3.777690750e-13,1.098641341e-12,2.492636007e-12,1.590946039e-12,9.370703654e-14,1.020140655e-12,1.579227668e-12,2.527134636e-13,3.240472409e-12,1.279100859e-13,7.297098677e-14
0.79688,2.237027126e-13,3.377693536e-13,1.761104784e-12,8.456715081e-14,2.078421766e-14,1.992329951e-12,1.292342155e-11,3.552838380e-13,6.806502878e-14,4.902257626e-12,6.399141881e-12,2.719061318e-13,1.670350901e-13,2.270572888e-13,1.522773008e-12,6.562765960e-13,7.274905573e-13,1.336899250e-13,6.263647542e-14,2.505467228e-13,9.636774752e-14,3.311665330e-13,9.677712239e-13,2.655857525e-12,1.505409509e-12,6.790201909e-14,1.056650301e-12,1.476273121e-12,2.725298930e-13,3.589097302e-12,1.141037964e-13,5.421225273e-14
0.80469,2.308192471e-13,3.168439922e-13,1.536371438e-12,1.032087812e-13,2.674510332e-14,2.252066859e-12,1.107824515e-11,3.902754397e-13,8.856838973e-14,5.478663415e-12,6.674526281e-12,3.659761898e-13,1.802984164e-13,2.499800378e-13,1.395784504e-12,6.182968801e-13,5.980266800e-13,1.282735481e-13,6.703711099e-14,2.550577326e-13,1.294422252e-13,3.041088315e-13,8.822638206e-13,2.704782618e-12,1.531659794e-12,5.149882025e-14,1.138422693e-12,1.389585604e-12,2.936012080e-13,4.006453912e-12,1.105691103e-13,3.701431740e-14
0.8125,2.711735262e-13,3.250575173e-13,1.492779194e-12,1.452716990e-13,3.399292679e-14,2.404651682e-12,8.904537318e-12,4.018380023e-13,1.020313081e-13,5.882140596e-12,6.920089420e-12,4.602375192e-13,1.692600888e-13,2.998273524e-13,1.340405579e-12,6.404140538e-13,5.345113892e-13,1.363905575e-13,7.188058991e-14,2.906040185e-13,1.691389987e-13,2.984600002e-13,8.433952786e-13,2.656822147e-12,1.636403874e-12,4.305384103e-14,1.239421342e-12,1.257694281e-12,3.045804327e-13,4.501439307e-12,1.149848417e-13,2.712432041e-14
0.82031,3.450528475e-13,3.842182756e-13,1.669024568e-12,2.097574668e-13,4.313792573e-14,2.389218100e-12,6.780181303e-12,3.791355757e-13,1.164613689e-13,6.082217342e-12,7.220537769e-12,5.584484670e-13,1.568627655e-13,3.676370201e-13,1.336556052e-12,6.956214046e-13,5.109254973e-13,1.600831401e-13,7.934251713e-14,3.447600724e-13,2.087582010e-13,3.139499574e-13,7.873266019e-13,2.512053638e-12,1.789967863e-12,3.545925765e-14,1.321762603e-12,1.095046578e-12,2.902989302e-13,5.116093013e-12,1.296130530e-13,2.081176543e-14
0.82812,3.988669417e-13,4.437534658e-13,1.970876063e-12,2.776606845e-13,5.409372386e-14,2.232304331e-12,5.069362118e-12,3.385892068e-13,1.324003680e-13,6.064661437e-12,7.428487774e-12,6.542319583e-13,1.430016889e-13,4.619908937e-13,1.425463500e-12,8.010239373e-13,5.334026748e-13,1.890267077e-13,9.103882618e-14,4.121110458e-13,2.571357798e-13,3.373070682e-13,7.598851840e-13,2.272051368e-12,1.901457711e-12,3.268486731e-14,1.382686746e-12,9.491960603e-13,2.709142456e-13,5.597849963e-12,1.452434209e-13,1.850676486e-14
0.83594,4.354111908e-13,4.999439601e-13,2.367668935e-12,3.608194400e-13,6.338957398e-14,1.984543706e-12,3.987627077e-12,2.918156994e-13,1.366718441e-13,5.802948753e-12,7.419752850e-12,7.147408765e-13,1.156313033e-13,5.532720506e-13,1.588342046e-12,9.362001625e-13,5.979277451e-13,2.166285260e-13,1.068281592e-13,4.731984423e-13,3.143861883e-13,3.545694476e-13,7.678035311e-13,2.000081995e-12,1.941730773e-12,3.318954910e-14,1.404494409e-12,8.160161370e-13,2.491676555e-13,5.917469988e-12,1.620538294e-13,1.874270997e-14
0.84375,4.800087507e-13,5.829975112e-13,2.797673912e-12,4.615315968e-13,6.847113574e-14,1.649899456e-12,3.533497037e-12,2.396815976e-13,1.272248158e-13,5.329095393e-12,7.200042408e-12,7.227619280e-13,8.936548896e-14,5.998036202e-13,1.738604970e-12,1.029998506e-12,6.450332776e-13,2.401661118e-13,1.251754830e-13,5.067337711e-13,3.662318871e-13,3.603061017e-13,7.437397380e-13,1.694253306e-12,1.939450724e-12,2.879043093e-14,1.353250565e-12,6.725312745e-13,2.191830039e-13,6.246063498e-12,1.853838125e-13,1.723270571e-14
0.85156,4.884487891e-13,6.491362661e-13,3.127354032e-12,5.431566912e-13,7.104842390e-14,1.276017858e-12,3.604105884e-12,1.950930944e-13,1.159586422e-13,4.733142582e-12,6.778670962e-12,7.025559210e-13,7.478240148e-14,6.227312894e-13,1.856904655e-12,1.082102884e-12,6.631612236e-13,2.498602853e-13,1.427965356e-13,5.046681231e-13,4.030375442e-13,3.480242742e-13,7.115993632e-13,1.388857859e-12,1.853858224e-12,2.287197670e-14,1.249718359e-12,5.291289709e-13,1.935018416e-13,6.436141293e-12,2.087207979e-13,1.732308648e-14
0.85938,4.361426541e-13,6.659058087e-13,3.279233103e-12,6.027758358e-13,7.126359417e-14,9.356840909e-13,4.001460586e-12,1.684300668e-13,1.030213680e-13,4.064067973e-12,6.154383991e-12,6.536426358e-13,6.886470133e-14,6.253494450e-13,1.929163364e-12,1.103937642e-12,6.709304558e-13,2.354049007e-13,1.579884410e-13,4.635181425e-13,4.327224208e-13,3.141935130e-13,7.124026622e-13,1.098219202e-12,1.693339629e-12,2.056776509e-14,1.125124593e-12,4.348865294e-13,1.840596725e-13,6.325399420e-12,2.240245885e-13,2.039005917e-14
0.86719,3.852761293e-13,6.882800228e-13,3.292083218e-12,6.642676546e-13,6.716104909e-14,6.636437331e-13,4.525574459e-12,1.563775767e-13,8.285824416e-14,3.397154298e-12,5.331261201e-12,5.732975084e-13,7.156320810e-14,5.769841875e-13,1.880436569e-12,1.048200268e-12,6.329123692e-13,2.060137374e-13,1.673449542e-13,3.959313786e-13,4.626580382e-13,2.731684683e-13,6.927628972e-13,8.592780995e-13,1.511800404e-12,1.881014615e-14,9.795935321e-13,3.950951080e-13,1.807491862e-13,6.103279926e-12,2.378947853e-13,2.058018189e-14
0.875,3.482222863e-13,7.114072922e-13,3.151810079e-12,7.067976647e-13,6.063331514e-14,4.624257020e-13,5.071933329e-12,1.584653794e-13,6.118010202e-14,2.821933179e-12,4.422178180e-12,4.832858249e-13,7.936621946e-14,4.917844190e-13,1.711337525e-12,9.203350392e-13,5.460542016e-13,1.743133467e-13,1.696668862e-13,3.163661608e-13,4.791960968e-13,2.376249608e-13,6.695250494e-13,6.685067476e-13,1.350337679e-12,1.789510615e-14,8.394930987e-13,4.102875239e-13,1.850838248e-13,5.838333066e-12,2.469353671e-13,2.101645854e-14
0.88281,2.921007460e-13,6.798284704e-13,2.804690167e-12,7.042334256e-13,5.451029528e-14,3.387829163e-13,5.591580914e-12,1.734519972e-13,4.483050649e-14,2.351540908e-12,3.545950172e-12,4.030297519e-13,8.402767528e-14,4.078737567e-13,1.483700674e-12,7.730303363e-13,4.545354914e-13,1.381975943e-13,1.663992576e-13,2.373737220e-13,4.744531539e-13,2.091547531e-13,6.872366985e-13,5.281166641e-13,1.179169022e-12,2.010362503e-14,7.327804506e-13,5.085499941e-13,2.003543979e-13,5.331361752e-12,2.413743176e-13,2.486202400e-14
0.89062,2.621496290e-13,6.467612408e-13,2.396352721e-12,6.894842754e-13,4.929653072e-14,2.724160804e-13,6.148046917e-12,1.903996793e-13,3.227847255e-14,2.037444411e-12,2.771989635e-12,3.378334738e-13,8.883651094e-14,3.306053704e-13,1.228843236e-12,6.246850201e-13,3.696704679e-13,9.877869761e-14,1.560724108e-13,1.694946746e-13,4.518371805e-13,1.951477401e-13,7.093263079e-13,4.295755314e-13,1.061637305e-12,2.463328644e-14,6.636300470e-13,6.847081973e-13,2.117354348e-13,4.777276317e-12,2.312535998e-13,2.604504920e-14
0.89844,2.658930016e-13,6.351474404e-13,1.992175817e-12,6.749696876e-13,4.422512268e-14,2.360624118e-13,6.805998879e-12,2.032178056e-13,2.248792854e-14,1.837604082e-12,2.132508376e-12,2.916493303e-13,9.360363732e-14,2.644107250e-13,9.935723120e-13,4.915138329e-13,2.959610793e-13,7.059532866e-14,1.380986995e-13,1.226494352e-13,4.239631451e-13,2.003763788e-13,7.305605689e-13,3.670798655e-13,9.932321029e-13,3.326179370e-14,6.331048741e-13,9.277940623e-13,2.186829477e-13,4.341593597e-12,2.199674348e-13,2.573444212e-14
0.90625,2.706643524e-13,5.888079206e-13,1.625583031e-12,6.306578243e-13,4.125780034e-14,2.142897819e-13,7.724998970e-12,2.132529858e-13,1.716108389e-14,1.745573394e-12,1.695371140e-12,2.727660934e-13,8.994640507e-14,2.286717087e-13,8.302748219e-13,4.002332863e-13,2.496748306e-13,5.604295090e-14,1.194621434e-13,9.726237157e-14,3.846214930e-13,2.140999181e-13,7.864047193e-13,3.231510830e-13,9.531821079e-13,4.554006100e-14,6.517082915e-13,1.252248192e-12,2.294914946e-13,3.865582297e-12,2.026842364e-13,2.845101469e-14
0.91406,2.937989747e-13,5.177806235e-13,1.358920839e-12,5.623573804e-13,3.963151451e-14,1.980779645e-13,8.940307208e-12,2.123482992e-13,1.467580599e-14,1.683468441e-12,1.463829129e-12,2.727307320e-13,7.992678434e-14,2.269216396e-13,7.721279509e-13,3.668016907e-13,2.407516978e-13,5.122735837e-14,1.033740364e-13,8.832171931e-14,3.348865012e-13,2.333836136e-13,8.382396916e-13,2.919144067e-13,9.305865533e-13,5.626605068e-14,7.003618863e-13,1.639771459e-12,2.369812968e-13,3.388164618e-12,1.808438626e-13,3.029969049e-14
0.92188,3.288892640e-13,4.661168251e-13,1.251608036e-12,5.008433041e-13,3.740900470e-14,1.781155038e-13,1.045949242e-11,1.974409305e-13,1.331016675e-14,1.612939926e-12,1.396927508e-12,2.837829028e-13,7.160254014e-14,2.547975502e-13,8.277330456e-13,3.936413325e-13,2.675355738e-13,5.511265465e-14,8.701285679e-14,9.236827728e-14,2.838945096e-13,2.549508943e-13,8.531999672e-13,2.899490118e-13,9.240449792e-13,6.701275084e-14,7.594934867e-13,2.007999557e-12,2.346419096e-13,3.014322648e-12,1.601494793e-13,2.932770729e-14
0.92969,3.260736061e-13,4.057603992e-13,1.282714629e-12,4.405346682e-13,3.462705526e-14,1.599705889e-13,1.219369646e-11,1.755410793e-13,1.374290540e-14,1.498069259e-12,1.476097955e-12,3.024386683e-13,6.217594557e-14,3.101254116e-13,9.847192893e-13,4.785630622e-13,3.316430372e-13,6.465865186e-14,7.034693335e-14,1.015393984e-13,2.434499239e-13,2.688312050e-13,8.679353553e-13,3.174014791e-13,8.864070709e-13,7.994047353e-14,8.204652739e-13,2.304345968e-12,2.312803279e-13,2.656864830e-12,1.382925697e-13,3.172813005e-14
0.9375,2.992672597e-13,3.250424081e-13,1.431463798e-12,3.676332611e-13,3.170372351e-14,1.554652776e-13,1.399813200e-11,1.539697401e-13,1.407482158e-14,1.328725038e-12,1.649988795e-12,3.182076999e-13,5.105345729e-14,3.760519172e-13,1.206212286e-12,6.046835429e-13,4.231435241e-13,8.022164219e-14,5.753346114e-14,1.111552472e-13,2.196505104e-13,2.704220768e-13,8.674722619e-13,3.866047678e-13,8.269746864e-13,8.739144440e-14,8.634766741e-13,2.581902229e-12,2.285029103e-13,2.257767486e-12,1.121657951e-13,3.420541784e-14
0.94531,2.835639742e-13,2.666675257e-13,1.675138948e-12,2.996311429e-13,2.802509607e-14,1.692116749e-13,1.563756866e-11,1.345188891e-13,1.286851767e-14,1.118513761e-12,1.885059645e-12,3.238249698e-13,4.370939981e-14,4.354780120e-13,1.442507681e-12,7.483921629e-13,5.245241942e-13,1.001386389e-13,4.992989624e-14,1.208088361e-13,2.206457759e-13,2.661983257e-13,8.158323209e-13,5.052446099e-13,7.773608317e-13,8.653955874e-14,8.683065657e-13,2.753923370e-12,2.151919473e-13,1.956631592e-12,8.803285105e-14,3.249606798e-14
0.95312,2.500281623e-13,2.280678329e-13,1.905077391e-12,2.538883183e-13,2.377377278e-14,2.004429134e-13,1.682639945e-11,1.240463431e-13,1.117667457e-14,8.941226840e-13,2.121889633e-12,3.170406924e-13,4.164693121e-14,4.783145363e-13,1.636066404e-12,8.791653609e-13,6.185698113e-13,1.117767004e-13,4.516017424e-14,1.248192935e-13,2.548493163e-13,2.529972759e-13,7.561649699e-13,6.507964338e-13,7.314185685e-13,8.460584324e-14,8.415691514e-13,2.729888128e-12,2.004863208e-13,1.794821786e-12,6.779867285e-14,3.113135390e-14
0.96094,2.006932498e-13,1.975680368e-13,2.100408353e-12,2.217464395e-13,1.960112607e-14,2.412422510e-13,1.731905984e-11,1.274960999e-13,1.001950622e-14,6.964061149e-13,2.383506692e-12,3.043114430e-13,4.147852323e-14,5.019538813e-13,1.753587775e-12,9.807518991e-13,6.924833261e-13,1.125935625e-13,4.293328222e-14,1.155544695e-13,3.261973372e-13,2.331689761e-13,7.177918550e-13,8.134910886e-13,7.132773110e-13,8.264443197e-14,7.956703488e-13,2.550046381e-12,1.884817472e-13,1.772910721e-12,5.166553426e-14,3.129647750e-14
0.96875,1.751665807e-13,1.869701927e-13,2.233111792e-12,1.993212527e-13,1.637473568e-14,2.789420176e-13,1.709717901e-11,1.401725531e-13,8.380259462e-15,5.318694308e-13,2.622483580e-12,2.776087514e-13,4.564317084e-14,4.901433449e-13,1.766576773e-12,1.029530672e-12,7.286773758e-13,1.099600694e-13,4.457886232e-14,1.041311987e-13,4.271605291e-13,2.188467813e-13,6.946768740e-13,1.004578464e-12,7.667564746e-13,8.047818876e-14,7.491628378e-13,2.327054693e-12,1.822004853e-13,1.984461239e-12,4.112310792e-14,3.015887699e-14
0.97656,1.704684899e-13,1.907736330e-13,2.255450973e-12,1.842065056e-13,1.377371398e-14,3.129543334e-13,1.612196055e-11,1.593328564e-13,6.844186223e-15,4.206527954e-13,2.832227460e-12,2.428531207e-13,5.239557281e-14,4.469123700e-13,1.666679453e-12,1.012995189e-12,7.143252037e-13,1.022089678e-13,4.987075003e-14,9.420338236e-14,5.484501693e-13,2.148459408e-13,7.086054515e-13,1.173163498e-12,8.865592563e-13,8.447244066e-14,7.255497013e-13,2.049280638e-12,1.814124284e-13,2.415346096e-12,3.616751875e-14,3.014650677e-14
0.98438,1.797912897e-13,1.855649344e-13,2.155075059e-12,1.784573229e-13,1.161870362e-14,3.410551751e-13,1.448316110e-11,1.811991816e-13,6.096128675e-15,3.675263638e-13,3.004808104e-12,2.080029474e-13,5.677434429e-14,3.873078103e-13,1.463683818e-12,9.294126991e-13,6.491803882e-13,8.292476922e-14,5.818225195e-14,8.030805615e-14,6.805463039e-13,2.216175036e-13,7.806447958e-13,1.287157097e-12,1.067175309e-12,9.965043246e-14,7.524070182e-13,1.724535791e-12,2.002238191e-13,2.981750874e-12,3.428511990e-14,3.434065736e-14
0.99219,2.257328466e-13,1.820785138e-13,2.000033068e-12,1.747581145e-13,9.945128940e-15,3.552905155e-13,1.244545943e-11,1.931078330e-13,6.088616443e-15,3.549066404e-13,3.158567704e-12,1.755609601e-13,5.689773447e-14,3.242815223e-13,1.220123926e-12,8.093909336e-13,5.579222265e-13,6.423909042e-14,6.768442197e-14,7.406220630e-14,7.987255982e-13,2.467655221e-13,8.939261903e-13,1.404601446e-12,1.321480447e-12,1.255464985e-13,8.425429681e-13,1.437161035e-12,2.360364411e-13,3.616876666e-12,3.343874296e-14,4.155111136e-14
1,2.912003545e-13,1.811087972e-13,1.808193508e-12,1.723254726e-13,9.522702487e-15,3.632351761e-13,1.032006058e-11,1.919095416e-13,6.436408067e-15,3.743199142e-13,3.279326215e-12,1.413722863e-13,5.597958115e-14,2.551057214e-13,9.595373594e-13,6.592491103e-13,4.435461702e-13,4.896663182e-14,7.606003851e-14,7.497123404e-14,8.791469830e-13,2.815244900e-13,1.023753383e-12,1.515235328e-12,1.579072990e-12,1.601255830e-13,9.855954013e-13,1.240292566e-12,2.888340268e-13,4.220750171e-12,3.378281785e-14,5.096396861e-14
1.0078,3.573276601e-13,1.749772093e-13,1.613852766e-12,1.683895459e-13,9.951200335e-15,3.691762330e-13,8.394598720e-12,1.804834716e-13,7.191036791e-15,4.233819263e-13,3.334488895e-12,1.135264780e-13,4.949319976e-14,1.981983714e-13,7.320799248e-13,5.091463144e-13,3.339007190e-13,3.749143991e-14,8.119285352e-14,8.107946299e-14,9.206884735e-13,3.204647028e-13,1.176437616e-12,1.563166448e-12,1.816643134e-12,2.022736965e-13,1.176305966e-12,1.134480777e-12,3.630239452e-13,4.619516790e-12,3.429808799e-14,6.315983705e-14
1.0156,4.314852416e-13,1.645275716e-13,1.421578067e-12,1.724197106e-13,1.104337916e-14,3.907080578e-13,6.784247567e-12,1.597370556e-13,7.153211201e-15,4.857256282e-13,3.339118069e-12,9.313407996e-14,3.937080836e-14,1.590870418e-13,5.702760511e-13,3.835724808e-13,2.486197533e-13,3.017031309e-14,8.220514423e-14,9.171496842e-14,9.101354660e-13,3.518355692e-13,1.297673597e-12,1.579178933e-12,2.003186754e-12,2.417971419e-13,1.382393069e-12,1.102104700e-12,4.636440109e-13,4.693441364e-12,3.485551613e-14,7.259624522e-14
1.0234,5.423930110e-13,1.771039831e-13,1.283377204e-12,2.006675985e-13,1.383238033e-14,4.232519816e-13,5.624622996e-12,1.298725424e-13,6.818764080e-15,5.497062284e-13,3.275530882e-12,7.343201494e-14,3.079386153e-14,1.254632939e-13,4.626651255e-13,2.779115830e-13,1.843444087e-13,2.667337954e-14,7.921585232e-14,9.979253686e-14,8.481715774e-13,3.721476419e-13,1.369384525e-12,1.555735562e-12,2.114484076e-12,2.713699162e-13,1.557390754e-12,1.118912835e-12,5.758313793e-13,4.557471711e-12,4.068175950e-14,7.750769064e-14
1.0312,6.659219739e-13,2.150490048e-13,1.231650107e-12,2.503859564e-13,1.771725888e-14,4.638120262e-13,4.897879109e-12,9.952113898e-14,7.098689238e-15,5.982864930e-13,3.120455616e-12,5.790337280e-14,2.440560914e-14,1.010695736e-13,4.161469928e-13,2.029854338e-13,1.491446569e-13,2.645952712e-14,7.254482240e-14,1.036122549e-13,7.544789835e-13,3.817292043e-13,1.416615998e-12,1.501254798e-12,2.124779791e-12,2.929486011e-13,1.687350586e-12,1.154310518e-12,6.968964276e-13,4.233530932e-12,5.352050986e-14,8.118546756e-14
1.0391,8.050601893e-13,2.758504906e-13,1.234608459e-12,3.292873678e-13,2.225061838e-14,5.139220809e-13,4.527756265e-12,7.470643970e-14,7.529505509e-15,6.097388702e-13,2.882697984e-12,4.608824915e-14,2.009973024e-14,8.411700177e-14,4.091741953e-13,1.573829768e-13,1.372250970e-13,2.665737776e-14,6.135733648e-14,1.024980448e-13,6.386858569e-13,3.756052148e-13,1.417781589e-12,1.415284512e-12,2.035858703e-12,2.986610734e-13,1.732189990e-12,1.181292176e-12,8.272862302e-13,3.727708591e-12,7.362319206e-14,8.126994754e-14
1.0469,1.030258690e-12,3.790657399e-13,1.373831182e-12,4.355997962e-13,2.686900468e-14,5.603557897e-13,4.384668711e-12,5.553152721e-14,8.425388591e-15,5.808139089e-13,2.590585136e-12,3.569837059e-14,1.848957914e-14,6.972180509e-14,4.229572767e-13,1.338879410e-13,1.418853930e-13,2.965718988e-14,4.900384004e-14,9.658631149e-14,5.146064002e-13,3.613302047e-13,1.368626122e-12,1.317483946e-12,1.875991386e-12,2.838184530e-13,1.663100847e-12,1.183689019e-12,9.258838174e-13,3.242618003e-12,1.028314364e-13,7.684153808e-14
1.0547,1.307849971e-12,5.099842527e-13,1.668041287e-12,5.452277548e-13,3.053259900e-14,5.799524634e-13,4.353892638e-12,4.442702461e-14,1.039633068e-14,5.076765153e-13,2.274141034e-12,2.758953609e-14,1.851492637e-14,5.676713082e-14,4.436861227e-13,1.276948906e-13,1.575119061e-13,3.585036653e-14,3.806020015e-14,8.993585320e-14,4.002367285e-13,3.487440290e-13,1.305431529e-12,1.224865887e-12,1.685136216e-12,2.587795598e-13,1.514332644e-12,1.155831853e-12,9.950001876e-13,2.860315173e-12,1.377869573e-13,7.255891253e-14
1.0625,1.623266236e-12,6.521438603e-13,2.057093454e-12,6.460836357e-13,3.313504222e-14,5.843259747e-13,4.327754800e-12,4.200275187e-14,1.302049927e-14,4.216607714e-13,1.920233500e-12,2.341203737e-14,1.929316274e-14,4.821478267e-14,4.604704913e-13,1.320889408e-13,1.758139358e-13,4.419003644e-14,3.114065068e-14,8.676981386e-14,3.095792052e-13,3.360898623e-13,1.237916347e-12,1.175789129e-12,1.482473817e-12,2.275689928e-13,1.309449469e-12,1.085823156e-12,1.036201478e-12,2.541973731e-12,1.760912059e-13,7.016957913e-14
1.0703,1.966437838e-12,7.940338572e-13,2.523841615e-12,7.221671698e-13,3.366984343e-14,5.594216490e-13,4.212984980e-12,4.576138359e-14,1.529043527e-14,3.308662233e-13,1.602582296e-12,2.234726815e-14,2.198691513e-14,4.340754520e-14,4.676438019e-13,1.442637278e-13,1.913838586e-13,5.485224321e-14,2.809222036e-14,8.974654038e-14,2.409879263e-13,3.216847989e-13,1.145894666e-12,1.185353681e-12,1.276994430e-12,1.891248965e-13,1.053914587e-12,9.745390220e-13,1.019140758e-12,2.295955302e-12,2.105461453e-13,6.817189482e-14
1.0781,2.245886253e-12,8.955327596e-13,2.973422178e-12,7.457171564e-13,3.198713900e-14,4.999979505e-13,3.997538137e-12,5.367130097e-14,1.705531765e-14,2.623240466e-13,1.326201570e-12,2.364601461e-14,2.782898300e-14,3.867600264e-14,4.499443939e-13,1.526344478e-13,1.981391409e-13,6.673492694e-14,3.106630140e-14,1.015070577e-13,1.978724627e-13,3.081629083e-13,1.045706791e-12,1.241325076e-12,1.096636586e-12,1.499260822e-13,8.019888886e-13,8.628443573e-13,9.472779674e-13,2.107788062e-12,2.310416289e-13,6.672804727e-14
1.0859,2.398006605e-12,9.297811976e-13,3.284956936e-12,7.111429931e-13,2.915242955e-14,4.248436593e-13,3.715642925e-12,6.272436912e-14,1.812995904e-14,2.246754072e-13,1.076223465e-12,2.720901377e-14,3.629700662e-14,3.619130347e-14,4.247792600e-13,1.594012164e-13,1.987300328e-13,7.614274487e-14,3.890254777e-14,1.199671626e-13,1.700403352e-13,2.878846483e-13,9.427158881e-13,1.339032456e-12,9.389546468e-13,1.173355439e-13,5.939692107e-13,7.691647501e-13,8.524007181e-13,1.873456971e-12,2.366589316e-13,6.659925265e-14
1.0938,2.453908609e-12,9.159612595e-13,3.423596744e-12,6.492310170e-13,2.648323510e-14,3.561947782e-13,3.427648456e-12,6.936762139e-14,1.772038867e-14,2.272484417e-13,8.945099372e-13,3.155960697e-14,4.737584660e-14,3.257474007e-14,3.720669901e-13,1.534148856e-13,1.848088377e-13,8.009763399e-14,4.969608775e-14,1.402247843e-13,1.546068943e-13,2.570764489e-13,8.252271110e-13,1.453802085e-12,7.713193817e-13,8.961233380e-14,4.375971196e-13,6.987123662e-13,7.598633818e-13,1.622285641e-12,2.313276928e-13,6.555151690e-14
1.1016,2.366613389e-12,8.525645821e-13,3.368012826e-12,5.645118419e-13,2.348936827e-14,2.969003079e-13,3.198443648e-12,7.332427721e-14,1.555502545e-14,2.656875908e-13,7.394896778e-13,3.619556882e-14,6.147072778e-14,2.795540165e-14,3.157831185e-13,1.412613141e-13,1.633581984e-13,7.989526745e-14,6.133266194e-14,1.597660197e-13,1.414665865e-13,2.204550833e-13,6.975198342e-13,1.555531365e-12,6.128957569e-13,6.755228703e-14,3.395051621e-13,6.527568953e-13,6.633950069e-13,1.373617264e-12,2.105883684e-13,6.187066359e-14
1.1094,2.100641249e-12,7.358388660e-13,3.111614710e-12,4.719630276e-13,2.135880844e-14,2.661518566e-13,3.100811930e-12,7.634656595e-14,1.316205267e-14,3.496693544e-13,6.247749631e-13,4.304971163e-14,7.310551063e-14,2.194165459e-14,2.582998050e-13,1.205668989e-13,1.328250099e-13,7.371963365e-14,7.094774392e-14,1.780629693e-13,1.287886843e-13,1.827528385e-13,5.794851532e-13,1.600359371e-12,4.714330911e-13,5.237588472e-14,2.996557402e-13,6.371372598e-13,5.807962720e-13,1.135915596e-12,1.779484003e-13,5.659323071e-14
1.1172,1.759147370e-12,6.028505646e-13,2.733348947e-12,3.952451420e-13,2.018555586e-14,2.782661490e-13,3.215983543e-12,7.883755007e-14,1.132802801e-14,5.000505194e-13,5.352884851e-13,5.225867048e-14,7.827453841e-14,1.742246547e-14,2.198828707e-13,1.023495708e-13,1.009295794e-13,6.274512959e-14,7.621616027e-14,1.847693738e-13,1.121160210e-13,1.483694552e-13,4.773663440e-13,1.555744530e-12,3.449716170e-13,4.337597764e-14,2.992383685e-13,6.616262737e-13,5.378737849e-13,9.740175189e-13,1.424147139e-13,5.157704547e-14
1.125,1.412749050e-12,4.837776642e-13,2.340478652e-12,3.465934336e-13,1.941100392e-14,3.349231311e-13,3.585023387e-12,8.561155946e-14,9.872793369e-15,7.636478926e-13,4.752137062e-13,6.371696769e-14,8.053316663e-14,1.426042391e-14,2.101171811e-13,9.348328117e-14,7.360942117e-14,5.106510987e-14,7.795808988e-14,1.821886352e-13,9.607622442e-14,1.232329923e-13,3.940510536e-13,1.437128696e-12,2.460182586e-13,3.923321711e-14,3.269878029e-13,7.111232215e-13,5.347579958e-13,9.455813483e-13,1.090860706e-13,4.657692986e-14
1.1328,1.056454560e-12,3.776410022e-13,1.965063490e-12,3.146324529e-13,1.833876423e-14,4.301388936e-13,4.147464647e-12,1.020868272e-13,9.579502560e-15,1.172246851e-12,4.554438448e-13,7.993812445e-14,7.914399071e-14,1.309121659e-14,2.326135750e-13,9.653109981e-14,5.030199044e-14,3.970690743e-14,7.490556857e-14,1.659527344e-13,7.914402063e-14,1.104525509e-13,3.324485594e-13,1.258370643e-12,1.862628819e-13,3.844306964e-14,3.709634811e-13,7.401806942e-13,5.527442723e-13,1.075995577e-12,7.936382099e-14,4.158660342e-14
1.1406,7.388728305e-13,2.922703025e-13,1.650444329e-12,2.967867959e-13,1.768768432e-14,5.619413027e-13,4.836830304e-12,1.311010084e-13,1.049581519e-14,1.753318199e-12,4.902243994e-13,1.005082002e-13,7.360737091e-14,1.487343539e-14,2.950946265e-13,1.216310301e-13,3.882162510e-14,3.347638737e-14,6.869626339e-14,1.425509913e-13,6.499552742e-14,1.071756642e-13,2.913862666e-13,1.047499206e-12,1.571267715e-13,3.927460663e-14,4.063197097e-13,7.484095017e-13,5.851547473e-13,1.360107260e-12,5.790043121e-14,3.866383987e-14
1.1484,5.001537785e-13,2.312156495e-13,1.418257591e-12,2.850881788e-13,1.664489551e-14,7.107835959e-13,5.509830150e-12,1.718835566e-13,1.153888998e-14,2.492890583e-12,6.048305408e-13,1.231464524e-13,7.041674606e-14,1.926191867e-14,3.920060197e-13,1.682736066e-13,3.934603333e-14,3.397886926e-14,6.343125994e-14,1.119979615e-13,5.906303136e-14,1.093532853e-13,2.610051607e-13,8.512234293e-13,1.590052339e-13,4.130983627e-14,4.355124794e-13,7.434026175e-13,6.314502048e-13,1.778310102e-12,4.384458401e-14,3.785671982e-14
1.1562,3.300468896e-13,1.903884922e-13,1.240673694e-12,2.712400400e-13,1.535433633e-14,8.539293725e-13,6.035352697e-12,2.195356263e-13,1.243895155e-14,3.314199462e-12,8.210790717e-13,1.447628895e-13,7.568657148e-14,2.811011635e-14,5.238960092e-13,2.417962300e-13,5.744426527e-14,4.509383921e-14,6.178223032e-14,8.207341035e-14,6.122817039e-14,1.129796188e-13,2.300539469e-13,7.206478990e-13,1.890582159e-13,4.040186224e-14,4.534067667e-13,7.037138289e-13,6.812576166e-13,2.287539425e-12,3.735929520e-14,3.642398090e-14
1.1641,2.166013962e-13,1.584902596e-13,1.088750095e-12,2.491876216e-13,1.451103725e-14,9.736289391e-13,6.277790510e-12,2.658152490e-13,1.358235003e-14,4.091257299e-12,1.153471312e-12,1.644121844e-13,8.844147663e-14,4.423868746e-14,6.881162205e-13,3.417601940e-13,9.787593043e-14,7.094260465e-14,6.850988999e-14,5.885998955e-14,7.138600564e-14,1.117862516e-13,2.015132244e-13,6.650130340e-13,2.427672445e-13,3.684056263e-14,4.552430367e-13,6.191731712e-13,7.189215318e-13,2.783757291e-12,3.674909582e-14,3.435093491e-14
1.1719,1.519353685e-13,1.325244541e-13,9.483600490e-13,2.211018913e-13,1.493493424e-14,1.056878311e-12,6.160056496e-12,3.005639897e-13,1.416837840e-14,4.679885415e-12,1.582549165e-12,1.761731426e-13,1.100488905e-13,7.013108113e-14,8.750538675e-13,4.644951392e-13,1.650190931e-13,1.138280075e-13,8.837040442e-14,4.821354021e-14,9.151221630e-14,1.047092931e-13,1.762670013e-13,6.910594242e-13,3.169791357e-13,3.200403002e-14,4.463139305e-13,5.185547808e-13,7.477480029e-13,3.204763420e-12,4.210614332e-14,3.258793680e-14
1.1797,1.246728178e-13,1.133562977e-13,8.244972483e-13,1.934067840e-13,1.700824378e-14,1.092093264e-12,5.707737243e-12,3.184180426e-13,1.441966134e-14,4.977929765e-12,2.090657005e-12,1.802387156e-13,1.399695987e-13,1.092617701e-13,1.082551606e-12,6.108187801e-13,2.668007832e-13,1.754781467e-13,1.215201126e-13,5.490787190e-14,1.206692395e-13,9.690919588e-14,1.591110164e-13,7.690640510e-13,4.116996558e-13,2.673056699e-14,4.309869326e-13,4.189499235e-13,7.654220338e-13,3.475509734e-12,5.511107110e-14,3.065213417e-14
1.1875,1.162592229e-13,9.762228401e-14,7.037205375e-13,1.719375893e-13,2.110120286e-14,1.063363061e-12,4.974783455e-12,3.158460866e-13,1.604165649e-14,4.906141559e-12,2.639005547e-12,1.790435820e-13,1.694107484e-13,1.620066861e-13,1.290449896e-12,7.693168011e-13,4.047664594e-13,2.588448909e-13,1.697199518e-13,8.459874612e-14,1.526154278e-13,9.056377438e-14,1.556830418e-13,8.496673556e-13,5.188626171e-13,1.976186398e-14,4.094836922e-13,3.158858006e-13,7.666586090e-13,3.556805007e-12,7.464691650e-14,2.676197489e-14
1.1953,1.356173620e-13,8.730156521e-14,6.267005963e-13,1.594388172e-13,2.733902467e-14,9.853021516e-13,4.102251894e-12,2.936635135e-13,2.017930279e-14,4.471010849e-12,3.148849139e-12,1.795720168e-13,1.867264221e-13,2.247084132e-13,1.479477106e-12,9.240367355e-13,5.720491776e-13,3.591851979e-13,2.253052100e-13,1.345173008e-13,1.839258444e-13,9.171360064e-14,1.771997937e-13,9.081864552e-13,6.451144669e-13,1.468723652e-14,3.854390503e-13,2.295900287e-13,7.499986835e-13,3.405656995e-12,1.052672727e-13,2.182278624e-14
1.2031,1.803852050e-13,8.669803867e-14,6.124303835e-13,1.567683273e-13,3.542921282e-14,8.740720183e-13,3.257940628e-12,2.626670410e-13,2.645973460e-14,3.815803126e-12,3.541877346e-12,1.805579186e-13,1.987087855e-13,2.879603543e-13,1.614699708e-12,1.059101232e-12,7.555966671e-13,4.657303244e-13,2.817550920e-13,2.065994500e-13,2.213054510e-13,1.025258874e-13,2.179641360e-13,9.228712568e-13,7.602418326e-13,1.289701423e-14,3.582676849e-13,1.713390600e-13,7.151210308e-13,3.114622941e-12,1.466274782e-13,1.807637759e-14
1.2109,2.540766693e-13,9.608837951e-14,6.712639074e-13,1.604441168e-13,4.447525581e-14,7.401519020e-13,2.579032229e-12,2.281004792e-13,3.639225480e-14,3.047674002e-12,3.833117032e-12,1.893690100e-13,2.029284705e-13,3.551638718e-13,1.699714370e-12,1.176705696e-12,9.507258070e-13,5.706416080e-13,3.323556786e-13,2.997184771e-13,2.552364087e-13,1.226100902e-13,2.821378642e-13,8.643934772e-13,8.613963370e-13,1.265977030e-14,3.231572239e-13,1.387306400e-13,6.541950674e-13,2.743266782e-12,1.921572021e-13,1.553773474e-14
1.2188,3.407171001e-13,1.088946858e-13,7.807332510e-13,1.673618739e-13,5.190387307e-14,6.080535234e-13,2.144545250e-12,2.005579771e-13,4.777477312e-14,2.322308558e-12,4.007211507e-12,2.098763481e-13,1.880925050e-13,4.099896837e-13,1.702778016e-12,1.242581320e-12,1.114732032e-12,6.569217624e-13,3.668954921e-13,3.998638616e-13,2.767959665e-13,1.472983667e-13,3.602408045e-13,7.480267864e-13,9.559739787e-13,1.393360131e-14,2.927347412e-13,1.287236323e-13,5.722081102e-13,2.301055157e-12,2.324065340e-13,1.301958915e-14
1.2266,4.417289428e-13,1.281610557e-13,9.339982575e-13,1.778109735e-13,5.602566105e-14,4.830162195e-13,1.980973192e-12,1.801646229e-13,5.720065384e-14,1.726056062e-12,4.037912374e-12,2.316504110e-13,1.615566313e-13,4.345663158e-13,1.609885664e-12,1.236829568e-12,1.213870786e-12,7.134817939e-13,3.829002664e-13,4.901358653e-13,2.905024800e-13,1.728808971e-13,4.340391950e-13,6.108374297e-13,1.061929626e-12,1.768718079e-14,2.718327697e-13,1.476657204e-13,4.846099565e-13,1.864253278e-12,2.655486596e-13,9.846996917e-15
1.2344,5.558966668e-13,1.463354830e-13,1.110664481e-12,1.823187355e-13,5.654205418e-14,3.723014995e-13,2.091758226e-12,1.668385205e-13,6.601093627e-14,1.290599759e-12,3.967341959e-12,2.508653202e-13,1.366850845e-13,4.340479940e-13,1.446420589e-12,1.174201488e-12,1.245438084e-12,7.301529897e-13,3.771979347e-13,5.655813786e-13,3.021704094e-13,1.934305424e-13,5.089963501e-13,4.668894120e-13,1.165144605e-12,2.202950157e-14,2.686324145e-13,1.920279120e-13,3.944466517e-13,1.568344220e-12,2.831646888e-13,7.396512623e-15
1.2422,6.138444478e-13,1.451319349e-13,1.206055428e-12,1.767997626e-13,5.302258181e-14,2.946378964e-13,2.395944130e-12,1.603394019e-13,7.370753396e-14,1.004603487e-12,3.838752414e-12,2.646158143e-13,1.156979531e-13,4.164937375e-13,1.246080984e-12,1.066277118e-12,1.203606588e-12,6.990967126e-13,3.501166052e-13,6.157294258e-13,3.045068738e-13,2.007819905e-13,5.818561267e-13,3.475437020e-13,1.284125325e-12,2.551329544e-14,2.923732000e-13,2.488673045e-13,3.150488090e-13,1.377449203e-12,2.749257253e-13,6.049796519e-15
1.25,6.608756137e-13,1.468814407e-13,1.279240029e-12,1.799555700e-13,4.571443906e-14,2.519420311e-13,2.873172083e-12,1.551582549e-13,7.524027491e-14,8.181546383e-13,3.688397966e-12,2.617938552e-13,9.727123045e-14,3.736675146e-13,1.023916684e-12,9.122788680e-13,1.082369503e-12,6.307340471e-13,3.082192374e-13,6.319955013e-13,2.916697013e-13,1.971821685e-13,6.314844591e-13,2.543302790e-13,1.446631150e-12,2.849993136e-14,3.432547010e-13,3.206850142e-13,2.670232739e-13,1.310794131e-12,2.534731451e-13,4.778662208e-15
1.2578,7.084280895e-13,1.571184598e-13,1.342513475e-12,1.953164914e-13,3.656163455e-14,2.329779834e-13,3.416051936e-12,1.474405369e-13,7.023472382e-14,6.895229581e-13,3.491448914e-12,2.391157021e-13,8.380166095e-14,3.101495324e-13,8.130424009e-13,7.348805541e-13,9.082710148e-13,5.398483193e-13,2.588229464e-13,6.105014479e-13,2.676046567e-13,1.865820898e-13,6.631871924e-13,2.059296315e-13,1.649957099e-12,3.245766598e-14,4.230204629e-13,4.111846308e-13,2.571832236e-13,1.422701837e-12,2.290420817e-13,3.297132150e-15
1.2656,6.937049899e-13,1.692850566e-13,1.326868338e-12,2.187163288e-13,2.857229370e-14,2.313894682e-13,3.971424759e-12,1.406103621e-13,6.332096841e-14,5.925003085e-13,3.249608802e-12,2.053180997e-13,7.597185158e-14,2.474225226e-13,6.458425048e-13,5.698986449e-13,7.271332135e-13,4.361384644e-13,2.071065015e-13,5.724330091e-13,2.383401052e-13,1.662001567e-13,6.822557044e-13,2.071405297e-13,1.822267379e-12,3.692581363e-14,5.029453202e-13,4.875867854e-13,2.856815527e-13,1.632193978e-12,2.120290307e-13,2.442199236e-15
1.2734,6.304168465e-13,1.970882229e-13,1.280258661e-12,2.598349966e-13,2.257031038e-14,2.511343602e-13,4.454247878e-12,1.332455297e-13,5.539301055e-14,5.204638204e-13,3.041995360e-12,1.701934243e-13,7.413283473e-14,1.983851861e-13,5.462383032e-13,4.413617802e-13,5.697708044e-13,3.329751868e-13,1.570590096e-13,5.314364112e-13,2.022545169e-13,1.409884388e-13,6.776906091e-13,2.555629499e-13,1.992106064e-12,4.127168390e-14,5.731861325e-13,5.375965158e-13,3.414498306e-13,1.896864070e-12,2.078887643e-13,2.192091044e-15
1.2812,5.728176552e-13,2.465513447e-13,1.267221277e-12,3.162867781e-13,1.879993222e-14,2.912757033e-13,4.828431549e-12,1.232523718e-13,4.381757518e-14,4.751552784e-13,2.836361407e-12,1.337089646e-13,7.370544154e-14,1.577175224e-13,4.959052138e-13,3.465262701e-13,4.495805814e-13,2.454025452e-13,1.134880417e-13,4.977836516e-13,1.580130573e-13,1.189972551e-13,6.377455637e-13,3.343033071e-13,2.144611352e-12,4.534853413e-14,6.205842917e-13,5.922894904e-13,4.126029115e-13,2.178346442e-12,2.225000311e-13,2.370631231e-15
1.2891,5.013742141e-13,3.029637167e-13,1.237958304e-12,3.675990002e-13,1.772258843e-14,3.378247189e-13,5.015781739e-12,1.146908717e-13,3.199662647e-14,4.583209118e-13,2.560293221e-12,1.053993074e-13,6.715318647e-14,1.380134173e-13,5.161459482e-13,3.058038724e-13,3.896215304e-13,1.811193733e-13,7.917391246e-14,4.785784698e-13,1.148999724e-13,1.012837412e-13,5.858627116e-13,4.355448281e-13,2.232013113e-12,5.080507242e-14,6.374858551e-13,6.724289981e-13,4.927272042e-13,2.304632848e-12,2.526864608e-13,2.763557214e-15
1.2969,4.197703722e-13,3.761060781e-13,1.215813765e-12,4.134276539e-13,1.834014764e-14,3.782512031e-13,5.007898839e-12,1.087312843e-13,2.370426548e-14,4.854508164e-13,2.264242569e-12,9.003119394e-14,5.672892996e-14,1.374191071e-13,5.765526516e-13,3.063776106e-13,3.780117974e-13,1.383477500e-13,5.495244623e-14,4.794896707e-13,8.165931270e-14,8.657106375e-14,5.224704291e-13,5.646682092e-13,2.220193645e-12,5.830161661e-14,6.143920681e-13,7.427241457e-13,5.652548624e-13,2.256429752e-12,2.940343287e-13,3.082596917e-15
1.3047,3.575110815e-13,4.592858551e-13,1.241511483e-12,4.502751477e-13,1.862097679e-14,4.227718164e-13,4.771756394e-12,1.025937225e-13,1.763051293e-14,5.291933172e-13,1.989793364e-12,8.476560871e-14,4.860858284e-14,1.485112151e-13,6.582386643e-13,3.346748267e-13,3.978725581e-13,1.151203381e-13,4.116745083e-14,4.977311450e-13,5.805978395e-14,7.751449427e-14,4.385858886e-13,6.999110529e-13,2.176891733e-12,6.717606476e-14,5.725439606e-13,8.356617098e-13,6.241996517e-13,2.066424491e-12,3.363115322e-13,3.637885497e-15
1.3125,3.305223607e-13,5.237439754e-13,1.300681032e-12,4.602478750e-13,1.877501637e-14,4.656061898e-13,4.354420050e-12,9.961656972e-14,1.250998750e-14,5.979051623e-13,1.724796656e-12,8.724632900e-14,4.029535160e-14,1.671456895e-13,7.427581687e-13,3.760807394e-13,4.326578630e-13,1.033046352e-13,3.469494888e-14,5.199237405e-13,4.342789987e-14,7.160224021e-14,3.511984421e-13,8.245162410e-13,2.122416545e-12,7.649554128e-14,5.333347966e-13,1.010707300e-12,6.721803939e-13,1.784691017e-12,3.736487734e-13,4.938488869e-15
1.3203,3.379803821e-13,5.689288904e-13,1.379569576e-12,4.378946206e-13,1.829701989e-14,5.116001396e-13,3.768293659e-12,1.008839932e-13,1.076530616e-14,6.657146482e-13,1.457693875e-12,9.360749750e-14,2.994227963e-14,1.909573457e-13,8.175309911e-13,4.191652012e-13,4.626332749e-13,9.546373157e-14,3.431607487e-14,5.310734570e-13,4.254965530e-14,6.588445060e-14,2.840726087e-13,9.195706819e-13,2.050165282e-12,8.781702248e-14,5.091054843e-13,1.258311769e-12,7.132485305e-13,1.433395690e-12,4.022302200e-13,5.543586839e-15
1.3281,3.923478635e-13,6.085915033e-13,1.515857128e-12,3.987468603e-13,1.618259843e-14,5.619060172e-13,3.090393799e-12,1.041259732e-13,1.050791088e-14,7.212087515e-13,1.221551706e-12,9.400169721e-14,2.417951285e-14,2.023755189e-13,8.505882423e-13,4.375424212e-13,4.557935193e-13,8.821917169e-14,3.761396708e-14,5.277997513e-13,5.207070558e-14,5.987548044e-14,2.333775263e-13,9.905828254e-13,1.978074429e-12,1.041773891e-13,5.126693337e-13,1.524687743e-12,7.459086437e-13,1.153159075e-12,4.203589294e-13,5.468573139e-15
1.3359,4.729182344e-13,6.190935836e-13,1.652057787e-12,3.464246868e-13,1.287745372e-14,6.286366032e-13,2.389343419e-12,1.088902240e-13,9.436943744e-15,7.586270580e-13,1.017173117e-12,8.727865048e-14,2.168819180e-14,1.955193597e-13,8.321490574e-13,4.224670374e-13,4.105120195e-13,7.826818696e-14,4.158266535e-14,4.989251073e-13,6.552320099e-14,5.526348915e-14,2.057622695e-13,1.028134037e-12,1.963281203e-12,1.221963495e-13,5.511230804e-13,1.798085873e-12,7.689988766e-13,9.720742759e-13,4.250000475e-13,6.493035097e-15
1.3438,5.609804182e-13,5.900158591e-13,1.744040755e-12,2.810334539e-13,1.007400136e-14,7.111086388e-13,1.705401417e-12,1.164569904e-13,8.785217776e-15,7.761699936e-13,8.428825518e-13,7.722777742e-14,1.992247231e-14,1.794274645e-13,7.708485080e-13,3.848464741e-13,3.504026336e-13,6.565625976e-14,4.472724717e-14,4.483522846e-13,8.142878921e-14,5.202920942e-14,2.082470265e-13,1.026299637e-12,2.011520860e-12,1.387315989e-13,6.311182286e-13,2.117955694e-12,7.945659396e-13,8.989727143e-13,4.209120270e-13,7.954333006e-15
1.3516,6.365763085e-13,5.387158512e-13,1.760747779e-12,2.178309591e-13,7.767395452e-15,8.019701316e-13,1.118779468e-12,1.212846799e-13,8.837061573e-15,7.705969702e-13,6.937021899e-13,6.383493952e-14,2.018065746e-14,1.591575703e-13,6.909656625e-13,3.357903418e-13,2.786725278e-13,5.193762676e-14,4.596166350e-14,3.811545063e-13,9.746188225e-14,5.342245652e-14,2.360196338e-13,9.881745074e-13,2.067707292e-12,1.540947989e-13,7.335996915e-13,2.389984966e-12,8.157312754e-13,9.051038641e-13,4.015819279e-13,8.718756874e-15
1.3594,6.803537754e-13,4.751119711e-13,1.691057540e-12,1.682719306e-13,5.792897914e-15,8.993010273e-13,6.537721738e-13,1.250183800e-13,7.980675439e-15,7.747797228e-13,5.721013720e-13,4.807802142e-14,2.090061073e-14,1.291003982e-13,5.863073495e-13,2.711733911e-13,2.002072362e-13,4.108078902e-14,4.484508554e-14,3.109145722e-13,1.126665329e-13,6.001560321e-14,2.836250324e-13,9.550335220e-13,2.071900348e-12,1.685930638e-13,8.293592727e-13,2.500488798e-12,8.140583556e-13,9.438060338e-13,3.685442519e-13,1.058541231e-14
1.3672,6.740737589e-13,3.913381955e-13,1.509104355e-12,1.367187909e-13,4.762754272e-15,9.804146039e-13,3.487728490e-13,1.254397171e-13,6.148936118e-15,7.848661202e-13,4.804560190e-13,3.408266023e-14,1.806090322e-14,9.539378308e-14,4.850645429e-13,2.068533463e-13,1.323030535e-13,3.304153660e-14,4.037722516e-14,2.471361162e-13,1.233195146e-13,7.066963155e-14,3.369179394e-13,9.414230177e-13,2.032125773e-12,1.763955325e-13,9.039133192e-13,2.484107223e-12,7.954356850e-13,9.448046242e-13,3.246583980e-13,1.356403826e-14
1.375,6.198048232e-13,3.019769603e-13,1.249010765e-12,1.234513324e-13,4.919326565e-15,1.037186351e-12,1.943553055e-13,1.244130410e-13,4.568996851e-15,8.295322344e-13,4.127732165e-13,2.413827821e-14,1.459809512e-14,6.720749515e-14,4.119098125e-13,1.574033229e-13,8.269080324e-14,2.811608787e-14,3.424549851e-14,1.964955955e-13,1.371384940e-13,8.439272434e-14,3.680960461e-13,9.581880370e-13,1.936760356e-12,1.719461157e-13,9.464090494e-13,2.382078509e-12,7.653802887e-13,9.045767764e-13,2.716856094e-13,1.458706687e-14
1.3828,5.334856564e-13,2.286444330e-13,9.675361427e-13,1.275565596e-13,6.232680634e-15,1.050085999e-12,2.184618256e-13,1.201731550e-13,3.538797166e-15,9.054840762e-13,3.609481957e-13,1.814443386e-14,1.245684909e-14,4.905802653e-14,3.839152965e-13,1.322764941e-13,5.347119188e-14,2.726354279e-14,2.813290946e-14,1.671704891e-13,1.587227954e-13,9.957491104e-14,3.800027659e-13,1.010473432e-12,1.756265829e-12,1.607765926e-13,9.411928697e-13,2.161833588e-12,7.131418057e-13,8.376202972e-13,2.140899784e-13,1.530995977e-14
1.3906,4.379814687e-13,1.764889814e-13,7.113065331e-13,1.468839594e-13,8.293432111e-15,1.022290618e-12,4.406375839e-13,1.145569608e-13,2.859576615e-15,1.010208082e-12,3.301119028e-13,1.577442229e-14,1.006862756e-14,3.917103692e-14,4.086570586e-13,1.309344380e-13,4.108572850e-14,2.755477188e-14,2.311714681e-14,1.586736091e-13,1.908344637e-13,1.097705141e-13,3.719715141e-13,1.120692735e-12,1.477767573e-12,1.451723706e-13,8.741096111e-13,1.786809229e-12,6.347753238e-13,7.744854282e-13,1.602115061e-13,1.700124844e-14
1.3984,3.364891854e-13,1.429060721e-13,4.965305223e-13,1.781090088e-13,1.040764895e-14,9.507574034e-13,8.687099545e-13,1.079335153e-13,2.344490434e-15,1.118659304e-12,3.205730823e-13,1.555989865e-14,7.917069728e-15,3.748498637e-14,4.834235996e-13,1.546397712e-13,4.191923157e-14,3.102308564e-14,2.137289468e-14,1.729506759e-13,2.388824552e-13,1.186480108e-13,3.410552928e-13,1.285699858e-12,1.194094568e-12,1.224349567e-13,7.704767382e-13,1.386526645e-12,5.454417113e-13,7.380743111e-13,1.116585205e-13,1.711291578e-14
1.4062,2.512141611e-13,1.286825603e-13,3.529964818e-13,2.155848558e-13,1.268934124e-14,8.480732410e-13,1.485755904e-12,1.001257945e-13,2.153304309e-15,1.211811927e-12,3.328287364e-13,1.727530868e-14,8.465650810e-15,4.776941946e-14,6.054072916e-13,2.051143918e-13,5.572428542e-14,3.948502729e-14,2.481256790e-14,2.134594644e-13,3.055451846e-13,1.267597144e-13,2.911730695e-13,1.509091017e-12,9.618486922e-13,9.482375413e-14,6.418268805e-13,1.020136775e-12,4.504548463e-13,7.714005173e-13,7.249335859e-14,1.515818277e-14
1.4141,1.999318577e-13,1.254083061e-13,2.738708079e-13,2.446204476e-13,1.487371351e-14,7.261105395e-13,2.260777145e-12,9.223278432e-14,3.203490009e-15,1.265362542e-12,3.510624232e-13,2.238650514e-14,9.791627342e-15,6.763432227e-14,7.442681152e-13,2.691129960e-13,8.493156224e-14,5.298109812e-14,3.510570186e-14,2.801422693e-13,3.910115378e-13,1.331052902e-13,2.486792231e-13,1.749636923e-12,8.039904370e-13,7.136960278e-14,5.068316907e-13,6.988747165e-13,3.560241019e-13,8.674498563e-13,4.575881138e-14,1.485290274e-14
1.4219,1.905755644e-13,1.293077702e-13,2.442791688e-13,2.669328380e-13,1.609955657e-14,6.053654061e-13,3.112280500e-12,8.528634467e-14,5.633950328e-15,1.262249209e-12,3.655811205e-13,2.951788725e-14,1.233774177e-14,8.572477016e-14,8.600055776e-13,3.276341139e-13,1.248584865e-13,7.154744855e-14,5.184406604e-14,3.710484562e-13,4.891396819e-13,1.380118596e-13,2.173000361e-13,2.017143102e-12,7.440031948e-13,5.280514164e-14,3.801070888e-13,4.314536558e-13,2.669170851e-13,1.034689623e-12,3.009806514e-14,1.529933667e-14
1.4297,2.179472906e-13,1.372549659e-13,2.540285289e-13,2.856475426e-13,1.624677658e-14,4.944040695e-13,3.929287388e-12,8.022875641e-14,8.526130148e-15,1.201102228e-12,3.801392391e-13,3.591174730e-14,1.843973993e-14,1.023034634e-13,9.451034899e-13,3.746400141e-13,1.674133723e-13,9.566671638e-14,7.385392353e-14,4.756521430e-13,5.888137587e-13,1.428723616e-13,1.928377321e-13,2.315682945e-12,7.935153880e-13,3.734597881e-14,2.767437066e-13,2.737746816e-13,1.917160762e-13,1.249400804e-12,2.365327260e-14,1.432316750e-14
1.4375,2.781764848e-13,1.346226715e-13,2.858978588e-13,2.863143888e-13,1.581365557e-14,3.957130410e-13,4.575516826e-12,7.714801973e-14,1.254962662e-14,1.104982912e-12,3.986829090e-13,4.395711953e-14,2.821821680e-14,1.172909861e-13,9.725279161e-13,4.019930382e-13,2.135135267e-13,1.218128288e-13,1.004282381e-13,5.878113556e-13,6.879352450e-13,1.437568059e-13,1.844910848e-13,2.670656837e-12,9.231899768e-13,2.768702480e-14,2.025913425e-13,2.333816221e-13,1.327017461e-13,1.483856072e-12,2.398741721e-14,1.416012202e-14
1.4453,3.746360489e-13,1.234246354e-13,3.317199645e-13,2.654866074e-13,1.495207445e-14,3.142864781e-13,4.951909934e-12,7.563434611e-14,1.854659330e-14,9.910329458e-13,4.097665197e-13,5.337268135e-14,4.288037452e-14,1.241355040e-13,9.382676547e-13,4.009580931e-13,2.587394051e-13,1.430673277e-13,1.270112744e-13,6.890801853e-13,7.761383636e-13,1.368141759e-13,1.885768321e-13,3.063671992e-12,1.135097045e-12,2.540503108e-14,1.599257923e-13,2.997146373e-13,9.173369367e-14,1.740007866e-12,3.032634345e-14,1.636476878e-14
1.4531,4.950121440e-13,1.142537660e-13,3.970590487e-13,2.364731765e-13,1.321026065e-14,2.559041690e-13,4.982172592e-12,7.583855484e-14,2.524281756e-14,8.950897962e-13,4.271711981e-13,5.991132964e-14,6.256012774e-14,1.161524266e-13,8.343558196e-13,3.611454948e-13,2.926540842e-13,1.610245778e-13,1.506800307e-13,7.643477136e-13,8.366391398e-13,1.253981007e-13,1.968397439e-13,3.520032569e-12,1.410522707e-12,2.995335427e-14,1.524043926e-13,4.710983077e-13,6.827376140e-14,2.021657997e-12,3.970828406e-14,1.974474762e-14
1.4609,6.042279375e-13,1.028274680e-13,4.622864995e-13,2.028528066e-13,1.113161940e-14,2.124358123e-13,4.673403214e-12,7.612296872e-14,3.047800790e-14,8.343493111e-13,4.669437829e-13,6.364567310e-14,8.129130648e-14,1.021857477e-13,7.039810499e-13,3.049075823e-13,3.102219438e-13,1.736039798e-13,1.670658463e-13,8.000622012e-13,8.614344438e-13,1.115022317e-13,2.221675435e-13,4.039869507e-12,1.722144703e-12,4.109290317e-14,1.777893878e-13,7.636400523e-13,6.352042788e-14,2.259467828e-12,4.977327439e-14,2.407576909e-14
1.4688,6.876074490e-13,8.650799842e-14,5.082845814e-13,1.610257620e-13,9.749511997e-15,1.806630836e-13,4.105647757e-12,7.470866336e-14,3.541519098e-14,8.276509022e-13,5.423089591e-13,6.971533402e-14,9.706831270e-14,9.012721274e-14,5.670925708e-13,2.497972116e-13,3.273191185e-13,1.812070309e-13,1.765472800e-13,7.915792396e-13,8.583779616e-13,9.879679190e-14,2.682152982e-13,4.623738927e-12,2.052990868e-12,5.793940073e-14,2.303982753e-13,1.176958981e-12,7.669498715e-14,2.407518546e-12,5.932138158e-14,3.043534001e-14
1.4766,7.352586553e-13,7.328771250e-14,5.321383233e-13,1.211871784e-13,8.389856636e-15,1.563664620e-13,3.374048478e-12,6.948562970e-14,4.128415110e-14,8.791115292e-13,6.346254827e-13,7.806060921e-14,1.134909414e-13,7.704987239e-14,4.212443657e-13,1.931091498e-13,3.531733133e-13,1.861941166e-13,1.801534164e-13,7.551182066e-13,8.321737468e-13,9.292252276e-14,3.282795094e-13,5.221807260e-12,2.421398760e-12,7.984327541e-14,3.084688048e-13,1.675787800e-12,1.051853984e-13,2.437091371e-12,6.476088578e-14,3.958856473e-14
1.4844,7.353649314e-13,6.341449580e-14,5.298859608e-13,8.986131087e-14,6.875349048e-15,1.401773431e-13,2.616589118e-12,6.277597735e-14,4.555184698e-14,9.673417585e-13,7.394823468e-13,8.576137349e-14,1.241469138e-13,6.490185207e-14,2.961714462e-13,1.452875475e-13,3.814347084e-13,1.901931070e-13,1.748004451e-13,6.815955907e-13,7.732888041e-13,9.634692006e-14,4.078212576e-13,5.788010217e-12,2.744774830e-12,1.045683353e-13,3.967507531e-13,2.175371739e-12,1.442363227e-13,2.343904043e-12,6.679602732e-14,5.115498298e-14
1.4922,6.727740789e-13,5.187454228e-14,4.853977724e-13,6.906767500e-14,5.925399986e-15,1.292940348e-13,1.940072319e-12,5.601037498e-14,4.642604102e-14,1.065587362e-12,8.547454372e-13,9.327277246e-14,1.209132542e-13,5.764155358e-14,2.034743396e-13,1.153436583e-13,4.118665811e-13,1.963434661e-13,1.604075178e-13,5.806444178e-13,6.849869772e-13,1.099752223e-13,5.044742970e-13,6.262573674e-12,2.982172191e-12,1.285159008e-13,4.905963509e-13,2.634721408e-12,1.947809052e-13,2.059852419e-12,6.660639896e-14,6.181712806e-14
1.5,5.699159220e-13,4.319777320e-14,4.195842116e-13,5.910276725e-14,5.789514965e-15,1.219284877e-13,1.403930797e-12,5.067763620e-14,4.606465042e-14,1.151058349e-12,9.588011110e-13,1.035101617e-13,1.104595261e-13,5.592737555e-14,1.374929321e-13,9.823408124e-14,4.408681215e-13,2.027506736e-13,1.427215328e-13,4.749131989e-13,5.911418372e-13,1.288962406e-13,5.805412364e-13,6.591569125e-12,3.094864647e-12,1.452379768e-13,5.794071371e-13,3.015812274e-12,2.501659825e-13,1.682198500e-12,6.570416152e-14,6.815773998e-14
1.5078,4.498456781e-13,4.027915905e-14,3.546748449e-13,6.010391506e-14,6.080528635e-15,1.147599834e-13,1.031977812e-12,4.782436571e-14,4.581543138e-14,1.193238277e-12,1.013943289e-12,1.136735063e-13,9.971000386e-14,5.907598725e-14,9.560640880e-14,9.261558573e-14,4.739592181e-13,2.080126037e-13,1.252700161e-13,3.801047787e-13,4.997813318e-13,1.483891048e-13,6.354239176e-13,6.697170689e-12,3.082326151e-12,1.542932971e-13,6.565834467e-13,3.250663965e-12,3.001826684e-13,1.269554334e-12,6.488711837e-14,7.162856498e-14
1.5156,3.305966828e-13,4.133840686e-14,3.029762604e-13,7.289744565e-14,6.633492989e-15,1.076330633e-13,8.103796558e-13,4.816828199e-14,4.352846736e-14,1.172673427e-12,1.029820799e-12,1.188044472e-13,8.674142554e-14,6.228693223e-14,7.721592914e-14,9.290167949e-14,4.993422467e-13,2.098954884e-13,1.075626848e-13,2.979428350e-13,4.071970524e-13,1.621826828e-13,6.758569221e-13,6.581131865e-12,2.911510734e-12,1.572765757e-13,7.128709616e-13,3.262074368e-12,3.399195352e-13,8.986965854e-13,6.700163387e-14,7.294494998e-14
1.5234,2.186791046e-13,4.908037582e-14,2.691373968e-13,9.404535883e-14,7.339786771e-15,1.031294581e-13,7.003840922e-13,5.073236973e-14,3.785305150e-14,1.079210260e-12,1.037332671e-12,1.161652322e-13,7.038297476e-14,6.136003513e-14,8.101176261e-14,9.201231424e-14,4.973945863e-13,2.067441531e-13,8.826230066e-14,2.298258590e-13,3.159196371e-13,1.677050439e-13,6.832703764e-13,6.197735240e-12,2.652369796e-12,1.520545754e-13,7.477615118e-13,3.133032394e-12,3.642347171e-13,5.828944502e-13,7.264542175e-14,6.844879500e-14
1.5312,1.321746784e-13,6.566367996e-14,2.670420828e-13,1.181608471e-13,8.410009982e-15,9.942954714e-14,6.603094746e-13,5.451454908e-14,3.204522655e-14,9.521574117e-13,1.031833515e-12,1.124210451e-13,5.728312380e-14,6.046457409e-14,1.026015039e-13,8.894628680e-14,4.625460703e-13,1.951107594e-13,7.033721333e-14,1.817122329e-13,2.398993843e-13,1.614187580e-13,6.464405789e-13,5.632819319e-12,2.362084227e-12,1.382668205e-13,7.546732260e-13,2.913117689e-12,3.696064414e-13,3.736760713e-13,8.176234736e-14,5.801705553e-14
1.5391,7.437203513e-14,8.831659494e-14,2.833690424e-13,1.396411060e-13,9.767461603e-15,9.314559985e-14,6.574719834e-13,5.727324546e-14,2.728422455e-14,7.948875174e-13,9.949490281e-13,1.072396491e-13,5.061211234e-14,6.380956946e-14,1.519817620e-13,9.517679977e-14,4.185205184e-13,1.775364961e-13,5.722404535e-14,1.554880363e-13,1.840814031e-13,1.475289819e-13,6.097948271e-13,4.904834169e-12,2.098304945e-12,1.256486790e-13,7.407429381e-13,2.649583585e-12,3.598340062e-13,2.511449499e-13,9.451763027e-14,4.788848462e-14
1.5469,3.800916258e-14,1.193727726e-13,3.105491342e-13,1.588321739e-13,1.107173006e-14,8.500782968e-14,6.800123929e-13,5.694771979e-14,2.224227819e-14,6.377039873e-13,9.753506591e-13,1.010904471e-13,4.929956359e-14,6.966091718e-14,2.241436675e-13,1.102141021e-13,3.683216958e-13,1.559335909e-13,4.675929438e-14,1.488490540e-13,1.368155488e-13,1.282254603e-13,5.741988974e-13,4.099817715e-12,1.894335016e-12,1.162274142e-13,7.076011714e-13,2.373725208e-12,3.364318900e-13,1.816534902e-13,1.094606727e-13,3.914593573e-14
1.5547,1.867840627e-14,1.540927197e-13,3.367945927e-13,1.715615341e-13,1.279590486e-14,7.723918677e-14,7.385855583e-13,5.340862324e-14,1.783075139e-14,5.069236675e-13,9.852340004e-13,1.017321731e-13,5.116269033e-14,8.430427845e-14,3.326429265e-13,1.413408199e-13,3.123649531e-13,1.340674024e-13,3.769597028e-14,1.594727198e-13,1.007254809e-13,1.076549941e-13,5.255959680e-13,3.271996131e-12,1.757386054e-12,1.069913350e-13,6.497042088e-13,2.147258206e-12,3.015932586e-13,1.588420855e-13,1.236273010e-13,2.990312591e-14
1.5625,1.107190987e-14,1.837891229e-13,3.533297281e-13,1.720463975e-13,1.547116075e-14,6.943665415e-14,8.364140311e-13,4.855206853e-14,1.585333442e-14,4.222576973e-13,1.003615597e-12,1.137692905e-13,5.470831485e-14,1.122250551e-13,4.774708323e-13,1.906196536e-13,2.655443229e-13,1.156031531e-13,3.103045474e-14,1.837375895e-13,7.771853026e-14,8.914752453e-14,4.823212224e-13,2.519007811e-12,1.678626732e-12,1.007518133e-13,5.803879397e-13,1.978986217e-12,2.626211267e-13,1.705437088e-13,1.363736454e-13,2.221270782e-14
1.5703,1.012065152e-14,2.074187818e-13,3.533321930e-13,1.639873687e-13,1.838795172e-14,6.356891631e-14,1.006868185e-12,4.305158486e-14,1.644156584e-14,3.868477387e-13,1.021397222e-12,1.385301179e-13,6.099194864e-14,1.541386833e-13,6.475785282e-13,2.560534414e-13,2.448238561e-13,1.044202520e-13,2.805275953e-14,2.206298665e-13,6.650717237e-14,7.427780968e-14,4.497788354e-13,1.883219474e-12,1.605791491e-12,9.816881862e-14,5.016298636e-13,1.810702854e-12,2.226005418e-13,2.031967115e-13,1.441757270e-13,1.769776519e-14
1.5781,1.437305238e-14,2.222160445e-13,3.316794753e-13,1.502349234e-13,2.127095076e-14,5.936972244e-14,1.242349425e-12,3.830152940e-14,1.935104515e-14,3.966222315e-13,1.044612343e-12,1.752863349e-13,6.995079711e-14,2.105896580e-13,8.375329317e-13,3.358401220e-13,2.553034707e-13,1.044003179e-13,2.889888127e-14,2.659926521e-13,6.511753171e-14,6.661298510e-14,4.124996825e-13,1.407285082e-12,1.541764239e-12,9.591091806e-14,4.225133025e-13,1.633226325e-12,1.840018311e-13,2.577265551e-13,1.458773765e-13,1.431426883e-14
1.5859,2.126595380e-14,2.246543995e-13,2.986708657e-13,1.370347958e-13,2.482528643e-14,5.682367115e-14,1.547888174e-12,3.479552074e-14,2.484687980e-14,4.390957708e-13,1.063206742e-12,2.233147184e-13,7.860558409e-14,2.807051239e-13,1.038480236e-12,4.257427717e-13,2.949614109e-13,1.166886788e-13,3.298484120e-14,3.202749234e-13,7.435164222e-14,6.676558646e-14,3.734132565e-13,1.107248685e-12,1.472426888e-12,9.223502198e-14,3.519014818e-13,1.430929405e-12,1.513929629e-13,3.114274521e-13,1.453730742e-13,1.139557940e-14
1.5938,3.091528515e-14,2.154433194e-13,2.618260757e-13,1.264996254e-13,2.785509327e-14,5.689033825e-14,1.895331124e-12,3.306159205e-14,3.125684521e-14,5.010484482e-13,1.065472966e-12,2.740910082e-13,8.476645550e-14,3.527390148e-13,1.227197655e-12,5.127938615e-13,3.565983085e-13,1.423187189e-13,4.015942029e-14,3.855808007e-13,9.282999785e-14,7.457646677e-14,3.438308249e-13,9.828175845e-13,1.383870379e-12,8.906022301e-14,2.883448678e-13,1.207584912e-12,1.197430626e-13,3.602563648e-13,1.420953178e-13,1.005744520e-14
1.6016,4.376928656e-14,1.996041474e-13,2.215206116e-13,1.211859851e-13,2.932206354e-14,6.003220663e-14,2.281195127e-12,3.234300497e-14,3.765261293e-14,5.637741655e-13,1.046180312e-12,3.198133509e-13,9.077051621e-14,4.187182468e-13,1.384437494e-12,5.850602725e-13,4.289880682e-13,1.791013759e-13,5.020594121e-14,4.561613263e-13,1.177719338e-13,8.991214547e-14,3.144853617e-13,1.004811416e-12,1.276126352e-12,8.555725568e-14,2.359017180e-13,9.373867501e-13,9.010372483e-14,3.880075568e-13,1.345750308e-13,9.725476994e-15
1.6094,6.455086444e-14,1.882542167e-13,1.892924651e-13,1.257479271e-13,3.064714612e-14,6.627892122e-14,2.657249451e-12,3.288210447e-14,4.464588441e-14,6.206077303e-13,9.907207189e-13,3.580978775e-13,9.791840437e-14,4.788656096e-13,1.508096965e-12,6.428563507e-13,5.059227870e-13,2.210296629e-13,6.290138043e-14,5.203621846e-13,1.451753397e-13,1.109044891e-13,2.826932012e-13,1.138998714e-12,1.174130802e-12,8.092897198e-14,1.969112595e-13,6.811298910e-13,6.724359510e-14,4.183684803e-13,1.312147542e-13,9.752630704e-15
1.6172,9.232781610e-14,1.827785584e-13,1.749421260e-13,1.356545573e-13,3.150605513e-14,7.513296192e-14,2.969652038e-12,3.445439017e-14,5.070762784e-14,6.562143566e-13,8.990486226e-13,3.813523691e-13,1.042469719e-13,5.253400908e-13,1.586436210e-12,6.836800240e-13,5.832339137e-13,2.661345155e-13,7.791144505e-14,5.780179515e-13,1.730286949e-13,1.352942830e-13,2.586394115e-13,1.313816040e-12,1.057130350e-12,7.606690541e-14,1.653062270e-13,4.583966184e-13,4.827242326e-14,4.429228950e-13,1.305702905e-13,1.145735784e-14
1.625,1.284257945e-13,1.862614799e-13,1.750779008e-13,1.463757457e-13,3.130791131e-14,8.818634166e-14,3.261881401e-12,3.867265846e-14,5.417545548e-14,6.766631214e-13,7.930460428e-13,3.853674092e-13,1.094517040e-13,5.464347917e-13,1.611562627e-12,7.006265864e-13,6.405549234e-13,3.080625308e-13,9.273814995e-14,6.214242531e-13,1.958811435e-13,1.579659105e-13,2.336774089e-13,1.495491192e-12,9.231641642e-13,7.272154143e-14,1.386280958e-13,2.856941753e-13,3.303509372e-14,4.797244976e-13,1.316661167e-13,1.401169065e-14
1.6328,1.773529067e-13,2.018467855e-13,1.965766598e-13,1.572846579e-13,3.051844192e-14,1.067043878e-13,3.553045766e-12,4.586096489e-14,5.437546222e-14,6.643864348e-13,6.649877784e-13,3.658788292e-13,1.138837685e-13,5.353322968e-13,1.560533710e-12,6.837585932e-13,6.652692066e-13,3.373215706e-13,1.050126295e-13,6.338878944e-13,2.113328278e-13,1.759836143e-13,2.038690287e-13,1.592808839e-12,7.859491104e-13,6.801809176e-14,1.161468940e-13,1.685975993e-13,2.166803110e-14,5.313386093e-13,1.345416008e-13,1.651688152e-14
1.6406,2.305075144e-13,2.225677126e-13,2.363050623e-13,1.624611046e-13,3.000082740e-14,1.297909378e-13,3.758918713e-12,5.786288104e-14,5.287018251e-14,6.323193624e-13,5.384135299e-13,3.336996593e-13,1.192740999e-13,5.049867622e-13,1.451531391e-12,6.400457108e-13,6.590267658e-13,3.490026024e-13,1.152038840e-13,6.171199652e-13,2.157987332e-13,1.844523833e-13,1.722843339e-13,1.609185551e-12,6.659227259e-13,6.232174511e-14,9.491251146e-14,1.168052359e-13,1.426483281e-14,5.874331198e-13,1.381510383e-13,1.942277017e-14
1.6484,2.814665649e-13,2.388222685e-13,2.760297432e-13,1.557251922e-13,2.871723123e-14,1.514051279e-13,3.895704489e-12,7.423201108e-14,4.915400002e-14,5.924665752e-13,4.291144028e-13,2.895005693e-13,1.234311235e-13,4.528856631e-13,1.291412198e-12,5.765491828e-13,6.240809817e-13,3.419916052e-13,1.213122661e-13,5.712223653e-13,2.116487072e-13,1.825182836e-13,1.455089742e-13,1.543445808e-12,5.763915918e-13,5.694667845e-14,7.514420466e-14,1.388725925e-13,9.465485925e-15,6.189114250e-13,1.383964978e-13,2.236131672e-14
1.6562,3.278457056e-13,2.539792998e-13,3.231714573e-13,1.423720283e-13,2.676726256e-14,1.659336487e-13,3.972423100e-12,9.314186091e-14,4.313629480e-14,5.485665867e-13,3.450546040e-13,2.387098022e-13,1.239243591e-13,3.815514695e-13,1.090022046e-12,4.959371216e-13,5.624683331e-13,3.189778073e-13,1.218681473e-13,5.003438245e-13,2.006906064e-13,1.704903949e-13,1.187338668e-13,1.444651946e-12,5.466178003e-13,5.179652747e-14,5.744263016e-14,2.341324150e-13,6.777767141e-15,6.226977756e-13,1.360180528e-13,2.371452739e-14
1.6641,3.577841885e-13,2.623076327e-13,3.725841948e-13,1.268620935e-13,2.514413953e-14,1.740505201e-13,3.979877077e-12,1.125716937e-13,3.607464021e-14,5.056663625e-13,2.951792649e-13,1.918735193e-13,1.195645196e-13,3.043792188e-13,8.704890363e-13,4.045550256e-13,4.776093262e-13,2.790686616e-13,1.151820218e-13,4.150747072e-13,1.814103300e-13,1.497306082e-13,9.650601128e-14,1.365339220e-12,5.924622412e-13,4.777817197e-14,4.398327920e-14,4.023384507e-13,5.972583809e-15,6.113342555e-13,1.341270008e-13,2.371344821e-14
1.6719,3.653085400e-13,2.600435173e-13,4.063426540e-13,1.104127555e-13,2.377759166e-14,1.726192465e-13,3.882046497e-12,1.293099666e-13,2.961486228e-14,4.777915052e-13,2.819488209e-13,1.576059122e-13,1.110663954e-13,2.379713404e-13,6.717392468e-13,3.201193908e-13,3.856221807e-13,2.292095129e-13,1.039531227e-13,3.318125657e-13,1.628334043e-13,1.237821893e-13,8.499790316e-14,1.388610804e-12,7.239570440e-13,4.601883424e-14,3.556723575e-14,6.460370532e-13,7.274300041e-15,5.944718451e-13,1.331325138e-13,2.322790458e-14
1.6797,3.561685133e-13,2.551227879e-13,4.274271124e-13,1.009788910e-13,2.278916393e-14,1.623028739e-13,3.751001104e-12,1.398269978e-13,2.426172776e-14,4.564325445e-13,2.975662287e-13,1.361894640e-13,9.938965612e-14,1.854691992e-13,5.109144341e-13,2.505454140e-13,3.015467485e-13,1.796733881e-13,8.977390529e-14,2.670622119e-13,1.450861817e-13,9.582421828e-14,7.857915586e-14,1.557680607e-12,9.230158108e-13,4.711497066e-14,3.329412936e-14,9.509488790e-13,1.072069468e-14,6.138429117e-13,1.358161946e-13,2.225022039e-14
1.6875,3.362038102e-13,2.505842076e-13,4.399660364e-13,1.029902499e-13,2.332620561e-14,1.460770081e-13,3.585387059e-12,1.434954100e-13,2.040231448e-14,4.479102497e-13,3.350704226e-13,1.302940766e-13,8.469398069e-14,1.516355794e-13,4.017867529e-13,1.992423927e-13,2.292554050e-13,1.369342965e-13,7.447414595e-14,2.265660944e-13,1.346162532e-13,7.009718726e-14,7.628183192e-14,1.879516621e-12,1.166510286e-12,5.238356058e-14,3.813287739e-14,1.302430746e-12,1.710172369e-14,7.071349757e-13,1.465013675e-13,2.106910644e-14
1.6953,3.088048878e-13,2.433766047e-13,4.363816630e-13,1.143657242e-13,2.551212443e-14,1.300119634e-13,3.436330081e-12,1.392164383e-13,1.804618503e-14,4.417746503e-13,3.787085300e-13,1.378281526e-13,6.875465294e-14,1.380463162e-13,3.518389597e-13,1.696869213e-13,1.764089485e-13,1.048088961e-13,6.070935594e-14,2.183192537e-13,1.331157553e-13,4.814874820e-14,7.829570958e-14,2.334040818e-12,1.416966154e-12,5.993076478e-14,4.897308699e-14,1.654826015e-12,2.641980597e-14,8.809759312e-13,1.623822780e-13,1.974937622e-14
1.7031,2.863845298e-13,2.312225108e-13,4.117438787e-13,1.318082908e-13,2.823448937e-14,1.172536663e-13,3.321012574e-12,1.273252093e-13,1.693768202e-14,4.342515120e-13,4.137711334e-13,1.514990143e-13,5.515322766e-14,1.391779399e-13,3.441212844e-13,1.584560884e-13,1.466016407e-13,8.571688304e-14,5.252106098e-14,2.360957600e-13,1.490540485e-13,3.146508251e-14,8.402481844e-14,2.830943560e-12,1.644160812e-12,6.836839507e-14,6.461420127e-14,1.985291350e-12,3.862110210e-14,1.133872817e-12,1.772235201e-13,1.896684741e-14
1.7109,2.790316307e-13,2.181324861e-13,3.802160301e-13,1.519557961e-13,3.145020469e-14,1.110911305e-13,3.212911421e-12,1.098084422e-13,1.654841634e-14,4.194425099e-13,4.484413334e-13,1.660505546e-13,4.652545626e-14,1.494476684e-13,3.627811908e-13,1.599610849e-13,1.352561821e-13,7.858043993e-14,5.070069480e-14,2.717934357e-13,1.844746095e-13,1.972384809e-14,8.973084928e-14,3.289267865e-12,1.819056781e-12,7.650782883e-14,8.166058905e-14,2.255272707e-12,5.168660992e-14,1.449929027e-12,1.893114832e-13,1.847377754e-14
1.7188,2.898588849e-13,1.982996718e-13,3.439026813e-13,1.682867189e-13,3.430760088e-14,1.116053639e-13,3.096016414e-12,9.031322913e-14,1.637875232e-14,3.978247630e-13,4.731007979e-13,1.753156486e-13,4.322432503e-14,1.594587599e-13,3.838564670e-13,1.640347680e-13,1.348426344e-13,7.879569462e-14,5.502350403e-14,3.124840043e-13,2.387441581e-13,1.222720755e-14,9.419986070e-14,3.617403641e-12,1.912583068e-12,8.207559301e-14,9.811686854e-14,2.446644549e-12,6.460358572e-14,1.783915037e-12,1.936862963e-13,1.761639170e-14
1.7266,3.128035833e-13,1.728183437e-13,3.010175320e-13,1.745200719e-13,3.552274543e-14,1.193858013e-13,2.946065009e-12,7.011883997e-14,1.617808504e-14,3.701844105e-13,4.733178893e-13,1.741668506e-13,4.547864656e-14,1.625906044e-13,3.900567891e-13,1.633620357e-13,1.374199809e-13,8.246562327e-14,6.467285431e-14,3.413955077e-13,3.104618743e-13,8.157789364e-15,1.010415831e-13,3.741139670e-12,1.933546469e-12,8.307846797e-14,1.090019236e-13,2.546513516e-12,7.473864608e-14,2.098414731e-12,1.859862242e-13,1.641437905e-14
1.7344,3.467994792e-13,1.472487571e-13,2.610732095e-13,1.720749836e-13,3.452986248e-14,1.308895166e-13,2.717370664e-12,5.184580922e-14,1.540972467e-14,3.375066852e-13,4.574308127e-13,1.619784038e-13,5.225662009e-14,1.563959979e-13,3.776950462e-13,1.584230683e-13,1.396780031e-13,8.652777579e-14,7.778656494e-14,3.500532489e-13,3.906104575e-13,6.619681855e-15,1.075866785e-13,3.640707650e-12,1.865690995e-12,7.936004573e-14,1.125045701e-13,2.548026353e-12,8.091423467e-14,2.354503660e-12,1.677745026e-13,1.502475429e-14
1.7422,4.022999980e-13,1.256907368e-13,2.371393779e-13,1.610977466e-13,3.131108405e-14,1.452400314e-13,2.416340503e-12,3.707834982e-14,1.364803033e-14,3.102460409e-13,4.293007889e-13,1.398095086e-13,5.960755100e-14,1.411449643e-13,3.487743073e-13,1.501153755e-13,1.382347001e-13,8.662148127e-14,8.934550860e-14,3.375604202e-13,4.669126836e-13,7.034744386e-15,1.130915282e-13,3.361811488e-12,1.712525296e-12,7.173615627e-14,1.087677201e-13,2.455688348e-12,8.225020179e-14,2.546674665e-12,1.425922302e-13,1.339423115e-14
1.75,4.691555376e-13,1.127449303e-13,2.245147247e-13,1.475531261e-13,2.674672659e-14,1.579838954e-13,2.073905527e-12,2.656285908e-14,1.153547471e-14,2.830347931e-13,3.921201994e-13,1.122174989e-13,6.510851934e-14,1.226142727e-13,3.171719862e-13,1.450813814e-13,1.364361460e-13,8.242394115e-14,9.606548164e-14,3.049103621e-13,5.306634661e-13,9.289691506e-15,1.167334816e-13,2.953102285e-12,1.492749379e-12,6.044789695e-14,9.636103758e-14,2.306950088e-12,7.668435819e-14,2.601395566e-12,1.168903490e-13,1.163352606e-14
1.7578,5.810593537e-13,1.127713340e-13,2.319290408e-13,1.343164867e-13,2.200608969e-14,1.720628804e-13,1.700350672e-12,1.946974936e-14,9.783931244e-15,2.591316789e-13,3.665871030e-13,8.630130677e-14,6.957570526e-14,1.080623159e-13,3.034236054e-13,1.515384891e-13,1.424508439e-13,7.918341807e-14,9.779970624e-14,2.730618046e-13,5.665914785e-13,1.308658960e-14,1.228743866e-13,2.458725967e-12,1.257208781e-12,4.888900327e-14,8.463402475e-14,2.121294871e-12,6.790956130e-14,2.541757369e-12,9.778693230e-14,1.041028776e-14
1.7656,7.513802862e-13,1.271283937e-13,2.596753796e-13,1.270603349e-13,1.771566359e-14,1.826011653e-13,1.368583640e-12,1.573444619e-14,8.034083664e-15,2.400038550e-13,3.458138950e-13,6.306553545e-14,7.145967658e-14,9.829486209e-14,3.143826780e-13,1.712154695e-13,1.584266948e-13,7.767811717e-14,9.622318417e-14,2.463900848e-13,5.727151441e-13,1.874154882e-14,1.304620335e-13,1.970881213e-12,1.006065556e-12,3.882293287e-14,7.656438355e-14,1.886962369e-12,6.048975653e-14,2.344679512e-12,8.747839461e-14,1.049433048e-14
1.7734,1.018183697e-12,1.520864330e-13,3.009758525e-13,1.278127409e-13,1.493229654e-14,1.969459486e-13,1.099471770e-12,1.341081888e-14,6.306723948e-15,2.189309369e-13,3.480543493e-13,4.642664672e-14,6.647011396e-14,9.756010927e-14,3.593326134e-13,2.070741808e-13,1.927965986e-13,8.045759453e-14,8.760453000e-14,2.396355025e-13,5.416261124e-13,2.519471765e-14,1.386208790e-13,1.536242524e-12,7.622806301e-13,3.198154339e-14,7.352107221e-14,1.634009072e-12,5.527541713e-14,2.049662253e-12,8.788812706e-14,1.183678026e-14
1.7812,1.396843954e-12,1.827695369e-13,3.451319844e-13,1.383084090e-13,1.388191916e-14,2.150497786e-13,9.432651399e-13,1.222476909e-14,4.857944260e-15,1.976045048e-13,3.955442466e-13,3.694512727e-14,5.799002231e-14,1.035510887e-13,4.287291536e-13,2.536547493e-13,2.490767871e-13,9.003653805e-14,7.630715055e-14,2.624401395e-13,4.803966043e-13,3.195335876e-14,1.479774940e-13,1.182614102e-12,5.586330008e-13,2.927189914e-14,7.906689411e-14,1.408533582e-12,5.265205867e-14,1.685557359e-12,9.640465501e-14,1.458223643e-14
1.7891,1.873005219e-12,2.122217029e-13,3.861486221e-13,1.584089976e-13,1.423779192e-14,2.432870176e-13,9.230116100e-13,1.160676849e-14,4.022647142e-15,1.681402813e-13,4.613305170e-13,3.298853531e-14,4.967841560e-14,1.132675998e-13,5.056487379e-13,3.034727202e-13,3.256074571e-13,1.067060137e-13,6.807786542e-14,3.119453591e-13,4.037371430e-13,3.765119315e-14,1.575745825e-13,9.294140090e-13,4.046633109e-13,3.087169576e-14,9.166398177e-14,1.198974856e-12,5.225877463e-14,1.326266103e-12,1.072307996e-13,1.834923565e-14
