Time,Fp1,AF3,F7,F3,FC1,FC5,T7,C3,CP1,CP5,P7,P3,Pz,PO3,O1,Oz,O2,PO4,P4,P8,CP6,CP2,C4,T8,FC6,FC2,F4,F8,AF4,Fp2,Fz,Cz,
0,1.375345844e-09,1.531185865e-09,2.118409829e-10,1.089468137e-10,4.774727100e-10,2.558555831e-10,1.569216043e-10,2.194708372e-10,1.569922045e-10,1.666342337e-09,6.273006735e-11,1.143243138e-10,2.735282810e-10,8.453144656e-10,8.959528338e-13,1.241917928e-11,3.720452990e-11,5.654252228e-11,4.847427513e-10,8.734567882e-10,7.121135924e-11,2.352281678e-09,1.036781593e-10,1.048269144e-09,7.646240244e-11,3.886608167e-11,2.471418635e-11,1.139294827e-09,1.708869619e-09,6.233537552e-11,3.473222068e-10,1.296906854e-09
0.0078125,1.378162493e-09,1.535553040e-09,2.122672976e-10,1.092887880e-10,4.778417572e-10,2.566336720e-10,1.571937658e-10,2.200122013e-10,1.572358787e-10,1.670711165e-09,6.293304741e-11,1.142564526e-10,2.733816712e-10,8.477383133e-10,9.009089250e-13,1.242711154e-11,3.740943770e-11,5.673303214e-11,4.862814976e-10,8.727575945e-10,7.105510150e-11,2.358514168e-09,1.038963381e-10,1.049172866e-09,7.664128318e-11,3.880613987e-11,2.470315746e-11,1.139306206e-09,1.706470818e-09,6.241048789e-11,3.483043281e-10,1.300308837e-09
0.015625,1.380095025e-09,1.538794010e-09,2.125613808e-10,1.095420318e-10,4.778841172e-10,2.572283760e-10,1.573674679e-10,2.203683048e-10,1.573429395e-10,1.673966468e-09,6.309081705e-11,1.140960395e-10,2.730483374e-10,8.495736300e-10,9.059307461e-13,1.242956266e-11,3.758434392e-11,5.688063766e-11,4.874528518e-10,8.714846963e-10,7.084705510e-11,2.363009476e-09,1.040359957e-10,1.049410586e-09,7.677587833e-11,3.872031828e-11,2.467425899e-11,1.138403864e-09,1.702783481e-09,6.244842216e-11,3.490241666e-10,1.302858837e-09
0.023438,1.381121730e-09,1.540852814e-09,2.127133049e-10,1.097037745e-10,4.776060265e-10,2.576332601e-10,1.574376065e-10,2.205429283e-10,1.573139342e-10,1.676068584e-09,6.320512136e-11,1.138454918e-10,2.725330421e-10,8.507915438e-10,9.114656703e-13,1.242750568e-11,3.772693680e-11,5.698516474e-11,4.882484163e-10,8.696535131e-10,7.058908345e-11,2.365716927e-09,1.040992414e-10,1.048947925e-09,7.686372820e-11,3.860968392e-11,2.463025594e-11,1.136594817e-09,1.697799950e-09,6.244813573e-11,3.494615574e-10,1.304526069e-09
0.03125,1.381230251e-09,1.541720582e-09,2.127131715e-10,1.097798177e-10,4.770250254e-10,2.578540287e-10,1.574072077e-10,2.205461236e-10,1.571541805e-10,1.677008635e-09,6.327430657e-11,1.135031913e-10,2.718378181e-10,8.513980903e-10,9.174737049e-13,1.242085878e-11,3.783677172e-11,5.704913995e-11,4.886749582e-10,8.672627552e-10,7.028092824e-11,2.366617362e-09,1.040874871e-10,1.047796604e-09,7.689846856e-11,3.847319964e-11,2.457126367e-11,1.133868634e-09,1.691487561e-09,6.240849746e-11,3.496167846e-10,1.305277940e-09
0.039062,1.380427465e-09,1.541449327e-09,2.125719747e-10,1.097774399e-10,4.761439358e-10,2.578978925e-10,1.572806916e-10,2.203816503e-10,1.568741655e-10,1.676799406e-09,6.329661216e-11,1.130728589e-10,2.709632285e-10,8.514265218e-10,9.231527618e-13,1.240784621e-11,3.791668592e-11,5.707606151e-11,4.887481943e-10,8.643145185e-10,6.992335263e-11,2.365767116e-09,1.039989515e-10,1.045979988e-09,7.688268968e-11,3.831122893e-11,2.449582820e-11,1.130263297e-09,1.683909922e-09,6.232903361e-11,3.495083367e-10,1.305126731e-09
0.046875,1.378714026e-09,1.540023286e-09,2.122961722e-10,1.096967701e-10,4.749607549e-10,2.577632681e-10,1.570573042e-10,2.200437337e-10,1.564744605e-10,1.675419148e-09,6.327263633e-11,1.125558417e-10,2.699134561e-10,8.508794781e-10,9.280330954e-13,1.238736666e-11,3.796883322e-11,5.706691247e-11,4.884620914e-10,8.608227044e-10,6.951774142e-11,2.363133273e-09,1.038281112e-10,1.043502527e-09,7.682001961e-11,3.812476670e-11,2.440387799e-11,1.125777124e-09,1.675100440e-09,6.220983528e-11,3.491322089e-10,1.304069582e-09
0.054688,1.376087761e-09,1.537418844e-09,2.118799979e-10,1.095341441e-10,4.734762289e-10,2.574478667e-10,1.567375371e-10,2.195358602e-10,1.559526942e-10,1.672866869e-09,6.320445418e-11,1.119503779e-10,2.686914873e-10,8.497445918e-10,9.323158213e-13,1.236025042e-11,3.799258701e-11,5.701938248e-11,4.878069858e-10,8.567989772e-10,6.906438855e-11,2.358684219e-09,1.035762479e-10,1.040367556e-09,7.670798463e-11,3.791382623e-11,2.429569586e-11,1.120390097e-09,1.665037337e-09,6.205192384e-11,3.484827860e-10,1.302099658e-09
0.0625,1.372556747e-09,1.533663341e-09,2.113236241e-10,1.092862523e-10,4.716922100e-10,2.569497808e-10,1.563218417e-10,2.188636645e-10,1.553121300e-10,1.669170347e-09,6.309198804e-11,1.112622581e-10,2.672961834e-10,8.480191995e-10,9.361728043e-13,1.232721052e-11,3.798668506e-11,5.693199522e-11,4.867844636e-10,8.522527864e-10,6.856550666e-11,2.352467038e-09,1.032488678e-10,1.036577396e-09,7.654553260e-11,3.767983535e-11,2.417145112e-11,1.114146262e-09,1.653780038e-09,6.185725882e-11,3.475700287e-10,1.299232492e-09
0.070312,1.368144917e-09,1.528768959e-09,2.106305674e-10,1.089541094e-10,4.696174711e-10,2.562687533e-10,1.558084985e-10,2.180231118e-10,1.545504641e-10,1.664342918e-09,6.293267595e-11,1.104950404e-10,2.657286933e-10,8.457060178e-10,9.397707771e-13,1.228823840e-11,3.795056407e-11,5.680590050e-11,4.853972257e-10,8.471918360e-10,6.802295567e-11,2.344499207e-09,1.028463154e-10,1.032140692e-09,7.633508514e-11,3.742450833e-11,2.403198450e-11,1.107063486e-09,1.641363598e-09,6.162624996e-11,3.463964505e-10,1.295481022e-09
0.078125,1.362874000e-09,1.522757914e-09,2.098024654e-10,1.085435382e-10,4.672569703e-10,2.554116069e-10,1.552003464e-10,2.170204407e-10,1.536676421e-10,1.658409014e-09,6.272629368e-11,1.096457535e-10,2.639977488e-10,8.428195849e-10,9.433688112e-13,1.224399989e-11,3.788404571e-11,5.664165491e-11,4.836565036e-10,8.416328498e-10,6.743583450e-11,2.334822508e-09,1.023706553e-10,1.027082830e-09,7.607780771e-11,3.714831048e-11,2.387835204e-11,1.099148966e-09,1.627787397e-09,6.135785699e-11,3.449654607e-10,1.290865346e-09
0.085938,1.356742247e-09,1.515651518e-09,2.088437480e-10,1.080544420e-10,4.646079525e-10,2.543810768e-10,1.545018269e-10,2.158638602e-10,1.526693837e-10,1.651388744e-09,6.247497781e-11,1.087134184e-10,2.621153069e-10,8.393705035e-10,9.468919015e-13,1.219528882e-11,3.778623770e-11,5.643865743e-11,4.815681471e-10,8.356000542e-10,6.680501881e-11,2.323489710e-09,1.018252365e-10,1.021427190e-09,7.577423602e-11,3.685178950e-11,2.371146674e-11,1.090447427e-09,1.613118943e-09,6.105289206e-11,3.432815829e-10,1.285403043e-09
0.09375,1.349757409e-09,1.507442602e-09,2.077566961e-10,1.074826440e-10,4.616800590e-10,2.531758157e-10,1.537138451e-10,2.145462073e-10,1.515558283e-10,1.643287751e-09,6.218046820e-11,1.076993753e-10,2.600866330e-10,8.353619612e-10,9.503693365e-13,1.214185247e-11,3.765672796e-11,5.619805288e-11,4.791282886e-10,8.290954886e-10,6.613345411e-11,2.310492140e-09,1.012084432e-10,1.015190278e-09,7.542586796e-11,3.653429893e-11,2.353085652e-11,1.080959110e-09,1.597378641e-09,6.071295802e-11,3.413402734e-10,1.279098304e-09
0.10156,1.341951096e-09,1.498171874e-09,2.065403793e-10,1.068320622e-10,4.584896969e-10,2.518034969e-10,1.528410280e-10,2.130698471e-10,1.503320534e-10,1.634140451e-09,6.184496637e-11,1.066117094e-10,2.579112678e-10,8.308126796e-10,9.543118015e-13,1.208312281e-11,3.749739660e-11,5.592136189e-11,4.763504825e-10,8.221233893e-10,6.542378952e-11,2.295877737e-09,1.005213522e-10,1.008388573e-09,7.503329896e-11,3.619496146e-11,2.333499280e-11,1.070698791e-09,1.580569043e-09,6.033799091e-11,3.391500371e-10,1.271977957e-09
0.10938,1.333339369e-09,1.487879730e-09,2.051994703e-10,1.061073997e-10,4.550424093e-10,2.502699083e-10,1.518878523e-10,2.114468756e-10,1.490053092e-10,1.623974452e-09,6.147007573e-11,1.054584131e-10,2.555935054e-10,8.257375904e-10,9.587269501e-13,1.201923853e-11,3.730886014e-11,5.560765822e-11,4.732453179e-10,8.147192009e-10,6.467855026e-11,2.279710418e-09,9.976741185e-11,1.001029342e-09,7.459598791e-11,3.583571603e-11,2.312566378e-11,1.059721843e-09,1.562774485e-09,5.992820736e-11,3.367223935e-10,1.264068856e-09
0.11719,1.323936391e-09,1.476567820e-09,2.037395751e-10,1.053086099e-10,4.513432593e-10,2.485740287e-10,1.508482079e-10,2.096790904e-10,1.475717843e-10,1.612800373e-09,6.105602510e-11,1.042336006e-10,2.531400207e-10,8.201425295e-10,9.629056840e-13,1.195084273e-11,3.708944527e-11,5.525680082e-11,4.698135226e-10,8.069028416e-10,6.389813857e-11,2.262003486e-09,9.894771458e-11,9.931162517e-10,7.411468737e-11,3.545881067e-11,2.290714749e-11,1.048025295e-09,1.544040785e-09,5.948434073e-11,3.340581190e-10,1.255375095e-09
0.125,1.313778940e-09,1.464295292e-09,2.021598439e-10,1.044390747e-10,4.473998366e-10,2.467217121e-10,1.497200154e-10,2.077722135e-10,1.460348528e-10,1.600660023e-09,6.060356215e-11,1.029361136e-10,2.505499914e-10,8.140503996e-10,9.665618656e-13,1.187818624e-11,3.684009409e-11,5.487201603e-11,4.660785311e-10,7.986784866e-10,6.308160213e-11,2.242846498e-09,9.806621687e-11,9.846576109e-10,7.359214110e-11,3.506545782e-11,2.267976924e-11,1.035639415e-09,1.524408159e-09,5.900684309e-11,3.311722775e-10,1.245921052e-09
0.13281,1.302894890e-09,1.451109466e-09,2.004651691e-10,1.035019263e-10,4.432150681e-10,2.447207954e-10,1.485160954e-10,2.057346314e-10,1.444046328e-10,1.587588247e-09,6.011304992e-11,1.015787602e-10,2.478202994e-10,8.074830259e-10,9.700278678e-13,1.180089693e-11,3.656348245e-11,5.445586563e-11,4.620543838e-10,7.900736252e-10,6.223022310e-11,2.222313682e-09,9.712608935e-11,9.756591816e-10,7.303097229e-11,3.465690839e-11,2.244079500e-11,1.022647497e-09,1.503953452e-09,5.849949618e-11,3.280763982e-10,1.235745926e-09
0.14062,1.291302638e-09,1.437006074e-09,1.986682307e-10,1.024983067e-10,4.387993702e-10,2.425754202e-10,1.472435251e-10,2.035655771e-10,1.426815599e-10,1.573605205e-09,5.958508066e-11,1.001660028e-10,2.449585935e-10,8.004527192e-10,9.736052664e-13,1.171883621e-11,3.626152594e-11,5.400832850e-11,4.577333272e-10,7.811059762e-10,6.134723763e-11,2.200399158e-09,9.612834765e-11,9.661434029e-10,7.243181754e-11,3.423184384e-11,2.218915401e-11,1.009055324e-09,1.482668664e-09,5.796713412e-11,3.247678523e-10,1.224877338e-09
0.14844,1.279027890e-09,1.422050465e-09,1.967686477e-10,1.014344955e-10,4.341714288e-10,2.402915953e-10,1.458958323e-10,2.012715063e-10,1.408724238e-10,1.558755233e-09,5.902171828e-11,9.869661460e-11,2.419820431e-10,7.929749593e-10,9.773955006e-13,1.163237762e-11,3.593739877e-11,5.353024644e-11,4.531341109e-10,7.717768004e-10,6.043696369e-11,2.177180103e-09,9.507889010e-11,9.561605827e-10,7.179427706e-11,3.378834937e-11,2.192448825e-11,9.948760349e-10,1.460581022e-09,5.740798809e-11,3.212666672e-10,1.213332122e-09
0.15625,1.266091122e-09,1.406303153e-09,1.947599965e-10,1.003158919e-10,4.293412756e-10,2.378753876e-10,1.444714592e-10,1.988642855e-10,1.389891960e-10,1.543073576e-09,5.842334713e-11,9.717610512e-11,2.389015790e-10,7.850536862e-10,9.813479046e-13,1.154185223e-11,3.559257055e-11,5.302356470e-11,4.482796937e-10,7.621062260e-10,5.950200765e-11,2.152734106e-09,9.398060259e-11,9.457426511e-10,7.111985943e-11,3.332911746e-11,2.164745671e-11,9.801742314e-10,1.437812584e-09,5.681861426e-11,3.175907189e-10,1.201117231e-09
0.16406,1.252512521e-09,1.389755550e-09,1.926549003e-10,9.914316585e-11,4.243125646e-10,2.353352261e-10,1.429766871e-10,1.963480383e-10,1.370310928e-10,1.526591537e-09,5.779068453e-11,9.560789766e-11,2.357167263e-10,7.766984118e-10,9.854046993e-13,1.144771089e-11,3.522440057e-11,5.248756198e-11,4.431696650e-10,7.521185293e-10,5.854106623e-11,2.127073887e-09,9.283084483e-11,9.348912631e-10,7.041165283e-11,3.285810840e-11,2.136212141e-11,9.649679112e-10,1.414397460e-09,5.620143164e-11,3.137291065e-10,1.188268451e-09
0.17188,1.238319545e-09,1.372449478e-09,1.904658707e-10,9.791769128e-11,4.190916547e-10,2.326789763e-10,1.414166732e-10,1.937259476e-10,1.349980463e-10,1.509350899e-09,5.712848851e-11,9.399400932e-11,2.324298054e-10,7.679421306e-10,9.896224194e-13,1.135066856e-11,3.483198701e-11,5.192008499e-11,4.378127156e-10,7.418409565e-10,5.755569979e-11,2.100286647e-09,9.163249055e-11,9.236267821e-10,6.967054310e-11,3.237621010e-11,2.107149598e-11,9.492873296e-10,1.390361189e-09,5.555831143e-11,3.096854847e-10,1.174844782e-09
0.17969,1.223552528e-09,1.354448996e-09,1.881857542e-10,9.663961762e-11,4.136845832e-10,2.299045048e-10,1.397964545e-10,1.910002681e-10,1.328966825e-10,1.491373038e-09,5.643990771e-11,9.233963894e-11,2.290511415e-10,7.588108410e-10,9.940087108e-13,1.125114923e-11,3.441773972e-11,5.132326874e-11,4.322246033e-10,7.313066221e-10,5.655225890e-11,2.072459207e-09,9.039044000e-11,9.119775165e-10,6.889648764e-11,3.188313499e-11,2.077314428e-11,9.331883824e-10,1.365806602e-09,5.488936327e-11,3.054815551e-10,1.160866425e-09
0.1875,1.208261638e-09,1.335786523e-09,1.858171211e-10,9.531005118e-11,4.080994513e-10,2.270132034e-10,1.381185078e-10,1.881756393e-10,1.307328217e-10,1.472706300e-09,5.572385142e-11,9.064893542e-11,2.255885277e-10,7.493237852e-10,9.985994900e-13,1.114940188e-11,3.398300942e-11,5.070173653e-11,4.264211257e-10,7.205229522e-10,5.553267420e-11,2.043634795e-09,8.910815190e-11,8.999434662e-10,6.809213491e-11,3.137952578e-11,2.046416874e-11,9.166919798e-10,1.340770301e-09,5.420027454e-11,3.011308641e-10,1.146347917e-09
0.19531,1.192461248e-09,1.316509870e-09,1.833781856e-10,9.393566893e-11,4.023533362e-10,2.240172404e-10,1.363816043e-10,1.852653750e-10,1.285160033e-10,1.453415980e-09,5.498023246e-11,8.892719092e-11,2.220456649e-10,7.395008505e-10,1.003459827e-12,1.104565025e-11,3.352794532e-11,5.005602322e-11,4.204246146e-10,7.094968315e-10,5.449428602e-11,2.013895237e-09,8.779051111e-11,8.875422678e-10,6.726004765e-11,3.086778306e-11,2.014629667e-11,8.998478141e-10,1.315271144e-09,5.349491739e-11,2.966440645e-10,1.131326284e-09
0.20312,1.176154147e-09,1.296652962e-09,1.808720279e-10,9.252233691e-11,3.964666032e-10,2.209252488e-10,1.345907074e-10,1.822789138e-10,1.262516633e-10,1.433502785e-09,5.421122440e-11,8.717873614e-11,2.184275618e-10,7.293518599e-10,1.008330083e-12,1.093936128e-11,3.305384538e-11,4.938589157e-11,4.142427111e-10,6.982572625e-10,5.343820897e-11,1.983283597e-09,8.643700234e-11,8.748261413e-10,6.640159454e-11,3.035038293e-11,1.982286932e-11,8.827137842e-10,1.289397263e-09,5.276853292e-11,2.920264620e-10,1.115820783e-09
0.21094,1.159397954e-09,1.276251912e-09,1.782936290e-10,9.107169303e-11,3.904493322e-10,2.177432578e-10,1.327547047e-10,1.792218225e-10,1.239382018e-10,1.412982554e-09,5.341974042e-11,8.540399759e-11,2.147417316e-10,7.189024312e-10,1.013026817e-12,1.082968549e-11,3.256279975e-11,4.869473188e-11,4.078806125e-10,6.868204203e-10,5.236985490e-11,1.951844781e-09,8.504611370e-11,8.618172013e-10,6.552002293e-11,2.982690310e-11,1.949479876e-11,8.653060816e-10,1.263219315e-09,5.202002495e-11,2.872836725e-10,1.099866447e-09
0.21875,1.142236270e-09,1.255364357e-09,1.756507593e-10,8.958224523e-11,3.843006156e-10,2.144756304e-10,1.308759270e-10,1.761005021e-10,1.215807235e-10,1.391928959e-09,5.260870832e-11,8.360657584e-11,2.109983391e-10,7.081844912e-10,1.017865709e-12,1.071703352e-11,3.205478497e-11,4.798322570e-11,4.013543387e-10,6.752096722e-10,5.129416016e-11,1.919685679e-09,8.362486972e-11,8.485149314e-10,6.461729926e-11,2.929644637e-11,1.916151233e-11,8.476627024e-10,1.236773268e-09,5.125525624e-11,2.824273753e-10,1.083516879e-09
0.22656,1.124664621e-09,1.234002486e-09,1.729517579e-10,8.805250534e-11,3.780263641e-10,2.111222591e-10,1.289558333e-10,1.729131904e-10,1.191860168e-10,1.370374926e-09,5.178012225e-11,8.179152890e-11,2.072054574e-10,6.972041655e-10,1.022952443e-12,1.060281355e-11,3.152815025e-11,4.724923001e-11,3.946660187e-10,6.634664087e-10,5.021316052e-11,1.886844468e-09,8.217938419e-11,8.349516292e-10,6.369229467e-11,2.876008053e-11,1.882331844e-11,8.298184317e-10,1.210089927e-09,5.047568319e-11,2.774586911e-10,1.066787635e-09
0.23438,1.106725193e-09,1.212204942e-09,1.701997323e-10,8.649014047e-11,3.716488737e-10,2.076937136e-10,1.269999224e-10,1.696634811e-10,1.167577536e-10,1.348350573e-09,5.093560999e-11,7.996126279e-11,2.033674280e-10,6.859833572e-10,1.028159277e-12,1.048772875e-11,3.098514960e-11,4.649617681e-11,3.878284010e-10,6.515985340e-10,4.912753704e-11,1.853370090e-09,8.071193272e-11,8.211707630e-10,6.274616179e-11,2.821822015e-11,1.848133771e-11,8.117925902e-10,1.183223474e-09,4.968001981e-11,2.723877593e-10,1.049703873e-09
0.24219,1.088477182e-09,1.190067611e-09,1.674026312e-10,8.490671115e-11,3.651922481e-10,2.042065110e-10,1.250108123e-10,1.663685173e-10,1.143030374e-10,1.325929040e-09,5.007577549e-11,7.811886103e-11,1.994929297e-10,6.745650841e-10,1.033814193e-12,1.037120697e-11,3.043123502e-11,4.572999217e-11,3.808767736e-10,6.396056460e-10,4.803930444e-11,1.819389331e-09,7.922685084e-11,8.072011478e-10,6.178172451e-11,2.767123174e-11,1.813618854e-11,7.936450523e-10,1.156259845e-09,4.887091296e-11,2.672439821e-10,1.032314894e-09
0.25,1.069933956e-09,1.167616503e-09,1.645679715e-10,8.330438087e-11,3.586683558e-10,2.006651038e-10,1.229896013e-10,1.630378644e-10,1.118262776e-10,1.303145095e-09,4.920003531e-11,7.626652169e-11,1.955932791e-10,6.629651985e-10,1.039961115e-12,1.025213964e-11,2.986900994e-11,4.495228284e-11,3.738236354e-10,6.275203926e-10,4.695018398e-11,1.784935525e-09,7.772541664e-11,7.930686530e-10,6.080028682e-11,2.712212324e-11,1.778809571e-11,7.754090509e-10,1.129235487e-09,4.805062058e-11,2.620375739e-10,1.014633661e-09
0.25781,1.051134388e-09,1.144867614e-09,1.616963740e-10,8.168182492e-11,3.520789769e-10,1.970728448e-10,1.209415411e-10,1.596759128e-10,1.093316729e-10,1.280020753e-09,4.831022727e-11,7.440864157e-11,1.916750489e-10,6.511941736e-10,1.045950273e-12,1.013036425e-11,2.929879019e-11,4.416233690e-11,3.666740795e-10,6.153724618e-10,4.585966700e-11,1.750037323e-09,7.620778545e-11,7.787930896e-10,5.980489705e-11,2.657431658e-11,1.743819289e-11,7.570912175e-10,1.102181250e-09,4.721928252e-11,2.567693749e-10,9.966862434e-10
0.26562,1.032134866e-09,1.121899776e-09,1.587893507e-10,8.004011900e-11,3.454256413e-10,1.934357563e-10,1.188723943e-10,1.562926558e-10,1.068298764e-10,1.256617771e-09,4.741031865e-11,7.255461857e-11,1.877430393e-10,6.392748433e-10,1.051821778e-12,1.000753461e-11,2.872009842e-11,4.335851643e-11,3.594477932e-10,6.031862608e-10,4.476767627e-11,1.714826055e-09,7.467873824e-11,7.643967760e-10,5.879945364e-11,2.602911962e-11,1.708832291e-11,7.387528015e-10,1.075189448e-09,4.637785535e-11,2.514538099e-10,9.785404471e-10
0.27344,1.012950432e-09,1.098743587e-09,1.558541389e-10,7.837995898e-11,3.387210001e-10,1.897553432e-10,1.167842626e-10,1.528938322e-10,1.043256393e-10,1.232980985e-09,4.650327250e-11,7.070802646e-11,1.838009792e-10,6.272223093e-10,1.058314956e-12,9.885230082e-12,2.813108615e-11,4.254065524e-11,3.521487538e-10,5.909944788e-10,4.367682540e-11,1.679361069e-09,7.314142953e-11,7.499068601e-10,5.778416017e-11,2.548598114e-11,1.673912562e-11,7.204354763e-10,1.048278766e-09,4.552735209e-11,2.460928794e-10,9.602329185e-10
0.28125,9.936077789e-10,1.075413320e-09,1.528997500e-10,7.670692202e-11,3.319867829e-10,1.860416601e-10,1.146776375e-10,1.494830103e-10,1.018180909e-10,1.209140849e-09,4.559152081e-11,6.886674913e-11,1.798524363e-10,6.150651958e-10,1.065307446e-12,9.762925691e-12,2.753263408e-11,4.171393861e-11,3.447846126e-10,5.788118938e-10,4.259141859e-11,1.643663424e-09,7.159711032e-11,7.353358501e-10,5.675838378e-11,2.494365910e-11,1.638965416e-11,7.021382700e-10,1.021420827e-09,4.466973002e-11,2.406873975e-10,9.417755756e-10
0.28906,9.741549415e-10,1.051985254e-09,1.499345124e-10,7.502960240e-11,3.252360152e-10,1.823101654e-10,1.125574843e-10,1.460631161e-10,9.931078598e-11,1.185153398e-09,4.467572699e-11,6.703187739e-11,1.759066432e-10,6.028440789e-10,1.072114426e-12,9.639549568e-12,2.692900074e-11,4.088319345e-11,3.373853376e-10,5.666466815e-10,4.151434101e-11,1.607834899e-09,7.004890321e-11,7.207064967e-10,5.572473197e-11,2.440251509e-11,1.603942279e-11,6.838936173e-10,9.946953300e-10,4.380877101e-11,2.352617327e-10,9.232003139e-10
0.29688,9.546255265e-10,1.028515797e-09,1.469647658e-10,7.335054447e-11,3.184721396e-10,1.785657091e-10,1.104338157e-10,1.426322561e-10,9.680547104e-11,1.161075638e-09,4.375431312e-11,6.520453068e-11,1.719710786e-10,5.905795189e-10,1.078680473e-12,9.515208144e-12,2.632297065e-11,4.004881855e-11,3.299666619e-10,5.545157749e-10,4.044540679e-11,1.571953134e-09,6.849807739e-11,7.060615282e-10,5.468750058e-11,2.386449786e-11,1.568962061e-11,6.657299818e-10,9.681810533e-10,4.294675546e-11,2.298347009e-10,9.045502781e-10
0.30469,9.350578712e-10,1.005022399e-09,1.439894376e-10,7.166927190e-11,3.117055254e-10,1.748111923e-10,1.083099827e-10,1.391994759e-10,9.430478425e-11,1.136945184e-09,4.282869775e-11,6.338790052e-11,1.680462421e-10,5.782829304e-10,1.085159798e-12,9.390407302e-12,2.571531688e-11,3.921151475e-11,3.225330766e-10,5.424306511e-10,3.938483687e-11,1.536051973e-09,6.694567806e-11,6.914216314e-10,5.364926308e-11,2.333016106e-11,1.534162125e-11,6.476618773e-10,9.418752241e-10,4.208394579e-11,2.244076758e-10,8.858654254e-10
0.3125,9.154730344e-10,9.815286815e-10,1.410036325e-10,6.998568671e-11,3.049498043e-10,1.710512627e-10,1.061809899e-10,1.357838405e-10,9.182061893e-11,1.112783845e-09,4.190391774e-11,6.159087046e-11,1.641366615e-10,5.659661060e-10,1.091494663e-12,9.265916490e-12,2.510523228e-11,3.837113352e-11,3.150966411e-10,5.304126102e-10,3.833484698e-11,1.500178366e-09,6.539577788e-11,6.767985591e-10,5.260949686e-11,2.279907031e-11,1.499550161e-11,6.297336755e-10,9.157979594e-10,4.122028893e-11,2.189831905e-10,8.671631641e-10
0.32031,8.958772817e-10,9.580713893e-10,1.380151151e-10,6.830117913e-11,2.982087106e-10,1.672874083e-10,1.040492761e-10,1.323916369e-10,8.936226818e-11,1.088623284e-09,4.098291973e-11,5.981714625e-11,1.602501604e-10,5.536441544e-10,1.097935094e-12,9.142654091e-12,2.449166238e-11,3.752618873e-11,3.076680370e-10,5.184867437e-10,3.729583818e-11,1.464386516e-09,6.385237897e-11,6.622142600e-10,5.156766786e-11,2.227242419e-11,1.465136449e-11,6.119761243e-10,8.899906509e-10,4.035578821e-11,2.135692359e-10,8.484548613e-10
0.32812,8.763197209e-10,9.347103649e-10,1.350419393e-10,6.662294082e-11,2.914852852e-10,1.635272520e-10,1.019234209e-10,1.290193166e-10,8.692730346e-11,1.064518977e-09,4.006508591e-11,5.806259959e-11,1.563918841e-10,5.413465517e-10,1.104768253e-12,9.020101864e-12,2.387790864e-11,3.668004993e-11,3.002626382e-10,5.066518779e-10,3.626682402e-11,1.428752690e-09,6.231824516e-11,6.476730980e-10,5.052610756e-11,2.175191762e-11,1.431073939e-11,5.943944278e-10,8.644815107e-10,3.949225242e-11,2.081799562e-10,8.297828487e-10
0.33594,8.568391871e-10,9.114861750e-10,1.320897827e-10,6.495800371e-11,2.847936995e-10,1.597830207e-10,9.980385531e-11,1.256679374e-10,8.451178154e-11,1.040505403e-09,3.914990997e-11,5.632584931e-11,1.525699309e-10,5.290942436e-10,1.111698053e-12,8.896948850e-12,2.326850303e-11,3.583738100e-11,2.928956538e-10,4.949072789e-10,3.524963508e-11,1.393332882e-09,6.079453061e-11,6.331914892e-10,4.948742543e-11,2.123757740e-11,1.397453383e-11,5.770071721e-10,8.393049250e-10,3.863238601e-11,2.028275558e-10,8.111834706e-10
0.34375,8.374318852e-10,8.884101156e-10,1.291525786e-10,6.330753203e-11,2.781521947e-10,1.560621699e-10,9.769040111e-11,1.223458926e-10,8.212045391e-11,1.016597651e-09,3.823944271e-11,5.461159339e-11,1.487883593e-10,5.168989805e-10,1.118375840e-12,8.773022742e-12,2.266385187e-11,3.499906941e-11,2.855735450e-10,4.832683443e-10,3.424789513e-11,1.358154366e-09,5.928160333e-11,6.188123870e-10,4.845278968e-11,2.072855605e-11,1.364128007e-11,5.598424859e-10,8.144835772e-10,3.777655207e-11,1.975164469e-10,7.926671811e-10
0.35156,8.181344148e-10,8.655267160e-10,1.262324325e-10,6.167326684e-11,2.715711558e-10,1.523699627e-10,9.559001499e-11,1.190642739e-10,7.976148972e-11,9.928359348e-10,3.733567003e-11,5.292539092e-11,1.450404051e-10,5.047894697e-10,1.124984163e-12,8.648687985e-12,2.206460415e-11,3.416734453e-11,2.783123549e-10,4.717416321e-10,3.326262557e-11,1.323284178e-09,5.778151859e-11,6.045431533e-10,4.742388705e-11,2.022467284e-11,1.330956468e-11,5.429256255e-10,7.900304183e-10,3.692501655e-11,1.922553060e-10,7.742574608e-10
0.35938,7.989891860e-10,8.428733394e-10,1.233377001e-10,6.005755638e-11,2.650472149e-10,1.487073941e-10,9.350416356e-11,1.158235734e-10,7.743579968e-11,9.692522412e-10,3.643839896e-11,5.126796064e-11,1.413265006e-10,4.927784566e-10,1.131813909e-12,8.524560093e-12,2.147246803e-11,3.334338496e-11,2.711253741e-10,4.603394254e-10,3.229154024e-11,1.288766527e-09,5.629484457e-11,5.903768600e-10,4.640277240e-11,1.972694677e-11,1.298027073e-11,5.262639101e-10,7.659608666e-10,3.607981082e-11,1.870513721e-10,7.559800132e-10
0.36719,7.799802493e-10,8.204460147e-10,1.204681473e-10,5.845890029e-11,2.585710853e-10,1.450716264e-10,9.142949067e-11,1.126164320e-10,7.514239041e-11,9.458545703e-10,3.554964446e-11,4.963759268e-11,1.376593520e-10,4.808499742e-10,1.138856923e-12,8.402108642e-12,2.088565290e-11,3.252236428e-11,2.640055244e-10,4.490851678e-10,3.133366780e-11,1.254602065e-09,5.482143185e-11,5.763428712e-10,4.538975946e-11,1.923714075e-11,1.265537820e-11,5.098617811e-10,7.422962117e-10,3.524119672e-11,1.819027539e-10,7.378524672e-10
0.375,7.611210759e-10,7.982692858e-10,1.176191578e-10,5.687612261e-11,2.521465234e-10,1.414662873e-10,8.937084818e-11,1.094460608e-10,7.288608688e-11,9.226736508e-10,3.467393264e-11,4.803602210e-11,1.340459336e-10,4.690123494e-10,1.146036034e-12,8.281927367e-12,2.030305112e-11,3.170279502e-11,2.569542384e-10,4.379795422e-10,3.039175176e-11,1.220844297e-09,5.336649600e-11,5.624541397e-10,4.438318867e-11,1.875630134e-11,1.233635311e-11,4.937495545e-10,7.190719388e-10,3.440779823e-11,1.768135274e-10,7.199027052e-10
0.38281,7.424654608e-10,7.763819442e-10,1.147959119e-10,5.531233925e-11,2.457905342e-10,1.378998742e-10,8.733441904e-11,1.063213519e-10,7.066882189e-11,8.997451267e-10,3.381092193e-11,4.646453197e-11,1.304843139e-10,4.572960007e-10,1.153495444e-12,8.162855136e-12,1.972782057e-11,3.089059767e-11,2.499875101e-10,4.270149892e-10,2.946706250e-11,1.187542653e-09,5.193485825e-11,5.486946505e-10,4.338249609e-11,1.828446036e-11,1.202340037e-11,4.779365159e-10,6.962938891e-10,3.358031593e-11,1.717919781e-10,7.021434428e-10
0.39062,7.240171699e-10,7.547975413e-10,1.120099132e-10,5.377393919e-11,2.395143608e-10,1.343800937e-10,8.531921653e-11,1.032465396e-10,6.848851894e-11,8.770733559e-10,3.295648531e-11,4.492248939e-11,1.269707521e-10,4.457169202e-10,1.161452929e-12,8.043957390e-12,1.916256631e-11,3.008964581e-11,2.431144510e-10,4.162069933e-10,2.855739589e-11,1.154696470e-09,5.052434755e-11,5.350731720e-10,4.239134549e-11,1.782165184e-11,1.171545956e-11,4.624075738e-10,6.739527994e-10,3.276100916e-11,1.668421076e-10,6.845745890e-10
0.39844,7.057636676e-10,7.335363441e-10,1.092630160e-10,5.226443900e-11,2.333180187e-10,1.309118408e-10,8.332546701e-11,1.002268665e-10,6.634812073e-11,8.546578381e-10,3.211141034e-11,4.341252609e-11,1.235032069e-10,4.342869470e-10,1.169733964e-12,7.925361498e-12,1.860734479e-11,2.929913718e-11,2.363410373e-10,4.055698632e-10,2.766263202e-11,1.122341297e-09,4.913275992e-11,5.216140725e-10,4.141407636e-11,1.736736975e-11,1.141200603e-11,4.471879645e-10,6.520913625e-10,3.195066344e-11,1.619709637e-10,6.672201557e-10
0.40625,6.877206380e-10,7.126058152e-10,1.065468840e-10,5.077796592e-11,2.271965065e-10,1.274894247e-10,8.135608787e-11,9.726407820e-11,6.425184503e-11,8.325120143e-10,3.128120985e-11,4.193668961e-11,1.200884314e-10,4.230111774e-10,1.177864891e-12,7.807724654e-12,1.806068766e-11,2.851694300e-11,2.296692918e-10,3.950991075e-10,2.678533265e-11,1.090512710e-09,4.776204066e-11,5.083359338e-10,4.044980065e-11,1.692065450e-11,1.111423603e-11,4.323066917e-10,6.307331708e-10,3.114776317e-11,1.571812519e-10,6.501003160e-10
0.41406,6.698899155e-10,6.919906014e-10,1.038573985e-10,4.930782206e-11,2.211469107e-10,1.241031309e-10,7.940981398e-11,9.435212673e-11,6.220120639e-11,8.106538780e-10,3.046870824e-11,4.049459316e-11,1.167363444e-10,4.118742104e-10,1.185841104e-12,7.691700169e-12,1.752047756e-11,2.774097518e-11,2.230932818e-10,3.847940946e-10,2.592671772e-11,1.059193250e-09,4.641437649e-11,4.952495329e-10,3.949479415e-11,1.648214445e-11,1.082308596e-11,4.177577572e-10,6.098434506e-10,3.035147336e-11,1.524662213e-10,6.332067971e-10
0.42188,6.522773218e-10,6.717094305e-10,1.012007468e-10,4.785876118e-11,2.151793245e-10,1.207576654e-10,7.748392830e-11,9.149074141e-11,6.019779402e-11,7.891048201e-10,2.967147580e-11,3.908855890e-11,1.134447790e-10,4.008750172e-10,1.194009242e-12,7.576868092e-12,1.698748262e-11,2.697271570e-11,2.166180945e-10,3.746629715e-10,2.508708679e-11,1.028392708e-09,4.509143000e-11,4.823447540e-10,3.854864605e-11,1.605264076e-11,1.053735415e-11,4.035477514e-10,5.894255720e-10,2.956461293e-11,1.478288071e-10,6.165385772e-10
0.42969,6.349188605e-10,6.518049361e-10,9.858611464e-11,4.643993249e-11,2.093096834e-10,1.174658886e-10,7.557948748e-11,8.868798566e-11,5.824117459e-11,7.678876818e-10,2.888649533e-11,3.771947589e-11,1.102077422e-10,3.900444920e-10,1.202176043e-12,7.462379347e-12,1.646493192e-11,2.621631277e-11,2.102612530e-10,3.647063953e-10,2.426681655e-11,9.981643838e-10,4.379494910e-11,4.696201565e-10,3.761417695e-11,1.563060455e-11,1.025521395e-11,3.896898415e-10,5.695101000e-10,2.879037323e-11,1.432838381e-10,6.001152818e-10
0.4375,6.178304798e-10,6.322899060e-10,9.601521786e-11,4.505274858e-11,2.035387252e-10,1.142315010e-10,7.370156283e-11,8.594741024e-11,5.632983042e-11,7.470117462e-10,2.811438751e-11,3.638466246e-11,1.070293803e-10,3.794030728e-10,1.209945681e-12,7.348742355e-12,1.595386456e-11,2.547257690e-11,2.040297377e-10,3.549206718e-10,2.346560015e-11,9.685321641e-10,4.252472576e-11,4.571011428e-10,3.669345546e-11,1.521530558e-11,9.976645075e-12,3.761776955e-10,5.500936111e-10,2.802828249e-11,1.388373751e-10,5.839540850e-10
0.44531,6.010057566e-10,6.131526968e-10,9.348346444e-11,4.369322298e-11,1.978590710e-10,1.110530910e-10,7.185559303e-11,8.326755411e-11,5.446532797e-11,7.264687999e-10,2.735719180e-11,3.508493000e-11,1.039143188e-10,3.689439096e-10,1.217503671e-12,7.236769143e-12,1.545421715e-11,2.474066602e-11,1.979171825e-10,3.453090609e-10,2.268320921e-11,9.394770299e-10,4.127834327e-11,4.447924905e-10,3.578678284e-11,1.480907699e-11,9.703120988e-12,3.630074387e-10,5.311721206e-10,2.727660123e-11,1.344820401e-10,5.680591043e-10
0.45312,5.844538305e-10,5.943925263e-10,9.099318944e-11,4.235948649e-11,1.922731534e-10,1.079325532e-10,7.004017550e-11,8.065053561e-11,5.265117345e-11,7.062621712e-10,2.661592307e-11,3.382355514e-11,1.008614907e-10,3.586618699e-10,1.225135375e-12,7.126246818e-12,1.496730328e-11,2.402186624e-11,1.919206469e-10,3.358783210e-10,2.191943602e-11,9.109918277e-10,4.005482886e-11,4.326801233e-10,3.489462107e-11,1.441376682e-11,9.435809377e-12,3.501819674e-10,5.127522896e-10,2.653468047e-11,1.302117934e-10,5.524325108e-10
0.46094,5.681794672e-10,5.760227176e-10,8.855060626e-11,4.105252027e-11,1.867861585e-10,1.048704128e-10,6.825006967e-11,7.809894653e-11,5.088996637e-11,6.864149578e-10,2.589167323e-11,3.260115530e-11,9.787280115e-11,3.485580114e-10,1.232917735e-12,7.017254291e-12,1.449360114e-11,2.331662473e-11,1.860448362e-10,3.266353624e-10,2.117351665e-11,8.830992724e-10,3.885629095e-11,4.207724441e-10,3.401726959e-11,1.402883560e-11,9.175062644e-12,3.377071414e-10,4.948351173e-10,2.580246241e-11,1.260292129e-10,5.370808075e-10
0.46875,5.521765644e-10,5.580438624e-10,8.615118724e-11,3.977354286e-11,1.813996551e-10,1.018644649e-10,6.648718269e-11,7.560892782e-11,4.917993295e-11,6.669352538e-10,2.518418011e-11,3.141616092e-11,9.495038266e-11,3.386313709e-10,1.241120247e-12,6.910356737e-12,1.403245694e-11,2.262411278e-11,1.802933408e-10,3.175871829e-10,2.044585169e-11,8.558029619e-10,3.768432349e-11,4.090824617e-10,3.315340494e-11,1.365275080e-11,8.920045959e-12,3.255850826e-10,4.774160365e-10,2.508144471e-11,1.219390566e-10,5.220027697e-10
0.47656,5.364580008e-10,5.404564456e-10,8.379109245e-11,3.852447917e-11,1.761169430e-10,9.891593518e-11,6.475544573e-11,7.317692667e-11,4.751704224e-11,6.478213444e-10,2.449077009e-11,3.026624149e-11,9.209046731e-11,3.288944683e-10,1.249788767e-12,6.805187101e-12,1.358400703e-11,2.194521125e-11,1.746697442e-10,3.087341015e-10,1.973806287e-11,8.291018739e-10,3.653854902e-11,3.976108783e-10,3.230285366e-11,1.328420815e-11,8.668911535e-12,3.138036744e-10,4.604848924e-10,2.437394783e-11,1.179474435e-10,5.071968275e-10
0.48438,5.210416541e-10,5.232842017e-10,8.147986097e-11,3.730739590e-11,1.709396998e-10,9.602786177e-11,6.305247860e-11,7.080572782e-11,4.590164494e-11,6.290859435e-10,2.381037219e-11,2.915057610e-11,8.929124014e-11,3.193642717e-10,1.258523639e-12,6.700912592e-12,1.314856692e-11,2.128101492e-11,1.691798493e-10,3.000721342e-10,1.904991030e-11,8.030301964e-10,3.541832297e-11,3.863616092e-10,3.146783729e-11,1.292359576e-11,8.421848766e-12,3.023583909e-10,4.440482551e-10,2.368022638e-11,1.140609301e-10,4.926782454e-10
0.49219,5.059268322e-10,5.065300758e-10,7.922071614e-11,3.612096812e-11,1.658671289e-10,9.320062192e-11,6.137869145e-11,6.849805355e-11,4.433439087e-11,6.107284570e-10,2.314509297e-11,2.806979316e-11,8.655682699e-11,3.100353633e-10,1.267346123e-12,6.597451498e-12,1.272593805e-11,2.063103241e-11,1.638211711e-10,2.916022549e-10,1.837937302e-11,7.775891641e-10,3.432206003e-11,3.753385867e-10,3.064848183e-11,1.257245879e-11,8.181830210e-12,2.912526648e-10,4.281119357e-10,2.299870980e-11,1.102747566e-10,4.784567291e-10
0.5,4.911077310e-10,4.901686506e-10,7.700274767e-11,3.496283184e-11,1.609012589e-10,9.043506973e-11,5.973941496e-11,6.625568648e-11,4.281342393e-11,5.927321441e-10,2.249690578e-11,2.702330137e-11,8.389023404e-11,3.008976885e-10,1.276670033e-12,6.495228031e-12,1.231577478e-11,1.999467742e-11,1.585862855e-10,2.833259847e-10,1.772647276e-11,7.527423269e-10,3.324875667e-11,3.645419359e-10,2.984274821e-11,1.223100749e-11,7.949793640e-12,2.804830337e-10,4.126507857e-10,2.232784232e-11,1.065786802e-10,4.645230006e-10
0.50781,4.765848405e-10,4.742017138e-10,7.482282926e-11,3.383371020e-11,1.560422529e-10,8.773195851e-11,5.813400804e-11,6.408004650e-11,4.134047812e-11,5.751041974e-10,2.186555049e-11,2.601095555e-11,8.129028814e-11,2.919558838e-10,1.286470020e-12,6.394683859e-12,1.191778227e-11,1.937201265e-11,1.534767033e-10,2.752421199e-10,1.709283147e-11,7.285027222e-10,3.220064095e-11,3.539701058e-10,2.905103581e-11,1.189833180e-11,7.723232214e-12,2.700553742e-10,3.976568000e-10,2.166772813e-11,1.029739104e-10,4.508756416e-10
0.51562,4.623654880e-10,4.586424240e-10,7.268949583e-11,3.273425090e-11,1.512863215e-10,8.508868372e-11,5.655828792e-11,6.196455896e-11,3.991516171e-11,5.578687274e-10,2.124947473e-11,2.503266149e-11,7.875443359e-11,2.832129024e-10,1.296411765e-12,6.296303963e-12,1.153224113e-11,1.876328709e-11,1.484962681e-10,2.673512728e-10,1.647762240e-11,7.048929301e-10,3.117953070e-11,3.436176796e-10,2.827529103e-11,1.157365433e-11,7.500716511e-12,2.599643660e-10,3.831396913e-10,2.102127632e-11,9.946571415e-11,4.375260601e-10
0.52344,4.484576923e-10,4.434849897e-10,7.060649785e-11,3.166405566e-11,1.466335713e-10,8.250535099e-11,5.501217150e-11,5.990124499e-11,3.853063574e-11,5.410356153e-10,2.064828514e-11,2.408549677e-11,7.628180748e-11,2.746677828e-10,1.306284968e-12,6.200411882e-12,1.115942071e-11,1.816855931e-11,1.436443157e-10,2.596524852e-10,1.587906631e-11,6.818935661e-10,3.018451968e-11,3.334897076e-10,2.751610098e-11,1.125656064e-11,7.283087748e-12,2.501826555e-10,3.690824928e-10,2.039081578e-11,9.605503782e-11,4.244800855e-10
0.53125,4.348586341e-10,4.287309033e-10,6.857041280e-11,3.062450223e-11,1.420878635e-10,7.998596710e-11,5.349697191e-11,5.789322856e-11,3.718560174e-11,5.245981831e-10,2.006322174e-11,2.316807559e-11,7.387360240e-11,2.663219658e-10,1.316088043e-12,6.106865841e-12,1.079892510e-11,1.758778815e-11,1.389210586e-10,2.521426928e-10,1.529779697e-11,6.594952064e-10,2.921482218e-11,3.236003108e-10,2.677321510e-11,1.094798025e-11,7.070986191e-12,2.407109765e-10,3.554790482e-10,1.977453607e-11,9.274315360e-11,4.117353911e-10
0.53906,4.215662523e-10,4.143835522e-10,6.657944431e-11,2.961594420e-11,1.376494705e-10,7.753053505e-11,5.201423215e-11,5.594530680e-11,3.588447936e-11,5.085461101e-10,1.949474924e-11,2.228259921e-11,7.152985005e-11,2.581732953e-10,1.325988943e-12,6.015183306e-12,1.045104885e-11,1.702140448e-11,1.343257228e-10,2.448215009e-10,1.473407159e-11,6.376998568e-10,2.826990378e-11,3.139455997e-10,2.604614191e-11,1.064930858e-11,6.864612176e-12,2.315605412e-10,3.423346539e-10,1.917015826e-11,8.952685132e-11,3.992892531e-10
0.54688,4.085870447e-10,4.004329234e-10,6.463601889e-11,2.863624920e-11,1.333143840e-10,7.513689136e-11,5.056627886e-11,5.405487040e-11,3.462695473e-11,4.928771354e-10,1.894204680e-11,2.142937877e-11,6.924901670e-11,2.502226848e-10,1.335937344e-12,5.924888705e-12,1.011650454e-11,1.646965904e-11,1.298563707e-10,2.376881454e-10,1.418614015e-11,6.164979242e-10,2.734879331e-11,3.045108192e-10,2.533473045e-11,1.036003152e-11,6.664161082e-12,2.227097107e-10,3.296259318e-10,1.857858553e-11,8.639957070e-11,3.871421378e-10
0.55469,3.959165499e-10,3.868717612e-10,6.274134445e-11,2.768461674e-11,1.290811515e-10,7.280567790e-11,4.915283028e-11,5.222020183e-11,3.341128453e-11,4.775895567e-10,1.840428619e-11,2.060633266e-11,6.702978112e-11,2.424748853e-10,1.345901232e-12,5.835901481e-12,9.795006203e-12,1.593230698e-11,1.255124329e-10,2.307410624e-10,1.365363487e-11,5.958820387e-10,2.645115508e-11,2.952962776e-10,2.463944199e-11,1.007874432e-11,6.469447809e-12,2.141455011e-10,3.173387143e-10,1.800103251e-11,8.336170847e-11,3.752888752e-10
0.5625,3.835469189e-10,3.736956249e-10,6.089157613e-11,2.676175883e-11,1.249541018e-10,7.053682889e-11,4.777106514e-11,5.044347538e-11,3.223824812e-11,4.626775859e-10,1.788075468e-11,1.981223055e-11,6.486964266e-11,2.349256178e-10,1.356402052e-12,5.748661156e-12,9.486411339e-12,1.540995030e-11,1.212913097e-10,2.239788068e-10,1.313768801e-11,5.758444333e-10,2.557722230e-11,2.863102491e-10,2.396006295e-11,9.804957399e-12,6.280173818e-12,2.058777602e-10,3.054723645e-10,1.743686261e-11,8.041641761e-11,3.637192849e-10
0.57031,3.714841964e-10,3.609012985e-10,5.908366273e-11,2.586735359e-11,1.209342842e-10,6.832772154e-11,4.641818615e-11,4.872388358e-11,3.110637691e-11,4.481452708e-10,1.737134143e-11,1.904668027e-11,6.276702251e-11,2.275668612e-10,1.367354089e-12,5.663264830e-12,9.190239930e-12,1.490293665e-11,1.171915801e-10,2.173954761e-10,1.263850759e-11,5.563857009e-10,2.472767761e-11,2.775508470e-10,2.329627056e-11,9.538577665e-12,6.095823675e-12,1.979038729e-10,2.940068885e-10,1.688566080e-11,7.756344415e-11,3.524364373e-10
0.57812,3.597269517e-10,3.484844745e-10,5.731961847e-11,2.499955861e-11,1.170146978e-10,6.617480459e-11,4.509371070e-11,4.705593678e-11,3.001222497e-11,4.339932277e-10,1.687643061e-11,1.830943828e-11,6.072431633e-11,2.203938856e-10,1.377636625e-12,5.578971566e-12,8.904174830e-12,1.440965211e-11,1.132129029e-10,2.109858027e-10,1.215546626e-11,5.375042801e-10,2.390246332e-11,2.690061183e-10,2.264827698e-11,9.279790682e-12,5.915864921e-12,1.902116974e-10,2.829316276e-10,1.634816846e-11,7.479951347e-11,3.414460110e-10
0.58594,3.482627931e-10,3.364306015e-10,5.560037163e-11,2.415660168e-11,1.131923315e-10,6.407622743e-11,4.380062957e-11,4.543745548e-11,2.895551229e-11,4.202078925e-10,1.639575945e-11,1.760027950e-11,5.874194426e-11,2.134037293e-10,1.387296768e-12,5.495768445e-12,8.627435062e-12,1.392901545e-11,1.093497878e-10,2.047495797e-10,1.168760212e-11,5.191722018e-10,2.310020522e-11,2.606688103e-10,2.201504943e-11,9.028913501e-12,5.740920475e-12,1.827900922e-10,2.722448684e-10,1.582444517e-11,7.211920539e-11,3.307379483e-10
0.59375,3.370892588e-10,3.247329757e-10,5.392265395e-11,2.333888170e-11,1.094715382e-10,6.203437998e-11,4.253971971e-11,4.387416405e-11,2.793942640e-11,4.067854614e-10,1.592909660e-11,1.691949973e-11,5.681533879e-11,2.065981758e-10,1.397725072e-12,5.415006464e-12,8.362155406e-12,1.346175472e-11,1.055991159e-10,1.986843082e-10,1.123420013e-11,5.013775617e-10,2.232109202e-11,2.525445182e-10,2.139534042e-11,8.785474859e-12,5.571843540e-12,1.756340608e-10,2.619298569e-10,1.531317119e-11,6.952127866e-11,3.203046777e-10
0.60156,3.262040832e-10,3.133907338e-10,5.228399711e-11,2.254688904e-11,1.058513942e-10,6.005018295e-11,4.130787878e-11,4.236795724e-11,2.696431310e-11,3.937241324e-10,1.547632090e-11,1.626708656e-11,5.494182988e-11,1.999759890e-10,1.409215410e-12,5.337170596e-12,8.108753186e-12,1.300779222e-11,1.019618029e-10,1.927876898e-10,1.079528935e-11,4.841233143e-10,2.156579333e-11,2.446357686e-10,2.078979301e-11,8.548905766e-12,5.407884594e-12,1.687431420e-10,2.519728070e-10,1.481365727e-11,6.700645336e-11,3.101455283e-10
0.60938,3.156006204e-10,3.023895029e-10,5.068555130e-11,2.177861074e-11,1.023252122e-10,5.811911092e-11,4.010584006e-11,4.091043938e-11,2.602505414e-11,3.810105653e-10,1.503630428e-11,1.564034207e-11,5.312275740e-11,1.935296611e-10,1.420948318e-12,5.261177324e-12,7.865518768e-12,1.256612678e-11,9.843362213e-11,1.870601468e-10,1.037061368e-11,4.673834044e-10,2.083239229e-11,2.369329564e-10,2.019890228e-11,8.319422315e-12,5.247988269e-12,1.621006873e-10,2.423622341e-10,1.432673816e-11,6.457010302e-11,3.002544347e-10
0.61719,3.052793694e-10,2.917256666e-10,4.912959109e-11,2.103290834e-11,9.889059900e-11,5.623905215e-11,3.893526080e-11,3.949681252e-11,2.511843035e-11,3.686438794e-10,1.460840211e-11,1.503656363e-11,5.135937871e-11,1.872577906e-10,1.432419850e-12,5.186436725e-12,7.632115089e-12,1.213669235e-11,9.501194941e-11,1.814938276e-10,9.959719612e-12,4.511490990e-10,2.011967997e-11,2.294309140e-10,1.962215179e-11,8.097125491e-12,5.092553663e-12,1.556927439e-10,2.330926726e-10,1.385285084e-11,6.221105393e-11,2.906301273e-10
0.625,2.952355362e-10,2.814025481e-10,4.761524047e-11,2.031096880e-11,9.554933646e-11,5.441213999e-11,3.779212155e-11,3.813027792e-11,2.424549430e-11,3.566251663e-10,1.419317662e-11,1.445627254e-11,4.965052644e-11,1.811594977e-10,1.443431394e-12,5.113344695e-12,7.408815937e-12,1.172002473e-11,9.169841988e-11,1.760773108e-10,9.562445379e-12,4.354300682e-10,1.942812193e-11,2.221316954e-10,1.905972452e-11,7.881378437e-12,4.942244922e-12,1.495267800e-10,2.241701742e-10,1.339140146e-11,5.993234890e-11,2.812708217e-10
0.63281,2.854595444e-10,2.714011966e-10,4.613894773e-11,1.961315712e-11,9.230231244e-11,5.263871167e-11,3.667505648e-11,3.681206248e-11,2.340564461e-11,3.449379903e-10,1.379041274e-11,1.389975764e-11,4.799193685e-11,1.752293610e-10,1.454149866e-12,5.041920371e-12,7.195219901e-12,1.131653704e-11,8.848963631e-11,1.708096673e-10,9.177998957e-12,4.201972306e-10,1.875692345e-11,2.150304816e-10,1.851151113e-11,7.671454657e-12,4.796601824e-12,1.435958895e-10,2.155733269e-10,1.294201321e-11,5.772982042e-11,2.721640998e-10
0.64062,2.759531028e-10,2.617108692e-10,4.470040099e-11,1.893900691e-11,8.914780478e-11,5.091804771e-11,3.558737750e-11,3.554080105e-11,2.259732075e-11,3.335743604e-10,1.339958685e-11,1.336603248e-11,4.637996400e-11,1.694693202e-10,1.464955293e-12,4.971570572e-12,6.991098997e-12,1.092611720e-11,8.538246655e-11,1.656934324e-10,8.805892660e-12,4.054320310e-10,1.810602442e-11,2.081172106e-10,1.797642458e-11,7.467311928e-12,4.654808729e-12,1.378841415e-10,2.072733323e-10,1.250448300e-11,5.559884776e-11,2.633066399e-10
0.64844,2.667128208e-10,2.523355639e-10,4.330130607e-11,1.828742751e-11,8.608226217e-11,4.924875131e-11,3.452769639e-11,3.431315030e-11,2.181964170e-11,3.225330125e-10,1.302125513e-11,1.285483393e-11,4.481550081e-11,1.638789685e-10,1.475675943e-12,4.902204537e-12,6.795930986e-12,1.054770223e-11,8.237590353e-11,1.607254223e-10,8.446705761e-12,3.911435142e-10,1.747598580e-11,2.013858604e-10,1.745420558e-11,7.269418676e-12,4.516862762e-12,1.323925777e-10,1.992778712e-10,1.207851978e-11,5.353940945e-11,2.547011432e-10
0.65625,2.577234556e-10,2.432589102e-10,4.193852962e-11,1.765570566e-11,8.310392118e-11,4.762684885e-11,3.349376468e-11,3.312253997e-11,2.106967884e-11,3.118003685e-10,1.265561446e-11,1.236427800e-11,4.329963602e-11,1.584459641e-10,1.486259448e-12,4.834770941e-12,6.609146655e-12,1.018047684e-11,7.946334176e-11,1.558997230e-10,8.100209409e-12,3.773075316e-10,1.686495010e-11,1.948377661e-10,1.694520622e-11,7.077542275e-12,4.383236540e-12,1.271099710e-10,1.915827150e-10,1.166402324e-11,5.154782794e-11,2.463376252e-10
0.66406,2.489805526e-10,2.344663368e-10,4.060829202e-11,1.704261832e-11,8.021279561e-11,4.605008319e-11,3.248744637e-11,3.196748001e-11,2.034595356e-11,3.013699812e-10,1.230155412e-11,1.189184495e-11,4.183056276e-11,1.531636146e-10,1.497245528e-12,4.769774747e-12,6.431246133e-12,9.824984308e-12,7.664081183e-11,1.512087710e-10,7.765692934e-12,3.638996032e-10,1.627160899e-11,1.884794536e-10,1.644929820e-11,6.890632322e-12,4.253689965e-12,1.220179850e-10,1.841613760e-10,1.126047091e-11,4.962136580e-11,2.382064688e-10
0.67188,2.404873142e-10,2.259620589e-10,3.931338885e-11,1.644994641e-11,7.740558812e-11,4.451965502e-11,3.150732898e-11,3.085274682e-11,1.965046667e-11,2.912433938e-10,1.195776745e-11,1.143832673e-11,4.040727070e-11,1.480336257e-10,1.508632240e-12,4.706162088e-12,6.262528552e-12,9.481899781e-12,7.391126817e-11,1.466474976e-10,7.442992149e-12,3.509231101e-10,1.569634941e-11,1.823084197e-10,1.596639332e-11,6.708538495e-12,4.127487625e-12,1.171214058e-10,1.770128017e-10,1.086734090e-11,4.776166780e-11,2.303044346e-10
0.67969,2.322398314e-10,2.177401594e-10,3.805684140e-11,1.587853038e-11,7.467668364e-11,4.303587758e-11,3.055018201e-11,2.977914792e-11,1.898289886e-11,2.814122504e-10,1.162397390e-11,1.100458768e-11,3.902950532e-11,1.430550218e-10,1.519853911e-12,4.643172164e-12,6.102011291e-12,9.150369088e-12,7.127342635e-11,1.422195922e-10,7.131018418e-12,3.383663313e-10,1.513833954e-11,1.763053817e-10,1.549601418e-11,6.532462650e-12,4.004890650e-12,1.124194968e-10,1.701353900e-10,1.048537811e-11,4.596649547e-11,2.226268856e-10
0.6875,2.242308746e-10,2.097866808e-10,3.683551640e-11,1.532683973e-11,7.202475193e-11,4.159693014e-11,2.961752709e-11,2.874278079e-11,1.834049992e-11,2.718674023e-10,1.130113312e-11,1.058893200e-11,3.769543508e-11,1.382248850e-10,1.530509772e-12,4.581337398e-12,5.948329924e-12,8.828435826e-12,6.872151339e-11,1.379295572e-10,6.828902163e-12,3.262140200e-10,1.459741358e-11,1.704558765e-10,1.503681801e-11,6.362971238e-12,3.886852384e-12,1.078966599e-10,1.635099634e-10,1.011538161e-11,4.423189244e-11,2.151723160e-10
0.69531,2.164520209e-10,2.020928281e-10,3.564619471e-11,1.479372829e-11,6.945304134e-11,4.020088664e-11,2.871032714e-11,2.774079311e-11,1.772197546e-11,2.626032245e-10,1.098955855e-11,1.019044527e-11,3.640313385e-11,1.335375519e-10,1.540497738e-12,4.520815716e-12,5.800744272e-12,8.515547291e-12,6.625152441e-11,1.337711538e-10,6.537870218e-12,3.144608931e-10,1.407455013e-11,1.647689795e-10,1.458819660e-11,6.198882283e-12,3.773011549e-12,1.035490789e-10,1.571304085e-10,9.756779671e-12,4.255695578e-11,2.079370115e-10
0.70312,2.088986230e-10,1.946520990e-10,3.448957062e-11,1.427945860e-11,6.696250805e-11,3.884768032e-11,2.782675058e-11,2.677272726e-11,1.712648866e-11,2.536131962e-10,1.068739122e-11,9.809018770e-12,3.515109494e-11,1.289879164e-10,1.550634972e-12,4.461392207e-12,5.659808856e-12,8.213280180e-12,6.386203578e-11,1.297315560e-10,6.258432015e-12,3.030917615e-10,1.356873840e-11,1.592567920e-10,1.415098417e-11,6.039016393e-12,3.661969505e-12,9.937373222e-11,1.509896018e-10,9.408681928e-12,4.094072780e-11,2.009120958e-10
0.71094,2.015731729e-10,1.874614892e-10,3.336618188e-11,1.378346016e-11,6.454800023e-11,3.753766306e-11,2.696728812e-11,2.583925361e-11,1.655303976e-11,2.448907687e-10,1.039299082e-11,9.443384867e-12,3.393820500e-11,1.245764499e-10,1.561810287e-12,4.403217684e-12,5.526133225e-12,7.922229058e-12,6.155361797e-11,1.258034321e-10,5.988962785e-12,2.920944696e-10,1.307842925e-11,1.539102215e-10,1.372602788e-11,5.883745987e-12,3.553649450e-12,9.535978342e-11,1.450732619e-10,9.070531054e-12,3.938135427e-11,1.940933422e-10
0.71875,1.944689431e-10,1.805110358e-10,3.227519401e-11,1.330329842e-11,6.220297341e-11,3.626770607e-11,2.613259350e-11,2.493887136e-11,1.600124923e-11,2.364246087e-10,1.010746998e-11,9.092612666e-12,3.276520252e-11,1.202991335e-10,1.573061794e-12,4.345828302e-12,5.398526033e-12,7.640798614e-12,5.932387825e-11,1.219868203e-10,5.728493606e-12,2.814561750e-10,1.260290499e-11,1.487162031e-10,1.331316807e-11,5.733592128e-12,3.449122658e-12,9.150177901e-11,1.393802516e-10,8.741779149e-12,3.787577003e-11,1.874740573e-10
0.72656,1.875692122e-10,1.737871799e-10,3.121569700e-11,1.283776637e-11,5.992542051e-11,3.503441696e-11,2.532079195e-11,2.406811877e-11,1.547091264e-11,2.282088604e-10,9.832576161e-12,8.756820013e-12,3.163246801e-11,1.161486718e-10,1.583242666e-12,4.288811323e-12,5.275923219e-12,7.368194859e-12,5.716745126e-11,1.182813673e-10,5.477328572e-12,2.711574593e-10,1.214118680e-11,1.436774221e-10,1.291141258e-11,5.587862963e-12,3.348295943e-12,8.779529342e-11,1.339056776e-10,8.422493995e-12,3.642132115e-11,1.810447596e-10
0.73438,1.808692389e-10,1.672907565e-10,3.018595454e-11,1.238835108e-11,5.771742131e-11,3.383915148e-11,2.453066291e-11,2.322604065e-11,1.496158469e-11,2.202484621e-10,9.567546446e-12,8.435866977e-12,3.053696346e-11,1.121257785e-10,1.593102444e-12,4.232911123e-12,5.159207673e-12,7.105362207e-12,5.508321507e-11,1.146850960e-10,5.235497859e-12,2.611978378e-10,1.169376187e-11,1.387915250e-10,1.251963795e-11,5.446004310e-12,3.250165081e-12,8.423429982e-11,1.286351545e-10,8.113383575e-12,3.501862569e-11,1.748064601e-10
0.74219,1.743740739e-10,1.610184346e-10,2.918456781e-11,1.195598053e-11,5.558123951e-11,3.268354803e-11,2.376141025e-11,2.241332246e-11,1.447146363e-11,2.125354059e-10,9.310199055e-12,8.128787218e-12,2.947483786e-11,1.082294373e-10,1.603264800e-12,4.178396628e-12,5.048792439e-12,6.852950440e-12,5.307098591e-11,1.111996453e-10,5.002693923e-12,2.515753662e-10,1.126204921e-11,1.340413540e-10,1.213737516e-11,5.308594934e-12,3.154772088e-12,8.081350471e-11,1.235617504e-10,7.814602445e-12,3.366681505e-11,1.687590996e-10
0.75,1.680810857e-10,1.549549263e-10,2.821166869e-11,1.153957588e-11,5.351499162e-11,3.156570610e-11,2.301136018e-11,2.162951632e-11,1.399844952e-11,2.050543656e-10,9.059707212e-12,7.834268136e-12,2.844505279e-11,1.044514519e-10,1.613208101e-12,4.124772829e-12,4.943651548e-12,6.610419856e-12,5.112693520e-11,1.078271219e-10,4.778687037e-12,2.422707998e-10,1.084520073e-11,1.294225209e-10,1.176512438e-11,5.176171042e-12,3.062657115e-12,7.752507163e-11,1.186797116e-10,7.525618746e-12,3.236297198e-11,1.628948561e-10
0.75781,1.619817425e-10,1.490961939e-10,2.726669186e-11,1.113719613e-11,5.151134459e-11,3.048224301e-11,2.228023196e-11,2.087357950e-11,1.354308346e-11,1.978049391e-10,8.816164378e-12,7.551951737e-12,2.744862752e-11,1.007871819e-10,1.622897446e-12,4.072229922e-12,4.842992638e-12,6.376202280e-12,4.924848157e-11,1.045635950e-10,4.563240075e-12,2.332812267e-10,1.044178708e-11,1.249441010e-10,1.140389942e-11,5.048434072e-12,2.973445426e-12,7.436635775e-11,1.139831081e-10,7.246009049e-12,3.110668841e-11,1.572114499e-10
0.76562,1.560690144e-10,1.434378766e-10,2.634790022e-11,1.074642927e-11,4.956488839e-11,2.942881912e-11,2.156870808e-11,2.014395954e-11,1.310662149e-11,1.907822536e-10,8.579282718e-12,7.282622619e-12,2.648609208e-11,9.723360598e-11,1.632513146e-12,4.020863134e-12,4.746100352e-12,6.148718666e-12,4.743357894e-11,1.014015313e-10,4.355976932e-12,2.246032560e-10,1.005194592e-11,1.206030711e-10,1.105377800e-11,4.924711653e-12,2.886760267e-12,7.133855821e-11,1.094675537e-10,6.975300941e-12,2.989524037e-11,1.517038924e-10
0.77344,1.503369063e-10,1.379655464e-10,2.545376020e-11,1.036641927e-11,4.767810481e-11,2.840333242e-11,2.087617634e-11,1.944050861e-11,1.268848399e-11,1.839701394e-10,8.349525770e-12,7.026531695e-12,2.555646562e-11,9.378590383e-11,1.641749843e-12,3.970168343e-12,4.652364471e-12,5.927903863e-12,4.567849241e-11,9.833465559e-11,4.156476083e-12,2.162108385e-10,9.675509885e-12,1.163918813e-10,1.071289517e-11,4.804479139e-12,2.803052728e-12,6.843487860e-11,1.051213426e-10,6.712554645e-12,2.872388165e-11,1.463591298e-10
0.78125,1.447803562e-10,1.326771847e-10,2.458332399e-11,9.999367424e-12,4.585441219e-11,2.740938317e-11,2.020176524e-11,1.876487268e-11,1.228753365e-11,1.773648239e-10,8.128045751e-12,6.782583585e-12,2.465808065e-11,9.044320596e-11,1.650585898e-12,3.919970856e-12,4.562279785e-12,5.714606027e-12,4.398205263e-11,9.535885472e-11,3.964609428e-12,2.080925472e-10,9.311417330e-12,1.123124125e-10,1.037945869e-11,4.687624634e-12,2.722519934e-12,6.564805122e-11,1.009363831e-10,6.457217145e-12,2.759382396e-11,1.411738439e-10
0.78906,1.393960224e-10,1.275757871e-10,2.373821645e-11,9.647673842e-12,4.409176901e-11,2.645024866e-11,1.954569786e-11,1.811487216e-11,1.190166778e-11,1.709682035e-10,7.914494857e-12,6.549048259e-12,2.378981877e-11,8.720571831e-11,1.659172633e-12,3.869927432e-12,4.476234121e-12,5.509240076e-12,4.234443651e-11,9.247170576e-11,3.780294549e-12,2.002519270e-10,8.958990722e-12,1.083625259e-10,1.005426613e-11,4.574339468e-12,2.644735069e-12,6.297420536e-11,9.691259039e-11,6.209941727e-12,2.650694940e-11,1.361511461e-10
0.79688,1.341817561e-10,1.226536518e-10,2.292172588e-11,9.311348914e-12,4.238683076e-11,2.552403254e-11,1.890854832e-11,1.748512866e-11,1.152830070e-11,1.647741739e-10,7.707413608e-12,6.324810946e-12,2.295110949e-11,8.407117103e-11,1.667553600e-12,3.819510819e-12,4.393786525e-12,5.311968449e-12,4.076418792e-11,8.967130959e-11,3.603158903e-12,1.926806743e-10,8.618148499e-12,1.045333096e-10,9.739019711e-12,4.464759634e-12,2.569472619e-12,6.040521645e-11,9.304351381e-11,5.971612453e-12,2.546018657e-11,1.312861150e-10
0.80469,1.291357897e-10,1.179044976e-10,2.213283898e-11,8.988211871e-12,4.073781387e-11,2.462773819e-11,1.829024696e-11,1.687419621e-11,1.116758289e-11,1.587782324e-10,7.506000187e-12,6.110115466e-12,2.214096343e-11,8.103749237e-11,1.675860147e-12,3.769013295e-12,4.315046031e-12,5.122622089e-12,3.924056388e-11,8.695594918e-11,3.433010320e-12,1.853701961e-10,8.288916246e-12,1.008204267e-10,9.433519244e-12,4.358775996e-12,2.496760572e-12,5.793565093e-11,8.932291201e-11,5.742150582e-12,2.445165970e-11,1.265719517e-10
0.8125,1.242549742e-10,1.133230390e-10,2.136696429e-11,8.675492389e-12,3.914271914e-11,2.375984272e-11,1.769006175e-11,1.628386223e-11,1.082083858e-11,1.529767359e-10,7.309827885e-12,5.905225474e-12,2.135792772e-11,7.810140646e-11,1.683914197e-12,3.718919599e-12,4.240261012e-12,4.940550758e-12,3.777254342e-11,8.432459537e-11,3.269719204e-12,1.783124347e-10,7.970795639e-12,9.722154441e-11,9.136558523e-12,4.256065938e-12,2.426597199e-12,5.556494031e-11,8.574895261e-11,5.520833374e-12,2.348081858e-11,1.220042187e-10
0.82031,1.195329866e-10,1.088998935e-10,2.062254543e-11,8.372634428e-12,3.759962540e-11,2.291980561e-11,1.710734758e-11,1.571483933e-11,1.048750189e-11,1.473612583e-10,7.118879156e-12,5.709230446e-12,2.060115533e-11,7.525839733e-11,1.691871258e-12,3.669618115e-12,4.168752611e-12,4.765313179e-12,3.635668002e-11,8.177577242e-11,3.112766416e-12,1.714920403e-10,7.662968087e-12,9.373351579e-11,8.847593606e-12,4.156430099e-12,2.359026077e-12,5.328764105e-11,8.231230025e-11,5.306968310e-12,2.254478002e-11,1.175777882e-10
0.82812,1.149618434e-10,1.046302853e-10,1.990065201e-11,8.081040073e-12,3.610715029e-11,2.210780793e-11,1.654140644e-11,1.516655201e-11,1.016656767e-11,1.419242438e-10,6.934017704e-12,5.521406527e-12,1.987049594e-11,7.250509159e-11,1.700602079e-12,3.621719018e-12,4.099880954e-12,4.596488971e-12,3.498912454e-11,7.930667517e-11,2.961989189e-12,1.649008155e-10,7.365271862e-12,9.035528167e-11,8.566414154e-12,4.059977792e-12,2.293915507e-12,5.109743396e-11,7.900325128e-11,5.100168470e-12,2.164131690e-11,1.132901400e-10
0.83594,1.105366921e-10,1.005106334e-10,1.920122931e-11,7.800432306e-12,3.466390398e-11,2.132274553e-11,1.599098666e-11,1.463730121e-11,9.857631874e-12,1.366599355e-10,6.755553770e-12,5.342145688e-12,1.916551396e-11,6.983842003e-11,1.709614701e-12,3.574569441e-12,4.033320910e-12,4.433489846e-12,3.366705449e-11,7.691365568e-11,2.817707099e-12,1.585367913e-10,7.078046234e-12,8.708446331e-11,8.292932839e-12,3.966688730e-12,2.231003230e-12,4.899351690e-11,7.581879198e-11,4.900474339e-12,2.076983525e-11,1.091402596e-10
0.84375,1.062565622e-10,9.653422268e-11,1.852339983e-11,7.529060589e-12,3.326909900e-11,2.056238815e-11,1.545563441e-11,1.412549386e-11,9.560480049e-12,1.315633090e-10,6.582619634e-12,5.171964306e-12,1.848514876e-11,6.725666892e-11,1.717175383e-12,3.526428802e-12,3.968233419e-12,4.276313712e-12,3.238921085e-11,7.459331734e-11,2.679625726e-12,1.523934592e-10,6.801274385e-12,8.391701542e-11,8.027228664e-12,3.876270024e-12,2.170314228e-12,4.697597300e-11,7.275377650e-11,4.707906712e-12,1.992953170e-11,1.051239195e-10
0.85156,1.021190415e-10,9.269665279e-11,1.786631698e-11,7.266333006e-12,3.192209772e-11,1.982600106e-11,1.493611068e-11,1.363115806e-11,9.274988092e-12,1.266309973e-10,6.414584371e-12,5.010489797e-12,1.782770005e-11,6.475933883e-11,1.723261278e-12,3.477261186e-12,3.903954184e-12,4.125144727e-12,3.115553663e-11,7.234438158e-11,2.547093415e-12,1.464631601e-10,6.534346859e-12,8.085001195e-11,7.769070939e-12,3.788565437e-12,2.111803045e-12,4.504238460e-11,6.980333730e-11,4.522232915e-12,1.911948326e-11,1.012357574e-10
0.85938,9.811844277e-11,8.899370327e-11,1.722974280e-11,7.012278787e-12,3.062124987e-11,1.911357142e-11,1.443208594e-11,1.315442577e-11,9.000071943e-12,1.218590031e-10,6.251369556e-12,4.856173075e-12,1.719169719e-11,6.234393851e-11,1.729137199e-12,3.428596484e-12,3.841009734e-12,3.979641173e-12,2.996522495e-11,7.016661924e-11,2.420071584e-12,1.407385202e-10,6.276537464e-12,7.788036643e-11,7.518105744e-12,3.703527536e-12,2.055047710e-12,4.318817222e-11,6.696686409e-11,4.343474682e-12,1.833854077e-11,9.747217949e-11
0.86719,9.424979341e-11,8.542067987e-11,1.661385173e-11,6.766721264e-12,2.936438316e-11,1.842438870e-11,1.394217942e-11,1.269473996e-11,8.734470362e-12,1.172440014e-10,6.092911444e-12,4.707582150e-12,1.657787391e-11,6.000709572e-11,1.735135468e-12,3.381111144e-12,3.780391575e-12,3.839476956e-12,2.881686553e-11,6.805738884e-11,2.298765132e-12,1.352134963e-10,6.027777579e-12,7.500747593e-11,7.274171469e-12,3.620992623e-12,1.999886189e-12,4.140925374e-11,6.424060147e-11,4.171590393e-12,1.758579482e-11,9.383087260e-11
0.875,9.051150956e-11,8.197488833e-11,1.601750825e-11,6.529768056e-12,2.814977920e-11,1.775774556e-11,1.346656035e-11,1.225098554e-11,8.478176051e-12,1.127835808e-10,5.939224121e-12,4.564962737e-12,1.598761205e-11,5.774604872e-11,1.741101875e-12,3.334395604e-12,3.722178261e-12,3.704584786e-12,2.770916040e-11,6.601240514e-11,2.183159330e-12,1.298835776e-10,5.788289024e-12,7.223217627e-11,7.037187259e-12,3.540825479e-12,1.946559792e-12,3.970348932e-11,6.161723676e-11,4.005970561e-12,1.686069741e-11,9.030887964e-11
0.88281,8.690317960e-11,7.865253621e-11,1.543993981e-11,6.301500189e-12,2.697719795e-11,1.711320934e-11,1.300608935e-11,1.182137230e-11,8.230670331e-12,1.084725211e-10,5.790164891e-12,4.428970875e-12,1.541881582e-11,5.555894673e-11,1.746977048e-12,3.287902532e-12,3.665491637e-12,3.575133360e-12,2.664091197e-11,6.402857968e-11,2.073147719e-12,1.247416863e-10,5.557649960e-12,6.954807831e-11,6.807395616e-12,3.463098392e-12,1.895176155e-12,3.806696075e-11,5.909271206e-11,3.846344142e-12,1.616230583e-11,8.690206576e-11
0.89062,8.342056599e-11,7.545061841e-11,1.488217963e-11,6.081884304e-12,2.584709419e-11,1.649100036e-11,1.255987169e-11,1.140577324e-11,7.990905050e-12,1.043054403e-10,5.645519512e-12,4.299071794e-12,1.486764516e-11,5.344661208e-11,1.752750965e-12,3.241540151e-12,3.609764321e-12,3.451529226e-12,2.561181639e-11,6.210480548e-11,1.968252395e-12,1.197826415e-10,5.335304958e-12,6.694686264e-11,6.584899138e-12,3.388206059e-12,1.845744016e-12,3.649509601e-11,5.666735834e-11,3.692953724e-12,1.549029893e-11,8.360818697e-11
0.89844,8.005652872e-11,7.236652373e-11,1.434335724e-11,5.870707980e-12,2.475685220e-11,1.589120307e-11,1.212680568e-11,1.100560442e-11,7.759340906e-12,1.002782444e-10,5.505497200e-12,4.174607566e-12,1.433354548e-11,5.140855578e-11,1.759060597e-12,3.195854877e-12,3.555171804e-12,3.333411023e-12,2.462051801e-11,6.024248658e-11,1.867620018e-12,1.150024028e-10,5.121002594e-12,6.442899707e-11,6.369010240e-12,3.316517517e-12,1.798339163e-12,3.498655402e-11,5.433976481e-11,3.545481048e-12,1.484397929e-11,8.042685845e-11
0.90625,7.680713141e-11,6.939260178e-11,1.382116118e-11,5.667006420e-12,2.370146169e-11,1.531191381e-11,1.170732815e-11,1.062040483e-11,7.536536686e-12,9.638528133e-11,5.370030576e-12,4.055582631e-12,1.381853434e-11,4.943937993e-11,1.766395007e-12,3.151186520e-12,3.501938575e-12,3.219707271e-12,2.366344406e-11,5.844357413e-11,1.770789127e-12,1.103912044e-10,4.914290749e-12,6.199592006e-11,6.159387682e-12,3.247631052e-12,1.752924198e-12,3.353931956e-11,5.210327177e-11,3.403534462e-12,1.422060200e-11,7.735463361e-11
0.91406,7.366970178e-11,6.652275923e-11,1.331572565e-11,5.469912485e-12,2.267986886e-11,1.475106218e-11,1.130123907e-11,1.024905656e-11,7.322157056e-12,9.262306225e-11,5.238392825e-12,3.941949780e-12,1.332368008e-11,4.753422743e-11,1.774205658e-12,3.107334742e-12,3.450292629e-12,3.110285924e-12,2.273893804e-11,5.670673374e-11,1.677969400e-12,1.059423376e-10,4.714974805e-12,5.964268628e-11,5.956337915e-12,3.180817308e-12,1.709401300e-12,3.214910473e-11,4.995270232e-11,3.267369300e-12,1.361877485e-11,7.438531503e-11
0.92188,7.064048858e-11,6.375627339e-11,1.282707540e-11,5.279486175e-12,2.169508163e-11,1.420814588e-11,1.090681957e-11,9.891399375e-12,7.116120786e-12,8.899103222e-11,5.110225087e-12,3.833387580e-12,1.284822487e-11,4.569067774e-11,1.782083306e-12,3.064309314e-12,3.400363202e-12,3.005679336e-12,2.184758116e-11,5.502787205e-11,1.589524235e-12,1.016547477e-10,4.523410441e-12,5.736516161e-11,5.759180404e-12,3.116153736e-12,1.667745794e-12,3.081366597e-11,4.788659097e-11,3.136732936e-12,1.303953431e-11,7.151511285e-11
0.92969,6.772002612e-11,6.109022626e-11,1.235412081e-11,5.096001450e-12,2.074787421e-11,1.368249674e-11,1.052318994e-11,9.546122286e-12,6.917577095e-12,8.548514914e-11,4.985535603e-12,3.729373390e-12,1.239006314e-11,4.390657180e-11,1.790040497e-12,3.021951477e-12,3.351481426e-12,2.905774203e-12,2.098876298e-11,5.340246712e-11,1.505552805e-12,9.752251533e-11,4.339463277e-12,5.516237817e-11,5.566830048e-12,3.054020807e-12,1.627977702e-12,2.953276308e-11,4.590096334e-11,3.010884862e-12,1.248274964e-11,6.874274468e-11
0.9375,6.490795225e-11,5.852193292e-11,1.189793663e-11,4.919797096e-12,1.983602129e-11,1.317433085e-11,1.015047057e-11,9.212184335e-12,6.724847092e-12,8.209910059e-11,4.864043656e-12,3.629171750e-12,1.194749228e-11,4.218276449e-11,1.797860357e-12,2.979489499e-12,3.302866722e-12,2.810370083e-12,2.016197045e-11,5.182624486e-11,1.425920055e-12,9.353980990e-11,4.162438726e-12,5.303355162e-11,5.379625192e-12,2.994055902e-12,1.590017738e-12,2.830541335e-11,4.399197858e-11,2.890056813e-12,1.194765194e-11,6.606553480e-11
0.94531,6.219619160e-11,5.605163662e-11,1.145869372e-11,4.751017535e-12,1.895771945e-11,1.268547282e-11,9.788194683e-12,8.890316822e-12,6.537525849e-12,7.882957382e-11,4.745730990e-12,3.532277326e-12,1.152069763e-11,4.052071140e-11,1.805637396e-12,2.936570122e-12,3.254616519e-12,2.719637660e-12,1.936674920e-11,5.029665937e-11,1.350443967e-12,8.970473288e-11,3.992023799e-12,5.097899320e-11,5.198355955e-12,2.935712492e-12,1.553406101e-12,2.712816920e-11,4.215838956e-11,2.774619625e-12,1.143399252e-11,6.347958325e-11
0.95312,5.958067211e-11,5.367490180e-11,1.103387612e-11,4.588666388e-12,1.811196436e-11,1.221509164e-11,9.436084303e-12,8.580013646e-12,6.356094399e-12,7.567548102e-11,4.630936907e-12,3.438931559e-12,1.110980291e-11,3.891677070e-11,1.813416032e-12,2.893330779e-12,3.206770101e-12,2.633389932e-12,1.860043902e-11,4.881263505e-11,1.278876614e-12,8.601003139e-11,3.828220185e-12,4.899686193e-11,5.022872930e-12,2.878911661e-12,1.517681191e-12,2.599636798e-11,4.039578563e-11,2.663860463e-12,1.093983575e-11,6.098262948e-11
0.96094,5.703708028e-11,5.132113307e-11,1.063495013e-11,4.421386863e-12,1.730045424e-11,1.171684029e-11,9.093649438e-12,8.243147822e-12,6.151348129e-12,7.260761066e-11,4.524521360e-12,3.313136636e-12,1.072651478e-11,3.738956158e-11,1.822131385e-12,2.853337202e-12,3.135971545e-12,2.549411107e-12,1.784815631e-11,4.738189957e-11,1.222557513e-12,8.237115899e-11,3.658050104e-12,4.708123666e-11,4.855283813e-12,2.825736151e-12,1.483665416e-12,2.478959053e-11,3.862146009e-11,2.557381080e-12,1.044971274e-11,5.856430057e-11
0.96875,5.461770672e-11,4.912127298e-11,1.023744238e-11,4.269766716e-12,1.652678939e-11,1.127619444e-11,8.765964943e-12,7.949684864e-12,5.976148193e-12,6.967814757e-11,4.417188067e-12,3.217324201e-12,1.035731268e-11,3.589833400e-11,1.829263473e-12,2.806181221e-12,3.084571663e-12,2.470877598e-12,1.713733402e-11,4.597703988e-11,1.163804963e-12,7.895321823e-11,3.506811353e-12,4.522568424e-11,4.689360969e-12,2.773281769e-12,1.451547824e-12,2.373038226e-11,3.699628154e-11,2.456584897e-12,9.992850192e-12,5.624205884e-11
0.97656,5.229310027e-11,4.700815876e-11,9.847482866e-12,4.127668303e-12,1.578315703e-11,1.087825575e-11,8.451956426e-12,7.686025289e-12,5.828222762e-12,6.683367742e-11,4.312855552e-12,3.151321187e-12,9.991905703e-12,3.443380691e-11,1.835295261e-12,2.756697917e-12,3.052796011e-12,2.395775761e-12,1.645676333e-11,4.461932857e-11,1.100461370e-12,7.563853288e-11,3.362687653e-12,4.343526802e-11,4.527897924e-12,2.721003245e-12,1.420408417e-12,2.277563190e-11,3.543765578e-11,2.360399713e-12,9.549597705e-12,5.397973139e-11
0.98438,5.004960408e-11,4.497445399e-11,9.476409530e-12,3.989871897e-12,1.506532918e-11,1.048354749e-11,8.146781599e-12,7.421102941e-12,5.675273250e-12,6.409755275e-11,4.211952475e-12,3.077462195e-12,9.643022930e-12,3.303179831e-11,1.842966103e-12,2.711083942e-12,3.014429134e-12,2.323829702e-12,1.579999827e-11,4.329380706e-11,1.042775595e-12,7.245765169e-11,3.223521148e-12,4.171224088e-11,4.373231395e-12,2.670820993e-12,1.390012663e-12,2.183240169e-11,3.394178125e-11,2.268178595e-12,9.125028180e-12,5.180805829e-11
0.99219,4.788751755e-11,4.301720982e-11,9.121961328e-12,3.856816895e-12,1.437231840e-11,1.009585189e-11,7.850773783e-12,7.159104033e-12,5.519914474e-12,6.146649221e-11,4.113941474e-12,2.998346829e-12,9.313213470e-12,3.168306567e-11,1.851736422e-12,2.667016202e-12,2.971370132e-12,2.255161567e-12,1.516552589e-11,4.199059236e-11,9.897168833e-13,6.940184747e-11,3.089812379e-12,4.005059889e-11,4.224075200e-12,2.622444827e-12,1.360649749e-12,2.090410017e-11,3.251113034e-11,2.179647775e-12,8.718042161e-12,4.971962949e-11
1,4.580043053e-11,4.112541582e-11,8.778532733e-12,3.728755173e-12,1.370444143e-11,9.726738669e-12,7.565706819e-12,6.912264887e-12,5.380377358e-12,5.891052369e-11,4.022278523e-12,2.933816732e-12,8.992259209e-12,3.037141743e-11,1.859881214e-12,2.622430354e-12,2.935209144e-12,2.189083304e-12,1.455589631e-11,4.073969883e-11,9.375312483e-13,6.642937747e-11,2.957933365e-12,3.844767797e-11,4.079133872e-12,2.575005602e-12,1.332331217e-12,2.004035654e-11,3.112970566e-11,2.094634349e-12,8.321718412e-12,4.769032061e-11
1.0078,4.378876840e-11,3.930513240e-11,8.446973624e-12,3.605241244e-12,1.306211929e-11,9.367463573e-12,7.289598320e-12,6.673362666e-12,5.244070242e-12,5.644804443e-11,3.933958335e-12,2.870534639e-12,8.681314593e-12,2.911289716e-11,1.868022916e-12,2.579587848e-12,2.897250020e-12,2.126303840e-12,1.396794251e-11,3.953387882e-11,8.882428664e-13,6.357431331e-11,2.831842860e-12,3.690378673e-11,3.938179940e-12,2.529045782e-12,1.305174333e-12,1.920900525e-11,2.980334824e-11,2.013119694e-12,7.940922711e-12,4.573862340e-11
1.0156,4.185495806e-11,3.755921567e-11,8.130413917e-12,3.486330043e-12,1.244462942e-11,9.016600234e-12,7.021493330e-12,6.440406684e-12,5.105642476e-12,5.408569238e-11,3.845902007e-12,2.803061021e-12,8.382576486e-12,2.790849119e-11,1.876602228e-12,2.538783282e-12,2.855259628e-12,2.067200136e-12,1.340100398e-11,3.835730702e-11,8.420918240e-13,6.085006256e-11,2.713780421e-12,3.541543422e-11,3.801952004e-12,2.484874505e-12,1.279288649e-12,1.839424128e-11,2.853782207e-11,1.935136342e-12,7.577789489e-12,4.386882196e-11
1.0234,3.999086521e-11,3.587449659e-11,7.827752209e-12,3.371026303e-12,1.185119092e-11,8.677160428e-12,6.762050064e-12,6.216732333e-12,4.975709910e-12,5.179793176e-11,3.761048249e-12,2.742651874e-12,8.091564908e-12,2.674324454e-11,1.885084032e-12,2.498907389e-12,2.815576368e-12,2.010617675e-12,1.285705093e-11,3.722712151e-11,7.982979564e-13,5.821680501e-11,2.598536422e-12,3.397901088e-11,3.670761146e-12,2.442241110e-12,1.254384201e-12,1.762592588e-11,2.731589879e-11,1.860807530e-12,7.227009123e-12,4.206093296e-11
1.0312,3.819559228e-11,3.425327900e-11,7.535049239e-12,3.259688866e-12,1.128121370e-11,8.347883323e-12,6.510034611e-12,6.000503782e-12,4.850568296e-12,4.959607076e-11,3.678155522e-12,2.685814875e-12,7.809521264e-12,2.561795108e-11,1.893298295e-12,2.460024444e-12,2.775035385e-12,1.956596561e-12,1.233380673e-11,3.613712940e-11,7.571217712e-13,5.568565819e-11,2.487765430e-12,3.259495373e-11,3.543453769e-12,2.400708806e-12,1.230162181e-12,1.689439237e-11,2.614010234e-11,1.790195804e-12,6.890142388e-12,4.032032960e-11
1.0391,3.647205595e-11,3.270014384e-11,7.251833059e-12,3.153048983e-12,1.073361172e-11,8.029129410e-12,6.264540269e-12,5.790849213e-12,4.726028802e-12,4.749126679e-11,3.595068177e-12,2.628759110e-12,7.538767739e-12,2.453270345e-11,1.901000244e-12,2.422047359e-12,2.731758599e-12,1.905505930e-12,1.182994914e-11,3.507264770e-11,7.178934097e-13,5.326959948e-11,2.384201409e-12,3.126450145e-11,3.419722718e-12,2.359753520e-12,1.206496189e-12,1.618399192e-11,2.501926032e-11,1.723101758e-12,6.568661295e-12,3.865215390e-11
1.0469,3.481401007e-11,3.120569063e-11,6.979683032e-12,3.050283624e-12,1.020836392e-11,7.719452594e-12,6.026720698e-12,5.587603193e-12,4.606622674e-12,4.546262795e-11,3.514833751e-12,2.575588963e-12,7.276483710e-12,2.348453661e-11,1.908346564e-12,2.385028774e-12,2.688577390e-12,1.856955079e-12,1.134635104e-11,3.404735871e-11,6.811487689e-13,5.093997239e-11,2.284136803e-12,2.998528603e-11,3.300151877e-12,2.319653498e-12,1.183405868e-12,1.550626970e-11,2.394016885e-11,1.659347370e-12,6.259461914e-12,3.704527430e-11
1.0547,3.322067470e-11,2.977108447e-11,6.718004682e-12,2.952267006e-12,9.706100531e-12,7.420559013e-12,5.797089211e-12,5.392181277e-12,4.491805520e-12,4.351080124e-11,3.437573470e-12,2.525010413e-12,7.021830368e-12,2.247966831e-11,1.916166270e-12,2.349234039e-12,2.645470162e-12,1.811661349e-12,1.088231454e-11,3.306281350e-11,6.469470045e-13,4.869778633e-11,2.188072835e-12,2.875316357e-11,3.184115978e-12,2.280923366e-12,1.161213355e-12,1.485906969e-11,2.290095053e-11,1.598834271e-12,5.963148285e-12,3.549937374e-11
1.0625,3.169422740e-11,2.840051927e-11,6.467314228e-12,2.860097735e-12,9.225851924e-12,7.136112297e-12,5.574986482e-12,5.206410672e-12,4.380147308e-12,4.164427862e-11,3.361516203e-12,2.475910737e-12,6.776138828e-12,2.151922329e-11,1.924802379e-12,2.314488507e-12,2.602945229e-12,1.770126697e-12,1.043710100e-11,3.210909688e-11,6.137079444e-13,4.655407880e-11,2.098064800e-12,2.756775701e-11,3.071258124e-12,2.243385198e-12,1.140088944e-12,1.423461252e-11,2.190986599e-11,1.541504224e-12,5.680659281e-12,3.401500184e-11
1.0703,3.022830681e-11,2.708581505e-11,6.228557970e-12,2.772267117e-12,8.766281061e-12,6.861391804e-12,5.360404126e-12,5.026380599e-12,4.272002980e-12,3.984948976e-11,3.288523001e-12,2.428621774e-12,6.539671071e-12,2.059840272e-11,1.934158568e-12,2.280760878e-12,2.561083095e-12,1.731437476e-12,1.000983280e-11,3.119145378e-11,5.824305788e-13,4.449386423e-11,2.011406080e-12,2.642985584e-11,2.962265022e-12,2.207006015e-12,1.119697954e-12,1.363567247e-11,2.095914675e-11,1.487542771e-12,5.410787407e-12,3.258633310e-11
1.0781,2.882097851e-11,2.582357177e-11,5.998591403e-12,2.688193932e-12,8.326928588e-12,6.595160694e-12,5.153408813e-12,4.850881142e-12,4.166307246e-12,3.812276679e-11,3.218568214e-12,2.381986898e-12,6.311898314e-12,1.971424758e-11,1.943975886e-12,2.247721456e-12,2.518835979e-12,1.695370296e-12,9.599832705e-12,3.031051192e-11,5.539746190e-13,4.251429851e-11,1.927920369e-12,2.533562454e-11,2.856859630e-12,2.171899194e-12,1.099840316e-12,1.306240203e-11,2.004398348e-11,1.436914729e-12,5.153232297e-12,3.121337086e-11
1.0859,2.747393714e-11,2.461472526e-11,5.775437722e-12,2.608588315e-12,7.907155886e-12,6.342496379e-12,4.952993006e-12,4.683987567e-12,4.063962970e-12,3.646892114e-11,3.149448145e-12,2.337632353e-12,6.091059482e-12,1.886219698e-11,1.953998511e-12,2.215179868e-12,2.477574711e-12,1.662269791e-12,9.207071185e-12,2.946060747e-11,5.268388488e-13,4.061856835e-11,1.849326034e-12,2.428145385e-11,2.754334036e-12,2.137738852e-12,1.080664514e-12,1.251332056e-11,1.916786461e-11,1.389078247e-12,4.906365488e-12,2.989518528e-11
1.0938,2.618240182e-11,2.345563667e-11,5.561389781e-12,2.532771173e-12,7.506372661e-12,6.100689290e-12,4.758668219e-12,4.524666712e-12,3.964798830e-12,3.488276126e-11,3.081384497e-12,2.294937936e-12,5.876785498e-12,1.804256713e-11,1.964450539e-12,2.183946964e-12,2.437158275e-12,1.631885416e-12,8.829382567e-12,2.864110664e-11,5.017873700e-13,3.879966266e-11,1.774581058e-12,2.326778269e-11,2.654897187e-12,2.104439692e-12,1.062143677e-12,1.198364371e-11,1.832657749e-11,1.343804721e-12,4.668871939e-12,2.862927058e-11
1.1016,2.494433934e-11,2.234473613e-11,5.356654274e-12,2.459734592e-12,7.124120669e-12,5.867042614e-12,4.571253613e-12,4.370405610e-12,3.867369069e-12,3.336169847e-11,3.014979956e-12,2.252098567e-12,5.670960960e-12,1.725730356e-11,1.974948571e-12,2.153766232e-12,2.396468997e-12,1.603792878e-12,8.465093412e-12,2.784867952e-11,4.799001227e-13,3.705630290e-11,1.703165406e-12,2.229370927e-11,2.558762301e-12,2.072032229e-12,1.044195436e-12,1.147065605e-11,1.751661396e-11,1.301342568e-12,4.441319952e-12,2.741541812e-11
1.1094,2.376019544e-11,2.127994993e-11,5.159293341e-12,2.388945287e-12,6.759383018e-12,5.644335076e-12,4.390857001e-12,4.221866365e-12,3.773449738e-12,3.190393848e-11,2.950352903e-12,2.212144697e-12,5.474211353e-12,1.650070595e-11,1.984511829e-12,2.123448202e-12,2.357245029e-12,1.577583037e-12,8.115284718e-12,2.708203451e-11,4.598276503e-13,3.538473265e-11,1.635210417e-12,2.135693385e-11,2.465775623e-12,2.040279184e-12,1.026971693e-12,1.098202866e-11,1.673951006e-11,1.261745022e-12,4.222871249e-12,2.624902622e-11
1.1172,2.262664514e-11,2.025844388e-11,4.969148599e-12,2.320521926e-12,6.411433771e-12,5.431379692e-12,4.216744049e-12,4.078711862e-12,3.683551841e-12,3.050619025e-11,2.887704535e-12,2.175079755e-12,5.286143582e-12,1.577162695e-11,1.993672493e-12,2.093450609e-12,2.319623291e-12,1.553389895e-12,7.779790955e-12,2.634244291e-11,4.414512268e-13,3.377991657e-11,1.570485415e-12,2.045682881e-11,2.375909674e-12,2.009462482e-12,1.010461829e-12,1.051663867e-11,1.599425371e-11,1.224840212e-12,4.013146542e-12,2.512693836e-11
1.125,2.154318698e-11,1.928145463e-11,4.786290915e-12,2.255576212e-12,6.079902847e-12,5.227045531e-12,4.048791853e-12,3.940999525e-12,3.596215554e-12,2.916935583e-11,2.826164013e-12,2.138139949e-12,5.106090820e-12,1.507322706e-11,2.003566404e-12,2.064460104e-12,2.282445737e-12,1.531635666e-12,7.458418978e-12,2.562658734e-11,4.252336521e-13,3.224429572e-11,1.509297460e-12,1.959161208e-11,2.289155279e-12,1.979969748e-12,9.944410790e-13,1.006772642e-11,1.528009766e-11,1.190317218e-12,3.813185207e-12,2.405014862e-11
1.1328,2.050875516e-11,1.834695944e-11,4.610537713e-12,2.194519551e-12,5.763837297e-12,5.032797817e-12,3.886755571e-12,3.809013842e-12,3.511999880e-12,2.788851132e-11,2.765617500e-12,2.102753938e-12,4.932708480e-12,1.440094814e-11,2.013930680e-12,2.035880958e-12,2.246854688e-12,1.511778583e-12,7.152478699e-12,2.493456399e-11,4.103662752e-13,3.077234545e-11,1.450832272e-12,1.875915930e-11,2.205380152e-12,1.951425770e-12,9.789596527e-13,9.640357096e-12,1.459709629e-11,1.157817100e-12,3.622176399e-12,2.301520132e-11
1.1406,1.951797247e-11,1.745154289e-11,4.442038795e-12,2.136979795e-12,5.462450339e-12,4.847811759e-12,3.730320196e-12,3.682081022e-12,3.430791876e-12,2.665890994e-11,2.707003240e-12,2.068687054e-12,4.766546803e-12,1.375249492e-11,2.024343275e-12,2.007414938e-12,2.212662144e-12,1.493253815e-12,6.860951565e-12,2.426587776e-11,3.967697642e-13,2.935906174e-11,1.394546781e-12,1.795960169e-11,2.124301047e-12,1.923613804e-12,9.643187314e-13,9.232574001e-12,1.394446006e-11,1.127465593e-12,3.439128360e-12,2.202004678e-11
1.1484,1.852632703e-11,1.648778877e-11,4.255646932e-12,2.072711073e-12,5.175835032e-12,4.638258961e-12,3.580900841e-12,3.573575853e-12,3.398074479e-12,2.529785984e-11,2.663686757e-12,2.093601840e-12,4.581523825e-12,1.302312568e-11,2.033295988e-12,1.975818714e-12,2.197298384e-12,1.469430432e-12,6.513878035e-12,2.366059599e-11,3.911572347e-13,2.775350799e-11,1.336071190e-12,1.719264098e-11,2.039065898e-12,1.897640015e-12,9.500637108e-13,9.007824311e-12,1.321211766e-11,1.099281132e-12,3.251744733e-12,2.100378615e-11
1.1562,1.763492844e-11,1.566010393e-11,4.104066264e-12,2.019125890e-12,4.905031148e-12,4.468246915e-12,3.435709791e-12,3.462996963e-12,3.337860151e-12,2.417343008e-11,2.611105819e-12,2.081918566e-12,4.407857503e-12,1.242284238e-11,2.043575792e-12,1.950426152e-12,2.166279548e-12,1.454451878e-12,6.239249270e-12,2.307444948e-11,3.839077180e-13,2.642640146e-11,1.284276693e-12,1.644002453e-11,1.964057791e-12,1.873206720e-12,9.366214480e-13,8.697134274e-12,1.259316565e-11,1.079403431e-12,3.084021899e-12,2.008785685e-11
1.1641,1.681455879e-11,1.491287172e-11,3.971838462e-12,1.971479008e-12,4.649345365e-12,4.325124001e-12,3.292589027e-12,3.340738833e-12,3.240876748e-12,2.321238309e-11,2.548470200e-12,2.031107177e-12,4.256169570e-12,1.189759154e-11,2.055337737e-12,1.928251767e-12,2.122229299e-12,1.443158048e-12,6.009338763e-12,2.246926808e-11,3.739054627e-13,2.530255106e-11,1.241358547e-12,1.571436135e-11,1.894774691e-12,1.847405601e-12,9.238039733e-13,8.272258168e-12,1.204245836e-11,1.062283706e-12,2.926744988e-12,1.925381796e-11
1.1719,1.601602191e-11,1.418225217e-11,3.837307673e-12,1.924641594e-12,4.407072636e-12,4.181570348e-12,3.154786755e-12,3.231358114e-12,3.163101461e-12,2.224027131e-11,2.491255442e-12,1.996841092e-12,4.108424658e-12,1.136814635e-11,2.066169514e-12,1.904986246e-12,2.086157886e-12,1.431671459e-12,5.777103028e-12,2.189607811e-11,3.663209813e-13,2.416954633e-11,1.198422074e-12,1.502223929e-11,1.826149030e-12,1.822977153e-12,9.111117818e-13,7.909749621e-12,1.149826783e-11,1.045397834e-12,2.775506028e-12,1.843460697e-11
1.1797,1.525070795e-11,1.347271967e-11,3.705009250e-12,1.879071562e-12,4.177044741e-12,4.039794731e-12,3.021586438e-12,3.131639322e-12,3.100456383e-12,2.128068203e-11,2.438471914e-12,1.974562933e-12,3.962584717e-12,1.084747749e-11,2.076197001e-12,1.881860884e-12,2.055037530e-12,1.420590449e-12,5.548938672e-12,2.136365039e-11,3.603731407e-13,2.304446442e-11,1.155003562e-12,1.435395990e-11,1.759293558e-12,1.800505324e-12,8.988780521e-13,7.592903292e-12,1.096254548e-11,1.030464904e-12,2.629975817e-12,1.763624582e-11
1.1875,1.453259385e-11,1.280578104e-11,3.580125884e-12,1.836257095e-12,3.958083858e-12,3.907078661e-12,2.890692046e-12,3.026405405e-12,3.023743977e-12,2.039424258e-11,2.383709548e-12,1.939983986e-12,3.828161395e-12,1.035474040e-11,2.087101011e-12,1.860392178e-12,2.019502749e-12,1.409399943e-12,5.337432957e-12,2.082950859e-11,3.548970180e-13,2.202503976e-11,1.118484333e-12,1.370701978e-11,1.695063901e-12,1.777243848e-12,8.873721072e-13,7.252836792e-12,1.046731964e-11,1.017036262e-12,2.493024625e-12,1.689392775e-11
1.1953,1.383980556e-11,1.216499177e-11,3.457403478e-12,1.795357472e-12,3.749128655e-12,3.777702968e-12,2.764310002e-12,2.926144748e-12,2.951333780e-12,1.953060154e-11,2.331795107e-12,1.907854996e-12,3.700351576e-12,9.873090626e-12,2.098020575e-12,1.839032916e-12,1.986171406e-12,1.398255460e-12,5.132627290e-12,2.031132739e-11,3.500243653e-13,2.103821706e-11,1.083091997e-12,1.308866516e-11,1.632634450e-12,1.755105165e-12,8.764457950e-13,6.932362835e-12,9.992777719e-12,1.003473592e-12,2.362177302e-12,1.617827462e-11
1.2031,1.316805628e-11,1.154467229e-11,3.337246481e-12,1.755759642e-12,3.549544474e-12,3.649819902e-12,2.643480225e-12,2.834985181e-12,2.890939165e-12,1.867849119e-11,2.284408934e-12,1.883582173e-12,3.576954796e-12,9.401365297e-12,2.108151697e-12,1.817597990e-12,1.956719232e-12,1.387484509e-12,4.933301252e-12,1.982390095e-11,3.451684536e-13,2.005663139e-11,1.045793273e-12,1.250011869e-11,1.571964440e-12,1.735513077e-12,8.661629177e-13,6.644069870e-12,9.530081978e-12,9.899780984e-13,2.235999886e-12,1.547750483e-11
1.2109,1.252764090e-11,1.095293180e-11,3.221790740e-12,1.717343889e-12,3.359227760e-12,3.525531265e-12,2.526972856e-12,2.742627328e-12,2.825065341e-12,1.786779497e-11,2.237816288e-12,1.855210232e-12,3.463768160e-12,8.945677768e-12,2.118224611e-12,1.797083605e-12,1.926006487e-12,1.376045162e-12,4.741892954e-12,1.933375025e-11,3.412771778e-13,1.913899361e-11,1.013470775e-12,1.193794910e-11,1.512859823e-12,1.715504253e-12,8.564713377e-13,6.355836969e-12,9.097040056e-12,9.767304291e-13,2.116273929e-12,1.481619136e-11
1.2188,1.191270805e-11,1.038613529e-11,3.109940072e-12,1.680455868e-12,3.178856703e-12,3.405559220e-12,2.415872642e-12,2.653822725e-12,2.760732460e-12,1.708242327e-11,2.193075832e-12,1.827232756e-12,3.358195048e-12,8.505266345e-12,2.127864345e-12,1.776827264e-12,1.896796530e-12,1.365255792e-12,4.557938263e-12,1.884672600e-11,3.383521186e-13,1.825949864e-11,9.832851306e-13,1.140004769e-11,1.455547772e-12,1.695147163e-12,8.471201015e-13,6.079110643e-12,8.685710745e-12,9.634744809e-13,2.002342082e-12,1.418107414e-11
1.2266,1.131958226e-11,9.843292360e-12,3.002906573e-12,1.645932100e-12,3.008896675e-12,3.290531193e-12,2.310781450e-12,2.573515337e-12,2.705765630e-12,1.631342616e-11,2.150865930e-12,1.803646622e-12,3.256165007e-12,8.083916073e-12,2.136755956e-12,1.756445688e-12,1.870698084e-12,1.356666938e-12,4.383886669e-12,1.838351785e-11,3.353340543e-13,1.739336959e-11,9.510045900e-13,1.088488231e-11,1.400421564e-12,1.676050288e-12,8.381955952e-13,5.822810467e-12,8.287353582e-12,9.506015686e-13,1.893926114e-12,1.355924089e-11
1.2344,1.075124020e-11,9.325392130e-12,2.900565759e-12,1.613422799e-12,2.848049904e-12,3.178673427e-12,2.210293011e-12,2.494857950e-12,2.650212193e-12,1.557279880e-11,2.109425740e-12,1.779459079e-12,3.159439418e-12,7.678438194e-12,2.145848848e-12,1.736776657e-12,1.844695160e-12,1.348484142e-12,4.216082663e-12,1.792614288e-11,3.335011765e-13,1.657256100e-11,9.217977733e-13,1.039267212e-11,1.346716864e-12,1.656807975e-12,8.297776784e-13,5.575066774e-12,7.909685706e-12,9.381507482e-13,1.791528669e-12,1.296828742e-11
1.2422,1.020469612e-11,8.828163431e-12,2.801018594e-12,1.582004119e-12,2.693609461e-12,3.068774612e-12,2.114283489e-12,2.418022783e-12,2.594967454e-12,1.485619844e-11,2.069746214e-12,1.755786233e-12,3.068578945e-12,7.283526600e-12,2.155100759e-12,1.718027196e-12,1.819588363e-12,1.339851471e-12,4.052241536e-12,1.747520626e-11,3.328411244e-13,1.579007173e-11,8.952417824e-13,9.924385059e-12,1.294581018e-12,1.637733242e-12,8.217366957e-13,5.338061102e-12,7.550832395e-12,9.255472104e-13,1.693511575e-12,1.240567794e-11
1.25,9.678369865e-12,8.351423246e-12,2.705690314e-12,1.551430682e-12,2.543960741e-12,2.961722165e-12,2.023085844e-12,2.346086032e-12,2.544546904e-12,1.416129092e-11,2.032357488e-12,1.733582921e-12,2.983641332e-12,6.903138536e-12,2.163746962e-12,1.699842725e-12,1.796117686e-12,1.331572224e-12,3.895803547e-12,1.704632812e-11,3.317259975e-13,1.502922534e-11,8.676776893e-13,9.479784099e-12,1.244722845e-12,1.620553274e-12,8.141178282e-13,5.111844959e-12,7.207786121e-12,9.125886058e-13,1.599053169e-12,1.186069935e-11
1.2578,9.171819424e-12,7.894707450e-12,2.615481125e-12,1.521509619e-12,2.400288255e-12,2.856601523e-12,1.936105448e-12,2.276639109e-12,2.495390196e-12,1.348958345e-11,1.996097202e-12,1.712057647e-12,2.904823769e-12,6.536154791e-12,2.171737662e-12,1.682075344e-12,1.772860921e-12,1.322869629e-12,3.742474679e-12,1.662549063e-11,3.311926784e-13,1.429946221e-11,8.425215818e-13,9.059583678e-12,1.196106856e-12,1.604083354e-12,8.068510819e-13,4.894819986e-12,6.881357222e-12,8.995183161e-13,1.508434321e-12,1.134049444e-11
1.2656,8.682390878e-12,7.456605209e-12,2.528886241e-12,1.492861943e-12,2.264690721e-12,2.754164220e-12,1.853027613e-12,2.209989306e-12,2.447636968e-12,1.283945663e-11,1.961001281e-12,1.692391141e-12,2.830632210e-12,6.181463063e-12,2.178937687e-12,1.664738088e-12,1.750062635e-12,1.313845544e-12,3.591379576e-12,1.620530071e-11,3.317367940e-13,1.359905436e-11,8.205289285e-13,8.663651476e-12,1.148257850e-12,1.587300327e-12,7.996873797e-13,4.690938052e-12,6.568732034e-12,8.865586103e-13,1.421980053e-12,1.084352490e-11
1.2734,8.212644837e-12,7.040561044e-12,2.445090324e-12,1.466630378e-12,2.137650708e-12,2.657051207e-12,1.773510499e-12,2.147230818e-12,2.401731543e-12,1.221620605e-11,1.926576811e-12,1.672512224e-12,2.761136223e-12,5.845564506e-12,2.185219820e-12,1.647978461e-12,1.727817436e-12,1.306301378e-12,3.450618010e-12,1.579523637e-11,3.320628208e-13,1.292856741e-11,7.987245929e-13,8.288175954e-12,1.102059112e-12,1.570730162e-12,7.926917416e-13,4.494167490e-12,6.272145596e-12,8.736906819e-13,1.341030983e-12,1.036246232e-11
1.2812,7.764958627e-12,6.644838427e-12,2.363624137e-12,1.442001445e-12,2.018614958e-12,2.563306357e-12,1.697132171e-12,2.087738257e-12,2.357675284e-12,1.161771604e-11,1.892183887e-12,1.653114728e-12,2.695736506e-12,5.525458762e-12,2.191073907e-12,1.631821007e-12,1.706395107e-12,1.300470587e-12,3.318588984e-12,1.539256462e-11,3.328706070e-13,1.228861672e-11,7.779966341e-13,7.929793652e-12,1.057392752e-12,1.553900443e-12,7.858867882e-13,4.305123305e-12,5.990612925e-12,8.611116135e-13,1.265351979e-12,9.898535543e-12
1.2891,7.336661865e-12,6.265434827e-12,2.285790941e-12,1.417791874e-12,1.906862198e-12,2.470547701e-12,1.624278177e-12,2.031920791e-12,2.317872683e-12,1.104007190e-11,1.858423828e-12,1.636796879e-12,2.632060158e-12,5.216539282e-12,2.196863712e-12,1.616406394e-12,1.686934834e-12,1.295991869e-12,3.191454303e-12,1.499536309e-11,3.348643782e-13,1.166978179e-11,7.585141794e-13,7.587935488e-12,1.014435279e-12,1.536564912e-12,7.789936379e-13,4.130614105e-12,5.718748205e-12,8.492926708e-13,1.193801493e-12,9.450774896e-12
1.2969,6.927633175e-12,5.905399917e-12,2.213664765e-12,1.394492619e-12,1.801273481e-12,2.381122699e-12,1.555397231e-12,1.978664816e-12,2.279329034e-12,1.049206650e-11,1.825286009e-12,1.619468401e-12,2.570757710e-12,4.925080314e-12,2.202416267e-12,1.602050844e-12,1.668619260e-12,1.293265330e-12,3.073120430e-12,1.460747310e-11,3.372477899e-13,1.107877973e-11,7.387185241e-13,7.262308180e-12,9.742600993e-13,1.519351895e-12,7.720552050e-13,3.961288595e-12,5.461420193e-12,8.379419731e-13,1.126760479e-12,9.019173907e-12
1.3047,6.538491119e-12,5.564170470e-12,2.145774376e-12,1.372135380e-12,1.701531832e-12,2.296652107e-12,1.490434485e-12,1.927935137e-12,2.240631043e-12,9.971139955e-12,1.793291365e-12,1.601029738e-12,2.511908852e-12,4.650809475e-12,2.207362370e-12,1.588448417e-12,1.650655448e-12,1.291762550e-12,2.961378057e-12,1.422834211e-11,3.401044655e-13,1.051600886e-11,7.193646495e-13,6.952561082e-12,9.364110256e-13,1.502326602e-12,7.653678352e-13,3.795787874e-12,5.218736548e-12,8.266483377e-13,1.063193421e-12,8.606197186e-12
1.3125,6.168089599e-12,5.238939501e-12,2.081063678e-12,1.350678649e-12,1.608387815e-12,2.216576123e-12,1.429221069e-12,1.881256287e-12,2.205088754e-12,9.468971048e-12,1.763476626e-12,1.585691367e-12,2.453514717e-12,4.389348071e-12,2.211842781e-12,1.575386340e-12,1.633531985e-12,1.290710093e-12,2.852622946e-12,1.385952313e-11,3.436454229e-13,9.970164969e-12,7.010170669e-13,6.658235246e-12,8.999566345e-13,1.485442677e-12,7.589940396e-13,3.643140047e-12,4.983584674e-12,8.162264658e-13,1.002251981e-12,8.210673730e-12
1.3203,5.817281528e-12,4.932783874e-12,2.021287370e-12,1.331030090e-12,1.521616812e-12,2.141199650e-12,1.371458069e-12,1.835924153e-12,2.169435871e-12,8.994349198e-12,1.734667376e-12,1.570174333e-12,2.397443743e-12,4.144101405e-12,2.216338796e-12,1.563324918e-12,1.616532616e-12,1.290043293e-12,2.750734531e-12,1.349950456e-11,3.477194292e-13,9.453553149e-12,6.835828854e-13,6.377873380e-12,8.651889991e-13,1.468522143e-12,7.528810101e-13,3.494683685e-12,4.760707148e-12,8.071121794e-13,9.454321527e-13,7.834167323e-12
1.3281,5.484742875e-12,4.644203578e-12,1.965602296e-12,1.312436925e-12,1.440130724e-12,2.069940939e-12,1.316702090e-12,1.790725442e-12,2.132681346e-12,8.549250212e-12,1.706061375e-12,1.553811272e-12,2.345283127e-12,3.913261873e-12,2.220017570e-12,1.551737953e-12,1.599335273e-12,1.289342748e-12,2.655545942e-12,1.314594863e-11,3.525603086e-13,8.968859464e-12,6.673161901e-13,6.110293202e-12,8.320911675e-13,1.451244197e-12,7.468483370e-13,3.347582261e-12,4.551071455e-12,7.985143237e-13,8.920421540e-13,7.475772972e-12
1.3359,5.167788056e-12,4.368632118e-12,1.912083691e-12,1.293627593e-12,1.363824554e-12,2.001502966e-12,1.264238777e-12,1.748814743e-12,2.100188848e-12,8.124832009e-12,1.678328931e-12,1.541005011e-12,2.294608059e-12,3.691920206e-12,2.221737562e-12,1.539734975e-12,1.582690088e-12,1.288580388e-12,2.564007143e-12,1.280555813e-11,3.578197784e-13,8.499188830e-12,6.517083228e-13,5.855219634e-12,8.002529006e-13,1.434109093e-12,7.406852561e-13,3.212744900e-12,4.346506153e-12,7.904990120e-13,8.406875396e-13,7.129753074e-12
1.3438,4.868522658e-12,4.108073668e-12,1.861555810e-12,1.275619024e-12,1.293315220e-12,1.936362861e-12,1.213314804e-12,1.709601773e-12,2.069356896e-12,7.724768491e-12,1.650435659e-12,1.528871323e-12,2.245039589e-12,3.482894749e-12,2.222523752e-12,1.528117387e-12,1.566382881e-12,1.288539056e-12,2.477778743e-12,1.247782927e-11,3.632591007e-13,8.053853808e-12,6.371940959e-13,5.612268953e-12,7.698480348e-13,1.417341614e-12,7.345165931e-13,3.084155984e-12,4.150693925e-12,7.837761283e-13,7.926538202e-13,6.799291965e-12
1.3516,4.587639962e-12,3.863358013e-12,1.814728638e-12,1.259213061e-12,1.228772546e-12,1.874931034e-12,1.163998532e-12,1.671665633e-12,2.037060832e-12,7.351928727e-12,1.621851148e-12,1.514987631e-12,2.197238873e-12,3.286312073e-12,2.223304825e-12,1.517503075e-12,1.550367959e-12,1.289290040e-12,2.397520405e-12,1.215664037e-11,3.690999814e-13,7.640406972e-12,6.242011601e-13,5.380676807e-12,7.408929511e-13,1.400526635e-12,7.283932220e-13,2.956306952e-12,3.966974336e-12,7.779730627e-13,7.483084692e-13,6.487277899e-12
1.3594,4.322175998e-12,3.632116683e-12,1.771257726e-12,1.243752872e-12,1.169729949e-12,1.816583332e-12,1.116624748e-12,1.636641895e-12,2.007141904e-12,7.000304807e-12,1.593986140e-12,1.502644298e-12,2.149669113e-12,3.099187075e-12,2.223067199e-12,1.507064657e-12,1.534985660e-12,1.290531848e-12,2.322424121e-12,1.184742035e-11,3.748922561e-13,7.243280377e-12,6.114297290e-13,5.159230416e-12,7.131426448e-13,1.384089693e-12,7.221507955e-13,2.838152666e-12,3.788788025e-12,7.726011640e-13,7.069719601e-13,6.187745405e-12
1.3672,4.072195009e-12,3.414359941e-12,1.730640535e-12,1.229030625e-12,1.115629835e-12,1.761429230e-12,1.070899339e-12,1.603283543e-12,1.977869619e-12,6.669964961e-12,1.566659147e-12,1.490888514e-12,2.102401223e-12,2.922879826e-12,2.222128916e-12,1.497036465e-12,1.520007721e-12,1.292323076e-12,2.252503449e-12,1.155165741e-11,3.809455228e-13,6.865485903e-12,5.993855792e-13,4.946877429e-12,6.866179742e-13,1.368392529e-12,7.161064145e-13,2.726437693e-12,3.617635282e-12,7.678742961e-13,6.687160901e-13,5.901672085e-12
1.375,3.837894570e-12,3.209501644e-12,1.692119760e-12,1.215156100e-12,1.066416578e-12,1.709657175e-12,1.026660225e-12,1.569995479e-12,1.946393419e-12,6.361689295e-12,1.539279866e-12,1.477972211e-12,2.056292071e-12,2.756792976e-12,2.221939351e-12,1.488497702e-12,1.505944087e-12,1.294309505e-12,2.186848816e-12,1.126389411e-11,3.879956787e-13,6.515457917e-12,5.891687288e-13,4.743482494e-12,6.613267522e-13,1.352932644e-12,7.105688263e-13,2.615053366e-12,3.457469514e-12,7.638720325e-13,6.332618910e-13,5.632378641e-12
1.3828,3.617472165e-12,3.016750928e-12,1.656076255e-12,1.202444053e-12,1.022001298e-12,1.660966815e-12,9.839788829e-13,1.538901646e-12,1.916653812e-12,6.072045362e-12,1.512660633e-12,1.465868812e-12,2.010435330e-12,2.599111543e-12,2.221484562e-12,1.481072140e-12,1.493321274e-12,1.296068033e-12,2.125855624e-12,1.098799681e-11,3.950637005e-13,6.183655657e-12,5.792754490e-13,4.548526026e-12,6.371986898e-13,1.337635091e-12,7.050796668e-13,2.510566745e-12,3.304243102e-12,7.605380001e-13,6.009764318e-13,5.375087252e-12
1.3906,3.411271601e-12,2.835911654e-12,1.622883865e-12,1.191141451e-12,9.817275215e-13,1.615076325e-12,9.425612666e-13,1.509928597e-12,1.888974071e-12,5.800207414e-12,1.486600838e-12,1.454534588e-12,1.964932074e-12,2.450309835e-12,2.219418511e-12,1.474117935e-12,1.481448490e-12,1.297793656e-12,2.069155558e-12,1.072495768e-11,4.016579213e-13,5.868559923e-12,5.696900998e-13,4.360749424e-12,6.141007740e-13,1.322670020e-12,6.994274146e-13,2.413101578e-12,3.156353939e-12,7.578534494e-13,5.717755169e-13,5.129824221e-12
1.3984,3.218846187e-12,2.665033456e-12,1.591890792e-12,1.180478912e-12,9.451803450e-13,1.571305781e-12,9.024776830e-13,1.481040944e-12,1.860567725e-12,5.545136414e-12,1.460535378e-12,1.443291789e-12,1.920891450e-12,2.309164715e-12,2.216866708e-12,1.467922184e-12,1.469983023e-12,1.299860787e-12,2.014544479e-12,1.046927636e-11,4.087042895e-13,5.574384076e-12,5.619343427e-13,4.180090574e-12,5.919853196e-13,1.308109118e-12,6.940858796e-13,2.318083387e-12,3.015503456e-12,7.556899225e-13,5.443372855e-13,4.899950050e-12
1.4062,3.037958326e-12,2.504248851e-12,1.563415652e-12,1.170147871e-12,9.122874886e-13,1.529614167e-12,8.641275688e-13,1.453010251e-12,1.832657627e-12,5.305400488e-12,1.434825009e-12,1.432697607e-12,1.878540412e-12,2.175856874e-12,2.214582024e-12,1.462260961e-12,1.458996861e-12,1.302260751e-12,1.963640990e-12,1.022360349e-11,4.160193591e-13,5.297957448e-12,5.549407028e-13,4.007381562e-12,5.712213697e-13,1.294447739e-12,6.890318046e-13,2.227517470e-12,2.881973989e-12,7.540827688e-13,5.194408130e-13,4.682141284e-12
1.4141,2.868719592e-12,2.354131346e-12,1.537088477e-12,1.160319612e-12,8.826883998e-13,1.490495129e-12,8.272281788e-13,1.426493588e-12,1.805818838e-12,5.080128424e-12,1.409216046e-12,1.422306935e-12,1.837670546e-12,2.051027752e-12,2.211666443e-12,1.456388103e-12,1.448093295e-12,1.304193963e-12,1.917209521e-12,9.989407714e-12,4.231953853e-13,5.038717014e-12,5.480316323e-13,3.842236248e-12,5.517655218e-13,1.281584506e-12,6.837719322e-13,2.141303440e-12,2.755350136e-12,7.529083354e-13,4.975321413e-13,4.475161450e-12
1.4219,2.710704592e-12,2.211844579e-12,1.511522520e-12,1.150249925e-12,8.560127888e-13,1.452863370e-12,7.914725688e-13,1.400393882e-12,1.779036783e-12,4.865769179e-12,1.383613929e-12,1.412108422e-12,1.797739047e-12,1.931424379e-12,2.207871789e-12,1.450265990e-12,1.437254494e-12,1.305121570e-12,1.871863163e-12,9.762681920e-12,4.306872309e-13,4.795028035e-12,5.424178912e-13,3.683347224e-12,5.328705855e-13,1.268692363e-12,6.782978065e-13,2.058585424e-12,2.633600103e-12,7.517328026e-13,4.767880512e-13,4.280718833e-12
1.4297,2.561378300e-12,2.077306329e-12,1.487595544e-12,1.140219429e-12,8.318294811e-13,1.415882962e-12,7.571037230e-13,1.374473823e-12,1.752161564e-12,4.662163776e-12,1.358693883e-12,1.401646956e-12,1.758693969e-12,1.817254526e-12,2.203704567e-12,1.444266698e-12,1.426883514e-12,1.305960309e-12,1.828601851e-12,9.545596357e-12,4.381961171e-13,4.564664694e-12,5.377610075e-13,3.530151907e-12,5.144129969e-13,1.255770628e-12,6.728541247e-13,1.980363535e-12,2.517424104e-12,7.504914669e-13,4.578624783e-13,4.096511704e-12
1.4375,2.405379120e-12,1.840073640e-12,1.442161181e-12,1.080676894e-12,8.121452688e-13,1.339953786e-12,7.218608691e-13,1.322201303e-12,1.710616014e-12,4.421498829e-12,1.344705459e-12,1.397245060e-12,1.710242366e-12,1.666786757e-12,2.204132096e-12,1.441677964e-12,1.392129848e-12,1.292530134e-12,1.713633797e-12,9.258450318e-12,4.634510010e-13,4.259918611e-12,5.500672505e-13,3.384014529e-12,4.889670633e-13,1.231905311e-12,6.651724449e-13,1.909178791e-12,2.289062335e-12,7.489870818e-13,4.007004889e-13,3.964012048e-12
1.4453,2.277227178e-12,1.707745249e-12,1.424121281e-12,1.062708850e-12,8.009117621e-13,1.302952695e-12,6.918191237e-13,1.296948601e-12,1.685109350e-12,4.239173561e-12,1.322287835e-12,1.393490133e-12,1.661589399e-12,1.562888371e-12,2.200243633e-12,1.434091438e-12,1.379759214e-12,1.295734003e-12,1.665706892e-12,9.013442664e-12,4.779076435e-13,4.044049807e-12,5.491942913e-13,3.232162083e-12,4.733263961e-13,1.214717490e-12,6.566816663e-13,1.863190627e-12,2.152444598e-12,7.508289510e-13,3.809475059e-13,3.800199578e-12
1.4531,2.171802880e-12,1.639568018e-12,1.423708185e-12,1.075616816e-12,7.894918381e-13,1.290593790e-12,6.638563291e-13,1.275508702e-12,1.655003250e-12,4.100183123e-12,1.290392701e-12,1.375596018e-12,1.621009504e-12,1.493600649e-12,2.193680902e-12,1.425641458e-12,1.379199709e-12,1.306069056e-12,1.660169107e-12,8.817316231e-12,4.811418185e-13,3.896029167e-12,5.418598879e-13,3.083339507e-12,4.634131509e-13,1.203451899e-12,6.493580454e-13,1.775574898e-12,2.080738268e-12,7.537387369e-13,3.786155094e-13,3.628041172e-12
1.4609,2.067864991e-12,1.554811490e-12,1.416556306e-12,1.076761446e-12,7.768043211e-13,1.268874143e-12,6.360239221e-13,1.253253604e-12,1.627681332e-12,3.956398342e-12,1.262823910e-12,1.363892610e-12,1.580693593e-12,1.418683986e-12,2.187807776e-12,1.419295613e-12,1.374513468e-12,1.311966730e-12,1.639902666e-12,8.631067891e-12,4.878320291e-13,3.740546732e-12,5.381809603e-13,2.944537078e-12,4.513103381e-13,1.191867495e-12,6.421785363e-13,1.708936305e-12,1.994669620e-12,7.563454925e-13,3.718633816e-13,3.475443634e-12
1.4688,1.967378930e-12,1.459397588e-12,1.406058402e-12,1.070728773e-12,7.639672412e-13,1.241827486e-12,6.090969267e-13,1.233084142e-12,1.606337653e-12,3.810505249e-12,1.239358962e-12,1.360316456e-12,1.537845945e-12,1.339898294e-12,2.181840121e-12,1.413924377e-12,1.368879406e-12,1.315505304e-12,1.610635345e-12,8.456844194e-12,4.968988300e-13,3.572737744e-12,5.357362956e-13,2.809702279e-12,4.384996420e-13,1.180764252e-12,6.348986798e-13,1.666332148e-12,1.894202912e-12,7.589967749e-13,3.632939287e-13,3.333521087e-12
1.4766,1.881345821e-12,1.389502165e-12,1.401429702e-12,1.073823218e-12,7.507231606e-13,1.221031350e-12,5.832124490e-13,1.206263068e-12,1.576342556e-12,3.687740479e-12,1.213558386e-12,1.346869527e-12,1.499460454e-12,1.276216837e-12,2.174713947e-12,1.408691309e-12,1.364009078e-12,1.318710406e-12,1.592734090e-12,8.295367333e-12,5.029568375e-13,3.446725272e-12,5.348405855e-13,2.678019587e-12,4.277929508e-13,1.170963331e-12,6.282929631e-13,1.597594506e-12,1.821885653e-12,7.612046958e-13,3.568132816e-13,3.206331897e-12
1.4844,1.799982107e-12,1.320362324e-12,1.394846978e-12,1.074411325e-12,7.372610647e-13,1.198821307e-12,5.577792603e-13,1.179375733e-12,1.545411242e-12,3.568558462e-12,1.189490719e-12,1.333166287e-12,1.462536129e-12,1.213876688e-12,2.166968523e-12,1.403757919e-12,1.357926351e-12,1.320007747e-12,1.572737891e-12,8.138814529e-12,5.092627120e-13,3.326855832e-12,5.347662105e-13,2.555084749e-12,4.170134921e-13,1.161375305e-12,6.218264018e-13,1.532947717e-12,1.752051862e-12,7.625880759e-13,3.504035708e-13,3.089251888e-12
1.4922,1.719091617e-12,1.242493413e-12,1.384347105e-12,1.068997306e-12,7.239006546e-13,1.173033858e-12,5.328658920e-13,1.158543858e-12,1.521647383e-12,3.444536641e-12,1.168204564e-12,1.327241019e-12,1.422795814e-12,1.146896654e-12,2.158899886e-12,1.399153434e-12,1.351945923e-12,1.319741306e-12,1.546772644e-12,7.992975381e-12,5.164177777e-13,3.189280149e-12,5.337074917e-13,2.438286208e-12,4.055776590e-13,1.152182514e-12,6.153452882e-13,1.493760655e-12,1.670289444e-12,7.636362996e-13,3.447016678e-13,2.974151383e-12
1.5,1.647178987e-12,1.178561296e-12,1.375580708e-12,1.066593974e-12,7.108736421e-13,1.148793727e-12,5.085696964e-13,1.132587004e-12,1.492004335e-12,3.335118836e-12,1.144484838e-12,1.314722389e-12,1.385892059e-12,1.088773138e-12,2.150376487e-12,1.395007335e-12,1.344918323e-12,1.318010318e-12,1.524481843e-12,7.853739077e-12,5.219945450e-13,3.078285352e-12,5.353543987e-13,2.324553256e-12,3.946168360e-13,1.142802806e-12,6.096523122e-13,1.439340394e-12,1.604397460e-12,7.640166411e-13,3.385365511e-13,2.873035348e-12
1.5078,1.580794752e-12,1.119734005e-12,1.365665234e-12,1.063848273e-12,6.984973772e-13,1.124749730e-12,4.849882024e-13,1.105451708e-12,1.461085824e-12,3.232378250e-12,1.120276781e-12,1.299772650e-12,1.352848803e-12,1.034746453e-12,2.140973991e-12,1.391161634e-12,1.337393390e-12,1.315066587e-12,1.502234338e-12,7.718597091e-12,5.274077220e-13,2.980030755e-12,5.388698873e-13,2.218246252e-12,3.835018143e-13,1.133634073e-12,6.044449059e-13,1.380928058e-12,1.546053979e-12,7.633211630e-13,3.320626734e-13,2.782115007e-12
1.5156,1.515139458e-12,1.055377390e-12,1.353245574e-12,1.057213086e-12,6.867236137e-13,1.099295581e-12,4.623074660e-13,1.086049689e-12,1.439816482e-12,3.124963440e-12,1.098809806e-12,1.292993004e-12,1.320172992e-12,9.779896671e-13,2.130655004e-12,1.387499717e-12,1.331621285e-12,1.312050697e-12,1.477454084e-12,7.597498250e-12,5.335545260e-13,2.865361488e-12,5.405912094e-13,2.120647312e-12,3.722685045e-13,1.126217380e-12,5.991294938e-13,1.345812180e-12,1.479778460e-12,7.622169437e-13,3.280084366e-13,2.689828301e-12
1.5234,1.454588677e-12,9.984361643e-13,1.342041345e-12,1.050803999e-12,6.761393329e-13,1.073727052e-12,4.404081876e-13,1.064558845e-12,1.416381339e-12,3.025485905e-12,1.077376741e-12,1.283798473e-12,1.290471197e-12,9.265033389e-13,2.120290149e-12,1.384329935e-12,1.324843897e-12,1.308396274e-12,1.454217869e-12,7.483069491e-12,5.395539174e-13,2.765028199e-12,5.437141005e-13,2.029009784e-12,3.616572769e-13,1.118988238e-12,5.941233096e-13,1.305529969e-12,1.421810844e-12,7.607616797e-13,3.241198142e-13,2.607766284e-12
1.5312,1.396693101e-12,9.464501902e-13,1.330038224e-12,1.044271634e-12,6.677179433e-13,1.048514944e-12,4.195566508e-13,1.040621152e-12,1.388680439e-12,2.932830996e-12,1.055694999e-12,1.270526644e-12,1.264415262e-12,8.787432778e-13,2.110207741e-12,1.381533654e-12,1.317387400e-12,1.304137499e-12,1.431207834e-12,7.367341698e-12,5.456413685e-13,2.677757367e-12,5.482645611e-13,1.943635622e-12,3.511432814e-13,1.110593496e-12,5.896801096e-13,1.256831960e-12,1.371744913e-12,7.581719215e-13,3.193808351e-13,2.534296250e-12
1.5391,1.337733579e-12,8.915921572e-13,1.315542656e-12,1.036215181e-12,6.611475551e-13,1.023870522e-12,4.000992936e-13,1.023035204e-12,1.367117110e-12,2.837563926e-12,1.035811428e-12,1.261990434e-12,1.238662615e-12,8.291583674e-13,2.100191252e-12,1.379025060e-12,1.312957544e-12,1.300438875e-12,1.407802158e-12,7.259675799e-12,5.517950607e-13,2.576814035e-12,5.504505893e-13,1.864774341e-12,3.404865883e-13,1.102658252e-12,5.855647285e-13,1.223836792e-12,1.317870396e-12,7.544667580e-13,3.170937122e-13,2.455400180e-12
1.5469,1.282559651e-12,8.412369194e-13,1.301083120e-12,1.028030135e-12,6.560754003e-13,9.989185398e-13,3.814588424e-13,1.004902489e-12,1.345084913e-12,2.746894290e-12,1.016654269e-12,1.252243443e-12,1.214349889e-12,7.826192353e-13,2.090422701e-12,1.377085470e-12,1.308644905e-12,1.296275150e-12,1.385274260e-12,7.155103501e-12,5.581426182e-13,2.482032307e-12,5.533883257e-13,1.791328923e-12,3.299995438e-13,1.095161237e-12,5.816594484e-13,1.191934733e-12,1.267997679e-12,7.500801525e-13,3.154497433e-13,2.381967666e-12
1.5547,1.231337812e-12,7.954477335e-13,1.285977682e-12,1.019285729e-12,6.532306523e-13,9.731838613e-13,3.634218467e-13,9.835380385e-13,1.318646978e-12,2.662592715e-12,9.977904427e-13,1.238585085e-12,1.192582145e-12,7.391909336e-13,2.080561261e-12,1.375270309e-12,1.302666440e-12,1.291395034e-12,1.362239570e-12,7.044639990e-12,5.651169657e-13,2.400084380e-12,5.584993884e-13,1.724142673e-12,3.195659998e-13,1.087252611e-12,5.778519335e-13,1.153123005e-12,1.223932093e-12,7.449864515e-13,3.127352126e-13,2.318298381e-12
1.5625,1.179814390e-12,7.492410709e-13,1.269636122e-12,1.010143510e-12,6.526948586e-13,9.482842758e-13,3.466098100e-13,9.670235781e-13,1.296053867e-12,2.578003361e-12,9.802353140e-13,1.228123596e-12,1.171319451e-12,6.954761364e-13,2.070320910e-12,1.373364395e-12,1.298741153e-12,1.287690092e-12,1.339959037e-12,6.937695953e-12,5.718895446e-13,2.310167149e-12,5.617486310e-13,1.663416132e-12,3.094166755e-13,1.079844620e-12,5.742066476e-13,1.123689610e-12,1.179181465e-12,7.391611140e-13,3.126865698e-13,2.249902044e-12
1.5703,1.129443199e-12,7.055451506e-13,1.253867585e-12,1.000874316e-12,6.538021550e-13,9.237258704e-13,3.308967382e-13,9.519578700e-13,1.274499522e-12,2.495640885e-12,9.633363759e-13,1.218137096e-12,1.151149552e-12,6.541534909e-13,2.060159802e-12,1.371995701e-12,1.295813282e-12,1.284518925e-12,1.319061221e-12,6.833640569e-12,5.783455814e-13,2.221362643e-12,5.645709057e-13,1.607472691e-12,2.997154704e-13,1.072300391e-12,5.708315604e-13,1.097857654e-12,1.136783951e-12,7.324976875e-13,3.144555864e-13,2.181641286e-12
1.5781,1.081116130e-12,6.645135724e-13,1.237729666e-12,9.897687678e-13,6.564109522e-13,8.982906575e-13,3.161092016e-13,9.341021386e-13,1.250329846e-12,2.417261892e-12,9.465808329e-13,1.205435673e-12,1.133075136e-12,6.147790604e-13,2.049169691e-12,1.370552202e-12,1.291587661e-12,1.280518078e-12,1.296873439e-12,6.724178784e-12,5.848062705e-13,2.141799053e-12,5.692884135e-13,1.555802502e-12,2.901079500e-13,1.063384714e-12,5.673873386e-13,1.068630809e-12,1.097279156e-12,7.246335258e-13,3.150863658e-13,2.120992226e-12
1.5859,1.032949672e-12,6.248822677e-13,1.220399291e-12,9.774121955e-13,6.605699848e-13,8.738591092e-13,3.030037115e-13,9.189515694e-13,1.229321511e-12,2.340159247e-12,9.302674635e-13,1.194205280e-12,1.115932453e-12,5.757360018e-13,2.036339275e-12,1.368142684e-12,1.288805460e-12,1.277081022e-12,1.274972212e-12,6.616665369e-12,5.903578050e-13,2.059334739e-12,5.730135992e-13,1.508558620e-12,2.807941489e-13,1.054354203e-12,5.637694906e-13,1.044304326e-12,1.058280927e-12,7.157886748e-13,3.172059066e-13,2.058131701e-12
1.5938,9.858007363e-13,5.880819369e-13,1.203120251e-12,9.648662367e-13,6.665980461e-13,8.507629429e-13,2.916082783e-13,9.064251062e-13,1.210119610e-12,2.265547678e-12,9.142587837e-13,1.183371588e-12,1.099691352e-12,5.399763144e-13,2.023589683e-12,1.365964560e-12,1.287875369e-12,1.274761474e-12,1.255282210e-12,6.512413693e-12,5.957023473e-13,1.977415071e-12,5.756792284e-13,1.465310906e-12,2.720122409e-13,1.045842000e-12,5.604224408e-13,1.022260918e-12,1.021718660e-12,7.068258000e-13,3.215086905e-13,1.993936332e-12
1.6016,9.406237632e-13,5.531127702e-13,1.186068277e-12,9.518759025e-13,6.751540567e-13,8.276315583e-13,2.811555318e-13,8.933489236e-13,1.188971342e-12,2.193690648e-12,8.987669166e-13,1.170701967e-12,1.084527603e-12,5.076989723e-13,2.012537276e-12,1.364842232e-12,1.287025496e-12,1.272910942e-12,1.236333826e-12,6.403233319e-12,6.020815212e-13,1.901655448e-12,5.793550826e-13,1.425796087e-12,2.635640236e-13,1.037006153e-12,5.574061883e-13,9.989226468e-13,9.869255744e-13,6.981857894e-13,3.260896942e-13,1.934804477e-12
1.6094,8.974611728e-13,5.209746882e-13,1.170076416e-12,9.405939860e-13,6.858616741e-13,8.060963908e-13,2.716038170e-13,8.818541478e-13,1.169255726e-12,2.123625953e-12,8.839443727e-13,1.158832769e-12,1.070210801e-12,4.778486861e-13,2.001770172e-12,1.363591166e-12,1.287588647e-12,1.272579707e-12,1.219688313e-12,6.292931967e-12,6.081544256e-13,1.827060784e-12,5.828057470e-13,1.389809991e-12,2.557750009e-13,1.028185625e-12,5.543972350e-13,9.777811308e-13,9.541282533e-13,6.896312787e-13,3.323779396e-13,1.874869749e-12
1.6172,8.568558512e-13,4.924450366e-13,1.155672397e-12,9.311470962e-13,6.976596975e-13,7.867553275e-13,2.630273496e-13,8.720355891e-13,1.151394102e-12,2.055852671e-12,8.697838666e-13,1.148232632e-12,1.057619520e-12,4.513164151e-13,1.990169720e-12,1.361635047e-12,1.289713187e-12,1.274059262e-12,1.205818052e-12,6.184758963e-12,6.136112458e-13,1.755091351e-12,5.855580532e-13,1.357079037e-12,2.488294252e-13,1.019539029e-12,5.513554393e-13,9.579552666e-13,9.245904788e-13,6.808857105e-13,3.404566058e-13,1.813642816e-12
1.625,8.175056561e-13,4.640807236e-13,1.140738449e-12,9.203864962e-13,7.103820141e-13,7.674794387e-13,2.551930120e-13,8.620457719e-13,1.133135817e-12,1.988950747e-12,8.567363213e-13,1.137753007e-12,1.046370201e-12,4.267071212e-13,1.978012296e-12,1.359294151e-12,1.291752792e-12,1.276031586e-12,1.191397390e-12,6.074845915e-12,6.197029884e-13,1.685878020e-12,5.886656703e-13,1.326944479e-12,2.422860041e-13,1.010287875e-12,5.484087649e-13,9.409316701e-13,8.947057965e-13,6.718191270e-13,3.486340038e-13,1.755568989e-12
1.6328,7.785317155e-13,4.373206722e-13,1.125008943e-12,9.093230481e-13,7.241740030e-13,7.487030403e-13,2.483367511e-13,8.524402332e-13,1.114913256e-12,1.923539511e-12,8.439994253e-13,1.126692395e-12,1.035046573e-12,4.037336894e-13,1.965387388e-12,1.356500573e-12,1.294545424e-12,1.278598371e-12,1.177161403e-12,5.965581728e-12,6.254902893e-13,1.617485214e-12,5.917590730e-13,1.298138074e-12,2.362427897e-13,1.000688145e-12,5.456128341e-13,9.262121023e-13,8.652482463e-13,6.622693214e-13,3.576880446e-13,1.697441485e-12
1.6406,7.412313761e-13,4.140835989e-13,1.110137339e-12,8.991951387e-13,7.386666264e-13,7.313833327e-13,2.426648587e-13,8.439016879e-13,1.096364539e-12,1.861429376e-12,8.303932719e-13,1.113840845e-12,1.023622664e-12,3.838430240e-13,1.952739757e-12,1.353614283e-12,1.299032468e-12,1.282368339e-12,1.164509383e-12,5.858697872e-12,6.303189088e-13,1.552653407e-12,5.945275313e-13,1.270222272e-12,2.309500055e-13,9.913337492e-13,5.428064285e-13,9.091360128e-13,8.392628002e-13,6.522309835e-13,3.675910265e-13,1.638796691e-12
1.6484,7.051326672e-13,3.903741087e-13,1.095570355e-12,8.874647862e-13,7.534035236e-13,7.141653213e-13,2.379427238e-13,8.369590734e-13,1.077631095e-12,1.799585096e-12,8.166636228e-13,1.100426324e-12,1.011620675e-12,3.655428273e-13,1.940196505e-12,1.350881108e-12,1.304355638e-12,1.286837058e-12,1.151099882e-12,5.751928300e-12,6.353521348e-13,1.487837640e-12,5.969816967e-13,1.243241891e-12,2.260821599e-13,9.820407263e-13,5.395483210e-13,8.953125606e-13,8.126561786e-13,6.418474507e-13,3.776304854e-13,1.582218681e-12
1.6562,6.693102291e-13,3.675950473e-13,1.080652515e-12,8.751979957e-13,7.679064595e-13,6.974065320e-13,2.340437950e-13,8.305824344e-13,1.059044725e-12,1.737837466e-12,8.031526605e-13,1.087094643e-12,9.984036458e-13,3.488992116e-13,1.926831500e-12,1.347476362e-12,1.309950325e-12,1.291800791e-12,1.137607798e-12,5.646157780e-12,6.403407561e-13,1.422138669e-12,5.990695763e-13,1.216480506e-12,2.215561739e-13,9.727706476e-13,5.356484277e-13,8.859774801e-13,7.854870526e-13,6.309795829e-13,3.886151748e-13,1.526169252e-12
1.6641,6.348629434e-13,3.490001278e-13,1.065874223e-12,8.647821346e-13,7.820364992e-13,6.823065914e-13,2.308622667e-13,8.227439022e-13,1.039216057e-12,1.679700148e-12,7.894898758e-13,1.072183349e-12,9.849231461e-13,3.356529609e-13,1.912923114e-12,1.343092363e-12,1.315630710e-12,1.297430635e-12,1.125981399e-12,5.540630193e-12,6.448402659e-13,1.361933709e-12,6.013289339e-13,1.190270424e-12,2.175269586e-13,9.637347490e-13,5.314352918e-13,8.725834890e-13,7.621855880e-13,6.195201559e-13,4.000539316e-13,1.470903972e-12
1.6719,6.020812750e-13,3.305823211e-13,1.051241917e-12,8.544225738e-13,7.963494498e-13,6.680261614e-13,2.282401374e-13,8.153303510e-13,1.019784633e-12,1.622892210e-12,7.769907007e-13,1.057448727e-12,9.716314139e-13,3.243283772e-13,1.899422828e-12,1.338077111e-12,1.321358154e-12,1.303505166e-12,1.114796188e-12,5.435489041e-12,6.498783721e-13,1.302960775e-12,6.034644130e-13,1.165896738e-12,2.139586681e-13,9.548504426e-13,5.272205113e-13,8.604400211e-13,7.396343890e-13,6.080433380e-13,4.114380594e-13,1.416933394e-12
1.6797,5.710215355e-13,3.124023901e-13,1.037098721e-12,8.440383075e-13,8.109169002e-13,6.544951608e-13,2.261308518e-13,8.095421130e-13,1.002199745e-12,1.566473259e-12,7.659213748e-13,1.044297234e-12,9.586847271e-13,3.148194589e-13,1.885465095e-12,1.332226970e-12,1.327323991e-12,1.309771690e-12,1.103914419e-12,5.334696169e-12,6.553889273e-13,1.242736005e-12,6.053853373e-13,1.142975634e-12,2.109447296e-13,9.457333787e-13,5.230075033e-13,8.542305080e-13,7.165062272e-13,5.972270003e-13,4.231793778e-13,1.363201247e-12
1.6875,5.424362903e-13,2.983658198e-13,1.023433645e-12,8.350256944e-13,8.248774318e-13,6.424638321e-13,2.244864975e-13,8.029095727e-13,9.838376334e-13,1.514559196e-12,7.543602019e-13,1.030292704e-12,9.468266790e-13,3.087163470e-13,1.870544921e-12,1.326020698e-12,1.333871046e-12,1.316300687e-12,1.094034298e-12,5.236543750e-12,6.603744063e-13,1.189286787e-12,6.084804814e-13,1.120613215e-12,2.084322307e-13,9.362661788e-13,5.186834129e-13,8.444681192e-13,6.969128577e-13,5.869848114e-13,4.341913064e-13,1.311828569e-12
1.6953,5.152161182e-13,2.853556892e-13,1.009439996e-12,8.255272019e-13,8.377743761e-13,6.314161954e-13,2.234886149e-13,7.967425330e-13,9.652826118e-13,1.465620895e-12,7.422332980e-13,1.016383516e-12,9.352879371e-13,3.045883379e-13,1.856308102e-12,1.320964334e-12,1.342215599e-12,1.323867577e-12,1.083788981e-12,5.139058282e-12,6.649140753e-13,1.138627379e-12,6.123454712e-13,1.098899474e-12,2.061645102e-13,9.273331584e-13,5.142544655e-13,8.336853718e-13,6.788625888e-13,5.768182291e-13,4.447037865e-13,1.262640743e-12
1.7031,4.887373820e-13,2.715446327e-13,9.955644992e-13,8.151781718e-13,8.499121324e-13,6.211041931e-13,2.232809847e-13,7.926675519e-13,9.481924763e-13,1.417440304e-12,7.305883159e-13,1.004455754e-12,9.236123456e-13,3.018977088e-13,1.843676345e-12,1.317492567e-12,1.352477668e-12,1.332924186e-12,1.073270175e-12,5.045846298e-12,6.694322552e-13,1.085072373e-12,6.156455456e-13,1.077604624e-12,2.042131146e-13,9.197284421e-13,5.099686236e-13,8.288017979e-13,6.599262820e-13,5.665341797e-13,4.560040349e-13,1.213807827e-12
1.7109,4.646251334e-13,2.603822698e-13,9.821070185e-13,8.058330609e-13,8.614565281e-13,6.113995184e-13,2.234475509e-13,7.871002254e-13,9.298916304e-13,1.373769607e-12,7.190069753e-13,9.920212194e-13,9.132778005e-13,3.018086656e-13,1.831617811e-12,1.314764554e-12,1.362584572e-12,1.342053481e-12,1.063296381e-12,4.955568525e-12,6.740716333e-13,1.036728978e-12,6.193287179e-13,1.056544068e-12,2.026278721e-13,9.127790737e-13,5.059627802e-13,8.223552563e-13,6.433611559e-13,5.563006801e-13,4.668715930e-13,1.168348290e-12
1.7188,4.425954894e-13,2.510052954e-13,9.678684678e-13,7.965438326e-13,8.721472120e-13,6.015703496e-13,2.238372752e-13,7.800904356e-13,9.109884427e-13,1.334410635e-12,7.076056779e-13,9.791162538e-13,9.040188493e-13,3.031537393e-13,1.818841318e-12,1.312022669e-12,1.372118111e-12,1.349514128e-12,1.052718230e-12,4.865449166e-12,6.788757859e-13,9.929751695e-13,6.236599784e-13,1.036136704e-12,2.012304703e-13,9.054580012e-13,5.019442085e-13,8.141324065e-13,6.288263376e-13,5.462344059e-13,4.769250109e-13,1.125494537e-12
1.7266,4.214233848e-13,2.412881176e-13,9.526191854e-13,7.859142862e-13,8.816248981e-13,5.917897811e-13,2.247817285e-13,7.749614269e-13,8.941680383e-13,1.296561326e-12,6.969069420e-13,9.677998521e-13,8.943925337e-13,3.050973372e-13,1.804668870e-12,1.308838443e-12,1.381963081e-12,1.354752596e-12,1.041079703e-12,4.777692133e-12,6.834574405e-13,9.471147758e-13,6.278168219e-13,1.016316310e-12,1.999900882e-13,8.972313927e-13,4.976696724e-13,8.105972877e-13,6.134870058e-13,5.361073545e-13,4.866648775e-13,1.081270166e-12
1.7344,4.021557622e-13,2.330945610e-13,9.371394688e-13,7.746770061e-13,8.898909444e-13,5.821636648e-13,2.260954209e-13,7.697800110e-13,8.767738649e-13,1.262778841e-12,6.860109928e-13,9.557732452e-13,8.846766819e-13,3.082256240e-13,1.789472739e-12,1.305058594e-12,1.391008352e-12,1.357801911e-12,1.028751627e-12,4.691244354e-12,6.874993749e-13,9.048962220e-13,6.328889827e-13,9.968994008e-13,1.988000544e-13,8.878469400e-13,4.932317678e-13,8.066514705e-13,5.986533235e-13,5.256785089e-13,4.946091888e-13,1.039152793e-12
1.7422,3.849179009e-13,2.268224209e-13,9.215893129e-13,7.636224516e-13,8.975831149e-13,5.724549814e-13,2.274404272e-13,7.633509812e-13,8.578930131e-13,1.234184416e-12,6.745060729e-13,9.420395161e-13,8.746903186e-13,3.121339060e-13,1.774281828e-12,1.300769758e-12,1.399007000e-12,1.359848367e-12,1.015614931e-12,4.605582760e-12,6.912744841e-13,8.677350561e-13,6.389213869e-13,9.778120079e-13,1.974642139e-13,8.781750436e-13,4.886266025e-13,8.003504266e-13,5.849751714e-13,5.150902821e-13,5.015159082e-13,1.000987915e-12
1.75,3.687785831e-13,2.212652758e-13,9.059103307e-13,7.531327268e-13,9.055570579e-13,5.636559757e-13,2.288509142e-13,7.580100753e-13,8.401827149e-13,1.208655789e-12,6.631572873e-13,9.289003949e-13,8.640071113e-13,3.170300869e-13,1.759411636e-12,1.296115914e-12,1.407248459e-12,1.362749453e-12,1.002623354e-12,4.524972774e-12,6.952538499e-13,8.300363768e-13,6.441930828e-13,9.587669526e-13,1.959712438e-13,8.695209266e-13,4.837942217e-13,7.960552000e-13,5.711210238e-13,5.046382340e-13,5.095148741e-13,9.633495028e-13
1.7578,3.549369351e-13,2.172249108e-13,8.900971514e-13,7.430933842e-13,9.142268560e-13,5.559235456e-13,2.302339607e-13,7.525612971e-13,8.224689459e-13,1.186590578e-12,6.521710178e-13,9.158283826e-13,8.539849444e-13,3.236957293e-13,1.744842324e-12,1.291499243e-12,1.415177908e-12,1.366914974e-12,9.908417160e-13,4.448321885e-12,6.998567946e-13,7.958121806e-13,6.493961232e-13,9.404865541e-13,1.943339217e-13,8.617306234e-13,4.789842030e-13,7.911267462e-13,5.580747167e-13,4.945719060e-13,5.175630554e-13,9.284284177e-13
1.7656,3.438558446e-13,2.152872392e-13,8.744293501e-13,7.330362570e-13,9.235892338e-13,5.481492854e-13,2.317104034e-13,7.456790215e-13,8.036530983e-13,1.168248094e-12,6.415569775e-13,9.020050596e-13,8.448068318e-13,3.316569846e-13,1.730949179e-12,1.287371640e-12,1.422797808e-12,1.372043479e-12,9.798927104e-13,4.372505990e-12,7.050907959e-13,7.672544661e-13,6.557430037e-13,9.237781121e-13,1.928225780e-13,8.541472194e-13,4.744226133e-13,7.848126452e-13,5.466215989e-13,4.850516898e-13,5.253412986e-13,8.976594673e-13
1.7734,3.340056465e-13,2.147384666e-13,8.592197489e-13,7.230062374e-13,9.336306799e-13,5.405654222e-13,2.336342175e-13,7.392279568e-13,7.853186848e-13,1.152860534e-12,6.314358682e-13,8.887285729e-13,8.350989372e-13,3.406477527e-13,1.717589859e-12,1.283790203e-12,1.431708862e-12,1.378086030e-12,9.693551621e-13,4.299300994e-12,7.103514159e-13,7.390882892e-13,6.624582729e-13,9.075006176e-13,1.918810347e-13,8.468815376e-13,4.700853999e-13,7.798866850e-13,5.357183896e-13,4.758571593e-13,5.340028085e-13,8.668646385e-13
1.7812,3.255592119e-13,2.150986307e-13,8.438034880e-13,7.125881242e-13,9.442174040e-13,5.333248877e-13,2.357315043e-13,7.329104926e-13,7.667565302e-13,1.140681414e-12,6.214919378e-13,8.757169469e-13,8.252707413e-13,3.507286003e-13,1.704295056e-12,1.280841014e-12,1.441253783e-12,1.384242327e-12,9.588563787e-13,4.228018371e-12,7.153635111e-13,7.120119267e-13,6.696204011e-13,8.907474019e-13,1.912614396e-13,8.398948526e-13,4.660424919e-13,7.745141839e-13,5.251818371e-13,4.666812169e-13,5.424474565e-13,8.370237298e-13
1.7891,3.193292235e-13,2.164565781e-13,8.279917237e-13,7.016375217e-13,9.549176841e-13,5.259174071e-13,2.377093928e-13,7.259395117e-13,7.477011465e-13,1.131117704e-12,6.115572557e-13,8.627086363e-13,8.161819197e-13,3.614512371e-13,1.691249774e-12,1.278815258e-12,1.450378987e-12,1.389763253e-12,9.479469704e-13,4.156808772e-12,7.204368666e-13,6.877873633e-13,6.778073462e-13,8.742884684e-13,1.904669851e-13,8.329357663e-13,4.623362371e-13,7.691774339e-13,5.149020965e-13,4.577417229e-13,5.500255432e-13,8.106437098e-13
