Time,Fp1,AF3,F7,F3,FC1,FC5,T7,C3,CP1,CP5,P7,P3,Pz,PO3,O1,Oz,O2,PO4,P4,P8,CP6,CP2,C4,T8,FC6,FC2,F4,F8,AF4,Fp2,Fz,Cz,
0,2.594399728e-08,1.054083007e-08,6.619265588e-09,2.278089246e-09,2.058299810e-10,1.412063721e-09,7.115448104e-09,1.683400667e-11,1.038347815e-10,6.680763993e-11,1.321905539e-09,6.995040287e-11,8.156613482e-10,3.714116527e-11,1.514250286e-10,7.893423496e-11,2.208871824e-10,2.996232897e-10,2.670715902e-11,4.295564034e-11,7.323653263e-11,6.522090228e-10,7.708375380e-09,2.217451768e-09,5.150587055e-09,7.920642229e-11,1.419100372e-09,1.615403190e-08,1.107075493e-10,3.478921233e-08,1.001194588e-08,2.303931161e-09
0.0078125,2.660998528e-08,1.081517262e-08,6.783752087e-09,2.335109338e-09,2.124220285e-10,1.446975047e-09,7.294136914e-09,1.721618021e-11,1.070916996e-10,6.830674455e-11,1.354410785e-09,7.170295312e-11,8.376412979e-10,3.782532112e-11,1.561202198e-10,8.066636908e-11,2.279247228e-10,3.087484669e-10,2.741485144e-11,4.386597330e-11,7.473576396e-11,6.690828400e-10,7.920660100e-09,2.270240532e-09,5.280397572e-09,8.193750602e-11,1.453598032e-09,1.656238265e-08,1.128642530e-10,3.567149376e-08,1.033446530e-08,2.370682125e-09
0.015625,2.516654607e-08,1.023144160e-08,6.409906149e-09,2.207001779e-09,2.024170282e-10,1.367382066e-09,6.894533260e-09,1.656158063e-11,1.020335102e-10,6.443311012e-11,1.279668019e-09,6.782256830e-11,7.931945347e-10,3.568145720e-11,1.485008396e-10,7.613420081e-11,2.170890407e-10,2.935972449e-10,2.608802013e-11,4.196585983e-11,7.063024361e-11,6.328827887e-10,7.504510174e-09,2.143831156e-09,4.991860045e-09,7.846404375e-11,1.373123266e-09,1.565841983e-08,1.061197946e-10,3.372760491e-08,9.857730097e-09,2.249854796e-09
0.023438,2.200539585e-08,8.952148254e-09,5.597024729e-09,1.928088997e-09,1.789222734e-10,1.193863332e-09,6.022645658e-09,1.451211132e-11,9.022323977e-11,5.605899594e-11,1.116862236e-09,5.915513722e-11,6.952944390e-10,3.088737742e-11,1.309117527e-10,6.611071458e-11,1.918398119e-10,2.589672764e-10,2.278400809e-11,3.659993017e-11,6.125591970e-11,5.536409509e-10,6.581454722e-09,1.868656635e-09,4.360768516e-09,6.972729381e-11,1.198056752e-09,1.368129832e-08,9.207709343e-11,2.947347811e-08,8.726958746e-09,1.978389072e-09
0.03125,1.785730319e-08,7.266152723e-09,4.535600161e-09,1.563436231e-09,1.456995347e-10,9.679188910e-10,4.883265496e-09,1.159583618e-11,7.341340282e-11,4.533025123e-11,9.050870959e-10,4.794566996e-11,5.649263065e-10,2.488685720e-11,1.069049828e-10,5.332383182e-11,1.568240286e-10,2.112408307e-10,1.848926021e-11,2.926241636e-11,4.937103966e-11,4.493714322e-10,5.348330852e-09,1.513485067e-09,3.536855297e-09,5.674475889e-11,9.709966727e-10,1.109763087e-08,7.428643946e-11,2.391059565e-08,7.102891801e-09,1.609043610e-09
0.039062,1.350222711e-08,5.491092462e-09,3.424744499e-09,1.181511835e-09,1.096693261e-10,7.319428032e-10,3.690617995e-09,8.765467653e-12,5.519327612e-11,3.428213588e-11,6.841584202e-10,3.632162622e-11,4.268866817e-10,1.893641319e-11,8.112889148e-11,4.029305714e-11,1.190105930e-10,1.598853535e-10,1.413779401e-11,2.211330670e-11,3.749518731e-11,3.397343992e-10,4.039975822e-09,1.145269345e-09,2.674913150e-09,4.253787006e-11,7.346439124e-10,8.392912837e-09,5.608093617e-11,1.808436140e-08,5.336684175e-09,1.213842647e-09
0.046875,9.571149957e-09,3.890549037e-09,2.423102576e-09,8.370559776e-10,7.748107278e-11,5.187424739e-10,2.614057033e-09,6.250297854e-12,3.899691975e-11,2.429745728e-11,4.845467427e-10,2.574277688e-11,3.026440115e-10,1.354611584e-11,5.785936781e-11,2.845749540e-11,8.499506571e-11,1.137855639e-10,1.011313895e-11,1.569201274e-11,2.668342477e-11,2.408579489e-10,2.861279231e-09,8.122708550e-10,1.896183851e-09,2.996406420e-11,5.211203730e-10,5.949989826e-09,3.978877474e-11,1.282200483e-08,3.767217819e-09,8.589901925e-10
0.054688,6.406349952e-09,2.602864274e-09,1.617800123e-09,5.599765692e-10,5.156570713e-11,3.468959389e-10,1.747217425e-09,4.118972473e-12,2.598578870e-11,1.622496196e-11,3.235953246e-10,1.714121340e-11,2.027423733e-10,9.180003942e-12,3.908585943e-11,1.881823275e-11,5.751617129e-11,7.661922804e-11,6.752386700e-12,1.024532188e-11,1.781026646e-11,1.612956530e-10,1.912722803e-09,5.437369309e-10,1.268812006e-09,1.981978068e-11,3.491561425e-10,3.982311385e-09,2.679889917e-11,8.583712574e-09,2.504723633e-09,5.736288532e-10
0.0625,4.096101929e-09,1.661729008e-09,1.031758215e-09,3.580896035e-10,3.231440649e-11,2.217604073e-10,1.115764314e-09,2.606891285e-12,1.631537254e-11,1.039161858e-11,2.064860185e-10,1.088480197e-11,1.294193809e-10,6.092950423e-12,2.515602809e-11,1.187863115e-11,3.700336179e-11,4.899765032e-11,4.307830754e-12,6.323043406e-12,1.146316047e-11,1.031688983e-10,1.216448245e-09,3.489919659e-10,8.116674243e-10,1.225424626e-11,2.242245800e-10,2.548087305e-09,1.749157402e-11,5.493864430e-09,1.565613167e-09,3.632486745e-10
0.070312,2.546087352e-09,1.030722908e-09,6.397147418e-10,2.227959346e-10,1.948640568e-11,1.377572406e-10,6.923737467e-10,1.644721017e-12,9.900299790e-12,6.474879187e-12,1.279294416e-10,6.686935226e-12,8.019345978e-11,4.025828225e-12,1.574370659e-11,7.270112055e-12,2.312670768e-11,3.038911133e-11,2.662849427e-12,3.798089798e-12,7.221782463e-12,6.415705628e-11,7.495507154e-10,2.183301876e-10,5.048660855e-10,7.272385747e-12,1.404367244e-10,1.585576344e-09,1.130512571e-11,3.420407828e-09,9.434066851e-10,2.224781378e-10
0.078125,1.577455686e-09,6.372815285e-10,3.954941301e-10,1.383079082e-10,1.161158871e-11,8.512679672e-11,4.277655605e-10,1.025283582e-12,5.973400601e-12,4.000953910e-12,7.875465375e-11,4.050159025e-12,4.947029604e-11,2.682918242e-12,9.830244175e-12,4.409442045e-12,1.439140737e-11,1.874484177e-11,1.610899157e-12,2.234683916e-12,4.499514415e-12,3.976358916e-11,4.591957878e-10,1.361280604e-10,3.128449213e-10,4.252551618e-12,8.788904542e-11,9.831801500e-10,7.438514638e-12,2.122872390e-09,5.636744523e-10,1.353645884e-10
0.085938,1.008065187e-09,4.060115914e-10,2.528109486e-10,8.873173230e-11,6.970364238e-12,5.429086578e-11,2.727602635e-10,6.781626008e-13,3.640522187e-12,2.557645551e-12,5.007812590e-11,2.538385050e-12,3.123939948e-11,1.873633683e-12,6.219086782e-12,2.819507727e-12,9.020448029e-12,1.168075933e-11,1.012410837e-12,1.408556419e-12,2.928832741e-12,2.536098461e-11,2.882356094e-10,8.796616366e-11,2.002198442e-10,2.493997889e-12,5.705439547e-11,6.295213061e-10,5.167107490e-12,1.360518936e-09,3.397168413e-10,8.397587925e-11
0.09375,6.852510230e-10,2.753454803e-10,1.723899916e-10,6.064408657e-11,4.445337367e-12,3.685814651e-11,1.852011684e-10,5.006104202e-13,2.365074980e-12,1.744423144e-12,3.402461885e-11,1.712846879e-12,2.086697117e-11,1.366806904e-12,4.070755002e-12,1.989752677e-12,5.838855444e-12,7.584340913e-12,6.939107045e-13,1.021954618e-12,2.046603076e-12,1.714556712e-11,1.922694561e-10,6.046778743e-11,1.364484130e-10,1.579545538e-12,3.943666777e-11,4.289733061e-10,3.829715195e-12,9.273985218e-10,2.188977809e-10,5.536133237e-11
0.10156,4.982368653e-10,2.001282085e-10,1.259157619e-10,4.435391531e-11,3.078249830e-12,2.681277052e-11,1.347345356e-10,3.814947891e-13,1.662642948e-12,1.282377023e-12,2.490257912e-11,1.262563674e-12,1.489252625e-11,1.005231582e-12,2.781371488e-12,1.559960878e-12,3.955239297e-12,5.203548000e-12,5.259562928e-13,8.484614588e-13,1.516542215e-12,1.235773524e-11,1.379110123e-10,4.422093525e-11,9.949975697e-11,1.102755901e-12,2.900250014e-11,3.125658083e-10,2.973146118e-12,6.751947333e-10,1.535186753e-10,3.937053122e-11
0.10938,3.823419317e-10,1.538177025e-10,9.723622856e-11,3.422997294e-11,2.306721601e-12,2.069175559e-11,1.039496805e-10,2.843515034e-13,1.245888445e-12,1.021649294e-12,1.957392079e-11,1.018625214e-12,1.126947234e-11,7.088750005e-13,1.933517713e-12,1.355826024e-12,2.762360264e-12,3.732287482e-12,4.385954485e-13,8.069935264e-13,1.178128663e-12,9.391545422e-12,1.053302875e-10,3.402785007e-11,7.675093101e-11,8.396298431e-13,2.232395569e-11,2.406463388e-10,2.350380710e-12,5.181748028e-10,1.152008861e-10,2.994302567e-11
0.11719,3.265564250e-10,1.308288253e-10,8.381139138e-11,2.947100294e-11,1.820611618e-12,1.805165436e-11,8.997375542e-11,2.912992737e-13,9.697198699e-13,9.616235607e-13,1.745632962e-11,9.552055914e-13,9.382645099e-12,5.811191407e-13,1.421112068e-12,1.367882943e-12,2.031262055e-12,2.848601442e-12,4.500539585e-13,9.860580612e-13,1.136797223e-12,7.935458089e-12,8.819554084e-11,2.979624780e-11,6.634856756e-11,6.652853785e-13,1.926781883e-11,2.072302383e-10,2.049667925e-12,4.443765305e-10,8.934761143e-11,2.453580700e-11
0.125,2.790146980e-10,1.121301972e-10,7.171887745e-11,2.522766604e-11,1.675443859e-12,1.558062841e-11,7.749937555e-11,2.808739107e-13,8.860449830e-13,8.893747718e-13,1.538255838e-11,8.564744871e-13,8.135330810e-12,4.567916343e-13,1.132804568e-12,1.249815201e-12,1.673068843e-12,2.411748556e-12,4.123784054e-13,9.820777105e-13,1.005526015e-12,6.804576770e-12,7.634938462e-11,2.548370573e-11,5.689738489e-11,6.692678804e-13,1.627502869e-11,1.773569369e-10,1.704651455e-12,3.790893577e-10,8.213598225e-11,2.155776309e-11
0.13281,2.405644165e-10,9.698501670e-11,6.174614616e-11,2.171471620e-11,1.509897566e-12,1.352613885e-11,6.732836597e-11,2.213252980e-13,7.934021740e-13,8.408506107e-13,1.365513634e-11,7.683659489e-13,7.226523409e-12,3.406014229e-13,9.731571663e-13,1.109307633e-12,1.475730836e-12,2.135962300e-12,3.548696909e-13,8.785522246e-13,8.532337700e-13,5.963668169e-12,6.694343724e-11,2.192014169e-11,4.911988681e-11,6.052457952e-13,1.377574147e-11,1.528928594e-10,1.389815754e-12,3.262618081e-10,7.277802181e-11,1.911946939e-11
0.14062,2.117284201e-10,8.467555627e-11,5.451637231e-11,1.909213104e-11,1.244679362e-12,1.214103040e-11,6.001028963e-11,2.398696900e-13,6.507949212e-13,8.409225270e-13,1.249650886e-11,7.302580965e-13,6.426796806e-12,3.131937170e-13,8.665935657e-13,1.056662720e-12,1.296660660e-12,1.852990869e-12,3.448163349e-13,9.637470526e-13,8.487099612e-13,5.353503246e-12,5.802311928e-11,1.991574998e-11,4.358168472e-11,4.850083255e-13,1.213492453e-11,1.353109674e-10,1.184265897e-12,2.887879604e-10,5.708162914e-11,1.623660760e-11
0.14844,1.871579105e-10,7.467294168e-11,4.801821233e-11,1.670715534e-11,1.186864012e-12,1.070631568e-11,5.299588503e-11,2.554824911e-13,6.370302047e-13,7.888237545e-13,1.111014780e-11,6.567460300e-13,5.922900224e-12,2.893153756e-13,8.845446334e-13,9.208003568e-13,1.313018500e-12,1.813551896e-12,3.054503943e-13,9.525038151e-13,7.723636163e-13,4.883257140e-12,5.182089863e-11,1.766395739e-11,3.833590766e-11,4.923497937e-13,1.057779044e-11,1.191638929e-10,9.986049939e-13,2.553243793e-10,5.366118540e-11,1.470972206e-11
0.15625,1.664226898e-10,6.650340291e-11,4.240591296e-11,1.460364913e-11,1.143276442e-12,9.337897171e-12,4.661239739e-11,1.954758643e-13,6.251608176e-13,6.969817011e-13,9.662605269e-12,5.626404688e-13,5.544377937e-12,2.679882899e-13,9.283784053e-13,7.179008452e-13,1.350317877e-12,1.813302901e-12,2.223463455e-13,7.008938527e-13,6.035995772e-13,4.503487722e-12,4.720227021e-11,1.534705715e-11,3.357110695e-11,4.779154920e-13,9.147731135e-12,1.048708529e-10,8.194032170e-13,2.261259874e-10,5.113239039e-11,1.367663504e-11
0.16406,1.494921377e-10,5.905881906e-11,3.817738970e-11,1.290250287e-11,9.588239046e-13,8.316572681e-12,4.154279300e-11,1.783096842e-13,5.333217815e-13,6.284785237e-13,8.508703466e-12,5.052141102e-13,5.028555889e-12,3.041813744e-13,9.417239010e-13,5.861861063e-13,1.287141492e-12,1.680958408e-12,1.695410014e-13,5.393463063e-13,5.308111338e-13,4.148747331e-12,4.167805674e-11,1.392343600e-11,2.991192802e-11,3.750279341e-13,8.190575402e-12,9.394773629e-11,7.082217045e-13,2.039234530e-10,4.066028783e-11,1.181182080e-11
0.17188,1.349463106e-10,5.294265646e-11,3.452612098e-11,1.144518727e-11,8.968195952e-13,7.375526758e-12,3.691676726e-11,1.950897558e-13,5.228935027e-13,5.442887649e-13,7.368765918e-12,4.406544746e-13,4.609255340e-12,3.220156210e-13,9.859561582e-13,4.787437579e-13,1.292738594e-12,1.648138954e-12,1.385032123e-13,4.877349090e-13,4.748501171e-13,3.814589282e-12,3.752255089e-11,1.246602767e-11,2.662089076e-11,3.553895118e-13,7.324681911e-12,8.432081814e-11,6.231064840e-13,1.840948337e-10,3.743227234e-11,1.063610138e-11
0.17969,1.223145644e-10,4.812526331e-11,3.128909641e-11,1.019505750e-11,8.942558193e-13,6.467600791e-12,3.266676979e-11,1.478086997e-13,5.380704760e-13,4.255637000e-13,6.230916807e-12,3.520203350e-13,4.301142118e-12,3.137292313e-13,1.016966497e-12,3.488855786e-13,1.311713979e-12,1.654186460e-12,9.549986370e-14,3.566536007e-13,3.489862479e-13,3.508971097e-12,3.486951447e-11,1.075933867e-11,2.355998336e-11,3.607982348e-13,6.446869196e-12,7.558654836e-11,5.321739553e-13,1.656724715e-10,3.754892574e-11,1.009915438e-11
0.1875,1.114706032e-10,4.354766257e-11,2.880209657e-11,9.231196376e-12,7.543308046e-13,5.820646966e-12,2.936237922e-11,1.007381498e-13,4.659185069e-13,3.288929496e-13,5.389415816e-12,2.840572538e-13,3.857170995e-12,3.565352969e-13,9.612289141e-13,2.716131426e-13,1.171790285e-12,1.476275688e-12,7.108589213e-14,2.465105674e-13,2.814396425e-13,3.180842716e-12,3.127773247e-11,9.680511209e-12,2.129780325e-11,2.781686907e-13,5.876873347e-12,6.905105240e-11,4.854709890e-13,1.512211570e-10,3.075577901e-11,8.848755499e-12
0.19531,1.020307424e-10,3.968832860e-11,2.662290657e-11,8.473626115e-12,6.639019252e-13,5.293572008e-12,2.662241630e-11,9.915038292e-14,4.320255321e-13,2.578401677e-13,4.737032220e-12,2.322429774e-13,3.463510345e-12,3.906243970e-13,8.979303126e-13,2.317290721e-13,1.032464208e-12,1.311590580e-12,6.234519314e-14,2.078772100e-13,2.570774549e-13,2.871992458e-12,2.828419460e-11,8.827591618e-12,1.944931840e-11,2.303318133e-13,5.417836582e-12,6.359023249e-11,4.548602152e-13,1.387154474e-10,2.753295177e-11,7.870098664e-12
0.20312,9.353358366e-11,3.674529683e-11,2.449497362e-11,7.833480656e-12,6.604663604e-13,4.767910530e-12,2.413617055e-11,8.058154588e-14,4.464936345e-13,1.908359419e-13,4.157162785e-12,1.784525692e-13,3.205160202e-12,3.691504452e-13,8.545134184e-13,1.910690735e-13,9.602143395e-13,1.236666007e-12,5.636135450e-14,1.812828655e-13,2.009403926e-13,2.594949910e-12,2.667293678e-11,7.772825909e-12,1.765692303e-11,2.338153815e-13,4.890868114e-12,5.822369854e-11,4.075752192e-13,1.263669304e-10,2.874106246e-11,7.565262556e-12
0.21094,8.625511161e-11,3.391869377e-11,2.272908248e-11,7.349121566e-12,5.593959292e-13,4.390406283e-12,2.218990223e-11,5.149061715e-14,3.902478523e-13,1.448484142e-13,3.775648840e-12,1.431400501e-13,2.898502674e-12,3.798042004e-13,7.719024326e-13,1.779239276e-13,8.278732300e-13,1.075063887e-12,6.365976320e-14,2.000795027e-13,1.760563159e-13,2.328608252e-12,2.440522009e-11,7.127784162e-12,1.628624219e-11,1.843186198e-13,4.546121978e-12,5.389792705e-11,3.902505378e-13,1.165202525e-10,2.467180169e-11,6.778030123e-12
0.21875,8.000182906e-11,3.139155802e-11,2.125134371e-11,6.970121650e-12,4.580869097e-13,4.127418452e-12,2.071738155e-11,4.695380305e-14,3.297293193e-13,1.249606176e-13,3.545957773e-12,1.302596201e-13,2.598722432e-12,4.025867119e-13,6.856683403e-13,1.807284798e-13,6.890981448e-13,9.015596787e-13,7.332842809e-14,2.387577370e-13,1.821928692e-13,2.089036037e-12,2.220446470e-11,6.760554796e-12,1.520866940e-11,1.404647463e-13,4.304915922e-12,5.024176444e-11,3.840790896e-13,1.084493162e-10,2.150543343e-11,5.983201740e-12
0.22656,7.423097534e-11,2.945682165e-11,1.977320723e-11,6.590976857e-12,4.480011018e-13,3.854645125e-12,1.936574609e-11,4.345633966e-14,3.250048185e-13,1.172651353e-13,3.330978106e-12,1.269714756e-13,2.420289341e-12,3.588590202e-13,6.368809507e-13,1.636718810e-13,6.350574892e-13,8.342380387e-13,7.042118711e-14,2.127987114e-13,1.623701794e-13,1.891531941e-12,2.115299128e-11,6.216562745e-12,1.404240466e-11,1.454824892e-13,3.951645868e-12,4.623059807e-11,3.516535058e-13,9.996026817e-11,2.286942884e-11,5.789211692e-12
0.23438,6.974207855e-11,2.772645564e-11,1.857788841e-11,6.276179497e-12,3.967560814e-13,3.669837555e-12,1.821099504e-11,4.230187460e-14,2.863974412e-13,1.224364413e-13,3.179540277e-12,1.374567829e-13,2.224285800e-12,3.135672529e-13,5.854173032e-13,1.501716436e-13,5.833897078e-13,7.559921663e-13,7.340126454e-14,1.913981319e-13,1.575339481e-13,1.718459679e-12,1.968372884e-11,5.866302447e-12,1.310008334e-11,1.233966835e-13,3.721436228e-12,4.284089940e-11,3.586137518e-13,9.349018621e-11,2.066630890e-11,5.340861149e-12
0.24219,6.604826463e-11,2.606479238e-11,1.765594086e-11,6.004563989e-12,3.367895962e-13,3.580912649e-12,1.734398584e-11,5.638373411e-14,2.257430740e-13,1.372537415e-13,3.111747040e-12,1.562157873e-13,2.007008063e-12,3.017857669e-13,5.199579022e-13,1.523339147e-13,5.230545902e-13,6.605145348e-13,8.315808527e-14,2.173722125e-13,1.804367125e-13,1.569727636e-12,1.791419325e-11,5.772874191e-12,1.245623266e-11,9.822162479e-14,3.604080475e-12,4.027512526e-11,3.772234783e-13,8.872464137e-11,1.746978309e-11,4.735004290e-12
0.25,6.225317269e-11,2.468818975e-11,1.663108098e-11,5.658396971e-12,3.510133886e-13,3.444364219e-12,1.640904108e-11,5.651905813e-14,2.104596572e-13,1.449278235e-13,3.000091503e-12,1.659026058e-13,1.881352854e-12,2.592145747e-13,4.779033367e-13,1.426193711e-13,5.219443486e-13,6.438212588e-13,7.918439530e-14,1.957841628e-13,1.804911215e-13,1.459044594e-12,1.698745164e-11,5.493652021e-12,1.176482096e-11,1.100192771e-13,3.388748069e-12,3.761706156e-11,3.621299110e-13,8.321240710e-11,1.829626577e-11,4.603024304e-12
0.25781,5.922174989e-11,2.349104627e-11,1.567036067e-11,5.330749198e-12,3.404546843e-13,3.309817842e-12,1.540215888e-11,4.984690354e-14,1.923632072e-13,1.456794787e-13,2.859657870e-12,1.718473494e-13,1.770123392e-12,2.031025535e-13,4.390765498e-13,1.349035297e-13,5.182080630e-13,6.234601120e-13,7.679766637e-14,1.371263605e-13,1.878075459e-13,1.367255913e-12,1.594493183e-11,5.252670010e-12,1.121873211e-11,1.024860222e-13,3.244508663e-12,3.551936610e-11,3.788490043e-13,7.888767752e-11,1.733312924e-11,4.381423014e-12
0.26562,5.649058610e-11,2.216622254e-11,1.480670695e-11,5.028405539e-12,3.057863168e-13,3.215774054e-12,1.452931482e-11,6.174465861e-14,1.515748070e-13,1.475908103e-13,2.766135207e-12,1.800887910e-13,1.622958224e-12,1.807294229e-13,3.743593725e-13,1.509401175e-13,4.686918469e-13,5.508512791e-13,8.768591146e-14,1.221642374e-13,2.229589276e-13,1.282373914e-12,1.446923214e-11,5.233177837e-12,1.092546551e-11,8.158738940e-14,3.206005397e-12,3.424996037e-11,4.055398981e-13,7.582852472e-11,1.436420354e-11,3.916473590e-12
0.27344,5.321315904e-11,2.090872157e-11,1.380529529e-11,4.673741665e-12,3.251371146e-13,3.045699224e-12,1.358042960e-11,6.485730693e-14,1.392504433e-13,1.377173019e-13,2.616369884e-12,1.758842069e-13,1.525802987e-12,1.562678925e-13,3.196684734e-13,1.719143089e-13,4.422202022e-13,5.150052528e-13,9.501775198e-14,1.245840672e-13,2.304668099e-13,1.206669019e-12,1.360352784e-11,5.043798440e-12,1.052658100e-11,8.988912604e-14,3.064034040e-12,3.284895612e-11,3.825958151e-13,7.173626813e-11,1.446077141e-11,3.767356956e-12
0.28125,5.019322640e-11,1.981366110e-11,1.280489827e-11,4.340808587e-12,3.270553502e-13,2.837058518e-12,1.257768024e-11,4.836970705e-14,1.340583099e-13,1.189488834e-13,2.425844427e-12,1.646675924e-13,1.440669629e-12,1.185442615e-13,2.809943371e-13,2.035886233e-13,4.211881535e-13,4.852033766e-13,1.068860856e-13,1.246910649e-13,2.307377910e-13,1.128835424e-12,1.290345946e-11,4.792583177e-12,1.012662985e-11,8.973841901e-14,2.927170400e-12,3.160365715e-11,3.682126575e-13,6.790770432e-11,1.430411933e-11,3.650398245e-12
0.28906,4.731492041e-11,1.857240352e-11,1.198203534e-11,4.060840332e-12,2.836977115e-13,2.674493278e-12,1.177388416e-11,4.397327682e-14,1.066315711e-13,1.081740685e-13,2.297147997e-12,1.633279884e-13,1.291987619e-12,9.578920445e-14,2.279267449e-13,2.572106040e-13,3.444509490e-13,3.959811776e-13,1.329545561e-13,1.542087599e-13,2.585935717e-13,1.034471547e-12,1.181866966e-11,4.719047357e-12,9.847290310e-12,7.066476820e-14,2.874279200e-12,3.077611735e-11,3.715982967e-13,6.489918932e-11,1.199478709e-11,3.280733325e-12
0.29688,4.431475865e-11,1.744611696e-11,1.126267870e-11,3.801237682e-12,2.731899696e-13,2.505746116e-12,1.109145437e-11,4.605224594e-14,9.415061086e-14,1.030818649e-13,2.172922191e-12,1.592934068e-13,1.159057686e-12,8.172355720e-14,1.893285034e-13,2.931324750e-13,2.707172617e-13,3.198372667e-13,1.513917052e-13,1.892599061e-13,2.648211387e-13,9.393111795e-13,1.111515294e-11,4.540244325e-12,9.471208139e-12,7.006162760e-14,2.766714771e-12,2.969930837e-11,3.505725268e-13,6.135408104e-11,1.169496315e-11,3.098390416e-12
0.30469,4.167461284e-11,1.657077644e-11,1.073047591e-11,3.587004288e-12,2.724740717e-13,2.341560732e-12,1.049752380e-11,3.611168874e-14,9.435142647e-14,1.026066582e-13,2.042179088e-12,1.523412024e-13,1.059975325e-12,6.165950481e-14,1.767871249e-13,3.146013332e-13,2.282448923e-13,2.822743102e-13,1.621995324e-13,2.356454765e-13,2.433769583e-13,8.543929203e-13,1.072195697e-11,4.232194290e-12,9.022246734e-12,7.325611083e-14,2.631981789e-12,2.843204160e-11,3.278663855e-13,5.775738034e-11,1.204066193e-11,3.049936632e-12
0.3125,3.933617894e-11,1.563652043e-11,1.048336567e-11,3.432362700e-12,2.356127951e-13,2.244535020e-12,1.011635964e-11,3.131811279e-14,8.226896216e-14,1.149422900e-13,1.988424175e-12,1.551120849e-13,9.397754961e-13,4.752645451e-14,1.694955298e-13,3.424191477e-13,1.800894043e-13,2.419602903e-13,1.801149282e-13,3.200490256e-13,2.409068357e-13,7.742264599e-13,1.001228222e-11,4.034083595e-12,8.651745756e-12,6.196573483e-14,2.555966660e-12,2.725548985e-11,3.220915506e-13,5.469574903e-11,1.048214458e-11,2.817569782e-12
0.32031,3.728435496e-11,1.484694391e-11,1.046778424e-11,3.329993926e-12,2.156985637e-13,2.197722606e-12,9.912894085e-12,3.499278090e-14,7.923426430e-14,1.337567089e-13,1.968908319e-12,1.581869702e-13,8.516233043e-13,4.401808465e-14,1.763585610e-13,3.456050209e-13,1.410313880e-13,2.241729507e-13,1.869384958e-13,3.790804009e-13,2.360118174e-13,7.172427790e-13,9.475304818e-12,3.834282042e-12,8.283213142e-12,6.261728308e-14,2.460831039e-12,2.598197244e-11,3.070027948e-13,5.166101377e-11,9.952319324e-12,2.684722778e-12
0.32812,3.570481389e-11,1.434947378e-11,1.058791382e-11,3.270067853e-12,2.176674038e-13,2.166439011e-12,9.748946094e-12,3.325908425e-14,8.771183064e-14,1.509540173e-13,1.933077155e-12,1.534514855e-13,8.221841580e-13,4.612054961e-14,2.013994784e-13,3.087759374e-13,1.321597240e-13,2.416517315e-13,1.707688184e-13,3.878965928e-13,2.033695295e-13,6.898703120e-13,9.251008418e-12,3.547985722e-12,7.893559067e-12,7.019751143e-14,2.325528648e-12,2.457043022e-11,2.862554058e-13,4.866660549e-11,1.049195077e-11,2.712943555e-12
0.33594,3.422925446e-11,1.377202366e-11,1.073847316e-11,3.230755430e-12,1.951286996e-13,2.162516773e-12,9.609717843e-12,3.484861497e-14,8.605006964e-14,1.685600475e-13,1.915461275e-12,1.500622823e-13,8.015503230e-13,5.622192435e-14,2.225481286e-13,2.691914697e-13,1.359848574e-13,2.644785012e-13,1.533937848e-13,4.112273053e-13,1.798645649e-13,6.739196232e-13,8.745753240e-12,3.345545538e-12,7.558066260e-12,6.308376110e-14,2.206078949e-12,2.315897883e-11,2.708882514e-13,4.591919339e-11,9.529991323e-12,2.585837404e-12
0.34375,3.295878135e-11,1.325055857e-11,1.085767146e-11,3.209158313e-12,1.750628835e-13,2.177766088e-12,9.510625114e-12,4.299863870e-14,8.765052695e-14,1.814269265e-13,1.901063706e-12,1.451981846e-13,7.992059229e-13,7.094343185e-14,2.455754820e-13,2.325878813e-13,1.537939350e-13,3.031970523e-13,1.378501337e-13,4.322231008e-13,1.706297025e-13,6.702825591e-13,8.203859382e-12,3.230532844e-12,7.296828993e-12,5.890444311e-14,2.103453719e-12,2.190440330e-11,2.580656971e-13,4.354533667e-11,8.792641231e-12,2.453130469e-12
0.35156,3.202002895e-11,1.295360223e-11,1.083452844e-11,3.191869038e-12,1.756031074e-13,2.166698183e-12,9.329012835e-12,4.445875988e-14,9.844047920e-14,1.808400593e-13,1.845419229e-12,1.317310044e-13,8.251342382e-13,8.410620370e-14,2.741028981e-13,1.846709988e-13,1.849351488e-13,3.524789121e-13,1.134348852e-13,3.944259778e-13,1.553437884e-13,6.732302473e-13,7.897407948e-12,3.104030465e-12,7.060793308e-12,6.329226991e-14,1.989929204e-12,2.074190525e-11,2.482874496e-13,4.142644144e-11,9.240471630e-12,2.455212486e-12
0.35938,3.084664893e-11,1.249090266e-11,1.050698797e-11,3.119488952e-12,1.639514484e-13,2.105439668e-12,8.982003457e-12,4.298414385e-14,9.643591084e-14,1.678372930e-13,1.752060283e-12,1.142389139e-13,8.211784090e-13,1.028046732e-13,2.905201499e-13,1.401121524e-13,2.047152770e-13,3.691284276e-13,8.974903372e-14,3.372115763e-13,1.469171329e-13,6.582481730e-13,7.405205851e-12,3.007179380e-12,6.829404271e-12,5.676835776e-14,1.893171852e-12,1.961409505e-11,2.443222833e-13,3.932946250e-11,8.704685142e-12,2.337854414e-12
0.36719,2.961726609e-11,1.192835150e-11,1.000263803e-11,3.016243160e-12,1.482653137e-13,2.025485026e-12,8.603543860e-12,4.731852868e-14,8.874590112e-14,1.517242567e-13,1.667050399e-12,1.002868344e-13,7.952795922e-13,1.221278544e-13,2.921227981e-13,1.155521943e-13,2.167317271e-13,3.654615806e-13,7.703890684e-14,3.061072455e-13,1.545901957e-13,6.306377185e-13,6.803694936e-12,2.985760490e-12,6.645663127e-12,4.504915809e-14,1.834009962e-12,1.871167684e-11,2.454483132e-13,3.752419988e-11,7.806523214e-12,2.146673803e-12
0.375,2.854195438e-11,1.147027119e-11,9.339529171e-12,2.886321601e-12,1.509752514e-13,1.902963011e-12,8.155365709e-12,4.712648480e-14,8.986431108e-14,1.294694356e-13,1.566193276e-12,8.578383907e-14,7.819503533e-13,1.287079345e-13,2.912569646e-13,1.044157981e-13,2.329740862e-13,3.671636403e-13,6.651323640e-14,2.704459299e-13,1.578993688e-13,6.024245260e-13,6.448710872e-12,2.920457888e-12,6.444986584e-12,4.229765118e-14,1.774202724e-12,1.795878571e-11,2.468440832e-13,3.592626340e-11,7.914204384e-12,2.065354704e-12
0.38281,2.709446803e-11,1.084618431e-11,8.494518989e-12,2.696015273e-12,1.524329557e-13,1.729707698e-12,7.592113366e-12,3.895463299e-14,8.500188794e-14,1.039937303e-13,1.456666761e-12,7.439993594e-14,7.447942187e-13,1.261005295e-13,2.764306674e-13,1.066451711e-13,2.281573935e-13,3.414171426e-13,5.805836713e-14,2.260399049e-13,1.599639655e-13,5.643997523e-13,6.138631144e-12,2.809211200e-12,6.158596241e-12,4.230782549e-14,1.695853711e-12,1.713786593e-11,2.406274157e-13,3.405309112e-11,7.611486594e-12,1.960906307e-12
0.39062,2.539984510e-11,1.004609868e-11,7.603912982e-12,2.473175807e-12,1.482066947e-13,1.548741169e-12,7.041319513e-12,3.327115677e-14,7.202397010e-14,8.358518685e-14,1.380621403e-12,7.032034688e-14,6.916999915e-13,1.213360662e-13,2.400655755e-13,1.226723280e-13,2.010902292e-13,2.917689149e-13,5.677943479e-14,2.106749085e-13,1.688874021e-13,5.265620229e-13,5.824998331e-12,2.712361630e-12,5.830663589e-12,4.373142947e-14,1.612661164e-12,1.636019096e-11,2.248092256e-13,3.218855858e-11,6.680594578e-12,1.792174561e-12
0.39844,2.382852090e-11,9.329936847e-12,6.776548939e-12,2.258602740e-12,1.554414428e-13,1.374365586e-12,6.561265500e-12,3.011062407e-14,6.593798605e-14,6.905880331e-14,1.327322831e-12,7.085962706e-14,6.669484170e-13,1.091197441e-13,1.977434595e-13,1.429455438e-13,1.765922703e-13,2.559337817e-13,5.409198632e-14,2.063918648e-13,1.683687718e-13,5.085897676e-13,5.767351847e-12,2.574497422e-12,5.460741906e-12,5.237877718e-14,1.505353601e-12,1.563510602e-11,2.019397025e-13,3.052107744e-11,6.403765679e-12,1.710789551e-12
0.40625,2.210866399e-11,8.608489527e-12,5.981428579e-12,2.040395873e-12,1.612081727e-13,1.199753409e-12,6.081489013e-12,2.376000957e-14,6.227659381e-14,5.790208390e-14,1.273903288e-12,7.349311824e-14,6.473114720e-13,8.804365504e-14,1.585371465e-13,1.636336184e-13,1.530687372e-13,2.283434401e-13,4.829330195e-14,1.949399260e-13,1.542871770e-13,4.984320907e-13,5.811964162e-12,2.369442104e-12,5.019935214e-12,6.034212379e-14,1.360560191e-12,1.476006428e-11,1.707091673e-13,2.867971046e-11,6.245120600e-12,1.661723581e-12
0.41406,2.040404979e-11,7.860438795e-12,5.268574356e-12,1.829920884e-12,1.535042181e-13,1.042023325e-12,5.633925099e-12,1.858741498e-14,5.452578119e-14,4.985055904e-14,1.225063015e-12,7.738234204e-14,6.275249078e-13,6.630490551e-14,1.194381683e-13,1.793869538e-13,1.272185791e-13,2.044362083e-13,4.376908619e-14,1.892699076e-13,1.404010703e-13,4.951832972e-13,5.786978127e-12,2.166484825e-12,4.569721565e-12,6.382971632e-14,1.215550210e-12,1.385095789e-11,1.386337196e-13,2.699983213e-11,5.589290455e-12,1.560607304e-12
0.42188,1.903578018e-11,7.271227099e-12,4.725525751e-12,1.663630499e-12,1.465292506e-13,9.265052103e-13,5.316670433e-12,1.737183235e-14,5.117391136e-14,4.514558533e-14,1.182726293e-12,7.893859202e-14,6.311019230e-13,4.951000498e-14,8.776810955e-14,1.804220128e-13,1.111050681e-13,1.993070530e-13,3.859998951e-14,1.876159828e-13,1.273914131e-13,5.044389427e-13,5.808459786e-12,1.979198632e-12,4.192963575e-12,6.849405327e-14,1.095574641e-12,1.305541663e-11,1.138808905e-13,2.574258532e-11,5.228419126e-12,1.496834794e-12
0.42969,1.777611859e-11,6.794999391e-12,4.288882593e-12,1.521524653e-12,1.426759253e-13,8.355247722e-13,5.053326269e-12,1.637113095e-14,5.187716545e-14,4.052064147e-14,1.126606486e-12,7.754245892e-14,6.384291716e-13,3.560161263e-14,6.710395703e-14,1.687486014e-13,1.065656866e-13,2.066529581e-13,3.211664861e-14,1.736984104e-13,1.135608222e-13,5.099538107e-13,5.811774782e-12,1.794803906e-12,3.876004289e-12,7.081394293e-14,9.937541299e-13,1.225703330e-11,9.371596815e-14,2.449885798e-11,5.212538781e-12,1.473377917e-12
0.4375,1.693188405e-11,6.461707874e-12,3.994795083e-12,1.416863415e-12,1.283231916e-13,7.721025691e-13,4.807072721e-12,1.573366865e-14,5.159077206e-14,3.484564161e-14,1.050112820e-12,7.353938241e-14,6.374700385e-13,2.581247639e-14,5.630344487e-14,1.483472602e-13,1.089837031e-13,2.164599375e-13,2.601264782e-14,1.496379293e-13,1.059692329e-13,5.045767533e-13,5.604411767e-12,1.648880568e-12,3.642650623e-12,6.298524496e-14,9.491349649e-13,1.157096314e-11,9.053911626e-14,2.367546757e-11,4.929152619e-12,1.412055194e-12
0.44531,1.646649057e-11,6.280038343e-12,3.874020895e-12,1.362778796e-12,1.122636029e-13,7.521599307e-13,4.666715091e-12,1.745591724e-14,5.231483048e-14,2.946715625e-14,9.785483139e-13,6.786564996e-14,6.388208807e-13,2.180389626e-14,5.169075284e-14,1.267863522e-13,1.154493684e-13,2.268359638e-13,2.220360438e-14,1.255021781e-13,1.134929175e-13,4.942814409e-13,5.291812757e-12,1.598084950e-12,3.539982564e-12,5.272946371e-14,9.636627207e-13,1.114151597e-11,9.935300716e-14,2.327760079e-11,4.617294241e-12,1.349962734e-12
0.45312,1.597120593e-11,6.146653549e-12,3.840869018e-12,1.323586515e-12,1.056577375e-13,7.532823468e-13,4.586901455e-12,1.882823932e-14,5.564230284e-14,2.582275628e-14,9.174267785e-13,6.316497924e-14,6.351416308e-13,1.852396698e-14,4.864833852e-14,1.121251448e-13,1.208697966e-13,2.320162661e-13,2.102708498e-14,1.027012816e-13,1.330351761e-13,4.745236837e-13,4.993647777e-12,1.605963391e-12,3.491755599e-12,4.715641946e-14,9.894751834e-13,1.079943505e-11,1.074114222e-13,2.271247702e-11,4.620657078e-12,1.332542054e-12
0.46094,1.572038267e-11,6.095952177e-12,3.851904082e-12,1.301729588e-12,9.871727003e-14,7.604705444e-13,4.448877503e-12,1.752483257e-14,5.822701525e-14,2.182474623e-14,8.433809999e-13,5.764216075e-14,6.201531470e-13,1.531999153e-14,4.708155179e-14,1.033446516e-13,1.229235270e-13,2.285767871e-13,2.182791199e-14,8.073917644e-14,1.609422449e-13,4.448164947e-13,4.637138234e-12,1.644655687e-12,3.442826603e-12,4.296337355e-14,1.032018030e-12,1.053079658e-11,1.264738068e-13,2.234682746e-11,4.547527399e-12,1.308923143e-12
0.46875,1.561858870e-11,6.077601892e-12,3.929291042e-12,1.299319337e-12,9.048256556e-14,7.864965057e-13,4.352893316e-12,1.686442259e-14,5.669802037e-14,1.947333373e-14,7.862662703e-13,5.377831739e-14,5.948047150e-13,1.422124639e-14,4.367822576e-14,1.055341756e-13,1.155029240e-13,2.114160431e-13,2.453283682e-14,5.974344454e-14,1.967713698e-13,4.161587581e-13,4.299571238e-12,1.726776843e-12,3.400980963e-12,4.173134770e-14,1.075427126e-12,1.039012139e-11,1.419771793e-13,2.219044600e-11,4.207343837e-12,1.268281037e-12
0.47656,1.525216317e-11,5.982680571e-12,3.990749101e-12,1.280019474e-12,9.041844351e-14,8.145034258e-13,4.300886870e-12,1.740642221e-14,5.458979745e-14,2.020535080e-14,7.605152300e-13,5.410746884e-14,5.626458668e-13,1.202397088e-14,3.896898398e-14,1.178846550e-13,1.007203797e-13,1.868803522e-13,2.770343045e-14,4.477823993e-14,2.291251224e-13,3.925790217e-13,4.123088065e-12,1.796948489e-12,3.300605673e-12,4.712014756e-14,1.064717190e-12,1.018699457e-11,1.348574398e-13,2.167249113e-11,4.052666103e-12,1.259554963e-12
0.48438,1.482486412e-11,5.854647442e-12,3.955794665e-12,1.240327554e-12,9.213269754e-14,8.196026451e-13,4.152809642e-12,1.596330727e-14,5.309178497e-14,2.131254809e-14,7.334740693e-13,5.322045167e-14,5.260039608e-13,9.412408861e-15,3.759111135e-14,1.283512270e-13,8.749844965e-14,1.647655051e-13,2.797553787e-14,3.777238538e-14,2.396224052e-13,3.742363675e-13,4.071688549e-12,1.766963560e-12,3.081568735e-12,5.483215696e-14,1.005009376e-12,9.803035167e-12,1.259187673e-13,2.097060374e-11,4.052474476e-12,1.265205549e-12
0.49219,1.447069805e-11,5.707617032e-12,3.911959180e-12,1.200181431e-12,8.836725179e-14,8.266736049e-13,4.017855102e-12,1.485968905e-14,4.690685016e-14,2.488065395e-14,7.343281350e-13,5.488739671e-14,4.832186430e-13,8.601368290e-15,3.654276075e-14,1.426020527e-13,7.516419560e-14,1.418381801e-13,2.765961164e-14,3.758503104e-14,2.356665074e-13,3.650867290e-13,4.078485387e-12,1.700395406e-12,2.830564317e-12,6.022996752e-14,9.304344348e-13,9.412222914e-12,1.201374001e-13,2.041428447e-11,3.768564304e-12,1.241686957e-12
0.5,1.398860741e-11,5.498187649e-12,3.842601696e-12,1.150705109e-12,8.551252658e-14,8.349303453e-13,3.945658856e-12,1.694297260e-14,3.827791155e-14,3.096572493e-14,7.713950488e-13,6.055013896e-14,4.423327511e-13,9.301948856e-15,3.733372426e-14,1.566111371e-13,6.701610083e-14,1.238082280e-13,2.745288927e-14,4.054567933e-14,2.230015828e-13,3.670632610e-13,4.183305959e-12,1.610262785e-12,2.573781181e-12,6.653842005e-14,8.357747457e-13,8.985785014e-12,1.006109763e-13,1.972831276e-11,3.537711435e-12,1.220739753e-12
0.50781,1.336605558e-11,5.250298050e-12,3.681242230e-12,1.087634009e-12,8.558712023e-14,8.170939082e-13,3.804525003e-12,1.904210286e-14,3.249441320e-14,3.548445715e-14,8.041983844e-13,6.371199290e-14,4.094086771e-13,1.065198282e-14,4.105119085e-14,1.580036887e-13,6.754741833e-14,1.178582085e-13,2.508630770e-14,3.987742479e-14,1.951185088e-13,3.726694601e-13,4.318458030e-12,1.451956762e-12,2.297355968e-12,7.226749314e-14,7.267970204e-13,8.415685597e-12,7.653294194e-14,1.878465905e-11,3.635192930e-12,1.224567152e-12
0.51562,1.282600863e-11,5.012398999e-12,3.500937467e-12,1.033131250e-12,7.964556947e-14,7.903433810e-13,3.650264940e-12,2.190853224e-14,2.691739923e-14,4.090061380e-14,8.410128427e-13,6.634742992e-14,3.838166625e-13,1.456769680e-14,4.587394538e-14,1.501484673e-13,7.420865859e-14,1.194571927e-13,2.111315798e-14,3.979897066e-14,1.550404033e-13,3.810399762e-13,4.363838724e-12,1.286067296e-12,2.076697453e-12,6.904159045e-14,6.437615937e-13,7.888309847e-12,6.126648202e-14,1.798469723e-11,3.532864240e-12,1.200175913e-12
0.52344,1.237410061e-11,4.800779438e-12,3.355183919e-12,1.002419846e-12,6.990681828e-14,7.714758006e-13,3.559551547e-12,2.917251756e-14,2.149761393e-14,4.826389537e-14,8.870719228e-13,6.994826613e-14,3.672950591e-13,1.980710438e-14,5.074279102e-14,1.416881814e-13,8.624721523e-14,1.257922517e-13,1.911269145e-14,4.404984294e-14,1.198817194e-13,3.902866714e-13,4.309848256e-12,1.181457665e-12,1.969347958e-12,5.890110491e-14,6.033905711e-13,7.528870692e-12,5.366120654e-14,1.740980321e-11,3.310361623e-12,1.145683788e-12
0.53125,1.183889778e-11,4.595856207e-12,3.161025243e-12,9.701730534e-13,6.665782844e-14,7.313959484e-13,3.420172789e-12,3.547707251e-14,1.996290573e-14,5.246727273e-14,8.928355536e-13,6.912785906e-14,3.603360493e-13,2.368400999e-14,5.939738177e-14,1.268927951e-13,1.025789494e-13,1.401996310e-13,1.908373148e-14,4.290134001e-14,9.670710329e-14,3.917673478e-13,4.196263428e-12,1.092153386e-12,1.916914832e-12,5.090554162e-14,5.808843200e-13,7.172345071e-12,4.962646187e-14,1.668309772e-11,3.463580326e-12,1.115015465e-12
0.53906,1.131143583e-11,4.406779599e-12,2.924437670e-12,9.385818263e-13,6.445852868e-14,6.687464151e-13,3.225809390e-12,3.724195833e-14,1.955947578e-14,5.291701355e-14,8.515798482e-13,6.218738718e-14,3.555103653e-13,2.873704742e-14,6.838778231e-14,1.037751899e-13,1.124418711e-13,1.514527190e-13,2.094503029e-14,3.425731223e-14,8.458623279e-14,3.812580754e-13,3.975235780e-12,1.021983327e-12,1.927059562e-12,4.299889327e-14,5.820662627e-13,6.857039960e-12,5.224350752e-14,1.597225078e-11,3.509950298e-12,1.072527176e-12
0.54688,1.094773041e-11,4.263709144e-12,2.732331904e-12,9.202434254e-13,6.110171032e-14,6.164747875e-13,3.085741541e-12,4.134978846e-14,1.897556249e-14,5.388217447e-14,7.937150197e-13,5.488756928e-14,3.417209978e-13,3.575943834e-14,7.668332600e-14,8.573969951e-14,1.116477732e-13,1.493295848e-13,2.631787593e-14,3.170127419e-14,8.356090659e-14,3.604461327e-13,3.635664341e-12,1.021314644e-12,2.025537748e-12,3.062003886e-14,6.154812722e-13,6.743294759e-12,6.018164777e-14,1.561105350e-11,3.209899600e-12,9.809872029e-13
0.55469,1.057667376e-11,4.139616040e-12,2.539365072e-12,8.943426421e-13,6.602217975e-14,5.635090901e-13,2.947387986e-12,4.670657296e-14,2.193103008e-14,5.437010377e-14,7.144611524e-13,4.711465101e-14,3.235590994e-13,3.858329829e-14,8.943499151e-14,7.283400117e-14,1.105978748e-13,1.442308124e-13,3.486777852e-14,3.249093981e-14,9.053577117e-14,3.297247485e-13,3.302363058e-12,1.036137587e-12,2.124881411e-12,2.014977911e-14,6.410378204e-13,6.657198644e-12,6.653879820e-14,1.519570389e-11,3.247128432e-12,9.082598536e-13
0.5625,1.010992835e-11,3.998758578e-12,2.310851684e-12,8.475665129e-13,7.342538665e-14,4.973185757e-13,2.757911008e-12,4.402550145e-14,2.511529478e-14,5.054452958e-14,5.992073211e-13,3.648205578e-14,2.979529025e-13,3.966816511e-14,1.063485362e-13,5.867842780e-14,1.069740265e-13,1.358448703e-13,4.736988308e-14,3.012600070e-14,1.068114458e-13,2.866085404e-13,2.996481578e-12,1.031143469e-12,2.192660996e-12,1.466887380e-14,6.480117891e-13,6.510978451e-12,7.133294147e-14,1.458745159e-11,3.372182114e-12,8.535911411e-13
0.57031,9.804864379e-12,3.886139950e-12,2.139863335e-12,8.109947252e-13,7.389876671e-14,4.511529710e-13,2.623566600e-12,3.720623204e-14,2.585839597e-14,4.669781134e-14,4.921643347e-13,2.717355401e-14,2.644511643e-13,4.509951788e-14,1.225316617e-13,4.928229879e-14,9.543244162e-14,1.157107759e-13,6.426494942e-14,3.463291763e-14,1.334745015e-13,2.414699820e-13,2.680978186e-12,1.066894339e-12,2.282757520e-12,1.067132567e-14,6.655210478e-13,6.506487218e-12,7.854399200e-14,1.428016396e-11,3.047555697e-12,7.636739656e-13
0.57812,9.550855902e-12,3.796864478e-12,2.028845508e-12,7.835591054e-13,7.763449571e-14,4.282301242e-13,2.537633732e-12,3.464459752e-14,2.983618898e-14,4.659932246e-14,4.125259326e-13,2.165870147e-14,2.357157815e-13,4.974431508e-14,1.428738866e-13,4.458873370e-14,8.934235228e-14,9.624572033e-14,7.869087106e-14,4.306463846e-14,1.542026174e-13,2.025563349e-13,2.445679827e-12,1.101318636e-12,2.334394869e-12,8.136979043e-15,6.687635843e-13,6.525557263e-12,8.123913096e-14,1.400277997e-11,2.945430158e-12,6.897021959e-13
0.58594,9.166564348e-12,3.696347737e-12,1.927401970e-12,7.530553771e-13,8.381100434e-14,4.131701978e-13,2.423225315e-12,3.204569731e-14,3.554033654e-14,5.006428420e-14,3.473216767e-13,1.884849396e-14,2.169791416e-13,5.009589628e-14,1.651487963e-13,3.733377827e-14,8.972972162e-14,8.548308569e-14,8.725454886e-14,4.398058015e-14,1.590936913e-13,1.719725107e-13,2.330138425e-12,1.073686110e-12,2.288599882e-12,7.596326318e-15,6.377940894e-13,6.412527349e-12,7.800812765e-14,1.341672328e-11,3.140269278e-12,6.624744702e-13
0.59375,8.924474348e-12,3.627551113e-12,1.902364764e-12,7.499896637e-13,7.698721764e-14,4.261879643e-13,2.359619492e-12,2.550572188e-14,3.637373008e-14,5.686883009e-14,3.144640521e-13,1.922982456e-14,2.085960282e-13,5.434800853e-14,1.800202309e-13,3.026594485e-14,9.009307533e-14,7.945684359e-14,9.421508461e-14,4.959768101e-14,1.603017034e-13,1.548420844e-13,2.248730211e-12,1.041952597e-12,2.223845711e-12,8.704379683e-15,6.146003143e-13,6.352120740e-12,7.758439579e-14,1.303225477e-11,2.892140763e-12,6.220997426e-13
0.60156,8.838476099e-12,3.607684362e-12,1.955580434e-12,7.735142319e-13,6.700954862e-14,4.650013678e-13,2.358955753e-12,2.031070955e-14,3.854278672e-14,6.762005129e-14,3.185298254e-13,2.350686420e-14,2.178393290e-13,6.095783172e-14,1.887235887e-13,2.573218986e-14,9.484388110e-14,8.350753614e-14,9.621622760e-14,6.199784790e-14,1.576335992e-13,1.544825357e-13,2.231350002e-12,1.016713063e-12,2.147178598e-12,1.313747205e-14,5.998780754e-13,6.346691812e-12,7.888664980e-14,1.284330286e-11,2.687222180e-12,5.968661424e-13
0.60938,8.669189242e-12,3.591388590e-12,2.002012701e-12,7.964851835e-13,6.489791813e-14,5.031603696e-13,2.325984547e-12,1.885820882e-14,4.356365161e-14,8.265347171e-14,3.421256470e-13,3.158451190e-14,2.375085498e-13,5.858082269e-14,1.913076152e-13,2.214484871e-14,1.026846688e-13,9.607586754e-14,8.851131719e-14,6.518761435e-14,1.372411019e-13,1.637162211e-13,2.301294535e-12,9.351958208e-13,2.001363305e-12,1.748519692e-14,5.648354936e-13,6.195928227e-12,7.696759906e-14,1.240357084e-11,2.910952478e-12,6.241865588e-13
0.61719,8.621116720e-12,3.592046862e-12,2.080679399e-12,8.310882602e-13,5.870480443e-14,5.493784278e-13,2.300506851e-12,2.096853718e-14,4.221418006e-14,1.009969509e-13,3.849629854e-13,4.303497472e-14,2.590651908e-13,5.281029378e-14,1.834855057e-13,2.011626475e-14,1.056925601e-13,1.080775599e-13,7.568430191e-14,6.296671701e-14,1.077053926e-13,1.791480713e-13,2.336430812e-12,8.517385945e-13,1.864949167e-12,1.739585088e-14,5.435510813e-13,6.073961437e-12,8.004849149e-14,1.213039396e-11,2.765128843e-12,6.341131792e-13
0.625,8.763888079e-12,3.619056173e-12,2.196232458e-12,8.738525892e-13,5.064935022e-14,6.014504132e-13,2.317699907e-12,2.495135774e-14,3.768158266e-14,1.174932212e-13,4.414477533e-13,5.474266917e-14,2.838965519e-13,5.082213756e-14,1.641209933e-13,2.146756497e-14,1.073113335e-13,1.233163323e-13,6.376989835e-14,7.273181384e-14,8.487918583e-14,1.980645970e-13,2.324354190e-12,8.111919067e-13,1.783520865e-12,1.867357675e-14,5.459588140e-13,6.068502666e-12,8.885473325e-14,1.218495157e-11,2.439001158e-12,6.296784115e-13
0.63281,8.773197529e-12,3.611030693e-12,2.239195842e-12,8.862284039e-13,5.212468726e-14,6.193653795e-13,2.277110254e-12,2.578175164e-14,3.753485309e-14,1.257736364e-13,4.750039563e-13,6.284552211e-14,3.047166278e-13,4.508519102e-14,1.432004470e-13,2.448715563e-14,1.151837333e-13,1.438813707e-13,5.077489639e-14,7.771835951e-14,6.701605545e-14,2.096368607e-13,2.334265304e-12,7.609876558e-13,1.695677837e-12,2.269975820e-14,5.347228085e-13,5.942004694e-12,9.457610064e-14,1.201109024e-11,2.597427361e-12,6.640296912e-13
0.64062,8.748342311e-12,3.565935606e-12,2.249285682e-12,8.797523997e-13,5.288655685e-14,6.169813342e-13,2.218762080e-12,2.606157534e-14,3.495796067e-14,1.305423646e-13,4.992946264e-13,6.953992386e-14,3.131900427e-13,3.267524946e-14,1.192997928e-13,3.201910080e-14,1.186121830e-13,1.533045901e-13,3.609095279e-14,6.637348287e-14,5.123128481e-14,2.130517739e-13,2.286878903e-12,7.189900750e-13,1.629271243e-12,2.139361576e-14,5.277229921e-13,5.795181538e-12,1.020422578e-13,1.183355096e-11,2.561790068e-12,6.731926039e-13
0.64844,8.814345094e-12,3.502827083e-12,2.271613797e-12,8.737827903e-13,4.922754045e-14,6.140072676e-13,2.199696827e-12,3.155542961e-14,2.903550079e-14,1.307387883e-13,5.166974773e-13,7.244290825e-14,3.110942729e-13,2.420997338e-14,9.433649689e-14,4.179637369e-14,1.207752326e-13,1.519755684e-13,2.488420893e-14,5.668103913e-14,4.480748032e-14,2.110852787e-13,2.138415335e-12,7.282994765e-13,1.624053712e-12,1.643934118e-14,5.448411479e-13,5.759577711e-12,1.150320805e-13,1.192890526e-11,2.195331353e-12,6.264379380e-13
0.65625,8.664664995e-12,3.399202533e-12,2.223522350e-12,8.417336165e-13,5.351066160e-14,5.856311241e-13,2.158059462e-12,3.569805531e-14,2.779794962e-14,1.224476703e-13,5.063176579e-13,6.907384667e-14,3.044748131e-13,1.997609733e-14,7.229869371e-14,4.951501594e-14,1.286367168e-13,1.525795202e-13,1.767555742e-14,5.324115538e-14,4.141385403e-14,2.034332944e-13,2.026906682e-12,7.183792626e-13,1.589808438e-12,1.558097790e-14,5.431894359e-13,5.596257555e-12,1.196357478e-13,1.173362415e-11,2.279898078e-12,6.066788667e-13
0.66406,8.309255368e-12,3.248176210e-12,2.111582082e-12,7.877716056e-13,5.725981412e-14,5.353376810e-13,2.095816950e-12,3.186080425e-14,2.791013633e-14,1.068905822e-13,4.760822660e-13,6.147558900e-14,2.900523389e-13,1.601928238e-14,5.536755302e-14,5.765891076e-14,1.345460166e-13,1.469710278e-13,1.147195072e-14,4.445908529e-14,3.879411863e-14,1.917600717e-13,1.939466762e-12,6.842832985e-13,1.521187079e-12,1.599758464e-14,5.274896060e-13,5.314244156e-12,1.161129579e-13,1.128366145e-11,2.370557783e-12,5.907374539e-13
0.67188,8.021574725e-12,3.101953412e-12,2.032952030e-12,7.471394474e-13,5.066181304e-14,4.994854523e-13,2.085259931e-12,2.852751634e-14,2.532469856e-14,9.193970909e-14,4.516293968e-13,5.448142421e-14,2.631111231e-13,1.447112529e-14,4.237365574e-14,6.883788476e-14,1.306968385e-13,1.243100287e-13,7.510540599e-15,3.184003685e-14,4.243253319e-14,1.800089095e-13,1.807383680e-12,6.793539373e-13,1.473162116e-12,1.647255110e-14,5.310465644e-13,5.100716176e-12,1.161942215e-13,1.103374991e-11,2.047141783e-12,5.249154700e-13
0.67969,7.674252386e-12,2.975869188e-12,1.948871402e-12,7.096692130e-13,4.828703783e-14,4.685679549e-13,2.074651262e-12,3.038736234e-14,2.750410544e-14,7.855560897e-14,4.246516042e-13,4.846093901e-14,2.422326831e-13,1.437159584e-14,3.454248594e-14,7.339404989e-14,1.303858218e-13,1.044337026e-13,5.636768682e-15,2.333443674e-14,4.384331454e-14,1.739505670e-13,1.744297286e-12,6.620235908e-13,1.401276844e-12,2.039962999e-14,5.252139896e-13,4.852368396e-12,1.128376564e-13,1.066058817e-11,2.073805789e-12,4.848649745e-13
0.6875,7.214579031e-12,2.855929518e-12,1.829413948e-12,6.654731709e-13,5.008537063e-14,4.330110187e-13,2.031473227e-12,3.012100722e-14,3.095539131e-14,6.682552308e-14,3.908542801e-13,4.424904351e-14,2.275926132e-13,1.539671494e-14,3.225242202e-14,6.973372995e-14,1.313032295e-13,9.050690022e-14,3.849059805e-15,1.840208689e-14,3.854894877e-14,1.705879153e-13,1.752996921e-12,6.131324637e-13,1.292374845e-12,2.409903978e-14,4.989892534e-13,4.517384893e-12,1.004771483e-13,1.002370073e-11,2.266344098e-12,4.800501813e-13
0.69531,6.952542116e-12,2.778941864e-12,1.789596156e-12,6.423861116e-13,4.217383017e-14,4.225502591e-13,2.035209583e-12,2.699947142e-14,2.844674526e-14,6.284352676e-14,3.804427611e-13,4.663661626e-14,2.121869633e-13,1.907357971e-14,3.249142943e-14,6.672816661e-14,1.206993225e-13,7.319279799e-14,3.056372775e-15,1.660783379e-14,3.767935995e-14,1.702607075e-13,1.721326504e-12,6.019683624e-13,1.229058296e-12,2.760464159e-14,4.914605830e-13,4.321254955e-12,9.376741076e-14,9.652778442e-12,1.973670212e-12,4.483861948e-13
0.70312,6.821817919e-12,2.746357063e-12,1.793972229e-12,6.313071116e-13,3.459654323e-14,4.263814498e-13,2.048849659e-12,2.627186848e-14,2.714082403e-14,6.758780608e-14,3.855061795e-13,5.522422782e-14,2.051659680e-13,2.184804603e-14,3.471711625e-14,6.241352183e-14,1.078290464e-13,5.976721930e-14,3.371279819e-15,1.570609818e-14,4.257279174e-14,1.728641117e-13,1.713608367e-12,6.157283182e-13,1.202656918e-12,3.719722040e-14,4.888348333e-13,4.231122541e-12,9.215618529e-14,9.409335848e-12,1.842299467e-12,4.368996364e-13
0.71094,6.679980622e-12,2.735393513e-12,1.810838574e-12,6.179871373e-13,3.376802310e-14,4.294491279e-13,2.024775489e-12,2.957515174e-14,2.947907776e-14,7.875463629e-14,3.916538968e-13,6.749120608e-14,2.101612994e-13,2.115671322e-14,3.796695470e-14,4.943789671e-14,1.030932428e-13,5.797090664e-14,3.149922944e-15,1.114687363e-14,4.618900143e-14,1.760281101e-13,1.758989610e-12,6.096184231e-13,1.174510150e-12,4.472816064e-14,4.654331401e-13,4.115501497e-12,8.582761718e-14,8.985422554e-12,2.034665051e-12,4.655006210e-13
0.71875,6.687594985e-12,2.733956286e-12,1.874427326e-12,6.126421341e-13,2.859194924e-14,4.405171604e-13,2.015658702e-12,3.652324490e-14,2.777021636e-14,9.608600942e-14,4.152381226e-13,8.536385735e-14,2.128984043e-13,2.095531063e-14,3.611375265e-14,3.861960250e-14,9.205840984e-14,5.875692102e-14,3.894113913e-15,7.227842833e-15,5.799148288e-14,1.772036483e-13,1.722016116e-12,6.381979881e-13,1.200816381e-12,4.148564530e-14,4.575235739e-13,4.129662924e-12,8.415980789e-14,8.789356408e-12,1.823694631e-12,4.594404949e-13
0.72656,6.824323467e-12,2.760044325e-12,1.993908149e-12,6.209579769e-13,2.108196014e-14,4.588355834e-13,2.024906796e-12,4.355646193e-14,2.721840429e-14,1.155136134e-13,4.451583365e-13,1.027265326e-13,2.213548190e-13,2.421470707e-14,3.251415646e-14,3.252759695e-14,8.036028435e-14,6.813907819e-14,6.365706855e-15,7.351897050e-15,7.533309228e-14,1.801054377e-13,1.652056236e-12,6.818336440e-13,1.259459505e-12,3.855968312e-14,4.660044965e-13,4.229370175e-12,9.140798459e-14,8.804821393e-12,1.621279174e-12,4.483736684e-13
0.73438,6.832720427e-12,2.772308374e-12,2.088134705e-12,6.196389851e-13,2.022038037e-14,4.572171966e-13,1.984997008e-12,4.509062849e-14,3.242590985e-14,1.286998989e-13,4.549866492e-13,1.125353517e-13,2.397654874e-13,2.850571173e-14,2.965098689e-14,2.664459009e-14,7.774338720e-14,8.915242167e-14,9.076570914e-15,7.675755395e-15,8.638470487e-14,1.843953929e-13,1.634351554e-12,6.743808103e-13,1.280713698e-12,4.068567149e-14,4.554866027e-13,4.202250158e-12,9.399859736e-14,8.595021069e-12,1.818971684e-12,4.750722312e-13
0.74219,6.844412487e-12,2.765808544e-12,2.185129029e-12,6.219501547e-13,1.945823788e-14,4.460851038e-13,1.928001502e-12,4.592375317e-14,3.664397775e-14,1.331421196e-13,4.493871248e-13,1.157355249e-13,2.531417297e-13,3.753884266e-14,2.752051351e-14,2.322080692e-14,7.871572045e-14,1.105972209e-13,1.276892625e-14,7.246606136e-15,9.423591844e-14,1.894466960e-13,1.577150982e-12,6.503808270e-13,1.301720757e-12,3.733314803e-14,4.561234359e-13,4.168303546e-12,1.020382402e-13,8.471918328e-12,1.747852181e-12,4.661961410e-13
0.75,6.893404254e-12,2.746612227e-12,2.296266686e-12,6.327078099e-13,1.830101777e-14,4.353668219e-13,1.877453358e-12,5.029083423e-14,4.189762055e-14,1.296632695e-13,4.338263662e-13,1.141610531e-13,2.616516381e-13,5.155401762e-14,2.669705414e-14,2.574532810e-14,8.216405479e-14,1.345428317e-13,1.926165323e-14,9.442454354e-15,1.050996174e-13,1.961008417e-13,1.488964526e-12,6.314289228e-13,1.323532412e-12,2.931122212e-14,4.750847793e-13,4.154249616e-12,1.214137357e-13,8.541218865e-12,1.545657430e-12,4.261064802e-13
0.75781,6.720282186e-12,2.675212273e-12,2.330056735e-12,6.228405235e-13,2.232986830e-14,4.066443686e-13,1.795692603e-12,4.940706724e-14,5.224202327e-14,1.170186645e-13,3.969490026e-13,1.067377031e-13,2.738807327e-13,6.455372775e-14,2.890767926e-14,3.352123955e-14,9.326556155e-14,1.654475510e-13,2.888425420e-14,1.650655583e-14,1.096284272e-13,2.017133150e-13,1.470416058e-12,5.664703200e-13,1.282264549e-12,2.492508629e-14,4.678113151e-13,3.965707140e-12,1.323412009e-13,8.317759202e-12,1.739268642e-12,4.224255853e-13
0.76562,6.410719334e-12,2.550550883e-12,2.293674467e-12,5.990784181e-13,2.705904767e-14,3.667796039e-13,1.689425087e-12,3.956503620e-14,5.682978100e-14,9.681649525e-14,3.479440281e-13,9.522871372e-14,2.739918925e-13,7.939671170e-14,3.276856186e-14,4.634793587e-14,1.065081413e-13,1.869988842e-13,4.050784865e-14,2.941240111e-14,1.032984725e-13,2.019583873e-13,1.452219615e-12,4.800376745e-13,1.214240075e-12,2.463578279e-14,4.505832959e-13,3.707595813e-12,1.386118041e-13,7.994744963e-12,1.746952395e-12,4.100826192e-13
0.77344,6.082256388e-12,2.377268135e-12,2.204560773e-12,5.681543056e-13,3.486658875e-14,3.288484934e-13,1.587881544e-12,3.047448965e-14,5.238651440e-14,7.352249580e-14,3.053338325e-13,8.405220523e-14,2.546656716e-13,9.805921671e-14,3.513481685e-14,6.522181689e-14,1.103957987e-13,1.875365486e-13,5.275672184e-14,4.201472492e-14,9.708978231e-14,1.939216655e-13,1.383203493e-12,4.253864473e-13,1.167025163e-12,2.772750390e-14,4.442569367e-13,3.504161490e-12,1.518392608e-13,7.808169351e-12,1.417613996e-12,3.642261834e-13
0.78125,5.575676515e-12,2.157182063e-12,2.013750249e-12,5.141360569e-13,4.903205446e-14,2.858366043e-13,1.467308753e-12,2.527845680e-14,4.845866122e-14,5.193908012e-14,2.709163235e-13,7.637308352e-14,2.289791989e-13,1.060097472e-13,3.609849425e-14,8.831753077e-14,1.104631027e-13,1.807550421e-13,6.596800908e-14,5.125679904e-14,9.796220265e-14,1.778111643e-13,1.360103434e-12,3.874911472e-13,1.101012003e-12,3.182805835e-14,4.116537075e-13,3.237892456e-12,1.546633376e-13,7.360755690e-12,1.394921040e-12,3.529224844e-13
0.78906,4.933151532e-12,1.911324093e-12,1.725663034e-12,4.416105890e-13,5.756972170e-14,2.365452647e-13,1.327566037e-12,1.854601740e-14,4.447952475e-14,3.411472484e-14,2.459732925e-13,7.183929939e-14,2.000297354e-13,9.780974083e-14,3.629894434e-14,1.152545635e-13,1.099261371e-13,1.697744645e-13,8.133624006e-14,6.783932732e-14,1.037472716e-13,1.552550360e-13,1.344085042e-12,3.702029522e-13,1.033482782e-12,3.150098187e-14,3.568348230e-13,2.954727410e-12,1.370640935e-13,6.719611253e-12,1.412352036e-12,3.561947069e-13
0.79688,4.362756427e-12,1.675275966e-12,1.415822245e-12,3.745378382e-13,6.085659286e-14,1.962040998e-13,1.197992335e-12,1.130462863e-14,3.409506801e-14,2.114637746e-14,2.359218638e-13,6.955217156e-14,1.635518073e-13,8.758211028e-14,3.494728332e-14,1.412537335e-13,9.979075757e-14,1.445391386e-13,9.447485112e-14,8.728957145e-14,1.122470554e-13,1.304363518e-13,1.263020700e-12,3.932548826e-13,1.003533538e-12,3.281921398e-14,3.163843355e-13,2.771108475e-12,1.187096326e-13,6.236660174e-12,1.119297996e-12,3.352667924e-13
0.80469,3.845932585e-12,1.475219262e-12,1.123010784e-12,3.152594540e-13,7.123927140e-14,1.660820667e-13,1.083878110e-12,7.071544412e-15,2.317894974e-14,1.282305966e-14,2.329955579e-13,6.721751098e-14,1.323504214e-13,7.864925929e-14,3.288602827e-14,1.562178021e-13,8.272237670e-14,1.135832060e-13,9.952423363e-14,9.313933870e-14,1.190500643e-13,1.091416567e-13,1.212637159e-12,4.222663152e-13,9.749191696e-13,3.994746601e-14,2.760733391e-13,2.610858511e-12,1.025012177e-13,5.724657140e-12,1.024065118e-12,3.426561912e-13
0.8125,3.375427133e-12,1.326635555e-12,8.642131176e-13,2.647213711e-13,7.843011562e-14,1.453413827e-13,9.856717884e-13,5.040548727e-15,1.692702693e-14,8.763757119e-15,2.311830898e-13,6.427042152e-14,1.129489677e-13,6.198274268e-14,3.113716314e-14,1.583882270e-13,6.718600303e-14,8.950512560e-14,9.872109515e-14,9.300690452e-14,1.257892761e-13,9.464635081e-14,1.202928353e-12,4.424940425e-13,9.335400411e-13,4.168843945e-14,2.300930592e-13,2.448670585e-12,7.892547211e-14,5.145958332e-12,1.089259038e-12,3.691081147e-13
0.82031,3.093746031e-12,1.238908917e-12,6.956823541e-13,2.374444815e-13,7.134057756e-14,1.414426171e-13,9.241679335e-13,4.308255181e-15,1.204264842e-14,7.637763658e-15,2.310193549e-13,6.120507037e-14,9.978898467e-14,4.194367002e-14,3.091765140e-14,1.531932955e-13,5.683145460e-14,7.522713818e-14,9.532410097e-14,1.010092795e-13,1.342449767e-13,8.917776356e-14,1.162839311e-12,4.642477867e-13,9.034297877e-13,3.723103765e-14,2.027565013e-13,2.361176791e-12,5.435856647e-14,4.800709748e-12,9.427059988e-13,3.634911346e-13
0.82812,2.952617705e-12,1.203994225e-12,6.213318227e-13,2.277261615e-13,6.626572969e-14,1.492917557e-13,8.980479142e-13,4.392936869e-15,8.724035396e-15,8.301740003e-15,2.296541859e-13,5.737779204e-14,9.347893136e-14,2.765270286e-14,3.123165093e-14,1.398962326e-13,4.778252354e-14,6.732045542e-14,8.781327620e-14,1.053840417e-13,1.369590326e-13,9.058559496e-14,1.149052072e-12,4.613777904e-13,8.644983577e-13,3.835033727e-14,1.882966512e-13,2.294118424e-12,3.839514079e-14,4.594936349e-12,9.291238794e-13,3.655441900e-13
0.83594,2.874829315e-12,1.208419887e-12,6.213332176e-13,2.281656068e-13,6.619796235e-14,1.639244134e-13,8.890635640e-13,3.903893211e-15,7.754631282e-15,9.945285963e-15,2.211460034e-13,5.264904206e-14,9.321717096e-14,1.826721601e-14,3.055883394e-14,1.139623194e-13,3.928786279e-14,6.336759890e-14,7.393683066e-14,9.430785085e-14,1.262442245e-13,9.667186392e-14,1.189850424e-12,4.119290261e-13,7.936533681e-13,4.113878951e-14,1.725349814e-13,2.190450678e-12,2.837828363e-14,4.399734213e-12,1.081191301e-12,3.881733061e-13
0.84375,2.904245046e-12,1.236776938e-12,6.818722874e-13,2.421253066e-13,5.705175893e-14,1.858041554e-13,8.989384392e-13,4.210763705e-15,6.342699714e-15,1.206011332e-14,2.175595041e-13,5.004531932e-14,9.083051022e-14,1.139499371e-14,2.744121941e-14,8.821340158e-14,3.518973767e-14,6.142173424e-14,5.922393292e-14,8.951348579e-14,1.108773082e-13,1.042466131e-13,1.190564916e-12,3.606311045e-13,7.336122881e-13,3.627851156e-14,1.712452723e-13,2.141585501e-12,2.183164535e-14,4.401070713e-12,9.975201048e-13,3.735425547e-13
0.85156,2.985842675e-12,1.277491010e-12,7.709087609e-13,2.618945148e-13,4.393194192e-14,2.091153074e-13,9.204503589e-13,6.048291356e-15,5.159446605e-15,1.386362227e-14,2.188159536e-13,4.932735702e-14,8.650730575e-14,7.413274664e-15,2.482163281e-14,6.977228276e-14,3.661788012e-14,6.529508127e-14,4.838227833e-14,9.136095261e-14,9.973183249e-14,1.101776244e-13,1.180852928e-12,3.202454099e-13,6.875627957e-13,3.168317581e-14,1.774854724e-13,2.133621725e-12,1.873707962e-14,4.512484480e-12,9.544282980e-13,3.462093064e-13
0.85938,3.036163832e-12,1.326686793e-12,8.530097027e-13,2.789866971e-13,3.676668039e-14,2.263295618e-13,9.331713810e-13,6.154164808e-15,5.863545212e-15,1.436979653e-14,2.200161649e-13,4.697105507e-14,8.586423962e-14,6.558804669e-15,2.324304418e-14,5.578453146e-14,3.695729786e-14,7.092949593e-14,3.870267834e-14,8.097759720e-14,9.019517568e-14,1.140912092e-13,1.206676078e-12,2.802408996e-13,6.419468384e-13,3.133265466e-14,1.789074573e-13,2.110993430e-12,1.821373088e-14,4.558483398e-12,1.121601090e-12,3.449670502e-13
0.86719,3.079964517e-12,1.355403852e-12,9.195734163e-13,2.943502957e-13,3.044700929e-14,2.418433664e-13,9.428360005e-13,5.403046515e-15,5.489788216e-15,1.446243641e-14,2.287717727e-13,4.574912046e-14,8.236840812e-14,7.216549568e-15,2.268312716e-14,4.847548772e-14,3.317458155e-14,6.617707162e-14,2.936504177e-14,6.939071009e-14,8.030423437e-14,1.136114548e-13,1.185510071e-12,2.663612867e-13,6.195068816e-13,2.783627835e-14,1.816692921e-13,2.126968987e-12,1.933725402e-14,4.629181930e-12,1.068642230e-12,3.260826113e-13
0.875,3.131682771e-12,1.365227955e-12,9.692537649e-13,3.056113710e-13,2.244123570e-14,2.551741783e-13,9.567862094e-13,6.266853562e-15,4.264361381e-15,1.433785370e-14,2.460256088e-13,4.546709575e-14,7.570933162e-14,8.576909945e-15,2.397837982e-14,4.835692157e-14,3.181603870e-14,5.710275167e-14,2.388878552e-14,6.819520383e-14,7.342692519e-14,1.079394192e-13,1.114296032e-12,2.857565677e-13,6.273528349e-13,2.181032641e-14,1.882359413e-13,2.183728652e-12,2.072470452e-14,4.727790073e-12,9.405571640e-13,2.887831896e-13
0.88281,3.142195395e-12,1.368662448e-12,9.823613881e-13,3.063855349e-13,1.838048409e-14,2.604875425e-13,9.676767804e-13,6.821128240e-15,4.789171887e-15,1.408081427e-14,2.649076932e-13,4.314125654e-14,7.586166320e-14,1.195600211e-14,2.865346759e-14,5.115987147e-14,3.297397668e-14,5.348107520e-14,2.248341383e-14,6.604804914e-14,7.292630176e-14,1.015813851e-13,1.071416845e-12,3.219540108e-13,6.453390607e-13,2.017048567e-14,1.887578971e-13,2.221898689e-12,2.032765042e-14,4.697457630e-12,1.040565815e-12,2.789887812e-13
0.89062,3.124350515e-12,1.341159457e-12,9.584814080e-13,2.966754975e-13,1.690699594e-14,2.572710909e-13,9.672605342e-13,5.452406288e-15,5.178952907e-15,1.399224293e-14,2.823756251e-13,4.005865748e-14,7.541034743e-14,1.622554542e-14,3.525779608e-14,5.667802883e-14,2.965657707e-14,4.664941514e-14,2.402381669e-14,6.317286808e-14,7.987406252e-14,9.310589851e-14,1.012794796e-12,3.791297690e-13,6.785742099e-13,1.929914496e-14,1.876424525e-13,2.245776491e-12,1.896241297e-14,4.604759504e-12,1.028787540e-12,2.687939552e-13
0.89844,3.133925705e-12,1.290471470e-12,9.233053227e-13,2.814237569e-13,1.641619803e-14,2.506527701e-13,9.704113217e-13,5.002270237e-15,5.497271179e-15,1.521794673e-14,3.022816809e-13,3.909087212e-14,7.318815677e-14,2.058028756e-14,4.556563433e-14,6.454548065e-14,2.675377690e-14,3.656874999e-14,2.670339083e-14,7.250074875e-14,8.625396930e-14,8.140045542e-14,9.077908834e-13,4.525823837e-13,7.348463747e-13,1.624546601e-14,1.940622575e-13,2.283748139e-12,1.877979599e-14,4.557760561e-12,8.870894874e-13,2.403028178e-13
0.90625,3.145132325e-12,1.253090923e-12,8.725158712e-13,2.649833878e-13,1.873028721e-14,2.371177949e-13,9.595544122e-13,5.432554421e-15,7.394011074e-15,1.646521910e-14,3.105155552e-13,3.682720578e-14,7.847447806e-14,2.461032553e-14,5.643932119e-14,6.666071489e-14,2.743638828e-14,3.157957562e-14,2.720149792e-14,7.973786450e-14,8.541952605e-14,7.231832423e-14,8.346323082e-13,5.085421303e-13,7.911905140e-13,1.539590160e-14,2.034827761e-13,2.294055965e-12,1.958669187e-14,4.480943922e-12,9.473091355e-13,2.318002195e-13
0.91406,3.155763278e-12,1.224383345e-12,8.144101122e-13,2.501440823e-13,2.006819480e-14,2.175163458e-13,9.339687474e-13,4.376962361e-15,8.754847528e-15,1.781413801e-14,3.064533524e-13,3.304578150e-14,8.638069189e-14,2.988622873e-14,6.357734647e-14,6.422675511e-14,2.743084751e-14,3.022979209e-14,2.693151251e-14,7.945176394e-14,8.345734929e-14,6.564649977e-14,7.832018710e-13,5.522096012e-13,8.482737481e-13,1.636109997e-14,2.156138730e-13,2.282000565e-12,2.167551366e-14,4.395077133e-12,1.001436372e-12,2.297863619e-13
0.92188,3.193366973e-12,1.200159347e-12,7.550232159e-13,2.414741476e-13,1.838035530e-14,1.966572120e-13,9.009410499e-13,3.079095325e-15,9.449170866e-15,1.955159417e-14,2.964416360e-13,2.992294624e-14,9.373445020e-14,3.389822967e-14,6.780283724e-14,6.260354507e-14,2.621311456e-14,3.067452457e-14,2.711785545e-14,8.263340080e-14,8.422897929e-14,6.033039030e-14,7.107589752e-13,5.958970036e-13,9.137503627e-13,1.447058070e-14,2.361882918e-13,2.289875481e-12,2.649292693e-14,4.397669009e-12,9.283563285e-13,2.096990107e-13
0.92969,3.234824326e-12,1.205637696e-12,7.077760397e-13,2.429379754e-13,1.741895679e-14,1.772267702e-13,8.608462609e-13,2.775061575e-15,1.151244879e-14,2.020444375e-14,2.743747654e-13,2.664711916e-14,1.065663408e-13,3.473633852e-14,7.198120900e-14,6.034681972e-14,2.945701093e-14,3.560166715e-14,2.488423474e-14,8.544168745e-14,7.911636648e-14,5.780467403e-14,6.683393617e-13,6.056268245e-13,9.594620453e-13,1.197261964e-14,2.532723026e-13,2.280314295e-12,3.135090984e-14,4.400625272e-12,1.013372127e-12,2.001864784e-13
0.9375,3.246726691e-12,1.226721891e-12,6.654189206e-13,2.512667617e-13,1.701309816e-14,1.595693658e-13,8.146300273e-13,2.320117412e-15,1.280996439e-14,1.994457054e-14,2.406765420e-13,2.217678856e-14,1.194272241e-13,3.374992411e-14,7.158171931e-14,5.571675085e-14,3.485789630e-14,3.988105062e-14,1.963397331e-14,7.828252690e-14,6.985951063e-14,5.706262027e-14,6.554656714e-13,5.839358003e-13,9.776394175e-13,1.180440747e-14,2.610751776e-13,2.232858944e-12,3.484053474e-14,4.348009528e-12,1.130492521e-12,2.024685418e-13
0.94531,3.232577667e-12,1.235967285e-12,6.193840627e-13,2.636268337e-13,1.359800386e-14,1.441600079e-13,7.623538822e-13,1.399950756e-15,1.144224154e-14,1.937363921e-14,2.022156081e-13,1.842357248e-14,1.231497605e-13,3.241894072e-14,6.871888166e-14,5.464019228e-14,4.332952672e-14,4.107733923e-14,1.475594007e-14,7.111747863e-14,6.269112767e-14,5.534720244e-14,6.279478253e-13,5.487428571e-13,9.712559227e-13,1.172772113e-14,2.645797828e-13,2.176337131e-12,3.828868066e-14,4.301792264e-12,1.078090670e-12,1.900280495e-13
0.95312,3.216763343e-12,1.255434368e-12,5.870730474e-13,2.824723656e-13,9.916240500e-15,1.338794151e-13,7.130597608e-13,1.027534829e-15,1.045828439e-14,1.786463281e-14,1.623003356e-13,1.579858592e-14,1.246493606e-13,2.895098902e-14,6.776272677e-14,5.665494766e-14,5.890447583e-14,4.417635147e-14,1.142460164e-14,7.003005453e-14,5.851723148e-14,5.298675991e-14,6.073905974e-13,5.050807683e-13,9.469270072e-13,1.038260533e-14,2.642284537e-13,2.112258357e-12,4.117857512e-14,4.252069861e-12,1.110023826e-12,1.813820077e-13
0.96094,3.163435563e-12,1.272898378e-12,5.688601472e-13,3.003562870e-13,8.619144643e-15,1.279591135e-13,6.718696391e-13,1.221786432e-15,1.031519984e-14,1.634110670e-14,1.241489950e-13,1.434174281e-14,1.256234674e-13,2.430048297e-14,6.977157392e-14,5.883047369e-14,8.011125786e-14,4.835319093e-14,8.693335569e-15,6.983399771e-14,5.392624723e-14,5.115063446e-14,6.104378508e-13,4.426729919e-13,8.930478717e-13,1.048724124e-14,2.524926419e-13,2.000055110e-12,4.003927992e-14,4.127355891e-12,1.219424609e-12,1.865066072e-13
0.96875,3.106503456e-12,1.274282358e-12,5.669542301e-13,3.179629720e-13,8.009870504e-15,1.260264766e-13,6.338363012e-13,1.606616740e-15,8.706348056e-15,1.488546366e-14,9.142656488e-14,1.389124536e-14,1.177817430e-13,2.238570892e-14,7.611588929e-14,6.148761918e-14,1.073548776e-13,5.173224426e-14,7.156847332e-15,7.118289320e-14,5.118682537e-14,4.924562968e-14,5.990875744e-13,3.812974277e-13,8.279771025e-13,1.287016145e-14,2.424559332e-13,1.894550576e-12,3.996249111e-14,4.024309242e-12,1.158393599e-12,1.809826517e-13
0.97656,3.072609739e-12,1.276303690e-12,5.927311188e-13,3.372617830e-13,8.182487190e-15,1.288284124e-13,6.062185183e-13,2.296997302e-15,7.433280519e-15,1.317937877e-14,6.571083002e-14,1.388793853e-14,1.079643168e-13,2.229305060e-14,8.658212017e-14,6.383772137e-14,1.399052987e-13,5.798158643e-14,6.961873483e-15,7.853489315e-14,5.060064856e-14,4.900504652e-14,5.903427969e-13,3.293924657e-13,7.642167635e-13,1.469144484e-14,2.372049400e-13,1.811375519e-12,4.160988976e-14,3.975131610e-12,1.079118720e-12,1.741631507e-13
0.98438,3.036292062e-12,1.281335040e-12,6.396243808e-13,3.526752140e-13,9.928580828e-15,1.338019669e-13,5.904055751e-13,3.411810488e-15,7.402657797e-15,1.124002212e-14,4.839614207e-14,1.326696727e-14,1.022966479e-13,2.258442220e-14,9.868604017e-14,6.272882722e-14,1.732647217e-13,6.725302503e-14,6.675012228e-15,8.715082816e-14,4.889768217e-14,5.130446725e-14,6.098798495e-13,2.799230689e-13,6.996097090e-13,1.506091539e-14,2.280618956e-13,1.737379282e-12,4.116206403e-14,3.907770403e-12,1.109414207e-12,1.793039835e-13
0.99219,2.986352948e-12,1.265179677e-12,6.939208362e-13,3.580293370e-13,1.283839589e-14,1.377693239e-13,5.796933581e-13,5.160464984e-15,6.842724132e-15,9.469056536e-15,3.997130738e-14,1.230322564e-14,9.425602219e-14,2.467309886e-14,1.075403088e-13,5.779900354e-14,1.993238814e-13,7.377569329e-14,6.113098919e-15,9.036089909e-14,4.473282075e-14,5.438024902e-14,6.261732853e-13,2.347574284e-13,6.339393572e-13,1.572323935e-14,2.164595208e-13,1.680428054e-12,3.869516447e-14,3.827926649e-12,1.036084205e-12,1.765992975e-13
1,2.957211685e-12,1.244630606e-12,7.511068335e-13,3.585668763e-13,1.706467356e-14,1.414516254e-13,5.748030330e-13,7.323758237e-15,5.966881280e-15,7.930438637e-15,3.938102424e-14,1.071910207e-14,8.529989907e-14,2.793783435e-14,1.130546285e-13,5.089119477e-14,2.171438234e-13,7.746118256e-14,5.506378969e-15,9.077480115e-14,4.017740527e-14,5.781405303e-14,6.383766731e-13,2.030713964e-13,5.814978792e-13,1.698772122e-14,2.095208330e-13,1.678013098e-12,3.787721246e-14,3.796802885e-12,8.898114837e-13,1.653017789e-13
1.0078,2.912740255e-12,1.219219665e-12,7.868310244e-13,3.489476279e-13,2.191191831e-14,1.408289530e-13,5.733148812e-13,9.031315212e-15,5.904265794e-15,6.360112409e-15,4.505291492e-14,8.416268343e-15,7.840262988e-14,2.937782842e-14,1.132630130e-13,4.284792723e-14,2.261823494e-13,7.820235413e-14,4.681984401e-15,9.098053402e-14,3.446685824e-14,6.007544599e-14,6.665758216e-13,1.789115246e-13,5.393339374e-13,1.667767083e-14,1.982724600e-13,1.700818521e-12,3.499396523e-14,3.718887997e-12,8.376846186e-13,1.616276022e-13
1.0156,2.844801964e-12,1.180025700e-12,8.016939078e-13,3.267482748e-13,2.451871818e-14,1.359839826e-13,5.681372362e-13,1.027954661e-14,5.950486830e-15,5.317698161e-15,5.435207569e-14,6.307538763e-15,7.155580657e-14,2.958267435e-14,1.049238076e-13,3.405142664e-14,2.221276432e-13,7.347278285e-14,3.563554612e-15,8.762556089e-14,2.722722003e-14,6.002428048e-14,6.789533442e-13,1.610756571e-13,5.061270931e-13,1.496127449e-14,1.839724383e-13,1.731072302e-12,2.910519071e-14,3.590075302e-12,7.888571348e-13,1.555542214e-13
1.0234,2.786265880e-12,1.134934801e-12,7.969235747e-13,3.001295574e-13,2.607039301e-14,1.296405612e-13,5.588684919e-13,1.134879727e-14,6.006997334e-15,4.913045594e-15,6.513390501e-14,4.658402975e-15,6.377328273e-14,3.127305768e-14,9.197963013e-14,2.631356015e-14,2.076890303e-13,6.378918034e-14,2.533334570e-15,8.123897212e-14,1.987187739e-14,5.803425419e-14,6.631914539e-13,1.551385711e-13,4.921644139e-13,1.456820932e-14,1.771554498e-13,1.785096467e-12,2.553356583e-14,3.488592327e-12,6.900492772e-13,1.415985717e-13
1.0312,2.719198373e-12,1.092663116e-12,7.760350258e-13,2.728228187e-13,2.804178118e-14,1.234657469e-13,5.538255051e-13,1.196662394e-14,7.058162159e-15,5.290706320e-15,7.444419017e-14,3.807253571e-15,5.892025944e-14,3.247009423e-14,7.700468665e-14,2.010342911e-14,1.857676405e-13,5.256035950e-14,1.882741361e-15,7.329789921e-14,1.353257967e-14,5.497325524e-14,6.437664771e-13,1.578631890e-13,4.968705902e-13,1.557635266e-14,1.732070212e-13,1.833762641e-12,2.373129412e-14,3.374365163e-12,6.569576045e-13,1.346903560e-13
1.0391,2.620587180e-12,1.045230570e-12,7.462170965e-13,2.446043532e-13,2.815791360e-14,1.176234248e-13,5.456660032e-13,1.126157515e-14,8.898213114e-15,6.771087843e-15,7.946953434e-14,3.997662392e-15,5.652484679e-14,3.340598549e-14,6.178095949e-14,1.556103736e-14,1.608912088e-13,4.205835846e-14,1.637472340e-15,6.489230571e-14,8.646313389e-15,5.179551828e-14,6.196472768e-13,1.598884507e-13,5.039661407e-13,1.696392373e-14,1.691851810e-13,1.830287756e-12,2.248916433e-14,3.215086287e-12,6.598401103e-13,1.347677344e-13
1.0469,2.503287947e-12,9.898961729e-13,7.146418810e-13,2.209153586e-13,2.622808204e-14,1.145229520e-13,5.366155460e-13,9.728597817e-15,1.123277463e-14,9.757757156e-15,8.076519021e-14,5.518442596e-15,5.578763131e-14,3.639406992e-14,4.854716848e-14,1.404222727e-14,1.364152141e-13,3.340107797e-14,1.963246333e-15,5.718878821e-14,5.240622561e-15,5.004748983e-14,5.793110725e-13,1.645638138e-13,5.122853551e-13,1.959134165e-14,1.682528763e-13,1.778519859e-12,2.367285607e-14,3.054627873e-12,6.126605367e-13,1.352056435e-13
1.0547,2.365060092e-12,9.320036511e-13,6.937474604e-13,2.051717930e-13,2.524338193e-14,1.163768888e-13,5.377625095e-13,8.363496508e-15,1.408992192e-14,1.411219923e-14,7.948788603e-14,8.252251641e-15,5.679896605e-14,3.947270605e-14,3.812697089e-14,1.466808023e-14,1.116200817e-13,2.653040891e-14,2.869785404e-15,4.946521439e-14,3.317851703e-15,5.005741028e-14,5.496346494e-13,1.679290766e-13,5.142556287e-13,2.373368630e-14,1.665703518e-13,1.680010794e-12,2.573022743e-14,2.887436542e-12,5.750455261e-13,1.428981358e-13
1.0625,2.193523658e-12,8.692534648e-13,6.753845698e-13,1.927827570e-13,2.533076534e-14,1.195405414e-13,5.402765496e-13,6.941128171e-15,1.696939855e-14,2.060613041e-14,7.489342449e-14,1.254779143e-14,5.857105436e-14,4.179087209e-14,3.187628064e-14,1.712051642e-14,9.080189009e-14,2.256425437e-14,4.367647206e-15,4.045767008e-14,2.623340996e-15,5.128958562e-14,5.407537785e-13,1.623160457e-13,4.955621078e-13,2.725270106e-14,1.585105000e-13,1.517478652e-12,2.614404371e-14,2.668464247e-12,5.721633020e-13,1.574005553e-13
1.0703,1.988828811e-12,7.925817129e-13,6.517210027e-13,1.829886892e-13,2.525421308e-14,1.227036186e-13,5.406100513e-13,5.344362161e-15,1.844452889e-14,2.929930503e-14,7.007503784e-14,1.860782653e-14,5.834643510e-14,4.284431269e-14,2.753210810e-14,2.197846786e-14,7.330490415e-14,1.897712755e-14,6.608801468e-15,3.204904350e-14,2.971428614e-15,5.301026527e-14,5.377045539e-13,1.537605081e-13,4.546704783e-13,2.934287222e-14,1.432811770e-13,1.315425868e-12,2.526754550e-14,2.410209824e-12,5.285295019e-13,1.692313359e-13
1.0781,1.795035795e-12,7.168842189e-13,6.252568614e-13,1.755792854e-13,2.605701577e-14,1.253509103e-13,5.478751996e-13,4.395278612e-15,1.852620895e-14,4.022879200e-14,6.914915061e-14,2.600286699e-14,5.617072113e-14,4.256156132e-14,2.452171276e-14,2.796497308e-14,5.673653988e-14,1.514380084e-14,9.132000383e-15,2.574230005e-14,3.943227940e-15,5.489589846e-14,5.464557276e-13,1.462387081e-13,4.071138924e-13,3.035239652e-14,1.260729540e-13,1.130505678e-12,2.324927594e-14,2.180089800e-12,4.665479950e-13,1.791584643e-13
1.0859,1.624579363e-12,6.533723654e-13,5.924393068e-13,1.684944673e-13,2.830265964e-14,1.255937481e-13,5.593045211e-13,4.271721530e-15,1.800332643e-14,5.344938173e-14,7.216538624e-14,3.439810679e-14,5.463834803e-14,4.122679474e-14,2.290560663e-14,3.453751382e-14,4.319711813e-14,1.261592451e-14,1.160659234e-14,2.042925073e-14,5.169034330e-15,5.693139980e-14,5.691864104e-13,1.386114984e-13,3.585713114e-13,3.088280706e-14,1.092344540e-13,9.840845924e-13,2.050544594e-14,1.980985151e-12,4.494725432e-13,1.909507952e-13
1.0938,1.462671299e-12,5.914026561e-13,5.433920281e-13,1.579221796e-13,3.042208865e-14,1.202738310e-13,5.617504687e-13,4.760979856e-15,1.625188226e-14,6.757721346e-14,7.845441912e-14,4.336215960e-14,5.131240738e-14,3.874143445e-14,2.150084035e-14,4.158841947e-14,3.388909689e-14,1.031644962e-14,1.422818583e-14,1.659783678e-14,6.542065851e-15,5.862112009e-14,5.891821887e-13,1.324040081e-13,3.117282850e-13,2.992301875e-14,9.025814908e-14,8.799188993e-13,1.774860944e-14,1.806158949e-12,4.353759173e-13,1.975186757e-13
1.1016,1.336206883e-12,5.397343526e-13,4.823741259e-13,1.458622258e-13,3.127203551e-14,1.103288217e-13,5.603225009e-13,6.030031227e-15,1.349713357e-14,8.089545950e-14,8.824918235e-14,5.128998472e-14,4.764042663e-14,3.478469099e-14,1.951845997e-14,4.849814553e-14,2.668930428e-14,7.905585410e-15,1.596132176e-14,1.595672496e-14,8.064205030e-15,6.012482134e-14,5.981738961e-13,1.299131489e-13,2.821830526e-13,2.695025314e-14,7.529382094e-14,8.382286323e-13,1.472057997e-14,1.710117115e-12,4.048115461e-13,1.962842001e-13
1.1094,1.263950687e-12,5.134540899e-13,4.225562346e-13,1.361685345e-13,3.193873620e-14,9.805591038e-14,5.539488172e-13,7.871602397e-15,1.094772756e-14,9.224144263e-14,9.893569583e-14,5.696274913e-14,4.699203583e-14,3.117721963e-14,1.826045942e-14,5.341834586e-14,2.069674978e-14,7.222255493e-15,1.636554205e-14,1.665931157e-14,8.848553909e-15,6.337550257e-14,6.075626641e-13,1.275654403e-13,2.710967149e-13,2.451819876e-14,6.836381307e-14,8.508251928e-13,1.300017835e-14,1.699919983e-12,4.130499575e-13,1.962387925e-13
1.1172,1.216837991e-12,5.031601242e-13,3.661978233e-13,1.284884177e-13,3.167108395e-14,8.326010762e-14,5.319590728e-13,9.734407697e-15,9.117157538e-15,9.989148802e-14,1.066713883e-13,5.982219572e-14,4.671136310e-14,2.910017398e-14,1.762663021e-14,5.738392199e-14,1.857580768e-14,7.782826603e-15,1.748924780e-14,1.861045779e-14,1.003744139e-14,6.586118686e-14,6.039830571e-13,1.227587634e-13,2.726733156e-13,2.213508217e-14,6.737488755e-14,8.809914832e-13,1.334755194e-14,1.716776184e-12,4.474368943e-13,1.950248323e-13
1.125,1.210393858e-12,5.104356367e-13,3.158897894e-13,1.253220659e-13,2.896431834e-14,6.731102011e-14,4.966484221e-13,1.172465147e-14,8.041535755e-15,1.032864696e-13,1.104429149e-13,5.976833673e-14,4.614930190e-14,2.793957271e-14,1.774369939e-14,5.946224895e-14,1.877207164e-14,9.396971891e-15,1.795995452e-14,2.178463464e-14,1.227610890e-14,6.814571056e-14,5.819648560e-13,1.191682255e-13,2.887850302e-13,1.908286855e-14,7.485860440e-14,9.279005645e-13,1.567634978e-14,1.784229043e-12,4.528546353e-13,1.876840083e-13
1.1328,1.258698067e-12,5.429334909e-13,2.838896519e-13,1.290867260e-13,2.503492256e-14,5.383636169e-14,4.553180440e-13,1.395783847e-14,7.869484141e-15,1.013103496e-13,1.080546544e-13,5.696490145e-14,4.610736657e-14,2.706755522e-14,1.947016683e-14,5.934421374e-14,2.016353492e-14,1.194213148e-14,1.807838358e-14,2.542174159e-14,1.591713448e-14,7.006713253e-14,5.519521097e-13,1.169039732e-13,3.158221915e-13,1.619930798e-14,9.041846611e-14,9.834978901e-13,1.912425151e-14,1.891491122e-12,4.697493949e-13,1.781134992e-13
1.1406,1.330265056e-12,5.881852219e-13,2.686768300e-13,1.374010311e-13,2.155212354e-14,4.421636709e-14,4.104726425e-13,1.572081382e-14,8.317241161e-15,9.498019983e-14,9.842638573e-14,5.058249964e-14,4.568808308e-14,2.680387263e-14,2.358357802e-14,5.608042491e-14,2.228512053e-14,1.449049833e-14,1.956483332e-14,2.884403019e-14,2.177984985e-14,6.942039155e-14,5.149580055e-13,1.163751971e-13,3.440515361e-13,1.446651970e-14,1.100507028e-13,1.024751444e-12,2.362997024e-14,1.968635962e-12,5.265764408e-13,1.704972483e-13
1.1484,1.420649178e-12,6.359488741e-13,2.632017832e-13,1.462901647e-13,1.795196331e-14,3.796821625e-14,3.679856164e-13,1.600257772e-14,8.327358847e-15,8.604453384e-14,8.437833242e-14,4.198494593e-14,4.295727027e-14,2.786582578e-14,2.986563106e-14,4.999974750e-14,2.483015140e-14,1.655122414e-14,2.239753002e-14,3.266814342e-14,3.034633947e-14,6.588774682e-14,4.666158681e-13,1.210497642e-13,3.747778429e-13,1.389637035e-14,1.342425375e-13,1.063536953e-12,2.948171042e-14,2.034531687e-12,5.436737403e-13,1.583854573e-13
1.1562,1.538835459e-12,6.877122199e-13,2.702032701e-13,1.559833979e-13,1.437864999e-14,3.680097271e-14,3.437629725e-13,1.574355339e-14,8.155763890e-15,7.618665939e-14,7.000719415e-14,3.353733467e-14,3.864330600e-14,2.934053891e-14,3.796437787e-14,4.296172250e-14,2.730191274e-14,1.791739889e-14,2.714477477e-14,3.835991240e-14,4.202039953e-14,5.963127589e-14,4.107937924e-13,1.341095766e-13,4.150618731e-13,1.453618338e-14,1.639856302e-13,1.119959546e-12,3.685194716e-14,2.118719368e-12,5.300391973e-13,1.399253328e-13
1.1641,1.634970477e-12,7.269826082e-13,2.818276231e-13,1.604829468e-13,1.242508730e-14,3.908369206e-14,3.387536771e-13,1.559448987e-14,8.260212456e-15,6.634190016e-14,5.771376977e-14,2.535389380e-14,3.514678268e-14,2.947954740e-14,4.682538227e-14,3.510734193e-14,2.910017468e-14,1.934357129e-14,3.267261228e-14,4.620644846e-14,5.452888330e-14,5.159125799e-14,3.626063668e-13,1.489874378e-13,4.512326619e-13,1.717716636e-14,1.923671807e-13,1.172176031e-12,4.364099120e-14,2.166855439e-12,5.610739064e-13,1.237362078e-13
1.1719,1.692118442e-12,7.425282045e-13,2.898244377e-13,1.566623727e-13,1.133266385e-14,4.381142430e-14,3.552423484e-13,1.467539375e-14,7.606466743e-15,5.841799228e-14,5.038031771e-14,1.834254550e-14,3.206412261e-14,2.923649603e-14,5.479588489e-14,2.658876286e-14,3.004565689e-14,2.000959107e-14,3.833284231e-14,5.436974991e-14,6.634090330e-14,4.289754835e-14,3.241497008e-13,1.624517580e-13,4.801968024e-13,2.298355557e-14,2.178745541e-13,1.214887866e-12,4.983276756e-14,2.178487791e-12,5.739733275e-13,1.082532598e-13
1.1797,1.735458076e-12,7.415143027e-13,3.017685948e-13,1.498040594e-13,1.044617784e-14,5.081209213e-14,3.943953851e-13,1.254605356e-14,6.258969144e-15,5.302824151e-14,5.056310524e-14,1.301919460e-14,3.076310193e-14,2.939793327e-14,6.037595438e-14,1.907952853e-14,3.024446990e-14,1.998013915e-14,4.425876961e-14,6.535165704e-14,7.805316289e-14,3.565758365e-14,2.987611263e-13,1.756042440e-13,5.084727466e-13,3.263851140e-14,2.437039364e-13,1.259970951e-12,5.717843006e-14,2.212690189e-12,5.181296483e-13,8.996980349e-14
1.1875,1.741095724e-12,7.269007965e-13,3.103434679e-13,1.409026862e-13,1.086621463e-14,5.715789791e-14,4.458084282e-13,1.053203284e-14,5.283680315e-15,5.050941585e-14,5.757845614e-14,9.663420896e-15,3.265195577e-14,2.873277248e-14,6.359441077e-14,1.351291105e-14,3.124630423e-14,2.155468722e-14,4.760671052e-14,7.952170417e-14,8.535038003e-14,3.148115325e-14,2.979826860e-13,1.802271825e-13,5.219539880e-13,4.417702957e-14,2.607572249e-13,1.278139040e-12,6.277923678e-14,2.220571108e-12,4.938509437e-13,7.670399045e-14
1.1953,1.683650251e-12,6.877707645e-13,3.109453146e-13,1.269144662e-13,1.211707180e-14,6.181120884e-14,5.016484811e-13,9.403745858e-15,4.600968163e-15,5.055511201e-14,7.202090425e-14,8.183674724e-15,3.633334465e-14,2.593793265e-14,6.370500982e-14,9.518694286e-15,3.147984916e-14,2.387691078e-14,4.683887453e-14,8.961830214e-14,8.405976841e-14,3.104678476e-14,3.217129769e-13,1.688647332e-13,5.020558546e-13,5.481498406e-14,2.570742903e-13,1.227582044e-12,6.216176965e-14,2.150746297e-12,4.888821902e-13,7.043204036e-14
1.2031,1.625984341e-12,6.422969121e-13,3.136209616e-13,1.144635044e-13,1.267206982e-14,6.733515361e-14,5.608297859e-13,8.430931859e-15,3.724200858e-15,5.201514133e-14,9.293066910e-14,8.254615472e-15,4.090383614e-14,2.235100176e-14,5.900177107e-14,7.724594588e-15,3.028798377e-14,2.559431835e-14,4.364364674e-14,9.378464302e-14,7.790229412e-14,3.411541176e-14,3.558452309e-13,1.583493715e-13,4.729364288e-13,6.552652273e-14,2.425567742e-13,1.163175980e-12,5.888629750e-14,2.097679718e-12,4.177910755e-13,6.644096260e-14
1.2109,1.568787861e-12,5.999859300e-13,3.180329224e-13,1.063555702e-13,1.420195558e-14,7.281976577e-14,6.117922092e-13,7.068736116e-15,3.422786430e-15,5.415678485e-14,1.152326623e-13,9.074273160e-15,4.548942858e-14,2.008847283e-14,5.300680556e-14,7.834676941e-15,2.903269763e-14,2.773499604e-14,3.812885838e-14,9.632060576e-14,6.900022080e-14,3.926306904e-14,4.030757769e-13,1.484890366e-13,4.355991664e-13,7.703934956e-14,2.215889788e-13,1.084979368e-12,5.571401177e-14,2.042483204e-12,3.552061077e-13,6.851537277e-14
1.2188,1.477009509e-12,5.513525594e-13,3.244567486e-13,9.687351130e-14,1.638527096e-14,7.696858023e-14,6.433167080e-13,5.973879206e-15,3.434901721e-15,5.692718532e-14,1.390194112e-13,1.049921802e-14,4.786450528e-14,1.698891082e-14,4.482775864e-14,9.952757267e-15,2.648686471e-14,2.937296746e-14,3.092001849e-14,9.475016881e-14,5.648308058e-14,4.484897651e-14,4.518672490e-13,1.374826507e-13,3.802704557e-13,8.275404124e-14,1.846121412e-13,9.639198919e-13,4.771779823e-14,1.917223152e-12,3.427922004e-13,7.633887643e-14
1.2266,1.402034309e-12,5.074844714e-13,3.409599926e-13,8.980678657e-14,1.624690221e-14,8.336659623e-14,6.593800099e-13,5.874667295e-15,3.200395559e-15,5.775375963e-14,1.613639929e-13,1.172250242e-14,4.736362608e-14,1.227838130e-14,3.603226777e-14,1.418880122e-14,2.243702211e-14,2.839270525e-14,2.354515380e-14,8.495846689e-14,4.263108728e-14,4.908018728e-14,4.746434833e-13,1.366487053e-13,3.335304979e-13,7.895738492e-14,1.438002805e-13,8.617857882e-13,3.611047067e-14,1.826471233e-12,3.034501087e-13,7.978433067e-14
1.2344,1.343733734e-12,4.716875051e-13,3.640065108e-13,8.629428684e-14,1.541377917e-14,9.061201288e-14,6.578722963e-13,6.181163208e-15,3.162196667e-15,5.698139003e-14,1.811696799e-13,1.270361625e-14,4.431608812e-14,9.212025599e-15,2.969985931e-14,2.057626302e-14,1.769019147e-14,2.548664901e-14,1.799837819e-14,7.052453655e-14,3.137228720e-14,5.073087671e-14,4.764602117e-13,1.469211116e-13,3.071090738e-13,7.258786910e-14,1.120892466e-13,8.036964153e-13,2.628071351e-14,1.783056387e-12,2.715641660e-13,8.236723343e-14
1.2422,1.258250373e-12,4.368159289e-13,3.877839686e-13,8.090339961e-14,1.569239610e-14,9.409965594e-14,6.288594402e-13,5.805967757e-15,3.605878575e-15,5.485193924e-14,1.961614319e-13,1.371595405e-14,3.966528766e-14,8.891721289e-15,2.767984267e-14,2.928625671e-14,1.344475545e-14,2.261665424e-14,1.539935762e-14,5.862576761e-14,2.427116009e-14,4.895878324e-14,4.660977503e-13,1.568809196e-13,2.914113760e-13,6.567436967e-14,9.109612591e-14,7.574450851e-13,1.878911124e-14,1.708791631e-12,2.989449759e-13,8.833968259e-14
1.25,1.169241428e-12,4.031477834e-13,4.047654847e-13,7.511449495e-14,1.480488485e-14,9.423935738e-14,5.762657998e-13,5.395665374e-15,3.925002445e-15,5.088184945e-14,2.070677189e-13,1.531722572e-14,3.419227472e-14,1.022788545e-14,3.119393915e-14,4.123889661e-14,1.024333254e-14,2.016195093e-14,1.584582601e-14,5.065806511e-14,2.004792380e-14,4.447894282e-14,4.339280420e-13,1.698908825e-13,2.886888160e-13,5.384227348e-14,8.045171496e-14,7.371163180e-13,1.246907277e-14,1.654866683e-12,2.976212011e-13,8.737364869e-14
1.2578,1.093932308e-12,3.745084778e-13,4.130642007e-13,7.150206716e-14,1.346668894e-14,9.175382398e-14,5.153164272e-13,6.026177329e-15,4.587029384e-15,4.567809956e-14,2.159114465e-13,1.819874565e-14,2.875772564e-14,1.460610221e-14,4.253441180e-14,5.767827658e-14,7.440846357e-15,1.711807797e-14,1.951520956e-14,4.297762545e-14,1.912067159e-14,3.841534627e-14,3.823451801e-13,1.872631997e-13,3.033998037e-13,3.990172527e-14,8.086873814e-14,7.548561564e-13,7.996959613e-15,1.646869468e-12,2.832084471e-13,8.123194253e-14
1.2656,1.006380966e-12,3.476385298e-13,3.989371155e-13,6.617612809e-14,1.455440195e-14,8.398577362e-14,4.446304006e-13,6.614386935e-15,6.438297092e-15,3.961814195e-14,2.150049081e-13,2.246976374e-14,2.624748300e-14,2.403168805e-14,6.059047691e-14,7.395944622e-14,6.753997226e-15,1.643205057e-14,2.570116830e-14,3.541179323e-14,1.842130212e-14,3.294909826e-14,3.423252796e-13,1.874499596e-13,3.095139518e-13,2.998794778e-14,8.255776385e-14,7.540206578e-13,5.256325361e-15,1.584982547e-12,3.289941651e-13,8.192454991e-14
1.2734,9.219950212e-13,3.230386199e-13,3.647669912e-13,5.974184256e-14,1.612023027e-14,7.042497252e-14,3.673973698e-13,5.839111330e-15,9.014508167e-15,3.175026047e-14,2.043239244e-13,2.791397407e-14,2.715022042e-14,3.753194748e-14,8.607244816e-14,9.265412959e-14,7.098888688e-15,1.959016739e-14,3.516856166e-14,3.317827068e-14,1.754584942e-14,2.918907281e-14,3.097210991e-13,1.774389794e-13,3.074620155e-13,2.341055478e-14,8.568087413e-14,7.392449054e-13,3.636489590e-15,1.496855261e-12,3.418002260e-13,8.257742447e-14
1.2812,8.960752165e-13,3.127943528e-13,3.366746246e-13,5.688491179e-14,1.818637402e-14,5.953460876e-14,3.129459360e-13,5.375126587e-15,1.322873239e-14,2.572201470e-14,1.952487286e-13,3.600542140e-14,3.253551438e-14,5.429445150e-14,1.209541691e-13,1.163846655e-13,9.288704228e-15,2.711687766e-14,4.735805562e-14,3.880362780e-14,1.850622507e-14,2.888922606e-14,2.815909495e-13,1.698537810e-13,3.052118483e-13,1.960622794e-14,9.034295662e-14,7.359872183e-13,3.184270239e-15,1.459597970e-12,2.983438659e-13,8.177275244e-14
1.2891,9.003656541e-13,3.146092041e-13,3.137131300e-13,5.551154762e-14,2.228194400e-14,5.247253750e-14,2.777967298e-13,5.810728977e-15,1.911049560e-14,2.048345854e-14,1.772042331e-13,4.342959249e-14,4.354480973e-14,7.337189891e-14,1.569489364e-13,1.352999935e-13,1.339310914e-14,3.779884462e-14,5.835361111e-14,4.519678321e-14,1.884546004e-14,3.290857194e-14,2.741756464e-13,1.530914260e-13,2.908929183e-13,1.911368341e-14,8.802848091e-14,7.094442037e-13,3.003181420e-15,1.404322005e-12,3.153148923e-13,9.007936434e-14
1.2969,9.589243385e-13,3.353538734e-13,3.116383047e-13,5.766505938e-14,2.538875246e-14,5.106711112e-14,2.663272567e-13,5.891850249e-15,2.402362810e-14,1.584903412e-14,1.491294521e-13,4.801034266e-14,5.824154083e-14,9.414370361e-14,1.870390671e-13,1.455920518e-13,1.725055942e-14,5.005914297e-14,6.699721483e-14,4.893307461e-14,1.657789327e-14,4.105568060e-14,2.817832368e-13,1.274536682e-13,2.615309187e-13,2.001411983e-14,7.924838444e-14,6.614481435e-13,2.818351278e-15,1.355295375e-12,3.363668762e-13,1.013680221e-13
1.3047,1.097884247e-12,3.808142126e-13,3.460322461e-13,6.677213265e-14,2.493956761e-14,5.806750577e-14,2.839104849e-13,5.534633720e-15,2.803746636e-14,1.250355201e-14,1.209619001e-13,5.032573960e-14,7.550090317e-14,1.110775625e-13,2.114767528e-13,1.517238876e-13,2.179447489e-14,6.614082023e-14,7.496542377e-14,5.679866299e-14,1.473854258e-14,5.217751799e-14,2.908220520e-13,1.069991174e-13,2.330354520e-13,2.155329435e-14,7.324200119e-14,6.300626803e-13,3.252876106e-15,1.391330267e-12,2.956369328e-13,1.076084326e-13
1.3125,1.273249383e-12,4.453756191e-13,4.046921272e-13,8.093942913e-14,2.445813204e-14,7.249424538e-14,3.164325446e-13,5.773084300e-15,3.274007929e-14,1.073371615e-14,9.592404867e-14,4.984026925e-14,9.480055171e-14,1.188966212e-13,2.257217593e-13,1.510564307e-13,2.767906168e-14,8.489571205e-14,7.992154432e-14,6.823228293e-14,1.391966353e-14,6.519887269e-14,3.131329396e-13,8.932756369e-14,2.052165310e-13,2.594193970e-14,6.780977202e-14,6.016194824e-13,3.983873057e-15,1.459188654e-12,3.050742444e-13,1.207028809e-13
1.3203,1.476854645e-12,5.275007285e-13,4.882730102e-13,1.014960932e-13,2.396003326e-14,9.459338480e-14,3.593597787e-13,6.958544813e-15,3.525616403e-14,1.031971248e-14,7.388318758e-14,4.494216576e-14,1.116692412e-13,1.202928194e-13,2.232732196e-13,1.376975667e-13,3.142794520e-14,9.879144534e-14,7.847317729e-14,7.374551549e-14,1.262833437e-14,7.797309300e-14,3.437695243e-13,7.328977755e-14,1.726270790e-13,3.006222233e-14,6.039391954e-14,5.699526490e-13,5.210291301e-15,1.541639669e-12,3.461040896e-13,1.356890737e-13
1.3281,1.706557743e-12,6.147987854e-13,5.824280421e-13,1.264934713e-13,1.993550041e-14,1.208275073e-13,4.064693602e-13,9.066673386e-15,3.288125915e-14,1.184459460e-14,5.986183033e-14,3.724381341e-14,1.210084115e-13,1.163646273e-13,2.056149126e-13,1.173628266e-13,3.242759692e-14,1.065485982e-13,7.356904470e-14,7.419187209e-14,1.167694689e-14,8.826164788e-14,3.601334632e-13,6.659804306e-14,1.463015723e-13,3.086421369e-14,5.693614005e-14,5.586960625e-13,7.009391941e-15,1.681204046e-12,3.146792726e-13,1.366166075e-13
1.3359,1.897207172e-12,6.950548778e-13,6.590115527e-13,1.507717484e-13,1.491053508e-14,1.450152736e-13,4.408819828e-13,1.177084310e-14,2.886724486e-14,1.515511910e-14,5.218128340e-14,2.907219340e-14,1.245140672e-13,1.038068660e-13,1.800987546e-13,9.540364489e-14,3.243267922e-14,1.119704130e-13,6.704871235e-14,7.463726856e-14,1.261505976e-14,9.464514872e-14,3.716695083e-13,6.897251210e-14,1.298108746e-13,3.196566386e-14,5.635285408e-14,5.616815829e-13,8.564495846e-15,1.809816407e-12,3.123947304e-13,1.350961412e-13
1.3438,1.996491126e-12,7.544099087e-13,7.041127462e-13,1.705511318e-13,1.169701740e-14,1.628500428e-13,4.549311729e-13,1.442508570e-14,2.545478039e-14,1.993706533e-14,4.895528954e-14,2.165649440e-14,1.228341682e-13,8.513774959e-14,1.500407937e-13,7.289021684e-14,3.053442313e-14,1.109976844e-13,5.849435618e-14,7.280855846e-14,1.593140188e-14,9.532417486e-14,3.806172464e-13,7.983334345e-14,1.229496919e-13,3.466242048e-14,5.638707828e-14,5.669215767e-13,9.544541566e-15,1.861699669e-12,3.644189796e-13,1.371549997e-13
1.3516,2.012181601e-12,7.751099041e-13,7.109186212e-13,1.820233242e-13,8.723335093e-15,1.702953814e-13,4.455882422e-13,1.742782118e-14,2.058987844e-14,2.513831634e-14,4.725625797e-14,1.549167556e-14,1.121666928e-13,6.859938477e-14,1.207911808e-13,5.158563735e-14,2.675101343e-14,1.000970490e-13,4.904794533e-14,6.502986483e-14,2.160462143e-14,9.067479500e-14,3.657247448e-13,1.011737059e-13,1.291121390e-13,3.503243618e-14,5.997842322e-14,5.840554511e-13,1.050027234e-14,1.884148649e-12,3.410896596e-13,1.262549546e-13
1.3594,1.931713646e-12,7.559027725e-13,6.732579200e-13,1.831668248e-13,5.928357790e-15,1.661067778e-13,4.172587858e-13,2.150365343e-14,1.477620830e-14,3.017016944e-14,4.591201515e-14,1.121890716e-14,9.484965478e-14,5.456645313e-14,9.664154592e-14,3.508388658e-14,2.301704652e-14,8.466851413e-14,4.135538528e-14,5.446790451e-14,2.979669456e-14,8.138756302e-14,3.313002291e-13,1.301549837e-13,1.495824520e-13,3.311065816e-14,6.689912241e-14,6.114735861e-13,1.115782849e-14,1.863316872e-12,3.111193227e-13,1.064388053e-13
1.3672,1.742232805e-12,7.039253642e-13,5.953062117e-13,1.733618853e-13,4.581309144e-15,1.493949416e-13,3.704177259e-13,2.490666193e-14,1.100686577e-14,3.376720248e-14,4.261954949e-14,8.859966783e-15,7.918085721e-14,4.303234854e-14,8.138460606e-14,2.421217688e-14,2.112173589e-14,7.075097733e-14,3.665438278e-14,4.602716395e-14,4.036590406e-14,6.869217845e-14,2.960404601e-13,1.608557829e-13,1.798185330e-13,3.178452897e-14,7.586819296e-14,6.364801114e-13,1.153749059e-14,1.750654320e-12,3.567485423e-13,9.356076576e-14
1.375,1.504658517e-12,6.284959798e-13,4.990220998e-13,1.573377249e-13,3.708679156e-15,1.253307113e-13,3.188941861e-13,2.578065324e-14,8.869910179e-15,3.500609513e-14,3.898905758e-14,7.594793490e-15,6.438457695e-14,3.551597008e-14,7.228824290e-14,1.709315918e-14,2.112897173e-14,5.660137435e-14,3.453784399e-14,3.906158456e-14,5.359331408e-14,5.537115529e-14,2.583564851e-13,1.940715917e-13,2.137137420e-13,3.193287426e-14,8.574180886e-14,6.593412523e-13,1.196300766e-14,1.614581417e-12,3.467971908e-13,8.121535043e-14
1.3828,1.277171047e-12,5.437412257e-13,4.028801797e-13,1.403727602e-13,2.918904429e-15,9.987838613e-14,2.735899718e-13,2.530382967e-14,7.934996239e-15,3.350166144e-14,3.764867762e-14,7.191921688e-15,5.057280336e-14,3.244829623e-14,6.754172424e-14,1.358493305e-14,2.393344105e-14,4.489360378e-14,3.520424003e-14,3.199200191e-14,6.702791740e-14,4.370871208e-14,2.173474220e-13,2.240693083e-13,2.474183179e-13,3.144298850e-14,9.662813905e-14,6.863519656e-13,1.348565031e-14,1.509654770e-12,2.937832224e-13,6.601626265e-14
1.3906,1.093505780e-12,4.732283973e-13,3.226417864e-13,1.265055897e-13,3.036585834e-15,7.816131217e-14,2.417852489e-13,2.532520387e-14,8.425798236e-15,3.006318745e-14,3.991084409e-14,7.179057764e-15,4.207645005e-14,2.931724538e-14,6.462768812e-14,1.181687002e-14,2.890666721e-14,3.936415987e-14,3.657442357e-14,2.576903867e-14,7.599244502e-14,3.571381883e-14,1.952898548e-13,2.381452765e-13,2.682933102e-13,2.984437144e-14,1.026088298e-13,7.015388334e-13,1.586174398e-14,1.410234755e-12,3.148587148e-13,6.070663104e-14
1.3984,9.721690055e-13,4.226519319e-13,2.652100916e-13,1.177581982e-13,3.130760920e-15,6.217841628e-14,2.238275709e-13,2.438528530e-14,8.714277307e-15,2.482711212e-14,4.487157407e-14,6.697248766e-15,3.750524475e-14,2.612953841e-14,6.162875916e-14,1.037868277e-14,3.430928800e-14,3.835468407e-14,3.762327321e-14,2.212793041e-14,7.995927790e-14,3.218807596e-14,1.886177155e-13,2.381480901e-13,2.755471804e-13,2.813201918e-14,1.034250324e-13,7.042637678e-13,1.936691179e-14,1.345086347e-12,3.185527966e-13,5.984424397e-14
1.4062,9.374680420e-13,3.940802380e-13,2.366239099e-13,1.154021562e-13,3.067090671e-15,5.424083392e-14,2.206068687e-13,2.112796072e-14,8.722653089e-15,1.842026199e-14,5.156646793e-14,5.562168089e-15,3.483245237e-14,2.396450012e-14,5.499803709e-14,9.007883253e-15,4.021764050e-14,4.025490772e-14,3.894556659e-14,2.144358071e-14,8.119093292e-14,3.296086609e-14,1.905263793e-13,2.332643228e-13,2.760187822e-13,2.733948099e-14,1.020362451e-13,7.175672910e-13,2.506799447e-14,1.357410154e-12,2.617260171e-13,5.910612161e-14
1.4141,9.440752706e-13,3.826839903e-13,2.235790959e-13,1.153321983e-13,3.860767238e-15,5.155769992e-14,2.197748049e-13,1.705426402e-14,1.007030973e-14,1.296608961e-14,5.459455668e-14,4.413930512e-15,3.523215989e-14,2.168156512e-14,4.930623013e-14,8.859031864e-15,4.694231189e-14,4.545438462e-14,3.859305216e-14,2.166420756e-14,7.735989786e-14,3.670142617e-14,2.082129940e-13,2.143788605e-13,2.642223858e-13,2.638441560e-14,9.672852489e-14,7.184458675e-13,3.087777180e-14,1.376364364e-12,2.652279851e-13,6.579121969e-14
1.4219,9.593631990e-13,3.769477020e-13,2.147368891e-13,1.134126586e-13,4.798956359e-15,5.169314150e-14,2.146758454e-13,1.431410911e-14,1.112511032e-14,9.649864701e-15,5.692389914e-14,3.832248532e-15,3.606300924e-14,1.951474466e-14,4.443878063e-14,8.019963606e-15,4.867771898e-14,4.827279941e-14,3.382656619e-14,1.998801747e-14,6.521190944e-14,4.148916551e-14,2.304615596e-13,1.808763762e-13,2.406458151e-13,2.302838204e-14,8.555058307e-14,6.987378258e-13,3.562968176e-14,1.382490167e-12,2.829538506e-13,7.258241827e-14
1.4297,9.829221442e-13,3.693828905e-13,2.104783168e-13,1.099665673e-13,5.781556165e-15,5.423038970e-14,2.102282707e-13,1.246250968e-14,1.054383681e-14,7.784359352e-15,5.781540698e-14,3.327310320e-15,3.528141710e-14,1.889570688e-14,3.758401630e-14,6.998598643e-15,4.628025029e-14,4.579007973e-14,2.753058665e-14,1.796084465e-14,5.141123431e-14,4.602696946e-14,2.413302552e-13,1.542702783e-13,2.214525077e-13,1.894391140e-14,7.611520116e-14,6.907469294e-13,4.170257495e-14,1.421282127e-12,2.392633675e-13,7.213077648e-14
1.4375,9.658923786e-13,3.520718751e-13,1.955031707e-13,1.017323623e-13,7.861982904e-15,5.351699212e-14,1.964022113e-13,1.066762610e-14,1.037243179e-14,7.765371839e-15,5.375833857e-14,3.134659531e-15,3.473009834e-14,1.968151739e-14,3.213216596e-14,6.885673703e-15,4.340727885e-14,4.216637469e-14,2.194988668e-14,1.789879041e-14,3.977005790e-14,4.883249468e-14,2.535194873e-13,1.325334161e-13,2.048666022e-13,1.654907262e-14,6.836395328e-14,6.722578853e-13,4.622387555e-14,1.419868492e-12,2.328503873e-13,7.451907430e-14
1.4453,8.979482898e-13,3.251625252e-13,1.716391277e-13,8.840791082e-14,9.719058243e-15,5.048377080e-14,1.788323600e-13,9.191311974e-15,1.084793725e-14,9.507634218e-15,4.953799254e-14,3.645881718e-15,3.396386728e-14,1.910825693e-14,2.786085233e-14,7.722515185e-15,3.793548067e-14,3.704497205e-14,1.642364412e-14,1.844780493e-14,2.850031984e-14,4.935069603e-14,2.647674744e-13,1.113686745e-13,1.859552730e-13,1.469215073e-14,5.859081616e-14,6.269165026e-13,4.576907107e-14,1.355424089e-12,2.584699662e-13,7.925922247e-14
1.4531,8.280528875e-13,2.957564093e-13,1.542114500e-13,7.660127396e-14,1.026070121e-14,4.963289730e-14,1.694057557e-13,8.379391906e-15,9.865684978e-15,1.132847261e-14,4.882737853e-14,4.532611921e-15,3.140233017e-14,1.821451275e-14,2.254835647e-14,9.253082949e-15,3.012201142e-14,2.904739191e-14,1.170158805e-14,1.808451811e-14,1.855845369e-14,4.762319602e-14,2.567872806e-13,1.009062892e-13,1.724151176e-13,1.169062825e-14,5.037791993e-14,5.828382901e-13,4.316518751e-14,1.306664850e-12,2.243509559e-13,7.544845845e-14
1.4609,7.601900933e-13,2.688064017e-13,1.446059083e-13,6.836123725e-14,1.155061674e-14,4.901221330e-14,1.658410974e-13,8.505332955e-15,8.017725695e-15,1.304420370e-14,4.929973045e-14,5.479030341e-15,2.833304446e-14,1.777372003e-14,1.735009507e-14,1.117842729e-14,2.315520141e-14,2.117933010e-14,9.125953736e-15,1.766884712e-14,1.272588005e-14,4.369340658e-14,2.416648840e-13,9.970205088e-14,1.648572401e-13,1.009035453e-14,4.684444332e-14,5.423951505e-13,4.062451035e-14,1.258989573e-12,2.010810324e-13,7.139016406e-14
1.4688,6.960053021e-13,2.520928758e-13,1.480011609e-13,6.568577854e-14,1.282310527e-14,5.062769781e-14,1.716311787e-13,9.559327488e-15,6.900231607e-15,1.444110265e-14,5.188478993e-14,6.332199777e-15,2.614394081e-14,1.512006336e-14,1.279413155e-14,1.257356446e-14,1.835321489e-14,1.574552240e-14,8.140445531e-15,1.863580520e-14,9.682674173e-15,3.832843558e-14,2.298825807e-13,1.008171188e-13,1.576905060e-13,1.037324585e-14,4.517198255e-14,4.939636691e-13,3.680091125e-14,1.184959334e-12,2.245929542e-13,7.312909465e-14
1.4766,6.657806159e-13,2.477386902e-13,1.656885987e-13,6.996149681e-14,1.179138901e-14,5.516060058e-14,1.865569101e-13,1.069598942e-14,6.158599320e-15,1.542474826e-14,5.693326061e-14,7.424211643e-15,2.318531740e-14,1.141947843e-14,9.119095358e-15,1.353333263e-14,1.446067591e-14,1.246342310e-14,8.363900296e-15,2.178140022e-14,8.527282038e-15,3.232781235e-14,2.072635442e-13,1.088125850e-13,1.549646170e-13,1.016537451e-14,4.765013287e-14,4.567370330e-13,3.260779198e-14,1.148498216e-12,2.117795808e-13,6.867445010e-14
1.4844,6.750840770e-13,2.576315799e-13,1.932781232e-13,8.069582532e-14,1.039545306e-14,6.244796346e-14,2.092773680e-13,1.117499561e-14,5.070964145e-15,1.598972056e-14,6.405002693e-14,8.535310554e-15,1.968591846e-14,8.007235741e-15,5.675270073e-15,1.494968440e-14,1.220769152e-14,1.105547998e-14,1.023773466e-14,2.496598503e-14,9.779550464e-15,2.606808596e-14,1.782939280e-13,1.242451495e-13,1.585114980e-13,9.950026924e-15,5.553364922e-14,4.409098955e-13,3.151615276e-14,1.160308262e-12,2.003298738e-13,6.179319687e-14
1.4922,6.911199593e-13,2.758615856e-13,2.166752617e-13,9.328938414e-14,9.883896541e-15,6.874756237e-14,2.290272472e-13,1.160822784e-14,4.286613217e-15,1.652327651e-14,6.903213459e-14,9.403265632e-15,1.819116656e-14,5.209721599e-15,3.951512089e-15,1.510321499e-14,1.211245641e-14,1.180988617e-14,1.305824446e-14,2.585169135e-14,1.311023578e-14,2.108580476e-14,1.613739354e-13,1.376716156e-13,1.620366269e-13,1.123054279e-14,6.605811438e-14,4.322479825e-13,3.464483362e-14,1.164589211e-12,2.401383091e-13,6.136874958e-14
1.5,7.212776878e-13,2.951255568e-13,2.324290003e-13,1.049945884e-13,8.869030479e-15,7.478319364e-14,2.475713367e-13,1.298778338e-14,3.878224884e-15,1.884267346e-14,7.676800385e-14,1.189948290e-14,1.699234872e-14,3.280132860e-15,3.782535688e-15,1.526607099e-14,1.196610221e-14,1.310506699e-14,1.589832295e-14,2.676520436e-14,1.790373525e-14,1.814105594e-14,1.540484944e-13,1.501767570e-13,1.640309120e-13,1.421436061e-14,7.725432923e-14,4.293473426e-13,4.175214163e-14,1.190045490e-12,2.432143052e-13,6.018756273e-14
1.5078,7.618013353e-13,3.130414080e-13,2.419731151e-13,1.143936523e-13,7.704926009e-15,7.953495887e-14,2.637266640e-13,1.385912597e-14,4.015234722e-15,2.203409544e-14,8.563144593e-14,1.517397385e-14,1.642698537e-14,2.298004276e-15,4.586391262e-15,1.765287884e-14,1.283802171e-14,1.642099524e-14,2.087151320e-14,2.974186045e-14,2.559731496e-14,1.711192228e-14,1.562224071e-13,1.664892345e-13,1.658775043e-13,1.830342302e-14,8.868249924e-14,4.398736385e-13,5.235384157e-14,1.242057806e-12,2.199016562e-13,5.761277177e-14
1.5156,7.730615164e-13,3.227235374e-13,2.380153333e-13,1.172640211e-13,7.808013748e-15,7.921997642e-14,2.682344345e-13,1.334093448e-14,4.497340459e-15,2.543636330e-14,9.073523859e-14,1.871985058e-14,1.849367688e-14,2.586456849e-15,6.768835069e-15,2.119347719e-14,1.547231505e-14,2.178684967e-14,2.639305149e-14,3.024481593e-14,3.280139601e-14,1.879261610e-14,1.788561993e-13,1.701295683e-13,1.590399735e-13,2.258382191e-14,9.288356015e-14,4.367516319e-13,6.292859646e-14,1.240116833e-12,2.422875848e-13,6.215097019e-14
1.5234,7.597088689e-13,3.196766158e-13,2.235942760e-13,1.124281094e-13,8.112781545e-15,7.448407906e-14,2.616819423e-13,1.293899493e-14,4.395455388e-15,2.945599607e-14,9.330504700e-14,2.300384731e-14,2.112662260e-14,3.964582080e-15,1.026995110e-14,2.537674595e-14,1.879579005e-14,2.691123438e-14,3.034034887e-14,2.640591264e-14,3.756593080e-14,2.185267202e-14,2.076166364e-13,1.618911697e-13,1.439664306e-13,2.576408936e-14,9.023102186e-14,4.239953387e-13,7.391802775e-14,1.199654143e-12,2.458309601e-13,6.590047411e-14
1.5312,7.391391401e-13,3.056288150e-13,2.133769875e-13,1.035093357e-13,8.376587726e-15,6.899048073e-14,2.514796917e-13,1.344770916e-14,3.998952240e-15,3.385145635e-14,9.508613771e-14,2.768938245e-14,2.444969576e-14,5.846869665e-15,1.497538028e-14,3.096399165e-14,2.359431675e-14,3.210480351e-14,3.244382429e-14,2.188056412e-14,4.103513822e-14,2.579772588e-14,2.388040412e-13,1.496852833e-13,1.247419092e-13,2.903226618e-14,8.472416346e-14,4.098688415e-13,8.659226585e-14,1.149978965e-12,1.959534175e-13,6.441978421e-14
1.5391,6.895470623e-13,2.816631032e-13,2.051283775e-13,9.053051242e-14,9.806537911e-15,6.101290203e-14,2.314881651e-13,1.301950697e-14,4.015933647e-15,3.609125414e-14,8.961745974e-14,3.103072461e-14,2.866051501e-14,8.458816405e-15,2.062542839e-14,3.716090464e-14,3.112591017e-14,3.840370678e-14,3.308417091e-14,1.892850365e-14,4.266041415e-14,2.922386650e-14,2.742069164e-13,1.312848237e-13,1.020794407e-13,3.194021422e-14,7.470564418e-14,3.808345861e-13,9.599387133e-14,1.045031492e-12,1.728697510e-13,6.548319509e-14
1.5469,6.192243637e-13,2.519892810e-13,2.003022659e-13,7.563030436e-14,1.053731244e-14,5.257033112e-14,2.052207138e-13,1.135467379e-14,3.984870109e-15,3.583399931e-14,7.925633812e-14,3.253227648e-14,3.220308476e-14,1.207378700e-14,2.511432663e-14,4.087992693e-14,3.927437168e-14,4.373062589e-14,3.128147955e-14,1.515055243e-14,3.971738483e-14,3.175721381e-14,2.976682506e-13,1.043767435e-13,7.681574401e-14,3.114628252e-14,6.002436059e-14,3.390908371e-13,9.960426401e-14,8.914629086e-13,1.681963396e-13,6.554211345e-14
1.5547,5.557718164e-13,2.214963253e-13,2.041879448e-13,6.448899152e-14,9.872288367e-15,4.774176719e-14,1.828462607e-13,1.013999803e-14,3.671712391e-15,3.442874600e-14,6.773364326e-14,3.268682046e-14,3.396037676e-14,1.633197175e-14,2.891132973e-14,4.430511250e-14,5.006075346e-14,4.754798814e-14,2.667925589e-14,1.188342837e-14,3.395247417e-14,3.303766160e-14,2.995796815e-13,7.931760858e-14,5.530619313e-14,2.768149964e-14,4.676278314e-14,2.973997544e-13,1.021479277e-13,7.445277870e-13,1.321873660e-13,5.781265201e-14
1.5625,4.929930812e-13,1.930211398e-13,2.095521993e-13,5.827938942e-14,9.765259356e-15,4.567991434e-14,1.639769517e-13,9.275466810e-15,3.611728443e-15,3.132674381e-14,5.572404237e-14,3.109409502e-14,3.430549928e-14,1.965083301e-14,3.178007029e-14,4.736948808e-14,6.345908974e-14,5.333080941e-14,2.191303682e-14,1.151471086e-14,2.829648284e-14,3.279153295e-14,2.958822932e-13,5.871168357e-14,3.836053203e-14,2.515002444e-14,3.573436547e-14,2.519085333e-13,1.039527160e-13,6.032766794e-13,1.079243114e-13,5.028548851e-14
1.5703,4.327697316e-13,1.714728666e-13,2.112541852e-13,5.807078839e-14,9.488870911e-15,4.736397100e-14,1.534809753e-13,7.981431347e-15,3.882527980e-15,2.750278817e-14,4.625543900e-14,2.833248789e-14,3.406726313e-14,2.346545813e-14,3.358145724e-14,4.941087070e-14,7.745138467e-14,6.083837710e-14,1.872662163e-14,1.309114531e-14,2.314810012e-14,3.201007102e-14,2.864312251e-13,4.160194969e-14,2.690539222e-14,2.222329898e-14,2.559772114e-14,2.055759605e-13,1.008153079e-13,4.669743098e-13,1.096511694e-13,4.668931095e-14
1.5781,3.921736690e-13,1.587659295e-13,2.117188945e-13,6.482453503e-14,7.974613960e-15,5.240051165e-14,1.523088285e-13,6.599591000e-15,3.806258755e-15,2.376168849e-14,3.953414553e-14,2.429844939e-14,3.167294654e-14,2.803034454e-14,3.461372730e-14,4.982492265e-14,8.954730939e-14,6.732834276e-14,1.743303962e-14,1.624585004e-14,1.981910578e-14,3.107260677e-14,2.653458575e-13,3.035122150e-14,2.146967652e-14,1.836998787e-14,1.869047076e-14,1.684569832e-13,9.604281677e-14,3.705613755e-13,9.773397452e-14,4.255859312e-14
1.5859,3.648074141e-13,1.523135839e-13,2.061273781e-13,7.462773630e-14,6.672252408e-15,5.846626430e-14,1.586817464e-13,5.756918222e-15,3.758025528e-15,2.070478892e-14,3.648660402e-14,2.010603825e-14,2.874459000e-14,3.101202661e-14,3.475954797e-14,5.014757077e-14,1.008779512e-13,7.575865199e-14,1.895540603e-14,2.165436364e-14,1.894771539e-14,3.035809711e-14,2.455194941e-13,2.312349054e-14,2.018448981e-14,1.531886296e-14,1.369816126e-14,1.422742180e-13,8.802021555e-14,3.154539188e-13,9.476016650e-14,4.148060379e-14
1.5938,3.508378155e-13,1.545888321e-13,1.947085892e-13,8.522057299e-14,6.098567417e-15,6.397856273e-14,1.689493183e-13,5.556852248e-15,4.049332306e-15,1.867119942e-14,3.597484189e-14,1.620501225e-14,2.693346961e-14,3.200009112e-14,3.451716795e-14,4.920541750e-14,1.073244659e-13,8.486880793e-14,2.365836694e-14,2.910092923e-14,2.065351934e-14,2.948493012e-14,2.329343150e-13,1.907507069e-14,2.269748628e-14,1.327741944e-14,1.098769280e-14,1.349343758e-13,7.729824802e-14,2.984937301e-13,1.113354925e-13,4.549872351e-14
1.6016,3.483975543e-13,1.589175898e-13,1.776448277e-13,9.182659415e-14,5.683343520e-15,6.576463929e-14,1.767510471e-13,5.832076306e-15,3.825400944e-15,1.793557113e-14,3.586164825e-14,1.265491965e-14,2.414368711e-14,3.168357970e-14,3.391226862e-14,4.650593393e-14,1.060921167e-13,8.803967683e-14,2.908460550e-14,3.701597628e-14,2.288133202e-14,2.841446695e-14,2.192005094e-13,1.620004708e-14,2.783751467e-14,1.114185390e-14,1.047603485e-14,1.468470024e-13,6.628455445e-14,3.195011088e-13,1.071157570e-13,4.862142250e-14
1.6094,3.591848836e-13,1.664342462e-13,1.604651031e-13,9.343474994e-14,5.751732847e-15,6.410587248e-14,1.806704843e-13,6.367336344e-15,3.269410183e-15,1.835177978e-14,3.584529534e-14,1.008844718e-14,2.133838428e-14,3.013874178e-14,3.261516570e-14,4.215938606e-14,9.953684986e-14,8.588295512e-14,3.420605632e-14,4.556835252e-14,2.473207710e-14,2.694588017e-14,2.053272348e-13,1.579661930e-14,3.669353929e-14,8.846422734e-15,1.198342284e-14,1.782819423e-13,5.472383496e-14,3.713200982e-13,1.002255255e-13,5.164858852e-14
1.6172,3.789238521e-13,1.771727171e-13,1.462889245e-13,8.971930435e-14,6.513958213e-15,5.894617565e-14,1.775054851e-13,6.953403884e-15,3.113451706e-15,1.946336958e-14,3.468160223e-14,8.388111318e-15,2.014560382e-14,2.612210487e-14,3.051404199e-14,3.601912207e-14,9.091177872e-14,7.932093449e-14,3.883058814e-14,5.732205796e-14,2.636686316e-14,2.498729171e-14,1.974820707e-13,1.788450333e-14,4.786426455e-14,7.148971491e-15,1.515766493e-14,2.224632007e-13,4.287802101e-14,4.368222755e-13,1.131093717e-13,5.680646133e-14
1.625,4.030209254e-13,1.849398083e-13,1.332359654e-13,8.001488769e-14,7.108946713e-15,5.022486287e-14,1.648616595e-13,7.921947506e-15,3.172504051e-15,2.049606182e-14,3.104077422e-14,7.427709773e-15,1.994287172e-14,2.095091190e-14,2.908944679e-14,3.015427121e-14,8.453806629e-14,6.952496264e-14,4.214939587e-14,7.296681170e-14,2.657232341e-14,2.366655586e-14,1.882105119e-13,2.195255279e-14,6.022852317e-14,5.667745183e-15,1.904840752e-14,2.694485660e-13,3.233910902e-14,5.082724253e-13,1.106427744e-13,5.785508783e-14
1.6328,4.404337795e-13,1.937904119e-13,1.316713550e-13,6.823505712e-14,7.650804618e-15,4.117513230e-14,1.498225831e-13,9.335798706e-15,3.362976168e-15,2.165665893e-14,2.758968170e-14,7.137995216e-15,2.073066765e-14,1.638210841e-14,2.697085531e-14,2.474317154e-14,8.344310783e-14,5.675624278e-14,4.329629960e-14,9.121303834e-14,2.458294186e-14,2.348104262e-14,1.755400339e-13,2.824295349e-14,7.267368083e-14,4.179266266e-15,2.348860945e-14,3.132425646e-13,2.389355987e-14,5.867634347e-13,9.750123833e-14,5.477569370e-14
1.6406,4.803676160e-13,2.041003624e-13,1.331100606e-13,5.746917021e-14,8.364556856e-15,3.288353005e-14,1.327137231e-13,1.033834281e-14,3.977853231e-15,2.238523646e-14,2.370168511e-14,7.123679194e-15,2.386989755e-14,1.260380438e-14,2.595714416e-14,2.089640180e-14,9.326030725e-14,4.598758074e-14,4.313114851e-14,1.113622001e-13,2.219515148e-14,2.537368781e-14,1.674611465e-13,3.512697703e-14,8.276899159e-14,3.172832847e-15,2.754870270e-14,3.407389195e-13,1.708880678e-14,6.499133149e-13,1.032100145e-13,5.253418363e-14
1.6484,5.206833116e-13,2.119390705e-13,1.405327216e-13,4.915539407e-14,8.610663711e-15,2.591392037e-14,1.171366349e-13,1.078016498e-14,4.938490450e-15,2.202473239e-14,2.010636416e-14,7.303755297e-15,2.796375279e-14,1.001682477e-14,2.612312548e-14,1.908359237e-14,1.128901652e-13,4.061643026e-14,4.408330107e-14,1.365992610e-13,2.092078600e-14,2.953434275e-14,1.600946100e-13,4.292721835e-14,8.931206754e-14,2.587816061e-15,3.054689512e-14,3.518054327e-13,1.275007921e-14,7.036539321e-13,1.075811368e-13,4.968477386e-14
1.6562,5.683787865e-13,2.201928517e-13,1.581855231e-13,4.601099916e-14,8.243603067e-15,2.245559607e-14,1.115143459e-13,1.153295625e-14,6.242996874e-15,2.125301265e-14,1.911594166e-14,7.844661409e-15,3.244958125e-14,8.892740922e-15,2.523491607e-14,1.894424645e-14,1.398431493e-13,4.039741477e-14,4.686806565e-14,1.694875821e-13,2.027210415e-14,3.546102909e-14,1.505248569e-13,5.102036928e-14,9.144014652e-14,2.182741962e-15,3.205394716e-14,3.488707574e-13,1.030323025e-14,7.588065203e-13,1.020969917e-13,4.454067641e-14
1.6641,5.996326032e-13,2.247115189e-13,1.696523015e-13,4.696714580e-14,8.163040712e-15,2.151169372e-14,1.129182103e-13,1.252805045e-14,7.922871799e-15,2.080655045e-14,1.969253773e-14,8.924581697e-15,3.753950049e-14,8.602095156e-15,2.388834494e-14,2.000986499e-14,1.715577349e-13,4.592991727e-14,5.040728724e-14,2.017136104e-13,1.993316132e-14,4.204590199e-14,1.455037985e-13,5.386332097e-14,8.782185885e-14,2.294231006e-15,3.171809779e-14,3.255469474e-13,8.711244036e-15,7.887924521e-13,1.093526406e-13,4.084842908e-14
1.6719,6.158444076e-13,2.259820696e-13,1.761223231e-13,5.083474557e-14,8.027824813e-15,2.196609313e-14,1.196500509e-13,1.279820341e-14,9.485624414e-15,1.988691737e-14,2.118724120e-14,1.061702364e-14,4.107666009e-14,8.872148962e-15,2.251496416e-14,2.092113179e-14,1.978331299e-13,5.560132483e-14,5.459935144e-14,2.283315614e-13,2.027853604e-14,4.827824812e-14,1.432905951e-13,5.244789995e-14,8.110926628e-14,3.004266275e-15,3.023938966e-14,2.945886043e-13,8.228882735e-15,7.986127016e-13,1.183103210e-13,3.908464227e-14
1.6797,6.206485102e-13,2.221113429e-13,1.821752265e-13,5.602926652e-14,7.634667120e-15,2.342005304e-14,1.298674456e-13,1.267744189e-14,1.076863461e-14,1.904236268e-14,2.315278471e-14,1.321536327e-14,4.209022469e-14,9.967221182e-15,2.049898472e-14,2.223757303e-14,2.165812338e-13,6.830634257e-14,6.102524703e-14,2.530352805e-13,2.191052334e-14,5.360468833e-14,1.409294163e-13,4.886746139e-14,7.263585384e-14,4.574966287e-15,2.730531825e-14,2.618285044e-13,8.309973063e-15,7.940819730e-13,1.101452408e-13,3.629375080e-14
1.6875,6.045079839e-13,2.141423325e-13,1.769329848e-13,6.014851497e-14,7.799847955e-15,2.407816579e-14,1.391065333e-13,1.276607292e-14,1.207961633e-14,1.871208980e-14,2.495337182e-14,1.676378220e-14,4.281003596e-14,1.142240384e-14,1.910738745e-14,2.418124976e-14,2.276335065e-13,8.199760210e-14,6.866813990e-14,2.729925894e-13,2.407229699e-14,5.735385961e-14,1.425906704e-13,4.240034392e-14,6.366222496e-14,7.344983145e-15,2.427551103e-14,2.313570063e-13,9.094006655e-15,7.694576916e-13,1.043696297e-13,3.426849301e-14
1.6953,5.693950877e-13,2.032778586e-13,1.603490131e-13,6.215968606e-14,8.525965264e-15,2.373511243e-14,1.438602105e-13,1.296460888e-14,1.345727367e-14,1.927169287e-14,2.588709219e-14,2.148941961e-14,4.316795518e-14,1.308732108e-14,1.918997523e-14,2.631546243e-14,2.276811546e-13,9.374196648e-14,7.498137778e-14,2.817882805e-13,2.526721976e-14,5.937236742e-14,1.480134495e-13,3.401810788e-14,5.656422140e-14,1.140730916e-14,2.214497249e-14,2.081040667e-13,1.056927939e-14,7.192023858e-13,1.049000928e-13,3.400506210e-14
1.7031,5.213094759e-13,1.863524076e-13,1.386068352e-13,6.064236623e-14,9.663061311e-15,2.285103961e-14,1.424452459e-13,1.273079826e-14,1.409839200e-14,2.002879055e-14,2.697445317e-14,2.726706171e-14,4.126020284e-14,1.581860595e-14,2.174963730e-14,2.864657396e-14,2.171986231e-13,1.007200346e-13,7.872344336e-14,2.778294410e-13,2.526129836e-14,5.994130054e-14,1.535102594e-13,2.549745760e-14,5.072951190e-14,1.695586041e-14,2.000796773e-14,1.905636817e-13,1.241906630e-14,6.555455921e-13,9.282069118e-14,3.359232175e-14
1.7109,4.698453938e-13,1.671108013e-13,1.148134966e-13,5.600450035e-14,1.134338758e-14,2.192654504e-14,1.369170093e-13,1.233942283e-14,1.415274668e-14,2.097886595e-14,2.994275586e-14,3.308693472e-14,3.832962850e-14,1.876207859e-14,2.525899050e-14,3.011097841e-14,1.987972658e-13,1.011716230e-13,7.957637880e-14,2.619955307e-13,2.408539557e-14,5.918314681e-14,1.596906553e-13,1.852298564e-14,4.675607045e-14,2.343220775e-14,1.831316239e-14,1.791335219e-13,1.452935948e-14,5.929084521e-13,7.782780765e-14,3.337237233e-14
1.7188,4.174163346e-13,1.489695207e-13,9.431603334e-14,5.046350217e-14,1.335662140e-14,2.172101215e-14,1.286416884e-13,1.210357965e-14,1.431933821e-14,2.256106013e-14,3.425679675e-14,3.887855923e-14,3.686340280e-14,2.142374982e-14,2.968009483e-14,3.132578797e-14,1.777831991e-13,9.789635681e-14,7.875634407e-14,2.376477319e-13,2.252148385e-14,5.854637153e-14,1.687180529e-13,1.332272744e-14,4.350398024e-14,3.031246978e-14,1.697443115e-14,1.690052970e-13,1.684598851e-14,5.276282807e-13,7.320675730e-14,3.516448728e-14
1.7266,3.641219370e-13,1.287938306e-13,8.105299412e-14,4.283466450e-14,1.533031321e-14,2.221584383e-14,1.181679931e-13,1.199641149e-14,1.393126114e-14,2.405298069e-14,4.007003832e-14,4.345598675e-14,3.280973343e-14,2.291037019e-14,3.262000580e-14,3.094159715e-14,1.527436076e-13,8.773811762e-14,7.287042423e-14,2.061900842e-13,1.950488204e-14,5.617933346e-14,1.715888796e-13,1.024717480e-14,4.093350226e-14,3.620610115e-14,1.517190572e-14,1.595058968e-13,1.837373936e-14,4.684676939e-13,6.865758484e-14,3.675952748e-14
1.7344,3.177832101e-13,1.102099967e-13,7.422922584e-14,3.516248736e-14,1.628031030e-14,2.387862707e-14,1.072295018e-13,1.185432324e-14,1.275453864e-14,2.473202684e-14,4.580203072e-14,4.528749479e-14,2.720486234e-14,2.244665034e-14,3.382358832e-14,2.943402469e-14,1.277269578e-13,7.424936796e-14,6.427853735e-14,1.709988334e-13,1.623709541e-14,5.347325356e-14,1.696991134e-13,8.829869215e-15,3.830379612e-14,4.000978957e-14,1.300214527e-14,1.506374772e-13,1.880027653e-14,4.300276974e-13,6.382536863e-14,3.712767427e-14
1.7422,2.802932539e-13,9.704569516e-14,7.313550474e-14,2.929102603e-14,1.662722007e-14,2.600287840e-14,9.736604091e-14,1.159824339e-14,1.141421993e-14,2.483030452e-14,5.019460428e-14,4.484261290e-14,2.216775889e-14,2.057603633e-14,3.256986166e-14,2.666698198e-14,1.037366888e-13,5.973893392e-14,5.487585993e-14,1.349246803e-13,1.357527443e-14,5.049343014e-14,1.651984372e-13,8.465746946e-15,3.546800951e-14,4.142306959e-14,1.071747584e-14,1.420432281e-13,1.801566212e-14,4.072929433e-13,6.752239709e-14,3.749891647e-14
1.75,2.474227627e-13,8.858999657e-14,7.386532985e-14,2.546444988e-14,1.585684119e-14,2.788832046e-14,8.666051995e-14,1.128566254e-14,1.028805931e-14,2.461473521e-14,5.116076024e-14,4.242392446e-14,1.723782458e-14,1.782346171e-14,3.044463173e-14,2.407308482e-14,8.304676804e-14,4.659859853e-14,4.548454875e-14,1.022799279e-13,1.186583424e-14,4.660005073e-14,1.544410612e-13,8.879521068e-15,3.329845270e-14,3.944823847e-14,8.579976967e-15,1.355058648e-13,1.543598080e-14,3.973538266e-13,7.534754552e-14,3.654072262e-14
1.7578,2.246825401e-13,8.607793404e-14,7.572982016e-14,2.411663022e-14,1.389283404e-14,2.952529220e-14,7.749430684e-14,1.106799393e-14,9.206505315e-15,2.372258093e-14,5.052263952e-14,3.762908719e-14,1.246867343e-14,1.406459087e-14,2.760381210e-14,2.172854512e-14,6.401249765e-14,3.569070800e-14,3.747982651e-14,7.483184777e-14,1.102319718e-14,4.212541469e-14,1.374467479e-13,1.017162102e-14,3.289976997e-14,3.427770258e-14,7.134932465e-15,1.349168580e-13,1.197060397e-14,4.054323499e-13,7.868554536e-14,3.328462457e-14
1.7656,2.070694176e-13,8.634030970e-14,7.542729462e-14,2.386903782e-14,1.175381572e-14,2.888869051e-14,6.691111684e-14,1.067322623e-14,8.241497011e-15,2.153574146e-14,4.863005133e-14,3.130555181e-14,9.164821483e-15,1.051600404e-14,2.693805628e-14,2.061954317e-14,4.843528639e-14,2.735301462e-14,3.116590587e-14,5.237610015e-14,1.078351071e-14,3.744742048e-14,1.203515217e-13,1.139495689e-14,3.354794796e-14,2.773413909e-14,6.545359344e-15,1.348679949e-13,8.949736002e-15,4.144435905e-13,8.307260867e-14,2.892493250e-14
1.7734,1.918584737e-13,8.850460325e-14,7.280939789e-14,2.375050935e-14,9.854891824e-15,2.624701711e-14,5.794036081e-14,1.001371505e-14,7.378884571e-15,1.869088247e-14,4.859369638e-14,2.504290252e-14,6.955978220e-15,8.794705646e-15,3.004503560e-14,2.093684070e-14,3.628514518e-14,2.143486440e-14,2.668595997e-14,3.588094830e-14,1.150582152e-14,3.223494117e-14,1.044691441e-13,1.342733999e-14,3.798351458e-14,2.116902406e-14,6.846771680e-15,1.379958054e-13,5.967467232e-15,4.146990809e-13,9.174100227e-14,2.522275064e-14
1.7812,1.836899388e-13,9.186691715e-14,6.860230092e-14,2.402811389e-14,8.070075502e-15,2.309387054e-14,5.109468785e-14,9.053364167e-15,6.394235528e-15,1.528639826e-14,5.174868338e-14,1.880785199e-14,6.507958559e-15,8.974427021e-15,3.706410555e-14,2.276987199e-14,2.727376059e-14,1.747771028e-14,2.385832994e-14,2.437385992e-14,1.185983065e-14,2.662574027e-14,8.842869033e-14,1.578608915e-14,4.617025593e-14,1.445320958e-14,7.720890297e-15,1.445477069e-13,3.212473207e-15,4.111981014e-13,9.265924329e-14,2.149384781e-14
1.7891,1.778293169e-13,9.236619047e-14,6.279842434e-14,2.318785428e-14,6.860767709e-15,1.880791281e-14,4.631102719e-14,7.972141843e-15,5.450096303e-15,1.177273949e-14,6.054751668e-14,1.476671022e-14,7.990366641e-15,1.195919217e-14,4.884734169e-14,2.576518466e-14,2.202882964e-14,1.528348726e-14,2.236329525e-14,1.701610907e-14,1.178975235e-14,2.164064453e-14,7.750443941e-14,1.762017104e-14,5.805725802e-14,8.993575769e-15,9.015460196e-15,1.504404163e-13,1.537234163e-15,3.964438937e-13,8.819071897e-14,1.873482342e-14
