Time,Fp1,AF3,F7,F3,FC1,FC5,T7,C3,CP1,CP5,P7,P3,Pz,PO3,O1,Oz,O2,PO4,P4,P8,CP6,CP2,C4,T8,FC6,FC2,F4,F8,AF4,Fp2,Fz,Cz,
0,6.407408284e-09,2.594600185e-09,1.650543950e-09,5.766404961e-10,9.115940612e-11,3.629607679e-10,1.752758386e-09,4.134455546e-11,5.370153489e-11,1.783590376e-11,3.222255271e-10,1.774924670e-11,2.159989264e-10,3.026581197e-11,4.602484494e-11,2.973827363e-11,7.394770684e-11,9.922028938e-11,1.449014869e-11,7.988979481e-11,4.550590489e-11,1.672144099e-10,1.929340983e-09,6.070041932e-10,1.291419625e-09,5.803373829e-11,3.817940021e-10,4.040506706e-09,3.595659938e-11,8.716164632e-09,5.503615212e-09,6.679616464e-10
0.0078125,6.380511763e-09,2.587556141e-09,1.642283402e-09,5.740020835e-10,9.161553802e-11,3.607154300e-10,1.743659596e-09,4.115146261e-11,5.405464817e-11,1.761515815e-11,3.198281426e-10,1.751976065e-11,2.162634701e-10,3.002561124e-11,4.630610835e-11,2.937787583e-11,7.442680985e-11,9.985217440e-11,1.430542016e-11,7.938322332e-11,4.496270360e-11,1.668601694e-10,1.929496847e-09,6.020423955e-10,1.284740807e-09,5.820590639e-11,3.794606916e-10,4.020513227e-09,3.563993762e-11,8.672521328e-09,5.531390895e-09,6.701376011e-10
0.015625,6.303726419e-09,2.560142967e-09,1.621029342e-09,5.668608727e-10,9.135598656e-11,3.556118054e-10,1.720601510e-09,4.066264538e-11,5.399861276e-11,1.725244467e-11,3.148701572e-10,1.715378642e-11,2.148096828e-10,2.956847420e-11,4.623555804e-11,2.879227604e-11,7.433078282e-11,9.970596462e-11,1.401818698e-11,7.830871986e-11,4.408689424e-11,1.651819280e-10,1.914203076e-09,5.923488484e-10,1.267910414e-09,5.793539350e-11,3.742033429e-10,3.968828305e-09,3.508618525e-11,8.561190775e-09,5.516984741e-09,6.669789793e-10
0.023438,6.179094705e-09,2.513169957e-09,1.587424946e-09,5.554338455e-10,9.039935489e-11,3.478086001e-10,1.684314404e-09,3.988634245e-11,5.353914706e-11,1.675711884e-11,3.075033592e-10,1.666098871e-11,2.116972776e-10,2.890295969e-11,4.581192734e-11,2.799958962e-11,7.366678780e-11,9.879729813e-11,1.363649601e-11,7.668696355e-11,4.290007443e-11,1.622339930e-10,1.884023251e-09,5.782159774e-10,1.241430327e-09,5.723703390e-11,3.661554046e-10,3.886929964e-09,3.430341007e-11,8.385118445e-09,5.461061031e-09,6.586434318e-10
0.03125,6.008043800e-09,2.447230524e-09,1.542025563e-09,5.398741971e-10,8.877449281e-11,3.374406656e-10,1.635464362e-09,3.883706574e-11,5.268501885e-11,1.614280231e-11,2.978688426e-10,1.605278576e-11,2.069780252e-10,2.803789624e-11,4.503961162e-11,2.701462195e-11,7.244715207e-11,9.714564124e-11,1.316793231e-11,7.454493533e-11,4.142487692e-11,1.580658629e-10,1.839527689e-09,5.598664903e-10,1.205695782e-09,5.613089363e-11,3.554042598e-10,3.775941345e-09,3.328084839e-11,8.146346213e-09,5.364834340e-09,6.453061737e-10
0.039062,5.795125200e-09,2.364133941e-09,1.486059143e-09,5.205864563e-10,8.652258398e-11,3.247897326e-10,1.575507157e-09,3.753480301e-11,5.145595121e-11,1.542915724e-11,2.862593946e-10,1.534946612e-11,2.007925355e-10,2.698788271e-11,4.394031280e-11,2.586596524e-11,7.070436504e-11,9.479574115e-11,1.262321217e-11,7.192642305e-11,3.969005584e-11,1.528033599e-10,1.782132236e-09,5.377845823e-10,1.161697687e-09,5.463688676e-11,3.422161983e-10,3.638975472e-09,3.201934270e-11,7.851265777e-09,5.230463323e-09,6.273621058e-10
0.046875,5.545877352e-09,2.266044539e-09,1.421004490e-09,4.980818095e-10,8.368337957e-11,3.101993770e-10,1.506067110e-09,3.600881346e-11,4.987896435e-11,1.463730988e-11,2.729981513e-10,1.457192189e-11,1.932991060e-10,2.577660900e-11,4.254207907e-11,2.458849722e-11,6.847815992e-11,9.180092572e-11,1.201764960e-11,6.890043630e-11,3.773928523e-11,1.465842471e-10,1.713272879e-09,5.125774888e-10,1.110602640e-09,5.277849377e-11,3.269283349e-10,3.479663423e-09,3.053970216e-11,7.507571405e-09,5.060642429e-09,6.052264699e-10
0.054688,5.266217974e-09,2.155318659e-09,1.348404839e-09,4.729003547e-10,8.031846479e-11,2.940150064e-10,1.428737296e-09,3.429205197e-11,4.799238730e-11,1.378660393e-11,2.583828777e-10,1.373654081e-11,1.846820572e-10,2.443002470e-11,4.088061168e-11,2.321007904e-11,6.582556549e-11,8.823673658e-11,1.136597799e-11,6.554038686e-11,3.561944549e-11,1.395530582e-10,1.634559304e-09,4.848210734e-10,1.053588088e-09,5.059441834e-11,3.098960729e-10,3.301689609e-09,2.887916874e-11,7.123300357e-09,4.859400176e-09,5.794262811e-10
0.0625,4.962499918e-09,2.034418073e-09,1.269824989e-09,4.455974754e-10,7.649284912e-11,2.765796030e-10,1.345129436e-09,3.242220784e-11,4.583416773e-11,1.289338078e-11,2.427136386e-10,1.285969073e-11,1.751255745e-10,2.297931875e-11,3.899553431e-11,2.175965607e-11,6.280840863e-11,8.418094776e-11,1.068202598e-11,6.191896663e-11,3.337884156e-11,1.318616116e-10,1.547627441e-09,4.551081201e-10,9.918933072e-10,4.812767611e-11,2.915134963e-10,3.108965292e-09,2.708660780e-11,6.707139022e-09,4.630894085e-09,5.504809870e-10
0.070312,4.641047095e-09,1.905808234e-09,1.186842305e-09,4.167275827e-10,7.228316828e-11,2.582391816e-10,1.256845387e-09,3.044389370e-11,4.344984497e-11,1.197273572e-11,2.262797102e-10,1.195618695e-11,1.648095644e-10,2.146365494e-11,3.693489936e-11,2.026241168e-11,5.949317218e-11,7.971803733e-11,9.979633049e-12,5.811822466e-11,3.106524147e-11,1.236579343e-10,1.454084235e-09,4.240327741e-10,9.267615136e-10,4.543175520e-11,2.721767743e-10,2.905360612e-09,2.521712262e-11,6.267712696e-09,4.379979287e-09,5.189421917e-10
0.078125,4.308907560e-09,1.772343944e-09,1.101234594e-09,3.869147774e-10,6.779288163e-11,2.393755440e-10,1.165730595e-09,2.840099860e-11,4.089759638e-11,1.104146477e-11,2.094116347e-10,1.104236455e-11,1.539690023e-10,1.991897968e-11,3.474632824e-11,1.874397456e-11,5.595765532e-11,7.495452048e-11,9.270816613e-12,5.421405908e-11,2.872216116e-11,1.151216747e-10,1.356033518e-09,3.922284023e-10,8.595816897e-10,4.257167595e-11,2.523041464e-10,2.695238658e-09,2.332359348e-11,5.814624919e-09,4.112777521e-09,4.855580164e-10
0.085938,3.972390675e-09,1.636600618e-09,1.014601016e-09,3.567206775e-10,6.312288572e-11,2.203268732e-10,1.073483483e-09,2.633260397e-11,3.823269668e-11,1.011553297e-11,1.924290051e-10,1.013508389e-11,1.428231880e-10,1.837000590e-11,3.246959704e-11,1.723385894e-11,5.227525435e-11,6.998861028e-11,8.566177402e-12,5.027090550e-11,2.638899360e-11,1.064183543e-10,1.255490223e-09,3.602675572e-10,7.916234968e-10,3.960882376e-11,2.322607901e-10,2.482587142e-09,2.144156019e-11,5.356423080e-09,3.835155397e-09,4.510447239e-10
0.09375,3.636113647e-09,1.500519660e-09,9.281202541e-10,3.265541861e-10,5.836356277e-11,2.013431227e-10,9.813532657e-10,2.427016793e-11,3.550671198e-11,9.205162211e-12,1.755523081e-10,9.244361545e-12,1.315411915e-10,1.683662984e-11,3.015057525e-11,1.575021354e-11,4.851552441e-11,6.490946988e-11,7.874692430e-12,4.635127064e-11,2.409418690e-11,9.766863513e-11,1.154041325e-09,3.285474514e-10,7.238129599e-10,3.660109294e-11,2.123051688e-10,2.270282361e-09,1.959224043e-11,4.899209936e-09,3.552434850e-09,4.160045288e-10
0.10156,3.304947746e-09,1.366151803e-09,8.430106794e-10,2.968442085e-10,5.359908536e-11,1.826842285e-10,8.906733902e-10,2.223724826e-11,3.276706104e-11,8.318621306e-12,1.590026124e-10,8.379723310e-12,1.203069614e-10,1.534035142e-11,2.783260344e-11,1.430779045e-11,4.474376818e-11,5.980603982e-11,7.205067752e-12,4.250520242e-11,2.186307727e-11,8.900560209e-11,1.053379249e-09,2.974813993e-10,6.571189921e-10,3.360141620e-11,1.927041439e-10,2.061373898e-09,1.779528831e-11,4.449524724e-09,3.269405583e-09,3.810422702e-10
0.10938,2.983618921e-09,1.235460497e-09,7.604850048e-10,2.680195688e-10,4.890016723e-11,1.646140821e-10,8.027789299e-10,2.025509113e-11,3.005329951e-11,7.467410068e-12,1.430177563e-10,7.552276989e-12,1.092918562e-10,1.389960835e-11,2.554510198e-11,1.292560422e-11,4.101334637e-11,5.475313134e-11,6.565639355e-12,3.877245896e-11,1.972330879e-11,8.055989493e-11,9.550601937e-10,2.675062143e-10,5.924976105e-10,3.065209804e-11,1.737252327e-10,1.858884255e-09,1.606812679e-11,4.013733501e-09,2.990101780e-09,3.466996477e-10
0.11719,2.675947180e-09,1.110080368e-09,6.815442872e-10,2.404264159e-10,4.433040844e-11,1.473518069e-10,7.187377230e-10,1.834147555e-11,2.740252841e-11,6.662860395e-12,1.277892435e-10,6.770247682e-12,9.864332105e-11,1.252440610e-11,2.331635415e-11,1.161727961e-11,3.737415192e-11,4.982173838e-11,5.959940496e-12,3.518520137e-11,1.769041956e-11,7.243752224e-11,8.603800216e-10,2.389444808e-10,5.306915494e-10,2.778768065e-11,1.555825409e-10,1.665175356e-09,1.442731503e-11,3.596831086e-09,2.718217654e-09,3.134624563e-10
0.125,2.385044239e-09,9.913071755e-10,6.069793029e-10,2.143395322e-10,3.993522864e-11,1.310696517e-10,6.394043950e-10,1.651093363e-11,2.484169800e-11,5.912826732e-12,1.134649220e-10,6.039742560e-12,8.848270145e-11,1.122340665e-11,2.117222851e-11,1.039236882e-11,3.386447806e-11,4.506795643e-11,5.390259596e-12,3.176635435e-11,1.577554255e-11,6.472491688e-11,7.703334069e-10,2.120555631e-10,4.723172036e-10,2.503257928e-11,1.384533598e-10,1.482182133e-09,1.288930750e-11,3.202971242e-09,2.456321915e-09,2.816789349e-10
0.13281,2.112547520e-09,8.798110751e-10,5.371905032e-10,1.899062425e-10,3.574351247e-11,1.158566930e-10,5.652188877e-10,1.477622158e-11,2.238941990e-11,5.220962886e-12,1.001200456e-10,5.363007061e-12,7.887992422e-11,1.000553971e-11,1.912938159e-11,9.256445023e-12,3.051151099e-11,4.052782001e-11,4.859514557e-12,2.854064401e-11,1.398994020e-11,5.747087568e-11,6.854314908e-10,1.869925681e-10,4.177120478e-10,2.240578360e-11,1.224343377e-10,1.310947521e-09,1.146321925e-11,2.834379872e-09,2.206200934e-09,2.515412008e-10
0.14062,1.860328297e-09,7.763806198e-10,4.726429040e-10,1.672932042e-10,3.178659960e-11,1.018130700e-10,4.966583552e-10,1.314739677e-11,2.006701862e-11,4.590459740e-12,8.783516127e-11,4.742886583e-12,6.991721543e-11,8.878274736e-12,1.720773749e-11,8.215166134e-12,2.734908042e-11,3.624473070e-11,4.369141165e-12,2.552949864e-11,1.234244446e-11,5.073062986e-11,6.062887226e-10,1.639120262e-10,3.672271470e-10,1.992508283e-11,1.076335587e-10,1.152601791e-09,1.016081814e-11,2.493536278e-09,1.969843828e-09,2.232866309e-10
0.14844,1.629598736e-09,6.815161861e-10,4.136378245e-10,1.466068339e-10,2.808750367e-11,8.900155095e-11,4.340354701e-10,1.163467706e-11,1.788899004e-11,4.022514733e-12,7.665689372e-11,4.180874805e-12,6.164504182e-11,7.848187216e-12,1.542364456e-11,7.271289430e-12,2.439910536e-11,3.224700706e-11,3.919897528e-12,2.274526572e-11,1.084029139e-11,4.453965711e-11,5.333049199e-10,1.429107313e-10,3.210952706e-10,1.760458319e-11,9.412464055e-11,1.007877509e-09,8.991297400e-12,2.182050170e-09,1.748653559e-09,1.970634621e-10
0.15625,1.420049233e-09,5.951412921e-10,3.600757735e-10,1.278146614e-10,2.466375874e-11,7.739193093e-11,3.772401369e-10,1.024388022e-11,1.586479518e-11,3.514213564e-12,6.655411117e-11,3.673841452e-12,5.406382387e-11,6.916666671e-12,1.378191542e-11,6.420737498e-12,2.166945590e-11,2.854615627e-11,3.510641990e-12,2.019379237e-11,9.480355199e-12,3.889384906e-11,4.665265138e-10,1.239249845e-10,2.792370622e-10,1.545778418e-11,8.187958274e-11,8.765271778e-10,7.952390903e-12,1.899414606e-09,1.543668032e-09,1.729328319e-10
0.16406,1.231442998e-09,5.172040476e-10,3.118903725e-10,1.108953850e-10,2.152548283e-11,6.696229628e-11,3.261738443e-10,8.976314698e-12,1.400123725e-11,3.063299956e-12,5.750222758e-11,3.220207947e-12,4.717542839e-11,6.081911249e-12,1.228301091e-11,5.661892595e-12,1.916469382e-11,2.514875199e-11,3.139583328e-12,1.787379104e-11,8.258524137e-12,3.378979239e-11,4.059642756e-10,1.069124249e-10,2.415930926e-10,1.349043621e-11,7.088075486e-11,7.583785998e-10,7.043188476e-12,1.645263505e-09,1.355448977e-09,1.509314944e-10
0.17188,1.062873105e-09,4.473664122e-10,2.688427709e-10,9.577063234e-11,1.867473836e-11,5.765931375e-11,2.805773421e-10,7.832496554e-12,1.229954044e-11,2.666380406e-12,4.944920476e-11,2.817919304e-12,4.095487055e-11,5.339530920e-12,1.092419207e-11,4.991008598e-12,1.688264948e-11,2.204934831e-11,2.805503008e-12,1.577872797e-11,7.171972014e-12,2.920455991e-11,3.514057597e-10,9.179217850e-11,2.079983110e-10,1.170333005e-11,6.108004026e-11,6.528879622e-10,6.259154797e-12,1.418363748e-09,1.184072877e-09,1.310137515e-10
0.17969,9.134598744e-10,3.853167854e-10,2.306800771e-10,8.235427583e-11,1.611363969e-11,4.942269761e-11,2.401961311e-10,6.807981628e-12,1.076052558e-11,2.318779576e-12,4.234159003e-11,2.463727868e-12,3.538372199e-11,4.683477934e-12,9.702628749e-12,4.402227582e-12,1.482113071e-11,1.924763404e-11,2.506959351e-12,1.390043120e-11,6.211485933e-12,2.511833598e-11,3.027187239e-10,7.845478968e-11,1.782588500e-10,1.009779265e-11,5.241350816e-11,5.594642844e-10,5.592452172e-12,1.217447681e-09,1.029597812e-09,1.131633932e-10
0.1875,7.820740923e-10,3.306151841e-10,1.971106599e-10,7.054518191e-11,1.383080304e-11,4.218690579e-11,2.047201303e-10,5.895791353e-12,9.380048680e-12,2.016824033e-12,3.611856649e-11,2.154146151e-12,3.043739032e-11,4.107462774e-12,8.612183362e-12,3.891074677e-12,1.297320025e-11,1.673763104e-11,2.241955057e-12,1.222884204e-11,5.367397345e-12,2.150745268e-11,2.596154651e-10,6.677921736e-11,1.521273748e-10,8.667535660e-12,4.480844332e-11,4.773652553e-10,5.035291486e-12,1.040929836e-09,8.913959746e-10,9.729520227e-11
0.19531,6.669903375e-10,2.825864518e-10,1.676971582e-10,6.019422383e-11,1.180964375e-11,3.585732168e-11,1.736900611e-10,5.088790886e-12,8.149808150e-12,1.756427040e-12,3.069460577e-11,1.884243614e-12,2.607000802e-11,3.603772235e-12,7.644735570e-12,3.449630831e-12,1.132877784e-11,1.450395179e-11,2.007643011e-12,1.074881810e-11,4.629870798e-12,1.833203088e-11,2.216347398e-10,5.659882425e-11,1.292598530e-10,7.402878750e-12,3.816201035e-11,4.055058891e-10,4.575618836e-12,8.864306619e-10,7.685598334e-10,8.326750282e-11
0.20312,5.669770571e-10,2.407433913e-10,1.421172208e-10,5.118920481e-11,1.003404979e-11,3.036185661e-11,1.467620319e-10,4.378650234e-12,7.060568626e-12,1.532986727e-12,2.600361624e-11,1.649839994e-12,2.224447725e-11,3.166798865e-12,6.793127040e-12,3.070032280e-12,9.877463129e-12,1.253121968e-11,1.801389134e-12,9.444640260e-12,3.988574722e-12,1.556197396e-11,1.884359305e-10,4.778650378e-11,1.093984587e-10,6.293035369e-12,3.239669533e-11,3.430933789e-10,4.204268107e-12,7.522613399e-10,6.601219342e-10,7.096224784e-11
0.21094,4.805602681e-10,2.044907358e-10,1.199956842e-10,4.339897724e-11,8.483761321e-12,2.561903982e-11,1.235264504e-10,3.756768570e-12,6.101538156e-12,1.342071595e-12,2.196782620e-11,1.447302537e-12,1.891223123e-11,2.789592836e-12,6.047467630e-12,2.745893655e-12,8.604237628e-12,1.079929894e-11,1.620767180e-12,8.301949174e-12,3.434197946e-12,1.315848769e-11,1.595661765e-10,4.020644614e-11,9.224620283e-11,5.324875509e-12,2.742607828e-11,2.892018662e-10,3.912301729e-12,6.364215839e-10,5.649186695e-10,6.022594953e-11
0.21875,4.062821143e-10,1.732518558e-10,1.009633914e-10,3.669585269e-11,7.138945213e-12,2.154753366e-11,1.035860999e-10,3.214472322e-12,5.262316529e-12,1.180117846e-12,1.851286923e-11,1.272735202e-12,1.602721524e-11,2.463206171e-12,5.398572646e-12,2.470441485e-12,7.494051370e-12,9.289162566e-12,1.462852566e-12,7.304630628e-12,2.957437942e-12,1.108460076e-11,1.346085758e-10,3.372296916e-11,7.751573397e-11,4.485696107e-12,2.316359563e-11,2.429204290e-10,3.689558594e-12,5.369114608e-10,4.818637971e-10,5.091950182e-11
0.22656,3.428027448e-10,1.464814540e-10,8.468536341e-11,3.096207483e-11,5.977974566e-12,1.807331657e-11,8.657768616e-11,2.744337032e-12,4.531184995e-12,1.043830243e-12,1.557441313e-11,1.122557325e-12,1.354268773e-11,2.180659367e-12,4.835813510e-12,2.237418659e-12,6.529786221e-12,7.978221436e-12,1.324691938e-12,6.437609400e-12,2.548821939e-12,9.306633470e-12,1.131493180e-10,2.821180950e-11,6.493308813e-11,3.761992270e-12,1.953135197e-11,2.033952381e-10,3.527545032e-12,4.519143865e-10,4.097237602e-10,4.289174287e-11
0.23438,2.887283997e-10,1.236154594e-10,7.081377033e-11,2.607354940e-11,4.981940535e-12,1.512037117e-11,7.212886879e-11,2.338982178e-12,3.896826397e-12,9.300359050e-13,1.308935339e-11,9.942794100e-13,1.140930660e-11,1.934507029e-12,4.347337944e-12,2.042625116e-12,5.695342916e-12,6.844346471e-12,1.204311003e-12,5.688373922e-12,2.200351953e-12,7.786823598e-12,9.476083357e-11,2.354825248e-11,5.422437702e-11,3.141369708e-12,1.644791838e-11,1.697592558e-10,3.416153313e-12,3.795501803e-10,3.473492673e-10,3.599476797e-11
0.24219,2.429600656e-10,1.042069600e-10,5.906356704e-11,2.192997914e-11,4.132797684e-12,1.262481264e-11,5.992879267e-11,1.990647881e-12,3.349581873e-12,8.356745824e-13,1.100228665e-11,8.858689697e-13,9.589210683e-12,1.718121054e-12,3.925406569e-12,1.882431884e-12,4.978894541e-12,5.870992904e-12,1.100066988e-12,5.045143707e-12,1.905598560e-12,6.495289361e-12,7.910497490e-11,1.962857467e-11,4.516929115e-11,2.612520660e-12,1.384599119e-11,1.413188336e-10,3.346972961e-12,3.183282431e-10,2.937018732e-10,3.010733417e-11
0.25,2.043164931e-10,8.777277612e-11,4.913452356e-11,1.842648261e-11,3.411635679e-12,1.052139973e-11,4.965347913e-11,1.693134116e-12,2.879978304e-12,7.581316976e-13,9.254588785e-12,7.950681160e-13,8.041239586e-12,1.527041421e-12,3.563273360e-12,1.751907610e-12,4.367421117e-12,5.038815287e-12,1.009523371e-12,4.494492592e-12,1.657231877e-12,5.401383365e-12,6.581801591e-11,1.634324583e-11,3.752964574e-11,2.163669154e-12,1.165540205e-11,1.173294473e-10,3.311231195e-12,2.666615477e-10,2.477145950e-10,2.509723318e-11
0.25781,1.717689641e-10,7.389348561e-11,4.076893877e-11,1.547173385e-11,2.802528939e-12,8.753720454e-12,4.103315682e-11,1.440418123e-12,2.478758527e-12,6.948623771e-13,7.796593018e-12,7.194279542e-13,6.729046002e-12,1.358269260e-12,3.252816941e-12,1.646134096e-12,3.847046931e-12,4.329622336e-12,9.303323389e-13,4.021445533e-12,1.448407195e-12,4.477812462e-12,5.458454072e-11,1.360039713e-11,3.110754207e-11,1.783952579e-12,9.815394689e-12,9.716265280e-11,3.299074525e-12,2.231759224e-10,2.084346358e-10,2.085073339e-11
0.26562,1.445119691e-10,6.223155575e-11,3.375366565e-11,1.299258704e-11,2.289956567e-12,7.273216498e-12,3.383117766e-11,1.225758934e-12,2.136623106e-12,6.422794853e-13,6.582741826e-12,6.558505309e-13,5.622761268e-12,1.210315784e-12,2.985916876e-12,1.559912870e-12,3.405071272e-12,3.727559391e-12,8.605760978e-13,3.612003751e-12,1.272747587e-12,3.702293401e-12,4.512756655e-11,1.131856675e-11,2.573544430e-11,1.464336105e-12,8.278467875e-12,8.029238189e-11,3.305833840e-12,1.867776891e-10,1.749742951e-10,1.726619432e-11
0.27344,1.217513834e-10,5.245944340e-11,2.789084355e-11,1.091888415e-11,1.861284933e-12,6.037575644e-12,2.783364911e-11,1.043330618e-12,1.844794766e-12,5.984965231e-13,5.575814554e-12,6.024809802e-13,4.692684096e-12,1.081752749e-12,2.755787193e-12,1.489599214e-12,3.030129596e-12,3.216588776e-12,7.984467396e-13,3.254304372e-12,1.124029251e-12,3.053247835e-12,3.719103390e-11,9.422625933e-12,2.125254468e-11,1.197283847e-12,6.997951801e-12,6.621997454e-11,3.326660935e-12,1.563929994e-10,1.465489003e-10,1.425181040e-11
0.28125,1.027934304e-10,4.428585218e-11,2.300772356e-11,9.188350375e-12,1.505321292e-12,5.010081368e-12,2.286000584e-11,8.885293860e-13,1.595355577e-12,5.624891480e-13,4.743989215e-12,5.581499182e-13,3.912095434e-12,9.712643601e-13,2.556389276e-12,1.431986856e-12,2.711882523e-12,2.782733116e-12,7.422471576e-13,2.938742004e-12,9.970883691e-13,2.511529128e-12,3.055080192e-11,7.853546387e-12,1.752322746e-11,9.755417529e-13,5.933514910e-12,5.452537913e-11,3.355672490e-12,1.311017505e-10,1.224419897e-10,1.172472343e-11
0.28906,8.702933947e-11,3.745432225e-11,1.894620447e-11,7.746716550e-12,1.211185492e-12,4.155941159e-12,1.873877845e-11,7.569058772e-13,1.381652827e-12,5.321536604e-13,4.054585793e-12,5.206509585e-13,3.257822427e-12,8.779445094e-13,2.381768900e-12,1.382561141e-12,2.440759670e-12,2.414061942e-12,6.905574859e-13,2.656997960e-12,8.873554257e-13,2.060198047e-12,2.500110656e-11,6.554988587e-12,1.442634489e-11,7.931367552e-13,5.051957465e-12,4.482279113e-11,3.389895071e-12,1.100958700e-10,1.020268150e-10,9.609712386e-12
0.29688,7.397566285e-11,3.176666147e-11,1.559091266e-11,6.552136036e-12,9.706660671e-13,3.451166908e-12,1.534981795e-11,6.448149443e-13,1.198078894e-12,5.067833822e-13,3.488147140e-12,4.888713118e-13,2.711736394e-12,8.003919136e-13,2.227331883e-12,1.339029079e-12,2.208371164e-12,2.100013944e-12,6.424719119e-13,2.401960837e-12,7.920385883e-13,1.686344862e-12,2.038933402e-11,5.487690906e-12,1.187169951e-11,6.451284523e-13,4.326790750e-12,3.682506427e-11,3.425149000e-12,9.273614837e-11,8.479345530e-11,7.849271941e-12
0.30469,6.319751676e-11,2.704035336e-11,1.282492614e-11,5.564271583e-12,7.758669280e-13,2.870494852e-12,1.256769874e-11,5.498096309e-13,1.040322541e-12,4.857967809e-13,3.023290000e-12,4.624554213e-13,2.257400906e-12,7.366895721e-13,2.089948328e-12,1.299985705e-12,2.008998255e-12,1.832789767e-12,5.978302010e-13,2.169697412e-12,7.092442319e-13,1.377264400e-12,1.656853639e-11,4.611560622e-12,9.767677634e-12,5.265053016e-13,3.732138077e-12,3.024887599e-11,3.458694122e-12,7.843629733e-11,7.028764844e-11,6.387779131e-12
0.3125,5.428116539e-11,2.310684381e-11,1.054515554e-11,4.746176617e-12,6.196704896e-13,2.391691656e-12,1.028335734e-11,4.695883785e-13,9.052777184e-13,4.682805655e-13,2.641144117e-12,4.409532414e-13,1.880443232e-12,6.846993452e-13,1.966790549e-12,1.264779342e-12,1.838244222e-12,1.606838755e-12,5.570700125e-13,1.959924764e-12,6.374654457e-13,1.121717137e-12,1.340824948e-11,3.891100838e-12,8.035028640e-12,4.327887509e-13,3.243911216e-12,2.483850613e-11,3.488338591e-12,6.664024229e-11,5.812166505e-11,5.178059517e-12
0.32031,4.612893267e-11,1.957276792e-11,8.629451399e-12,4.018891129e-12,4.961790462e-13,1.988182801e-12,8.367753151e-12,4.040403241e-13,7.846557031e-13,4.551425254e-13,2.357046471e-12,4.263287390e-13,1.544423447e-12,6.385387744e-13,1.833830909e-12,1.245899524e-12,1.673031680e-12,1.397983623e-12,5.246092466e-13,1.783378822e-12,5.854312633e-13,8.930062452e-13,1.069225713e-11,3.323459128e-12,6.603042448e-12,3.612911291e-13,2.797977866e-12,2.021099953e-11,3.490379179e-12,5.600188483e-11,4.780786066e-11,4.156746950e-12
0.32812,3.991554132e-11,1.682897361e-11,7.109330835e-12,3.449863195e-12,3.970499018e-13,1.667702842e-12,6.875192305e-12,3.506194087e-13,6.896961376e-13,4.437076361e-13,2.109144402e-12,4.125899355e-13,1.291026961e-12,6.029434549e-13,1.736402821e-12,1.224125217e-12,1.552399360e-12,1.242350966e-12,4.927516738e-13,1.625498392e-12,5.387682932e-13,7.223366274e-13,8.583255646e-12,2.856906649e-12,5.451583930e-12,2.994452640e-13,2.453265923e-12,1.661032976e-11,3.485091167e-12,4.784375779e-11,3.944809968e-11,3.346003016e-12
0.33594,3.511123765e-11,1.466822257e-11,5.852181471e-12,3.005375372e-12,3.151045548e-13,1.406446658e-12,5.645125017e-12,3.047912182e-13,6.109529264e-13,4.327985887e-13,1.893207154e-12,4.007565042e-13,1.092090082e-12,5.751394414e-13,1.657536173e-12,1.195514262e-12,1.458772277e-12,1.118215133e-12,4.610278709e-13,1.475791216e-12,4.928560426e-13,5.853614521e-13,6.872508986e-12,2.462514264e-12,4.511299737e-12,2.477432670e-13,2.196263847e-12,1.371191345e-11,3.479052234e-12,4.154624469e-11,3.261106952e-11,2.688635527e-12
0.34375,3.095001917e-11,1.280465637e-11,4.824151059e-12,2.623547932e-12,2.529611364e-13,1.189878009e-12,4.648928045e-12,2.659241029e-13,5.417602009e-13,4.237033550e-13,1.718377749e-12,3.921006883e-13,9.278394036e-13,5.528830971e-13,1.579411789e-12,1.169611142e-12,1.372321761e-12,1.010687091e-12,4.313823169e-13,1.338683897e-12,4.517247781e-13,4.732112380e-13,5.475244455e-12,2.139543493e-12,3.736405177e-12,2.099293796e-13,1.970357917e-12,1.132410355e-11,3.451042641e-12,3.613961370e-11,2.691308661e-11,2.148705918e-12
0.35156,2.741249834e-11,1.122172465e-11,3.981295928e-12,2.300721334e-12,2.056600562e-13,1.011277446e-12,3.839503028e-12,2.332408840e-13,4.822754468e-13,4.155108920e-13,1.571129510e-12,3.856616179e-13,7.951556565e-13,5.350760899e-13,1.506292376e-12,1.143126795e-12,1.295721468e-12,9.203470468e-13,4.029854389e-13,1.212781934e-12,4.133198807e-13,3.831429896e-13,4.342713212e-12,1.869850925e-12,3.094022146e-12,1.818397752e-13,1.776189869e-12,9.363339765e-12,3.403278217e-12,3.157482489e-11,2.220464796e-11,1.708398471e-12
0.35938,2.453604325e-11,9.884058280e-12,3.230546301e-12,2.025047538e-12,1.661771238e-13,8.356820671e-13,3.072231241e-12,2.052098080e-13,4.322330581e-13,4.028136895e-13,1.407579582e-12,3.784077273e-13,6.979825672e-13,5.227081531e-13,1.446977560e-12,1.106982035e-12,1.236641641e-12,8.506192898e-13,3.727520604e-13,1.091190886e-12,3.695537086e-13,3.104341834e-13,3.412278542e-12,1.580192326e-12,2.467812152e-12,1.590177941e-13,1.595646505e-12,7.555941266e-12,3.339589642e-12,2.772659319e-11,1.827865133e-11,1.323414368e-12
0.36719,2.216706003e-11,8.810930421e-12,2.680232768e-12,1.812684480e-12,1.436844157e-13,7.139886899e-13,2.541497342e-12,1.800564445e-13,3.868449598e-13,3.920135750e-13,1.300381979e-12,3.735946277e-13,6.179276964e-13,5.151071671e-13,1.380655084e-12,1.071381824e-12,1.171617200e-12,7.856866618e-13,3.458021331e-13,9.772771471e-13,3.316156140e-13,2.534985680e-13,2.700457668e-12,1.382678937e-12,2.043679445e-12,1.493597614e-13,1.463731183e-12,6.280295901e-12,3.263819433e-12,2.473776040e-11,1.509998899e-11,1.048920375e-12
0.375,1.971522035e-11,7.769363270e-12,2.236387297e-12,1.611225940e-12,1.321411221e-13,6.239407403e-13,2.142552093e-12,1.598154912e-13,3.459058578e-13,3.847588651e-13,1.237796175e-12,3.723363696e-13,5.383985744e-13,5.078338147e-13,1.306805030e-12,1.044828063e-12,1.100026280e-12,7.202482553e-13,3.242840993e-13,8.857719394e-13,3.049811345e-13,2.025401419e-13,2.108781480e-12,1.254450324e-12,1.724271882e-12,1.453999635e-13,1.335225618e-12,5.237592011e-12,3.161922725e-12,2.177164067e-11,1.241421507e-11,8.336943078e-13
0.38281,1.766748734e-11,6.900937997e-12,1.870364157e-12,1.440525133e-12,1.216316573e-13,5.460527521e-13,1.813928949e-12,1.440871861e-13,3.134303870e-13,3.770605288e-13,1.179865991e-12,3.713486147e-13,4.808534727e-13,5.026470040e-13,1.244748229e-12,1.017312556e-12,1.042627166e-12,6.702749634e-13,3.048043361e-13,8.114494174e-13,2.836879193e-13,1.631436984e-13,1.647160069e-12,1.140001034e-12,1.454950872e-12,1.383964307e-13,1.220343588e-12,4.377514983e-12,3.044902147e-12,1.929205187e-11,1.023552404e-11,6.589796278e-13
0.39062,1.594628346e-11,6.178372753e-12,1.569027961e-12,1.297144727e-12,1.108582056e-13,4.806250903e-13,1.545429228e-12,1.317296152e-13,2.877065665e-13,3.693260273e-13,1.128199652e-12,3.706174385e-13,4.389860895e-13,4.998792187e-13,1.191014357e-12,9.891578423e-13,9.956901488e-13,6.313618249e-13,2.871218608e-13,7.496538423e-13,2.671100903e-13,1.322623316e-13,1.281132411e-12,1.041443471e-12,1.236875217e-12,1.280828136e-13,1.120470107e-12,3.684057914e-12,2.916943778e-12,1.722834777e-11,8.489625915e-12,5.188124785e-13
0.39844,1.433967161e-11,5.525821932e-12,1.322730509e-12,1.167069905e-12,1.001154390e-13,4.258531527e-13,1.328993811e-12,1.223152822e-13,2.669207988e-13,3.626107985e-13,1.087828934e-12,3.712900388e-13,4.048435675e-13,4.984655605e-13,1.141035230e-12,9.644681605e-13,9.537571818e-13,5.975363172e-13,2.709351948e-13,6.965779401e-13,2.540827542e-13,1.067584309e-13,9.969365552e-13,9.614085990e-13,1.052903246e-12,1.151279185e-13,1.020683157e-12,3.093570799e-12,2.774376136e-12,1.530395269e-11,7.100623676e-12,4.062447612e-13
0.40625,1.291984839e-11,4.958675336e-12,1.116696515e-12,1.052256420e-12,8.852862953e-14,3.790759606e-13,1.152710948e-12,1.147296729e-13,2.500453986e-13,3.566520881e-13,1.051661618e-12,3.727950016e-13,3.799982318e-13,4.990399235e-13,1.095551448e-12,9.388541751e-13,9.166467396e-13,5.696223703e-13,2.548107771e-13,6.462510668e-13,2.414501044e-13,8.686667638e-14,7.744245160e-13,8.902152681e-13,8.977157914e-13,1.004200923e-13,9.281466904e-13,2.604440155e-12,2.624025830e-12,1.361475339e-11,6.010328346e-12,3.166697242e-13
0.41406,1.157990213e-11,4.486041139e-12,9.445970545e-13,9.751024129e-13,7.482674585e-14,3.649729502e-13,9.868059438e-13,1.080481267e-13,2.368653318e-13,3.496355715e-13,9.944933532e-13,3.676212014e-13,3.412443897e-13,5.093296323e-13,1.055496401e-12,9.104724066e-13,8.756924353e-13,5.376230325e-13,2.432469576e-13,5.984577723e-13,2.339557166e-13,6.311050626e-14,5.219805295e-13,8.451303593e-13,8.222055583e-13,8.666690202e-14,8.780652285e-13,2.302743607e-12,2.484375154e-12,1.221071998e-11,5.113206800e-12,2.398094322e-13
0.42188,1.033793535e-11,4.027491523e-12,8.243298567e-13,8.882446878e-13,6.579633288e-14,3.451304338e-13,8.980293633e-13,1.027678430e-13,2.217646548e-13,3.447297851e-13,9.725311040e-13,3.689348221e-13,3.224965708e-13,5.163677333e-13,1.010346759e-12,8.875633034e-13,8.400986114e-13,5.161711127e-13,2.333811354e-13,5.561490217e-13,2.271521573e-13,4.952126561e-14,3.916524560e-13,8.175989254e-13,7.428518640e-13,7.314720606e-14,8.053715307e-13,2.021548436e-12,2.326388799e-12,1.082458401e-11,4.417118624e-12,1.873538928e-13
0.42969,9.463611649e-12,3.665569490e-12,7.009399882e-13,8.074611963e-13,5.661161826e-14,3.054821074e-13,7.849298909e-13,9.753879727e-14,2.087363454e-13,3.370444799e-13,9.396985376e-13,3.715257603e-13,3.307785089e-13,5.224966025e-13,9.736453107e-13,8.555899060e-13,8.170172117e-13,5.108516981e-13,2.195883924e-13,5.110047467e-13,2.122846147e-13,4.570937343e-14,3.091916372e-13,7.486416371e-13,6.304745894e-13,6.126343060e-14,7.321255011e-13,1.721337132e-12,2.169654042e-12,9.772161319e-12,3.884938214e-12,1.431339665e-13
0.4375,8.488913233e-12,3.290519629e-12,6.048604914e-13,7.322399614e-13,5.241666625e-14,2.779814564e-13,7.065726251e-13,9.201338281e-14,1.952174867e-13,3.295269287e-13,9.173397019e-13,3.747959174e-13,3.258713742e-13,5.282967914e-13,9.313335201e-13,8.237344540e-13,7.811305171e-13,4.954255583e-13,2.067850478e-13,4.642843417e-13,1.960508499e-13,3.990260411e-14,2.343332819e-13,6.996242195e-13,5.456652060e-13,5.571285248e-14,6.622020794e-13,1.471131143e-12,2.011753749e-12,8.668696040e-12,3.375580223e-12,1.116871647e-13
0.44531,7.483149654e-12,2.910226335e-12,5.231719291e-13,6.586101568e-13,5.191804664e-14,2.545977493e-13,6.527833834e-13,8.659414693e-14,1.821939988e-13,3.220185268e-13,9.052976583e-13,3.800671958e-13,3.155758028e-13,5.323916536e-13,8.871600194e-13,7.930134379e-13,7.391495584e-13,4.759964207e-13,1.951557253e-13,4.193621892e-13,1.795850927e-13,3.389344925e-14,1.695881127e-13,6.612470338e-13,4.712800825e-13,5.394551898e-14,5.921319421e-13,1.238986525e-12,1.854002624e-12,7.553403393e-12,2.889786827e-12,8.799087737e-14
0.45312,6.721590936e-12,2.616943014e-12,4.538788864e-13,6.026429834e-13,5.272067172e-14,2.315544487e-13,5.918799831e-13,8.089648804e-14,1.721606001e-13,3.120771749e-13,8.809550481e-13,3.836864535e-13,3.129096325e-13,5.394601592e-13,8.503252141e-13,7.560652363e-13,7.003093677e-13,4.602012488e-13,1.824119745e-13,3.758328365e-13,1.613696612e-13,3.204625521e-14,1.210409883e-13,6.077372020e-13,4.108056519e-13,5.436588558e-14,5.390401378e-13,1.072904367e-12,1.707475870e-12,6.746923028e-12,2.474359290e-12,7.227402457e-14
0.46094,5.988950923e-12,2.335424008e-12,3.947387237e-13,5.493233139e-13,5.524416251e-14,2.093862103e-13,5.431211598e-13,7.522317338e-14,1.631090714e-13,3.019209470e-13,8.599973228e-13,3.879915129e-13,3.065876877e-13,5.467554974e-13,8.137644767e-13,7.186527150e-13,6.580213771e-13,4.396948880e-13,1.698541724e-13,3.362872914e-13,1.441965806e-13,3.049949829e-14,8.478599346e-14,5.561220061e-13,3.564293559e-13,5.565035945e-14,4.876235818e-13,9.237000411e-13,1.564096129e-12,5.983608339e-12,2.078189854e-12,6.045433354e-14
0.46875,5.294236674e-12,2.063440386e-12,3.413250422e-13,4.961567378e-13,5.722383976e-14,1.860374192e-13,5.050025781e-13,7.018060894e-14,1.553640430e-13,2.922287182e-13,8.451018673e-13,3.936924539e-13,3.003316462e-13,5.530942031e-13,7.788563570e-13,6.818882623e-13,6.165144798e-13,4.176154855e-13,1.574644885e-13,3.030512687e-13,1.287533126e-13,2.960026927e-14,5.973580343e-14,5.050208693e-13,3.014658642e-13,5.570220543e-14,4.348645690e-13,7.743775241e-13,1.423516316e-12,5.250839974e-12,1.720992165e-12,4.957490934e-14
0.47656,4.649602843e-12,1.822003510e-12,3.001814231e-13,4.514881018e-13,5.755776233e-14,1.690421596e-13,4.725658875e-13,6.602483890e-14,1.495912910e-13,2.828830693e-13,8.281216913e-13,3.984338271e-13,2.909026626e-13,5.617614534e-13,7.478643870e-13,6.464283037e-13,5.763300995e-13,3.934259346e-13,1.460763692e-13,2.769470199e-13,1.167500723e-13,2.863331024e-14,4.132978230e-14,4.601924175e-13,2.624980263e-13,5.400954750e-14,3.899576860e-13,6.668608139e-13,1.290181289e-12,4.596263968e-12,1.429197311e-12,4.107833566e-14
0.48438,3.385761453e-12,1.287779170e-12,1.521038032e-13,3.266992665e-13,6.083620244e-14,1.261426439e-13,4.400989627e-13,6.402015785e-14,1.413114206e-13,2.805424248e-13,8.405925021e-13,4.075653879e-13,3.046338596e-13,5.695208216e-13,7.165661360e-13,6.105653443e-13,5.441448795e-13,3.778854267e-13,1.329511643e-13,2.652406717e-13,1.050512582e-13,3.097059746e-14,1.778008232e-14,4.090891391e-13,1.485470691e-13,5.152791208e-14,2.870452955e-13,3.326614897e-13,1.134401681e-12,3.149722124e-12,1.043251813e-12,1.718786921e-14
0.49219,2.925083455e-12,1.105184758e-12,1.056458301e-13,2.831895851e-13,5.570774939e-14,1.054576137e-13,4.070929884e-13,6.171864437e-14,1.369648243e-13,2.727866561e-13,8.174103654e-13,4.097194616e-13,3.075074599e-13,5.865330706e-13,6.939543805e-13,5.705921723e-13,5.126090657e-13,3.576000458e-13,1.208225899e-13,2.564398354e-13,9.436669165e-14,3.519311470e-14,2.612802778e-14,3.551115343e-13,1.108724139e-13,4.483733620e-14,2.441695548e-13,2.538977778e-13,1.011979241e-12,2.676083100e-12,9.335324825e-13,1.286285277e-14
0.5,2.560992093e-12,9.974513541e-13,1.238036878e-13,2.701405256e-13,5.138146357e-14,1.068654636e-13,4.147656464e-13,5.858385250e-14,1.283880210e-13,2.651403100e-13,8.046442712e-13,4.119532434e-13,2.857431422e-13,6.049743244e-13,6.619499332e-13,5.389748090e-13,4.693855904e-13,3.248899549e-13,1.139221272e-13,2.431347542e-13,8.882136285e-14,3.355283133e-14,2.323039474e-14,3.338563508e-13,1.180033556e-13,3.923085178e-14,2.276987766e-13,2.745774143e-13,9.085694035e-13,2.366887909e-12,8.244638405e-13,1.460443081e-14
0.50781,2.225184262e-12,8.811026520e-13,1.230895957e-13,2.523609869e-13,4.923578935e-14,1.036716149e-13,4.019361820e-13,5.527561153e-14,1.187912601e-13,2.564106046e-13,7.815158522e-13,4.112170554e-13,2.755557140e-13,6.249126800e-13,6.341861811e-13,5.076506383e-13,4.360697458e-13,3.030596432e-13,1.093985134e-13,2.266444534e-13,8.504981480e-14,3.367501783e-14,2.699895330e-14,3.051181589e-13,1.112072838e-13,3.469836281e-14,2.091547285e-13,2.612718137e-13,8.131240693e-13,2.063113693e-12,6.865914697e-13,1.399348792e-14
0.51562,2.019883335e-12,8.057779482e-13,1.130804775e-13,2.428957277e-13,4.849334899e-14,9.955297912e-14,3.582313020e-13,5.115294383e-14,1.091214239e-13,2.448914803e-13,7.369750740e-13,4.046758054e-13,2.728130958e-13,6.466211816e-13,6.110429709e-13,4.743771234e-13,4.107218410e-13,2.899237044e-13,1.068767345e-13,2.053873390e-13,8.215374987e-14,3.534907594e-14,2.945451692e-14,2.647650654e-13,1.026807872e-13,3.153193231e-14,1.993799084e-13,2.554016445e-13,7.304586347e-13,1.906305282e-12,5.394149949e-13,1.252340963e-14
0.52344,1.722125699e-12,6.946680057e-13,1.176948313e-13,2.273649630e-13,5.103733479e-14,1.004496691e-13,3.525786067e-13,4.746906423e-14,9.778722105e-14,2.356019350e-13,7.144380025e-13,4.001511861e-13,2.690079097e-13,6.596502655e-13,5.824115397e-13,4.487515297e-13,3.858336061e-13,2.789363217e-13,1.076549705e-13,1.825463731e-13,8.198583956e-14,3.649403473e-14,3.492023371e-14,2.456441741e-13,9.961287591e-14,3.042787145e-14,1.859400755e-13,2.527536719e-13,6.510157748e-13,1.642207247e-12,3.689919932e-13,1.419483666e-14
0.53125,1.468035337e-12,5.956089191e-13,1.209077848e-13,2.107028811e-13,5.349190865e-14,9.912082585e-14,3.457377158e-13,4.475884705e-14,8.930624029e-14,2.263685455e-13,6.928208917e-13,3.959223433e-13,2.705473551e-13,6.639178135e-13,5.577151217e-13,4.283793425e-13,3.693725282e-13,2.758803170e-13,1.105899725e-13,1.610616935e-13,8.400772544e-14,3.872068892e-14,4.245068802e-14,2.273728461e-13,9.214609468e-14,2.989735373e-14,1.711339958e-13,2.425291091e-13,5.776655998e-13,1.405787681e-12,2.298167632e-13,1.621473480e-14
0.53906,1.298215592e-12,5.372568406e-13,1.250656802e-13,2.027952567e-13,5.422921509e-14,9.821680780e-14,3.230508720e-13,4.248685240e-14,8.501587794e-14,2.160308934e-13,6.616545154e-13,3.905793614e-13,2.697991152e-13,6.608630113e-13,5.391747532e-13,4.132184974e-13,3.595036837e-13,2.763821445e-13,1.160100885e-13,1.422872276e-13,8.930709268e-14,3.982842882e-14,4.462211023e-14,2.098395356e-13,8.768798798e-14,2.954832790e-14,1.614724880e-13,2.394095048e-13,5.130446963e-13,1.258255826e-12,1.358460403e-13,1.725164128e-14
0.54688,1.094853456e-12,4.634509168e-13,1.303121843e-13,1.891148011e-13,5.425524573e-14,9.645320644e-14,3.151816647e-13,4.151512131e-14,8.397800333e-14,2.081624494e-13,6.421670006e-13,3.877906727e-13,2.724953917e-13,6.483466037e-13,5.242284424e-13,4.035580115e-13,3.563433168e-13,2.811187881e-13,1.225219364e-13,1.299976928e-13,9.732283414e-14,4.189376965e-14,5.268735856e-14,2.001995695e-13,8.024857153e-14,2.967033150e-14,1.465900898e-13,2.276855877e-13,4.504798141e-13,1.057150072e-12,8.163440961e-14,1.870053979e-14
0.55469,9.279346075e-13,4.024514824e-13,1.337635313e-13,1.748742782e-13,5.204850471e-14,9.324069519e-14,3.088463456e-13,4.229848827e-14,8.657397667e-14,2.020082105e-13,6.249000409e-13,3.856074247e-13,2.772403403e-13,6.289082243e-13,5.136495218e-13,3.952441052e-13,3.583838613e-13,2.876420168e-13,1.283580693e-13,1.251955015e-13,1.067749709e-13,4.529072218e-14,6.393818740e-14,1.916884444e-13,7.298327297e-14,2.934843839e-14,1.317879631e-13,2.240692933e-13,3.931271074e-13,8.876220385e-13,8.476837000e-14,2.004701752e-14
0.5625,7.897993605e-13,3.588708409e-13,1.443625348e-13,1.643807233e-13,4.751831636e-14,9.108238137e-14,3.087729414e-13,4.479624695e-14,9.071503437e-14,1.969251606e-13,6.113148771e-13,3.835740561e-13,2.742744267e-13,6.029503655e-13,5.020665295e-13,3.881495783e-13,3.584227929e-13,2.886741665e-13,1.336713851e-13,1.261245006e-13,1.174351560e-13,4.711458448e-14,7.064245450e-14,1.898353168e-13,6.967217275e-14,2.820740915e-14,1.189952049e-13,2.274814863e-13,3.415329571e-13,7.401822367e-13,1.244100443e-13,2.012278386e-14
0.57031,6.576357877e-13,3.149818284e-13,1.523139755e-13,1.512922505e-13,4.198463692e-14,8.778899819e-14,3.099907546e-13,4.907833382e-14,9.558434882e-14,1.928942266e-13,5.989768268e-13,3.805019773e-13,2.706050702e-13,5.739681463e-13,4.893664424e-13,3.790421410e-13,3.570696530e-13,2.869594189e-13,1.376753762e-13,1.309895548e-13,1.273348255e-13,4.937775662e-14,7.733751520e-14,1.880396254e-13,6.416715887e-14,2.642519179e-14,1.055086379e-13,2.279041355e-13,2.945064534e-13,5.943806309e-13,1.864489059e-13,1.891592132e-14
0.57812,5.572587440e-13,2.839538409e-13,1.563560544e-13,1.405698580e-13,3.585351548e-14,8.514741417e-14,3.003133989e-13,5.450658220e-14,9.992877256e-14,1.885903343e-13,5.786634401e-13,3.737876896e-13,2.649400158e-13,5.469621143e-13,4.754148071e-13,3.656749131e-13,3.528649497e-13,2.813761941e-13,1.402617517e-13,1.367629080e-13,1.352708439e-13,5.174570944e-14,8.179657605e-14,1.823223286e-13,5.923627732e-14,2.396092587e-14,9.580561923e-14,2.345047142e-13,2.546137062e-13,4.918346450e-13,2.566110023e-13,1.664038590e-14
0.58594,4.590727162e-13,2.513330632e-13,1.695325806e-13,1.300935933e-13,3.033635318e-14,8.478005061e-14,3.014806098e-13,6.070356021e-14,1.010885075e-13,1.846668349e-13,5.620770258e-13,3.649548273e-13,2.560605778e-13,5.207454518e-13,4.551247187e-13,3.497252261e-13,3.431157277e-13,2.709932778e-13,1.416742489e-13,1.412660919e-13,1.410755196e-13,5.440420393e-14,8.459204477e-14,1.798032961e-13,5.682722516e-14,2.109536217e-14,8.833654819e-14,2.518880891e-13,2.200403517e-13,3.919075974e-13,3.008097751e-13,1.437210024e-14
0.59375,3.806776144e-13,2.206477696e-13,1.811913041e-13,1.193010137e-13,2.571566310e-14,8.457337676e-14,3.000375161e-13,6.693844434e-14,9.961160484e-14,1.801033362e-13,5.414238165e-13,3.527545238e-13,2.470181784e-13,4.970011535e-13,4.304579025e-13,3.300656575e-13,3.295492592e-13,2.584201001e-13,1.421630025e-13,1.432026832e-13,1.449295291e-13,5.771350975e-14,8.434726793e-14,1.751594632e-13,5.524916762e-14,1.783349293e-14,8.343044890e-14,2.758688928e-13,1.909484688e-13,3.176733285e-13,3.185153095e-13,1.177096376e-14
0.60156,3.229813776e-13,1.978056932e-13,1.886373419e-13,1.106046718e-13,2.195583743e-14,8.407739688e-14,2.862057920e-13,7.180284466e-14,9.552748855e-14,1.738354020e-13,5.115421140e-13,3.365857349e-13,2.343486578e-13,4.768473661e-13,4.025965912e-13,3.083225219e-13,3.126527660e-13,2.431724421e-13,1.427956327e-13,1.421173473e-13,1.482777915e-13,5.963062686e-14,7.832756208e-14,1.668995879e-13,5.262029366e-14,1.454866476e-14,8.077987757e-14,2.915853414e-13,1.676093127e-13,2.672918128e-13,3.098413278e-13,8.904135243e-15
0.60938,2.613209081e-13,1.693218975e-13,1.993056282e-13,1.005648393e-13,1.965035648e-14,8.418847104e-14,2.768340107e-13,7.473001881e-14,8.874038992e-14,1.672090218e-13,4.826250981e-13,3.183016466e-13,2.233771614e-13,4.582190420e-13,3.719858848e-13,2.863598613e-13,2.955059437e-13,2.290568089e-13,1.439280894e-13,1.397597685e-13,1.522235146e-13,6.225553213e-14,7.450180114e-14,1.607054926e-13,5.137289048e-14,1.201322580e-14,7.916396513e-14,3.145069564e-13,1.483166830e-13,2.185287364e-13,2.713502164e-13,7.653697980e-15
0.61719,2.177901365e-13,1.465140594e-13,2.101335068e-13,9.255589813e-14,1.801012178e-14,8.464720812e-14,2.631622779e-13,7.530443856e-14,8.073062683e-14,1.596444466e-13,4.498936670e-13,2.977525996e-13,2.152574896e-13,4.410228206e-13,3.416539116e-13,2.644082247e-13,2.806805288e-13,2.182317903e-13,1.464228550e-13,1.369031971e-13,1.579902535e-13,6.575973183e-14,7.440914464e-14,1.543770137e-13,5.159634484e-14,1.037308218e-14,7.976352942e-14,3.446004356e-13,1.336378238e-13,1.951638003e-13,2.232510640e-13,8.169457308e-15
0.625,1.878715350e-13,1.302273218e-13,2.228271384e-13,8.633018930e-14,1.678587819e-14,8.418467629e-14,2.490398053e-13,7.333819124e-14,7.207645787e-14,1.511151942e-13,4.162284044e-13,2.767021354e-13,2.071466755e-13,4.230437364e-13,3.110476091e-13,2.447147449e-13,2.678167043e-13,2.100560405e-13,1.511019296e-13,1.336763857e-13,1.668086582e-13,6.911145766e-14,7.674673085e-14,1.482511385e-13,5.091327136e-14,9.855174487e-15,8.010336758e-14,3.666181841e-13,1.224707495e-13,1.742837492e-13,1.755231792e-13,1.077252036e-14
0.63281,1.600351488e-13,1.136443684e-13,2.342713119e-13,7.966591162e-14,1.602661614e-14,8.310332139e-14,2.354612323e-13,6.945755660e-14,6.408563788e-14,1.422119455e-13,3.824793281e-13,2.555934046e-13,2.023287780e-13,4.035055717e-13,2.817405834e-13,2.262739529e-13,2.576755137e-13,2.053898438e-13,1.571466754e-13,1.303088258e-13,1.781850593e-13,7.304860053e-14,8.360826508e-14,1.432568302e-13,5.079929577e-14,1.056001417e-14,8.015183440e-14,3.889867286e-13,1.139731198e-13,1.567732878e-13,1.353306601e-13,1.488961886e-14
0.64062,1.349007329e-13,1.004668709e-13,2.422970414e-13,7.380459847e-14,1.533164926e-14,8.142637389e-14,2.163690010e-13,6.424839841e-14,5.735596909e-14,1.325287460e-13,3.460830037e-13,2.341850586e-13,1.985083170e-13,3.826141075e-13,2.542187955e-13,2.084279216e-13,2.483580703e-13,2.019907739e-13,1.636448225e-13,1.263582223e-13,1.908105079e-13,7.650626467e-14,9.288829075e-14,1.378906751e-13,5.040616157e-14,1.223141941e-14,7.994249012e-14,4.072884023e-13,1.078730119e-13,1.477888699e-13,1.096536754e-13,1.952816287e-14
0.64844,1.124490373e-13,8.906826105e-14,2.547891552e-13,6.819607421e-14,1.492655695e-14,7.986446249e-14,2.050680510e-13,5.880481153e-14,5.158350827e-14,1.232321979e-13,3.154574803e-13,2.142895027e-13,1.961292207e-13,3.588096795e-13,2.276617339e-13,1.927454232e-13,2.392059762e-13,1.994362672e-13,1.695464704e-13,1.217195381e-13,2.025938893e-13,8.072191231e-14,1.067249509e-13,1.343924836e-13,5.182529148e-14,1.463486942e-14,7.991610430e-14,4.345357154e-13,1.032936466e-13,1.388040537e-13,9.695455124e-14,2.552165249e-14
0.65625,9.832386922e-14,8.038471595e-14,2.690051345e-13,6.361413152e-14,1.468603579e-14,7.886099623e-14,1.954017531e-13,5.415966712e-14,4.736077739e-14,1.145686335e-13,2.870751654e-13,1.953723239e-13,1.950386142e-13,3.335393922e-13,2.043765878e-13,1.787452069e-13,2.308089749e-13,1.970170552e-13,1.739118243e-13,1.162035620e-13,2.120149927e-13,8.529514602e-14,1.214248706e-13,1.305726704e-13,5.378460986e-14,1.706094066e-14,8.056935604e-14,4.654377568e-13,1.003016244e-13,1.371530662e-13,9.499290053e-14,3.074283594e-14
0.66406,8.685796174e-14,7.218933369e-14,2.817424192e-13,5.912770011e-14,1.470882140e-14,7.729398422e-14,1.841399264e-13,5.046659448e-14,4.426983959e-14,1.059498235e-13,2.590299303e-13,1.774737558e-13,1.914730907e-13,3.075626778e-13,1.834651973e-13,1.665084678e-13,2.213292686e-13,1.922366354e-13,1.764401562e-13,1.105137799e-13,2.186061970e-13,8.838275420e-14,1.292058844e-13,1.254445831e-13,5.393779007e-14,1.883553102e-14,8.010181332e-14,4.825936109e-13,9.819302048e-14,1.283044388e-13,9.562580183e-14,3.334517825e-14
0.67188,7.814211067e-14,6.418935856e-14,2.990500358e-13,5.562289016e-14,1.518443524e-14,7.680829879e-14,1.779556617e-13,4.813216071e-14,4.193438029e-14,9.811803537e-14,2.357990510e-13,1.615384796e-13,1.880813486e-13,2.814905733e-13,1.649683595e-13,1.564444972e-13,2.118817646e-13,1.865161836e-13,1.771025876e-13,1.058004338e-13,2.214726090e-13,9.148405860e-14,1.337771295e-13,1.230198533e-13,5.679888195e-14,1.976938593e-14,8.125736483e-14,5.110850376e-13,9.723010230e-14,1.236074166e-13,9.645578682e-14,3.424342786e-14
0.67969,7.386685270e-14,5.930793418e-14,3.194138760e-13,5.390164417e-14,1.563917679e-14,7.727005148e-14,1.714171137e-13,4.717352848e-14,4.033126200e-14,9.117602136e-14,2.150117588e-13,1.473437436e-13,1.843542362e-13,2.573109672e-13,1.497514459e-13,1.483396264e-13,2.026539673e-13,1.797943855e-13,1.763980742e-13,1.027657104e-13,2.211292194e-13,9.433461458e-14,1.339378020e-13,1.224251176e-13,6.066856169e-14,1.964215110e-14,8.400555670e-14,5.451890066e-13,9.766695109e-14,1.275398894e-13,9.520388346e-14,3.301192826e-14
0.6875,7.291342607e-14,5.627534001e-14,3.410983575e-13,5.261169713e-14,1.573652915e-14,7.758131941e-14,1.676230887e-13,4.697189411e-14,3.885707657e-14,8.480221074e-14,1.976286668e-13,1.349593224e-13,1.792736591e-13,2.345998566e-13,1.359467744e-13,1.412340463e-13,1.920603102e-13,1.713680899e-13,1.741077112e-13,1.014767962e-13,2.178585832e-13,9.687000463e-14,1.289035163e-13,1.217898097e-13,6.363637408e-14,1.850756841e-14,8.717576280e-14,5.749420925e-13,9.923709697e-14,1.266175748e-13,8.811914536e-14,3.028786452e-14
0.69531,7.233677173e-14,5.399568941e-14,3.650607992e-13,5.216773657e-14,1.537759121e-14,7.889627811e-14,1.656816281e-13,4.710389355e-14,3.750733597e-14,7.888349144e-14,1.822461125e-13,1.235245999e-13,1.740490561e-13,2.139684165e-13,1.236275835e-13,1.338456444e-13,1.805938995e-13,1.620887382e-13,1.702621434e-13,1.015620641e-13,2.122002424e-13,9.899147677e-14,1.211294798e-13,1.219473827e-13,6.730464985e-14,1.681659218e-14,9.213194109e-14,6.074604312e-13,1.029718489e-13,1.324691060e-13,7.834852789e-14,2.656719261e-14
0.70312,6.656179752e-14,5.023236134e-14,3.876538919e-13,5.142226153e-14,1.447908214e-14,8.032571355e-14,1.629745373e-13,4.701751554e-14,3.613012367e-14,7.336145490e-14,1.669928936e-13,1.125979202e-13,1.675686452e-13,1.963529435e-13,1.124266395e-13,1.264072316e-13,1.682882654e-13,1.520447270e-13,1.658447476e-13,1.031064053e-13,2.060943253e-13,9.982657201e-14,1.096162453e-13,1.225170206e-13,7.091168670e-14,1.510910987e-14,9.713764346e-14,6.333600840e-13,1.086832102e-13,1.403907563e-13,6.576436871e-14,2.216725003e-14
0.71094,6.140574419e-14,4.751100795e-14,4.089564025e-13,5.118706621e-14,1.310579573e-14,8.166713407e-14,1.633765120e-13,4.633465708e-14,3.444859486e-14,6.844663547e-14,1.544101878e-13,1.024879915e-13,1.619055644e-13,1.811633781e-13,1.018992822e-13,1.192587886e-13,1.557281458e-13,1.424435416e-13,1.608066806e-13,1.054928449e-13,1.992984092e-13,1.011527743e-13,1.010487281e-13,1.236309197e-13,7.624380770e-14,1.380102696e-14,1.032653501e-13,6.674259118e-13,1.160087278e-13,1.542715097e-13,5.302238140e-14,1.933468044e-14
0.71875,5.612352916e-14,4.520252903e-14,4.288657993e-13,5.124627293e-14,1.153112308e-14,8.326944829e-14,1.651787247e-13,4.484491978e-14,3.272433349e-14,6.394650787e-14,1.433035422e-13,9.295932484e-14,1.572167756e-13,1.690454109e-13,9.286350612e-14,1.123319435e-13,1.435196295e-13,1.335434994e-13,1.553760587e-13,1.087570070e-13,1.924383678e-13,1.024681442e-13,9.470671242e-14,1.245728567e-13,8.173217371e-14,1.294192809e-14,1.093588145e-13,7.004090927e-13,1.242131150e-13,1.728414282e-13,4.257538109e-14,1.785395313e-14
0.72656,4.944234066e-14,4.121295307e-14,4.484679738e-13,5.063336877e-14,9.947147603e-15,8.496148885e-14,1.695290021e-13,4.249666768e-14,3.092774768e-14,5.992985607e-14,1.337249176e-13,8.440885259e-14,1.522457780e-13,1.600435977e-13,8.499250467e-14,1.057154563e-13,1.316631900e-13,1.251937613e-13,1.499303225e-13,1.131188627e-13,1.864994695e-13,1.030296563e-13,8.870939833e-14,1.230908164e-13,8.470475312e-14,1.261457646e-14,1.128146552e-13,7.134717264e-13,1.318407330e-13,1.798222175e-13,3.444179374e-14,1.748867428e-14
0.73438,4.574458736e-14,3.912833179e-14,4.715868804e-13,5.179201331e-14,8.659838227e-15,8.759346664e-14,1.758605186e-13,3.957321439e-14,2.902892157e-14,5.671562752e-14,1.264843090e-13,7.678051982e-14,1.479572510e-13,1.533095602e-13,7.870914109e-14,9.983794670e-14,1.209177988e-13,1.178001240e-13,1.444551366e-13,1.178895476e-13,1.807674474e-13,1.034967183e-13,8.663986498e-14,1.212996562e-13,8.803285200e-14,1.278921574e-14,1.156695406e-13,7.269593208e-13,1.385129299e-13,1.895881700e-13,3.017124458e-14,1.863909445e-14
0.74219,4.202640531e-14,3.698756957e-14,4.947783456e-13,5.340223763e-14,7.797237969e-15,9.019683366e-14,1.813734886e-13,3.613450731e-14,2.710734081e-14,5.383482901e-14,1.199524674e-13,6.969101000e-14,1.437249712e-13,1.480842560e-13,7.422807629e-14,9.530002113e-14,1.117958973e-13,1.114081999e-13,1.395290665e-13,1.232619101e-13,1.753610236e-13,1.032080560e-13,8.479081509e-14,1.186409895e-13,9.038035445e-14,1.309062659e-14,1.164699994e-13,7.325728465e-13,1.427451744e-13,1.963952580e-13,2.861636587e-14,2.023797884e-14
0.75,3.959301150e-14,3.534764439e-14,5.155452163e-13,5.462973421e-14,7.263609983e-15,9.194578526e-14,1.874992899e-13,3.240663172e-14,2.512091495e-14,5.112158264e-14,1.151178215e-13,6.357525971e-14,1.402615720e-13,1.433574296e-13,7.089724331e-14,9.211003876e-14,1.040194480e-13,1.062470204e-13,1.348660849e-13,1.287842235e-13,1.695299990e-13,1.032200943e-13,8.485717025e-14,1.135654007e-13,9.110974360e-14,1.339290692e-14,1.153801578e-13,7.286101200e-13,1.441138147e-13,1.925004145e-13,3.042455625e-14,2.269756977e-14
0.75781,3.835714573e-14,3.445619693e-14,5.373695778e-13,5.630552063e-14,7.214692300e-15,9.389824722e-14,1.942085907e-13,2.869439586e-14,2.319389030e-14,4.870390064e-14,1.119488300e-13,5.832001407e-14,1.370676818e-13,1.391818433e-13,6.909190264e-14,9.010899011e-14,9.740523862e-14,1.014167641e-13,1.304446548e-13,1.339442590e-13,1.633281883e-13,1.028999614e-13,8.509314508e-14,1.085084391e-13,9.165895254e-14,1.365471584e-14,1.138153001e-13,7.211161517e-13,1.438216921e-13,1.887796752e-13,3.337159666e-14,2.478884743e-14
0.76562,3.740501666e-14,3.278623957e-14,5.591249201e-13,5.769300865e-14,7.513655872e-15,9.567547716e-14,2.003421194e-13,2.503046418e-14,2.142701341e-14,4.621748197e-14,1.088009611e-13,5.380732275e-14,1.330763522e-13,1.354792172e-13,6.865476622e-14,8.932631638e-14,9.243821977e-14,9.720576911e-14,1.268689267e-13,1.388529832e-13,1.571028111e-13,1.014267496e-13,8.249091295e-14,1.023520495e-13,9.032407718e-14,1.377516741e-14,1.112045071e-13,6.997310278e-13,1.427376377e-13,1.792903110e-13,3.608504939e-14,2.565406961e-14
0.77344,3.919048034e-14,3.368374376e-14,5.754182968e-13,6.008073596e-14,8.101972086e-15,9.627445246e-14,2.032393508e-13,2.165299586e-14,1.988525852e-14,4.363545875e-14,1.056715390e-13,5.021792476e-14,1.295536895e-13,1.315963361e-13,6.889510049e-14,8.940243177e-14,8.870635626e-14,9.431655666e-14,1.240580593e-13,1.428947665e-13,1.499969777e-13,1.002015894e-13,8.110530598e-14,9.630367153e-14,9.005302113e-14,1.383707100e-14,1.104021428e-13,6.853836290e-13,1.430825628e-13,1.738886687e-13,3.980364304e-14,2.635412658e-14
0.78125,4.171296537e-14,3.466909496e-14,5.878834856e-13,6.259630421e-14,8.964164763e-15,9.655373033e-14,2.046126857e-13,1.866152118e-14,1.871689155e-14,4.115694816e-14,1.025035720e-13,4.714663655e-14,1.260150826e-13,1.276430333e-13,6.934379745e-14,8.952013185e-14,8.567434184e-14,9.229117264e-14,1.221480936e-13,1.461258310e-13,1.425276982e-13,9.851735797e-14,7.788022017e-14,9.055915857e-14,9.047162127e-14,1.391061723e-14,1.107965677e-13,6.709052022e-13,1.456807037e-13,1.732898090e-13,4.122362548e-14,2.585156329e-14
0.78906,4.630950834e-14,3.569289376e-14,5.997841692e-13,6.436048351e-14,9.933909059e-15,9.723673129e-14,2.087109073e-13,1.604849388e-14,1.800097422e-14,3.903496105e-14,1.005748184e-13,4.455588906e-14,1.226770277e-13,1.236681151e-13,6.957060712e-14,8.964922183e-14,8.348489011e-14,9.164689603e-14,1.209752670e-13,1.491201612e-13,1.344317127e-13,9.658327139e-14,7.271685886e-14,8.356854222e-14,8.966907725e-14,1.396991553e-14,1.116366174e-13,6.467023268e-13,1.504427920e-13,1.700390964e-13,4.110876406e-14,2.451581051e-14
0.79688,5.307742017e-14,3.900151721e-14,6.119257566e-13,6.732132589e-14,1.107837774e-14,9.835412128e-14,2.135502853e-13,1.393908546e-14,1.763243091e-14,3.758438256e-14,1.000809508e-13,4.251571892e-14,1.194175670e-13,1.199499094e-13,7.018411491e-14,8.992025477e-14,8.217741918e-14,9.234495714e-14,1.209908698e-13,1.523541567e-13,1.259253163e-13,9.453640336e-14,6.722815302e-14,7.781281628e-14,8.965911006e-14,1.401193831e-14,1.143567257e-13,6.285316299e-13,1.579748125e-13,1.730391459e-13,4.097896734e-14,2.271758062e-14
0.80469,6.020921460e-14,4.264929105e-14,6.238313332e-13,7.080078077e-14,1.211507306e-14,9.978866081e-14,2.186821788e-13,1.226638424e-14,1.755183590e-14,3.672512846e-14,1.004138858e-13,4.095770001e-14,1.161741074e-13,1.168295905e-13,7.113320738e-14,9.032565486e-14,8.222241809e-14,9.494866482e-14,1.231899020e-13,1.565384240e-13,1.183468651e-13,9.235172273e-14,6.061037882e-14,7.248839974e-14,8.893604137e-14,1.412296745e-14,1.171269350e-13,6.058467519e-13,1.671062562e-13,1.755858520e-13,4.121299910e-14,2.047182466e-14
0.8125,6.795506369e-14,4.732872963e-14,6.296092269e-13,7.396799871e-14,1.289552073e-14,1.003657858e-13,2.231609832e-13,1.093226378e-14,1.779732991e-14,3.634954197e-14,1.021882892e-13,4.005820179e-14,1.145615512e-13,1.142086612e-13,7.178827496e-14,9.137807176e-14,8.362898366e-14,1.002674071e-13,1.273620386e-13,1.616994831e-13,1.114013374e-13,9.131628924e-14,5.553761702e-14,6.776997445e-14,8.855203796e-14,1.431605335e-14,1.204585710e-13,5.859575741e-13,1.770766220e-13,1.780895915e-13,4.447877489e-14,1.903805803e-14
0.82031,7.499408747e-14,5.212920672e-14,6.324744000e-13,7.683837893e-14,1.353215147e-14,1.005826807e-13,2.276090555e-13,9.836938388e-15,1.833101337e-14,3.651832893e-14,1.048805557e-13,3.952803307e-14,1.138384974e-13,1.123970505e-13,7.248850311e-14,9.252275713e-14,8.607624978e-14,1.075644715e-13,1.335937967e-13,1.675931771e-13,1.054400208e-13,9.040870602e-14,5.029643580e-14,6.451927838e-14,8.890400698e-14,1.458815221e-14,1.247773999e-13,5.671363369e-13,1.878122537e-13,1.834567811e-13,5.089496214e-14,1.774358355e-14
0.82812,8.223676569e-14,5.711538280e-14,6.333401985e-13,7.902827888e-14,1.403280716e-14,1.005196792e-13,2.330079713e-13,8.822359593e-15,1.915042985e-14,3.699769292e-14,1.083714190e-13,3.921311219e-14,1.141874488e-13,1.111771068e-13,7.292992912e-14,9.358441474e-14,8.923138434e-14,1.166031162e-13,1.418977621e-13,1.740700496e-13,1.008075103e-13,8.979291427e-14,4.530738528e-14,6.244153110e-14,8.926715065e-14,1.516470328e-14,1.298334327e-13,5.419481816e-13,1.992121756e-13,1.879074516e-13,6.072687070e-14,1.708472978e-14
0.83594,8.961395279e-14,6.378266838e-14,6.257681849e-13,8.164766480e-14,1.461947543e-14,9.877976384e-14,2.328060762e-13,7.798289546e-15,2.019667682e-14,3.737061364e-14,1.111316105e-13,3.918223316e-14,1.158188298e-13,1.104270074e-13,7.322472460e-14,9.517871940e-14,9.297509783e-14,1.271986438e-13,1.519229581e-13,1.800544184e-13,9.692686262e-14,8.995233313e-14,4.331594550e-14,6.252878617e-14,9.099772986e-14,1.619424112e-14,1.367070491e-13,5.256488209e-13,2.119043160e-13,1.964944699e-13,7.329211745e-14,1.773687517e-14
0.84375,9.942393797e-14,7.149120884e-14,6.130358156e-13,8.416103481e-14,1.534278974e-14,9.637377655e-14,2.295938413e-13,6.762294991e-15,2.152468311e-14,3.793104118e-14,1.136672916e-13,3.934083784e-14,1.185670752e-13,1.108976066e-13,7.373455325e-14,9.706061010e-14,9.763398664e-14,1.398171289e-13,1.640788912e-13,1.846064513e-13,9.397549537e-14,9.055434400e-14,4.212141914e-14,6.444553655e-14,9.349884571e-14,1.761531644e-14,1.450996146e-13,5.105215998e-13,2.259568822e-13,2.101856881e-13,8.661223463e-14,1.900712192e-14
0.85156,1.133918911e-13,8.050758881e-14,5.926896675e-13,8.585698231e-14,1.636192251e-14,9.310316445e-14,2.250735634e-13,5.745687725e-15,2.311022803e-14,3.891698191e-14,1.176386651e-13,3.988551956e-14,1.231933734e-13,1.126642747e-13,7.424670012e-14,9.949160307e-14,1.031256818e-13,1.546537462e-13,1.783971683e-13,1.876037206e-13,9.170374820e-14,9.247338857e-14,4.232719719e-14,6.867489861e-14,9.774738732e-14,1.952034532e-14,1.556084712e-13,4.980714829e-13,2.417712840e-13,2.306302868e-13,9.822966009e-14,2.113521845e-14
0.85938,1.288392902e-13,9.053935778e-14,5.685912450e-13,8.811816217e-14,1.794702599e-14,8.901400259e-14,2.158472524e-13,4.782685911e-15,2.474567116e-14,3.996614802e-14,1.210371437e-13,4.083210800e-14,1.281598990e-13,1.157239461e-13,7.534915392e-14,1.025563829e-13,1.095271574e-13,1.705100428e-13,1.947376330e-13,1.889459683e-13,8.995381186e-14,9.447926916e-14,4.402509218e-14,7.468611610e-14,1.029440753e-13,2.197561400e-14,1.680080340e-13,4.901638868e-13,2.598670022e-13,2.550621480e-13,1.050194505e-13,2.311864257e-14
0.86719,1.477529135e-13,1.019107461e-13,5.453919968e-13,9.073770971e-14,1.987514765e-14,8.542003276e-14,2.064516319e-13,4.022170459e-15,2.659331930e-14,4.126565136e-14,1.250389140e-13,4.212813589e-14,1.341701608e-13,1.198494394e-13,7.668905278e-14,1.059773075e-13,1.164689111e-13,1.874856282e-13,2.126172098e-13,1.886902124e-13,8.882182373e-14,9.668773499e-14,4.615944357e-14,8.238075644e-14,1.080635839e-13,2.473585962e-14,1.817256188e-13,4.813523144e-13,2.802064645e-13,2.820542926e-13,1.084238082e-13,2.488959742e-14
0.875,1.697250228e-13,1.150616080e-13,5.171865190e-13,9.385421029e-14,2.184195944e-14,8.169390130e-14,1.956242424e-13,3.594333827e-15,2.866781233e-14,4.296500205e-14,1.300358040e-13,4.378909227e-14,1.419971522e-13,1.240621439e-13,7.779766046e-14,1.096940008e-13,1.236216756e-13,2.055429869e-13,2.312590498e-13,1.874047471e-13,8.791932330e-14,1.000131566e-13,5.008390221e-14,9.209459024e-14,1.138874570e-13,2.750485593e-14,1.966758733e-13,4.803138172e-13,3.024704494e-13,3.132488477e-13,1.106400710e-13,2.691666439e-14
0.88281,1.929158704e-13,1.288988308e-13,4.921710372e-13,9.723213171e-14,2.358317946e-14,7.872842846e-14,1.856917215e-13,3.523157754e-15,3.085929786e-14,4.520722203e-14,1.357253025e-13,4.567626143e-14,1.502731512e-13,1.283301021e-13,7.968385063e-14,1.135898194e-13,1.316272374e-13,2.242419341e-13,2.510849439e-13,1.862547331e-13,8.780097966e-14,1.033207485e-13,5.335024972e-14,1.026399828e-13,1.198618082e-13,3.009297445e-14,2.120622846e-13,4.783185579e-13,3.255960639e-13,3.452411397e-13,1.135643024e-13,2.802087286e-14
0.89062,2.153407964e-13,1.422267634e-13,4.702085612e-13,9.943126773e-14,2.486153268e-14,7.646477051e-14,1.788298772e-13,3.756174349e-15,3.322732219e-14,4.825926055e-14,1.436525862e-13,4.794247143e-14,1.593241539e-13,1.330117747e-13,8.307013711e-14,1.185273004e-13,1.404402683e-13,2.436025930e-13,2.720183027e-13,1.855963630e-13,8.861463255e-14,1.068961382e-13,5.589120139e-14,1.138666377e-13,1.260237251e-13,3.241474906e-14,2.275460304e-13,4.733610771e-13,3.488624888e-13,3.762063755e-13,1.205726266e-13,2.867172680e-14
0.89844,2.316207921e-13,1.537948675e-13,4.466605179e-13,1.007147446e-13,2.568756943e-14,7.376221843e-14,1.701519248e-13,4.153396242e-15,3.578404025e-14,5.164806066e-14,1.517892109e-13,5.071895920e-14,1.684535700e-13,1.378547526e-13,8.782008184e-14,1.247086848e-13,1.499027500e-13,2.631095333e-13,2.934023915e-13,1.856926618e-13,9.005755544e-14,1.104117595e-13,5.942853911e-14,1.244780973e-13,1.309613362e-13,3.436830318e-14,2.415575666e-13,4.690427579e-13,3.714564291e-13,3.987653180e-13,1.327677766e-13,2.932366140e-14
0.90625,2.458541848e-13,1.650167166e-13,4.248399379e-13,1.009195693e-13,2.602809229e-14,7.120965676e-14,1.630198678e-13,4.650334974e-15,3.887738783e-14,5.525052515e-14,1.604379517e-13,5.387356395e-14,1.784542243e-13,1.429775353e-13,9.352848170e-14,1.312804715e-13,1.604179256e-13,2.835903818e-13,3.153647749e-13,1.872193311e-13,9.276564177e-14,1.140638304e-13,6.222940043e-14,1.346136448e-13,1.354584155e-13,3.598023670e-14,2.547825997e-13,4.620209726e-13,3.928410036e-13,4.191677333e-13,1.525970014e-13,3.008159838e-14
0.91406,2.607144521e-13,1.767795723e-13,4.004971108e-13,1.001455701e-13,2.604933280e-14,6.828117935e-14,1.566051630e-13,5.201153367e-15,4.257188782e-14,5.922598537e-14,1.700497803e-13,5.732937407e-14,1.900574193e-13,1.485258698e-13,1.002097430e-13,1.382016300e-13,1.715860251e-13,3.050041284e-13,3.376150712e-13,1.889751384e-13,9.660560420e-14,1.184592177e-13,6.548046670e-14,1.453350591e-13,1.414356198e-13,3.761920596e-14,2.686983445e-13,4.582366716e-13,4.134003629e-13,4.434799446e-13,1.784509507e-13,3.154407388e-14
0.92188,2.714515784e-13,1.866708306e-13,3.779629980e-13,9.843822312e-14,2.612096309e-14,6.500994779e-14,1.491710095e-13,5.748475829e-15,4.659249124e-14,6.340925321e-14,1.790499695e-13,6.102814631e-14,2.013608760e-13,1.544065464e-13,1.080753610e-13,1.455052229e-13,1.825605679e-13,3.258558247e-13,3.599584458e-13,1.900889740e-13,1.015858014e-13,1.222097399e-13,6.898646048e-14,1.564114726e-13,1.482284339e-13,3.952835929e-14,2.821301369e-13,4.521087416e-13,4.329899907e-13,4.624610640e-13,2.030700996e-13,3.278467734e-14
0.92969,2.819714834e-13,1.958719439e-13,3.579386395e-13,9.607896703e-14,2.634020528e-14,6.194363291e-14,1.432375913e-13,6.369789627e-15,5.089875638e-14,6.818809528e-14,1.889954672e-13,6.499281359e-14,2.130529427e-13,1.610350327e-13,1.176160868e-13,1.533515603e-13,1.929494576e-13,3.463331396e-13,3.820616297e-13,1.905647981e-13,1.081262168e-13,1.261099869e-13,7.326252734e-14,1.690205600e-13,1.562145111e-13,4.194554587e-14,2.959022268e-13,4.447298508e-13,4.520338393e-13,4.829880110e-13,2.234130512e-13,3.411068146e-14
0.9375,2.943302421e-13,2.058509695e-13,3.378029164e-13,9.463841098e-14,2.683896591e-14,5.929249551e-14,1.376166997e-13,7.200072750e-15,5.520786060e-14,7.391479800e-14,2.003364138e-13,6.927659570e-14,2.253176539e-13,1.685308556e-13,1.289433962e-13,1.620438310e-13,2.026486831e-13,3.658008023e-13,4.028790904e-13,1.897296494e-13,1.159060210e-13,1.307218704e-13,8.060944815e-14,1.834735133e-13,1.649093462e-13,4.511117597e-14,3.102404965e-13,4.430691310e-13,4.710254431e-13,5.073650737e-13,2.359198305e-13,3.594585822e-14
0.94531,3.104910556e-13,2.169897877e-13,3.245760632e-13,9.391619626e-14,2.743734930e-14,5.792244632e-14,1.345904199e-13,8.280503369e-15,5.932914425e-14,8.046056975e-14,2.130111725e-13,7.378161198e-14,2.375498237e-13,1.769219878e-13,1.417675140e-13,1.714120614e-13,2.123487136e-13,3.840759145e-13,4.221284151e-13,1.881600645e-13,1.248334916e-13,1.352619128e-13,8.798272768e-14,2.002666951e-13,1.749039505e-13,4.861092640e-14,3.251964285e-13,4.426536075e-13,4.898938989e-13,5.380937189e-13,2.394633625e-13,3.707617398e-14
0.95312,3.313468842e-13,2.291960407e-13,3.165233443e-13,9.367043735e-14,2.784365700e-14,5.768652392e-14,1.344988002e-13,9.608122069e-15,6.308060908e-14,8.799226342e-14,2.276059931e-13,7.856150746e-14,2.498259634e-13,1.865949674e-13,1.568740603e-13,1.818718981e-13,2.222192053e-13,4.014522247e-13,4.395725526e-13,1.865934694e-13,1.345236956e-13,1.400937942e-13,9.497703087e-14,2.190903629e-13,1.853639056e-13,5.194047515e-14,3.401242075e-13,4.448286621e-13,5.079928042e-13,5.765000442e-13,2.349087460e-13,3.759438371e-14
0.96094,3.458596821e-13,2.379276892e-13,3.133989296e-13,9.335006437e-14,2.807483804e-14,5.821864356e-14,1.351717832e-13,1.120282791e-14,6.612056572e-14,9.653137045e-14,2.430073572e-13,8.375635243e-14,2.601737219e-13,1.971896853e-13,1.746388886e-13,1.937861367e-13,2.317178289e-13,4.161659386e-13,4.546335070e-13,1.852987945e-13,1.446790011e-13,1.442073564e-13,1.023351036e-13,2.369841776e-13,1.928414641e-13,5.483980182e-14,3.516994511e-13,4.437319482e-13,5.233899916e-13,6.044408385e-13,2.224023404e-13,3.727513216e-14
0.96875,3.569017714e-13,2.450701130e-13,3.163478533e-13,9.273162699e-14,2.777807302e-14,5.956064358e-14,1.378513865e-13,1.299857265e-14,6.869947853e-14,1.056686559e-13,2.591421347e-13,8.921991367e-14,2.689843610e-13,2.085280527e-13,1.948723901e-13,2.067367389e-13,2.417225843e-13,4.289565034e-13,4.668783960e-13,1.849868319e-13,1.550363258e-13,1.476132472e-13,1.087165048e-13,2.532057328e-13,1.981829016e-13,5.694823492e-14,3.609569687e-13,4.393052163e-13,5.359602343e-13,6.295259206e-13,2.112080597e-13,3.618381388e-14
0.97656,3.671888963e-13,2.521651950e-13,3.227633363e-13,9.228002172e-14,2.686159516e-14,6.146020366e-14,1.418073333e-13,1.492972329e-14,7.101345097e-14,1.151926723e-13,2.756995387e-13,9.492927894e-14,2.769260508e-13,2.204148963e-13,2.171287893e-13,2.206127081e-13,2.521240289e-13,4.405595679e-13,4.762741095e-13,1.858379253e-13,1.652175731e-13,1.508884295e-13,1.145862926e-13,2.674282860e-13,2.012763789e-13,5.805006113e-14,3.675823880e-13,4.356240971e-13,5.453825674e-13,6.534866647e-13,2.057294331e-13,3.517988957e-14
0.98438,3.690579062e-13,2.553632033e-13,3.358090566e-13,9.064309660e-14,2.550080156e-14,6.366471538e-14,1.459111034e-13,1.702728956e-14,7.309066455e-14,1.250002098e-13,2.913648986e-13,1.008781707e-13,2.822872063e-13,2.320901784e-13,2.406169848e-13,2.352473870e-13,2.621990739e-13,4.496304479e-13,4.833267184e-13,1.877937497e-13,1.759994439e-13,1.528308769e-13,1.180560044e-13,2.789039981e-13,2.021955334e-13,5.822850901e-14,3.696679928e-13,4.237589056e-13,5.499944530e-13,6.618510446e-13,2.063017513e-13,3.385921450e-14
0.99219,3.659045647e-13,2.563578790e-13,3.536335923e-13,8.810727816e-14,2.376592349e-14,6.614814011e-14,1.508779018e-13,1.935016839e-14,7.524048960e-14,1.352138111e-13,3.066609801e-13,1.070024193e-13,2.855545264e-13,2.438405429e-13,2.658403264e-13,2.506597283e-13,2.724165502e-13,4.567462505e-13,4.876090471e-13,1.907741337e-13,1.873886331e-13,1.536268706e-13,1.202670508e-13,2.886382930e-13,2.021268873e-13,5.792943733e-14,3.689035461e-13,4.076382129e-13,5.504687396e-13,6.612733192e-13,2.165459705e-13,3.286826656e-14
1,3.555380332e-13,2.539712781e-13,3.753743706e-13,8.491385067e-14,2.198694579e-14,6.901095001e-14,1.564394183e-13,2.194992201e-14,7.748948515e-14,1.461284059e-13,3.215082651e-13,1.134747838e-13,2.869014781e-13,2.557979269e-13,2.928596661e-13,2.673494448e-13,2.826561199e-13,4.622143133e-13,4.891417808e-13,1.948861178e-13,1.991075010e-13,1.534349359e-13,1.235436195e-13,2.966529688e-13,1.997195879e-13,5.747473458e-14,3.645794811e-13,3.883126628e-13,5.471802729e-13,6.474432440e-13,2.327650044e-13,3.260950905e-14
1.0078,3.427955295e-13,2.503304814e-13,4.040486092e-13,8.110567335e-14,2.019834404e-14,7.234433484e-14,1.630579105e-13,2.482576998e-14,7.983601033e-14,1.577536981e-13,3.361574296e-13,1.200122364e-13,2.865213652e-13,2.674296087e-13,3.212040208e-13,2.850028191e-13,2.931940139e-13,4.664253241e-13,4.888400761e-13,2.002272169e-13,2.119024171e-13,1.522248938e-13,1.260703614e-13,3.040913232e-13,1.973450394e-13,5.697832093e-14,3.584945641e-13,3.648494296e-13,5.406645273e-13,6.289421625e-13,2.538974746e-13,3.257908929e-14
1.0156,3.323342973e-13,2.472789733e-13,4.384641102e-13,7.761429547e-14,1.849919072e-14,7.663371835e-14,1.720158827e-13,2.804155178e-14,8.195974358e-14,1.701105938e-13,3.523090965e-13,1.265181602e-13,2.845637569e-13,2.784695959e-13,3.509918521e-13,3.034541048e-13,3.035584855e-13,4.690951097e-13,4.863531697e-13,2.063587055e-13,2.255014575e-13,1.503608057e-13,1.290324459e-13,3.125773847e-13,1.956349224e-13,5.685704967e-14,3.518350926e-13,3.423181844e-13,5.316290038e-13,6.128757428e-13,2.744380129e-13,3.291308057e-14
1.0234,3.171401444e-13,2.404451744e-13,4.806121354e-13,7.363460990e-14,1.707880112e-14,8.202702694e-14,1.831669925e-13,3.161507656e-14,8.333738630e-14,1.832141297e-13,3.698143395e-13,1.333452982e-13,2.796697166e-13,2.886681242e-13,3.817294836e-13,3.231664682e-13,3.134122162e-13,4.690956803e-13,4.816843106e-13,2.132947190e-13,2.395229614e-13,1.471615543e-13,1.323026975e-13,3.217690131e-13,1.938115383e-13,5.726113332e-14,3.431958459e-13,3.155765969e-13,5.198875340e-13,5.871197572e-13,2.861949994e-13,3.282414490e-14
1.0312,3.043416468e-13,2.335998629e-13,5.279675281e-13,6.993967585e-14,1.581681981e-14,8.808256638e-14,1.959858710e-13,3.532413103e-14,8.405614150e-14,1.969151968e-13,3.883317979e-13,1.402424079e-13,2.733065684e-13,2.987191377e-13,4.137131103e-13,3.439615095e-13,3.241761154e-13,4.679637856e-13,4.751488692e-13,2.208479674e-13,2.532878345e-13,1.433289035e-13,1.354934184e-13,3.314232767e-13,1.928324332e-13,5.811560007e-14,3.356128388e-13,2.904262444e-13,5.073793979e-13,5.663940827e-13,2.912331253e-13,3.220495003e-14
1.0391,2.934817675e-13,2.267365513e-13,5.774200311e-13,6.697578440e-14,1.477282031e-14,9.494623626e-14,2.102710033e-13,3.901060424e-14,8.388889586e-14,2.112287247e-13,4.083340154e-13,1.472984794e-13,2.657662403e-13,3.092312479e-13,4.472300889e-13,3.658385476e-13,3.354550472e-13,4.657569605e-13,4.666202808e-13,2.283588619e-13,2.652811891e-13,1.393527892e-13,1.393023174e-13,3.401291513e-13,1.904691698e-13,5.930648406e-14,3.287303972e-13,2.692584861e-13,4.945129449e-13,5.507789537e-13,2.862679396e-13,3.121729433e-14
1.0469,2.833611209e-13,2.189723199e-13,6.329551156e-13,6.414242344e-14,1.387975331e-14,1.028336650e-13,2.263525447e-13,4.256777869e-14,8.266140214e-14,2.262129109e-13,4.300511879e-13,1.545455582e-13,2.562014858e-13,3.199218258e-13,4.811040706e-13,3.885704973e-13,3.468524202e-13,4.619479967e-13,4.568699947e-13,2.358811837e-13,2.753310529e-13,1.347214320e-13,1.402018919e-13,3.477965652e-13,1.879915248e-13,6.050567886e-14,3.221712030e-13,2.475930756e-13,4.809559963e-13,5.355495069e-13,2.710790830e-13,2.934811394e-14
1.0547,2.758627727e-13,2.117608472e-13,6.899302826e-13,6.184676887e-14,1.308543443e-14,1.111796431e-13,2.437916171e-13,4.580603020e-14,8.059901494e-14,2.415459998e-13,4.523378482e-13,1.614788070e-13,2.456478307e-13,3.307659284e-13,5.140084677e-13,4.108733324e-13,3.584743700e-13,4.576302125e-13,4.463608725e-13,2.431675302e-13,2.831303783e-13,1.298860194e-13,1.388400148e-13,3.550378873e-13,1.851265651e-13,6.179469460e-14,3.167734605e-13,2.299172370e-13,4.677306257e-13,5.255015908e-13,2.493518354e-13,2.715814689e-14
1.0625,2.630717005e-13,2.015820267e-13,7.439002339e-13,5.942428640e-14,1.244535544e-14,1.193404248e-13,2.612964006e-13,4.874026430e-14,7.773307369e-14,2.568632983e-13,4.738680408e-13,1.682474110e-13,2.333991134e-13,3.415891618e-13,5.451173749e-13,4.322836969e-13,3.694338358e-13,4.522132752e-13,4.352864486e-13,2.493664945e-13,2.877743429e-13,1.244842037e-13,1.359429041e-13,3.599329841e-13,1.794783737e-13,6.313028311e-14,3.102900214e-13,2.125361852e-13,4.539439346e-13,5.079235314e-13,2.218924063e-13,2.480328585e-14
1.0703,2.513421034e-13,1.920370187e-13,7.958007202e-13,5.723003517e-14,1.176884856e-14,1.270905217e-13,2.782373208e-13,5.146500350e-14,7.456420960e-14,2.721983152e-13,4.954536346e-13,1.747411004e-13,2.204236896e-13,3.525200081e-13,5.747935796e-13,4.526212562e-13,3.800797073e-13,4.462941502e-13,4.242848794e-13,2.540287264e-13,2.894668703e-13,1.187387701e-13,1.302892805e-13,3.619025688e-13,1.729971656e-13,6.424030128e-14,3.041202115e-13,1.965152389e-13,4.396807771e-13,4.910535326e-13,1.959306865e-13,2.252030860e-14
1.0781,2.403270453e-13,1.831286141e-13,8.451624335e-13,5.540915055e-14,1.110340711e-14,1.347449709e-13,2.957195393e-13,5.402304623e-14,7.137700893e-14,2.875283581e-13,5.178034264e-13,1.809135632e-13,2.075697353e-13,3.633096471e-13,6.022151106e-13,4.713647785e-13,3.899430642e-13,4.403872806e-13,4.135928470e-13,2.574418144e-13,2.888036549e-13,1.131650888e-13,1.240067660e-13,3.621890028e-13,1.652803704e-13,6.532030193e-14,2.974645661e-13,1.835562575e-13,4.247401012e-13,4.742215102e-13,1.729859485e-13,2.092398991e-14
1.0859,2.253938161e-13,1.723328893e-13,8.952947290e-13,5.336796999e-14,1.053864910e-14,1.426716143e-13,3.152383997e-13,5.660413703e-14,6.825742267e-14,3.023280569e-13,5.407169401e-13,1.871009492e-13,1.940422195e-13,3.726896131e-13,6.258985435e-13,4.890510077e-13,3.989131728e-13,4.340741885e-13,4.037230410e-13,2.607026455e-13,2.863448063e-13,1.073302905e-13,1.161839003e-13,3.619346660e-13,1.571358490e-13,6.637414253e-14,2.886644243e-13,1.690183575e-13,4.078033508e-13,4.468426879e-13,1.543228367e-13,1.975682820e-14
1.0938,2.114995993e-13,1.623166674e-13,9.426195274e-13,5.162295490e-14,9.964000146e-15,1.504414403e-13,3.348229054e-13,5.953552228e-14,6.564122085e-14,3.162352363e-13,5.632793521e-13,1.929967255e-13,1.811873998e-13,3.803275778e-13,6.470408132e-13,5.057486928e-13,4.086811301e-13,4.291606769e-13,3.954965279e-13,2.647083111e-13,2.825868366e-13,1.019124272e-13,1.083386446e-13,3.613804980e-13,1.494731805e-13,6.727875257e-14,2.793448986e-13,1.567317743e-13,3.896890230e-13,4.188882457e-13,1.451875846e-13,1.901517196e-14
1.1016,1.958059061e-13,1.514159784e-13,9.856742472e-13,5.008800124e-14,9.385353309e-15,1.581716090e-13,3.544828933e-13,6.309367923e-14,6.347592346e-14,3.297931047e-13,5.861888312e-13,1.988078117e-13,1.687441035e-13,3.859402840e-13,6.661293931e-13,5.214761281e-13,4.189525636e-13,4.255500624e-13,3.891622234e-13,2.701717434e-13,2.786082110e-13,9.681197279e-14,1.022005720e-13,3.616489522e-13,1.419883561e-13,6.801858243e-14,2.687469696e-13,1.462907975e-13,3.705915669e-13,3.866610727e-13,1.437660199e-13,1.849395214e-14
1.1094,1.823973156e-13,1.410995031e-13,1.029862020e-12,4.892276477e-14,8.765491502e-15,1.663265556e-13,3.757721777e-13,6.720288869e-14,6.172729656e-14,3.430583309e-13,6.107495858e-13,2.047585760e-13,1.564564853e-13,3.886983417e-13,6.824960055e-13,5.368380683e-13,4.294698936e-13,4.225352041e-13,3.847281163e-13,2.775560911e-13,2.750663554e-13,9.149421116e-14,9.596574575e-14,3.638958869e-13,1.368751606e-13,6.851396702e-14,2.581435824e-13,1.373009411e-13,3.507843043e-13,3.538967223e-13,1.498520144e-13,1.783302193e-14
1.1172,1.719111417e-13,1.315064956e-13,1.072653257e-12,4.825428406e-14,8.095585073e-15,1.748751892e-13,3.979364001e-13,7.165818251e-14,6.032386117e-14,3.553245919e-13,6.356112341e-13,2.104708799e-13,1.448606533e-13,3.882493111e-13,6.957273231e-13,5.508071094e-13,4.402387767e-13,4.209640915e-13,3.822186550e-13,2.861003184e-13,2.711759298e-13,8.648640752e-14,9.108792438e-14,3.674262290e-13,1.331876967e-13,6.893732719e-14,2.481177051e-13,1.319556506e-13,3.310634207e-13,3.245861299e-13,1.604052326e-13,1.704102106e-14
1.125,1.608452020e-13,1.208320527e-13,1.114547711e-12,4.795326123e-14,7.421509305e-15,1.838964718e-13,4.215042557e-13,7.627694252e-14,5.906620418e-14,3.666214400e-13,6.605775536e-13,2.159677570e-13,1.336095347e-13,3.846251394e-13,7.054393027e-13,5.630151147e-13,4.504818323e-13,4.203520936e-13,3.815858288e-13,2.957460021e-13,2.668517782e-13,8.159251518e-14,8.660429888e-14,3.724165807e-13,1.305326333e-13,6.930431791e-14,2.379219000e-13,1.278242477e-13,3.115282941e-13,2.925565160e-13,1.704882168e-13,1.597372237e-14
1.1328,1.542954773e-13,1.115462572e-13,1.151593635e-12,4.806062549e-14,6.713861055e-15,1.920521234e-13,4.432570906e-13,8.050860920e-14,5.803290570e-14,3.765126232e-13,6.844606161e-13,2.209413949e-13,1.237704365e-13,3.788894000e-13,7.131089491e-13,5.742529997e-13,4.615734329e-13,4.217173371e-13,3.833588625e-13,3.070972748e-13,2.617580194e-13,7.682372463e-14,8.171051076e-14,3.765329507e-13,1.294824718e-13,6.962898308e-14,2.299730279e-13,1.274203661e-13,2.934200283e-13,2.672347279e-13,1.798828080e-13,1.479811107e-14
1.1406,1.499870760e-13,1.025449392e-13,1.182579641e-12,4.838581921e-14,6.088936382e-15,1.992725587e-13,4.632370472e-13,8.395405377e-14,5.687251006e-14,3.844555205e-13,7.064434420e-13,2.251288606e-13,1.150750632e-13,3.716688805e-13,7.178876356e-13,5.837398882e-13,4.735285475e-13,4.259935525e-13,3.885423173e-13,3.194338409e-13,2.552229497e-13,7.262983998e-14,7.712870872e-14,3.774528041e-13,1.288126665e-13,7.030325934e-14,2.236570579e-13,1.305812705e-13,2.767622249e-13,2.458926063e-13,1.836241137e-13,1.375211604e-14
1.1484,1.487426434e-13,9.450236322e-14,1.216041883e-12,4.938809194e-14,5.624326965e-15,2.069162355e-13,4.849694726e-13,8.653371375e-14,5.535157467e-14,3.908964188e-13,7.279787208e-13,2.285424587e-13,1.071724251e-13,3.627715030e-13,7.172244744e-13,5.901338144e-13,4.847839676e-13,4.320659219e-13,3.971245482e-13,3.316811104e-13,2.478926451e-13,6.912347209e-14,7.160735817e-14,3.764376860e-13,1.292203365e-13,7.150451950e-14,2.184292688e-13,1.354079951e-13,2.611851318e-13,2.259491021e-13,1.793538927e-13,1.308686783e-14
1.1562,1.504103902e-13,8.776626565e-14,1.243328414e-12,5.063837858e-14,5.278887196e-15,2.136139178e-13,5.041763010e-13,8.798108115e-14,5.351071243e-14,3.955200742e-13,7.466071947e-13,2.305835600e-13,1.007547493e-13,3.531642620e-13,7.122323875e-13,5.926993076e-13,4.955832053e-13,4.398050742e-13,4.080338026e-13,3.428818991e-13,2.397725732e-13,6.650304725e-14,6.661646501e-14,3.733488550e-13,1.302425782e-13,7.336342144e-14,2.151008575e-13,1.440959438e-13,2.474906393e-13,2.119057252e-13,1.687684158e-13,1.305967878e-14
1.1641,1.516015850e-13,8.059249952e-14,1.263001494e-12,5.164056469e-14,5.140846709e-15,2.192929916e-13,5.214679519e-13,8.843842122e-14,5.126765532e-14,3.984316725e-13,7.621997620e-13,2.312526640e-13,9.523874978e-14,3.437235252e-13,7.040678036e-13,5.921157784e-13,5.053083520e-13,4.480249804e-13,4.203688602e-13,3.529608125e-13,2.308360663e-13,6.457078203e-14,6.233430530e-14,3.689677568e-13,1.318838463e-13,7.596026703e-14,2.122582286e-13,1.559873086e-13,2.347992796e-13,1.984832721e-13,1.516979908e-13,1.358234233e-14
1.1719,1.573712932e-13,7.515234711e-14,1.282458573e-12,5.284030631e-14,5.238649108e-15,2.249580128e-13,5.390899433e-13,8.833187354e-14,4.888350210e-14,4.004667118e-13,7.765681559e-13,2.309358381e-13,9.091707193e-14,3.347696111e-13,6.932136474e-13,5.891671836e-13,5.139056644e-13,4.556873664e-13,4.335795854e-13,3.625818234e-13,2.220037650e-13,6.305194425e-14,5.807203281e-14,3.647941489e-13,1.358483673e-13,7.897525219e-14,2.104428411e-13,1.725129603e-13,2.227992811e-13,1.897484783e-13,1.318995717e-13,1.446784037e-14
1.1797,1.648282913e-13,7.078049405e-14,1.297987457e-12,5.412908545e-14,5.567096523e-15,2.303896541e-13,5.560088008e-13,8.769632494e-14,4.643511684e-14,4.013653807e-13,7.894266236e-13,2.294948654e-13,8.762426137e-14,3.262297661e-13,6.802532291e-13,5.836145207e-13,5.216146738e-13,4.629631619e-13,4.470987874e-13,3.718125856e-13,2.136579533e-13,6.198981590e-14,5.482796082e-14,3.616734020e-13,1.409327245e-13,8.206298408e-14,2.087725872e-13,1.928606730e-13,2.118761712e-13,1.838204627e-13,1.118112731e-13,1.542861706e-14
1.1875,1.724205785e-13,6.698942240e-14,1.312885857e-12,5.554861065e-14,6.137599858e-15,2.360928031e-13,5.741824396e-13,8.673185167e-14,4.402513143e-14,4.009572177e-13,8.019605903e-13,2.271495270e-13,8.489450891e-14,3.173595984e-13,6.650121585e-13,5.760670732e-13,5.277525350e-13,4.691622031e-13,4.606593539e-13,3.812600216e-13,2.061669832e-13,6.122466842e-14,5.198394333e-14,3.602747692e-13,1.465840489e-13,8.473494720e-14,2.057452502e-13,2.145095004e-13,2.012823117e-13,1.770180892e-13,9.299085618e-14,1.633471264e-14
1.1953,1.829165497e-13,6.447933242e-14,1.324248000e-12,5.662581633e-14,6.813892196e-15,2.411852752e-13,5.898866987e-13,8.580934187e-14,4.212481149e-14,3.992356969e-13,8.123311286e-13,2.241334129e-13,8.367382534e-14,3.085381011e-13,6.485936935e-13,5.673069361e-13,5.342283696e-13,4.752749806e-13,4.743089713e-13,3.914886731e-13,2.001539726e-13,6.071659875e-14,4.960811827e-14,3.598504062e-13,1.536588091e-13,8.654217041e-14,2.027306762e-13,2.397268633e-13,1.914098792e-13,1.748464137e-13,7.892509245e-14,1.713960281e-14
1.2031,1.940878978e-13,6.254692513e-14,1.331714491e-12,5.746721140e-14,7.553552708e-15,2.459235538e-13,6.044633437e-13,8.505850813e-14,4.078179297e-14,3.961676265e-13,8.211445453e-13,2.206163125e-13,8.372256880e-14,3.001996199e-13,6.314732451e-13,5.581074367e-13,5.413616602e-13,4.817751781e-13,4.879842660e-13,4.027877185e-13,1.957021758e-13,6.051467420e-14,4.742073251e-14,3.607221839e-13,1.612156559e-13,8.732550152e-14,1.988969594e-13,2.672516715e-13,1.823831508e-13,1.739716335e-13,6.900211339e-14,1.776721884e-14
1.2109,2.080045444e-13,6.233169898e-14,1.343563583e-12,5.890185225e-14,8.288922628e-15,2.516026496e-13,6.218485980e-13,8.452942100e-14,3.991340411e-14,3.921613669e-13,8.308819821e-13,2.166984246e-13,8.468631472e-14,2.917114368e-13,6.137996552e-13,5.490932530e-13,5.479993639e-13,4.879260938e-13,5.014976919e-13,4.164351604e-13,1.926119374e-13,6.039382014e-14,4.450183678e-14,3.623044382e-13,1.687238613e-13,8.673771285e-14,1.936567226e-13,2.951961975e-13,1.733675650e-13,1.737568509e-13,6.277919237e-14,1.838446999e-14
1.2188,2.222588403e-13,6.288589809e-14,1.356217786e-12,6.043330594e-14,8.839146996e-15,2.576037435e-13,6.387165062e-13,8.420338858e-14,3.947603443e-14,3.876902548e-13,8.401255488e-13,2.123419253e-13,8.669180361e-14,2.833019142e-13,5.970260265e-13,5.403755585e-13,5.556592375e-13,4.947074179e-13,5.142997803e-13,4.335740266e-13,1.912283427e-13,6.042798715e-14,4.189198212e-14,3.642175189e-13,1.755093613e-13,8.476200386e-14,1.873656782e-13,3.219354020e-13,1.644928161e-13,1.737829441e-13,5.985138448e-14,1.919766311e-14
1.2266,2.373253633e-13,6.432198228e-14,1.373272191e-12,6.231966201e-14,9.225463995e-15,2.649288892e-13,6.586552353e-13,8.406338160e-14,3.930336179e-14,3.837243761e-13,8.515190768e-13,2.081536956e-13,8.951107426e-14,2.757434743e-13,5.820426234e-13,5.331148772e-13,5.646368121e-13,5.021984953e-13,5.262583602e-13,4.545802609e-13,1.921026508e-13,6.066695834e-14,3.969773307e-14,3.674239419e-13,1.817401013e-13,8.179371661e-14,1.798474981e-13,3.476072582e-13,1.559866737e-13,1.727308649e-13,5.840821257e-14,2.050379269e-14
1.2344,2.580673154e-13,6.771124936e-14,1.397480722e-12,6.458270723e-14,9.458894866e-15,2.740152247e-13,6.825977451e-13,8.405053905e-14,3.931850635e-14,3.809096226e-13,8.660263303e-13,2.044106001e-13,9.345806964e-14,2.695138652e-13,5.698284116e-13,5.281284843e-13,5.751397725e-13,5.106145441e-13,5.378769456e-13,4.791787117e-13,1.952761302e-13,6.109502035e-14,3.767047611e-14,3.714180112e-13,1.892037464e-13,7.810904719e-14,1.725863272e-13,3.761834844e-13,1.479806753e-13,1.753389498e-13,5.842628095e-14,2.250962214e-14
1.2422,2.799483322e-13,7.170800363e-14,1.424727994e-12,6.684750225e-14,9.567391631e-15,2.840818612e-13,7.084932861e-13,8.408394388e-14,3.930521769e-14,3.793195867e-13,8.827611976e-13,2.012225448e-13,9.778725596e-14,2.649124838e-13,5.604273816e-13,5.251797378e-13,5.872195032e-13,5.198109589e-13,5.485587996e-13,5.070546603e-13,2.005498759e-13,6.173759523e-14,3.676350230e-14,3.767518270e-13,1.966126886e-13,7.423945443e-14,1.652337207e-13,4.043404486e-13,1.406152431e-13,1.786926925e-13,5.857316668e-14,2.486031769e-14
1.25,3.029280390e-13,7.662775164e-14,1.456274538e-12,6.955792633e-14,9.632139155e-15,2.954152913e-13,7.377789394e-13,8.424293850e-14,3.919026790e-14,3.790097631e-13,9.026901433e-13,1.989588713e-13,1.019217264e-13,2.619997730e-13,5.529418325e-13,5.237648615e-13,5.994822726e-13,5.281181030e-13,5.571288946e-13,5.375439538e-13,2.074354710e-13,6.223924161e-14,3.680064917e-14,3.829982330e-13,2.032822875e-13,7.057052052e-14,1.576068017e-13,4.309910502e-13,1.339920170e-13,1.816761971e-13,5.848577242e-14,2.717682777e-14
1.2578,3.274816641e-13,8.186768741e-14,1.486618954e-12,7.190363257e-14,9.635934926e-15,3.072898803e-13,7.667211390e-13,8.452928439e-14,3.899739758e-14,3.796774516e-13,9.230306232e-13,1.973143643e-13,1.063415531e-13,2.609979295e-13,5.477688362e-13,5.232413584e-13,6.121097235e-13,5.357916611e-13,5.633486691e-13,5.690783887e-13,2.153336570e-13,6.282764043e-14,3.795365656e-14,3.893195776e-13,2.105768738e-13,6.714384815e-14,1.509539879e-13,4.595398958e-13,1.285891810e-13,1.877127156e-13,5.869762528e-14,2.938811304e-14
1.2656,3.533656122e-13,8.801505526e-14,1.519190490e-12,7.426187059e-14,9.755234420e-15,3.203336554e-13,7.980014772e-13,8.488853512e-14,3.852575340e-14,3.814898305e-13,9.451340295e-13,1.961433251e-13,1.103642283e-13,2.620290988e-13,5.446353183e-13,5.234301509e-13,6.240400423e-13,5.420609576e-13,5.672736839e-13,6.011816944e-13,2.239692043e-13,6.353420894e-14,4.010634677e-14,3.975539088e-13,2.183324376e-13,6.408433716e-14,1.445857326e-13,4.891171905e-13,1.246297185e-13,1.964239471e-13,5.787845274e-14,3.113668897e-14
1.2734,3.839787119e-13,9.646302022e-14,1.559670333e-12,7.730438537e-14,1.011638528e-14,3.353581139e-13,8.338442573e-13,8.533582453e-14,3.782865295e-14,3.846281363e-13,9.704013622e-13,1.954258100e-13,1.139198287e-13,2.651722901e-13,5.426471018e-13,5.237912784e-13,6.341363263e-13,5.451931504e-13,5.680468035e-13,6.332532276e-13,2.330349142e-13,6.389011223e-14,4.193923196e-14,4.083410876e-13,2.269966854e-13,6.127288725e-14,1.387648103e-13,5.212475354e-13,1.221446539e-13,2.091744282e-13,5.607922088e-14,3.214529347e-14
1.2812,4.122606638e-13,1.049649927e-13,1.598226176e-12,8.007155659e-14,1.070635215e-14,3.505300149e-13,8.681014530e-13,8.579803649e-14,3.706875696e-14,3.886188635e-13,9.956293962e-13,1.951164795e-13,1.172991029e-13,2.707705766e-13,5.419710478e-13,5.239931215e-13,6.427397761e-13,5.453867873e-13,5.650047564e-13,6.629965401e-13,2.420093084e-13,6.409155747e-14,4.392728946e-14,4.199040533e-13,2.349091317e-13,5.860105633e-14,1.333879042e-13,5.515414298e-13,1.208421156e-13,2.215129102e-13,5.327984347e-14,3.243377026e-14
1.2891,4.371457103e-13,1.138992674e-13,1.634945234e-12,8.301292456e-14,1.158121043e-14,3.657184778e-13,9.019725364e-13,8.620543811e-14,3.635672265e-14,3.933579039e-13,1.021680125e-12,1.955253909e-13,1.203972651e-13,2.788088251e-13,5.425927072e-13,5.243423490e-13,6.489730826e-13,5.429733564e-13,5.592341473e-13,6.893707351e-13,2.504221226e-13,6.416145161e-14,4.574438354e-14,4.306001727e-13,2.412608040e-13,5.612612208e-14,1.279031861e-13,5.770031861e-13,1.201113627e-13,2.306995325e-13,4.885941882e-14,3.216515728e-14
1.2969,4.632868137e-13,1.241518816e-13,1.672909160e-12,8.631955936e-14,1.265764780e-14,3.815498112e-13,9.364875125e-13,8.652575149e-14,3.585291320e-14,3.988758292e-13,1.048053448e-12,1.966329387e-13,1.237347103e-13,2.887517377e-13,5.440013369e-13,5.243054172e-13,6.529026290e-13,5.383624243e-13,5.510326058e-13,7.127781010e-13,2.582037366e-13,6.417122087e-14,4.663311589e-14,4.403378948e-13,2.475623328e-13,5.371269067e-14,1.229972315e-13,6.015353135e-13,1.197151862e-13,2.406106149e-13,4.320247932e-14,3.183939939e-14
1.3047,4.864909637e-13,1.347915179e-13,1.709027347e-12,8.984161124e-14,1.389683555e-14,3.971733092e-13,9.704080917e-13,8.671850963e-14,3.555069694e-14,4.050584892e-13,1.074141352e-12,1.984366867e-13,1.267820532e-13,2.994714908e-13,5.455339276e-13,5.233797086e-13,6.537915698e-13,5.306394140e-13,5.391961867e-13,7.330092237e-13,2.656591850e-13,6.391014094e-14,4.702866153e-14,4.493550156e-13,2.518042100e-13,5.125523900e-14,1.176180434e-13,6.208100165e-13,1.193410969e-13,2.477721221e-13,3.641813720e-14,3.150022805e-14
1.3125,5.081146655e-13,1.463651836e-13,1.744849271e-12,9.388548416e-14,1.516851939e-14,4.126179719e-13,1.005284983e-12,8.683265569e-14,3.551548222e-14,4.117694996e-13,1.101193911e-12,2.007594871e-13,1.295912711e-13,3.097413031e-13,5.468571238e-13,5.216677972e-13,6.507218003e-13,5.197842693e-13,5.241036459e-13,7.497824017e-13,2.726581042e-13,6.306508170e-14,4.657057088e-14,4.575367045e-13,2.543268170e-13,4.861549342e-14,1.116553281e-13,6.351527778e-13,1.189760114e-13,2.521376337e-13,2.911687205e-14,3.137004148e-14
1.3203,5.269038877e-13,1.577061729e-13,1.777487583e-12,9.789656799e-14,1.621647587e-14,4.277514171e-13,1.037894565e-12,8.695615437e-14,3.584719290e-14,4.187759291e-13,1.126746386e-12,2.032065068e-13,1.330233911e-13,3.193620700e-13,5.483885701e-13,5.193604840e-13,6.459474718e-13,5.083960516e-13,5.072864347e-13,7.638830003e-13,2.787845311e-13,6.234491197e-14,4.641935507e-14,4.640337279e-13,2.558802405e-13,4.570955174e-14,1.058299793e-13,6.456439966e-13,1.188945660e-13,2.546220748e-13,2.260577449e-14,3.192888776e-14
1.3281,5.428701677e-13,1.694473186e-13,1.807839653e-12,1.023867671e-13,1.705832767e-14,4.427835957e-13,1.069856575e-12,8.718598054e-14,3.651796200e-14,4.261722201e-13,1.151944571e-12,2.060754357e-13,1.367439551e-13,3.282817691e-13,5.502828064e-13,5.173850200e-13,6.404565043e-13,4.971782715e-13,4.896652997e-13,7.766830229e-13,2.845338237e-13,6.176683509e-14,4.675670845e-14,4.694129971e-13,2.561781019e-13,4.262942726e-14,9.982244795e-14,6.516525487e-13,1.190652508e-13,2.545236349e-13,1.760766388e-14,3.296742875e-14
1.3359,5.611151679e-13,1.827134872e-13,1.838012645e-12,1.077781812e-13,1.762343261e-14,4.581829263e-13,1.103348825e-12,8.763115759e-14,3.757745437e-14,4.335471100e-13,1.177755000e-12,2.093115170e-13,1.407812342e-13,3.356074960e-13,5.523606692e-13,5.158500199e-13,6.336247770e-13,4.859565069e-13,4.715020702e-13,7.883513567e-13,2.903130195e-13,6.107483486e-14,4.697710003e-14,4.754050701e-13,2.569869055e-13,3.926254829e-14,9.422590798e-14,6.583614426e-13,1.198333748e-13,2.563175275e-13,1.467187095e-14,3.451475886e-14
1.3438,5.754954414e-13,1.951072887e-13,1.861981658e-12,1.136115172e-13,1.783748184e-14,4.726078321e-13,1.132273360e-12,8.829763857e-14,3.898530939e-14,4.398821768e-13,1.200402001e-12,2.123965597e-13,1.447900381e-13,3.405741529e-13,5.541349070e-13,5.137890708e-13,6.252696133e-13,4.744023891e-13,4.524881348e-13,7.982954026e-13,2.955660300e-13,6.039314835e-14,4.829841674e-14,4.810588035e-13,2.564380340e-13,3.568895519e-14,8.891926078e-14,6.611443560e-13,1.216132998e-13,2.565746055e-13,1.395164005e-14,3.615891239e-14
1.3516,5.879225478e-13,2.073621252e-13,1.881691589e-12,1.203405283e-13,1.786479342e-14,4.860886693e-13,1.157702084e-12,8.919624297e-14,4.065992922e-14,4.451976180e-13,1.220824346e-12,2.153828142e-13,1.485293716e-13,3.433738787e-13,5.553762027e-13,5.114874441e-13,6.149146835e-13,4.615965891e-13,4.321890656e-13,8.061967753e-13,2.999427708e-13,5.947285192e-14,5.028971121e-14,4.864343611e-13,2.554216333e-13,3.227283288e-14,8.434029214e-14,6.613244009e-13,1.247764955e-13,2.559736865e-13,1.495742270e-14,3.757334988e-14
1.3594,6.018267951e-13,2.197418765e-13,1.898005650e-12,1.278869164e-13,1.777911059e-14,4.989633059e-13,1.181204491e-12,9.035095315e-14,4.256716184e-14,4.499193265e-13,1.240375617e-12,2.181746459e-13,1.525511793e-13,3.444860320e-13,5.569161922e-13,5.090624122e-13,6.027545072e-13,4.477280251e-13,4.107656135e-13,8.110618714e-13,3.034095778e-13,5.852681786e-14,5.316649803e-14,4.918571693e-13,2.557821194e-13,2.913969621e-14,8.147834883e-14,6.635661440e-13,1.296382069e-13,2.579710593e-13,1.734443779e-14,3.902399689e-14
1.3672,6.140207230e-13,2.317107724e-13,1.910247412e-12,1.361867869e-13,1.769039442e-14,5.107760883e-13,1.201917660e-12,9.168854824e-14,4.451483690e-14,4.539546031e-13,1.258529043e-12,2.207318166e-13,1.561637513e-13,3.434491635e-13,5.581935614e-13,5.061560373e-13,5.889774953e-13,4.322846181e-13,3.887165046e-13,8.128309225e-13,3.061505687e-13,5.748618046e-14,5.675723163e-14,4.974048927e-13,2.560394187e-13,2.635323875e-14,7.970890156e-14,6.646902430e-13,1.361078005e-13,2.605045931e-13,1.987854503e-14,3.991149194e-14
1.375,6.286318346e-13,2.447185142e-13,1.921856602e-12,1.456817246e-13,1.768015800e-14,5.223035515e-13,1.221280118e-12,9.313902342e-14,4.642369173e-14,4.570385246e-13,1.274663762e-12,2.230659200e-13,1.594468282e-13,3.397600689e-13,5.580322929e-13,5.026836736e-13,5.732925129e-13,4.149194467e-13,3.660005719e-13,8.117531924e-13,3.078552549e-13,5.621160083e-14,6.012134608e-14,5.038979550e-13,2.573740576e-13,2.391809853e-14,7.900343423e-14,6.682407254e-13,1.443146096e-13,2.664142479e-13,2.155404841e-14,4.025693847e-14
1.3828,6.419304820e-13,2.568200440e-13,1.928122660e-12,1.558863709e-13,1.777277948e-14,5.326597895e-13,1.234924407e-12,9.447156979e-14,4.828998185e-14,4.588570796e-13,1.286224985e-12,2.247995462e-13,1.630592409e-13,3.340371490e-13,5.570854373e-13,4.984884447e-13,5.557698829e-13,3.964046723e-13,3.429906236e-13,8.066747445e-13,3.077133800e-13,5.506946622e-14,6.422744419e-14,5.089342956e-13,2.586659743e-13,2.180727410e-14,7.938169603e-14,6.710616976e-13,1.540548059e-13,2.720131275e-13,2.266064386e-14,4.022970252e-14
1.3906,6.550985544e-13,2.691949888e-13,1.932328865e-12,1.671234085e-13,1.805919655e-14,5.420351332e-13,1.246013783e-12,9.547504692e-14,4.998396414e-14,4.597510826e-13,1.295251371e-12,2.262117905e-13,1.664084867e-13,3.267756025e-13,5.558570624e-13,4.945423925e-13,5.368945221e-13,3.769858499e-13,3.204194765e-13,7.983119278e-13,3.060876662e-13,5.393881892e-14,6.791140534e-14,5.126434835e-13,2.599038318e-13,2.012055836e-14,8.067022714e-14,6.731354157e-13,1.647383264e-13,2.775297892e-13,2.303976948e-14,3.965261211e-14
1.3984,6.719039160e-13,2.834529956e-13,1.938100827e-12,1.798073429e-13,1.848529987e-14,5.515396191e-13,1.257705706e-12,9.622990907e-14,5.150319661e-14,4.599825887e-13,1.302835548e-12,2.272644270e-13,1.695154302e-13,3.177489562e-13,5.546307489e-13,4.910900994e-13,5.173235394e-13,3.569100916e-13,2.980329211e-13,7.877152649e-13,3.034397907e-13,5.293979461e-14,7.081875107e-14,5.163673800e-13,2.623760391e-13,1.877043004e-14,8.295212774e-14,6.787245554e-13,1.762842116e-13,2.863514154e-13,2.308219567e-14,3.900212385e-14
1.4062,6.859784013e-13,2.974694103e-13,1.940566142e-12,1.933284604e-13,1.905762979e-14,5.599703337e-13,1.265237782e-12,9.665403933e-14,5.289928708e-14,4.592849888e-13,1.307049625e-12,2.275839814e-13,1.726215231e-13,3.071754717e-13,5.538899825e-13,4.881603957e-13,4.975955735e-13,3.367601453e-13,2.761776512e-13,7.748186717e-13,2.998259714e-13,5.227514147e-14,7.381564375e-14,5.195648205e-13,2.647318674e-13,1.761301422e-14,8.566605498e-14,6.830202875e-13,1.888503623e-13,2.935007830e-13,2.318238365e-14,3.813934053e-14
1.4141,7.017393159e-13,3.129771568e-13,1.945256604e-12,2.080785003e-13,1.977175938e-14,5.682062339e-13,1.272267010e-12,9.659546935e-14,5.435955660e-14,4.577933444e-13,1.310253008e-12,2.277620959e-13,1.762938156e-13,2.961574070e-13,5.537114943e-13,4.868768804e-13,4.784263687e-13,3.175020886e-13,2.556638216e-13,7.603716936e-13,2.953430325e-13,5.189575475e-14,7.619081037e-14,5.232126857e-13,2.683705373e-13,1.670705545e-14,8.922124811e-14,6.897883515e-13,2.025202991e-13,3.016729486e-13,2.382431928e-14,3.734907035e-14
1.4219,7.192208479e-13,3.296102662e-13,1.951817097e-12,2.240774271e-13,2.054345367e-14,5.766321122e-13,1.278270071e-12,9.608525589e-14,5.606591093e-14,4.553610386e-13,1.311536733e-12,2.278325067e-13,1.811723238e-13,2.850585556e-13,5.540195338e-13,4.868052511e-13,4.602056506e-13,2.994063929e-13,2.362134170e-13,7.439881995e-13,2.893870886e-13,5.194844866e-14,7.857085391e-14,5.257860814e-13,2.727628445e-13,1.614473771e-14,9.396348024e-14,6.988352875e-13,2.170785542e-13,3.104859294e-13,2.632228237e-14,3.710093642e-14
1.4297,7.357345296e-13,3.469242894e-13,1.957071176e-12,2.410332473e-13,2.141830492e-14,5.846081080e-13,1.281716796e-12,9.512644687e-14,5.794883654e-14,4.518722149e-13,1.309846495e-12,2.275783644e-13,1.867074430e-13,2.734956699e-13,5.543435641e-13,4.876360922e-13,4.427564243e-13,2.820688026e-13,2.178400616e-13,7.262858306e-13,2.822550578e-13,5.224463686e-14,8.040885686e-14,5.278841727e-13,2.776718313e-13,1.589325906e-14,9.961827478e-14,7.083727448e-13,2.326031191e-13,3.191732901e-13,3.080944593e-14,3.700583530e-14
1.4375,7.555811130e-13,3.664839070e-13,1.964851529e-12,2.594300778e-13,2.232860248e-14,5.930749690e-13,1.285870557e-12,9.387069288e-14,6.016217965e-14,4.478711046e-13,1.307815156e-12,2.274109274e-13,1.932971930e-13,2.619306419e-13,5.552186667e-13,4.896631260e-13,4.262742782e-13,2.658292861e-13,2.009262510e-13,7.093147062e-13,2.747786590e-13,5.286725264e-14,8.186790473e-14,5.313079720e-13,2.841729614e-13,1.593319211e-14,1.064289255e-13,7.224404520e-13,2.495329821e-13,3.311674631e-13,3.737575879e-14,3.734251355e-14
1.4453,7.750855735e-13,3.863135423e-13,1.973254790e-12,2.790331255e-13,2.332337150e-14,6.015958184e-13,1.287907894e-12,9.254634384e-14,6.279723534e-14,4.438253022e-13,1.304974733e-12,2.274044316e-13,2.013351397e-13,2.504224057e-13,5.571721655e-13,4.924882069e-13,4.111873218e-13,2.507212740e-13,1.856389263e-13,6.934778410e-13,2.670190948e-13,5.401916839e-14,8.455092530e-14,5.344871680e-13,2.899380173e-13,1.638676072e-14,1.140083231e-13,7.361832218e-13,2.678376949e-13,3.423717057e-13,4.606860474e-14,3.820690379e-14
1.4531,7.980263707e-13,4.082909096e-13,1.985923968e-12,3.004368920e-13,2.452601859e-14,6.110649852e-13,1.291149515e-12,9.121244848e-14,6.572329449e-14,4.399333446e-13,1.301997740e-12,2.275251345e-13,2.106593960e-13,2.385903423e-13,5.591340267e-13,4.963731789e-13,3.977048453e-13,2.366664964e-13,1.721445435e-13,6.796595342e-13,2.595591471e-13,5.551824349e-14,8.737861895e-14,5.395794918e-13,2.964374856e-13,1.725006917e-14,1.227473761e-13,7.536549118e-13,2.877121270e-13,3.568174487e-13,5.683151754e-14,3.936333098e-14
1.4609,8.276903766e-13,4.334423640e-13,2.005757278e-12,3.242809176e-13,2.591041494e-14,6.222676008e-13,1.296910307e-12,8.990784096e-14,6.898789246e-14,4.359184165e-13,1.299013730e-12,2.277967398e-13,2.218915937e-13,2.268938309e-13,5.612314799e-13,5.015511748e-13,3.864203535e-13,2.241313050e-13,1.603975328e-13,6.689205521e-13,2.526905054e-13,5.752614889e-14,9.032412341e-14,5.478038173e-13,3.043319387e-13,1.845757326e-14,1.329830674e-13,7.782994376e-13,3.092548641e-13,3.772422604e-13,6.944678685e-14,4.078334732e-14
1.4688,8.577346063e-13,4.590382687e-13,2.029321329e-12,3.497065705e-13,2.759862138e-14,6.339820374e-13,1.300569579e-12,8.866676775e-14,7.251860939e-14,4.315904534e-13,1.294371026e-12,2.283749188e-13,2.345617041e-13,2.157320929e-13,5.639114045e-13,5.078515794e-13,3.777423897e-13,2.135263529e-13,1.505601462e-13,6.611089516e-13,2.462151016e-13,6.003841788e-14,9.345349298e-14,5.578552365e-13,3.114385066e-13,2.002547902e-14,1.437293055e-13,8.035168925e-13,3.319308132e-13,3.987735504e-13,8.237596696e-14,4.192963770e-14
1.4766,8.916930431e-13,4.868677505e-13,2.059743182e-12,3.772016166e-13,2.965065948e-14,6.469956828e-13,1.305481384e-12,8.749047018e-14,7.625990912e-14,4.271932188e-13,1.288745886e-12,2.292906030e-13,2.486169237e-13,2.055246903e-13,5.660700295e-13,5.146356734e-13,3.709081018e-13,2.049612045e-13,1.427179012e-13,6.553702625e-13,2.402888657e-13,6.307960081e-14,9.632773194e-14,5.703194496e-13,3.192747630e-13,2.195513147e-14,1.552642644e-13,8.317723905e-13,3.556065950e-13,4.243947386e-13,9.547520413e-14,4.287017207e-14
1.4844,9.302597486e-13,5.169367889e-13,2.095811561e-12,4.068893421e-13,3.220757428e-14,6.613454734e-13,1.311058365e-12,8.640560088e-14,8.014048877e-14,4.228077265e-13,1.281675345e-12,2.303451285e-13,2.643598291e-13,1.968463378e-13,5.677924476e-13,5.212670895e-13,3.655052158e-13,1.980041207e-13,1.367600050e-13,6.506105554e-13,2.348105924e-13,6.686384934e-14,9.973500499e-14,5.843368040e-13,3.278603093e-13,2.435527022e-14,1.677599589e-13,8.630643697e-13,3.802678049e-13,4.533746627e-13,1.084954222e-13,4.369888070e-14
1.4922,9.705695005e-13,5.481904351e-13,2.134840644e-12,4.376890600e-13,3.546436197e-14,6.764693095e-13,1.315867130e-12,8.542664522e-14,8.388425415e-14,4.185881021e-13,1.274067055e-12,2.316738896e-13,2.806269494e-13,1.898320147e-13,5.698527436e-13,5.280304816e-13,3.614968622e-13,1.924229795e-13,1.325409916e-13,6.467237043e-13,2.297902676e-13,7.104845040e-14,1.023250712e-13,6.005329355e-13,3.380032135e-13,2.736277288e-14,1.814065092e-13,8.977364009e-13,4.060283150e-13,4.851125673e-13,1.207664329e-13,4.388538611e-14
1.5,1.014555206e-12,5.816605009e-13,2.178420765e-12,4.697334743e-13,3.927038015e-14,6.925010144e-13,1.321405985e-12,8.442069973e-14,8.748574913e-14,4.142953600e-13,1.265697379e-12,2.327560437e-13,2.972653234e-13,1.842452044e-13,5.712262991e-13,5.341428532e-13,3.582567374e-13,1.882248935e-13,1.297019922e-13,6.434763144e-13,2.251331614e-13,7.558636218e-14,1.041660655e-13,6.192663621e-13,3.508432672e-13,3.100956809e-14,1.968413655e-13,9.367849107e-13,4.331231167e-13,5.207459983e-13,1.331509843e-13,4.369603272e-14
1.5078,1.057495021e-12,6.154726691e-13,2.222915248e-12,5.023155338e-13,4.352486390e-14,7.081515529e-13,1.323598900e-12,8.316786669e-14,9.107400655e-14,4.091641701e-13,1.252756788e-12,2.331197048e-13,3.145640599e-13,1.797014425e-13,5.704260387e-13,5.380818640e-13,3.552495203e-13,1.852363994e-13,1.280755685e-13,6.400362952e-13,2.203302962e-13,8.054910509e-14,1.062101797e-13,6.382715445e-13,3.642305845e-13,3.526649319e-14,2.133724155e-13,9.739409105e-13,4.611216672e-13,5.546429587e-13,1.458529138e-13,4.320861368e-14
1.5156,1.102210580e-12,6.513343275e-13,2.270235548e-12,5.355399543e-13,4.816669315e-14,7.238799682e-13,1.324426231e-12,8.168611462e-14,9.475837967e-14,4.030889705e-13,1.236635648e-12,2.334253780e-13,3.328172602e-13,1.763742564e-13,5.672598249e-13,5.402394570e-13,3.519499260e-13,1.836147559e-13,1.275705322e-13,6.361136561e-13,2.152601614e-13,8.572392739e-14,1.071870218e-13,6.583034907e-13,3.795502633e-13,4.019132918e-14,2.316273325e-13,1.013908259e-12,4.901101336e-13,5.905518153e-13,1.606795044e-13,4.241197381e-14
1.5234,1.151815995e-12,6.906158477e-13,2.322538297e-12,5.700502903e-13,5.312432582e-14,7.400006910e-13,1.325392042e-12,8.010413413e-14,9.858416284e-14,3.962661425e-13,1.218645595e-12,2.336630595e-13,3.523601140e-13,1.743650782e-13,5.621819639e-13,5.414215781e-13,3.489107011e-13,1.838436527e-13,1.285321253e-13,6.320054603e-13,2.102207054e-13,9.125020350e-14,1.077008987e-13,6.796359705e-13,3.970191037e-13,4.580195518e-14,2.520396605e-13,1.058262265e-12,5.206360512e-13,6.300960944e-13,1.790983794e-13,4.164994008e-14
1.5312,1.198767233e-12,7.301933240e-13,2.374696719e-12,6.044689170e-13,5.837765261e-14,7.551840623e-13,1.322430421e-12,7.838281669e-14,1.024937774e-13,3.884771779e-13,1.196820808e-12,2.336498378e-13,3.723689970e-13,1.730664585e-13,5.549550243e-13,5.412444460e-13,3.467627289e-13,1.861354993e-13,1.312120927e-13,6.279561158e-13,2.055119206e-13,9.700790745e-14,1.077961562e-13,7.013677072e-13,4.150163816e-13,5.186027628e-14,2.737363619e-13,1.101857904e-12,5.528245642e-13,6.677182328e-13,2.007171467e-13,4.055185005e-14
1.5391,1.248565032e-12,7.726340923e-13,2.429441482e-12,6.397967533e-13,6.366716326e-14,7.700539149e-13,1.318131533e-12,7.652231286e-14,1.065923312e-13,3.795481358e-13,1.172272708e-12,2.338120963e-13,3.930220569e-13,1.725278031e-13,5.456510693e-13,5.396742889e-13,3.445287157e-13,1.901483741e-13,1.348655310e-13,6.234723480e-13,2.011444251e-13,1.028972093e-13,1.070726010e-13,7.245709876e-13,4.348825925e-13,5.824048819e-14,2.970209963e-13,1.148620110e-12,5.865347684e-13,7.076140638e-13,2.270234966e-13,3.930844324e-14
1.5469,1.302022098e-12,8.177390787e-13,2.486395258e-12,6.762340152e-13,6.886685167e-14,7.842974947e-13,1.312312265e-12,7.463131611e-14,1.107357025e-13,3.696858967e-13,1.145435316e-12,2.338861098e-13,4.144489165e-13,1.728618128e-13,5.348679424e-13,5.366767131e-13,3.420265501e-13,1.954933207e-13,1.390534675e-13,6.183811549e-13,1.970330452e-13,1.089841065e-13,1.065957946e-13,7.486779666e-13,4.557711835e-13,6.489508674e-14,3.212493732e-13,1.195993056e-12,6.207586707e-13,7.482021382e-13,2.567816117e-13,3.814360689e-14
1.5547,1.354185535e-12,8.629583702e-13,2.543744747e-12,7.121655431e-13,7.408600565e-14,7.977053022e-13,1.304535800e-12,7.279045011e-14,1.146911720e-13,3.592640984e-13,1.116241707e-12,2.335956165e-13,4.358608473e-13,1.733543970e-13,5.222086289e-13,5.321286591e-13,3.395978080e-13,2.019313946e-13,1.438743679e-13,6.134981678e-13,1.933207094e-13,1.148583395e-13,1.056124289e-13,7.744127271e-13,4.785036721e-13,7.189118537e-14,3.467398437e-13,1.245437739e-12,6.556161986e-13,7.896339370e-13,2.875918459e-13,3.673059019e-14
1.5625,1.409841254e-12,9.104989278e-13,2.604684128e-12,7.484022648e-13,7.945507634e-14,8.106879213e-13,1.296089213e-12,7.102752273e-14,1.184676499e-13,3.483064457e-13,1.084624609e-12,2.331809873e-13,4.570695893e-13,1.740449941e-13,5.076991306e-13,5.264207763e-13,3.369652064e-13,2.093800030e-13,1.493276957e-13,6.089340028e-13,1.899919154e-13,1.203686243e-13,1.043458818e-13,8.027300041e-13,5.041275680e-13,7.964682178e-14,3.746984233e-13,1.300360490e-12,6.925245675e-13,8.362319918e-13,3.186264196e-13,3.530114174e-14
1.5703,1.464580221e-12,9.580082893e-13,2.663697285e-12,7.838123209e-13,8.507306333e-14,8.216665099e-13,1.282987480e-12,6.930269257e-14,1.218514939e-13,3.367689768e-13,1.049751191e-12,2.327421748e-13,4.772059267e-13,1.752876583e-13,4.916278448e-13,5.191918526e-13,3.340004098e-13,2.174395278e-13,1.550972168e-13,6.036787544e-13,1.866615818e-13,1.254047831e-13,1.034997194e-13,8.311933363e-13,5.306967758e-13,8.816485358e-14,4.040428807e-13,1.353373186e-12,7.311373367e-13,8.818604458e-13,3.473126037e-13,3.374955081e-14
1.5781,1.521695524e-12,1.006359075e-12,2.722714614e-12,8.180390082e-13,9.069505219e-14,8.313572797e-13,1.268266705e-12,6.756569800e-14,1.247628458e-13,3.247256150e-13,1.012916084e-12,2.320821389e-13,4.959664333e-13,1.766764752e-13,4.736720523e-13,5.107477505e-13,3.308435647e-13,2.254954309e-13,1.605522178e-13,5.976082859e-13,1.832226785e-13,1.298595573e-13,1.024290702e-13,8.600004823e-13,5.597147977e-13,9.716100352e-14,4.348886827e-13,1.407905631e-12,7.709293663e-13,9.306875415e-13,3.735196019e-13,3.215680634e-14
1.5859,1.583269191e-12,1.056116626e-12,2.783562858e-12,8.513239694e-13,9.624126547e-14,8.398011005e-13,1.252095422e-12,6.579370748e-14,1.272466821e-13,3.119661638e-13,9.733965714e-13,2.309635959e-13,5.130994093e-13,1.780329261e-13,4.545485819e-13,5.020402772e-13,3.279645321e-13,2.338043734e-13,1.655644375e-13,5.909866684e-13,1.797595487e-13,1.338511333e-13,1.017224761e-13,8.889682372e-13,5.904346140e-13,1.066877946e-13,4.670436293e-13,1.463401056e-12,8.116209653e-13,9.831694445e-13,3.969265369e-13,3.073900921e-14
1.5938,1.639215213e-12,1.101924447e-12,2.839248675e-12,8.810517051e-13,1.017663267e-13,8.453809122e-13,1.230248023e-12,6.397073981e-14,1.292389810e-13,2.988122613e-13,9.310768128e-13,2.295602803e-13,5.275054297e-13,1.793743259e-13,4.348568806e-13,4.930832677e-13,3.252296852e-13,2.424800479e-13,1.702950177e-13,5.833898330e-13,1.760688754e-13,1.370655518e-13,1.010564117e-13,9.164276450e-13,6.203134133e-13,1.164868737e-13,4.986988946e-13,1.513579184e-12,8.518333897e-13,1.031363063e-12,4.165676544e-13,2.923461975e-14
1.6016,1.696034835e-12,1.146475057e-12,2.894406513e-12,9.076941464e-13,1.067918469e-13,8.491542159e-13,1.206851534e-12,6.205709240e-14,1.309411098e-13,2.858669812e-13,8.881677861e-13,2.279604236e-13,5.395958410e-13,1.805263619e-13,4.147560192e-13,4.843611863e-13,3.225215978e-13,2.510941125e-13,1.744256368e-13,5.753153171e-13,1.722811542e-13,1.395561713e-13,1.003768144e-13,9.433316869e-13,6.501142718e-13,1.261592794e-13,5.297864985e-13,1.561888690e-12,8.912903050e-13,1.079540399e-12,4.357706981e-13,2.789051389e-14
1.6094,1.754073149e-12,1.190304763e-12,2.949262875e-12,9.312975488e-13,1.110902442e-13,8.507649333e-13,1.181010265e-12,6.003122366e-14,1.324105689e-13,2.731173941e-13,8.441533401e-13,2.262151776e-13,5.491388798e-13,1.812935539e-13,3.947918316e-13,4.762883854e-13,3.203690863e-13,2.596029982e-13,1.776432001e-13,5.675524640e-13,1.687605727e-13,1.414529884e-13,1.004258131e-13,9.694276124e-13,6.791444510e-13,1.356756570e-13,5.603843988e-13,1.606390081e-12,9.306350401e-13,1.126258334e-12,4.564961101e-13,2.670088793e-14
1.6172,1.810062599e-12,1.231868099e-12,3.002067948e-12,9.508706350e-13,1.147240562e-13,8.501802730e-13,1.152703588e-12,5.795411779e-14,1.335578410e-13,2.606337618e-13,7.999656548e-13,2.246013032e-13,5.554870501e-13,1.814895596e-13,3.749098569e-13,4.691092894e-13,3.189561095e-13,2.680917313e-13,1.800916561e-13,5.603116785e-13,1.655170595e-13,1.425404865e-13,1.001771861e-13,9.954873248e-13,7.080353404e-13,1.448811569e-13,5.907853914e-13,1.650267116e-12,9.699586490e-13,1.172717728e-12,4.804591786e-13,2.552006281e-14
1.625,1.867319800e-12,1.272762196e-12,3.054307087e-12,9.670404431e-13,1.176056766e-13,8.477687660e-13,1.123675612e-12,5.583198954e-14,1.343917748e-13,2.482563315e-13,7.560193134e-13,2.229653544e-13,5.588831517e-13,1.811580026e-13,3.551855167e-13,4.630640345e-13,3.182342124e-13,2.761201544e-13,1.815714721e-13,5.534681695e-13,1.624540552e-13,1.428077662e-13,9.994945158e-14,1.021385425e-12,7.360204052e-13,1.535868279e-13,6.204506138e-13,1.693676715e-12,1.008529805e-12,1.219036381e-12,5.081983386e-13,2.447210600e-14
1.6328,1.917701282e-12,1.309180935e-12,3.099294881e-12,9.784185788e-13,1.197998570e-13,8.417494205e-13,1.089814653e-12,5.364874532e-14,1.348245082e-13,2.356922008e-13,7.111671075e-13,2.213104641e-13,5.588215811e-13,1.803736269e-13,3.359685483e-13,4.577625284e-13,3.180623049e-13,2.830796215e-13,1.817377596e-13,5.466501160e-13,1.596492997e-13,1.420566512e-13,1.001752776e-13,1.044977475e-12,7.601994974e-13,1.616468407e-13,6.475954903e-13,1.728479383e-12,1.044872297e-12,1.256492173e-12,5.369926359e-13,2.334893660e-14
1.6406,1.965277221e-12,1.343096055e-12,3.140251069e-12,9.860570728e-13,1.212932908e-13,8.330368336e-13,1.054280967e-12,5.153198120e-14,1.348388399e-13,2.233378147e-13,6.675320963e-13,2.199127137e-13,5.560053573e-13,1.793341207e-13,3.178437447e-13,4.538925567e-13,3.187778620e-13,2.892095778e-13,1.808253308e-13,5.403824937e-13,1.572313714e-13,1.405520215e-13,9.994837658e-14,1.067901921e-12,7.826472616e-13,1.688273920e-13,6.728728007e-13,1.760692109e-12,1.078383257e-12,1.292420463e-12,5.667247174e-13,2.219378493e-14
1.6484,2.010656160e-12,1.374273599e-12,3.177232643e-12,9.899979373e-13,1.222829768e-13,8.219824975e-13,1.018382611e-12,4.962685280e-14,1.342638984e-13,2.116744756e-13,6.259852427e-13,2.186951200e-13,5.508562781e-13,1.781670284e-13,3.015451059e-13,4.518040631e-13,3.206467551e-13,2.941612279e-13,1.787651068e-13,5.350556097e-13,1.551634476e-13,1.385070655e-13,9.970134273e-14,1.089832041e-12,8.030375160e-13,1.752535863e-13,6.961230516e-13,1.790319730e-12,1.108594692e-12,1.326509364e-12,5.935502479e-13,2.103098577e-14
1.6562,2.044570210e-12,1.397238226e-12,3.203138676e-12,9.878137083e-13,1.229491202e-13,8.077571120e-13,9.801066411e-13,4.797095131e-14,1.328456714e-13,2.009663174e-13,5.866190959e-13,2.174764619e-13,5.426116318e-13,1.766248644e-13,2.868422932e-13,4.508852148e-13,3.232546426e-13,2.971705389e-13,1.753618255e-13,5.304834553e-13,1.535731520e-13,1.356624112e-13,9.963188513e-14,1.110077906e-12,8.201088556e-13,1.811782339e-13,7.166199829e-13,1.814263552e-12,1.134875924e-12,1.352905021e-12,6.127059572e-13,1.975199882e-14
1.6641,2.073686653e-12,1.415596867e-12,3.221478269e-12,9.814522915e-13,1.232217925e-13,7.914227209e-13,9.420413051e-13,4.647722755e-14,1.306114584e-13,1.909538020e-13,5.497326868e-13,2.159339479e-13,5.319254339e-13,1.749064059e-13,2.738356985e-13,4.517670609e-13,3.268565416e-13,2.986595926e-13,1.709582260e-13,5.265733314e-13,1.524729874e-13,1.321732927e-13,9.980676242e-14,1.129917251e-12,8.353810965e-13,1.866821304e-13,7.354840752e-13,1.835988982e-12,1.158023293e-12,1.377289467e-12,6.242738520e-13,1.845917811e-14
1.6719,2.096780195e-12,1.428921963e-12,3.230878255e-12,9.711803105e-13,1.233596508e-13,7.725699098e-13,9.028697911e-13,4.499566925e-14,1.276978425e-13,1.813473475e-13,5.141991860e-13,2.140523528e-13,5.190050597e-13,1.731290717e-13,2.624795630e-13,4.539449232e-13,3.312615356e-13,2.983789858e-13,1.655492057e-13,5.226867243e-13,1.514550121e-13,1.280334777e-13,1.006246999e-13,1.147061803e-12,8.468914706e-13,1.917172008e-13,7.520572652e-13,1.850871001e-12,1.178137071e-12,1.395960273e-12,6.267298534e-13,1.718443305e-14
1.6797,2.113506063e-12,1.436477574e-12,3.232291189e-12,9.566763538e-13,1.233191684e-13,7.517983524e-13,8.635707016e-13,4.345586990e-14,1.242238854e-13,1.725549487e-13,4.809380698e-13,2.120423720e-13,5.036486582e-13,1.707758856e-13,2.518535346e-13,4.557526468e-13,3.353007737e-13,2.958150000e-13,1.588604870e-13,5.190979741e-13,1.506918851e-13,1.233081709e-13,1.016349899e-13,1.161573102e-12,8.555991977e-13,1.961212557e-13,7.663425159e-13,1.862131508e-12,1.194389249e-12,1.412083763e-12,6.213688694e-13,1.609395872e-14
1.6875,2.125836378e-12,1.439475636e-12,3.227011458e-12,9.387540332e-13,1.230013137e-13,7.296225105e-13,8.243690345e-13,4.184242495e-14,1.201519346e-13,1.645806794e-13,4.502641883e-13,2.098425805e-13,4.860526594e-13,1.678006437e-13,2.425636203e-13,4.580895779e-13,3.396037069e-13,2.921392077e-13,1.516033153e-13,5.162493329e-13,1.504861856e-13,1.181648967e-13,1.031978359e-13,1.173931697e-12,8.614391546e-13,1.998110827e-13,7.778591161e-13,1.869209049e-12,1.206711822e-12,1.426509845e-12,6.098424727e-13,1.521456299e-14
1.6953,2.127887488e-12,1.434869921e-12,3.209100345e-12,9.159930737e-13,1.224530855e-13,7.049854005e-13,7.828103621e-13,4.011574643e-14,1.156775089e-13,1.572546265e-13,4.216736427e-13,2.079192655e-13,4.666708850e-13,1.647980473e-13,2.356006845e-13,4.623512055e-13,3.453259843e-13,2.885182403e-13,1.444778143e-13,5.125902747e-13,1.502175821e-13,1.127532181e-13,1.053047911e-13,1.181859811e-12,8.607238580e-13,2.023314003e-13,7.842127757e-13,1.865190691e-12,1.214731943e-12,1.432495066e-12,5.934348760e-13,1.451820565e-14
1.7031,2.128524881e-12,1.427289584e-12,3.183658837e-12,8.899766213e-13,1.214447587e-13,6.789629508e-13,7.419310035e-13,3.823625476e-14,1.111413302e-13,1.505977778e-13,3.956506182e-13,2.067193453e-13,4.463291304e-13,1.623235639e-13,2.306761012e-13,4.676972469e-13,3.514126635e-13,2.842736101e-13,1.369632619e-13,5.072489760e-13,1.495894256e-13,1.071920911e-13,1.068526706e-13,1.185909770e-12,8.561323468e-13,2.034781413e-13,7.866525677e-13,1.856761746e-12,1.218399292e-12,1.438361682e-12,5.782066505e-13,1.406762630e-14
1.7109,2.125634240e-12,1.416816056e-12,3.150927432e-12,8.613867307e-13,1.202206708e-13,6.516089215e-13,7.004968250e-13,3.623159899e-14,1.064497575e-13,1.442891924e-13,3.710905697e-13,2.061960718e-13,4.248201202e-13,1.603395186e-13,2.272462777e-13,4.731460481e-13,3.575491512e-13,2.790520135e-13,1.291729533e-13,5.008213346e-13,1.489481337e-13,1.013680979e-13,1.083798675e-13,1.185507942e-12,8.485216100e-13,2.038087406e-13,7.861328058e-13,1.842736141e-12,1.218093008e-12,1.442057171e-12,5.660101824e-13,1.376981820e-14
1.7188,2.113975103e-12,1.401058627e-12,3.108677985e-12,8.298046074e-13,1.188376205e-13,6.232347319e-13,6.579642113e-13,3.423038287e-14,1.017751868e-13,1.385234710e-13,3.483138493e-13,2.068385019e-13,4.028738789e-13,1.589651029e-13,2.250156343e-13,4.780517134e-13,3.641301793e-13,2.734856392e-13,1.215749569e-13,4.932130219e-13,1.479802907e-13,9.578187237e-14,1.099589938e-13,1.179404632e-12,8.366061769e-13,2.031291938e-13,7.819006473e-13,1.820992854e-12,1.213873286e-12,1.440831596e-12,5.574440112e-13,1.371798575e-14
1.7266,2.101863074e-12,1.384355069e-12,3.061842540e-12,7.972076922e-13,1.170738822e-13,5.949446978e-13,6.169144059e-13,3.231320852e-14,9.736712118e-14,1.335192065e-13,3.284535476e-13,2.090661031e-13,3.814641732e-13,1.587875533e-13,2.240670873e-13,4.812496331e-13,3.694935714e-13,2.664678362e-13,1.135815291e-13,4.842259836e-13,1.463091053e-13,9.029895262e-14,1.108998006e-13,1.167983749e-12,8.216494429e-13,2.012191644e-13,7.746244429e-13,1.794881005e-12,1.206290174e-12,1.438687086e-12,5.537932789e-13,1.372706726e-14
1.7344,2.083955820e-12,1.364586615e-12,3.006958283e-12,7.629702358e-13,1.151122794e-13,5.658953347e-13,5.757493232e-13,3.049555206e-14,9.298834595e-14,1.290731118e-13,3.109637085e-13,2.125905446e-13,3.600675133e-13,1.596034465e-13,2.239609035e-13,4.819747651e-13,3.728651236e-13,2.574620434e-13,1.051765130e-13,4.740915972e-13,1.444236227e-13,8.444179145e-14,1.119353904e-13,1.152384787e-12,8.033767258e-13,1.986602909e-13,7.645355682e-13,1.762057118e-12,1.195663882e-12,1.430660107e-12,5.528790274e-13,1.360920124e-14
1.7422,2.062977027e-12,1.342733827e-12,2.946900370e-12,7.274013246e-13,1.127786689e-13,5.372592909e-13,5.371744172e-13,2.888642305e-14,8.863153085e-14,1.254887820e-13,2.963925967e-13,2.170923097e-13,3.392270942e-13,1.610431877e-13,2.240784238e-13,4.800006264e-13,3.745460095e-13,2.473594044e-13,9.685802477e-14,4.632574585e-13,1.428081779e-13,7.880594191e-14,1.127021536e-13,1.135740806e-12,7.840783608e-13,1.954686581e-13,7.527746196e-13,1.728165525e-12,1.181983570e-12,1.422728308e-12,5.538253401e-13,1.355527829e-14
1.75,2.040073878e-12,1.319164205e-12,2.883953713e-12,6.913496232e-13,1.100854831e-13,5.097774676e-13,5.021674586e-13,2.750249671e-14,8.440317831e-14,1.227975990e-13,2.852001628e-13,2.227042931e-13,3.194146406e-13,1.632477939e-13,2.246336466e-13,4.754413074e-13,3.742067969e-13,2.359583983e-13,8.864918829e-14,4.521043704e-13,1.411480406e-13,7.347585128e-14,1.133811223e-13,1.117047331e-12,7.640009425e-13,1.917018216e-13,7.395615314e-13,1.692410132e-12,1.165512457e-12,1.413091668e-12,5.528533390e-13,1.348945367e-14
1.7578,2.007209640e-12,1.290539697e-12,2.814369378e-12,6.545122451e-13,1.073212512e-13,4.829357693e-13,4.686409959e-13,2.622331528e-14,8.034711124e-14,1.206939839e-13,2.773398275e-13,2.300426521e-13,3.006599596e-13,1.666732489e-13,2.260831426e-13,4.687044082e-13,3.720006631e-13,2.235452703e-13,8.067426165e-14,4.405212973e-13,1.392395428e-13,6.834423502e-14,1.148774992e-13,1.095035578e-12,7.420645905e-13,1.878685096e-13,7.247881086e-13,1.651267583e-12,1.146686109e-12,1.396027848e-12,5.472134624e-13,1.345674653e-14
1.7656,1.972609626e-12,1.261189571e-12,2.744107096e-12,6.185039850e-13,1.044334942e-13,4.578953806e-13,4.385399987e-13,2.504543978e-14,7.655550049e-14,1.192528436e-13,2.732889511e-13,2.393075493e-13,2.833187405e-13,1.717194950e-13,2.288939493e-13,4.602568801e-13,3.679407166e-13,2.106172641e-13,7.319116002e-14,4.287540684e-13,1.374487497e-13,6.345000138e-14,1.163784497e-13,1.072376348e-12,7.207337079e-13,1.841072073e-13,7.102767445e-13,1.611284165e-12,1.126069375e-12,1.380729346e-12,5.382298569e-13,1.348823192e-14
1.7734,1.934115855e-12,1.229728186e-12,2.672220558e-12,5.827878185e-13,1.015986368e-13,4.343551096e-13,4.111896364e-13,2.398008451e-14,7.293235694e-14,1.183796459e-13,2.725370551e-13,2.501498238e-13,2.670186812e-13,1.778011561e-13,2.326890193e-13,4.503979692e-13,3.624865772e-13,1.975460628e-13,6.638044871e-14,4.169661537e-13,1.357019612e-13,5.868800523e-14,1.183455146e-13,1.048189244e-12,6.990761013e-13,1.805088602e-13,6.956065346e-13,1.570001872e-12,1.103855659e-12,1.364463213e-12,5.236167476e-13,1.360695337e-14
1.7812,1.889121937e-12,1.194882797e-12,2.597151525e-12,5.470602403e-13,9.887845297e-14,4.122827434e-13,3.864846445e-13,2.300418220e-14,6.952490643e-14,1.178986588e-13,2.741497649e-13,2.624754106e-13,2.521241742e-13,1.847938164e-13,2.370505136e-13,4.395192964e-13,3.563660724e-13,1.853576817e-13,6.036761199e-14,4.050829180e-13,1.340881249e-13,5.444782720e-14,1.211508493e-13,1.023042375e-12,6.779727880e-13,1.773840526e-13,6.813560625e-13,1.528478758e-12,1.080941139e-12,1.348050096e-12,5.038853071e-13,1.402290302e-14
1.7891,1.843272310e-12,1.159717833e-12,2.522879385e-12,5.124601540e-13,9.623546073e-14,3.922872960e-13,3.650243418e-13,2.214034372e-14,6.640402721e-14,1.175972249e-13,2.777236953e-13,2.758277115e-13,2.391720483e-13,1.931117887e-13,2.427361389e-13,4.287735546e-13,3.499698902e-13,1.745153842e-13,5.528280992e-14,3.936939836e-13,1.330269550e-13,5.080502653e-14,1.248135457e-13,9.988268966e-13,6.597173658e-13,1.751333891e-13,6.693966520e-13,1.490232456e-12,1.058906601e-12,1.336383260e-12,4.812933396e-13,1.468046289e-14
